SpectraSuite Data File
++++++++++++++++++++++++++++++++++++
Date: Fri Oct 25 11:25:55 EDT 2013
User: price-jones
Dark Spectrum Present: No
Reference Spectrum Present: No
Number of Sampled Component Spectra: 1
Spectrometers: USB2+H05261
Integration Time (usec): 100000 (USB2+H05261)
Spectra Averaged: 1 (USB2+H05261)
Boxcar Smoothing: 0 (USB2+H05261)
Correct for Electrical Dark: No (USB2+H05261)
Strobe/Lamp Enabled: No (USB2+H05261)
Correct for Detector Non-linearity: No (USB2+H05261)
Correct for Stray Light: No (USB2+H05261)
Number of Pixels in Processed Spectrum: 2048
>>>>>Begin Processed Spectral Data<<<<<
365.73	269.16
365.92	269.16
366.12	269.16
366.32	149.79
366.52	102.98
366.72	229.37
366.91	128.73
367.11	166.18
367.31	182.56
367.51	138.09
367.70	159.16
367.90	121.71
368.10	124.05
368.30	259.80
368.49	154.48
368.69	177.88
368.89	152.13
369.09	119.37
369.28	154.48
369.48	133.41
369.68	180.22
369.87	259.80
370.07	201.29
370.27	191.92
370.47	297.25
370.66	580.45
370.86	662.37
371.06	664.71
371.25	716.20
371.45	713.86
371.65	734.93
371.84	692.80
372.04	622.58
372.24	723.23
372.44	697.48
372.63	823.87
372.83	763.01
373.03	713.86
373.22	772.38
373.42	774.72
373.62	805.14
373.81	744.29
374.01	751.31
374.21	903.45
374.40	814.51
374.60	851.96
374.79	830.89
374.99	823.87
375.19	847.27
375.38	905.79
375.58	851.96
375.78	807.48
375.97	917.49
376.17	971.32
376.37	793.44
376.56	877.70
376.76	856.64
376.95	912.81
377.15	919.83
377.35	840.25
377.54	884.72
377.74	901.11
377.93	940.90
378.13	896.43
378.33	887.06
378.52	887.06
378.72	983.02
378.91	908.13
379.11	973.66
379.31	964.30
379.50	985.37
379.70	924.51
379.89	992.39
380.09	952.60
380.28	976.00
380.48	1050.90
380.68	1029.84
380.87	933.87
381.07	1029.84
381.26	1053.24
381.46	1109.41
381.65	1053.24
381.85	1067.28
382.04	992.39
382.24	1064.94
382.43	978.34
382.63	945.58
382.83	971.32
383.02	1060.26
383.22	1196.01
383.41	1036.86
383.61	1086.01
383.80	1090.69
384.00	1144.52
384.19	1177.29
384.39	1135.16
384.58	1128.14
384.78	1156.22
384.97	1093.03
385.17	1193.67
385.36	1205.38
385.56	1137.50
385.75	1102.39
385.95	1174.95
386.14	1256.87
386.34	1181.97
386.53	1228.78
386.72	1233.46
386.92	1240.48
387.11	1263.89
387.31	1268.57
387.50	1217.08
387.70	1181.97
387.89	1249.85
388.09	1327.08
388.28	1350.49
388.48	1310.70
388.67	1341.13
388.86	1296.66
389.06	1329.42
389.25	1287.29
389.45	1352.83
389.64	1364.53
389.84	1385.60
390.03	1418.36
390.22	1406.66
390.42	1409.00
390.61	1439.43
390.81	1371.55
391.00	1483.90
391.19	1488.58
391.39	1467.52
391.58	1528.37
391.78	1451.13
391.97	1394.96
392.16	1467.52
392.36	1481.56
392.55	1385.60
392.75	1582.20
392.94	1490.92
393.13	1570.50
393.33	1434.75
393.52	1446.45
393.71	1570.50
393.91	1598.59
394.10	1582.20
394.29	1593.90
394.49	1591.56
394.68	1584.54
394.88	1591.56
395.07	1589.22
395.26	1542.41
395.46	1614.97
395.65	1533.05
395.84	1771.79
396.04	1778.81
396.23	1720.29
396.42	1734.34
396.62	1762.42
396.81	1804.55
397.00	1774.13
397.19	1689.87
397.39	1755.40
397.58	1715.61
397.77	1849.02
397.97	1884.13
398.16	1813.92
398.35	1893.49
398.55	1877.11
398.74	1860.73
398.93	1973.07
399.12	1966.05
399.32	1886.47
399.51	2052.65
399.70	2040.95
399.90	2001.16
400.09	2069.03
400.28	2071.37
400.47	1919.24
400.67	1998.82
400.86	2132.23
401.05	2036.27
401.24	2111.16
401.44	2139.25
401.63	2202.44
401.82	2193.08
402.01	2202.44
402.21	2139.25
402.40	2040.95
402.59	2134.57
402.78	2214.15
402.97	2153.29
403.17	2207.13
403.36	2298.41
403.55	2253.94
403.74	2289.04
403.93	2342.88
404.13	2366.28
404.32	2296.07
404.51	2434.16
404.70	2312.45
404.89	2438.84
405.09	2413.09
405.28	2434.16
405.47	2429.48
405.66	2436.50
405.85	2485.65
406.05	2469.27
406.24	2572.25
406.43	2567.57
406.62	2572.25
406.81	2684.59
407.00	2558.21
407.20	2541.82
407.39	2511.39
407.58	2726.72
407.77	2780.56
407.96	2773.53
408.15	2871.84
408.34	2799.28
408.54	2789.92
408.73	2827.37
408.92	2724.38
409.11	2885.88
409.30	2906.95
409.49	2920.99
409.68	2909.29
409.87	2883.54
410.07	3005.25
410.26	3157.38
410.45	2981.84
410.64	3061.42
410.83	3033.33
411.02	3108.23
411.21	3155.04
411.40	3159.72
411.59	3302.50
411.78	3213.56
411.98	3180.79
412.17	3222.92
412.36	3328.24
412.55	3267.39
412.74	3335.26
412.93	3393.78
413.12	3351.65
413.31	3426.54
413.50	3433.57
413.69	3487.40
413.88	3604.42
414.07	3583.36
414.26	3688.68
414.45	3543.57
414.64	3620.81
414.83	3691.02
415.02	3763.58
415.22	3892.31
415.41	3840.82
415.60	3887.63
415.79	3918.06
415.98	3969.55
416.17	3885.29
416.36	4072.53
416.55	4051.47
416.74	4049.13
416.93	4067.85
417.12	4117.00
417.31	4091.26
417.50	4189.56
417.69	4327.65
417.88	4205.94
418.07	4379.14
418.26	4044.45
418.45	4386.16
418.64	4465.74
418.83	4379.14
419.02	4437.66
419.21	4554.68
419.39	4519.57
419.58	4526.60
419.77	4332.33
419.96	4601.49
420.15	4690.43
420.34	4573.41
420.53	4643.62
420.72	4755.97
420.91	4704.48
421.10	4627.24
421.29	4828.53
421.48	4690.43
421.67	4812.14
421.86	4840.23
422.05	4767.67
422.24	4704.48
422.43	4805.12
422.61	4734.90
422.80	4908.10
422.99	4779.37
423.18	4854.27
423.37	4919.81
423.56	4943.21
423.75	4952.57
423.94	4915.12
424.13	4636.60
424.32	4772.35
424.50	5032.15
424.69	5114.07
424.88	5107.05
425.07	5060.24
425.26	4870.65
425.45	4940.87
425.64	4954.91
425.83	4999.38
426.01	4945.55
426.20	4952.57
426.39	5013.43
426.58	4990.02
426.77	5053.22
426.96	5121.09
427.15	5252.16
427.33	5287.27
427.52	5114.07
427.71	5387.91
427.90	5165.56
428.09	5186.63
428.28	5416.00
428.46	5263.86
428.65	5327.06
428.84	5479.19
429.03	5460.47
429.22	5315.36
429.40	5451.11
429.59	5631.33
429.78	5280.25
429.97	5270.89
430.16	5369.19
430.34	5659.42
430.53	5645.37
430.72	5542.39
430.91	5542.39
431.10	5621.97
431.28	5823.25
431.47	5771.76
431.66	5748.36
431.85	5755.38
432.03	5884.11
432.22	5895.81
432.41	5891.13
432.60	5856.02
432.79	5867.72
432.97	5914.53
433.16	5956.66
433.35	5982.41
433.54	5968.37
433.72	6230.51
433.91	5973.05
434.10	6169.65
434.28	5907.51
434.47	6204.76
434.66	6143.91
434.85	6153.27
435.03	6282.00
435.22	6190.72
435.41	6324.13
435.59	6452.86
435.78	6394.34
435.97	6455.20
436.16	6197.74
436.34	6392.00
436.53	6504.35
436.72	6707.98
436.90	6502.01
437.09	6588.61
437.28	6480.94
437.46	6633.08
437.65	6656.48
437.84	6855.43
438.02	6778.19
438.21	6700.95
438.40	6696.27
438.58	6869.47
438.77	6927.99
438.96	6932.67
439.14	7075.44
439.33	7040.33
439.52	7269.70
439.70	7293.11
439.89	7328.22
440.08	7159.70
440.26	7351.62
440.45	7368.01
440.63	7452.27
440.82	7620.78
441.01	7585.68
441.19	7632.49
441.38	7735.47
441.57	7723.77
441.75	7817.39
441.94	7950.80
442.12	7843.14
442.31	7969.52
442.50	7936.76
442.68	7976.55
442.87	7932.08
443.05	8098.25
443.24	8086.55
443.43	8093.57
443.61	8280.82
443.80	8547.64
443.98	7786.96
444.17	7632.49
444.35	8175.49
444.54	8360.39
444.73	8311.24
444.91	8229.32
445.10	8355.71
445.28	8484.44
445.47	8126.34
445.65	8468.06
445.84	8491.46
446.02	8271.45
446.21	8318.26
446.39	8510.19
446.58	8561.68
446.77	8547.64
446.95	8280.82
447.14	8379.12
447.32	8395.50
447.51	8285.50
447.69	8439.97
447.88	8437.63
448.06	8390.82
448.25	8613.17
448.43	8564.02
448.62	8657.64
448.80	8519.55
448.99	8486.78
449.17	8613.17
449.36	8615.51
449.54	8739.56
449.73	9078.94
449.91	9013.40
450.10	8884.67
450.28	9193.62
450.46	9114.05
450.65	9069.58
450.83	8978.30
451.02	8985.32
451.20	9046.17
451.39	9343.42
451.57	9100.00
451.76	9083.62
451.94	9193.62
452.13	9261.50
452.31	9202.99
452.49	9060.21
452.68	9149.15
452.86	9383.21
453.05	9544.70
453.23	9547.05
453.42	9146.81
453.60	9366.82
453.78	9563.43
453.97	9647.69
454.15	9329.38
454.34	9294.27
454.52	9692.16
454.70	9376.19
454.89	9720.24
455.07	9596.20
455.26	9621.94
455.44	9958.98
455.62	9884.08
455.81	9827.91
455.99	9867.70
456.17	9970.68
456.36	9907.49
456.54	10174.31
456.73	10186.01
456.91	10415.38
457.09	10270.27
457.28	10310.06
457.46	10223.46
457.64	10399.00
457.83	10408.36
458.01	10092.39
458.19	10672.84
458.38	10373.25
458.56	10799.23
458.74	10642.42
458.93	10623.69
459.11	10471.56
459.29	10635.39
459.48	10691.57
459.66	10583.90
459.84	10897.53
460.03	10920.94
460.21	10876.47
460.39	11124.57
460.57	10984.13
460.76	11049.67
460.94	11222.87
461.12	11262.66
461.31	11293.08
461.49	10916.26
461.67	11129.25
461.85	11267.34
462.04	11267.34
462.22	11616.08
462.40	11487.35
462.59	11419.47
462.77	11405.43
462.95	11445.22
463.13	11417.13
463.32	11545.86
463.50	11861.84
463.68	11726.08
463.86	11716.72
464.05	11590.33
464.23	11496.71
464.41	11880.56
464.59	11634.80
464.78	12070.14
464.96	12042.06
465.14	11824.39
465.32	12025.67
465.50	11967.16
465.69	12142.70
465.87	12166.10
466.05	12107.59
466.23	12135.68
466.41	12266.75
466.60	12575.70
466.78	11999.93
466.96	12212.92
467.14	12093.55
467.32	12100.57
467.51	12276.11
467.69	12149.72
467.87	12233.98
468.05	12519.53
468.23	12339.30
468.41	12430.59
468.60	12725.49
468.78	12645.91
468.96	12475.06
469.14	12697.41
469.32	13116.36
469.50	12627.19
469.69	12971.25
469.87	12828.48
470.05	13022.74
470.23	13256.79
470.41	13102.32
470.59	13399.57
470.77	12929.12
470.95	13184.24
471.14	13355.10
471.32	13069.55
471.50	13415.95
471.68	13422.97
471.86	13722.56
472.04	13586.81
472.22	14061.94
472.40	13858.31
472.58	13839.59
472.77	14026.83
472.95	14038.53
473.13	14691.54
473.31	13994.06
473.49	14061.94
473.67	13930.87
473.85	14312.38
474.03	14581.54
474.21	14663.46
474.39	14647.07
474.57	14834.32
474.75	14902.19
474.93	14939.64
475.12	14810.91
475.30	15105.82
475.48	15047.30
475.66	15101.14
475.84	14836.66
476.02	15318.81
476.20	15440.51
476.38	15597.33
476.56	15953.09
476.74	15915.64
476.92	15735.42
477.10	15683.93
477.28	16058.42
477.46	15962.45
477.64	16264.38
477.82	16610.78
478.00	16915.05
478.18	16643.55
478.36	16945.48
478.54	17392.52
478.72	17081.23
478.90	17406.56
479.08	17273.15
479.26	17635.94
479.44	17523.59
479.62	17799.77
479.80	17860.63
479.98	17970.63
480.16	18539.38
480.34	18127.45
480.52	18593.22
480.70	18534.70
480.88	18314.69
481.06	18565.13
481.24	18895.14
481.41	19007.49
481.59	19403.04
481.77	19271.97
481.95	19353.89
482.13	19391.34
482.31	19707.31
482.49	20409.47
482.67	20107.54
482.85	20219.89
483.03	20676.29
483.21	20444.58
483.39	20645.87
483.57	21001.63
483.74	21015.67
483.92	21200.57
484.10	21057.80
484.28	21507.18
484.46	21682.72
484.64	22061.89
484.82	21811.45
485.00	22518.29
485.18	22403.61
485.35	22686.81
485.53	22649.36
485.71	22860.01
485.89	23531.75
486.07	23248.54
486.25	23424.08
486.43	23529.41
486.61	23578.56
486.78	23786.86
486.96	24072.41
487.14	24313.48
487.32	24577.97
487.50	24350.93
487.68	24739.46
487.85	25242.68
488.03	25408.86
488.21	25680.36
488.39	25764.62
488.57	25982.29
488.75	26026.76
488.92	26497.20
489.10	26307.62
489.28	26759.34
489.46	27110.43
489.64	26796.79
489.81	27552.79
489.99	27529.38
490.17	27630.02
490.35	28060.68
490.53	27983.44
490.70	27880.46
490.88	28233.88
491.06	28655.18
491.24	28687.95
491.41	29041.37
491.59	28891.57
491.77	29010.94
491.95	29284.78
492.13	29610.12
492.30	30087.59
492.48	30228.02
492.66	30181.21
492.84	30176.53
493.01	30754.64
493.19	30405.90
493.37	30710.17
493.54	31068.27
493.72	31564.46
493.90	31138.49
494.08	31285.94
494.25	32123.85
494.43	31824.26
494.61	31964.70
494.79	32257.26
494.96	32329.82
495.14	32861.12
495.32	33256.67
495.49	33294.12
495.67	32996.87
495.85	33570.30
496.02	33319.87
496.20	33387.74
496.38	33745.84
496.55	34127.35
496.73	34653.97
496.91	34693.76
497.09	34487.79
497.26	34515.88
497.44	34656.31
497.62	34969.94
497.79	35526.99
497.97	35377.20
498.14	36086.38
498.32	35824.24
498.50	36151.91
498.67	36177.66
498.85	36322.77
499.03	36645.77
499.20	36329.80
499.38	36444.48
499.56	36982.80
499.73	36919.61
499.91	37092.81
500.08	37345.59
500.26	37024.93
500.44	37443.89
500.61	37890.93
500.79	37670.92
500.97	38036.05
501.14	38143.71
501.32	38691.40
501.49	38611.82
501.67	38710.12
501.84	38789.70
502.02	38700.76
502.20	38888.00
502.37	39070.56
502.55	38623.52
502.72	39613.57
502.90	39274.19
503.07	39571.44
503.25	39831.24
503.43	39108.01
503.60	39871.03
503.78	40055.93
503.95	39969.33
504.13	40402.33
504.30	40634.04
504.48	40149.55
504.65	40561.48
504.83	40823.62
505.01	41216.83
505.18	41158.32
505.36	41914.31
505.53	40727.66
505.71	41373.65
505.88	41284.71
506.06	41453.23
506.23	41958.78
506.41	42005.59
506.58	41546.85
506.76	41897.93
506.93	42389.44
507.11	42307.52
507.28	42335.61
507.46	42611.79
507.63	42569.66
507.81	42869.25
507.98	42967.55
508.16	42684.35
508.33	43166.50
508.50	43430.98
508.68	43105.65
508.85	43810.15
509.03	43627.59
509.20	43761.00
509.38	44091.01
509.55	44362.51
509.73	44219.74
509.90	44357.83
510.08	44154.21
510.25	44500.61
510.42	44587.21
510.60	44779.13
510.77	45258.94
510.95	45181.70
511.12	45064.67
511.30	45003.82
511.47	45301.07
511.64	45404.05
511.82	45900.25
511.99	45184.04
512.17	45855.78
512.34	45528.10
512.51	45979.82
512.69	46473.68
512.86	45951.74
513.04	46609.43
513.21	46618.79
513.38	46492.40
513.56	46883.27
513.73	46593.04
513.90	46609.43
514.08	46527.51
514.25	47274.14
514.43	47224.99
514.60	46976.89
514.77	47178.18
514.95	47641.60
515.12	46916.04
515.29	47229.67
515.47	47419.25
515.64	47885.02
515.81	47379.46
515.99	47646.29
516.16	48133.12
516.33	47674.37
516.51	48392.92
516.68	48406.96
516.85	48404.62
517.03	48633.99
517.20	48685.48
517.37	48208.01
517.54	48762.72
517.72	48928.90
517.89	49031.88
518.06	49099.76
518.24	48996.77
518.41	48846.98
518.58	49528.08
518.75	49301.04
518.93	49490.63
519.10	49542.12
519.27	49581.91
519.45	49652.12
519.62	49764.47
519.79	49811.28
519.96	49659.15
520.14	50052.36
520.31	50358.97
520.48	49801.92
520.65	50497.06
520.83	50845.80
521.00	50759.20
521.17	50394.07
521.34	50330.88
521.52	50391.73
521.69	50639.83
521.86	50974.53
522.03	50848.14
522.20	51030.70
522.38	50817.71
522.55	51271.78
522.72	51377.10
522.89	51075.17
523.07	51384.12
523.24	51302.20
523.41	51608.81
523.58	51356.03
523.75	51592.43
523.92	51503.49
524.10	51826.48
524.27	51732.86
524.44	51838.18
524.61	51894.36
524.78	52243.10
524.96	51920.10
525.13	52346.08
525.30	52788.44
525.47	52343.74
525.64	52280.55
525.81	52428.00
525.98	52378.85
526.16	52079.26
526.33	52343.74
526.50	52945.26
526.67	52743.97
526.84	52846.96
527.01	52788.44
527.18	52811.85
527.36	53024.84
527.53	52781.42
527.70	53038.88
527.87	53364.21
528.04	53095.05
528.21	53286.98
528.38	53399.32
528.55	53183.99
528.72	53488.26
528.89	53408.68
529.07	53373.58
529.24	53422.73
529.41	53460.18
529.58	53499.97
529.75	53446.13
529.92	53979.78
530.09	53712.95
530.26	53483.58
530.43	53897.86
530.60	53570.18
530.77	53848.71
530.94	54045.31
531.11	53883.81
531.28	54068.72
531.46	54251.28
531.63	53937.65
531.80	54223.19
531.97	54323.83
532.14	54262.98
532.31	54351.92
532.48	54508.74
532.65	54415.11
532.82	54424.48
532.99	54602.36
533.16	54461.93
533.33	54639.81
533.50	54845.77
533.67	54707.68
533.84	54595.34
534.01	54593.00
534.18	54979.18
534.35	55093.87
534.52	54969.82
534.69	55166.43
534.86	54983.86
535.03	55171.11
535.20	54967.48
535.37	55339.63
535.54	55189.83
535.71	55112.59
535.88	55337.29
536.05	55341.97
536.22	55388.78
536.38	55470.70
536.55	55587.72
536.72	55498.78
536.89	55522.19
537.06	55238.98
537.23	55721.13
537.40	55409.84
537.57	55650.92
537.74	55662.62
537.91	55796.03
538.08	55781.99
538.25	55646.24
538.42	55779.65
538.59	55929.44
538.75	55884.97
538.92	55889.65
539.09	56067.53
539.26	56144.77
539.43	56161.15
539.60	56247.75
539.77	56081.58
539.94	56317.97
540.11	55927.10
540.28	56332.01
540.44	56303.93
540.61	56343.72
540.78	56097.96
540.95	56310.95
541.12	56196.26
541.29	56364.78
541.46	56383.51
541.62	56423.29
541.79	56549.68
541.96	56210.31
542.13	56402.23
542.30	56332.01
542.47	56725.22
542.63	56594.15
542.80	56905.44
542.97	57001.41
543.14	56884.38
543.31	56858.63
543.48	56919.49
543.64	57111.41
543.81	57127.80
543.98	57261.21
544.15	56931.19
544.32	57401.64
544.48	57574.84
544.65	57389.94
544.82	57441.43
544.99	57301.00
545.16	57432.07
545.32	57382.91
545.49	57551.43
545.66	57738.68
545.83	57483.56
546.00	57565.48
546.16	57347.81
546.33	57579.52
546.50	57312.70
546.67	57612.29
546.83	57237.80
547.00	57705.91
547.17	57574.84
547.34	57626.33
547.50	57771.44
547.67	57949.32
547.84	57984.43
548.00	58085.07
548.17	58019.54
548.34	58061.67
548.51	58005.50
548.67	58047.63
548.84	57937.62
549.01	57956.35
549.18	57860.38
549.34	58166.99
549.51	58075.71
549.68	58096.78
549.84	58176.36
550.01	58387.00
550.18	58162.31
550.34	58422.11
550.51	58220.83
550.68	58286.36
550.84	58143.59
551.01	58487.65
551.18	58391.68
551.34	58026.56
551.51	58436.16
551.68	58653.82
551.84	58412.75
552.01	58424.45
552.18	58447.86
552.34	58499.35
552.51	58782.55
552.68	58419.77
552.84	58700.64
553.01	58817.66
553.18	58773.19
553.34	58759.15
553.51	58614.04
553.67	58883.20
553.84	58850.43
554.01	59025.97
554.17	58798.94
554.34	58904.26
554.51	58976.82
554.67	58913.62
554.84	58740.42
555.00	58880.86
555.17	59009.59
555.33	59047.04
555.50	59072.78
555.67	58948.73
555.83	59107.89
556.00	59044.69
556.16	59245.98
556.33	59388.75
556.50	59070.44
556.66	59213.21
556.83	59068.10
556.99	59348.96
557.16	59451.95
557.32	59248.32
557.49	59564.29
557.65	59341.94
557.82	59276.41
557.98	59231.94
558.15	59112.57
558.32	59278.75
558.48	59402.80
558.65	59363.01
558.81	59594.72
558.98	59407.48
559.14	59580.68
559.31	59601.74
559.47	59564.29
559.64	59386.41
559.80	59480.03
559.97	59599.40
560.13	59437.90
560.30	59526.84
560.46	59510.46
560.63	59681.32
560.79	59674.30
560.96	59849.84
561.12	59765.58
561.29	59655.57
561.45	59547.91
561.61	59503.44
561.78	59739.83
561.94	59618.13
562.11	59723.45
562.27	59788.98
562.44	59728.13
562.60	60053.47
562.77	59898.99
562.93	59641.53
563.10	59971.55
563.26	59973.89
563.42	59803.03
563.59	59927.08
563.75	60023.04
563.92	59777.28
564.08	59882.61
564.24	59987.93
564.41	60313.26
564.57	59934.10
564.74	60135.38
564.90	60177.51
565.07	60023.04
565.23	59835.80
565.39	60161.13
565.56	60268.79
565.72	60175.17
565.88	60168.15
566.05	59898.99
566.21	59955.16
566.38	60142.41
566.54	60371.78
566.70	60133.04
566.87	60217.30
567.03	59906.01
567.19	60336.67
567.36	60177.51
567.52	60144.75
567.68	60563.70
567.85	60226.66
568.01	60250.07
568.17	60226.66
568.34	60282.84
568.50	60182.19
568.66	60224.32
568.83	60186.88
568.99	60205.60
569.15	60343.69
569.32	60322.63
569.48	60357.74
569.64	60456.04
569.81	60306.24
569.97	60060.49
570.13	60229.01
570.30	60261.77
570.46	60353.05
570.62	60348.37
570.78	60289.86
570.95	60275.82
571.11	60467.74
571.27	60502.85
571.43	60411.57
571.60	60502.85
571.76	60514.55
571.92	60713.50
572.09	60535.62
572.25	60385.82
572.41	60526.25
572.57	60566.04
572.74	60617.53
572.90	60411.57
573.06	60523.91
573.22	60395.18
573.38	60687.75
573.55	60346.03
573.71	60753.29
573.87	60533.28
574.03	60537.96
574.20	60397.52
574.36	60615.19
574.52	60479.44
574.68	60757.97
574.84	60842.23
575.01	60701.79
575.17	60591.79
575.33	60409.23
575.49	60624.56
575.65	60640.94
575.82	60577.75
575.98	60685.41
576.14	60928.83
576.30	60598.81
576.46	60479.44
576.62	60568.38
576.79	60528.59
576.95	60554.34
577.11	60741.58
577.27	60839.89
577.43	60631.58
577.59	60748.60
577.75	60556.68
577.92	60690.09
578.08	60669.03
578.24	60800.10
578.40	60844.57
578.56	60924.14
578.72	60638.60
578.88	60764.99
579.04	60879.67
579.21	60762.65
579.37	60687.75
579.53	60884.36
579.69	60561.36
579.85	60568.38
580.01	60713.50
580.17	60706.47
580.33	60879.67
580.49	60914.78
580.65	60748.60
580.82	60741.58
580.98	60629.24
581.14	60678.39
581.30	60921.80
581.46	60715.84
581.62	60800.10
581.78	60580.09
581.94	60779.03
582.10	61059.90
582.26	60905.42
582.42	60835.20
582.58	60767.33
582.74	60776.69
582.90	60844.57
583.06	60762.65
583.22	60858.61
583.38	60676.05
583.54	60989.68
583.70	60790.73
583.86	60767.33
584.02	60818.82
584.18	60858.61
584.34	60872.65
584.50	60680.73
584.66	60718.18
584.82	60711.16
584.98	60830.52
585.14	60830.52
585.30	60757.97
585.46	60870.31
585.62	60795.42
585.78	60992.02
585.94	61076.28
586.10	60977.98
586.26	61027.13
586.42	60942.87
586.58	60966.27
586.74	60966.27
586.90	60959.25
587.06	61003.72
587.22	61036.49
587.38	60884.36
587.54	60842.23
587.70	61073.94
587.86	60935.85
588.02	60931.17
588.18	61066.92
588.34	60903.08
588.49	60999.04
