SpectraSuite Data File
++++++++++++++++++++++++++++++++++++
Date: Fri Oct 25 11:26:36 EDT 2013
User: price-jones
Dark Spectrum Present: No
Reference Spectrum Present: No
Number of Sampled Component Spectra: 1
Spectrometers: USB2+H05261
Integration Time (usec): 100000 (USB2+H05261)
Spectra Averaged: 1 (USB2+H05261)
Boxcar Smoothing: 0 (USB2+H05261)
Correct for Electrical Dark: No (USB2+H05261)
Strobe/Lamp Enabled: No (USB2+H05261)
Correct for Detector Non-linearity: No (USB2+H05261)
Correct for Stray Light: No (USB2+H05261)
Number of Pixels in Processed Spectrum: 2048
>>>>>Begin Processed Spectral Data<<<<<
365.73	182.56
365.92	182.56
366.12	182.56
366.32	170.86
366.52	152.13
366.72	168.52
366.91	187.24
367.11	189.58
367.31	133.41
367.51	184.90
367.70	189.58
367.90	180.22
368.10	149.79
368.30	110.01
368.49	138.09
368.69	173.20
368.89	159.16
369.09	173.20
369.28	156.82
369.48	140.43
369.68	220.01
369.87	245.76
370.07	255.12
370.27	262.14
370.47	325.33
370.66	594.50
370.86	645.99
371.06	784.08
371.25	713.86
371.45	690.46
371.65	676.41
371.84	648.33
372.04	734.93
372.24	655.35
372.44	713.86
372.63	795.78
372.83	741.95
373.03	772.38
373.22	739.61
373.42	709.18
373.62	844.93
373.81	851.96
374.01	744.29
374.21	889.40
374.40	784.08
374.60	758.33
374.79	877.70
374.99	851.96
375.19	861.32
375.38	844.93
375.58	812.17
375.78	866.00
375.97	891.74
376.17	903.45
376.37	840.25
376.56	842.59
376.76	880.04
376.95	856.64
377.15	863.66
377.35	938.55
377.54	926.85
377.74	903.45
377.93	894.08
378.13	947.92
378.33	966.64
378.52	987.71
378.72	908.13
378.91	978.34
379.11	985.37
379.31	945.58
379.50	926.85
379.70	1083.67
379.89	990.05
380.09	978.34
380.28	966.64
380.48	912.81
380.68	1013.45
380.87	1027.50
381.07	1100.05
381.26	1097.71
381.46	1039.20
381.65	1121.12
381.85	1156.22
382.04	1055.58
382.24	1093.03
382.43	1043.88
382.63	1067.28
382.83	992.39
383.02	1132.82
383.22	1097.71
383.41	1102.39
383.61	1088.35
383.80	1212.40
384.00	1104.73
384.19	1097.71
384.39	1174.95
384.58	1184.31
384.78	1093.03
384.97	1273.25
385.17	1181.97
385.36	1114.10
385.56	1217.08
385.75	1165.59
385.95	1224.10
386.14	1109.41
386.34	1249.85
386.53	1214.74
386.72	1254.53
386.92	1324.74
387.11	1280.27
387.31	1284.95
387.50	1254.53
387.70	1266.23
387.89	1268.57
388.09	1266.23
388.28	1240.48
388.48	1217.08
388.67	1301.34
388.86	1327.08
389.06	1317.72
389.25	1397.30
389.45	1493.26
389.64	1458.15
389.84	1359.85
390.03	1458.15
390.22	1434.75
390.42	1437.09
390.61	1444.11
390.81	1369.21
391.00	1362.19
391.19	1465.18
391.39	1448.79
391.58	1455.81
391.78	1528.37
391.97	1514.33
392.16	1418.36
392.36	1441.77
392.55	1547.09
392.75	1629.01
392.94	1418.36
393.13	1469.86
393.33	1516.67
393.52	1621.99
393.71	1675.82
393.91	1603.27
394.10	1537.73
394.29	1607.95
394.49	1544.75
394.68	1528.37
394.88	1689.87
395.07	1614.97
395.26	1724.97
395.46	1661.78
395.65	1631.35
395.84	1617.31
396.04	1727.32
396.23	1781.15
396.42	1729.66
396.62	1785.83
396.81	1802.21
397.00	1811.57
397.19	1795.19
397.39	1795.19
397.58	1708.59
397.77	1816.26
397.97	1846.68
398.16	1886.47
398.35	1891.15
398.55	1867.75
398.74	1900.52
398.93	1900.52
399.12	1982.43
399.32	1970.73
399.51	2010.52
399.70	1963.71
399.90	2008.18
400.09	1987.11
400.28	2005.84
400.47	2050.31
400.67	2160.31
400.86	2165.00
401.05	2087.76
401.24	2125.21
401.44	2150.95
401.63	2202.44
401.82	2260.96
402.01	2132.23
402.21	2202.44
402.40	2223.51
402.59	2129.89
402.78	2249.25
402.97	2230.53
403.17	2319.47
403.36	2209.47
403.55	2293.72
403.74	2380.32
403.93	2363.94
404.13	2403.73
404.32	2331.17
404.51	2401.39
404.70	2459.90
404.89	2445.86
405.09	2342.88
405.28	2434.16
405.47	2593.31
405.66	2516.08
405.85	2658.85
406.05	2626.08
406.24	2626.08
406.43	2530.12
406.62	2726.72
406.81	2724.38
407.00	2595.65
407.20	2628.42
407.39	2593.31
407.58	2785.24
407.77	2668.21
407.96	2864.82
408.15	2848.43
408.34	2843.75
408.54	2752.47
408.73	2839.07
408.92	2810.98
409.11	2904.60
409.30	2862.48
409.49	2967.80
409.68	2939.71
409.87	2904.60
410.07	3068.44
410.26	3016.95
410.45	2984.18
410.64	2949.08
410.83	3056.74
411.02	3042.70
411.21	3190.15
411.40	3122.27
411.59	3185.47
411.78	3098.87
411.98	3251.00
412.17	3386.76
412.36	3283.77
412.55	3349.31
412.74	3368.03
412.93	3398.46
413.12	3412.50
413.31	3597.40
413.50	3405.48
413.69	3534.21
413.88	3581.02
414.07	3613.79
414.26	3574.00
414.45	3653.58
414.64	3674.64
414.83	3779.97
415.02	3700.39
415.22	3744.86
415.41	3969.55
415.60	3936.78
415.79	3782.31
415.98	4002.32
416.17	3960.19
416.36	3983.59
416.55	3983.59
416.74	4159.13
416.93	4044.45
417.12	4208.28
417.31	4163.81
417.50	4086.58
417.69	4294.88
417.88	4224.67
418.07	4229.35
418.26	4292.54
418.45	4395.53
418.64	4402.55
418.83	4301.90
419.02	4353.40
419.21	4524.26
419.39	4489.15
419.58	4533.62
419.77	4552.34
419.96	4524.26
420.15	4648.30
420.34	4734.90
420.53	4606.17
420.72	4842.57
420.91	4774.69
421.10	4901.08
421.29	4765.33
421.48	4849.59
421.67	4863.63
421.86	4844.91
422.05	4915.12
422.24	4868.31
422.43	4933.85
422.61	4990.02
422.80	4985.34
422.99	4880.02
423.18	4990.02
423.37	4961.94
423.56	5027.47
423.75	5102.37
423.94	4819.16
424.13	4711.50
424.32	4814.48
424.50	5142.16
424.69	5212.37
424.88	5116.41
425.07	5055.56
425.26	4894.06
425.45	5029.81
425.64	5137.48
425.83	4936.19
426.01	5158.54
426.20	5093.01
426.39	5046.20
426.58	5013.43
426.77	5048.54
426.96	5027.47
427.15	5027.47
427.33	5195.99
427.52	5203.01
427.71	5261.52
427.90	5142.16
428.09	5277.91
428.28	5315.36
428.46	5451.11
428.65	5390.25
428.84	5448.77
429.03	5603.24
429.22	5195.99
429.40	5453.45
429.59	5451.11
429.78	5242.80
429.97	5476.85
430.16	5317.70
430.34	5561.11
430.53	5694.52
430.72	5741.33
430.91	5675.80
431.10	5509.62
431.28	5797.51
431.47	5689.84
431.66	5900.49
431.85	5806.87
432.03	5863.04
432.22	6171.99
432.41	5863.04
432.60	5860.70
432.79	5884.11
432.97	5930.92
433.16	5991.77
433.35	6003.47
433.54	6015.18
433.72	6136.88
433.91	6022.20
434.10	6179.01
434.28	6148.59
434.47	6160.29
434.66	6317.11
434.85	6368.60
435.03	6382.64
435.22	6291.36
435.41	6665.85
435.59	6448.18
435.78	6303.06
435.97	6518.39
436.16	6490.31
436.34	6516.05
436.53	6342.85
436.72	6677.55
436.90	6450.52
437.09	6789.89
437.28	6523.07
437.46	6651.80
437.65	6612.01
437.84	6794.58
438.02	6813.30
438.21	6792.23
438.40	6633.08
438.58	7056.72
438.77	7030.97
438.96	6991.18
439.14	7098.84
439.33	7206.51
439.52	7353.96
439.70	7232.26
439.89	7475.67
440.08	7283.75
440.26	7428.86
440.45	7435.88
440.63	7417.16
440.82	7581.00
441.01	7618.44
441.19	7641.85
441.38	7784.62
441.57	7602.06
441.75	7784.62
441.94	8161.45
442.12	7997.61
442.31	8077.19
442.50	7819.73
442.68	8072.51
442.87	8107.62
443.05	7990.59
443.24	8376.78
443.43	8271.45
443.61	8149.75
443.80	8379.12
443.98	8016.33
444.17	7854.84
444.35	8191.88
444.54	8451.67
444.73	8456.36
444.91	8386.14
445.10	8505.51
445.28	8126.34
445.47	8308.90
445.65	8493.80
445.84	8463.38
446.02	8676.37
446.21	8484.44
446.39	8423.59
446.58	8622.53
446.77	8603.81
446.95	8222.30
447.14	8446.99
447.32	8559.34
447.51	8365.07
447.69	8358.05
447.88	8423.59
448.06	8596.79
448.25	8657.64
448.43	8730.20
448.62	8688.07
448.80	8772.33
448.99	8741.90
449.17	8779.35
449.36	8767.65
449.54	8980.64
449.73	9001.70
449.91	8863.61
450.10	9006.38
450.28	9046.17
450.46	8882.33
450.65	8884.67
450.83	9179.58
451.02	9104.68
451.20	9217.03
451.39	9235.75
451.57	9151.49
451.76	9177.24
451.94	9172.56
452.13	9376.19
452.31	9413.63
452.49	9097.66
452.68	9249.80
452.86	9355.12
453.05	9275.54
453.23	9701.52
453.42	9387.89
453.60	9467.47
453.78	9516.62
453.97	9579.81
454.15	9476.83
454.34	9563.43
454.52	9598.54
454.70	9762.37
454.89	9940.26
455.07	9870.04
455.26	9912.17
455.44	10031.54
455.62	9944.94
455.81	9977.70
455.99	10083.03
456.17	10148.56
456.36	9980.04
456.54	10399.00
456.73	10377.94
456.91	10516.03
457.09	10565.18
457.28	10590.92
457.46	10401.34
457.64	10630.71
457.83	10607.31
458.01	10733.70
458.19	10843.70
458.38	10619.01
458.56	10721.99
458.74	10775.83
458.93	10775.83
459.11	10607.31
459.29	10738.38
459.48	10736.04
459.66	10703.27
459.84	11014.56
460.03	10953.71
460.21	11030.94
460.39	10920.94
460.57	10904.56
460.76	11307.13
460.94	11190.10
461.12	11159.67
461.31	11150.31
461.49	11082.44
461.67	11110.52
461.85	11435.86
462.04	11496.71
462.22	11616.08
462.40	11655.87
462.59	11545.86
462.77	11548.20
462.95	11660.55
463.13	11754.17
463.32	11641.82
463.50	11822.05
463.68	11606.72
463.86	11803.32
464.05	11812.68
464.23	11655.87
464.41	12042.06
464.59	11562.25
464.78	12210.57
464.96	11892.26
465.14	11939.07
465.32	12203.55
465.50	12226.96
465.69	12278.45
465.87	12311.22
466.05	12524.21
466.23	12369.73
466.41	12102.91
466.60	12566.34
466.78	12077.16
466.96	12229.30
467.14	12105.25
467.32	12325.26
467.51	12585.06
467.69	12189.51
467.87	12397.82
468.05	12774.64
468.23	12390.80
468.41	12526.55
468.60	12444.63
468.78	12847.20
468.96	12650.60
469.14	12882.31
469.32	13226.37
469.50	12662.30
469.69	13083.59
469.87	13099.98
470.05	13074.23
470.23	13181.90
470.41	13287.22
470.59	13521.27
470.77	13004.02
470.95	13130.41
471.14	13713.20
471.32	13460.42
471.50	13680.43
471.68	13748.31
471.86	13841.93
472.04	13671.07
472.22	14139.18
472.40	13961.30
472.58	13696.82
472.77	14115.77
472.95	14043.21
473.13	14452.81
473.31	14033.85
473.49	14125.13
473.67	13937.89
473.85	14356.85
474.03	14654.09
474.21	14743.03
474.39	14780.48
474.57	14827.29
474.75	15066.03
474.93	14895.17
475.12	15063.69
475.30	15101.14
475.48	15154.97
475.66	15269.66
475.84	15171.35
476.02	15346.89
476.20	15370.30
476.38	15410.09
476.56	16205.87
476.74	16100.55
476.92	16081.82
477.10	16161.40
477.28	16067.78
477.46	16168.42
477.64	16322.90
477.82	16664.61
478.00	16926.75
478.18	16723.13
478.36	16922.07
478.54	17146.76
478.72	17099.95
478.90	17394.86
479.08	17429.97
479.26	17823.18
479.44	17811.48
479.62	17998.72
479.80	17806.80
479.98	18398.95
480.16	18405.97
480.34	18630.66
480.52	18670.45
480.70	18363.84
480.88	18361.50
481.06	19218.14
481.24	18944.30
481.41	19183.03
481.59	19199.41
481.77	19398.36
481.95	19653.48
482.13	19620.71
482.31	19424.11
482.49	20470.33
482.67	20065.41
482.85	20531.18
483.03	20919.71
483.21	20847.15
483.39	20945.45
483.57	20996.95
483.74	21228.66
483.92	21434.63
484.10	21151.42
484.28	21713.15
484.46	21764.64
484.64	22363.82
484.82	22188.28
485.00	22396.59
485.18	22586.17
485.35	23051.94
485.53	22934.91
485.71	23194.71
485.89	23456.85
486.07	23297.69
486.25	23428.76
486.43	23379.61
486.61	24053.69
486.78	24285.40
486.96	24332.21
487.14	24819.04
487.32	24720.74
487.50	25113.95
487.68	25062.46
487.85	25146.72
488.03	25406.52
488.21	25921.43
488.39	25881.64
488.57	26167.19
488.75	26270.17
488.92	26389.54
489.10	26534.65
489.28	26600.19
489.46	27014.46
489.64	27140.85
489.81	27810.25
489.99	27513.00
490.17	27599.60
490.35	28217.50
490.53	28184.73
490.70	28458.57
490.88	28428.15
491.06	28629.43
491.24	29268.40
491.41	29071.79
491.59	29490.75
491.77	29621.82
491.95	29605.44
492.13	29572.67
492.30	30232.70
492.48	30150.78
492.66	30387.18
492.84	30429.30
493.01	30724.21
493.19	31063.59
493.37	30965.29
493.54	30998.06
493.72	31730.64
493.90	31723.62
494.08	31999.80
494.25	32095.77
494.43	32446.85
494.61	32549.83
494.79	32400.04
494.96	33088.15
495.14	32730.05
495.32	32982.83
495.49	33425.19
495.67	33153.69
495.85	33504.77
496.02	33631.16
496.20	33968.19
496.38	34139.05
496.55	33937.77
496.73	34759.30
496.91	34869.30
497.09	35033.14
497.26	35187.61
497.44	34646.95
497.62	35519.97
497.79	35800.83
497.97	35409.96
498.14	36320.43
498.32	36320.43
498.50	36233.83
498.67	36671.51
498.85	36865.78
499.03	36222.13
499.20	37060.04
499.38	37109.19
499.56	37315.16
499.73	37134.94
499.91	37249.63
500.08	37893.27
500.26	37289.42
500.44	37745.82
500.61	38108.60
500.79	38071.15
500.97	38309.89
501.14	38871.62
501.32	38780.34
501.49	38462.02
501.67	38291.16
501.84	39105.67
502.02	38866.94
502.20	39105.67
502.37	39306.96
502.55	39414.62
502.72	40261.90
502.90	39793.79
503.07	39639.31
503.25	39866.34
503.43	39667.40
503.60	40470.20
503.78	40154.23
503.95	40444.46
504.13	40919.59
504.30	40655.11
504.48	40388.28
504.65	40987.46
504.83	41137.26
505.01	41450.89
505.18	41614.72
505.36	41570.25
505.53	41455.57
505.71	41677.92
505.88	42171.77
506.06	42014.96
506.23	41886.23
506.41	41949.42
506.58	41935.38
506.76	42485.40
506.93	42719.46
507.11	42457.32
507.28	42686.69
507.46	42527.53
507.63	43136.07
507.81	42906.70
507.98	42887.98
508.16	43297.57
508.33	43576.09
508.50	43875.68
508.68	43491.83
508.85	44250.17
509.03	43995.05
509.20	44313.36
509.38	44273.57
509.55	44617.63
509.73	44760.40
509.90	44683.17
510.08	44816.58
510.25	44968.71
510.42	45404.05
510.60	44870.41
510.77	45170.00
510.95	45773.86
511.12	45579.59
511.30	45940.04
511.47	45930.67
511.64	45600.66
511.82	45895.56
511.99	45729.39
512.17	46211.54
512.34	46021.95
512.51	46284.09
512.69	46483.04
512.86	46461.97
513.04	46909.02
513.21	46801.35
513.38	46986.25
513.56	46696.03
513.73	46794.33
513.90	47068.17
514.08	47014.34
514.25	47555.00
514.43	47391.17
514.60	47648.63
514.77	47641.60
514.95	47714.16
515.12	47606.50
515.29	47487.13
515.47	48147.16
515.64	47938.85
515.81	47782.04
515.99	48561.44
516.16	48903.15
516.33	48622.29
516.51	48428.02
516.68	48734.63
516.85	48538.03
517.03	48727.61
517.20	48842.30
517.37	48854.00
517.54	49120.82
517.72	48985.07
517.89	49029.54
518.06	49296.36
518.24	49188.70
518.41	49184.02
518.58	49549.14
518.75	49132.53
518.93	49586.59
519.10	49799.58
519.27	50042.99
519.45	49944.69
519.62	50153.00
519.79	49893.20
519.96	50145.98
520.14	50478.33
520.31	50487.70
520.48	50160.02
520.65	50529.83
520.83	50773.24
521.00	50436.20
521.17	50632.81
521.34	50389.39
521.52	50983.89
521.69	51075.17
521.86	51075.17
522.03	51386.46
522.20	51419.23
522.38	51744.56
522.55	51119.64
522.72	51557.32
522.89	51363.06
523.07	51473.06
523.24	51580.73
523.41	51648.60
523.58	51356.03
523.75	51798.40
523.92	51906.06
524.10	52013.73
524.27	52175.22
524.44	52172.88
524.61	51803.08
524.78	52301.61
524.96	52210.33
525.13	52191.61
525.30	52453.75
525.47	52643.33
525.64	52718.23
525.81	52844.62
525.98	52870.36
526.16	52734.61
526.33	52378.85
526.50	53010.79
526.67	52622.26
526.84	53193.36
527.01	53073.99
527.18	53083.35
527.36	53020.16
527.53	52877.38
527.70	53727.00
527.87	53584.22
528.04	53242.51
528.21	53179.31
528.38	53448.47
528.55	53453.15
528.72	53186.33
528.89	53593.59
529.07	53404.00
529.24	53577.20
529.41	53844.02
529.58	53829.98
529.75	53886.15
529.92	53703.59
530.09	53879.13
530.26	53939.99
530.43	54094.46
530.60	53797.21
530.77	53949.35
530.94	54195.10
531.11	53956.37
531.28	53991.48
531.46	54298.09
531.63	54590.66
531.80	54267.66
531.97	54267.66
532.14	54312.13
532.31	54522.78
532.48	54712.36
532.65	54866.84
532.82	54548.53
532.99	54990.89
533.16	54571.93
533.33	55124.30
533.50	55121.96
533.67	54578.95
533.84	54429.16
534.01	55047.06
534.18	55011.95
534.35	55407.50
534.52	55058.76
534.69	55220.26
534.86	55363.03
535.03	55283.45
535.20	55337.29
535.37	55337.29
535.54	55421.55
535.71	55444.95
535.88	55292.82
536.05	55501.12
536.22	55426.23
536.38	55800.71
536.55	55774.97
536.72	55845.18
536.89	55709.43
537.06	55564.32
537.23	55983.27
537.40	55732.84
537.57	55767.94
537.74	55828.80
537.91	56231.37
538.08	55901.36
538.25	55814.76
538.42	55831.14
538.59	56100.30
538.75	55866.25
538.92	56158.81
539.09	56250.09
539.26	56093.28
539.43	56177.54
539.60	56240.73
539.77	56322.65
539.94	56746.29
540.11	56547.34
540.28	56273.50
540.44	56528.62
540.61	56369.46
540.78	56481.81
540.95	56404.57
541.12	56853.95
541.29	56420.95
541.46	56711.18
541.62	56797.78
541.79	56636.28
541.96	56657.35
542.13	56746.29
542.30	56982.68
542.47	56926.51
542.63	57111.41
542.80	57125.46
542.97	56980.34
543.14	57521.01
543.31	57219.08
543.48	57078.64
543.64	57574.84
543.81	57422.70
543.98	57169.93
544.15	57214.40
544.32	57366.53
544.48	57460.15
544.65	57633.35
544.82	57581.86
544.99	57373.55
545.16	57521.01
545.32	57542.07
545.49	57762.08
545.66	57869.75
545.83	57848.68
546.00	57787.83
546.16	57776.12
546.33	57666.12
546.50	57621.65
546.67	57574.84
546.83	57696.55
547.00	57883.79
547.17	57914.22
547.34	57982.09
547.50	58047.63
547.67	58178.70
547.84	58227.85
548.00	58183.38
548.17	58293.38
548.34	58148.27
548.51	58204.44
548.67	58150.61
548.84	57984.43
549.01	58171.67
549.18	58101.46
549.34	58326.15
549.51	58230.19
549.68	58293.38
549.84	58438.50
550.01	58405.73
550.18	58295.72
550.34	58403.39
550.51	58501.69
550.68	58307.43
550.84	58422.11
551.01	58492.33
551.18	58501.69
551.34	58595.31
551.51	58766.17
551.68	58607.01
551.84	58555.52
552.01	58506.37
552.18	58796.60
552.34	58637.44
552.51	58834.05
552.68	58721.70
552.84	58721.70
553.01	59032.99
553.18	58618.72
553.34	58876.18
553.51	58812.98
553.67	58922.99
553.84	59035.33
554.01	59152.36
554.17	58946.39
554.34	59187.47
554.51	59014.27
554.67	59157.04
554.84	59245.98
555.00	59175.76
555.17	59056.40
555.33	58988.52
555.50	58918.31
555.67	59124.27
555.83	58986.18
556.00	59217.89
556.16	59554.93
556.33	59341.94
556.50	59157.04
556.66	59423.86
556.83	59215.55
556.99	59625.15
557.16	59770.26
557.32	59480.03
557.49	59552.59
557.65	59426.20
557.82	59344.28
557.98	59442.59
558.15	59433.22
558.32	59517.48
558.48	59686.00
558.65	59377.05
558.81	59531.53
558.98	59529.19
559.14	59779.62
559.31	59707.07
559.47	59639.19
559.64	59716.43
559.80	59615.79
559.97	59742.17
560.13	59664.94
560.30	59657.91
560.46	59952.82
560.63	59718.77
560.79	59718.77
560.96	60076.87
561.12	59920.05
561.29	59980.91
561.45	59973.89
561.61	59817.07
561.78	59950.48
561.94	59814.73
562.11	59987.93
562.27	59987.93
562.44	60102.62
562.60	60065.17
562.77	60079.21
562.93	59774.94
563.10	60046.44
563.26	60109.64
563.42	60184.54
563.59	59941.12
563.75	60186.88
563.92	60186.88
564.08	59861.54
564.24	60104.96
564.41	60346.03
564.57	60315.61
564.74	60156.45
564.90	60179.85
565.07	60266.45
565.23	60233.69
565.39	60158.79
565.56	60430.29
565.72	60161.13
565.88	60200.92
566.05	60165.81
566.21	60334.33
566.38	60254.75
566.54	60336.67
566.70	60198.58
566.87	60306.24
567.03	60353.05
567.19	60481.78
567.36	60441.99
567.52	60306.24
567.68	60690.09
567.85	60645.62
568.01	60308.58
568.17	60395.18
568.34	60645.62
568.50	60346.03
568.66	60411.57
568.83	60441.99
568.99	60402.21
569.15	60463.06
569.32	60402.21
569.48	60409.23
569.64	60495.83
569.81	60542.64
569.97	60420.93
570.13	60542.64
570.30	60287.52
570.46	60362.42
570.62	60526.25
570.78	60708.82
570.95	60582.43
571.11	60615.19
571.27	60495.83
571.43	60479.44
571.60	60830.52
571.76	60495.83
571.92	60580.09
572.09	60640.94
572.25	60715.84
572.41	60491.15
572.57	60598.81
572.74	61043.51
572.90	60554.34
573.06	60622.22
573.22	60701.79
573.38	60636.26
573.55	60589.45
573.71	61022.45
573.87	60563.70
574.03	60498.17
574.20	60753.29
574.36	60556.68
574.52	60893.72
574.68	60755.63
574.84	60748.60
575.01	60767.33
575.17	60554.34
575.33	60870.31
575.49	60701.79
575.65	60867.97
575.82	60898.40
575.98	60954.57
576.14	60994.36
576.30	60942.87
576.46	60956.91
576.62	60858.61
576.79	60706.47
576.95	60507.53
577.11	60980.32
577.27	61015.43
577.43	60807.12
577.59	60917.12
577.75	60858.61
577.92	60760.31
578.08	60928.83
578.24	60933.51
578.40	60985.00
578.56	60931.17
578.72	60795.42
578.88	61106.71
579.04	60977.98
579.21	60903.08
579.37	61244.80
579.53	61230.75
579.69	60561.36
579.85	60430.29
580.01	60917.12
580.17	60830.52
580.33	61043.51
580.49	61008.40
580.65	60914.78
580.82	60900.74
580.98	60774.35
581.14	60844.57
581.30	60985.00
581.46	60872.65
581.62	60879.67
581.78	60896.06
581.94	60907.76
582.10	61008.40
582.26	60842.23
582.42	61006.06
582.58	61031.81
582.74	61099.68
582.90	61151.18
583.06	61190.97
583.22	60835.20
583.38	61139.47
583.54	61050.53
583.70	61048.19
583.86	61052.87
584.02	60956.91
584.18	61134.79
584.34	60994.36
584.50	61090.32
584.66	60839.89
584.82	60982.66
584.98	61090.32
585.14	61095.00
585.30	61087.98
585.46	61066.92
585.62	60884.36
585.78	61127.77
585.94	60928.83
586.10	61017.77
586.26	61071.60
586.42	61176.92
586.58	61193.31
586.74	61043.51
586.90	60980.32
587.06	61141.81
587.22	61230.75
587.38	61165.22
587.54	61197.99
587.70	61392.25
587.86	61050.53
588.02	60903.08
588.18	61205.01
588.34	61265.86
