SpectraSuite Data File
++++++++++++++++++++++++++++++++++++
Date: Fri Oct 25 11:22:58 EDT 2013
User: price-jones
Dark Spectrum Present: No
Reference Spectrum Present: No
Number of Sampled Component Spectra: 1
Spectrometers: USB2+H05261
Integration Time (usec): 100000 (USB2+H05261)
Spectra Averaged: 1 (USB2+H05261)
Boxcar Smoothing: 0 (USB2+H05261)
Correct for Electrical Dark: No (USB2+H05261)
Strobe/Lamp Enabled: No (USB2+H05261)
Correct for Detector Non-linearity: No (USB2+H05261)
Correct for Stray Light: No (USB2+H05261)
Number of Pixels in Processed Spectrum: 2048
>>>>>Begin Processed Spectral Data<<<<<
365.73	161.50
365.92	161.50
366.12	161.50
366.32	112.35
366.52	126.39
366.72	152.13
366.91	131.07
367.11	117.03
367.31	79.58
367.51	107.66
367.70	114.69
367.90	110.01
368.10	177.88
368.30	156.82
368.49	102.98
368.69	152.13
368.89	177.88
369.09	175.54
369.28	119.37
369.48	138.09
369.68	173.20
369.87	175.54
370.07	161.50
370.27	175.54
370.47	308.95
370.66	578.11
370.86	613.22
371.06	624.92
371.25	704.50
371.45	655.35
371.65	709.18
371.84	645.99
372.04	709.18
372.24	585.13
372.44	674.07
372.63	765.36
372.83	671.73
373.03	739.61
373.22	690.46
373.42	746.63
373.62	777.06
373.81	866.00
374.01	861.32
374.21	821.53
374.40	751.31
374.60	835.57
374.79	814.51
374.99	805.14
375.19	887.06
375.38	894.08
375.58	873.02
375.78	891.74
375.97	837.91
376.17	842.59
376.37	847.27
376.56	887.06
376.76	929.19
376.95	873.02
377.15	936.21
377.35	940.90
377.54	863.66
377.74	835.57
377.93	947.92
378.13	887.06
378.33	957.28
378.52	903.45
378.72	870.68
378.91	922.17
379.11	938.55
379.31	915.15
379.50	959.62
379.70	968.98
379.89	976.00
380.09	976.00
380.28	945.58
380.48	1062.60
380.68	924.51
380.87	985.37
381.07	1011.11
381.26	1069.62
381.46	1011.11
381.65	1055.58
381.85	947.92
382.04	1076.65
382.24	1104.73
382.43	1123.46
382.63	985.37
382.83	1018.13
383.02	1027.50
383.22	1088.35
383.41	1062.60
383.61	1128.14
383.80	1107.07
384.00	1163.25
384.19	1071.97
384.39	1095.37
384.58	1153.88
384.78	1132.82
384.97	1198.35
385.17	1109.41
385.36	1217.08
385.56	1158.57
385.75	1165.59
385.95	1102.39
386.14	1156.22
386.34	1226.44
386.53	1172.61
386.72	1254.53
386.92	1200.69
387.11	1123.46
387.31	1245.16
387.50	1231.12
387.70	1207.72
387.89	1177.29
388.09	1301.34
388.28	1289.64
388.48	1355.17
388.67	1427.73
388.86	1430.07
389.06	1383.26
389.25	1401.98
389.45	1247.51
389.64	1364.53
389.84	1406.66
390.03	1373.89
390.22	1352.83
390.42	1331.76
390.61	1317.72
390.81	1397.30
391.00	1460.49
391.19	1444.11
391.39	1423.05
391.58	1425.39
391.78	1570.50
391.97	1526.03
392.16	1390.28
392.36	1640.72
392.55	1558.80
392.75	1533.05
392.94	1509.65
393.13	1533.05
393.33	1451.13
393.52	1540.07
393.71	1589.22
393.91	1577.52
394.10	1504.96
394.29	1631.35
394.49	1614.97
394.68	1645.40
394.88	1629.01
395.07	1692.21
395.26	1682.85
395.46	1703.91
395.65	1682.85
395.84	1729.66
396.04	1792.85
396.23	1839.66
396.42	1734.34
396.62	1825.62
396.81	1795.19
397.00	1776.47
397.19	1767.10
397.39	1860.73
397.58	1916.90
397.77	1804.55
397.97	1888.81
398.16	1884.13
398.35	1881.79
398.55	1879.45
398.74	1788.17
398.93	1944.99
399.12	1940.30
399.32	1916.90
399.51	1834.98
399.70	2106.48
399.90	2019.88
400.09	1984.77
400.28	2085.42
400.47	1947.33
400.67	2101.80
400.86	2104.14
401.05	2108.82
401.24	2064.35
401.44	2108.82
401.63	2141.59
401.82	2115.84
402.01	2141.59
402.21	2223.51
402.40	2176.70
402.59	2275.00
402.78	2120.53
402.97	2279.68
403.17	2146.27
403.36	2291.38
403.55	2333.51
403.74	2469.27
403.93	2354.58
404.13	2331.17
404.32	2354.58
404.51	2385.01
404.70	2438.84
404.89	2450.54
405.09	2487.99
405.28	2516.08
405.47	2574.59
405.66	2506.71
405.85	2525.44
406.05	2443.52
406.24	2574.59
406.43	2583.95
406.62	2686.94
406.81	2705.66
407.00	2621.40
407.20	2553.52
407.39	2733.75
407.58	2630.76
407.77	2785.24
407.96	2626.08
408.15	2813.32
408.34	2796.94
408.54	2822.69
408.73	2773.53
408.92	2986.52
409.11	2972.48
409.30	2916.31
409.49	2885.88
409.68	3068.44
409.87	2977.16
410.07	2902.26
410.26	3159.72
410.45	3133.98
410.64	3052.06
410.83	3148.02
411.02	3110.57
411.21	3246.32
411.40	3110.57
411.59	3272.07
411.78	3084.83
411.98	3227.60
412.17	3171.43
412.36	3356.33
412.55	3386.76
412.74	3421.86
412.93	3454.63
413.12	3346.97
413.31	3667.62
413.50	3492.08
413.69	3503.78
413.88	3576.34
414.07	3592.72
414.26	3665.28
414.45	3665.28
414.64	3592.72
414.83	3634.85
415.02	3843.16
415.22	3950.82
415.41	3660.60
415.60	4025.72
415.79	3866.56
415.98	3929.76
416.17	3913.38
416.36	3808.05
416.55	4049.13
416.74	4044.45
416.93	4212.96
417.12	4175.52
417.31	4229.35
417.50	4030.40
417.69	4290.20
417.88	4416.59
418.07	4241.05
418.26	4423.61
418.45	4339.35
418.64	4449.36
418.83	4533.62
419.02	4517.23
419.21	4479.79
419.39	4596.81
419.58	4627.24
419.77	4425.95
419.96	4648.30
420.15	4697.46
420.34	4620.22
420.53	4554.68
420.72	4662.35
420.91	4840.23
421.10	4772.35
421.29	4840.23
421.48	4697.46
421.67	4758.31
421.86	4737.24
422.05	4849.59
422.24	4931.51
422.43	4936.19
422.61	4912.78
422.80	4807.46
422.99	4905.76
423.18	5104.71
423.37	5018.11
423.56	5158.54
423.75	5100.03
423.94	4868.31
424.13	4657.67
424.32	4741.93
424.50	5132.79
424.69	5156.20
424.88	5048.54
425.07	5130.45
425.26	4947.89
425.45	5029.81
425.64	5067.26
425.83	4922.15
426.01	5249.82
426.20	4957.25
426.39	5027.47
426.58	5144.50
426.77	5100.03
426.96	5114.07
427.15	5064.92
427.33	5310.68
427.52	5263.86
427.71	5301.31
427.90	5165.56
428.09	5214.71
428.28	5329.40
428.46	5387.91
428.65	5373.87
428.84	5455.79
429.03	5582.18
429.22	5284.93
429.40	5582.18
429.59	5408.98
429.78	5303.65
429.97	5200.67
430.16	5570.48
430.34	5647.71
430.53	5652.39
430.72	5671.12
430.91	5720.27
431.10	5579.84
431.28	5900.49
431.47	5757.72
431.66	5874.74
431.85	5666.44
432.03	5998.79
432.22	6003.47
432.41	6019.86
432.60	6071.35
432.79	5940.28
432.97	5926.24
433.16	6143.91
433.35	6029.22
433.54	6139.23
433.72	6263.27
433.91	6071.35
434.10	6312.42
434.28	6087.73
434.47	6155.61
434.66	6455.20
434.85	6270.30
435.03	6361.58
435.22	6340.51
435.41	6450.52
435.59	6525.41
435.78	6499.67
435.97	6612.01
436.16	6431.79
436.34	6399.02
436.53	6649.46
436.72	6649.46
436.90	6553.50
437.09	6647.12
437.28	6525.41
437.46	6604.99
437.65	6553.50
437.84	6764.15
438.02	6778.19
438.21	6949.05
438.40	6754.79
438.58	7150.34
438.77	7140.97
438.96	7037.99
439.14	7157.36
439.33	7382.05
439.52	7152.68
439.70	7250.98
439.89	7321.20
440.08	7487.37
440.26	7447.58
440.45	7442.90
440.63	7609.08
440.82	7588.02
441.01	7634.83
441.19	7555.25
441.38	7936.76
441.57	7726.11
441.75	7885.26
441.94	8152.09
442.12	8042.08
442.31	8175.49
442.50	8042.08
442.68	8198.90
442.87	7981.23
443.05	8121.66
443.24	8505.51
443.43	8173.15
443.61	8215.28
443.80	8561.68
443.98	7960.16
444.17	7967.18
444.35	8074.85
444.54	8409.54
444.73	8425.93
444.91	8353.37
445.10	8589.77
445.28	8369.76
445.47	8519.55
445.65	8360.39
445.84	8610.83
446.02	8599.13
446.21	8332.31
446.39	8269.11
446.58	8554.66
446.77	8627.21
446.95	8365.07
447.14	8571.04
447.32	8533.59
447.51	8538.27
447.69	8521.89
447.88	8725.52
448.06	8437.63
448.25	8624.87
448.43	8692.75
448.62	8849.57
448.80	8594.45
448.99	8779.35
449.17	8975.95
449.36	8924.46
449.54	8978.30
449.73	9022.77
449.91	8887.01
450.10	8812.12
450.28	9078.94
450.46	9350.44
450.65	9078.94
450.83	9142.13
451.02	8997.02
451.20	9357.46
451.39	9130.43
451.57	9322.35
451.76	9242.78
451.94	9345.76
452.13	9404.27
452.31	9329.38
452.49	9390.23
452.68	9549.39
452.86	9437.04
453.05	9544.70
453.23	9614.92
453.42	9666.41
453.60	9476.83
453.78	9565.77
453.97	9685.14
454.15	9717.90
454.34	9521.30
454.52	9921.53
454.70	9710.88
454.89	9844.29
455.07	9919.19
455.26	9947.28
455.44	10113.45
455.62	9942.60
455.81	10160.27
455.99	10022.17
456.17	10155.58
456.36	9987.07
456.54	10132.18
456.73	10314.74
456.91	10569.86
457.09	10403.68
457.28	10562.84
457.46	10452.83
457.64	10602.63
457.83	10677.52
458.01	10492.62
458.19	11005.20
458.38	10703.27
458.56	10780.51
458.74	10675.18
458.93	10909.24
459.11	10593.26
459.29	10902.22
459.48	11138.61
459.66	10890.51
459.84	11002.86
460.03	11351.60
460.21	11239.25
460.39	11087.12
460.57	11241.59
460.76	11400.75
460.94	11492.03
461.12	11225.21
461.31	11248.61
461.49	11208.83
461.67	11524.80
461.85	11370.32
462.04	11522.46
462.22	11803.32
462.40	11587.99
462.59	11438.20
462.77	11625.44
462.95	11693.32
463.13	11681.61
463.32	11754.17
463.50	11803.32
463.68	11943.75
463.86	12159.08
464.05	11470.97
464.23	11826.73
464.41	11960.14
464.59	11747.15
464.78	12182.49
464.96	12250.36
465.14	12257.39
465.32	12395.48
465.50	12037.38
465.69	12238.66
465.87	12079.50
466.05	12285.47
466.23	12388.46
466.41	12259.73
466.60	12461.01
466.78	12121.63
466.96	12395.48
467.14	12568.68
467.32	12692.73
467.51	12599.10
467.69	12065.46
467.87	12758.26
468.05	12781.67
468.23	12491.44
468.41	12524.21
468.60	12784.01
468.78	12828.48
468.96	12868.27
469.14	13083.59
469.32	13170.19
469.50	12961.89
469.69	13322.33
469.87	13238.07
470.05	13069.55
470.23	13481.49
470.41	13097.64
470.59	13385.52
470.77	13453.40
470.95	13474.46
471.14	13554.04
471.32	13252.11
471.50	13565.74
471.68	13673.41
471.86	13738.94
472.04	14094.71
472.22	14122.79
472.40	13827.88
472.58	14111.09
472.77	14139.18
472.95	14237.48
473.13	14686.86
473.31	14328.76
473.49	14136.84
473.67	14361.53
473.85	14321.74
474.03	14787.50
474.21	14761.76
474.39	14918.57
474.57	14642.39
474.75	15007.52
474.93	15255.61
475.12	15300.08
475.30	15438.17
475.48	15342.21
475.66	15405.41
475.84	15232.21
476.02	15419.45
476.20	15513.07
476.38	15726.06
476.56	16116.93
476.74	16091.18
476.92	16149.70
477.10	15896.92
477.28	16365.03
477.46	16355.66
477.64	16372.05
477.82	16791.00
478.00	17404.22
478.18	16905.69
478.36	17179.53
478.54	17266.13
478.72	17207.62
478.90	17338.69
479.08	17895.74
479.26	17991.70
479.44	17975.31
479.62	18139.15
479.80	18169.58
479.98	18319.37
480.16	18635.35
480.34	18614.28
480.52	18625.98
480.70	19009.83
480.88	18448.10
481.06	18895.14
481.24	19335.17
481.41	19487.30
481.59	19400.70
481.77	19723.69
481.95	19644.12
482.13	20018.60
482.31	20229.25
482.49	20470.33
482.67	20430.54
482.85	20458.62
483.03	20926.73
483.21	20940.77
483.39	21146.74
483.57	20800.34
483.74	21369.09
483.92	21832.52
484.10	21247.38
484.28	21757.62
484.46	22431.69
484.64	22501.91
484.82	22216.36
485.00	22677.45
485.18	23143.22
485.35	23262.58
485.53	23152.58
485.71	23393.65
485.89	23674.52
486.07	23557.49
486.25	23768.14
486.43	23910.91
486.61	23992.83
486.78	24032.62
486.96	24465.62
487.14	24910.32
487.32	24716.06
487.50	24985.22
487.68	25249.70
487.85	25458.01
488.03	25741.21
488.21	26338.05
488.39	26115.70
488.57	26169.53
488.75	26195.28
488.92	26593.17
489.10	26728.92
489.28	27164.26
489.46	27459.16
489.64	27318.73
489.81	27690.88
489.99	27768.12
490.17	28009.19
490.35	28414.10
490.53	28519.43
490.70	28615.39
490.88	28376.66
491.06	29230.95
491.24	28996.90
491.41	29261.38
491.59	29673.31
491.77	30003.33
491.95	30071.20
492.13	30043.12
492.30	29912.05
492.48	30534.63
492.66	30480.80
492.84	30473.78
493.01	31332.75
493.19	30759.32
493.37	31421.69
493.54	31290.62
493.72	31660.43
493.90	31578.51
494.08	31894.48
494.25	32098.11
494.43	32449.19
494.61	32854.10
494.79	32739.41
494.96	32879.85
495.14	32975.81
495.32	33158.37
495.49	33532.86
495.67	33743.50
495.85	34068.84
496.02	34242.04
496.20	33916.70
496.38	34515.88
496.55	34312.25
496.73	35077.61
496.91	34747.59
497.09	35122.08
497.26	35686.15
497.44	35367.84
497.62	35545.72
497.79	35901.48
497.97	35494.22
498.14	36414.05
498.32	36367.24
498.50	36725.35
498.67	36734.71
498.85	37043.66
499.03	37029.62
499.20	36844.71
499.38	37401.76
499.56	37734.12
499.73	37366.65
499.91	37736.46
500.08	37645.18
500.26	37670.92
500.44	38122.65
500.61	37755.18
500.79	37984.55
500.97	38445.64
501.14	38768.63
501.32	38925.45
501.49	38672.67
501.67	39199.29
501.84	39463.77
502.02	39255.46
502.20	39264.83
502.37	39421.64
502.55	39571.44
502.72	39934.22
502.90	40182.32
503.07	40184.66
503.25	40404.67
503.43	40198.70
503.60	40278.28
503.78	40659.79
503.95	40788.52
504.13	41235.56
504.30	41212.15
504.48	40620.00
504.65	41596.00
504.83	41813.67
505.01	41633.45
505.18	41670.90
505.36	42073.47
505.53	41500.04
505.71	41879.21
505.88	42342.63
506.06	41928.36
506.23	42415.19
506.41	42244.33
506.58	42623.50
506.76	42604.77
506.93	42703.07
507.11	42747.54
507.28	43152.46
507.46	43283.53
507.63	43107.99
507.81	43875.68
507.98	43697.80
508.16	43594.82
508.33	44076.97
508.50	44016.11
508.68	43796.10
508.85	44311.02
509.03	44006.75
509.20	44378.90
509.38	44809.56
509.55	44959.35
509.73	44879.77
509.90	44828.28
510.08	44893.82
510.25	44947.65
510.42	45024.89
510.60	45130.21
510.77	45834.71
510.95	45888.54
511.12	45216.81
511.30	45940.04
511.47	46220.90
511.64	45872.16
511.82	46096.85
511.99	46082.81
512.17	46408.14
512.34	46295.80
512.51	46560.28
512.69	46691.35
512.86	46974.55
513.04	47178.18
513.21	47112.64
513.38	47044.77
513.56	47295.21
513.73	47306.91
513.90	47543.30
514.08	47657.99
514.25	47615.86
514.43	47805.44
514.60	48037.16
514.77	47980.98
514.95	48275.89
515.12	47789.06
515.29	48257.17
515.47	48512.28
515.64	48622.29
515.81	48446.75
515.99	48652.72
516.16	48954.64
516.33	48575.48
516.51	49177.00
516.68	48949.96
516.85	48989.75
517.03	49008.48
517.20	49502.33
517.37	49055.29
517.54	49317.43
517.72	49219.13
517.89	49668.51
518.06	49595.95
518.24	49427.43
518.41	49553.82
518.58	49745.75
518.75	49434.45
518.93	49883.84
519.10	50040.65
519.27	50347.26
519.45	50164.70
519.62	50279.39
519.79	50277.05
519.96	50134.28
520.14	50604.72
520.31	50450.25
520.48	50752.18
520.65	50705.37
520.83	51180.49
521.00	50995.59
521.17	50864.52
521.34	51339.65
521.52	51035.38
521.69	51498.81
521.86	51161.77
522.03	51239.01
522.20	51262.41
522.38	51634.56
522.55	51814.78
522.72	51899.04
522.89	51571.36
523.07	51856.91
523.24	51959.89
523.41	52266.50
523.58	51679.03
523.75	52559.07
523.92	52367.15
524.10	52545.03
524.27	52573.11
524.44	52493.54
524.61	52692.48
524.78	52678.44
524.96	52601.20
525.13	52919.51
525.30	52832.91
525.47	52788.44
525.64	52561.41
525.81	52804.83
525.98	53083.35
526.16	52741.63
526.33	52973.34
526.50	53357.19
526.67	52889.09
526.84	53155.91
527.01	53469.54
527.18	53169.95
527.36	53492.94
527.53	53305.70
527.70	53619.33
527.87	53808.92
528.04	53483.58
528.21	53532.73
528.38	53542.10
528.55	53865.09
528.72	53488.26
528.89	53675.51
529.07	53532.73
529.24	53506.99
529.41	54164.68
529.58	53961.05
529.75	53961.05
529.92	54167.02
530.09	54171.70
530.26	54160.00
530.43	54450.22
530.60	54096.80
530.77	54162.34
530.94	54733.43
531.11	54110.85
531.28	54597.68
531.46	54475.97
531.63	54733.43
531.80	54452.56
531.97	54677.25
532.14	54878.54
532.31	54564.91
532.48	54820.03
532.65	54913.65
532.82	54412.77
532.99	54932.37
533.16	54712.36
533.33	55004.93
533.50	55100.89
533.67	55075.15
533.84	55033.02
534.01	55269.41
534.18	55243.66
534.35	55608.79
534.52	55215.58
534.69	55491.76
534.86	55559.64
535.03	55435.59
535.20	55515.17
535.37	55592.40
535.54	55660.28
535.71	55491.76
535.88	55959.87
536.05	55866.25
536.22	55833.48
536.38	55796.03
536.55	55884.97
536.72	56037.11
536.89	55842.84
537.06	56002.00
537.23	56107.32
537.40	55971.57
537.57	55931.78
537.74	56184.56
537.91	56622.24
538.08	56346.06
538.25	56165.84
538.42	56217.33
538.59	56376.48
538.75	56116.68
538.92	56317.97
539.09	56601.18
539.26	56460.74
539.43	56395.21
539.60	56360.10
539.77	56540.32
539.94	56725.22
540.11	56683.09
540.28	56790.76
540.44	56598.83
540.61	56631.60
540.78	56523.94
540.95	56711.18
541.12	56844.59
541.29	56772.03
541.46	56765.01
541.62	56849.27
541.79	57146.52
541.96	56736.93
542.13	56727.56
542.30	57130.14
542.47	56912.47
542.63	57198.01
542.80	57200.35
542.97	57275.25
543.14	57420.36
543.31	57392.28
543.48	57322.06
543.64	57645.05
543.81	57399.30
543.98	57448.45
544.15	57572.50
544.32	57766.76
544.48	57748.04
544.65	57897.83
544.82	57483.56
544.99	57490.58
545.16	57663.78
545.32	57602.92
545.49	58122.52
545.66	58049.97
545.83	57879.11
546.00	57914.22
546.16	57902.51
546.33	57888.47
546.50	57640.37
546.67	58010.18
546.83	57780.81
547.00	57890.81
547.17	57836.98
547.34	57911.88
547.50	58115.50
547.67	58525.10
547.84	58089.76
548.00	58255.93
548.17	58480.63
548.34	58379.98
548.51	58529.78
548.67	58426.79
548.84	58305.09
549.01	58260.62
549.18	58333.17
549.34	58450.20
549.51	58738.08
549.68	58562.54
549.84	58700.64
550.01	58937.03
550.18	58534.46
550.34	58915.96
550.51	58866.81
550.68	58522.76
550.84	58520.41
551.01	58637.44
551.18	58794.26
551.34	58557.86
551.51	58948.73
551.68	58782.55
551.84	58728.72
552.01	58681.91
552.18	58972.14
552.34	58752.13
552.51	58880.86
552.68	58908.94
552.84	58763.83
553.01	59367.69
553.18	59231.94
553.34	59119.59
553.51	58997.88
553.67	59025.97
553.84	59171.08
554.01	59185.13
554.17	59063.42
554.34	59316.20
554.51	59194.49
554.67	59318.54
554.84	59306.83
555.00	59283.43
555.17	59103.21
555.33	59114.91
555.50	58993.20
555.67	59283.43
555.83	59295.13
556.00	59323.22
556.16	59657.91
556.33	59728.13
556.50	59473.01
556.66	59498.76
556.83	59416.84
556.99	59732.81
557.16	59875.58
557.32	59730.47
557.49	59891.97
557.65	59639.19
557.82	59480.03
557.98	59618.13
558.15	59608.76
558.32	59601.74
558.48	59578.34
558.65	59573.66
558.81	59788.98
558.98	59765.58
559.14	59941.12
559.31	59826.43
559.47	59922.40
559.64	59966.87
559.80	59786.64
559.97	59941.12
560.13	59882.61
560.30	59819.41
560.46	60271.14
560.63	60175.17
560.79	60100.28
560.96	60252.41
561.12	59980.91
561.29	60123.68
561.45	60107.30
561.61	60179.85
561.78	60097.94
561.94	59913.03
562.11	60030.06
562.27	60156.45
562.44	60214.96
562.60	60238.37
562.77	60051.12
562.93	60163.47
563.10	60402.21
563.26	60280.50
563.42	60519.23
563.59	60130.70
563.75	60317.95
563.92	60294.54
564.08	60439.65
564.24	60203.26
564.41	60587.11
564.57	60540.30
564.74	60364.76
564.90	60465.40
565.07	60425.61
565.23	60154.11
565.39	60250.07
565.56	60666.69
565.72	60484.12
565.88	60477.10
566.05	60341.35
566.21	60374.12
566.38	60519.23
566.54	60434.97
566.70	60509.87
566.87	60402.21
567.03	60282.84
567.19	60762.65
567.36	60629.24
567.52	60451.36
567.68	60622.22
567.85	60699.45
568.01	60650.30
568.17	60397.52
568.34	60690.09
568.50	60526.25
568.66	60432.63
568.83	60629.24
568.99	60783.71
569.15	60676.05
569.32	60547.32
569.48	60498.17
569.64	60725.20
569.81	60631.58
569.97	60509.87
570.13	60563.70
570.30	60537.96
570.46	60832.86
570.62	60961.59
570.78	60793.07
570.95	60633.92
571.11	60896.06
571.27	60814.14
571.43	60804.78
571.60	61001.38
571.76	60907.76
571.92	60860.95
572.09	60893.72
572.25	60849.25
572.41	60711.16
572.57	60903.08
572.74	61080.96
572.90	60858.61
573.06	60849.25
573.22	60795.42
573.38	60727.54
573.55	60760.31
573.71	61003.72
573.87	60942.87
574.03	60615.19
574.20	61045.85
574.36	60725.20
574.52	61076.28
574.68	60973.30
574.84	61141.81
575.01	61158.20
575.17	61139.47
575.33	60919.46
575.49	60966.27
575.65	60816.48
575.82	60985.00
575.98	61059.90
576.14	61186.28
576.30	60954.57
576.46	61003.72
576.62	60865.63
576.79	60961.59
576.95	60977.98
577.11	60982.66
577.27	60954.57
577.43	61078.62
577.59	60924.14
577.75	61052.87
577.92	60903.08
578.08	61090.32
578.24	61095.00
578.40	61116.07
578.56	61146.50
578.72	60912.44
578.88	61167.56
579.04	61450.77
579.21	61216.71
579.37	61146.50
579.53	61322.04
579.69	61052.87
579.85	61024.79
580.01	61123.09
580.17	61062.24
580.33	61242.46
580.49	61123.09
580.65	61223.73
580.82	61118.41
580.98	60956.91
581.14	60954.57
581.30	61471.83
581.46	61027.13
581.62	60989.68
581.78	61038.83
581.94	61179.26
582.10	61146.50
582.26	61120.75
582.42	61289.27
582.58	61277.57
582.74	60896.06
582.90	61148.84
583.06	61174.58
583.22	61176.92
583.38	61151.18
583.54	61095.00
583.70	61202.67
583.86	61251.82
584.02	61006.06
584.18	61366.51
584.34	61298.63
584.50	61144.16
584.66	61144.16
584.82	60940.53
584.98	61329.06
585.14	61317.35
585.30	61052.87
585.46	61221.39
585.62	61261.18
585.78	61256.50
585.94	61312.67
586.10	61258.84
586.26	61286.93
586.42	61441.40
586.58	61462.47
586.74	61249.48
586.90	61006.06
587.06	61258.84
587.22	61476.51
587.38	61317.35
587.54	61378.21
587.70	61630.99
587.86	61226.07
588.02	61310.33
588.18	61392.25
588.34	61647.37
588.49	61212.03
