SpectraSuite Data File
++++++++++++++++++++++++++++++++++++
Date: Fri Oct 25 11:33:42 EDT 2013
User: price-jones
Dark Spectrum Present: No
Reference Spectrum Present: No
Number of Sampled Component Spectra: 1
Spectrometers: USB2+H05261
Integration Time (usec): 100000 (USB2+H05261)
Spectra Averaged: 1 (USB2+H05261)
Boxcar Smoothing: 0 (USB2+H05261)
Correct for Electrical Dark: No (USB2+H05261)
Strobe/Lamp Enabled: No (USB2+H05261)
Correct for Detector Non-linearity: No (USB2+H05261)
Correct for Stray Light: No (USB2+H05261)
Number of Pixels in Processed Spectrum: 2048
>>>>>Begin Processed Spectral Data<<<<<
365.73	271.50
365.92	271.50
366.12	271.50
366.32	203.63
366.52	173.20
366.72	196.60
366.91	220.01
367.11	138.09
367.31	168.52
367.51	156.82
367.70	135.75
367.90	236.39
368.10	184.90
368.30	203.63
368.49	187.24
368.69	269.16
368.89	245.76
369.09	224.69
369.28	201.29
369.48	180.22
369.68	264.48
369.87	259.80
370.07	205.97
370.27	301.93
370.47	290.23
370.66	461.09
370.86	461.09
371.06	524.28
371.25	575.77
371.45	538.32
371.65	517.26
371.84	573.43
372.04	470.45
372.24	512.58
372.44	575.77
372.63	580.45
372.83	615.56
373.03	599.18
373.22	528.96
373.42	697.48
373.62	631.94
373.81	634.29
374.01	594.50
374.21	660.03
374.40	620.24
374.60	660.03
374.79	660.03
374.99	587.47
375.19	645.99
375.38	592.16
375.58	641.31
375.78	702.16
375.97	699.82
376.17	699.82
376.37	638.97
376.56	655.35
376.76	620.24
376.95	641.31
377.15	727.91
377.35	697.48
377.54	711.52
377.74	725.57
377.93	667.05
378.13	758.33
378.33	734.93
378.52	685.78
378.72	732.59
378.91	716.20
379.11	737.27
379.31	812.17
379.50	702.16
379.70	709.18
379.89	732.59
380.09	713.86
380.28	723.23
380.48	725.57
380.68	706.84
380.87	730.25
381.07	807.48
381.26	777.06
381.46	737.27
381.65	784.08
381.85	784.08
382.04	727.91
382.24	826.21
382.43	786.42
382.63	763.01
382.83	706.84
383.02	819.19
383.22	800.46
383.41	800.46
383.61	814.51
383.80	821.53
384.00	781.74
384.19	870.68
384.39	786.42
384.58	840.25
384.78	748.97
384.97	791.10
385.17	891.74
385.36	816.85
385.56	833.23
385.75	863.66
385.95	901.11
386.14	842.59
386.34	847.27
386.53	880.04
386.72	901.11
386.92	990.05
387.11	875.36
387.31	889.40
387.50	950.26
387.70	924.51
387.89	926.85
388.09	929.19
388.28	936.21
388.48	910.47
388.67	828.55
388.86	931.53
389.06	917.49
389.25	1020.47
389.45	940.90
389.64	1025.15
389.84	968.98
390.03	1025.15
390.22	1006.43
390.42	924.51
390.61	947.92
390.81	999.41
391.00	1022.81
391.19	945.58
391.39	936.21
391.58	980.68
391.78	1121.12
391.97	976.00
392.16	978.34
392.36	1174.95
392.55	1097.71
392.75	1057.92
392.94	1114.10
393.13	1121.12
393.33	997.07
393.52	1114.10
393.71	1076.65
393.91	1083.67
394.10	1093.03
394.29	1153.88
394.49	1041.54
394.68	1046.22
394.88	1181.97
395.07	1205.38
395.26	1188.99
395.46	1158.57
395.65	1139.84
395.84	1203.04
396.04	1219.42
396.23	1203.04
396.42	1261.55
396.62	1163.25
396.81	1142.18
397.00	1224.10
397.19	1214.74
397.39	1165.59
397.58	1231.12
397.77	1231.12
397.97	1247.51
398.16	1294.32
398.35	1256.87
398.55	1245.16
398.74	1242.82
398.93	1369.21
399.12	1256.87
399.32	1254.53
399.51	1291.98
399.70	1315.38
399.90	1399.64
400.09	1348.15
400.28	1294.32
400.47	1425.39
400.67	1366.87
400.86	1474.54
401.05	1455.81
401.24	1446.45
401.44	1425.39
401.63	1465.18
401.82	1441.77
402.01	1411.34
402.21	1523.69
402.40	1467.52
402.59	1437.09
402.78	1507.30
402.97	1535.39
403.17	1563.48
403.36	1474.54
403.55	1605.61
403.74	1607.95
403.93	1626.67
404.13	1614.97
404.32	1579.86
404.51	1621.99
404.70	1638.38
404.89	1645.40
405.09	1694.55
405.28	1689.87
405.47	1680.50
405.66	1668.80
405.85	1710.93
406.05	1706.25
406.24	1734.34
406.43	1734.34
406.62	1830.30
406.81	1781.15
407.00	1767.10
407.20	1832.64
407.39	1802.21
407.58	1914.56
407.77	1937.96
407.96	1844.34
408.15	1893.49
408.34	1748.38
408.54	1919.24
408.73	1982.43
408.92	1952.01
409.11	1982.43
409.30	2005.84
409.49	2024.56
409.68	1961.37
409.87	1947.33
410.07	1994.14
410.26	2134.57
410.45	2003.50
410.64	2069.03
410.83	2073.71
411.02	2136.91
411.21	2167.34
411.40	2200.10
411.59	2167.34
411.78	2293.72
411.98	2195.42
412.17	2335.85
412.36	2359.26
412.55	2380.32
412.74	2291.38
412.93	2370.96
413.12	2396.71
413.31	2511.39
413.50	2429.48
413.69	2399.05
413.88	2504.37
414.07	2443.52
414.26	2504.37
414.45	2452.88
414.64	2572.25
414.83	2656.51
415.02	2548.84
415.22	2609.70
415.41	2668.21
415.60	2731.41
415.79	2747.79
415.98	2717.36
416.17	2775.88
416.36	2689.28
416.55	2717.36
416.74	2902.26
416.93	2752.47
417.12	2808.64
417.31	2960.78
417.50	2913.97
417.69	2836.73
417.88	2881.20
418.07	2911.63
418.26	3016.95
418.45	2871.84
418.64	3169.09
418.83	3077.80
419.02	3016.95
419.21	3152.70
419.39	3159.72
419.58	3136.32
419.77	3045.04
419.96	3098.87
420.15	3304.84
420.34	3129.30
420.53	3136.32
420.72	3321.22
420.91	3180.79
421.10	3183.13
421.29	3283.77
421.48	3145.68
421.67	3253.34
421.86	3297.81
422.05	3421.86
422.24	3302.50
422.43	3466.33
422.61	3337.60
422.80	3438.25
422.99	3410.16
423.18	3389.10
423.37	3463.99
423.56	3372.71
423.75	3431.23
423.94	3403.14
424.13	3169.09
424.32	3321.22
424.50	3375.05
424.69	3487.40
424.88	3480.38
425.07	3445.27
425.26	3529.53
425.45	3445.27
425.64	3396.12
425.83	3342.28
426.01	3520.17
426.20	3513.14
426.39	3534.21
426.58	3386.76
426.77	3517.83
426.96	3508.46
427.15	3726.13
427.33	3529.53
427.52	3569.32
427.71	3520.17
427.90	3562.30
428.09	3653.58
428.28	3784.65
428.46	3651.24
428.65	3777.62
428.84	3691.02
429.03	3829.12
429.22	3737.84
429.40	3817.41
429.59	3805.71
429.78	3728.47
429.97	3709.75
430.16	3684.00
430.34	3983.59
430.53	3880.61
430.72	3922.74
430.91	3882.95
431.10	3775.28
431.28	3962.53
431.47	4021.04
431.66	4028.06
431.85	3962.53
432.03	3964.87
432.22	4037.42
432.41	4058.49
432.60	4138.07
432.79	4098.28
432.97	4205.94
433.16	4154.45
433.35	4051.47
433.54	4264.46
433.72	4161.47
433.91	4203.60
434.10	4173.18
434.28	4135.73
434.47	4276.16
434.66	4360.42
434.85	4175.52
435.03	4430.63
435.22	4346.37
435.41	4402.55
435.59	4369.78
435.78	4451.70
435.97	4395.53
436.16	4409.57
436.34	4409.57
436.53	4407.23
436.72	4617.88
436.90	4346.37
437.09	4376.80
437.28	4463.40
437.46	4456.38
437.65	4519.57
437.84	4606.17
438.02	4615.54
438.21	4695.11
438.40	4383.82
438.58	4573.41
438.77	4624.90
438.96	4870.65
439.14	4863.63
439.33	5027.47
439.52	4779.37
439.70	4926.83
439.89	5144.50
440.08	5111.73
440.26	4978.32
440.45	4966.62
440.63	5172.58
440.82	5256.84
441.01	5228.76
441.19	5102.37
441.38	5268.55
441.57	5221.74
441.75	5289.61
441.94	5252.16
442.12	5451.11
442.31	5572.82
442.50	5542.39
442.68	5490.90
442.87	5495.58
443.05	5673.46
443.24	5586.86
443.43	5575.16
443.61	5544.73
443.80	5636.01
443.98	5383.23
444.17	5394.93
444.35	5659.42
444.54	5685.16
444.73	5619.63
444.91	5589.20
445.10	5659.42
445.28	5586.86
445.47	5521.32
445.65	5736.65
445.84	5795.17
446.02	5877.09
446.21	5755.38
446.39	5804.53
446.58	5720.27
446.77	5738.99
446.95	5636.01
447.14	5706.23
447.32	5771.76
447.51	5755.38
447.69	5858.36
447.88	5654.73
448.06	5858.36
448.25	5790.49
448.43	5738.99
448.62	5781.12
448.80	5795.17
448.99	5966.03
449.17	5959.00
449.36	5898.15
449.54	5830.27
449.73	6108.80
449.91	6029.22
450.10	5928.58
450.28	6129.86
450.46	6127.52
450.65	6202.42
450.83	5956.66
451.02	6054.97
451.20	6319.45
451.39	6167.31
451.57	6164.97
451.76	6033.90
451.94	6179.01
452.13	6274.98
452.31	6293.70
452.49	6218.80
452.68	6450.52
452.86	6235.19
453.05	6328.81
453.23	6590.95
453.42	6410.73
453.60	6239.87
453.78	6527.75
453.97	6399.02
454.15	6450.52
454.34	6338.17
454.52	6647.12
454.70	6396.68
454.89	6707.98
455.07	6670.53
455.26	6785.21
455.44	6675.21
455.62	6579.25
455.81	6616.69
455.99	6717.34
456.17	6555.84
456.36	6724.36
456.54	6722.02
456.73	6932.67
456.91	7002.88
457.09	7068.42
457.28	7117.57
457.46	7000.54
457.64	7014.59
457.83	7267.36
458.01	7000.54
458.19	7201.83
458.38	7166.72
458.56	7215.87
458.74	7339.92
458.93	7110.55
459.11	7239.28
459.29	7281.41
459.48	7138.63
459.66	7470.99
459.84	7349.28
460.03	7602.06
460.21	7208.85
460.39	7288.43
460.57	7267.36
460.76	7566.95
460.94	7578.65
461.12	7527.16
461.31	7669.94
461.49	7492.05
461.67	7536.52
461.85	7660.57
462.04	7597.38
462.22	7999.95
462.40	7779.94
462.59	7824.41
462.77	7819.73
462.95	7786.96
463.13	7779.94
463.32	7838.45
463.50	8039.74
463.68	7901.65
463.86	7920.37
464.05	7852.50
464.23	7803.35
464.41	7967.18
464.59	7955.48
464.78	8131.02
464.96	7789.30
465.14	7922.71
465.32	8107.62
465.50	7978.89
465.69	8262.09
465.87	8037.40
466.05	8142.72
466.23	7957.82
466.41	8201.24
466.60	8407.20
466.78	8198.90
466.96	8219.96
467.14	8180.17
467.32	8294.86
467.51	8400.18
467.69	8100.59
467.87	8187.19
468.05	8514.87
468.23	8358.05
468.41	8201.24
468.60	8318.26
468.78	8404.86
468.96	8451.67
469.14	8636.58
469.32	8650.62
469.50	8320.60
469.69	8650.62
469.87	8744.24
470.05	8737.22
470.23	8889.35
470.41	8791.05
470.59	8950.21
470.77	8877.65
470.95	8966.59
471.14	9088.30
471.32	8681.05
471.50	9165.54
471.68	8954.89
471.86	9142.13
472.04	9102.34
472.22	9376.19
472.40	9261.50
472.58	9270.86
472.77	9425.34
472.95	9390.23
473.13	9647.69
473.31	9348.10
473.49	9418.32
473.67	9282.56
473.85	9563.43
474.03	9820.89
474.21	10040.90
474.39	9804.50
474.57	9558.75
474.75	9898.13
474.93	9837.27
475.12	9916.85
475.30	9973.02
475.48	9921.53
475.66	9935.57
475.84	9973.02
476.02	10078.35
476.20	10190.69
476.38	10431.77
476.56	10602.63
476.74	10637.73
476.92	10501.98
477.10	10504.32
477.28	10644.76
477.46	10696.25
477.64	10883.49
477.82	10839.02
478.00	11480.33
478.18	11290.74
478.36	11201.80
478.54	11197.12
478.72	11585.65
478.90	11522.46
479.08	11850.13
479.26	11751.83
479.44	11590.33
479.62	11784.60
479.80	11974.18
479.98	12002.27
480.16	12248.02
480.34	12140.36
480.52	12306.54
480.70	12224.62
480.88	12166.10
481.06	12362.71
481.24	12453.99
481.41	12746.56
481.59	12720.81
481.77	12814.43
481.95	13053.17
482.13	12774.64
482.31	13104.66
482.49	13528.30
482.67	13437.02
482.85	13493.19
483.03	13369.14
483.21	13596.17
483.39	13893.42
483.57	13659.37
483.74	14090.02
483.92	13930.87
484.10	13951.93
484.28	14174.28
484.46	14394.29
484.64	14403.66
484.82	14504.30
485.00	14682.18
485.18	14927.94
485.35	15143.27
485.53	15098.80
485.71	15241.57
485.89	15484.98
486.07	15283.70
486.25	15440.51
486.43	15428.81
486.61	15639.46
486.78	15992.88
486.96	16049.05
487.14	16215.23
487.32	16056.08
487.50	16156.72
487.68	16271.40
487.85	16858.88
488.03	16669.30
488.21	17216.98
488.39	16959.52
488.57	17025.06
488.75	17249.75
488.92	17334.01
489.10	17509.55
489.28	17645.30
489.46	18001.06
489.64	17570.40
489.81	18389.59
489.99	18047.87
490.17	18382.57
490.35	18473.85
490.53	18438.74
490.70	18888.12
490.88	18492.57
491.06	18937.27
491.24	19164.31
491.41	19150.26
491.59	19227.50
491.77	19262.61
491.95	19150.26
492.13	19772.85
492.30	19630.07
492.48	19459.21
492.66	19824.34
492.84	19878.17
493.01	20250.32
493.19	20250.32
493.37	20442.24
493.54	20498.41
493.72	20697.36
493.90	20493.73
494.08	20919.71
494.25	21429.94
494.43	21317.60
494.61	20996.95
494.79	21062.48
494.96	21469.73
495.14	22188.28
495.32	21614.85
495.49	21872.31
495.67	21860.60
495.85	21968.27
496.02	22284.24
496.20	22515.95
496.38	22305.31
496.55	22714.90
496.73	22761.71
496.91	22904.48
497.09	22806.18
497.26	23206.41
497.44	22745.33
497.62	23023.85
497.79	23377.27
497.97	23435.78
498.14	23501.32
498.32	23730.69
498.50	23740.05
498.67	23899.21
498.85	23513.02
499.03	24191.78
499.20	24154.33
499.38	23892.19
499.56	24645.84
499.73	24797.98
499.91	24442.21
500.08	24751.17
500.26	24793.29
500.44	24772.23
500.61	25127.99
500.79	25032.03
500.97	25123.31
501.14	25619.50
501.32	25298.85
501.49	25235.66
501.67	25301.19
501.84	25678.02
502.02	25907.39
502.20	25757.60
502.37	25741.21
502.55	25879.30
502.72	26136.76
502.90	26356.77
503.07	25837.17
503.25	26122.72
503.43	26134.42
503.60	26188.25
503.78	26611.89
503.95	26562.74
504.13	26321.66
504.30	26742.96
504.48	26665.72
504.65	26883.39
504.83	27044.89
505.01	27356.18
505.18	27152.55
505.36	27428.74
505.53	27225.11
505.71	27583.21
505.88	27541.08
506.06	27328.10
506.23	27541.08
506.41	27456.82
506.58	27707.26
506.76	27754.07
506.93	28095.79
507.11	28208.14
507.28	28268.99
507.46	28100.47
507.63	28465.60
507.81	28762.84
507.98	28292.40
508.16	28357.93
508.33	28912.64
508.50	28835.40
508.68	28966.47
508.85	29142.01
509.03	28896.25
509.20	28973.49
509.38	29420.53
509.55	29429.90
509.73	29188.82
509.90	29401.81
510.08	29764.59
510.25	29921.41
510.42	29624.16
510.60	30017.37
510.77	30050.14
510.95	30132.06
511.12	29773.95
511.30	30349.73
511.47	30359.09
511.64	30054.82
511.82	30438.67
511.99	30637.61
512.17	30595.48
512.34	30305.26
512.51	30993.37
512.69	31166.57
512.86	30801.45
513.04	31550.42
513.21	31157.21
513.38	31147.85
513.56	31112.74
513.73	31508.29
513.90	30951.24
514.08	31171.25
514.25	31512.97
514.43	31515.31
514.60	31854.69
514.77	31463.82
514.95	32004.49
515.12	31487.23
515.29	31850.01
515.47	31681.49
515.64	32238.54
515.81	32161.30
515.99	32435.14
516.16	32725.37
516.33	32201.09
516.51	32318.12
516.68	32470.25
516.85	32669.20
517.03	32570.90
517.20	32549.83
517.37	32793.25
517.54	33008.58
517.72	33106.88
517.89	32840.06
518.06	33048.36
518.24	33036.66
518.41	33041.34
518.58	33275.40
518.75	32975.81
518.93	33511.79
519.10	33366.68
519.27	33638.18
519.45	33741.16
519.62	33790.31
519.79	34029.05
519.96	33989.26
520.14	33926.07
520.31	33968.19
520.48	34239.70
520.65	33731.80
520.83	34560.35
521.00	34513.54
521.17	34136.71
521.34	34075.86
521.52	34438.64
521.69	34658.65
521.86	35044.84
522.03	34801.43
522.20	35356.13
522.38	34920.79
522.55	35079.95
522.72	34693.76
522.89	35220.38
523.07	35660.40
523.24	35117.40
523.41	35325.71
523.58	34941.86
523.75	35608.91
523.92	35522.31
524.10	35920.20
524.27	35426.35
524.44	35847.64
524.61	35945.95
524.78	36020.84
524.96	36121.49
525.13	36187.02
525.30	36446.82
525.47	36095.74
525.64	36011.48
525.81	36411.71
525.98	36385.97
526.16	36533.42
526.33	36140.21
526.50	36350.86
526.67	36486.61
526.84	36858.76
527.01	36751.09
527.18	36669.17
527.36	36631.72
527.53	36952.38
527.70	37368.99
527.87	37413.46
528.04	37256.65
528.21	37317.50
528.38	37223.88
528.55	37429.85
528.72	37158.34
528.89	37727.10
529.07	37322.18
529.24	36987.49
529.41	37518.79
529.58	37315.16
529.75	37710.71
529.92	37584.32
530.09	37759.86
530.26	37862.85
530.43	37638.15
530.60	37783.27
530.77	37593.68
530.94	37862.85
531.11	37703.69
531.28	38487.77
531.46	38082.86
531.63	38061.79
531.80	37930.72
531.97	38738.21
532.14	38527.56
532.31	38272.44
532.48	38335.63
532.65	38665.65
532.82	38398.83
532.99	38726.50
533.16	38576.71
533.33	38969.92
533.50	38916.09
533.67	38768.63
533.84	38162.43
534.01	38747.57
534.18	39115.03
534.35	39730.59
534.52	39306.96
534.69	39559.73
534.86	39557.39
535.03	39503.56
535.20	38974.60
535.37	39292.91
535.54	39791.45
535.71	39470.79
535.88	40102.74
536.05	39178.23
536.22	39730.59
536.38	39487.18
536.55	39990.39
536.72	39997.41
536.89	39611.23
537.06	39896.77
537.23	40020.82
537.40	39924.86
537.57	39381.85
537.74	39866.34
537.91	40252.53
538.08	40044.23
538.25	39641.65
538.42	40383.60
538.59	40641.06
538.75	40069.97
538.92	40603.61
539.09	40685.53
539.26	40369.56
539.43	40421.05
539.60	40840.01
539.77	40844.69
539.94	41090.44
540.11	40865.75
540.28	41179.39
540.44	40720.64
540.61	41045.97
540.78	40840.01
540.95	40680.85
541.12	40502.97
541.29	40847.03
541.46	41179.39
541.62	41270.67
541.79	41256.62
541.96	40992.14
542.13	41062.36
542.30	41179.39
542.47	41237.90
542.63	41144.28
542.80	41663.88
542.97	41680.26
543.14	42241.99
543.31	41694.30
543.48	41888.57
543.64	41956.44
543.81	42272.42
543.98	42291.14
544.15	41687.28
544.32	42291.14
544.48	42555.62
544.65	42642.22
544.82	42309.86
544.99	41930.70
545.16	42480.72
545.32	42333.27
545.49	42799.04
545.66	42726.48
545.83	42745.20
546.00	42993.30
546.16	42632.86
546.33	42344.97
546.50	42457.32
546.67	42927.77
546.83	42562.64
547.00	42497.11
547.17	42293.48
547.34	42775.63
547.50	42960.53
547.67	43335.02
547.84	43154.80
548.00	43143.09
548.17	43585.46
548.34	43239.06
548.51	43409.92
548.67	43304.59
548.84	43583.12
549.01	43304.59
549.18	43370.13
549.34	43489.49
549.51	43810.15
549.68	43601.84
549.84	43402.89
550.01	43545.67
550.18	43452.05
550.34	43400.55
550.51	44072.29
550.68	43505.88
550.84	43192.25
551.01	43772.70
551.18	43157.14
551.34	43540.99
551.51	44081.65
551.68	43650.99
551.84	43608.86
552.01	44004.41
552.18	44219.74
552.34	43831.21
552.51	44133.14
552.68	44093.35
552.84	44334.43
553.01	43990.37
553.18	44086.33
553.34	44282.94
553.51	44760.40
553.67	44294.64
553.84	44650.40
554.01	44439.75
554.17	44762.75
554.34	44479.54
554.51	44816.58
554.67	44584.86
554.84	44437.41
555.00	44385.92
555.17	44666.78
555.33	44683.17
555.50	44622.31
555.67	44945.31
555.83	44697.21
556.00	44488.90
556.16	45244.90
556.33	44870.41
556.50	44968.71
556.66	45202.77
556.83	44512.31
556.99	45184.04
557.16	45022.54
557.32	45329.16
557.49	45235.53
557.65	45294.05
557.82	45186.38
557.98	44921.90
558.15	44959.35
558.32	45331.50
558.48	45230.85
558.65	45088.08
558.81	45603.00
558.98	44961.69
559.14	45287.03
559.31	45223.83
559.47	45336.18
559.64	45282.34
559.80	45584.27
559.97	45780.88
560.13	45373.63
560.30	45914.29
560.46	45780.88
560.63	45825.35
560.79	45851.09
560.96	45792.58
561.12	45595.98
561.29	45638.11
561.45	45705.98
561.61	46134.30
561.78	45607.68
561.94	45876.84
562.11	45731.73
562.27	45626.40
562.44	45628.74
562.60	45949.40
562.77	46279.41
562.93	45993.87
563.10	46319.20
563.26	46003.23
563.42	46169.41
563.59	46045.36
563.75	45600.66
563.92	46206.86
564.08	46005.57
564.24	46270.05
564.41	45940.04
564.57	45956.42
564.74	46258.35
564.90	45724.71
565.07	46190.47
565.23	46321.54
565.39	46384.74
565.56	46424.53
565.72	46094.51
565.88	45705.98
566.05	46588.36
566.21	46082.81
566.38	46401.12
566.54	46005.57
566.70	46602.41
566.87	46555.60
567.03	46464.32
567.19	46506.44
567.36	46129.62
567.52	46391.76
567.68	46494.74
567.85	46450.27
568.01	46681.98
568.17	46560.28
568.34	46358.99
568.50	46597.73
568.66	46256.01
568.83	46855.18
568.99	46508.79
569.15	46838.80
569.32	46323.88
569.48	46735.82
569.64	47023.70
569.81	46939.44
569.97	46609.43
570.13	46281.75
570.30	46248.99
570.46	46841.14
570.62	46649.22
570.78	46958.17
570.95	46784.97
571.11	46967.53
571.27	46576.66
571.43	46735.82
571.60	46660.92
571.76	46571.98
571.92	46611.77
572.09	46672.62
572.25	46490.06
572.41	47147.75
572.57	46625.81
572.74	46979.23
572.90	46789.65
573.06	46972.21
573.22	46822.42
573.38	47114.98
573.55	46902.00
573.71	47449.68
573.87	47110.30
574.03	46920.72
574.20	47426.28
574.36	46841.14
574.52	46979.23
574.68	46972.21
574.84	46862.21
575.01	47222.65
575.17	47398.19
575.33	47428.62
575.49	46988.60
575.65	47159.45
575.82	47239.03
575.98	46768.58
576.14	47290.52
576.30	47463.72
576.46	47117.32
576.62	47173.50
576.79	46806.03
576.95	46672.62
577.11	46637.51
577.27	47185.20
577.43	47021.36
577.59	47243.71
577.75	47070.51
577.92	46539.21
578.08	46969.87
578.24	47445.00
578.40	47524.58
578.56	47091.58
578.72	47021.36
578.88	47154.77
579.04	47255.42
579.21	47248.39
579.37	47325.63
579.53	47559.69
579.69	46906.68
579.85	47037.75
580.01	47002.64
580.17	46873.91
580.33	47140.73
580.49	47194.56
580.65	47248.39
580.82	47454.36
580.98	47131.37
581.14	46878.59
581.30	47489.47
581.46	46995.62
581.62	47154.77
581.78	47110.30
581.94	47393.51
582.10	47152.43
582.26	47751.61
582.42	47175.84
582.58	47283.50
582.74	47302.23
582.90	47037.75
583.06	47349.04
583.22	47208.61
583.38	47409.89
583.54	47613.52
583.70	47398.19
583.86	47524.58
584.02	47250.74
584.18	47519.90
584.34	47838.21
584.50	47611.18
584.66	47819.49
584.82	47454.36
584.98	48322.70
585.14	47931.83
585.30	47159.45
585.46	47196.90
585.62	47334.99
585.78	47679.05
585.94	47021.36
586.10	47379.46
586.26	47152.43
586.42	48081.63
586.58	47655.65
586.74	47468.40
586.90	47220.31
587.06	47182.86
587.22	47594.79
587.38	47306.91
587.54	47821.83
587.70	47775.02
587.86	47356.06
588.02	47477.77
588.18	47463.72
588.34	47508.19
588.49	47229.67
588.65	47316.27
588.81	47445.00
588.97	47491.81
589.13	47704.80
589.29	47510.53
589.45	47901.40
589.61	47730.54
589.77	47985.66
589.93	47606.50
590.08	47496.49
