SpectraSuite Data File
++++++++++++++++++++++++++++++++++++
Date: Fri Oct 25 10:44:41 EDT 2013
User: price-jones
Dark Spectrum Present: No
Reference Spectrum Present: No
Number of Sampled Component Spectra: 1
Spectrometers: USB2+H05261
Integration Time (usec): 100000 (USB2+H05261)
Spectra Averaged: 1 (USB2+H05261)
Boxcar Smoothing: 0 (USB2+H05261)
Correct for Electrical Dark: No (USB2+H05261)
Strobe/Lamp Enabled: No (USB2+H05261)
Correct for Detector Non-linearity: No (USB2+H05261)
Correct for Stray Light: No (USB2+H05261)
Number of Pixels in Processed Spectrum: 2048
>>>>>Begin Processed Spectral Data<<<<<
365.73	107.66
365.92	107.66
366.12	107.66
366.32	37.45
366.52	53.83
366.72	95.96
366.91	0.00
367.11	49.15
367.31	32.77
367.51	77.24
367.70	39.79
367.90	72.56
368.10	81.92
368.30	0.00
368.49	79.58
368.69	58.51
368.89	79.58
369.09	98.30
369.28	58.51
369.48	51.49
369.68	63.19
369.87	16.38
370.07	32.77
370.27	133.41
370.47	191.92
370.66	346.40
370.86	353.42
371.06	390.87
371.25	379.17
371.45	421.30
371.65	463.43
371.84	430.66
372.04	498.53
372.24	418.96
372.44	500.87
372.63	404.91
372.83	491.51
373.03	414.27
373.22	454.06
373.42	477.47
373.62	528.96
373.81	507.90
374.01	585.13
374.21	521.94
374.40	521.94
374.60	575.77
374.79	514.92
374.99	566.41
375.19	606.20
375.38	589.82
375.58	524.28
375.78	535.98
375.97	599.18
376.17	573.43
376.37	587.47
376.56	524.28
376.76	540.66
376.95	568.75
377.15	589.82
377.35	524.28
377.54	557.05
377.74	559.39
377.93	538.32
378.13	575.77
378.33	660.03
378.52	599.18
378.72	613.22
378.91	592.16
379.11	624.92
379.31	638.97
379.50	631.94
379.70	631.94
379.89	622.58
380.09	667.05
380.28	592.16
380.48	688.12
380.68	690.46
380.87	655.35
381.07	681.10
381.26	676.41
381.46	725.57
381.65	596.84
381.85	667.05
382.04	643.65
382.24	631.94
382.43	645.99
382.63	641.31
382.83	641.31
383.02	664.71
383.22	638.97
383.41	638.97
383.61	758.33
383.80	727.91
384.00	697.48
384.19	763.01
384.39	702.16
384.58	716.20
384.78	767.70
384.97	734.93
385.17	709.18
385.36	816.85
385.56	704.50
385.75	765.36
385.95	720.88
386.14	807.48
386.34	777.06
386.53	821.53
386.72	683.44
386.92	849.61
387.11	812.17
387.31	812.17
387.50	755.99
387.70	835.57
387.89	812.17
388.09	826.21
388.28	770.04
388.48	814.51
388.67	819.19
388.86	786.42
389.06	763.01
389.25	858.98
389.45	765.36
389.64	894.08
389.84	922.17
390.03	919.83
390.22	954.94
390.42	889.40
390.61	889.40
390.81	922.17
391.00	976.00
391.19	954.94
391.39	950.26
391.58	959.62
391.78	894.08
391.97	903.45
392.16	917.49
392.36	1048.56
392.55	910.47
392.75	990.05
392.94	947.92
393.13	976.00
393.33	870.68
393.52	957.28
393.71	976.00
393.91	1039.20
394.10	1046.22
394.29	999.41
394.49	1107.07
394.68	1104.73
394.88	994.73
395.07	1090.69
395.26	1160.91
395.46	1022.81
395.65	1071.97
395.84	1207.72
396.04	1151.54
396.23	1118.78
396.42	1050.90
396.62	1074.31
396.81	1078.99
397.00	1043.88
397.19	1186.65
397.39	1214.74
397.58	1172.61
397.77	1179.63
397.97	1247.51
398.16	1212.40
398.35	1266.23
398.55	1313.04
398.74	1357.51
398.93	1252.19
399.12	1261.55
399.32	1345.81
399.51	1324.74
399.70	1383.26
399.90	1362.19
400.09	1401.98
400.28	1418.36
400.47	1338.79
400.67	1472.20
400.86	1418.36
401.05	1479.22
401.24	1516.67
401.44	1598.59
401.63	1502.62
401.82	1565.82
402.01	1401.98
402.21	1558.80
402.40	1490.92
402.59	1537.73
402.78	1500.28
402.97	1495.60
403.17	1563.48
403.36	1577.52
403.55	1673.48
403.74	1617.31
403.93	1668.80
404.13	1596.25
404.32	1706.25
404.51	1703.91
404.70	1666.46
404.89	1636.03
405.09	1687.53
405.28	1776.47
405.47	1734.34
405.66	1839.66
405.85	1717.95
406.05	1767.10
406.24	1865.41
406.43	1680.50
406.62	1877.11
406.81	1872.43
407.00	1872.43
407.20	1788.17
407.39	1891.15
407.58	1947.33
407.77	1849.02
407.96	1994.14
408.15	1989.46
408.34	1860.73
408.54	2064.35
408.73	1902.86
408.92	2017.54
409.11	2071.37
409.30	2094.78
409.49	2031.58
409.68	1989.46
409.87	2111.16
410.07	2047.97
410.26	2153.29
410.45	2139.25
410.64	2204.78
410.83	2101.80
411.02	2260.96
411.21	2165.00
411.40	2176.70
411.59	2368.62
411.78	2340.54
411.98	2328.83
412.17	2317.13
412.36	2286.70
412.55	2345.22
412.74	2424.80
412.93	2497.35
413.12	2321.81
413.31	2490.33
413.50	2464.58
413.69	2574.59
413.88	2504.37
414.07	2527.78
414.26	2614.38
414.45	2672.89
414.64	2520.76
414.83	2715.02
415.02	2656.51
415.22	2740.77
415.41	2768.85
415.60	2768.85
415.79	2829.71
415.98	2815.66
416.17	2897.58
416.36	2836.73
416.55	2855.45
416.74	2916.31
416.93	2813.32
417.12	3009.93
417.31	2960.78
417.50	2998.23
417.69	3033.33
417.88	2998.23
418.07	3040.36
418.26	3159.72
418.45	3183.13
418.64	3173.77
418.83	3145.68
419.02	3229.94
419.21	3304.84
419.39	3215.90
419.58	3098.87
419.77	3197.17
419.96	3222.92
420.15	3328.24
420.34	3243.98
420.53	3342.28
420.72	3494.42
420.91	3370.37
421.10	3377.39
421.29	3541.23
421.48	3449.95
421.67	3368.03
421.86	3346.97
422.05	3356.33
422.24	3424.20
422.43	3382.07
422.61	3501.44
422.80	3454.63
422.99	3417.18
423.18	3494.42
423.37	3585.70
423.56	3503.78
423.75	3485.06
423.94	3485.06
424.13	3218.24
424.32	3466.33
424.50	3569.32
424.69	3564.64
424.88	3705.07
425.07	3501.44
425.26	3365.69
425.45	3534.21
425.64	3681.66
425.83	3555.27
426.01	3414.84
426.20	3655.92
426.39	3571.66
426.58	3618.47
426.77	3548.25
426.96	3585.70
427.15	3531.87
427.33	3599.74
427.52	3714.43
427.71	3749.54
427.90	3723.79
428.09	3749.54
428.28	3758.90
428.46	3784.65
428.65	3681.66
428.84	3805.71
429.03	3920.40
429.22	3712.09
429.40	3864.22
429.59	3918.06
429.78	3630.17
429.97	3763.58
430.16	3777.62
430.34	3744.86
430.53	3737.84
430.72	3967.21
430.91	3953.16
431.10	3948.48
431.28	3908.69
431.47	4044.45
431.66	4234.03
431.85	4133.39
432.03	4147.43
432.22	4294.88
432.41	4280.84
432.60	4201.26
432.79	4109.98
432.97	4355.74
433.16	4180.20
433.35	4205.94
433.54	4166.15
433.72	4229.35
433.91	4283.18
434.10	4297.22
434.28	4337.01
434.47	4383.82
434.66	4369.78
434.85	4423.61
435.03	4461.06
435.22	4465.74
435.41	4514.89
435.59	4528.94
435.78	4713.84
435.97	4606.17
436.16	4608.51
436.34	4542.98
436.53	4582.77
436.72	4727.88
436.90	4571.07
437.09	4732.56
437.28	4540.64
437.46	4629.58
437.65	4512.55
437.84	4828.53
438.02	4704.48
438.21	4716.18
438.40	4755.97
438.58	4891.72
438.77	5022.79
438.96	4809.80
439.14	4975.98
439.33	5076.62
439.52	5029.81
439.70	4905.76
439.89	5210.03
440.08	5109.39
440.26	5104.71
440.45	5284.93
440.63	5324.72
440.82	5315.36
441.01	5263.86
441.19	5425.36
441.38	5591.54
441.57	5420.68
441.75	5582.18
441.94	5598.56
442.12	5722.61
442.31	5657.07
442.50	5547.07
442.68	5743.67
442.87	5708.57
443.05	5610.26
443.24	5790.49
443.43	5792.83
443.61	5909.85
443.80	5935.60
443.98	5804.53
444.17	5577.50
444.35	5785.80
444.54	5788.14
444.73	5895.81
444.91	5825.59
445.10	5724.95
445.28	5863.04
445.47	5671.12
445.65	5788.14
445.84	5942.62
446.02	5895.81
446.21	5879.43
446.39	5867.72
446.58	6033.90
446.77	5809.21
446.95	5853.68
447.14	5984.75
447.32	6022.20
447.51	5860.70
447.69	5823.25
447.88	5900.49
448.06	6071.35
448.25	6040.92
448.43	6036.24
448.62	6015.18
448.80	6054.97
448.99	5973.05
449.17	6195.40
449.36	6148.59
449.54	6183.70
449.73	6162.63
449.91	6382.64
450.10	6200.08
450.28	6462.22
450.46	6471.58
450.65	6443.49
450.83	6462.22
451.02	6361.58
451.20	6502.01
451.39	6555.84
451.57	6380.30
451.76	6410.73
451.94	6513.71
452.13	6516.05
452.31	6614.35
452.49	6282.00
452.68	6326.47
452.86	6546.48
453.05	6677.55
453.23	6464.56
453.42	6296.04
453.60	6485.62
453.78	6588.61
453.97	6717.34
454.15	6675.21
454.34	6621.38
454.52	6792.23
454.70	6860.11
454.89	6754.79
455.07	6787.55
455.26	6677.55
455.44	7054.37
455.62	6993.52
455.81	7201.83
455.99	6963.09
456.17	6862.45
456.36	7061.40
456.54	7047.35
456.73	7033.31
456.91	7265.02
457.09	7307.15
457.28	7311.83
457.46	7206.51
457.64	7363.33
457.83	7098.84
458.01	7295.45
458.19	7590.36
458.38	7412.48
458.56	7438.22
458.74	7356.30
458.93	7328.22
459.11	7478.01
459.29	7372.69
459.48	7573.97
459.66	7339.92
459.84	7754.19
460.03	7714.41
460.21	7733.13
460.39	7681.64
460.57	7555.25
460.76	7686.32
460.94	7819.73
461.12	7864.20
461.31	8081.87
461.49	7784.62
461.67	7730.79
461.85	7950.80
462.04	7915.69
462.22	7957.82
462.40	8070.17
462.59	8063.15
462.77	8112.30
462.95	8142.72
463.13	8093.57
463.32	8016.33
463.50	8154.43
463.68	8149.75
463.86	8215.28
464.05	8009.31
464.23	8100.59
464.41	8203.58
464.59	8063.15
464.78	8262.09
464.96	8016.33
465.14	8135.70
465.32	8395.50
465.50	8409.54
465.69	8234.00
465.87	8271.45
466.05	8280.82
466.23	8215.28
466.41	8533.59
466.60	8470.40
466.78	8189.53
466.96	8472.74
467.14	8374.44
467.32	8184.85
467.51	8404.86
467.69	8484.44
467.87	8446.99
468.05	8678.71
468.23	8575.72
468.41	8538.27
468.60	8540.61
468.78	8741.90
468.96	8622.53
469.14	8777.01
469.32	8615.51
469.50	8393.16
469.69	8762.97
469.87	8854.25
470.05	8924.46
470.23	8987.66
470.41	8957.23
470.59	9055.53
470.77	9121.07
470.95	9170.22
471.14	9202.99
471.32	9004.04
471.50	9362.14
471.68	9158.52
471.86	9362.14
472.04	9315.33
472.22	9544.70
472.40	9261.50
472.58	9544.70
472.77	9675.77
472.95	9465.13
473.13	9928.55
473.31	9603.22
473.49	9423.00
473.67	9673.43
473.85	9537.68
474.03	10190.69
474.21	9921.53
474.39	10047.92
474.57	10085.37
474.75	10083.03
474.93	10296.02
475.12	10092.39
475.30	10059.62
475.48	10399.00
475.66	10270.27
475.84	10223.46
476.02	10239.84
476.20	10171.97
476.38	10375.59
476.56	10860.09
476.74	10670.50
476.92	10731.36
477.10	10471.56
477.28	11000.52
477.46	10881.15
477.64	11206.48
477.82	11206.48
478.00	11339.90
478.18	11382.03
478.36	11510.75
478.54	11580.97
478.72	11552.88
478.90	11901.62
479.08	11859.49
479.26	11913.33
479.44	11941.41
479.62	11798.64
479.80	12271.43
479.98	12372.07
480.16	12503.14
480.34	12269.09
480.52	12486.76
480.70	12521.87
480.88	12456.33
481.06	12369.73
481.24	12421.22
481.41	13006.36
481.59	12961.89
481.77	12999.34
481.95	12938.48
482.13	13348.08
482.31	13090.62
482.49	13408.93
482.67	13600.85
482.85	13642.98
483.03	13923.85
483.21	13809.16
483.39	14125.13
483.57	13942.57
483.74	14038.53
483.92	14153.22
484.10	14127.47
484.28	14417.70
484.46	14597.92
484.64	14733.67
484.82	14618.99
485.00	14848.36
485.18	15140.93
485.35	15372.64
485.53	14834.32
485.71	15211.14
485.89	15089.43
486.07	15176.03
486.25	15520.09
486.43	15260.29
486.61	15803.30
486.78	15840.75
486.96	16159.06
487.14	16079.48
487.32	16262.04
487.50	16423.54
487.68	16716.11
487.85	16681.00
488.03	16709.08
488.21	17177.19
488.39	17032.08
488.57	17247.41
488.75	17214.64
488.92	17502.53
489.10	17495.50
489.28	17788.07
489.46	18230.43
489.64	17830.20
489.81	18525.34
489.99	18469.17
490.17	18504.28
490.35	18513.64
490.53	18207.03
490.70	18712.58
490.88	18874.08
491.06	19105.79
491.24	19035.58
491.41	19206.44
491.59	19122.18
491.77	19082.39
491.95	19150.26
492.13	19646.46
492.30	19651.14
492.48	19683.91
492.66	19784.55
492.84	20374.36
493.01	20180.10
493.19	20065.41
493.37	20404.79
493.54	20322.87
493.72	20599.05
493.90	20566.29
494.08	20992.26
494.25	21387.82
494.43	21216.96
494.61	21493.14
494.79	21516.54
494.96	21329.30
495.14	21483.78
495.32	21717.83
495.49	21568.04
495.67	21612.51
495.85	22057.21
496.02	22185.94
496.20	22387.22
496.38	22499.57
496.55	22494.89
496.73	23061.30
496.91	22665.75
497.09	22941.93
497.26	23012.15
497.44	22787.46
497.62	22939.59
497.79	23510.68
497.97	23281.31
498.14	23513.02
498.32	23613.66
498.50	23623.03
498.67	23672.18
498.85	24018.58
499.03	24271.36
499.20	24290.08
499.38	23999.85
499.56	24086.45
499.73	24575.62
499.91	24781.59
500.08	24425.83
500.26	24442.21
500.44	24582.65
500.61	24325.19
500.79	24437.53
500.97	24463.28
501.14	24912.66
501.32	25228.63
501.49	25032.03
501.67	25095.22
501.84	24922.02
502.02	25195.87
502.20	25418.22
502.37	25628.87
502.55	25247.36
502.72	25804.41
502.90	25879.30
503.07	25645.25
503.25	25778.66
503.43	25944.84
503.60	26410.60
503.78	26071.23
503.95	26096.97
504.13	26377.84
504.30	26518.27
504.48	26321.66
504.65	26628.27
504.83	26642.32
505.01	26913.82
505.18	26686.79
505.36	27250.86
505.53	27295.33
505.71	27194.68
505.88	27524.70
506.06	26806.16
506.23	27393.63
506.41	27101.06
506.58	27314.05
506.76	27690.88
506.93	27604.28
507.11	27030.85
507.28	27878.12
507.46	27679.18
507.63	27784.50
507.81	28386.02
507.98	28105.15
508.16	27955.36
508.33	28381.34
508.50	28603.69
508.68	28390.70
508.85	28498.36
509.03	28790.93
509.20	28460.91
509.38	29174.78
509.55	28753.48
509.73	29118.60
509.90	28858.81
510.08	29050.73
510.25	29181.80
510.42	29088.18
510.60	29497.77
510.77	29317.55
510.95	29785.66
511.12	29687.36
511.30	29687.36
511.47	29986.94
511.64	30010.35
511.82	30066.52
511.99	29790.34
512.17	29795.02
512.34	29958.86
512.51	30155.46
512.69	30403.56
512.86	30745.28
513.04	30780.39
513.21	30567.40
513.38	30611.87
513.56	30831.88
513.73	30319.30
513.90	30941.88
514.08	30932.52
514.25	30857.62
514.43	31171.25
514.60	30969.97
514.77	30902.09
514.95	31564.46
515.12	31398.29
515.29	31152.53
515.47	31454.46
515.64	31667.45
515.81	31501.27
515.99	31548.08
516.16	31747.03
516.33	31501.27
516.51	32128.53
516.68	31646.38
516.85	31438.08
517.03	31735.32
517.20	31632.34
517.37	31732.98
517.54	32077.04
517.72	32212.79
517.89	32055.98
518.06	32240.88
518.24	31964.70
518.41	32123.85
518.58	32503.02
518.75	32641.11
518.93	32334.50
519.10	32594.30
519.27	33036.66
519.45	32755.80
519.62	32624.73
519.79	32924.32
519.96	32978.15
520.14	33528.17
520.31	33200.50
520.48	33256.67
520.65	33322.21
520.83	33551.58
521.00	33319.87
521.17	33366.68
521.34	33734.14
521.52	33722.44
521.69	34031.39
521.86	33991.60
522.03	33659.24
522.20	34227.99
522.38	33837.12
522.55	33888.62
522.72	33844.15
522.89	34492.47
523.07	34527.58
523.24	33699.03
523.41	34026.71
523.58	34298.21
523.75	35093.99
523.92	35044.84
524.10	35077.61
524.27	34562.69
524.44	34705.46
524.61	35285.92
524.78	35215.70
524.96	35108.04
525.13	35220.38
525.30	35299.96
525.47	35337.41
525.64	35171.23
525.81	35475.50
525.98	35473.16
526.16	34913.77
526.33	35178.25
526.50	35318.68
526.67	35541.03
526.84	35278.89
527.01	35211.02
527.18	35475.50
527.36	35700.19
527.53	35779.77
527.70	35828.92
527.87	36016.16
528.04	36275.96
528.21	36002.12
528.38	36266.60
528.55	36151.91
528.72	36285.33
528.89	36336.82
529.07	36662.15
529.24	36369.58
529.41	36203.41
529.58	36273.62
529.75	36341.50
529.92	36603.64
530.09	36587.25
530.26	36797.90
530.43	36959.40
530.60	36451.50
530.77	36919.61
530.94	36898.55
531.11	36992.17
531.28	36947.70
531.46	37015.57
531.63	37148.98
531.80	37179.41
531.97	37315.16
532.14	37048.34
532.31	37146.64
532.48	37254.31
532.65	37315.16
532.82	37186.43
532.99	37502.40
533.16	37193.45
533.33	37806.67
533.50	37776.25
533.67	37926.04
533.84	37287.07
534.01	37563.26
534.18	37509.43
534.35	38370.74
534.52	37607.73
534.69	38031.36
534.86	37965.83
535.03	37944.76
535.20	38242.01
535.37	38447.98
535.54	38415.21
535.71	38167.12
535.88	38071.15
536.05	38260.74
536.22	37816.04
536.38	38281.80
536.55	38368.40
536.72	38677.35
536.89	38330.95
537.06	38574.37
537.23	38630.54
537.40	38511.17
537.57	38546.28
537.74	39047.16
537.91	38836.51
538.08	38932.47
538.25	38459.68
538.42	38948.85
538.59	39168.87
538.75	38616.50
538.92	38925.45
539.09	39276.53
539.26	38745.23
539.43	38958.22
539.60	39402.92
539.77	38630.54
539.94	38719.48
540.11	38789.70
540.28	39438.03
540.44	39192.27
540.61	39414.62
540.78	39433.35
540.95	38859.91
541.12	39440.37
541.29	39632.29
541.46	39484.84
541.62	39882.73
541.79	39524.63
541.96	39461.43
542.13	39793.79
542.30	39487.18
542.47	40009.12
542.63	40002.10
542.80	40210.40
542.97	40374.24
543.14	40304.02
543.31	40491.27
543.48	39896.77
543.64	40900.86
543.81	40458.50
543.98	40271.26
544.15	40044.23
544.32	40552.12
544.48	40921.93
544.65	40680.85
544.82	40800.22
544.99	40622.34
545.16	40641.06
545.32	40629.36
545.49	41038.95
545.66	41490.68
545.83	41137.26
546.00	41287.05
546.16	41392.37
546.33	40844.69
546.50	40179.98
546.67	40692.55
546.83	40009.12
547.00	41191.09
547.17	41104.49
547.34	41060.02
547.50	40863.41
547.67	41783.24
547.84	41113.85
548.00	41422.80
548.17	41408.76
548.34	41422.80
548.51	41600.68
548.67	41736.43
548.84	41586.64
549.01	41542.17
549.18	41698.98
549.34	41375.99
549.51	41731.75
549.68	41734.09
549.84	41743.45
550.01	41830.05
550.18	41429.82
550.34	41792.61
550.51	41680.26
550.68	42146.03
550.84	41443.87
551.01	42220.92
551.18	41748.14
551.34	41989.21
551.51	41984.53
551.68	42167.09
551.84	41928.36
552.01	42007.94
552.18	41989.21
552.34	41916.65
552.51	42387.10
552.68	42124.96
552.84	42124.96
553.01	42454.98
553.18	41940.06
553.34	42333.27
553.51	42234.97
553.67	42302.84
553.84	42534.56
554.01	42656.26
554.17	42139.00
554.34	42323.91
554.51	42401.14
554.67	42834.14
554.84	42698.39
555.00	42691.37
555.17	42422.21
555.33	42384.76
555.50	42656.26
555.67	42674.99
555.83	42733.50
556.00	42667.97
556.16	42759.25
556.33	42614.13
556.50	42946.49
556.66	42768.61
556.83	42249.01
556.99	42780.31
557.16	43166.50
557.32	43068.20
557.49	43056.50
557.65	42550.94
557.82	42962.87
557.98	42698.39
558.15	43185.22
558.32	43239.06
558.48	43264.80
558.65	42916.06
558.81	43152.46
558.98	43150.12
559.14	43000.32
559.31	42754.57
559.47	43133.73
559.64	42960.53
559.80	43365.45
559.97	43241.40
560.13	43330.34
560.30	42836.48
560.46	43276.51
560.63	43849.94
560.79	43501.20
560.96	44041.86
561.12	43210.97
561.29	43115.01
561.45	43264.80
561.61	43501.20
561.78	43653.33
561.94	43320.98
562.11	43194.59
562.27	43597.16
562.44	43143.09
562.60	43695.46
562.77	43276.51
562.93	43728.23
563.10	43983.35
563.26	43250.76
563.42	43697.80
563.59	43522.26
563.75	43349.06
563.92	43821.85
564.08	43627.59
564.24	44163.57
564.41	43384.17
564.57	43580.78
564.74	43498.86
564.90	43641.63
565.07	43924.83
565.23	43571.41
565.39	43503.54
565.56	44133.14
565.72	43660.35
565.88	43475.45
566.05	43889.73
566.21	43662.69
566.38	43545.67
566.54	43674.40
566.70	43723.55
566.87	44240.81
567.03	43278.85
567.19	44105.06
567.36	44123.78
567.52	44177.61
567.68	44294.64
567.85	43835.89
568.01	44002.07
568.17	43810.15
568.34	44292.30
568.50	43690.78
568.66	44016.11
568.83	43433.32
568.99	43917.81
569.15	43772.70
569.32	43906.11
569.48	43700.14
569.64	44215.06
569.81	44528.69
569.97	43812.49
570.13	44257.19
570.30	43613.54
570.46	44034.84
570.62	43882.70
570.78	43723.55
570.95	43959.94
571.11	43908.45
571.27	43990.37
571.43	43901.43
571.60	43840.57
571.76	44093.35
571.92	44203.36
572.09	43753.97
572.25	44165.91
572.41	44144.84
572.57	44198.68
572.74	44561.46
572.90	44304.00
573.06	44086.33
573.22	44245.49
573.38	44243.15
573.55	43782.06
573.71	44374.22
573.87	44076.97
574.03	44020.80
574.20	43573.75
574.36	43945.90
574.52	44198.68
574.68	44072.29
574.84	44392.94
575.01	44371.88
575.17	44027.82
575.33	44013.77
575.49	43892.07
575.65	44240.81
575.82	44619.97
575.98	44430.39
576.14	44521.67
576.30	44161.23
576.46	44271.23
576.62	44121.44
576.79	43952.92
576.95	44123.78
577.11	44041.86
577.27	44465.50
577.43	44414.01
577.59	44254.85
577.75	43721.21
577.92	43360.76
578.08	43601.84
578.24	43646.31
578.40	43878.02
578.56	44296.98
578.72	44311.02
578.88	44622.31
579.04	44542.74
579.21	44273.57
579.37	44278.25
579.53	44268.89
579.69	44247.83
579.85	44390.60
580.01	44430.39
580.17	44271.23
580.33	44062.93
580.49	44245.49
580.65	44708.91
580.82	44376.56
580.98	44355.49
581.14	43927.17
581.30	45043.61
581.46	44552.10
581.62	44746.36
581.78	44175.27
581.94	44339.11
582.10	44273.57
582.26	44545.08
582.42	44744.02
582.58	44346.13
582.74	44222.08
582.90	44147.18
583.06	44374.22
583.22	44643.38
583.38	44713.59
583.54	44896.16
583.70	45099.78
583.86	44362.51
584.02	44163.57
584.18	44369.54
584.34	44570.82
584.50	44465.50
584.66	44580.18
584.82	43894.41
584.98	44367.20
585.14	44914.88
585.30	44163.57
585.46	43868.66
585.62	44231.44
585.78	44451.45
585.94	43789.08
586.10	44259.53
586.26	44212.72
586.42	44912.54
586.58	44451.45
586.74	44617.63
586.90	44346.13
587.06	44493.58
587.22	44339.11
587.38	43817.17
587.54	44367.20
587.70	44584.86
587.86	44678.49
588.02	44889.13
588.18	44463.16
588.34	44437.41
588.49	43807.81
588.65	44123.78
588.81	43871.00
588.97	44519.33
589.13	44074.63
589.29	44655.08
589.45	44399.96
589.61	44591.89
589.77	44919.56
589.93	44751.04
590.08	44341.45
590.24	44762.75
