SpectraSuite Data File
++++++++++++++++++++++++++++++++++++
Date: Fri Oct 25 11:25:17 EDT 2013
User: price-jones
Dark Spectrum Present: No
Reference Spectrum Present: No
Number of Sampled Component Spectra: 1
Spectrometers: USB2+H05261
Integration Time (usec): 100000 (USB2+H05261)
Spectra Averaged: 1 (USB2+H05261)
Boxcar Smoothing: 0 (USB2+H05261)
Correct for Electrical Dark: No (USB2+H05261)
Strobe/Lamp Enabled: No (USB2+H05261)
Correct for Detector Non-linearity: No (USB2+H05261)
Correct for Stray Light: No (USB2+H05261)
Number of Pixels in Processed Spectrum: 2048
>>>>>Begin Processed Spectral Data<<<<<
365.73	262.14
365.92	262.14
366.12	262.14
366.32	196.60
366.52	159.16
366.72	170.86
366.91	161.50
367.11	241.08
367.31	140.43
367.51	154.48
367.70	98.30
367.90	149.79
368.10	182.56
368.30	110.01
368.49	100.64
368.69	163.84
368.89	131.07
369.09	81.92
369.28	170.86
369.48	135.75
369.68	154.48
369.87	196.60
370.07	205.97
370.27	182.56
370.47	362.78
370.66	521.94
370.86	582.79
371.06	667.05
371.25	660.03
371.45	648.33
371.65	709.18
371.84	650.67
372.04	648.33
372.24	711.52
372.44	645.99
372.63	744.29
372.83	695.14
373.03	765.36
373.22	788.76
373.42	863.66
373.62	695.14
373.81	753.65
374.01	807.48
374.21	833.23
374.40	828.55
374.60	760.67
374.79	730.25
374.99	779.40
375.19	809.83
375.38	828.55
375.58	858.98
375.78	812.17
375.97	866.00
376.17	802.80
376.37	945.58
376.56	819.19
376.76	795.78
376.95	744.29
377.15	847.27
377.35	933.87
377.54	880.04
377.74	952.60
377.93	926.85
378.13	922.17
378.33	908.13
378.52	861.32
378.72	983.02
378.91	954.94
379.11	954.94
379.31	950.26
379.50	861.32
379.70	983.02
379.89	919.83
380.09	903.45
380.28	1022.81
380.48	957.28
380.68	1025.15
380.87	985.37
381.07	978.34
381.26	1039.20
381.46	915.15
381.65	1032.18
381.85	954.94
382.04	983.02
382.24	1034.52
382.43	999.41
382.63	994.73
382.83	1128.14
383.02	1074.31
383.22	1172.61
383.41	1093.03
383.61	1001.75
383.80	1097.71
384.00	1100.05
384.19	1034.52
384.39	1114.10
384.58	1224.10
384.78	1107.07
384.97	1210.06
385.17	1135.16
385.36	1135.16
385.56	1057.92
385.75	1116.44
385.95	1172.61
386.14	1214.74
386.34	1233.46
386.53	1160.91
386.72	1198.35
386.92	1268.57
387.11	1203.04
387.31	1238.14
387.50	1280.27
387.70	1184.31
387.89	1303.68
388.09	1263.89
388.28	1299.00
388.48	1231.12
388.67	1317.72
388.86	1322.40
389.06	1291.98
389.25	1441.77
389.45	1411.34
389.64	1320.06
389.84	1413.68
390.03	1355.17
390.22	1432.41
390.42	1376.24
390.61	1420.71
390.81	1439.43
391.00	1413.68
391.19	1362.19
391.39	1401.98
391.58	1460.49
391.78	1488.58
391.97	1481.56
392.16	1554.12
392.36	1502.62
392.55	1476.88
392.75	1568.16
392.94	1556.46
393.13	1444.11
393.33	1519.01
393.52	1572.84
393.71	1631.35
393.91	1593.90
394.10	1614.97
394.29	1565.82
394.49	1607.95
394.68	1614.97
394.88	1586.88
395.07	1762.42
395.26	1645.40
395.46	1717.95
395.65	1755.40
395.84	1736.68
396.04	1727.32
396.23	1729.66
396.42	1767.10
396.62	1762.42
396.81	1757.74
397.00	1802.21
397.19	1874.77
397.39	1806.89
397.58	1923.92
397.77	1879.45
397.97	1865.41
398.16	1842.00
398.35	1806.89
398.55	1895.83
398.74	2008.18
398.93	1968.39
399.12	1935.62
399.32	1870.09
399.51	1891.15
399.70	1998.82
399.90	1907.54
400.09	1977.75
400.28	1973.07
400.47	1994.14
400.67	2174.36
400.86	1996.48
401.05	2085.42
401.24	2162.66
401.44	2108.82
401.63	2078.40
401.82	2214.15
402.01	2071.37
402.21	2076.06
402.40	2188.40
402.59	2239.89
402.78	2101.80
402.97	2235.21
403.17	2282.02
403.36	2169.68
403.55	2260.96
403.74	2221.17
403.93	2286.70
404.13	2338.20
404.32	2258.62
404.51	2356.92
404.70	2368.62
404.89	2436.50
405.09	2431.82
405.28	2480.97
405.47	2532.46
405.66	2504.37
405.85	2448.20
406.05	2466.92
406.24	2518.42
406.43	2623.74
406.62	2729.06
406.81	2684.59
407.00	2635.44
407.20	2586.29
407.39	2642.46
407.58	2642.46
407.77	2780.56
407.96	2822.69
408.15	2736.09
408.34	2757.15
408.54	2757.15
408.73	2803.96
408.92	2825.03
409.11	2862.48
409.30	2930.35
409.49	2785.24
409.68	2967.80
409.87	2923.33
410.07	3033.33
410.26	3012.27
410.45	2890.56
410.64	2949.08
410.83	2958.44
411.02	3112.91
411.21	3243.98
411.40	3068.44
411.59	3009.93
411.78	3262.71
411.98	3141.00
412.17	3325.90
412.36	3377.39
412.55	3344.63
412.74	3232.28
412.93	3328.24
413.12	3410.16
413.31	3576.34
413.50	3433.57
413.69	3424.20
413.88	3482.72
414.07	3562.30
414.26	3412.50
414.45	3585.70
414.64	3728.47
414.83	3808.05
415.02	3735.50
415.22	3981.25
415.41	3758.90
415.60	3765.92
415.79	3880.61
415.98	3932.10
416.17	3939.12
416.36	3791.67
416.55	3899.33
416.74	4098.28
416.93	4044.45
417.12	4088.92
417.31	4142.75
417.50	4133.39
417.69	4271.48
417.88	4159.13
418.07	4285.52
418.26	4245.73
418.45	4201.26
418.64	4465.74
418.83	4297.22
419.02	4266.80
419.21	4547.66
419.39	4386.16
419.58	4416.59
419.77	4428.29
419.96	4493.83
420.15	4585.11
420.34	4542.98
420.53	4615.54
420.72	4678.73
420.91	4533.62
421.10	4676.39
421.29	4814.48
421.48	4652.98
421.67	4779.37
421.86	4919.81
422.05	4765.33
422.24	4762.99
422.43	4882.36
422.61	4777.03
422.80	4945.55
422.99	4800.44
423.18	4877.68
423.37	5006.41
423.56	4837.89
423.75	4873.00
423.94	4844.91
424.13	4578.09
424.32	4725.54
424.50	4887.04
424.69	5123.43
424.88	4980.66
425.07	4945.55
425.26	4739.58
425.45	4945.55
425.64	4952.57
425.83	4933.85
426.01	5114.07
426.20	4973.64
426.39	4983.00
426.58	4968.96
426.77	5078.96
426.96	5027.47
427.15	5107.05
427.33	5153.86
427.52	5123.43
427.71	5247.48
427.90	5242.80
428.09	5291.95
428.28	5303.65
428.46	5427.70
428.65	5497.92
428.84	5355.15
429.03	5406.64
429.22	5205.35
429.40	5310.68
429.59	5540.05
429.78	5284.93
429.97	5163.22
430.16	5408.98
430.34	5610.26
430.53	5675.80
430.72	5657.07
430.91	5568.13
431.10	5551.75
431.28	5631.33
431.47	5713.25
431.66	5792.83
431.85	5783.46
432.03	5926.24
432.22	6069.01
432.41	5954.32
432.60	5886.45
432.79	6069.01
432.97	6054.97
433.16	6073.69
433.35	5937.94
433.54	5991.77
433.72	6118.16
433.91	6076.03
434.10	6087.73
434.28	6132.20
434.47	6162.63
434.66	6024.54
434.85	6125.18
435.03	6420.09
435.22	6256.25
435.41	6518.39
435.59	6387.32
435.78	6434.13
435.97	6581.59
436.16	6375.62
436.34	6431.79
436.53	6487.96
436.72	6630.74
436.90	6478.60
437.09	6588.61
437.28	6483.28
437.46	6509.03
437.65	6551.16
437.84	6684.57
438.02	6754.79
438.21	6665.85
438.40	6560.52
438.58	6920.96
438.77	6782.87
438.96	7103.53
439.14	7028.63
439.33	7236.94
439.52	7208.85
439.70	7131.61
439.89	7274.38
440.08	7412.48
440.26	7250.98
440.45	7178.42
440.63	7353.96
440.82	7515.46
441.01	7517.80
441.19	7655.89
441.38	7712.07
441.57	7819.73
441.75	7737.81
441.94	7854.84
442.12	7812.71
442.31	7995.27
442.50	8135.70
442.68	7808.03
442.87	7976.55
443.05	7992.93
443.24	8063.15
443.43	8135.70
443.61	8215.28
443.80	8435.29
443.98	7838.45
444.17	7599.72
444.35	8053.78
444.54	8163.79
444.73	8407.20
444.91	8191.88
445.10	8238.69
445.28	8114.64
445.47	8308.90
445.65	8224.64
445.84	8322.94
446.02	8294.86
446.21	8276.13
446.39	8205.92
446.58	8463.38
446.77	8545.30
446.95	8175.49
447.14	8332.31
447.32	8486.78
447.51	8491.46
447.69	8315.92
447.88	8395.50
448.06	8409.54
448.25	8332.31
448.43	8557.00
448.62	8393.16
448.80	8688.07
448.99	8463.38
449.17	8578.06
449.36	8465.72
449.54	8896.38
449.73	8833.18
449.91	9137.45
450.10	8999.36
450.28	9036.81
450.46	8973.61
450.65	8997.02
450.83	9006.38
451.02	8919.78
451.20	9198.31
451.39	9132.77
451.57	8964.25
451.76	9015.74
451.94	8987.66
452.13	9107.02
452.31	9352.78
452.49	9205.33
452.68	9301.29
452.86	9263.84
453.05	9413.63
453.23	9383.21
453.42	9214.69
453.60	9369.16
453.78	9509.60
453.97	9387.89
454.15	9399.59
454.34	9362.14
454.52	9603.22
454.70	9678.12
454.89	9628.96
455.07	9771.74
455.26	9958.98
455.44	10047.92
455.62	9853.66
455.81	9956.64
455.99	9895.78
456.17	10078.35
456.36	10012.81
456.54	10176.65
456.73	10181.33
456.91	10443.47
457.09	10511.35
457.28	10525.39
457.46	10202.40
457.64	10595.61
457.83	10483.26
458.01	10059.62
458.19	10698.59
458.38	10597.95
458.56	10733.70
458.74	10733.70
458.93	10583.90
459.11	10869.45
459.29	10520.71
459.48	10801.57
459.66	10733.70
459.84	10918.60
460.03	11014.56
460.21	10923.28
460.39	10949.03
460.57	10998.18
460.76	11147.97
460.94	11176.06
461.12	11117.54
461.31	11180.74
461.49	11112.86
461.67	11283.72
461.85	11513.10
462.04	11293.08
462.22	11676.93
462.40	11358.62
462.59	11218.19
462.77	11449.90
462.95	11639.48
463.13	11592.67
463.32	11485.01
463.50	11447.56
463.68	11873.54
463.86	11913.33
464.05	11644.17
464.23	11477.99
464.41	11705.02
464.59	11482.67
464.78	12322.92
464.96	11847.79
465.14	11667.57
465.32	12159.08
465.50	12063.12
465.69	12138.02
465.87	11838.43
466.05	11992.90
466.23	12210.57
466.41	12065.46
466.60	12362.71
466.78	11838.43
466.96	11946.09
467.14	12175.47
467.32	12243.34
467.51	12194.19
467.69	11852.47
467.87	12280.79
468.05	12360.37
468.23	12173.13
468.41	12533.57
468.60	12702.09
468.78	12676.34
468.96	12383.77
469.14	12699.75
469.32	13099.98
469.50	12358.03
469.69	13013.38
469.87	13027.42
470.05	13116.36
470.23	12870.61
470.41	13090.62
470.59	13572.77
470.77	13125.72
470.95	13060.19
471.14	13212.32
471.32	13121.04
471.50	13593.83
471.68	13465.10
471.86	13980.02
472.04	13862.99
472.22	14059.60
472.40	13542.34
472.58	13465.10
472.77	13886.40
472.95	14003.43
473.13	14441.11
473.31	13877.04
473.49	13982.36
473.67	14141.52
473.85	14061.94
474.03	14389.61
474.21	14523.02
474.39	14740.69
474.57	14593.24
474.75	14663.46
474.93	14677.50
475.12	14885.81
475.30	15178.37
475.48	14862.40
475.66	15421.79
475.84	15255.61
476.02	15314.13
476.20	15297.74
476.38	15559.88
476.56	15988.20
476.74	15695.63
476.92	15702.65
477.10	15871.17
477.28	16102.89
477.46	15925.00
477.64	16334.60
477.82	16535.88
478.00	16861.22
478.18	16585.04
478.36	16952.50
478.54	16695.04
478.72	16910.37
478.90	17336.35
479.08	17610.19
479.26	17741.26
479.44	17535.29
479.62	17708.49
479.80	17982.34
479.98	18291.29
480.16	18396.61
480.34	18171.92
480.52	18572.15
480.70	18424.70
480.88	18286.61
481.06	18689.18
481.24	18775.78
481.41	18925.57
481.59	19066.00
481.77	19087.07
481.95	19381.98
482.13	19599.65
482.31	19576.24
482.49	19962.43
482.67	19791.57
482.85	20187.12
483.03	20589.69
483.21	20596.71
483.39	20809.70
483.57	20610.76
483.74	21046.10
483.92	21018.01
484.10	21305.90
484.28	21546.97
484.46	21589.10
484.64	22218.71
484.82	21685.06
485.00	22209.34
485.18	22878.74
485.35	23000.44
485.53	22527.66
485.71	23098.75
485.89	23536.43
486.07	23211.09
486.25	23147.90
486.43	23377.27
486.61	23688.56
486.78	24144.97
486.96	23824.31
487.14	24641.16
487.32	24535.84
487.50	24584.99
487.68	24879.89
487.85	25135.01
488.03	25146.72
488.21	25694.40
488.39	25497.80
488.57	25853.56
488.75	26284.22
488.92	26518.27
489.10	26897.44
489.28	26490.18
489.46	26836.58
489.64	27044.89
489.81	27349.16
489.99	27124.47
490.17	27576.19
490.35	27868.76
490.53	27740.03
490.70	28203.46
490.88	28189.41
491.06	28676.24
491.24	28484.32
491.41	29043.71
491.59	29099.88
491.77	28996.90
491.95	29230.95
492.13	29347.98
492.30	29366.70
492.48	29509.47
492.66	29411.17
492.84	29780.98
493.01	30401.22
493.19	30305.26
493.37	30679.74
493.54	30831.88
493.72	31379.56
493.90	31019.12
494.08	31775.11
494.25	31864.05
494.43	32039.59
494.61	32027.89
494.79	32355.57
494.96	32156.62
495.14	32641.11
495.32	33067.09
495.49	32931.34
495.67	32903.25
495.85	33127.94
496.02	33434.55
496.20	33790.31
496.38	33720.10
496.55	33638.18
496.73	34775.68
496.91	34057.14
497.09	34326.30
497.26	34639.93
497.44	34885.68
497.62	35468.48
497.79	35557.42
497.97	34951.22
498.14	35637.00
498.32	36121.49
498.50	35711.89
498.67	36247.88
498.85	36327.45
499.03	36428.10
499.20	36158.94
499.38	36921.95
499.56	36713.64
499.73	36851.73
499.91	37233.24
500.08	37385.38
500.26	37104.51
500.44	37413.46
500.61	37855.82
500.79	37361.97
500.97	38195.20
501.14	38476.07
501.32	38396.49
501.49	38164.78
501.67	38232.65
501.84	39161.84
502.02	38616.50
502.20	38808.42
502.37	39433.35
502.55	38717.14
502.72	39213.34
502.90	39658.04
503.07	39351.43
503.25	39423.98
503.43	39136.10
503.60	39906.13
503.78	39643.99
503.95	39826.56
504.13	40725.32
504.30	40332.11
504.48	40264.24
504.65	40671.49
504.83	40596.59
505.01	40999.16
505.18	40889.16
505.36	41446.21
505.53	40978.10
505.71	41256.62
505.88	41867.50
506.06	41092.79
506.23	41642.81
506.41	41584.30
506.58	41872.18
506.76	41593.66
506.93	42021.98
507.11	41801.97
507.28	42160.07
507.46	42850.53
507.63	42501.79
507.81	42883.30
507.98	42913.72
508.16	43028.41
508.33	43316.29
508.50	43217.99
508.68	43632.27
508.85	43517.58
509.03	43407.58
509.20	43892.07
509.38	44203.36
509.55	44034.84
509.73	44224.42
509.90	44598.91
510.08	44238.47
510.25	44898.50
510.42	44582.52
510.60	44910.20
510.77	44891.48
510.95	45118.51
511.12	45120.85
511.30	45167.66
511.47	45361.92
511.64	45441.50
511.82	45720.02
511.99	45111.49
512.17	45532.78
512.34	45715.34
512.51	46630.49
512.69	45881.52
512.86	46181.11
513.04	46223.24
513.21	46141.32
513.38	46181.11
513.56	46710.07
513.73	46670.28
513.90	46447.93
514.08	46838.80
514.25	47150.09
514.43	47456.70
514.60	47224.99
514.77	47159.45
514.95	47700.12
515.12	47215.63
515.29	47323.29
515.47	47421.59
515.64	47812.46
515.81	47576.07
515.99	48095.67
516.16	48137.80
516.33	47655.65
516.51	48435.05
516.68	48170.57
516.85	47988.00
517.03	48633.99
517.20	48832.94
517.37	48500.58
517.54	48605.91
517.72	48657.40
517.89	48790.81
518.06	48907.83
518.24	49230.83
518.41	49357.22
518.58	49186.36
518.75	49340.83
518.93	49523.40
519.10	49052.95
519.27	49270.62
519.45	49366.58
519.62	49851.07
519.79	49619.36
519.96	49673.19
520.14	50085.12
520.31	49689.57
520.48	50190.45
520.65	50319.18
520.83	50272.37
521.00	50204.49
521.17	50075.76
521.34	50419.82
521.52	50382.37
521.69	50602.38
521.86	50691.32
522.03	50656.21
522.20	51161.77
522.38	51248.37
522.55	51194.54
522.72	51215.60
522.89	51091.55
523.07	51414.55
523.24	51187.52
523.41	51213.26
523.58	51152.41
523.75	51356.03
523.92	51461.36
524.10	51875.63
524.27	51856.91
524.44	51475.40
524.61	51676.69
524.78	52119.05
524.96	51805.42
525.13	52224.37
525.30	52193.95
525.47	52083.94
525.64	52090.96
525.81	52392.89
525.98	52453.75
526.16	52243.10
526.33	52217.35
526.50	52750.99
526.67	52538.01
526.84	52657.37
527.01	52690.14
527.18	52729.93
527.36	52720.57
527.53	52814.19
527.70	52945.26
527.87	53001.43
528.04	52999.09
528.21	53162.93
528.38	53066.97
528.55	53319.74
528.72	53083.35
528.89	53291.66
529.07	53045.90
529.24	53275.27
529.41	53666.14
529.58	53631.04
529.75	53284.64
529.92	53581.88
530.09	53750.40
530.26	53502.31
530.43	53656.78
530.60	53528.05
530.77	53624.01
530.94	53982.12
531.11	54040.63
531.28	54064.03
531.46	54000.84
531.63	54265.32
531.80	53825.30
531.97	54019.56
532.14	54246.60
532.31	54167.02
532.48	54309.79
532.65	54358.94
532.82	54417.46
532.99	54784.92
533.16	54262.98
533.33	54604.70
533.50	54920.67
533.67	54695.98
533.84	54574.27
534.01	54609.38
534.18	54824.71
534.35	55035.36
534.52	55016.63
534.69	55056.42
534.86	55161.75
535.03	54983.86
535.20	54843.43
535.37	55007.27
535.54	55182.81
535.71	55112.59
535.88	55302.18
536.05	55260.05
536.22	55381.76
536.38	55409.84
536.55	55718.79
536.72	55428.57
536.89	55440.27
537.06	55407.50
537.23	55498.78
537.40	55330.26
537.57	55803.05
537.74	55774.97
537.91	55856.88
538.08	55856.88
538.25	55592.40
538.42	55817.10
538.59	55842.84
538.75	55522.19
538.92	55938.80
539.09	56147.11
539.26	55999.66
539.43	55777.31
539.60	56072.21
539.77	56030.08
539.94	56324.99
540.11	56018.38
540.28	56086.26
540.44	56245.41
540.61	56278.18
540.78	56458.40
540.95	56516.92
541.12	56336.69
541.29	56315.63
541.46	56271.16
541.62	56320.31
541.79	56545.00
541.96	56257.12
542.13	56198.60
542.30	56369.46
542.47	56748.63
542.63	56947.57
542.80	56783.74
542.97	56839.91
543.14	57083.33
543.31	56926.51
543.48	57015.45
543.64	57375.89
543.81	57282.27
543.98	57293.97
544.15	56975.66
544.32	57382.91
544.48	57453.13
544.65	57183.97
544.82	57331.42
544.99	57247.16
545.16	57329.08
545.32	57090.35
545.49	57366.53
545.66	57364.19
545.83	57743.36
546.00	57705.91
546.16	57350.15
546.33	57368.87
546.50	57293.97
546.67	57532.71
546.83	57310.36
547.00	57483.56
547.17	57432.07
547.34	57701.23
547.50	58026.56
547.67	58110.82
547.84	57663.78
548.00	57965.71
548.17	57984.43
548.34	57944.64
548.51	58117.84
548.67	57986.77
548.84	57921.24
549.01	57846.34
549.18	58071.03
549.34	58169.33
549.51	58066.35
549.68	58213.80
549.84	58262.96
550.01	58230.19
550.18	58024.22
550.34	58499.35
550.51	58518.07
550.68	58408.07
550.84	58068.69
551.01	58571.91
551.18	58202.10
551.34	58319.13
551.51	58408.07
551.68	58468.92
551.84	58389.34
552.01	58344.87
552.18	58375.30
552.34	58391.68
552.51	58590.63
552.68	58515.73
552.84	58529.78
553.01	58665.53
553.18	58777.87
553.34	58927.67
553.51	58426.79
553.67	58621.06
553.84	58693.61
554.01	58873.84
554.17	58773.19
554.34	58852.77
554.51	58890.22
554.67	58953.41
554.84	58808.30
555.00	58791.92
555.17	58852.77
555.33	58908.94
555.50	58688.93
555.67	58763.83
555.83	58848.09
556.00	58974.48
556.16	59107.89
556.33	59009.59
556.50	59054.06
556.66	59215.55
556.83	58918.31
556.99	59238.96
557.16	59419.18
557.32	59215.55
557.49	59447.27
557.65	59004.91
557.82	59229.60
557.98	59096.19
558.15	59215.55
558.32	59367.69
558.48	59152.36
558.65	59405.14
558.81	59339.60
558.98	59320.88
559.14	59367.69
559.31	59491.74
559.47	59508.12
559.64	59393.43
559.80	59601.74
559.97	59550.25
560.13	59426.20
560.30	59636.85
560.46	59604.08
560.63	59578.34
560.79	59655.57
560.96	59632.17
561.12	59636.85
561.29	59568.97
561.45	59870.90
561.61	59487.06
561.78	59529.19
561.94	59657.91
562.11	59744.51
562.27	59903.67
562.44	59945.80
562.60	59889.63
562.77	59941.12
562.93	59531.53
563.10	59896.65
563.26	59568.97
563.42	59887.29
563.59	60060.49
563.75	59929.42
563.92	59683.66
564.08	59966.87
564.24	60004.31
564.41	60032.40
564.57	59962.18
564.74	59884.95
564.90	59962.18
565.07	59913.03
565.23	60053.47
565.39	59908.35
565.56	60154.11
565.72	60011.34
565.88	59971.55
566.05	59898.99
566.21	60137.72
566.38	60104.96
566.54	60121.34
566.70	60200.92
566.87	60231.35
567.03	60055.81
567.19	60264.11
567.36	60207.94
567.52	60126.02
567.68	60257.09
567.85	60186.88
568.01	60423.27
568.17	60170.49
568.34	60214.96
568.50	60336.67
568.66	59973.89
568.83	60308.58
568.99	60203.26
569.15	60140.07
569.32	60264.11
569.48	60142.41
569.64	60409.23
569.81	60236.03
569.97	60177.51
570.13	60364.76
570.30	60254.75
570.46	60072.19
570.62	60308.58
570.78	60360.08
570.95	60236.03
571.11	60615.19
571.27	60374.12
571.43	60308.58
571.60	60580.09
571.76	60486.46
571.92	60432.63
572.09	60369.44
572.25	60397.52
572.41	60355.39
572.57	60268.79
572.74	60669.03
572.90	60353.05
573.06	60530.93
573.22	60547.32
573.38	60676.05
573.55	60423.27
573.71	60694.77
573.87	60559.02
574.03	60184.54
574.20	60729.88
574.36	60612.85
574.52	60692.43
574.68	60392.84
574.84	60460.72
575.01	60858.61
575.17	60636.26
575.33	60617.53
575.49	60453.70
575.65	60739.24
575.82	60732.22
575.98	60552.00
576.14	60884.36
576.30	60596.47
576.46	60495.83
576.62	60685.41
576.79	60652.64
576.95	60404.55
577.11	60809.46
577.27	60699.45
577.43	60664.35
577.59	60736.90
577.75	60617.53
577.92	60615.19
578.08	60608.17
578.24	60713.50
578.40	60666.69
578.56	60727.54
578.72	60734.56
578.88	60856.27
579.04	60846.91
579.21	60769.67
579.37	60863.29
579.53	60762.65
579.69	60671.37
579.85	60512.21
580.01	60549.66
580.17	60346.03
580.33	61048.19
580.49	60814.14
580.65	60762.65
580.82	60790.73
580.98	60619.88
581.14	60760.31
581.30	60877.33
581.46	60772.01
581.62	60896.06
581.78	60736.90
581.94	60856.27
582.10	60837.54
582.26	60743.92
582.42	60860.95
582.58	60949.89
582.74	60797.76
582.90	60882.02
583.06	60793.07
583.22	60444.33
583.38	60837.54
583.54	60762.65
583.70	60874.99
583.86	60762.65
584.02	60718.18
584.18	60945.21
584.34	60669.03
584.50	60678.39
584.66	60858.61
584.82	60537.96
584.98	60910.10
585.14	60767.33
585.30	60839.89
585.46	60921.80
585.62	60748.60
585.78	60968.61
585.94	60521.57
586.10	61109.05
586.26	60839.89
586.42	60844.57
586.58	60973.30
586.74	60956.91
586.90	60977.98
587.06	60844.57
587.22	61043.51
587.38	60940.53
587.54	60956.91
587.70	60947.55
587.86	61071.60
588.02	60999.04
588.18	61050.53
588.34	60856.27
588.49	60760.31
