SpectraSuite Data File
++++++++++++++++++++++++++++++++++++
Date: Fri Oct 25 11:26:07 EDT 2013
User: price-jones
Dark Spectrum Present: No
Reference Spectrum Present: No
Number of Sampled Component Spectra: 1
Spectrometers: USB2+H05261
Integration Time (usec): 100000 (USB2+H05261)
Spectra Averaged: 1 (USB2+H05261)
Boxcar Smoothing: 0 (USB2+H05261)
Correct for Electrical Dark: No (USB2+H05261)
Strobe/Lamp Enabled: No (USB2+H05261)
Correct for Detector Non-linearity: No (USB2+H05261)
Correct for Stray Light: No (USB2+H05261)
Number of Pixels in Processed Spectrum: 2048
>>>>>Begin Processed Spectral Data<<<<<
365.73	264.48
365.92	264.48
366.12	264.48
366.32	175.54
366.52	191.92
366.72	198.95
366.91	175.54
367.11	142.77
367.31	156.82
367.51	208.31
367.70	173.20
367.90	154.48
368.10	135.75
368.30	161.50
368.49	163.84
368.69	173.20
368.89	140.43
369.09	149.79
369.28	205.97
369.48	264.48
369.68	229.37
369.87	191.92
370.07	177.88
370.27	255.12
370.47	390.87
370.66	617.90
370.86	603.86
371.06	704.50
371.25	603.86
371.45	631.94
371.65	655.35
371.84	681.10
372.04	725.57
372.24	664.71
372.44	755.99
372.63	814.51
372.83	741.95
373.03	763.01
373.22	739.61
373.42	802.80
373.62	788.76
373.81	777.06
374.01	774.72
374.21	734.93
374.40	807.48
374.60	819.19
374.79	800.46
374.99	812.17
375.19	802.80
375.38	891.74
375.58	828.55
375.78	863.66
375.97	833.23
376.17	957.28
376.37	905.79
376.56	880.04
376.76	861.32
376.95	828.55
377.15	851.96
377.35	917.49
377.54	844.93
377.74	971.32
377.93	898.77
378.13	943.24
378.33	987.71
378.52	915.15
378.72	1006.43
378.91	936.21
379.11	1032.18
379.31	936.21
379.50	938.55
379.70	957.28
379.89	964.30
380.09	980.68
380.28	882.38
380.48	978.34
380.68	994.73
380.87	992.39
381.07	1001.75
381.26	1057.92
381.46	966.64
381.65	1064.94
381.85	1053.24
382.04	1104.73
382.24	1097.71
382.43	1048.56
382.63	1172.61
382.83	1011.11
383.02	1071.97
383.22	1128.14
383.41	1158.57
383.61	1163.25
383.80	1123.46
384.00	1151.54
384.19	1139.84
384.39	1069.62
384.58	1109.41
384.78	1177.29
384.97	1184.31
385.17	1118.78
385.36	1165.59
385.56	1196.01
385.75	1256.87
385.95	1203.04
386.14	1268.57
386.34	1137.50
386.53	1203.04
386.72	1200.69
386.92	1207.72
387.11	1282.61
387.31	1233.46
387.50	1252.19
387.70	1291.98
387.89	1256.87
388.09	1245.16
388.28	1317.72
388.48	1341.13
388.67	1263.89
388.86	1277.93
389.06	1310.70
389.25	1357.51
389.45	1362.19
389.64	1371.55
389.84	1453.47
390.03	1432.41
390.22	1399.64
390.42	1294.32
390.61	1268.57
390.81	1313.04
391.00	1511.99
391.19	1444.11
391.39	1387.94
391.58	1380.92
391.78	1432.41
391.97	1497.94
392.16	1526.03
392.36	1474.54
392.55	1514.33
392.75	1521.35
392.94	1614.97
393.13	1479.22
393.33	1568.16
393.52	1516.67
393.71	1582.20
393.91	1554.12
394.10	1598.59
394.29	1593.90
394.49	1631.35
394.68	1666.46
394.88	1619.65
395.07	1624.33
395.26	1638.38
395.46	1666.46
395.65	1722.63
395.84	1743.70
396.04	1757.74
396.23	1764.76
396.42	1706.25
396.62	1818.60
396.81	1790.51
397.00	1764.76
397.19	1804.55
397.39	1905.20
397.58	1774.13
397.77	1788.17
397.97	1785.83
398.16	1863.07
398.35	1952.01
398.55	1895.83
398.74	1846.68
398.93	1912.22
399.12	1870.09
399.32	1973.07
399.51	1973.07
399.70	1977.75
399.90	2026.90
400.09	2026.90
400.28	2003.50
400.47	2083.08
400.67	2118.18
400.86	1998.82
401.05	2139.25
401.24	2181.38
401.44	2143.93
401.63	2150.95
401.82	2188.40
402.01	2174.36
402.21	2190.74
402.40	2298.41
402.59	2197.76
402.78	2195.42
402.97	2270.32
403.17	2150.95
403.36	2221.17
403.55	2275.00
403.74	2399.05
403.93	2366.28
404.13	2422.45
404.32	2457.56
404.51	2279.68
404.70	2445.86
404.89	2387.35
405.09	2459.90
405.28	2415.43
405.47	2588.63
405.66	2363.94
405.85	2590.97
406.05	2499.69
406.24	2495.01
406.43	2609.70
406.62	2609.70
406.81	2654.17
407.00	2576.93
407.20	2682.25
407.39	2612.04
407.58	2698.64
407.77	2761.83
407.96	2839.07
408.15	2855.45
408.34	2672.89
408.54	2789.92
408.73	2834.39
408.92	2871.84
409.11	2939.71
409.30	2899.92
409.49	2818.00
409.68	2920.99
409.87	2867.16
410.07	2972.48
410.26	3073.12
410.45	2932.69
410.64	3068.44
410.83	3122.27
411.02	3075.46
411.21	3143.34
411.40	3075.46
411.59	3138.66
411.78	3126.96
411.98	3222.92
412.17	3375.05
412.36	3234.62
412.55	3363.35
412.74	3456.97
412.93	3260.37
413.12	3328.24
413.31	3637.19
413.50	3435.91
413.69	3496.76
413.88	3662.94
414.07	3630.17
414.26	3716.77
414.45	3639.53
414.64	3574.00
414.83	3758.90
415.02	3791.67
415.22	3880.61
415.41	3786.99
415.60	3964.87
415.79	3885.29
415.98	3955.51
416.17	3983.59
416.36	3896.99
416.55	3960.19
416.74	4093.60
416.93	4074.87
417.12	4121.68
417.31	4262.12
417.50	4180.20
417.69	4257.43
417.88	4231.69
418.07	4430.63
418.26	4325.31
418.45	4351.06
418.64	4624.90
418.83	4358.08
419.02	4421.27
419.21	4461.06
419.39	4573.41
419.58	4442.34
419.77	4465.74
419.96	4510.21
420.15	4634.26
420.34	4552.34
420.53	4465.74
420.72	4667.03
420.91	4629.58
421.10	4758.31
421.29	4777.03
421.48	4730.22
421.67	4765.33
421.86	4847.25
422.05	4840.23
422.24	4917.47
422.43	4681.07
422.61	4777.03
422.80	4936.19
422.99	4931.51
423.18	4905.76
423.37	4896.40
423.56	4901.08
423.75	5043.85
423.94	4882.36
424.13	4650.64
424.32	4770.01
424.50	5046.20
424.69	5102.37
424.88	5188.97
425.07	5055.56
425.26	4957.25
425.45	4999.38
425.64	5048.54
425.83	5132.79
426.01	5167.90
426.20	5060.24
426.39	4983.00
426.58	5142.16
426.77	4994.70
426.96	5004.07
427.15	5069.60
427.33	5226.42
427.52	5121.09
427.71	5184.29
427.90	5310.68
428.09	5336.42
428.28	5324.72
428.46	5294.29
428.65	5474.51
428.84	5488.56
429.03	5603.24
429.22	5240.46
429.40	5462.81
429.59	5366.85
429.78	5287.27
429.97	5217.05
430.16	5516.64
430.34	5586.86
430.53	5762.40
430.72	5535.37
430.91	5584.52
431.10	5558.77
431.28	5699.20
431.47	5701.54
431.66	5928.58
431.85	5743.67
432.03	5949.64
432.22	5930.92
432.41	5902.83
432.60	5851.34
432.79	5928.58
432.97	5982.41
433.16	5851.34
433.35	5774.10
433.54	6022.20
433.72	6312.42
433.91	6106.46
434.10	6083.05
434.28	6066.67
434.47	6160.29
434.66	6204.76
434.85	6225.82
435.03	6286.68
435.22	6392.00
435.41	6403.71
435.59	6300.72
435.78	6448.18
435.97	6590.95
436.16	6377.96
436.34	6450.52
436.53	6614.35
436.72	6534.78
436.90	6403.71
437.09	6539.46
437.28	6415.41
437.46	6539.46
437.65	6635.42
437.84	6569.88
438.02	6658.82
438.21	6663.51
438.40	6633.08
438.58	6916.28
438.77	7049.69
438.96	6930.33
439.14	7091.82
439.33	7122.25
439.52	7258.00
439.70	7281.41
439.89	7314.17
440.08	7370.35
440.26	7267.36
440.45	7337.58
440.63	7508.44
440.82	7602.06
441.01	7459.29
441.19	7681.64
441.38	7918.03
441.57	7644.19
441.75	7885.26
441.94	7946.12
442.12	7913.35
442.31	7850.16
442.50	8121.66
442.68	7723.77
442.87	7908.67
443.05	8095.91
443.24	8203.58
443.43	8098.25
443.61	8273.79
443.80	8348.69
443.98	7847.82
444.17	7756.54
444.35	8327.63
444.54	8362.73
444.73	8234.00
444.91	8273.79
445.10	8425.93
445.28	8334.65
445.47	8334.65
445.65	8339.33
445.84	8402.52
446.02	8381.46
446.21	8234.00
446.39	8393.16
446.58	8592.11
446.77	8402.52
446.95	8248.05
447.14	8500.83
447.32	8514.87
447.51	8339.33
447.69	8559.34
447.88	8599.13
448.06	8421.25
448.25	8629.56
448.43	8716.16
448.62	8620.19
448.80	8327.63
448.99	8669.34
449.17	8585.08
449.36	8615.51
449.54	8791.05
449.73	8723.18
449.91	8950.21
450.10	8863.61
450.28	9057.87
450.46	9060.21
450.65	9092.98
450.83	9226.39
451.02	9329.38
451.20	9053.19
451.39	9191.28
451.57	9076.60
451.76	8987.66
451.94	9043.83
452.13	9212.35
452.31	9282.56
452.49	9151.49
452.68	9397.25
452.86	9387.89
453.05	9406.61
453.23	9507.26
453.42	9252.14
453.60	9310.65
453.78	9514.28
453.97	9455.76
454.15	9493.21
454.34	9617.26
454.52	9778.76
454.70	9570.45
454.89	9900.47
455.07	9724.93
455.26	9755.35
455.44	9898.13
455.62	9722.59
455.81	9905.15
455.99	10008.13
456.17	10054.94
456.36	10040.90
456.54	10260.91
456.73	10359.21
456.91	10616.67
457.09	10509.01
457.28	10391.98
457.46	10389.64
457.64	10532.41
457.83	10485.60
458.01	10380.28
458.19	10572.20
458.38	10558.16
458.56	10609.65
458.74	10665.82
458.93	10532.41
459.11	10523.05
459.29	10710.29
459.48	10813.28
459.66	10677.52
459.84	10817.96
460.03	10944.34
460.21	10869.45
460.39	10995.84
460.57	10998.18
460.76	10979.45
460.94	11236.91
461.12	11143.29
461.31	11169.04
461.49	10871.79
461.67	11253.30
461.85	11246.27
462.04	11349.26
462.22	11733.11
462.40	11442.88
462.59	11620.76
462.77	11400.75
462.95	11599.70
463.13	11487.35
463.32	11552.88
463.50	11805.66
463.68	11618.42
463.86	11985.88
464.05	11740.13
464.23	11805.66
464.41	11695.66
464.59	11950.78
464.78	12173.13
464.96	11925.03
465.14	11836.09
465.32	12046.74
465.50	12201.21
465.69	12145.04
465.87	12067.80
466.05	12004.61
466.23	12358.03
466.41	12365.05
466.60	12257.39
466.78	11878.22
466.96	12255.04
467.14	12126.32
467.32	12458.67
467.51	12355.69
467.69	12128.66
467.87	12318.24
468.05	12559.31
468.23	12393.14
468.41	12351.01
468.60	12498.46
468.78	12856.56
468.96	12418.88
469.14	12709.11
469.32	12952.52
469.50	12545.27
469.69	12929.12
469.87	12905.71
470.05	13380.84
470.23	13301.26
470.41	13088.28
470.59	13451.06
470.77	13224.03
470.95	13329.35
471.14	13593.83
471.32	13083.59
471.50	13277.86
471.68	13734.26
471.86	13591.49
472.04	13745.97
472.22	14120.45
472.40	13715.54
472.58	13947.25
472.77	14162.58
472.95	14132.15
473.13	14691.54
473.31	13757.67
473.49	14113.43
473.67	14120.45
473.85	14298.33
474.03	14707.93
474.21	14764.10
474.39	14787.50
474.57	14750.06
474.75	15063.69
474.93	14808.57
475.12	15105.82
475.30	14913.89
475.48	14857.72
475.66	15274.34
475.84	15117.52
476.02	15220.50
476.20	15105.82
476.38	15403.07
476.56	15822.02
476.74	15784.57
476.92	15861.81
477.10	15817.34
477.28	16189.49
477.46	16166.08
477.64	16362.69
477.82	16418.86
478.00	16826.11
478.18	16734.83
478.36	16973.56
478.54	17298.90
478.72	17029.74
478.90	17404.22
479.08	17671.04
479.26	17678.07
479.44	17675.73
479.62	17558.70
479.80	18148.51
479.98	18265.54
480.16	18349.80
480.34	18302.99
480.52	18747.69
480.70	18527.68
480.88	18483.21
481.06	18782.80
481.24	18487.89
481.41	18974.72
481.59	19351.55
481.77	19396.02
481.95	19454.53
482.13	19639.44
482.31	19810.29
482.49	20315.85
482.67	20079.46
482.85	20442.24
483.03	20388.41
483.21	20727.78
483.39	20788.64
483.57	20783.96
483.74	21132.70
483.92	21399.52
484.10	21036.74
484.28	21799.75
484.46	21958.91
484.64	22363.82
484.82	22024.44
485.00	22274.88
485.18	22611.92
485.35	22803.84
485.53	22932.57
485.71	22733.62
485.89	23639.41
486.07	23035.55
486.25	23255.56
486.43	23616.01
486.61	23810.27
486.78	23922.62
486.96	24383.70
487.14	24531.15
487.32	24470.30
487.50	25060.12
487.68	25039.05
487.85	25048.41
488.03	25280.13
488.21	25773.98
488.39	25586.74
488.57	26174.21
488.75	26108.68
488.92	26426.99
489.10	26712.53
489.28	26326.35
489.46	27124.47
489.64	27103.40
489.81	27587.89
489.99	27662.79
490.17	27730.67
490.35	27924.93
490.53	28315.80
490.70	28308.78
490.88	28063.02
491.06	28629.43
491.24	28893.91
491.41	29259.04
491.59	29235.63
491.77	28954.77
491.95	29507.13
492.13	29685.01
492.30	29886.30
492.48	30094.61
492.66	30246.74
492.84	30338.02
493.01	30787.41
493.19	31084.65
493.37	30911.46
493.54	30991.03
493.72	31356.16
493.90	31519.99
494.08	31765.75
494.25	31952.99
494.43	31903.84
494.61	32556.85
494.79	32524.08
494.96	32395.35
495.14	32456.21
495.32	32889.21
495.49	33125.60
495.67	33057.73
495.85	33516.47
496.02	33242.63
496.20	33944.79
496.38	33528.17
496.55	33881.60
496.73	34778.02
496.91	34684.40
497.09	34387.15
497.26	34642.27
497.44	34794.40
497.62	35346.77
497.79	35426.35
497.97	35285.92
498.14	35526.99
498.32	35885.09
498.50	35948.29
498.67	36957.06
498.85	36605.98
499.03	36474.91
499.20	36968.76
499.38	36940.68
499.56	36734.71
499.73	37050.68
499.91	37148.98
500.08	37820.72
500.26	36989.83
500.44	37258.99
500.61	37766.88
500.79	37677.94
500.97	38260.74
501.14	38539.26
501.32	38431.60
501.49	38497.13
501.67	38515.86
501.84	38440.96
502.02	39143.12
502.20	38876.30
502.37	39065.88
502.55	39028.43
502.72	39276.53
502.90	39819.53
503.07	39526.97
503.25	39878.05
503.43	39505.90
503.60	40055.93
503.78	40091.04
503.95	40287.64
504.13	40325.09
504.30	40821.28
504.48	40727.66
504.65	40856.39
504.83	40683.19
505.01	41078.74
505.18	41357.27
505.36	41195.77
505.53	41221.52
505.71	41170.02
505.88	41532.81
506.06	41469.61
506.23	41654.51
506.41	41397.06
506.58	42043.04
506.76	42213.90
506.93	42546.26
507.11	42300.50
507.28	42478.38
507.46	42326.25
507.63	42997.98
507.81	43222.67
507.98	42962.87
508.16	42916.06
508.33	43349.06
508.50	43580.78
508.68	43288.21
508.85	43643.97
509.03	43557.37
509.20	43871.00
509.38	44229.10
509.55	44072.29
509.73	44402.30
509.90	44486.56
510.08	44547.42
510.25	44669.12
510.42	44924.24
510.60	44907.86
510.77	44882.11
510.95	45661.51
511.12	44835.30
511.30	44671.46
511.47	45724.71
511.64	45581.93
511.82	45818.33
511.99	45453.20
512.17	46110.89
512.34	45731.73
512.51	46490.06
512.69	45972.80
512.86	46059.40
513.04	46916.04
513.21	46284.09
513.38	46632.83
513.56	46827.10
513.73	46719.43
513.90	47140.73
514.08	46653.90
514.25	47133.71
514.43	47435.64
514.60	47342.02
514.77	47276.48
514.95	47468.40
515.12	47327.97
515.29	47480.11
515.47	47807.78
515.64	47962.26
515.81	47686.07
515.99	48074.60
516.16	48233.76
516.33	48320.36
516.51	48617.61
516.68	48568.46
516.85	48631.65
517.03	48622.29
517.20	48783.79
517.37	48704.21
517.54	48956.99
517.72	49120.82
517.89	48884.43
518.06	48931.24
518.24	49228.49
518.41	49207.42
518.58	49340.83
518.75	49186.36
518.93	49624.04
519.10	49455.52
519.27	49399.35
519.45	49874.48
519.62	50003.20
519.79	49968.10
519.96	50241.94
520.14	50127.25
520.31	49778.51
520.48	50185.77
520.65	49874.48
520.83	50546.21
521.00	50820.05
521.17	50621.11
521.34	50595.36
521.52	50707.71
521.69	51070.49
521.86	51000.27
522.03	51117.30
522.20	51159.43
522.38	51014.32
522.55	51428.59
522.72	51260.07
522.89	51028.36
523.07	51508.17
523.24	51459.02
523.41	51686.05
523.58	51105.60
523.75	51847.55
523.92	51683.71
524.10	52062.88
524.27	51840.53
524.44	51636.90
524.61	52203.31
524.78	52142.45
524.96	51842.87
525.13	52196.29
525.30	52301.61
525.47	52526.30
525.64	52470.13
525.81	52526.30
525.98	52545.03
526.16	52439.70
526.33	52285.23
526.50	52793.12
526.67	52776.74
526.84	52722.91
527.01	52772.06
527.18	52797.80
527.36	52999.09
527.53	53022.50
527.70	53258.89
527.87	53263.57
528.04	52877.38
528.21	53464.86
528.38	53219.10
528.55	53570.18
528.72	53181.65
528.89	53401.66
529.07	53322.08
529.24	53336.13
529.41	53544.44
529.58	53572.52
529.75	53776.15
529.92	53572.52
530.09	53478.90
530.26	53462.52
530.43	53820.62
530.60	53619.33
530.77	53680.19
530.94	54262.98
531.11	53820.62
531.28	54085.10
531.46	53979.78
531.63	54286.39
531.80	54251.28
531.97	54387.03
532.14	54354.26
532.31	54347.24
532.48	54541.50
532.65	54412.77
532.82	54122.55
532.99	54738.11
533.16	54520.44
533.33	54560.23
533.50	54852.80
533.67	54728.75
533.84	54679.60
534.01	54848.11
534.18	54841.09
534.35	55238.98
534.52	54864.50
534.69	55084.51
534.86	55374.73
535.03	54777.90
535.20	54913.65
535.37	55133.66
535.54	55248.35
535.71	55063.44
535.88	55473.04
536.05	55318.56
536.22	55693.05
536.38	55505.80
536.55	55604.11
536.72	55683.69
536.89	55292.82
537.06	55686.03
537.23	55653.26
537.40	55679.00
537.57	55634.53
537.74	55772.63
537.91	55866.25
538.08	55662.62
538.25	55744.54
538.42	55756.24
538.59	55964.55
538.75	56020.72
538.92	55938.80
539.09	56086.26
539.26	56095.62
539.43	56250.09
539.60	56214.99
539.77	56055.83
539.94	56460.74
540.11	56540.32
540.28	56493.51
540.44	56353.08
540.61	56552.02
540.78	56404.57
540.95	56343.72
541.12	56332.01
541.29	56315.63
541.46	56416.27
541.62	56481.81
541.79	56678.41
541.96	56657.35
542.13	56294.56
542.30	56491.17
542.47	56828.21
542.63	56921.83
542.80	56938.21
542.97	57059.92
543.14	57336.10
543.31	57258.87
543.48	57139.50
543.64	57506.96
543.81	57368.87
543.98	57272.91
544.15	57183.97
544.32	57364.19
544.48	57418.02
544.65	57443.77
544.82	57315.04
544.99	57130.14
545.16	57530.37
545.32	57207.37
545.49	57638.03
545.66	57518.67
545.83	57492.92
546.00	57684.84
546.16	57642.71
546.33	57609.95
546.50	57495.26
546.67	57577.18
546.83	57588.88
547.00	57724.63
547.17	57509.30
547.34	57757.40
547.50	57794.85
547.67	58038.26
547.84	58113.16
548.00	58092.10
548.17	58379.98
548.34	57963.37
548.51	58059.33
548.67	58052.31
548.84	57972.73
549.01	57886.13
549.18	58241.89
549.34	58239.55
549.51	58403.39
549.68	58279.34
549.84	58162.31
550.01	58361.26
550.18	58183.38
550.34	58197.42
550.51	58274.66
550.68	58482.97
550.84	58211.46
551.01	58726.38
551.18	58567.23
551.34	58291.04
551.51	58513.39
551.68	58494.67
551.84	58419.77
552.01	58389.34
552.18	58672.55
552.34	58337.85
552.51	58576.59
552.68	58607.01
552.84	58707.66
553.01	58656.17
553.18	58726.38
553.34	58941.71
553.51	58780.21
553.67	58691.27
553.84	58913.62
554.01	59011.93
554.17	59133.63
554.34	58864.47
554.51	58976.82
554.67	58873.84
554.84	58962.78
555.00	58930.01
555.17	58944.05
555.33	58871.49
555.50	59018.95
555.67	58979.16
555.83	58995.54
556.00	59058.74
556.16	59536.21
556.33	59341.94
556.50	59220.23
556.66	59398.12
556.83	59194.49
556.99	59260.02
557.16	59323.22
557.32	59386.41
557.49	59405.14
557.65	59419.18
557.82	59318.54
557.98	59302.15
558.15	59419.18
558.32	59473.01
558.48	59407.48
558.65	59363.01
558.81	59451.95
558.98	59372.37
559.14	59473.01
559.31	59674.30
559.47	59559.61
559.64	59700.04
559.80	59636.85
559.97	59463.65
560.13	59810.05
560.30	59533.87
560.46	59791.33
560.63	59681.32
560.79	59742.17
560.96	59882.61
561.12	59749.20
561.29	59875.58
561.45	59854.52
561.61	59807.71
561.78	59746.86
561.94	59643.87
562.11	59744.51
562.27	59917.71
562.44	59985.59
562.60	60116.66
562.77	60009.00
562.93	59784.30
563.10	60055.81
563.26	59849.84
563.42	60205.60
563.59	60095.60
563.75	60058.15
563.92	59931.76
564.08	60039.42
564.24	59875.58
564.41	59941.12
564.57	60137.72
564.74	60037.08
564.90	60081.55
565.07	60189.22
565.23	60093.25
565.39	60001.97
565.56	60032.40
565.72	60280.50
565.88	60259.43
566.05	59971.55
566.21	60123.68
566.38	60168.15
566.54	60177.51
566.70	60395.18
566.87	60474.76
567.03	59859.20
567.19	60348.37
567.36	60339.01
567.52	60154.11
567.68	60418.59
567.85	60364.76
568.01	60362.42
568.17	60339.01
568.34	60317.95
568.50	60240.71
568.66	60161.13
568.83	60481.78
568.99	60219.64
569.15	60292.20
569.32	60364.76
569.48	60280.50
569.64	60449.02
569.81	60327.31
569.97	60519.23
570.13	60500.51
570.30	60327.31
570.46	60610.51
570.62	60631.58
570.78	60657.32
570.95	60350.71
571.11	60570.72
571.27	60397.52
571.43	60434.97
571.60	60669.03
571.76	60509.87
571.92	60456.04
572.09	60381.14
572.25	60425.61
572.41	60406.89
572.57	60430.29
572.74	60748.60
572.90	60360.08
573.06	60505.19
573.22	60753.29
573.38	60753.29
573.55	60584.77
573.71	60617.53
573.87	60715.84
574.03	60514.55
574.20	60633.92
574.36	60853.93
574.52	60919.46
574.68	60533.28
574.84	60732.22
575.01	60739.24
575.17	60594.13
575.33	60533.28
575.49	60516.89
575.65	60741.58
575.82	60750.94
575.98	60938.19
576.14	60671.37
576.30	60753.29
576.46	60797.76
576.62	60638.60
576.79	60762.65
576.95	60528.59
577.11	60680.73
577.27	60790.73
577.43	60662.00
577.59	60598.81
577.75	60601.15
577.92	60542.64
578.08	60788.39
578.24	60865.63
578.40	60977.98
578.56	60835.20
578.72	60828.18
578.88	60959.25
579.04	61146.50
579.21	60821.16
579.37	61020.11
579.53	60942.87
579.69	60715.84
579.85	60615.19
580.01	60746.26
580.17	60673.71
580.33	60727.54
580.49	61038.83
580.65	61015.43
580.82	60769.67
580.98	60732.22
581.14	60755.63
581.30	60835.20
581.46	60933.51
581.62	60963.93
581.78	60823.50
581.94	60912.44
582.10	60858.61
582.26	60851.59
582.42	60896.06
582.58	60811.80
582.74	60851.59
582.90	60732.22
583.06	61078.62
583.22	60678.39
583.38	60746.26
583.54	60954.57
583.70	60963.93
583.86	61043.51
584.02	60823.50
584.18	60900.74
584.34	60903.08
584.50	60886.70
584.66	60734.56
584.82	60741.58
584.98	61125.43
585.14	61123.09
585.30	60891.38
585.46	60809.46
585.62	61057.56
585.78	60994.36
585.94	60654.98
586.10	60926.49
586.26	61001.38
586.42	60966.27
586.58	61127.77
586.74	60678.39
586.90	60966.27
587.06	61050.53
587.22	61029.47
587.38	61080.96
587.54	61169.90
587.70	61132.45
587.86	60980.32
588.02	61062.24
588.18	60947.55
588.34	60853.93
588.49	61080.96
