SpectraSuite Data File
++++++++++++++++++++++++++++++++++++
Date: Fri Oct 25 10:44:08 EDT 2013
User: price-jones
Dark Spectrum Present: No
Reference Spectrum Present: No
Number of Sampled Component Spectra: 1
Spectrometers: USB2+H05261
Integration Time (usec): 100000 (USB2+H05261)
Spectra Averaged: 1 (USB2+H05261)
Boxcar Smoothing: 0 (USB2+H05261)
Correct for Electrical Dark: No (USB2+H05261)
Strobe/Lamp Enabled: No (USB2+H05261)
Correct for Detector Non-linearity: No (USB2+H05261)
Correct for Stray Light: No (USB2+H05261)
Number of Pixels in Processed Spectrum: 2048
>>>>>Begin Processed Spectral Data<<<<<
365.73	86.60
365.92	86.60
366.12	86.60
366.32	44.47
366.52	79.58
366.72	32.77
366.91	23.41
367.11	2.34
367.31	0.00
367.51	0.00
367.70	74.90
367.90	0.00
368.10	46.81
368.30	0.00
368.49	0.00
368.69	53.83
368.89	37.45
369.09	14.04
369.28	30.43
369.48	44.47
369.68	86.60
369.87	84.26
370.07	121.71
370.27	93.62
370.47	126.39
370.66	255.12
370.86	390.87
371.06	442.36
371.25	442.36
371.45	465.77
371.65	484.49
371.84	449.38
372.04	381.51
372.24	456.40
372.44	479.81
372.63	500.87
372.83	433.00
373.03	521.94
373.22	475.13
373.42	475.13
373.62	552.37
373.81	493.85
374.01	550.03
374.21	587.47
374.40	535.98
374.60	545.34
374.79	521.94
374.99	535.98
375.19	571.09
375.38	641.31
375.58	575.77
375.78	545.34
375.97	653.01
376.17	678.76
376.37	615.56
376.56	629.60
376.76	631.94
376.95	608.54
377.15	613.22
377.35	678.76
377.54	533.64
377.74	674.07
377.93	624.92
378.13	627.26
378.33	678.76
378.52	674.07
378.72	730.25
378.91	629.60
379.11	631.94
379.31	596.84
379.50	622.58
379.70	720.88
379.89	695.14
380.09	599.18
380.28	641.31
380.48	784.08
380.68	770.04
380.87	695.14
381.07	702.16
381.26	720.88
381.46	690.46
381.65	695.14
381.85	702.16
382.04	739.61
382.24	755.99
382.43	650.67
382.63	716.20
382.83	676.41
383.02	688.12
383.22	741.95
383.41	760.67
383.61	662.37
383.80	770.04
384.00	758.33
384.19	734.93
384.39	795.78
384.58	819.19
384.78	812.17
384.97	882.38
385.17	795.78
385.36	847.27
385.56	837.91
385.75	835.57
385.95	786.42
386.14	842.59
386.34	748.97
386.53	765.36
386.72	809.83
386.92	882.38
387.11	877.70
387.31	903.45
387.50	854.30
387.70	882.38
387.89	849.61
388.09	833.23
388.28	910.47
388.48	912.81
388.67	943.24
388.86	861.32
389.06	971.32
389.25	961.96
389.45	976.00
389.64	933.87
389.84	933.87
390.03	1018.13
390.22	1011.11
390.42	964.30
390.61	1006.43
390.81	1001.75
391.00	1020.47
391.19	1048.56
391.39	1036.86
391.58	1076.65
391.78	1015.79
391.97	1039.20
392.16	1062.60
392.36	985.37
392.55	940.90
392.75	947.92
392.94	947.92
393.13	1015.79
393.33	1036.86
393.52	1069.62
393.71	1032.18
393.91	1170.27
394.10	1167.93
394.29	1167.93
394.49	1214.74
394.68	1198.35
394.88	1198.35
395.07	1277.93
395.26	1170.27
395.46	1114.10
395.65	1231.12
395.84	1240.48
396.04	1181.97
396.23	1259.21
396.42	1191.33
396.62	1217.08
396.81	1104.73
397.00	1153.88
397.19	1231.12
397.39	1329.42
397.58	1313.04
397.77	1390.28
397.97	1357.51
398.16	1444.11
398.35	1465.18
398.55	1416.02
398.74	1446.45
398.93	1507.30
399.12	1563.48
399.32	1502.62
399.51	1547.09
399.70	1570.50
399.90	1596.25
400.09	1561.14
400.28	1568.16
400.47	1561.14
400.67	1584.54
400.86	1710.93
401.05	1631.35
401.24	1675.82
401.44	1694.55
401.63	1657.10
401.82	1685.19
402.01	1610.29
402.21	1703.91
402.40	1739.02
402.59	1671.14
402.78	1717.95
402.97	1736.68
403.17	1696.89
403.36	1806.89
403.55	1856.04
403.74	1959.03
403.93	1900.52
404.13	1853.70
404.32	1874.77
404.51	1853.70
404.70	1898.17
404.89	1914.56
405.09	1954.35
405.28	1956.69
405.47	1867.75
405.66	1973.07
405.85	1994.14
406.05	1923.92
406.24	2026.90
406.43	1944.99
406.62	2024.56
406.81	2052.65
407.00	1963.71
407.20	2031.58
407.39	2031.58
407.58	2139.25
407.77	2253.94
407.96	2293.72
408.15	2211.81
408.34	2174.36
408.54	2260.96
408.73	2265.64
408.92	2305.43
409.11	2349.90
409.30	2221.17
409.49	2165.00
409.68	2324.15
409.87	2305.43
410.07	2373.30
410.26	2347.56
410.45	2324.15
410.64	2399.05
410.83	2560.55
411.02	2389.69
411.21	2558.21
411.40	2473.95
411.59	2616.72
411.78	2612.04
411.98	2590.97
412.17	2548.84
412.36	2605.02
412.55	2750.13
412.74	2635.44
412.93	2810.98
413.12	2677.57
413.31	2864.82
413.50	2850.77
413.69	2792.26
413.88	2857.79
414.07	2930.35
414.26	2960.78
414.45	2902.26
414.64	3014.61
414.83	2991.20
415.02	2972.48
415.22	2986.52
415.41	2998.23
415.60	3009.93
415.79	3236.96
415.98	3267.39
416.17	3129.30
416.36	3286.11
416.55	3243.98
416.74	3197.17
416.93	3241.64
417.12	3255.69
417.31	3363.35
417.50	3335.26
417.69	3337.60
417.88	3379.73
418.07	3304.84
418.26	3431.23
418.45	3405.48
418.64	3487.40
418.83	3571.66
419.02	3574.00
419.21	3620.81
419.39	3555.27
419.58	3562.30
419.77	3445.27
419.96	3676.98
420.15	3632.51
420.34	3684.00
420.53	3655.92
420.72	3878.27
420.91	3857.20
421.10	3726.13
421.29	3789.33
421.48	3712.09
421.67	3791.67
421.86	3812.73
422.05	3845.50
422.24	3721.45
422.43	3892.31
422.61	3829.12
422.80	3810.39
422.99	3932.10
423.18	3899.33
423.37	3955.51
423.56	3957.85
423.75	3880.61
423.94	3901.67
424.13	3742.52
424.32	3749.54
424.50	3850.18
424.69	3953.16
424.88	3992.95
425.07	3871.25
425.26	3810.39
425.45	3798.69
425.64	3758.90
425.83	3901.67
426.01	3971.89
426.20	3964.87
426.39	3967.21
426.58	3964.87
426.77	4023.38
426.96	3911.04
427.15	3808.05
427.33	3899.33
427.52	4126.36
427.71	4021.04
427.90	4119.34
428.09	3974.23
428.28	4095.94
428.46	4149.77
428.65	4112.32
428.84	4191.90
429.03	4311.27
429.22	4154.45
429.40	4109.98
429.59	3960.19
429.78	3913.38
429.97	3913.38
430.16	4100.62
430.34	3992.95
430.53	4053.81
430.72	4262.12
430.91	4362.76
431.10	4318.29
431.28	4442.34
431.47	4489.15
431.66	4622.56
431.85	4535.96
432.03	4486.81
432.22	4571.07
432.41	4592.13
432.60	4734.90
432.79	4521.92
432.97	4793.42
433.16	4786.40
433.35	4650.64
433.54	4650.64
433.72	4634.26
433.91	4697.46
434.10	4772.35
434.28	4739.58
434.47	4716.18
434.66	4943.21
434.85	4887.04
435.03	4854.27
435.22	4924.49
435.41	5128.11
435.59	4931.51
435.78	5125.77
435.97	5142.16
436.16	5114.07
436.34	5235.78
436.53	5114.07
436.72	5165.56
436.90	5081.30
437.09	5221.74
437.28	5034.49
437.46	5102.37
437.65	5100.03
437.84	5135.14
438.02	5057.90
438.21	5088.32
438.40	5032.15
438.58	5322.38
438.77	5420.68
438.96	5465.15
439.14	5490.90
439.33	5614.95
439.52	5453.45
439.70	5579.84
439.89	5626.65
440.08	5659.42
440.26	5710.91
440.45	5666.44
440.63	5926.24
440.82	5888.79
441.01	6052.63
441.19	6092.41
441.38	6092.41
441.57	6059.65
441.75	6024.54
441.94	6239.87
442.12	6267.95
442.31	6211.78
442.50	6164.97
442.68	6118.16
442.87	6214.12
443.05	6293.70
443.24	6581.59
443.43	6284.34
443.61	6494.99
443.80	6593.29
443.98	6296.04
444.17	6284.34
444.35	6483.28
444.54	6628.40
444.73	6263.27
444.91	6450.52
445.10	6499.67
445.28	6363.92
445.47	6296.04
445.65	6366.26
445.84	6359.24
446.02	6523.07
446.21	6436.47
446.39	6492.65
446.58	6595.63
446.77	6478.60
446.95	6525.41
447.14	6544.14
447.32	6597.97
447.51	6623.72
447.69	6696.27
447.88	6604.99
448.06	6539.46
448.25	6867.13
448.43	6796.92
448.62	6649.46
448.80	6597.97
448.99	6782.87
449.17	6927.99
449.36	6906.92
449.54	7028.63
449.73	6857.77
449.91	7066.08
450.10	7047.35
450.28	7187.79
450.46	7185.44
450.65	7084.80
450.83	7232.26
451.02	7098.84
451.20	7115.23
451.39	7342.26
451.57	6981.82
451.76	7136.29
451.94	7190.13
452.13	7314.17
452.31	7094.16
452.49	7016.93
452.68	7070.76
452.86	7250.98
453.05	7131.61
453.23	7353.96
453.42	7248.64
453.60	7274.38
453.78	7424.18
453.97	7297.79
454.15	7239.28
454.34	7288.43
454.52	7513.12
454.70	7581.00
454.89	7431.20
455.07	7433.54
455.26	7386.73
455.44	7618.44
455.62	7651.21
455.81	7590.36
455.99	7786.96
456.17	7988.25
456.36	7735.47
456.54	7805.69
456.73	8021.02
456.91	8023.36
457.09	7936.76
457.28	8013.99
457.46	8109.96
457.64	8100.59
457.83	7978.89
458.01	7990.59
458.19	8039.74
458.38	8245.71
458.56	8198.90
458.74	8100.59
458.93	8217.62
459.11	8170.81
459.29	8255.07
459.48	8278.47
459.66	8049.10
459.84	8297.20
460.03	8615.51
460.21	8542.96
460.39	8472.74
460.57	8418.91
460.76	8505.51
460.94	8587.43
461.12	8683.39
461.31	8568.70
461.49	8676.37
461.67	8596.79
461.85	8524.23
462.04	8716.16
462.22	9387.89
462.40	8819.14
462.59	9029.79
462.77	8798.07
462.95	8982.98
463.13	8861.27
463.32	8891.70
463.50	8931.48
463.68	8905.74
463.86	8882.33
464.05	8978.30
464.23	8795.73
464.41	8870.63
464.59	9057.87
464.78	9179.58
464.96	8992.34
465.14	8975.95
465.32	9296.61
465.50	9291.93
465.69	9114.05
465.87	9109.36
466.05	9247.46
466.23	9137.45
466.41	9156.18
466.60	9378.53
466.78	9046.17
466.96	9336.40
467.14	9233.41
467.32	9305.97
467.51	9380.87
467.69	9174.90
467.87	9394.91
468.05	9579.81
468.23	9509.60
468.41	9259.16
468.60	9544.70
468.78	9479.17
468.96	9635.99
469.14	9591.52
469.32	9741.31
469.50	9654.71
469.69	9617.26
469.87	9738.97
470.05	9914.51
470.23	9858.34
470.41	9521.30
470.59	9827.91
470.77	9816.21
470.95	9895.78
471.14	10038.56
471.32	9788.12
471.50	10157.92
471.68	10225.80
471.86	10174.31
472.04	10448.15
472.22	10401.34
472.40	10307.72
472.58	10429.43
472.77	10263.25
472.95	10429.43
473.13	10869.45
473.31	10600.29
473.49	10244.52
473.67	10530.07
473.85	10717.31
474.03	10834.34
474.21	10899.87
474.39	10967.75
474.57	10946.69
474.75	11166.70
474.93	11204.14
475.12	11180.74
475.30	11173.72
475.48	11084.78
475.66	11162.01
475.84	11112.86
476.02	11176.06
476.20	11269.68
476.38	11288.40
476.56	11723.74
476.74	11625.44
476.92	11669.91
477.10	11712.04
477.28	11845.45
477.46	11836.09
477.64	11990.56
477.82	12262.07
478.00	12519.53
478.18	12472.71
478.36	12587.40
478.54	12706.77
478.72	12564.00
478.90	12678.68
479.08	12912.74
479.26	13085.94
479.44	13130.41
479.62	13046.15
479.80	13151.47
479.98	13345.73
480.16	13507.23
480.34	13483.83
480.52	13577.45
480.70	13841.93
480.88	13514.25
481.06	13881.72
481.24	14143.86
481.41	14211.73
481.59	14338.12
481.77	14485.58
481.95	14251.52
482.13	14670.48
482.31	14595.58
482.49	14855.38
482.67	14527.71
482.85	14902.19
483.03	14918.57
483.21	15023.90
483.39	15489.67
483.57	15211.14
483.74	15363.28
483.92	15627.76
484.10	15417.11
484.28	15934.37
484.46	16051.39
484.64	16313.53
484.82	16135.65
485.00	16100.55
485.18	16358.00
485.35	16582.70
485.53	16236.30
485.71	16023.31
485.89	16468.01
486.07	16379.07
486.25	16826.11
486.43	16730.15
486.61	16884.62
486.78	16936.12
486.96	17207.62
487.14	17855.95
487.32	17551.68
487.50	17827.86
487.68	17877.01
487.85	18314.69
488.03	18352.14
488.21	18398.95
488.39	18597.90
488.57	18480.87
488.75	18806.20
488.92	18867.06
489.10	19260.27
489.28	19051.96
489.46	19618.37
489.64	19847.74
489.81	19873.49
489.99	19683.91
490.17	20184.78
490.35	20362.66
490.53	20180.10
490.70	20610.76
490.88	20212.87
491.06	20596.71
491.24	20538.20
491.41	20917.37
491.59	20732.47
491.77	20542.88
491.95	20783.96
492.13	20945.45
492.30	21184.19
492.48	21633.57
492.66	21675.70
492.84	21757.62
493.01	22054.87
493.19	21912.10
493.37	21816.13
493.54	22162.53
493.72	22518.29
493.90	22476.16
494.08	22918.53
494.25	22895.12
494.43	23112.79
494.61	23241.52
494.79	22860.01
494.96	23243.86
495.14	23335.14
495.32	23960.06
495.49	23543.45
495.67	23779.84
495.85	24072.41
496.02	24100.50
496.20	24357.96
496.38	24166.03
496.55	24493.71
496.73	24964.15
496.91	24435.19
497.09	24884.58
497.26	24975.86
497.44	25055.43
497.62	24854.15
497.79	24971.18
497.97	24854.15
498.14	25160.76
498.32	25408.86
498.50	25605.46
498.67	25809.09
498.85	25645.25
499.03	26410.60
499.20	26316.98
499.38	26239.75
499.56	26230.38
499.73	26228.04
499.91	26256.13
500.08	26532.31
500.26	26286.56
500.44	26024.42
500.61	26670.40
500.79	26778.07
500.97	26452.73
501.14	26478.48
501.32	26906.80
501.49	27154.90
501.67	27283.62
501.84	27410.01
502.02	27468.53
502.20	27468.53
502.37	27791.52
502.55	27651.09
502.72	27740.03
502.90	28142.60
503.07	27857.06
503.25	27838.33
503.43	28098.13
503.60	27950.68
503.78	28121.54
503.95	28133.24
504.13	28212.82
504.30	28425.81
504.48	28276.01
504.65	28788.59
504.83	28622.41
505.01	29085.84
505.18	28886.89
505.36	29230.95
505.53	29558.63
505.71	29654.59
505.88	29614.80
506.06	29085.84
506.23	29516.50
506.41	29333.93
506.58	29806.72
506.76	29963.54
506.93	29699.06
507.11	29677.99
507.28	29961.20
507.46	29972.90
507.63	29951.84
507.81	30103.97
507.98	30197.59
508.16	30127.38
508.33	30323.98
508.50	30937.20
508.68	30712.51
508.85	31152.53
509.03	30815.49
509.20	30778.04
509.38	31194.66
509.55	31325.73
509.73	30932.52
509.90	31082.31
510.08	31166.57
510.25	31063.59
510.42	31314.03
510.60	31519.99
510.77	31456.80
510.95	31913.20
511.12	31796.18
511.30	32168.32
511.47	32505.36
511.64	32184.71
511.82	32226.84
511.99	32013.85
512.17	32730.05
512.34	32030.23
512.51	31974.06
512.69	32734.73
512.86	32507.70
513.04	33071.77
513.21	33118.58
513.38	32409.40
513.56	32673.88
513.73	32758.14
513.90	32858.78
514.08	33186.46
514.25	33170.07
514.43	32793.25
514.60	33184.12
514.77	33111.56
514.95	33778.61
515.12	33106.88
515.29	33399.44
515.47	33617.11
515.64	34192.89
515.81	33528.17
515.99	33371.36
516.16	33923.72
516.33	33928.41
516.51	33446.26
516.68	33127.94
516.85	33263.69
517.03	33455.62
517.20	33813.72
517.37	33827.76
517.54	34338.00
517.72	33633.50
517.89	33872.23
518.06	33766.91
518.24	34022.03
518.41	34429.28
518.58	34396.51
518.75	34869.30
518.93	34941.86
519.10	34822.49
519.27	34881.00
519.45	34677.38
519.62	35257.83
519.79	35206.34
519.96	35349.11
520.14	35669.76
520.31	34859.94
520.48	35239.11
520.65	35402.94
520.83	35964.67
521.00	35723.60
521.17	35620.61
521.34	35861.69
521.52	36074.68
521.69	35885.09
521.86	36196.38
522.03	36362.56
522.20	36147.23
522.38	36091.06
522.55	36423.42
522.72	35857.01
522.89	35786.79
523.07	36575.55
523.24	36758.11
523.41	36350.86
523.58	37010.89
523.75	37240.26
523.92	36926.63
524.10	37221.54
524.27	37123.24
524.44	36877.48
524.61	37626.45
524.78	37551.56
524.96	37502.40
525.13	37483.68
525.30	37511.77
525.47	37862.85
525.64	37792.63
525.81	37549.21
525.98	37598.37
526.16	37251.97
526.33	36776.84
526.50	37474.32
526.67	37244.94
526.84	37694.33
527.01	37263.67
527.18	37764.54
527.36	37930.72
527.53	38115.62
527.70	38209.25
527.87	38096.90
528.04	38117.96
528.21	38440.96
528.38	38518.20
528.55	38471.39
528.72	38927.79
528.89	38799.06
529.07	38733.53
529.24	38586.07
529.41	38895.02
529.58	38183.50
529.75	38883.32
529.92	39159.50
530.09	39147.80
530.26	38986.30
530.43	39583.14
530.60	39112.69
530.77	38899.70
530.94	39220.36
531.11	38780.34
531.28	39501.22
531.46	39655.70
531.63	39262.49
531.80	39084.61
531.97	39192.27
532.14	39562.08
532.31	38869.28
532.48	39407.60
532.65	39512.92
532.82	39395.90
532.99	39864.00
533.16	39239.08
533.33	39931.88
533.50	39686.12
533.67	40179.98
533.84	39786.77
534.01	39730.59
534.18	39847.62
534.35	40072.31
534.52	40477.22
534.69	40374.24
534.86	40474.88
535.03	40381.26
535.20	40945.33
535.37	40566.16
535.54	40547.44
535.71	40615.32
535.88	40767.45
536.05	40741.71
536.22	40840.01
536.38	41017.89
536.55	40287.64
536.72	41017.89
536.89	40652.76
537.06	40692.55
537.23	40638.72
537.40	41167.68
537.57	40900.86
537.74	41123.21
537.91	41148.96
538.08	40964.06
538.25	40961.72
538.42	41364.29
538.59	41071.72
538.75	41179.39
538.92	41261.30
539.09	41448.55
539.26	41289.39
539.43	41205.13
539.60	41635.79
539.77	41097.47
539.94	41455.57
540.11	41301.09
540.28	41261.30
540.44	41656.85
540.61	41333.86
540.78	41280.03
540.95	41525.78
541.12	41488.34
541.29	41823.03
541.46	41867.50
541.62	41565.57
541.79	42101.56
541.96	41790.27
542.13	41549.19
542.30	41837.08
542.47	42305.18
542.63	42021.98
542.80	42012.62
542.97	42543.92
543.14	42665.63
543.31	42471.36
543.48	43063.52
543.64	42710.10
543.81	42923.08
543.98	42686.69
544.15	42920.74
544.32	43000.32
544.48	43157.14
544.65	43122.03
544.82	43227.35
544.99	42712.44
545.16	42759.25
545.32	42672.65
545.49	43690.78
545.66	43512.90
545.83	43262.46
546.00	43166.50
546.16	43049.47
546.33	43220.33
546.50	43281.19
546.67	43051.81
546.83	42513.49
547.00	43358.42
547.17	43779.72
547.34	43164.16
547.50	43295.23
547.67	43320.98
547.84	43110.33
548.00	43639.29
548.17	43524.60
548.34	43681.42
548.51	44058.24
548.67	43758.66
548.84	43693.12
549.01	43407.58
549.18	43728.23
549.34	43852.28
549.51	43557.37
549.68	43679.08
549.84	44201.02
550.01	44060.58
550.18	43906.11
550.34	43955.26
550.51	43838.23
550.68	43786.74
550.84	43611.20
551.01	44126.12
551.18	43875.68
551.34	44203.36
551.51	44144.84
551.68	44645.72
551.84	44612.95
552.01	44194.00
552.18	44151.87
552.34	43828.87
552.51	44140.16
552.68	44465.50
552.84	44549.76
553.01	44673.81
553.18	44559.12
553.34	44444.43
553.51	43999.73
553.67	44533.37
553.84	44524.01
554.01	44708.91
554.17	44683.17
554.34	44854.03
554.51	45113.83
554.67	45195.74
554.84	44713.59
555.00	44802.53
555.17	44594.23
555.33	44900.84
555.50	44456.14
555.67	44587.21
555.83	44875.09
556.00	44418.69
556.16	45418.10
556.33	44858.71
556.50	44732.32
556.66	44856.37
556.83	44919.56
556.99	45265.96
557.16	45050.63
557.32	45275.32
557.49	45127.87
557.65	45055.31
557.82	45240.21
557.98	45064.67
558.15	45015.52
558.32	45291.71
558.48	45055.31
558.65	44650.40
558.81	44804.88
558.98	45116.17
559.14	45404.05
559.31	44830.62
559.47	45404.05
559.64	45083.40
559.80	45656.83
559.97	45394.69
560.13	45095.10
560.30	45284.68
560.46	45310.43
560.63	45350.22
560.79	45441.50
560.96	45469.59
561.12	45289.37
561.29	45233.19
561.45	44994.46
561.61	45310.43
561.78	45359.58
561.94	45401.71
562.11	45434.48
562.27	45301.07
562.44	45179.36
562.60	45862.80
562.77	45464.91
562.93	45799.60
563.10	45825.35
563.26	45006.16
563.42	45553.85
563.59	45242.56
563.75	45748.11
563.92	45624.06
564.08	45595.98
564.24	45539.80
564.41	45495.33
564.57	45394.69
564.74	45434.48
564.90	45677.90
565.07	45481.29
565.23	45979.82
565.39	45839.39
565.56	45670.87
565.72	45460.23
565.88	45504.70
566.05	45516.40
566.21	45834.71
566.38	45537.46
566.54	45705.98
566.70	46195.15
566.87	45968.12
567.03	45649.81
567.19	46227.92
567.36	45783.22
567.52	45853.44
567.68	46007.91
567.85	45680.24
568.01	46143.66
568.17	45432.14
568.34	46300.48
568.50	45773.86
568.66	46064.08
568.83	45684.92
568.99	45673.21
569.15	45478.95
569.32	45551.51
569.48	45652.15
569.64	46391.76
569.81	45532.78
569.97	46031.32
570.13	46057.06
570.30	45565.55
570.46	45619.38
570.62	45439.16
570.78	45804.28
570.95	45839.39
571.11	45715.34
571.27	45820.67
571.43	45598.32
571.60	45694.28
571.76	45652.15
571.92	46183.45
572.09	45607.68
572.25	46302.82
572.41	46066.42
572.57	45937.69
572.74	46330.90
572.90	45705.98
573.06	45923.65
573.22	46007.91
573.38	45996.21
573.55	45731.73
573.71	46216.22
573.87	45949.40
574.03	45638.11
574.20	46314.52
574.36	45820.67
574.52	46094.51
574.68	45862.80
574.84	46153.02
575.01	45801.94
575.17	45860.46
575.33	45595.98
575.49	45654.49
575.65	46363.67
575.82	45940.04
575.98	46101.53
576.14	46279.41
576.30	45855.78
576.46	45815.99
576.62	45696.62
576.79	46087.49
576.95	45848.75
577.11	45659.17
577.27	46057.06
577.43	46162.39
577.59	45984.51
577.75	46038.34
577.92	45778.54
578.08	45851.09
578.24	46019.61
578.40	46085.15
578.56	46206.86
578.72	46272.39
578.88	46103.87
579.04	46375.37
579.21	46028.98
579.37	45705.98
579.53	46223.24
579.69	46122.60
579.85	45909.61
580.01	46080.47
580.17	46230.26
580.33	46253.67
580.49	46541.55
580.65	45933.01
580.82	45925.99
580.98	46141.32
581.14	46096.85
581.30	46293.46
581.46	46197.49
581.62	46066.42
581.78	46204.52
581.94	46150.68
582.10	46211.54
582.26	46256.01
582.42	46211.54
582.58	46330.90
582.74	46256.01
582.90	46019.61
583.06	46576.66
583.22	46024.29
583.38	46604.75
583.54	46761.56
583.70	46469.00
583.86	46639.86
584.02	46068.76
584.18	46447.93
584.34	46363.67
584.50	46490.06
584.66	46314.52
584.82	46244.30
584.98	46471.34
585.14	46490.06
585.30	45979.82
585.46	46316.86
585.62	46115.58
585.78	45984.51
585.94	45588.95
586.10	45977.48
586.26	46043.02
586.42	46478.36
586.58	46398.78
586.74	46637.51
586.90	46127.28
587.06	45940.04
587.22	46382.40
587.38	45727.05
587.54	46054.72
587.70	46389.42
587.86	46358.99
588.02	46415.16
588.18	46370.69
588.34	46326.22
588.49	45778.54
588.65	45626.40
588.81	45390.01
588.97	45982.16
589.13	45813.65
589.29	45991.53
589.45	46061.74
589.61	46429.21
589.77	46438.57
589.93	46302.82
590.08	46518.15
