SpectraSuite Data File
++++++++++++++++++++++++++++++++++++
Date: Fri Oct 25 11:23:30 EDT 2013
User: price-jones
Dark Spectrum Present: No
Reference Spectrum Present: No
Number of Sampled Component Spectra: 1
Spectrometers: USB2+H05261
Integration Time (usec): 100000 (USB2+H05261)
Spectra Averaged: 1 (USB2+H05261)
Boxcar Smoothing: 0 (USB2+H05261)
Correct for Electrical Dark: No (USB2+H05261)
Strobe/Lamp Enabled: No (USB2+H05261)
Correct for Detector Non-linearity: No (USB2+H05261)
Correct for Stray Light: No (USB2+H05261)
Number of Pixels in Processed Spectrum: 2048
>>>>>Begin Processed Spectral Data<<<<<
365.73	194.26
365.92	194.26
366.12	194.26
366.32	88.94
366.52	142.77
366.72	107.66
366.91	156.82
367.11	133.41
367.31	95.96
367.51	114.69
367.70	135.75
367.90	142.77
368.10	77.24
368.30	173.20
368.49	124.05
368.69	177.88
368.89	107.66
369.09	147.45
369.28	110.01
369.48	161.50
369.68	138.09
369.87	163.84
370.07	133.41
370.27	283.20
370.47	397.89
370.66	531.30
370.86	589.82
371.06	688.12
371.25	709.18
371.45	557.05
371.65	688.12
371.84	671.73
372.04	741.95
372.24	723.23
372.44	732.59
372.63	716.20
372.83	723.23
373.03	809.83
373.22	744.29
373.42	685.78
373.62	870.68
373.81	765.36
374.01	835.57
374.21	723.23
374.40	863.66
374.60	760.67
374.79	814.51
374.99	830.89
375.19	823.87
375.38	866.00
375.58	866.00
375.78	887.06
375.97	905.79
376.17	919.83
376.37	866.00
376.56	896.43
376.76	896.43
376.95	807.48
377.15	873.02
377.35	882.38
377.54	898.77
377.74	947.92
377.93	816.85
378.13	896.43
378.33	880.04
378.52	980.68
378.72	912.81
378.91	898.77
379.11	940.90
379.31	915.15
379.50	926.85
379.70	929.19
379.89	1055.58
380.09	926.85
380.28	971.32
380.48	997.07
380.68	971.32
380.87	1039.20
381.07	1015.79
381.26	983.02
381.46	1013.45
381.65	990.05
381.85	1043.88
382.04	1095.37
382.24	1053.24
382.43	983.02
382.63	1144.52
382.83	1041.54
383.02	1111.75
383.22	1144.52
383.41	999.41
383.61	1151.54
383.80	1090.69
384.00	1142.18
384.19	1165.59
384.39	1149.20
384.58	1102.39
384.78	1086.01
384.97	1125.80
385.17	1156.22
385.36	1137.50
385.56	1170.27
385.75	1163.25
385.95	1221.76
386.14	1219.42
386.34	1174.95
386.53	1226.44
386.72	1128.14
386.92	1228.78
387.11	1219.42
387.31	1203.04
387.50	1172.61
387.70	1245.16
387.89	1137.50
388.09	1228.78
388.28	1170.27
388.48	1247.51
388.67	1289.64
388.86	1343.47
389.06	1315.38
389.25	1320.06
389.45	1432.41
389.64	1324.74
389.84	1352.83
390.03	1427.73
390.22	1383.26
390.42	1458.15
390.61	1301.34
390.81	1357.51
391.00	1476.88
391.19	1409.00
391.39	1458.15
391.58	1425.39
391.78	1409.00
391.97	1530.71
392.16	1502.62
392.36	1568.16
392.55	1500.28
392.75	1568.16
392.94	1598.59
393.13	1528.37
393.33	1458.15
393.52	1654.76
393.71	1575.18
393.91	1577.52
394.10	1528.37
394.29	1607.95
394.49	1521.35
394.68	1607.95
394.88	1516.67
395.07	1647.74
395.26	1647.74
395.46	1722.63
395.65	1692.21
395.84	1727.32
396.04	1734.34
396.23	1820.94
396.42	1732.00
396.62	1732.00
396.81	1750.72
397.00	1802.21
397.19	1804.55
397.39	1799.87
397.58	1813.92
397.77	1762.42
397.97	1834.98
398.16	1708.59
398.35	1970.73
398.55	1823.28
398.74	1912.22
398.93	1954.35
399.12	1959.03
399.32	1912.22
399.51	1881.79
399.70	2026.90
399.90	1959.03
400.09	2017.54
400.28	1991.80
400.47	1937.96
400.67	2143.93
400.86	2064.35
401.05	2071.37
401.24	2120.53
401.44	2176.70
401.63	2146.27
401.82	2181.38
402.01	2054.99
402.21	2092.44
402.40	2223.51
402.59	2146.27
402.78	2267.98
402.97	2277.34
403.17	2232.87
403.36	2242.23
403.55	2265.64
403.74	2314.79
403.93	2356.92
404.13	2321.81
404.32	2335.85
404.51	2392.03
404.70	2340.54
404.89	2478.63
405.09	2532.46
405.28	2445.86
405.47	2464.58
405.66	2511.39
405.85	2495.01
406.05	2537.14
406.24	2562.89
406.43	2544.16
406.62	2567.57
406.81	2654.17
407.00	2567.57
407.20	2628.42
407.39	2712.68
407.58	2595.65
407.77	2715.02
407.96	2731.41
408.15	2729.06
408.34	2614.38
408.54	2733.75
408.73	2778.22
408.92	2663.53
409.11	2972.48
409.30	2869.50
409.49	2951.42
409.68	2890.56
409.87	2979.50
410.07	3021.63
410.26	2836.73
410.45	3052.06
410.64	3091.85
410.83	3133.98
411.02	3052.06
411.21	3187.81
411.40	3258.03
411.59	3185.47
411.78	3248.66
411.98	3089.51
412.17	3241.64
412.36	3260.37
412.55	3400.80
412.74	3314.20
412.93	3428.88
413.12	3431.23
413.31	3681.66
413.50	3485.06
413.69	3545.91
413.88	3686.34
414.07	3548.25
414.26	3674.64
414.45	3566.98
414.64	3590.38
414.83	3705.07
415.02	3779.97
415.22	3824.44
415.41	3698.05
415.60	3796.35
415.79	4011.68
415.98	3939.12
416.17	3997.64
416.36	4004.66
416.55	4060.83
416.74	4112.32
416.93	4196.58
417.12	4056.15
417.31	4187.22
417.50	4215.30
417.69	4329.99
417.88	4283.18
418.07	4119.34
418.26	4245.73
418.45	4484.47
418.64	4493.83
418.83	4358.08
419.02	4437.66
419.21	4601.49
419.39	4587.45
419.58	4585.11
419.77	4372.12
419.96	4650.64
420.15	4601.49
420.34	4505.53
420.53	4652.98
420.72	4709.16
420.91	4627.24
421.10	4702.14
421.29	4720.86
421.48	4770.01
421.67	4863.63
421.86	4870.65
422.05	4718.52
422.24	4723.20
422.43	4779.37
422.61	4784.06
422.80	4863.63
422.99	4929.17
423.18	4968.96
423.37	4833.21
423.56	4912.78
423.75	4959.60
423.94	4821.50
424.13	4634.26
424.32	4781.71
424.50	5046.20
424.69	5093.01
424.88	5114.07
425.07	4746.61
425.26	4863.63
425.45	4933.85
425.64	4924.49
425.83	4896.40
426.01	4947.89
426.20	4952.57
426.39	5004.07
426.58	4985.34
426.77	5233.44
426.96	5116.41
427.15	5095.35
427.33	5179.61
427.52	5259.18
427.71	5282.59
427.90	5163.22
428.09	5343.44
428.28	5338.76
428.46	5352.81
428.65	5441.75
428.84	5504.94
429.03	5406.64
429.22	5336.42
429.40	5467.49
429.59	5535.37
429.78	5343.44
429.97	5277.91
430.16	5502.60
430.34	5612.60
430.53	5607.92
430.72	5671.12
430.91	5734.31
431.10	5741.33
431.28	5797.51
431.47	5879.43
431.66	5764.74
431.85	5804.53
432.03	5966.03
432.22	6073.69
432.41	5907.51
432.60	5778.78
432.79	6029.22
432.97	5881.77
433.16	6122.84
433.35	5886.45
433.54	6015.18
433.72	6127.52
433.91	6047.94
434.10	6249.23
434.28	6111.14
434.47	6314.77
434.66	6218.80
434.85	6384.98
435.03	6413.07
435.22	6544.14
435.41	6392.00
435.59	6410.73
435.78	6342.85
435.97	6478.60
436.16	6534.78
436.34	6595.63
436.53	6565.20
436.72	6553.50
436.90	6377.96
437.09	6754.79
437.28	6541.80
437.46	6574.56
437.65	6679.89
437.84	6630.74
438.02	6743.08
438.21	6867.13
438.40	6733.72
438.58	6810.96
438.77	6932.67
438.96	6899.90
439.14	7227.57
439.33	7281.41
439.52	7239.28
439.70	7197.15
439.89	7295.45
440.08	7445.24
440.26	7304.81
440.45	7267.36
440.63	7424.18
440.82	7552.91
441.01	7595.04
441.19	7632.49
441.38	7669.94
441.57	7812.71
441.75	7700.36
441.94	7999.95
442.12	7868.88
442.31	7908.67
442.50	8173.15
442.68	7990.59
442.87	8016.33
443.05	8023.36
443.24	8124.00
443.43	8067.83
443.61	8203.58
443.80	8510.19
443.98	8011.65
444.17	7733.13
444.35	8226.98
444.54	8449.33
444.73	8346.35
444.91	8262.09
445.10	8439.97
445.28	8329.97
445.47	8353.37
445.65	8198.90
445.84	8355.71
446.02	8226.98
446.21	8344.01
446.39	8414.23
446.58	8372.10
446.77	8596.79
446.95	8297.20
447.14	8388.48
447.32	8542.96
447.51	8329.97
447.69	8444.65
447.88	8571.04
448.06	8463.38
448.25	8608.49
448.43	8657.64
448.62	8854.25
448.80	8716.16
448.99	8643.60
449.17	8685.73
449.36	8762.97
449.54	9067.24
449.73	9036.81
449.91	8915.10
450.10	9015.74
450.28	9107.02
450.46	9064.89
450.65	9156.18
450.83	9184.26
451.02	9107.02
451.20	9144.47
451.39	9186.60
451.57	9104.68
451.76	8980.64
451.94	9167.88
452.13	9294.27
452.31	9303.63
452.49	9195.96
452.68	9474.49
452.86	9327.03
453.05	9549.39
453.23	9652.37
453.42	9437.04
453.60	9390.23
453.78	9668.75
453.97	9533.00
454.15	9296.61
454.34	9432.36
454.52	9884.08
454.70	9825.57
454.89	9750.67
455.07	9645.35
455.26	9837.27
455.44	9874.72
455.62	9961.32
455.81	9933.23
455.99	10202.40
456.17	9963.66
456.36	9867.70
456.54	10181.33
456.73	10162.61
456.91	10331.12
457.09	10478.58
457.28	10410.70
457.46	10106.43
457.64	10546.45
457.83	10534.75
458.01	10483.26
458.19	10757.10
458.38	10602.63
458.56	10963.07
458.74	10707.95
458.93	10586.24
459.11	10686.89
459.29	10801.57
459.48	10686.89
459.66	10958.39
459.84	11136.27
460.03	11147.97
460.21	11185.42
460.39	10787.53
460.57	10995.84
460.76	10925.62
460.94	11040.31
461.12	11290.74
461.31	11103.50
461.49	11061.37
461.67	11194.78
461.85	11517.78
462.04	11438.20
462.22	11784.60
462.40	11712.04
462.59	11510.75
462.77	11342.24
462.95	11690.98
463.13	11836.09
463.32	11501.39
463.50	11576.29
463.68	11751.83
463.86	12030.35
464.05	11669.91
464.23	11850.13
464.41	12013.97
464.59	11630.12
464.78	12116.95
464.96	11723.74
465.14	11637.14
465.32	12098.23
465.50	12184.83
465.69	11995.25
465.87	12084.19
466.05	12147.38
466.23	12145.04
466.41	12194.19
466.60	12514.84
466.78	12152.06
466.96	12175.47
467.14	12475.06
467.32	12723.15
467.51	12418.88
467.69	12156.74
467.87	12458.67
468.05	12662.30
468.23	12458.67
468.41	12573.36
468.60	12652.94
468.78	12788.69
468.96	12676.34
469.14	12692.73
469.32	12982.95
469.50	12524.21
469.69	12964.23
469.87	13027.42
470.05	13071.89
470.23	12992.31
470.41	13261.48
470.59	13219.35
470.77	13256.79
470.95	13322.33
471.14	13481.49
471.32	13212.32
471.50	13614.90
471.68	13832.57
471.86	13647.66
472.04	13757.67
472.22	14202.37
472.40	13820.86
472.58	13834.91
472.77	14141.52
472.95	14232.80
473.13	14209.39
473.31	14178.97
473.49	14260.88
473.67	14274.93
473.85	14384.93
474.03	14520.68
474.21	14672.82
474.39	14682.18
474.57	14736.01
474.75	14831.97
474.93	14822.61
475.12	14930.28
475.30	15056.67
475.48	14827.29
475.66	15236.89
475.84	15435.83
476.02	15328.17
476.20	15475.62
476.38	15585.63
476.56	15871.17
476.74	16049.05
476.92	15639.46
477.10	15829.04
477.28	16126.29
477.46	16418.86
477.64	16182.46
477.82	16423.54
478.00	16884.62
478.18	17053.14
478.36	16879.94
478.54	17130.38
478.72	17301.24
478.90	17427.63
479.08	17474.44
479.26	17673.39
479.44	17432.31
479.62	18026.81
479.80	18106.38
479.98	18253.84
480.16	18630.66
480.34	18366.18
480.52	18628.32
480.70	18974.72
480.88	18462.15
481.06	18874.08
481.24	18806.20
481.41	19206.44
481.59	19360.91
481.77	19522.41
481.95	19751.78
482.13	19597.31
482.31	19545.81
482.49	20383.73
482.67	20081.80
482.85	20343.94
483.03	20652.89
483.21	20582.67
483.39	20821.41
483.57	20585.01
483.74	21106.95
483.92	21209.93
484.10	21481.44
484.28	21776.34
484.46	22019.76
484.64	22621.28
484.82	22122.74
485.00	22513.61
485.18	22525.32
485.35	22960.66
485.53	22904.48
485.71	23056.62
485.89	23356.21
486.07	23344.50
486.25	23358.55
486.43	24142.63
486.61	23946.02
486.78	24236.25
486.96	23922.62
487.14	24680.95
487.32	24751.17
487.50	24933.73
487.68	25120.97
487.85	25273.10
488.03	25687.38
488.21	25654.61
488.39	25656.95
488.57	26469.12
488.75	26136.76
488.92	26703.17
489.10	26923.18
489.28	26841.26
489.46	27171.28
489.64	26925.52
489.81	27620.66
489.99	27550.45
490.17	27910.89
490.35	28308.78
490.53	28100.47
490.70	28591.98
490.88	28332.18
491.06	28919.66
491.24	28954.77
491.41	28903.28
491.59	29207.55
491.77	29460.32
491.95	29460.32
492.13	29720.12
492.30	30099.29
492.48	29771.61
492.66	30150.78
492.84	30401.22
493.01	30628.25
493.19	30473.78
493.37	30871.67
493.54	31051.89
493.72	31419.35
493.90	32004.49
494.08	31866.39
494.25	31828.95
494.43	32020.87
494.61	31866.39
494.79	32678.56
494.96	32582.60
495.14	32673.88
495.32	33343.27
495.49	33181.77
495.67	32994.53
495.85	33600.73
496.02	33680.31
496.20	33666.27
496.38	34202.25
496.55	34593.12
496.73	35110.38
496.91	34487.79
497.09	34796.74
497.26	34920.79
497.44	34991.01
497.62	35431.03
497.79	35737.64
497.97	35489.54
498.14	35859.35
498.32	36030.21
498.50	36217.45
498.67	36671.51
498.85	36711.30
499.03	36659.81
499.20	36613.00
499.38	36996.85
499.56	36678.54
499.73	37001.53
499.91	37106.85
500.08	37900.29
500.26	37457.93
500.44	37902.64
500.61	38117.96
500.79	37710.71
500.97	38288.82
501.14	38539.26
501.32	38649.27
501.49	38841.19
501.67	38555.64
501.84	39063.54
502.02	38604.80
502.20	38693.74
502.37	39409.94
502.55	39384.19
502.72	39695.49
502.90	39335.04
503.07	39517.60
503.25	40257.21
503.43	39641.65
503.60	40030.18
503.78	40566.16
503.95	40257.21
504.13	40739.36
504.30	40655.11
504.48	40545.10
504.65	41195.77
504.83	41340.88
505.01	41918.99
505.18	41490.68
505.36	41645.15
505.53	41242.58
505.71	41806.65
505.88	41701.32
506.06	41652.17
506.23	42167.09
506.41	41820.69
506.58	42459.66
506.76	42234.97
506.93	42401.14
507.11	42174.11
507.28	42646.90
507.46	43077.56
507.63	43012.02
507.81	43248.42
507.98	42979.26
508.16	43405.23
508.33	43388.85
508.50	43477.79
508.68	43606.52
508.85	43480.13
509.03	44023.14
509.20	44182.29
509.38	43709.50
509.55	44416.35
509.73	44687.85
509.90	44664.44
510.08	44568.48
510.25	44729.98
510.42	44631.68
510.60	44704.23
510.77	45022.54
510.95	45638.11
511.12	45310.43
511.30	45160.64
511.47	45406.39
511.64	45696.62
511.82	46073.45
511.99	45446.18
512.17	46326.22
512.34	46017.27
512.51	46607.09
512.69	46473.68
512.86	46251.33
513.04	46677.30
513.21	46827.10
513.38	46941.78
513.56	46972.21
513.73	46923.06
513.90	46997.96
514.08	47077.54
514.25	47487.13
514.43	47409.89
514.60	47372.44
514.77	47175.84
514.95	47683.73
515.12	47421.59
515.29	47697.78
515.47	47866.30
515.64	48006.73
515.81	47924.81
515.99	48133.12
516.16	48795.49
516.33	48299.30
516.51	48449.09
516.68	48486.54
516.85	48538.03
517.03	48779.10
517.20	49184.02
517.37	48736.98
517.54	48797.83
517.72	49228.49
517.89	49092.74
518.06	49366.58
518.24	49308.07
518.41	49406.37
518.58	49448.50
518.75	49385.30
518.93	49729.36
519.10	49392.33
519.27	49844.05
519.45	49748.09
519.62	50185.77
519.79	50010.23
519.96	50230.24
520.14	50169.38
520.31	50045.33
520.48	50518.12
520.65	50344.92
520.83	51100.92
521.00	50508.76
521.17	50672.60
521.34	50766.22
521.52	50663.24
521.69	51189.86
521.86	51089.21
522.03	51091.55
522.20	51388.80
522.38	51435.61
522.55	51224.96
522.72	51449.66
522.89	51700.09
523.07	51880.31
523.24	51367.74
523.41	51744.56
523.58	51440.29
523.75	51550.30
523.92	52055.85
524.10	52341.40
524.27	52147.14
524.44	52348.42
524.61	52336.72
524.78	52226.71
524.96	52179.90
525.13	52648.01
525.30	52596.52
525.47	52669.08
525.64	52528.64
525.81	52655.03
525.98	52491.19
526.16	52456.09
526.33	52683.12
526.50	53109.10
526.67	52781.42
526.84	53052.92
527.01	52839.93
527.18	53038.88
527.36	53024.84
527.53	52966.32
527.70	53411.02
527.87	53485.92
528.04	53301.02
528.21	53085.69
528.38	53528.05
528.55	53766.79
528.72	53331.45
528.89	53495.28
529.07	53511.67
529.24	53495.28
529.41	53743.38
529.58	54000.84
529.75	53743.38
529.92	53865.09
530.09	53862.75
530.26	53675.51
530.43	54171.70
530.60	54024.25
530.77	53727.00
530.94	54162.34
531.11	53909.56
531.28	54131.91
531.46	54391.71
531.63	54307.45
531.80	54040.63
531.97	54485.33
532.14	54391.71
532.31	54490.01
532.48	54677.25
532.65	54651.51
532.82	54700.66
532.99	54553.21
533.16	54775.56
533.33	54803.64
533.50	55049.40
533.67	54649.17
533.84	54845.77
534.01	54899.61
534.18	55063.44
534.35	55400.48
534.52	54986.21
534.69	55253.03
534.86	55458.99
535.03	55185.15
535.20	55388.78
535.37	55402.82
535.54	55426.23
535.71	55175.79
535.88	55421.55
536.05	55435.59
536.22	55613.47
536.38	55650.92
536.55	55318.56
536.72	55805.39
536.89	55646.24
537.06	55739.86
537.23	55650.92
537.40	55231.96
537.57	55845.18
537.74	55985.61
537.91	55976.25
538.08	55915.40
538.25	55774.97
538.42	56037.11
538.59	56399.89
538.75	56020.72
538.92	55955.19
539.09	56306.27
539.26	56184.56
539.43	56086.26
539.60	56236.05
539.77	56081.58
539.94	56617.56
540.11	56404.57
540.28	56535.64
540.44	56261.80
540.61	56439.68
540.78	56612.88
540.95	56687.78
541.12	56378.82
541.29	56591.81
541.46	56608.20
541.62	56797.78
541.79	56893.74
541.96	56339.04
542.13	56610.54
542.30	56619.90
542.47	56928.85
542.63	57118.43
542.80	57024.81
542.97	57144.18
543.14	57202.69
543.31	57247.16
543.48	57319.72
543.64	57399.30
543.81	57345.47
543.98	57469.51
544.15	57317.38
544.32	57301.00
544.48	57696.55
544.65	57380.57
544.82	57553.77
544.99	57549.09
545.16	57801.87
545.32	57439.09
545.49	57542.07
545.66	57918.90
545.83	57638.03
546.00	57787.83
546.16	57654.42
546.33	57614.63
546.50	57673.14
546.67	57764.42
546.83	57537.39
547.00	57680.16
547.17	57705.91
547.34	57984.43
547.50	57855.70
547.67	58279.34
547.84	57989.11
548.00	58110.82
548.17	58300.40
548.34	58169.33
548.51	58326.15
548.67	58246.57
548.84	58389.34
549.01	58136.57
549.18	58071.03
549.34	58424.45
549.51	58300.40
549.68	58195.08
549.84	58534.46
550.01	58637.44
550.18	58518.07
550.34	58480.63
550.51	58426.79
550.68	58464.24
550.84	58291.04
551.01	58382.32
551.18	58578.93
551.34	58401.05
551.51	58691.27
551.68	58529.78
551.84	58543.82
552.01	58445.52
552.18	58838.73
552.34	58635.10
552.51	58642.12
552.68	58679.57
552.84	58710.00
553.01	58880.86
553.18	58841.07
553.34	59040.01
553.51	58820.00
553.67	58688.93
553.84	58955.75
554.01	59014.27
554.17	59058.74
554.34	58897.24
554.51	58967.46
554.67	59112.57
554.84	59114.91
555.00	59082.14
555.17	58953.41
555.33	59131.29
555.50	58899.58
555.67	59007.25
555.83	59070.44
556.00	59105.55
556.16	59611.10
556.33	59372.37
556.50	59421.52
556.66	59409.82
556.83	59348.96
556.99	59545.57
557.16	59351.30
557.32	59468.33
557.49	59632.17
557.65	59407.48
557.82	59519.82
557.98	59559.61
558.15	59482.37
558.32	59566.63
558.48	59494.08
558.65	59477.69
558.81	59657.91
558.98	59367.69
559.14	59512.80
559.31	59793.67
559.47	59721.11
559.64	59779.62
559.80	59863.88
559.97	59983.25
560.13	59711.75
560.30	59791.33
560.46	59863.88
560.63	59943.46
560.79	59800.69
560.96	59985.59
561.12	60016.02
561.29	59917.71
561.45	59868.56
561.61	59798.35
561.78	59840.48
561.94	59973.89
562.11	59931.76
562.27	59749.20
562.44	59938.78
562.60	60020.70
562.77	60023.04
562.93	59735.15
563.10	60111.98
563.26	60032.40
563.42	60348.37
563.59	59997.29
563.75	60111.98
563.92	59955.16
564.08	60032.40
564.24	60175.17
564.41	60142.41
564.57	60273.48
564.74	60151.77
564.90	60135.38
565.07	60299.22
565.23	60240.71
565.39	60273.48
565.56	60156.45
565.72	60261.77
565.88	60334.33
566.05	60184.54
566.21	60261.77
566.38	60207.94
566.54	60360.08
566.70	60339.01
566.87	60357.74
567.03	60411.57
567.19	60657.32
567.36	60484.12
567.52	60355.39
567.68	60580.09
567.85	60708.82
568.01	60250.07
568.17	60275.82
568.34	60521.57
568.50	60416.25
568.66	60324.97
568.83	60268.79
568.99	60507.53
569.15	60364.76
569.32	60470.08
569.48	60353.05
569.64	60402.21
569.81	60533.28
569.97	60334.33
570.13	60481.78
570.30	60308.58
570.46	60441.99
570.62	60570.72
570.78	60474.76
570.95	60530.93
571.11	60622.22
571.27	60669.03
571.43	60413.91
571.60	60556.68
571.76	60795.42
571.92	60554.34
572.09	60596.47
572.25	60718.18
572.41	60584.77
572.57	60720.52
572.74	60877.33
572.90	60624.56
573.06	60779.03
573.22	60788.39
573.38	60732.22
573.55	60528.59
573.71	60884.36
573.87	60720.52
574.03	60800.10
574.20	60552.00
574.36	60858.61
574.52	60631.58
574.68	60846.91
574.84	60942.87
575.01	60685.41
575.17	60877.33
575.33	60687.75
575.49	60786.05
575.65	60809.46
575.82	60804.78
575.98	60694.77
576.14	60865.63
576.30	60879.67
576.46	60807.12
576.62	60907.76
576.79	60697.11
576.95	60694.77
577.11	60846.91
577.27	60750.94
577.43	60800.10
577.59	60659.66
577.75	60935.85
577.92	60790.73
578.08	60945.21
578.24	60781.37
578.40	61179.26
578.56	61050.53
578.72	60898.40
578.88	61020.11
579.04	61095.00
579.21	60828.18
579.37	61111.39
579.53	61076.28
579.69	60767.33
579.85	60816.48
580.01	60917.12
580.17	60669.03
580.33	61139.47
580.49	60914.78
580.65	61158.20
580.82	60961.59
580.98	60921.80
581.14	60942.87
581.30	61097.34
581.46	60940.53
581.62	61130.11
581.78	60884.36
581.94	60999.04
582.10	61132.45
582.26	60896.06
582.42	61118.41
582.58	61261.18
582.74	60924.14
582.90	60945.21
583.06	61073.94
583.22	61034.15
583.38	61113.73
583.54	61116.07
583.70	61003.72
583.86	61125.43
584.02	60865.63
584.18	61104.37
584.34	61006.06
584.50	61050.53
584.66	60935.85
584.82	60772.01
584.98	61144.16
585.14	61230.75
585.30	60966.27
585.46	61090.32
585.62	61055.21
585.78	61216.71
585.94	60956.91
586.10	60959.25
586.26	61099.68
586.42	61120.75
586.58	61219.05
586.74	61242.46
586.90	61031.81
587.06	60856.27
587.22	61181.60
587.38	61024.79
587.54	61277.57
587.70	61240.12
587.86	61010.74
588.02	61200.33
588.18	61188.63
588.34	61080.96
588.49	60940.53
