SpectraSuite Data File
++++++++++++++++++++++++++++++++++++
Date: Fri Oct 25 11:26:00 EDT 2013
User: price-jones
Dark Spectrum Present: No
Reference Spectrum Present: No
Number of Sampled Component Spectra: 1
Spectrometers: USB2+H05261
Integration Time (usec): 100000 (USB2+H05261)
Spectra Averaged: 1 (USB2+H05261)
Boxcar Smoothing: 0 (USB2+H05261)
Correct for Electrical Dark: No (USB2+H05261)
Strobe/Lamp Enabled: No (USB2+H05261)
Correct for Detector Non-linearity: No (USB2+H05261)
Correct for Stray Light: No (USB2+H05261)
Number of Pixels in Processed Spectrum: 2048
>>>>>Begin Processed Spectral Data<<<<<
365.73	231.71
365.92	231.71
366.12	231.71
366.32	208.31
366.52	72.56
366.72	138.09
366.91	156.82
367.11	189.58
367.31	100.64
367.51	140.43
367.70	170.86
367.90	166.18
368.10	133.41
368.30	131.07
368.49	196.60
368.69	194.26
368.89	145.11
369.09	124.05
369.28	173.20
369.48	173.20
369.68	140.43
369.87	187.24
370.07	215.33
370.27	257.46
370.47	355.76
370.66	657.69
370.86	643.65
371.06	711.52
371.25	669.39
371.45	636.63
371.65	678.76
371.84	676.41
372.04	751.31
372.24	718.54
372.44	720.88
372.63	706.84
372.83	748.97
373.03	702.16
373.22	737.27
373.42	748.97
373.62	753.65
373.81	753.65
374.01	844.93
374.21	821.53
374.40	887.06
374.60	858.98
374.79	793.44
374.99	884.72
375.19	741.95
375.38	772.38
375.58	891.74
375.78	884.72
375.97	858.98
376.17	800.46
376.37	866.00
376.56	889.40
376.76	898.77
376.95	936.21
377.15	945.58
377.35	1018.13
377.54	802.80
377.74	903.45
377.93	858.98
378.13	905.79
378.33	952.60
378.52	924.51
378.72	924.51
378.91	983.02
379.11	926.85
379.31	910.47
379.50	905.79
379.70	910.47
379.89	1050.90
380.09	903.45
380.28	950.26
380.48	980.68
380.68	940.90
380.87	976.00
381.07	964.30
381.26	1041.54
381.46	1036.86
381.65	1057.92
381.85	959.62
382.04	1025.15
382.24	1046.22
382.43	1088.35
382.63	1013.45
382.83	1008.77
383.02	1095.37
383.22	1118.78
383.41	1135.16
383.61	1020.47
383.80	1203.04
384.00	1078.99
384.19	1081.33
384.39	1083.67
384.58	1137.50
384.78	1142.18
384.97	1167.93
385.17	1130.48
385.36	1165.59
385.56	1172.61
385.75	1097.71
385.95	1146.86
386.14	1128.14
386.34	1233.46
386.53	1184.31
386.72	1200.69
386.92	1226.44
387.11	1294.32
387.31	1231.12
387.50	1313.04
387.70	1254.53
387.89	1338.79
388.09	1310.70
388.28	1259.21
388.48	1273.25
388.67	1364.53
388.86	1352.83
389.06	1273.25
389.25	1357.51
389.45	1329.42
389.64	1294.32
389.84	1357.51
390.03	1256.87
390.22	1404.32
390.42	1345.81
390.61	1359.85
390.81	1427.73
391.00	1401.98
391.19	1472.20
391.39	1490.92
391.58	1416.02
391.78	1469.86
391.97	1551.78
392.16	1397.30
392.36	1568.16
392.55	1504.96
392.75	1544.75
392.94	1490.92
393.13	1481.56
393.33	1561.14
393.52	1474.54
393.71	1537.73
393.91	1540.07
394.10	1654.76
394.29	1603.27
394.49	1593.90
394.68	1568.16
394.88	1579.86
395.07	1699.23
395.26	1591.56
395.46	1647.74
395.65	1650.08
395.84	1687.53
396.04	1771.79
396.23	1771.79
396.42	1717.95
396.62	1776.47
396.81	1706.25
397.00	1760.08
397.19	1872.43
397.39	1799.87
397.58	1799.87
397.77	1858.39
397.97	1870.09
398.16	1809.23
398.35	1900.52
398.55	1764.76
398.74	1877.11
398.93	1851.36
399.12	1820.94
399.32	1872.43
399.51	1998.82
399.70	1998.82
399.90	1942.64
400.09	1989.46
400.28	2094.78
400.47	1987.11
400.67	2050.31
400.86	1937.96
401.05	2141.59
401.24	2069.03
401.44	2087.76
401.63	2183.72
401.82	2064.35
402.01	2122.87
402.21	2127.55
402.40	2120.53
402.59	2207.13
402.78	2183.72
402.97	2235.21
403.17	2244.57
403.36	2373.30
403.55	2190.74
403.74	2363.94
403.93	2420.11
404.13	2399.05
404.32	2387.35
404.51	2366.28
404.70	2497.35
404.89	2401.39
405.09	2469.27
405.28	2502.03
405.47	2394.37
405.66	2431.82
405.85	2462.24
406.05	2483.31
406.24	2424.80
406.43	2527.78
406.62	2806.30
406.81	2654.17
407.00	2630.76
407.20	2572.25
407.39	2548.84
407.58	2619.06
407.77	2815.66
407.96	2832.05
408.15	2764.17
408.34	2703.32
408.54	2794.60
408.73	2839.07
408.92	2846.09
409.11	2789.92
409.30	2871.84
409.49	2923.33
409.68	2949.08
409.87	2918.65
410.07	2977.16
410.26	2942.05
410.45	3007.59
410.64	2958.44
410.83	2892.90
411.02	3091.85
411.21	3035.67
411.40	3087.17
411.59	3251.00
411.78	3239.30
411.98	3124.62
412.17	3126.96
412.36	3234.62
412.55	3400.80
412.74	3356.33
412.93	3323.56
413.12	3316.54
413.31	3606.77
413.50	3461.65
413.69	3524.85
413.88	3452.29
414.07	3543.57
414.26	3597.40
414.45	3672.30
414.64	3721.45
414.83	3765.92
415.02	3784.65
415.22	3651.24
415.41	3779.97
415.60	3857.20
415.79	3705.07
415.98	3908.69
416.17	4030.40
416.36	3805.71
416.55	3852.52
416.74	3997.64
416.93	3955.51
417.12	4039.76
417.31	4112.32
417.50	4245.73
417.69	4191.90
417.88	4229.35
418.07	4294.88
418.26	4208.28
418.45	4348.72
418.64	4388.50
418.83	4435.32
419.02	4353.40
419.21	4435.32
419.39	4650.64
419.58	4397.87
419.77	4465.74
419.96	4585.11
420.15	4617.88
420.34	4596.81
420.53	4638.94
420.72	4589.79
420.91	4692.77
421.10	4648.30
421.29	4678.73
421.48	4624.90
421.67	4786.40
421.86	4777.03
422.05	4821.50
422.24	4800.44
422.43	4784.06
422.61	4844.91
422.80	4856.61
422.99	4924.49
423.18	4861.29
423.37	5004.07
423.56	4957.25
423.75	4805.12
423.94	4730.22
424.13	4578.09
424.32	4793.42
424.50	4830.87
424.69	5074.28
424.88	4978.32
425.07	4983.00
425.26	5008.75
425.45	5043.85
425.64	4997.04
425.83	5022.79
426.01	4999.38
426.20	5085.98
426.39	5097.69
426.58	4957.25
426.77	5081.30
426.96	5205.35
427.15	4954.91
427.33	5165.56
427.52	5151.52
427.71	5280.25
427.90	5027.47
428.09	5188.97
428.28	5214.71
428.46	5203.01
428.65	5291.95
428.84	5472.17
429.03	5537.71
429.22	5404.30
429.40	5467.49
429.59	5570.48
429.78	5371.53
429.97	5125.77
430.16	5390.25
430.34	5612.60
430.53	5652.39
430.72	5685.16
430.91	5654.73
431.10	5568.13
431.28	5888.79
431.47	5778.78
431.66	5830.27
431.85	5788.14
432.03	5893.47
432.22	5767.08
432.41	5834.96
432.60	5954.32
432.79	5991.77
432.97	5984.75
433.16	5961.34
433.35	6003.47
433.54	5940.28
433.72	6038.58
433.91	6150.93
434.10	5998.79
434.28	6040.92
434.47	6174.33
434.66	6183.70
434.85	6160.29
435.03	6377.96
435.22	6223.48
435.41	6296.04
435.59	6455.20
435.78	6417.75
435.97	6471.58
436.16	6492.65
436.34	6335.83
436.53	6347.53
436.72	6630.74
436.90	6356.90
437.09	6623.72
437.28	6485.62
437.46	6787.55
437.65	6616.69
437.84	6541.80
438.02	6682.23
438.21	6782.87
438.40	6513.71
438.58	6988.84
438.77	6810.96
438.96	6675.21
439.14	7124.59
439.33	7192.47
439.52	7129.27
439.70	7166.72
439.89	7339.92
440.08	7414.82
440.26	7433.54
440.45	7267.36
440.63	7353.96
440.82	7543.55
441.01	7520.14
441.19	7534.18
441.38	7709.72
441.57	7581.00
441.75	7618.44
441.94	7861.86
442.12	7815.05
442.31	8065.49
442.50	7953.14
442.68	7801.01
442.87	8037.40
443.05	7922.71
443.24	8290.18
443.43	8353.37
443.61	8138.04
443.80	8152.09
443.98	7901.65
444.17	7829.09
444.35	8224.64
444.54	8299.54
444.73	8437.63
444.91	8353.37
445.10	8416.57
445.28	8381.46
445.47	8210.60
445.65	8189.53
445.84	8540.61
446.02	8116.98
446.21	8400.18
446.39	8189.53
446.58	8507.85
446.77	8482.10
446.95	8313.58
447.14	8297.20
447.32	8580.40
447.51	8528.91
447.69	8538.27
447.88	8587.43
448.06	8585.08
448.25	8381.46
448.43	8449.33
448.62	8674.03
448.80	8482.10
448.99	8617.85
449.17	8711.47
449.36	8468.06
449.54	8730.20
449.73	8819.14
449.91	9111.71
450.10	8973.61
450.28	8922.12
450.46	9170.22
450.65	8959.57
450.83	8980.64
451.02	8851.91
451.20	9177.24
451.39	9135.11
451.57	9071.92
451.76	9067.24
451.94	8980.64
452.13	9376.19
452.31	9451.08
452.49	9078.94
452.68	9472.15
452.86	9207.67
453.05	9540.02
453.23	9479.17
453.42	9284.91
453.60	9242.78
453.78	9462.79
453.97	9322.35
454.15	9327.03
454.34	9270.86
454.52	9558.75
454.70	9771.74
454.89	9738.97
455.07	9666.41
455.26	9710.88
455.44	9970.68
455.62	9797.48
455.81	9928.55
455.99	9898.13
456.17	10279.63
456.36	10279.63
456.54	10164.95
456.73	10099.41
456.91	10375.59
457.09	10614.33
457.28	10457.51
457.46	10443.47
457.64	10602.63
457.83	10483.26
458.01	10541.77
458.19	10656.46
458.38	10356.87
458.56	10714.97
458.74	10691.57
458.93	10766.46
459.11	10537.09
459.29	10808.59
459.48	10703.27
459.66	10743.06
459.84	10874.13
460.03	11204.14
460.21	10874.13
460.39	10864.77
460.57	11056.69
460.76	10909.24
460.94	10937.32
461.12	10953.71
461.31	10839.02
461.49	10703.27
461.67	11211.17
461.85	11449.90
462.04	11260.32
462.22	11749.49
462.40	11557.57
462.59	11468.62
462.77	11520.12
462.95	11599.70
463.13	11541.18
463.32	11524.80
463.50	11719.06
463.68	11719.06
463.86	11789.28
464.05	11660.55
464.23	11456.92
464.41	11899.28
464.59	11632.46
464.78	12025.67
464.96	12138.02
465.14	11693.32
465.32	11908.65
465.50	12290.15
465.69	12107.59
465.87	11990.56
466.05	12175.47
466.23	12453.99
466.41	12123.98
466.60	12395.48
466.78	12245.68
466.96	12163.76
467.14	12201.21
467.32	12379.09
467.51	12465.69
467.69	11971.84
467.87	12390.80
468.05	12631.87
468.23	12624.85
468.41	12430.59
468.60	12678.68
468.78	12645.91
468.96	12421.22
469.14	12746.56
469.32	12875.29
469.50	12538.25
469.69	13060.19
469.87	12933.80
470.05	13198.28
470.23	13205.30
470.41	13200.62
470.59	13247.43
470.77	13179.56
470.95	13359.78
471.14	13401.91
471.32	13078.91
471.50	13465.10
471.68	13425.31
471.86	13589.15
472.04	13778.73
472.22	13954.27
472.40	13703.84
472.58	13928.53
472.77	13994.06
472.95	13942.57
473.13	14319.40
473.31	14024.49
473.49	14195.35
473.67	13820.86
473.85	14010.45
474.03	14530.05
474.21	14562.81
474.39	14745.38
474.57	14714.95
474.75	14633.03
474.93	15054.33
475.12	14862.40
475.30	14974.75
475.48	14721.97
475.66	15037.94
475.84	15152.63
476.02	15419.45
476.20	15311.78
476.38	15599.67
476.56	15791.59
476.74	15875.85
476.92	15910.96
477.10	15742.44
477.28	16018.63
477.46	16079.48
477.64	16123.95
477.82	16306.51
478.00	16849.52
478.18	16723.13
478.36	16830.79
478.54	16664.61
478.72	17172.51
478.90	17305.92
479.08	17352.73
479.26	17568.06
479.44	17724.88
479.62	17671.04
479.80	17853.61
479.98	17998.72
480.16	18595.56
480.34	18380.23
480.52	18572.15
480.70	18675.13
480.88	18141.49
481.06	18838.97
481.24	18787.48
481.41	18801.52
481.59	19199.41
481.77	19367.93
481.95	19735.40
482.13	19644.12
482.31	19475.60
482.49	19953.07
482.67	20016.26
482.85	20423.51
483.03	20341.60
483.21	20482.03
483.39	20704.38
483.57	20608.42
483.74	21488.46
483.92	21371.43
484.10	21209.93
484.28	21376.11
484.46	21867.63
484.64	22164.87
484.82	22089.98
485.00	22422.33
485.18	22490.21
485.35	22607.23
485.53	22672.77
485.71	22689.15
485.89	23248.54
486.07	23073.00
486.25	23112.79
486.43	23438.12
486.61	23817.29
486.78	23756.44
486.96	24126.24
487.14	24577.97
487.32	24603.71
487.50	25078.84
487.68	24769.89
487.85	25195.87
488.03	25305.87
488.21	25783.34
488.39	25839.51
488.57	26340.39
488.75	26267.83
488.92	26410.60
489.10	26796.79
489.28	26757.00
489.46	27094.04
489.64	26785.09
489.81	27410.01
489.99	27309.37
490.17	27779.82
490.35	27796.20
490.53	27934.29
490.70	28142.60
490.88	28072.39
491.06	28804.97
491.24	28776.89
491.41	29034.35
491.59	29460.32
491.77	28844.76
491.95	29237.97
492.13	29776.30
492.30	29954.18
492.48	30050.14
492.66	29900.34
492.84	30314.62
493.01	30618.89
493.19	30551.01
493.37	30984.01
493.54	31215.72
493.72	31178.28
493.90	31527.02
494.08	31709.58
494.25	31882.78
494.43	31744.69
494.61	32156.62
494.79	32074.70
494.96	32144.92
495.14	32549.83
495.32	32437.48
495.49	32980.49
495.67	32767.50
495.85	33493.07
496.02	33937.77
496.20	33851.17
496.38	33656.90
496.55	34113.31
496.73	34558.01
496.91	34675.04
497.09	34637.59
497.26	34981.65
497.44	34820.15
497.62	34806.11
497.79	35374.86
497.97	35129.10
498.14	35938.93
498.32	35922.54
498.50	36149.57
498.67	36252.56
498.85	36404.69
499.03	36507.68
499.20	36367.24
499.38	36849.39
499.56	37015.57
499.73	37083.45
499.91	37191.11
500.08	37479.00
500.26	37312.82
500.44	37336.23
500.61	37647.52
500.79	37659.22
500.97	38110.94
501.14	38426.92
501.32	38319.25
501.49	38375.42
501.67	38873.96
501.84	38841.19
502.02	38686.71
502.20	38766.29
502.37	39604.20
502.55	39061.20
502.72	38895.02
502.90	39391.22
503.07	39732.93
503.25	39573.78
503.43	39854.64
503.60	40079.33
503.78	39929.54
503.95	39962.31
504.13	40627.02
504.30	40563.82
504.48	40222.11
504.65	40304.02
504.83	40694.89
505.01	41345.56
505.18	40942.99
505.36	41214.49
505.53	41118.53
505.71	41930.70
505.88	41610.04
506.06	41209.81
506.23	41528.13
506.41	41703.67
506.58	41886.23
506.76	41944.74
506.93	42113.26
507.11	42426.89
507.28	42440.93
507.46	42719.46
507.63	42815.42
507.81	43159.48
507.98	42581.37
508.16	42756.91
508.33	43100.97
508.50	43522.26
508.68	43356.08
508.85	43606.52
509.03	43220.33
509.20	43952.92
509.38	43807.81
509.55	44229.10
509.73	44383.58
509.90	44102.71
510.08	44552.10
510.25	44575.50
510.42	44734.66
510.60	44697.21
510.77	45052.97
510.95	45214.47
511.12	44961.69
511.30	45411.07
511.47	45518.74
511.64	45284.68
511.82	45525.76
511.99	45125.53
512.17	46047.70
512.34	45855.78
512.51	45928.33
512.69	46279.41
512.86	46237.28
513.04	46855.18
513.21	46370.69
513.38	46667.94
513.56	46784.97
513.73	46686.67
513.90	46490.06
514.08	46941.78
514.25	47012.00
514.43	47091.58
514.60	46906.68
514.77	47241.37
514.95	47636.92
515.12	47283.50
515.29	47501.17
515.47	47440.32
515.64	47847.57
515.81	47812.46
515.99	48030.13
516.16	48250.14
516.33	48428.02
516.51	48325.04
516.68	48308.66
516.85	48109.71
517.03	48758.04
517.20	48432.71
517.37	48912.52
517.54	48786.13
517.72	48804.85
517.89	48648.03
518.06	49038.90
518.24	49315.09
518.41	49244.87
518.58	49375.94
518.75	48900.81
518.93	49282.32
519.10	49148.91
519.27	49352.54
519.45	49598.29
519.62	49701.28
519.79	49715.32
519.96	49661.49
520.14	49993.84
520.31	50106.19
520.48	50110.87
520.65	50387.05
520.83	50642.17
521.00	50457.27
521.17	50270.03
521.34	50333.22
521.52	50864.52
521.69	50611.74
521.86	50859.84
522.03	50892.61
522.20	51257.73
522.38	51002.61
522.55	51243.69
522.72	51421.57
522.89	50679.62
523.07	51622.86
523.24	51086.87
523.41	51447.32
523.58	51419.23
523.75	51508.17
523.92	51845.21
524.10	51412.21
524.27	51847.55
524.44	51945.85
524.61	51952.87
524.78	52072.24
524.96	52207.99
525.13	51828.82
525.30	52296.93
525.47	52629.29
525.64	52215.01
525.81	52273.52
525.98	52802.49
526.16	52308.63
526.33	52617.58
526.50	52966.32
526.67	52690.14
526.84	52542.69
527.01	52914.83
527.18	52509.92
527.36	53085.69
527.53	52945.26
527.70	53228.46
527.87	53322.08
528.04	52816.53
528.21	53443.79
528.38	53296.34
528.55	53586.57
528.72	53137.18
528.89	53294.00
529.07	53200.38
529.24	53518.69
529.41	53645.08
529.58	53663.80
529.75	53359.53
529.92	53776.15
530.09	53420.39
530.26	53949.35
530.43	53895.52
530.60	53588.91
530.77	53633.38
530.94	54178.72
531.11	53757.42
531.28	54087.44
531.46	54239.57
531.63	54026.59
531.80	54106.16
531.97	54330.86
532.14	54590.66
532.31	54230.21
532.48	54520.44
532.65	54541.50
532.82	54433.84
532.99	54667.89
533.16	54756.83
533.33	54482.99
533.50	54724.07
533.67	54733.43
533.84	54485.33
534.01	54459.58
534.18	55105.57
534.35	55089.19
534.52	54955.78
534.69	54965.14
534.86	54972.16
535.03	55051.74
535.20	55290.48
535.37	55250.69
535.54	55327.92
535.71	55159.41
535.88	55351.33
536.05	55451.97
536.22	55327.92
536.38	55601.77
536.55	55379.42
536.72	55435.59
536.89	55522.19
537.06	55522.19
537.23	55789.01
537.40	55454.31
537.57	55360.69
537.74	55821.78
537.91	55735.18
538.08	55821.78
538.25	55515.17
538.42	55774.97
538.59	55931.78
538.75	55943.48
538.92	55973.91
539.09	55957.53
539.26	56048.81
539.43	56006.68
539.60	56236.05
539.77	55819.44
539.94	56458.40
540.11	56175.20
540.28	56243.07
540.44	56357.76
540.61	56179.88
540.78	56282.86
540.95	56498.19
541.12	56402.23
541.29	56432.66
541.46	56104.98
541.62	56435.00
541.79	56566.07
541.96	56240.73
542.13	56360.10
542.30	56481.81
542.47	56739.27
542.63	56479.47
542.80	56598.83
542.97	56868.00
543.14	57111.41
543.31	57078.64
543.48	57209.71
543.64	57104.39
543.81	57162.90
543.98	57006.09
544.15	57434.41
544.32	57230.78
544.48	57439.09
544.65	57146.52
544.82	57326.74
544.99	57205.03
545.16	57469.51
545.32	57183.97
545.49	57726.97
545.66	57572.50
545.83	57602.92
546.00	57549.09
546.16	57726.97
546.33	57441.43
546.50	57471.85
546.67	57638.03
546.83	57097.37
547.00	57682.50
547.17	57815.91
547.34	57567.82
547.50	57724.63
547.67	57893.15
547.84	57916.56
548.00	57764.42
548.17	57986.77
548.34	58071.03
548.51	58117.84
548.67	58293.38
548.84	57923.58
549.01	57921.24
549.18	58195.08
549.34	58042.95
549.51	58277.00
549.68	58286.36
549.84	58251.25
550.01	58237.21
550.18	58174.02
550.34	58394.03
550.51	58508.71
550.68	58293.38
550.84	58262.96
551.01	58433.81
551.18	58546.16
551.34	58213.80
551.51	58590.63
551.68	58539.14
551.84	58412.75
552.01	58213.80
552.18	58419.77
552.34	58239.55
552.51	58550.84
552.68	58494.67
552.84	58466.58
553.01	58754.47
553.18	58543.82
553.34	58759.15
553.51	58511.05
553.67	58712.34
553.84	59002.56
554.01	59009.59
554.17	58930.01
554.34	58951.07
554.51	59133.63
554.67	59035.33
554.84	58702.98
555.00	58925.33
555.17	59028.31
555.33	58838.73
555.50	58726.38
555.67	58801.28
555.83	59009.59
556.00	59114.91
556.16	59210.87
556.33	59070.44
556.50	59103.21
556.66	59316.20
556.83	58901.92
556.99	59372.37
557.16	59501.10
557.32	59550.25
557.49	59384.07
557.65	59243.64
557.82	59384.07
557.98	59145.34
558.15	59437.90
558.32	59283.43
558.48	59344.28
558.65	59386.41
558.81	59444.93
558.98	59475.35
559.14	59442.59
559.31	59934.10
559.47	59568.97
559.64	59697.70
559.80	59744.51
559.97	59887.29
560.13	59316.20
560.30	59608.76
560.46	59781.96
560.63	59627.49
560.79	59470.67
560.96	59826.43
561.12	59744.51
561.29	59599.40
561.45	59716.43
561.61	59606.42
561.78	59671.96
561.94	59861.54
562.11	59681.32
562.27	59938.78
562.44	59838.14
562.60	59891.97
562.77	59728.13
562.93	59784.30
563.10	60158.79
563.26	59697.70
563.42	60074.53
563.59	60126.02
563.75	59859.20
563.92	59962.18
564.08	59805.37
564.24	60123.68
564.41	59704.73
564.57	59920.05
564.74	60069.85
564.90	60086.23
565.07	60119.00
565.23	59959.84
565.39	60032.40
565.56	60041.76
565.72	59870.90
565.88	60001.97
566.05	59945.80
566.21	60163.47
566.38	60060.49
566.54	60123.68
566.70	60502.85
566.87	60135.38
567.03	60058.15
567.19	60259.43
567.36	60128.36
567.52	60210.28
567.68	60493.49
567.85	60214.96
568.01	60261.77
568.17	60126.02
568.34	60350.71
568.50	60250.07
568.66	60168.15
568.83	60385.82
568.99	60243.05
569.15	60343.69
569.32	60156.45
569.48	60409.23
569.64	60322.63
569.81	60388.16
569.97	60221.98
570.13	60369.44
570.30	60135.38
570.46	60280.50
570.62	60367.10
570.78	60282.84
570.95	60364.76
571.11	60533.28
571.27	60334.33
571.43	60474.76
571.60	60505.19
571.76	60364.76
571.92	60474.76
572.09	60369.44
572.25	60495.83
572.41	60355.39
572.57	60556.68
572.74	60844.57
572.90	60392.84
573.06	60636.26
573.22	60664.35
573.38	60505.19
573.55	60460.72
573.71	60530.93
573.87	60697.11
574.03	60425.61
574.20	60605.83
574.36	60526.25
574.52	60669.03
574.68	60488.80
574.84	60753.29
575.01	60594.13
575.17	60685.41
575.33	60537.96
575.49	60521.57
575.65	60470.08
575.82	60713.50
575.98	60664.35
576.14	60678.39
576.30	60711.16
576.46	60666.69
576.62	60549.66
576.79	60760.31
576.95	60488.80
577.11	60769.67
577.27	60533.28
577.43	60612.85
577.59	60692.43
577.75	60783.71
577.92	60526.25
578.08	60622.22
578.24	60942.87
578.40	61010.74
578.56	60849.25
578.72	60683.07
578.88	60727.54
579.04	60889.04
579.21	60828.18
579.37	60743.92
579.53	60697.11
579.69	60940.53
579.85	60697.11
580.01	60704.13
580.17	60666.69
580.33	60837.54
580.49	60786.05
580.65	60825.84
580.82	60807.12
580.98	60760.31
581.14	60786.05
581.30	61003.72
581.46	60790.73
581.62	60762.65
581.78	60657.32
581.94	60781.37
582.10	60865.63
582.26	60865.63
582.42	60666.69
582.58	60956.91
582.74	60755.63
582.90	60874.99
583.06	60711.16
583.22	60893.72
583.38	60671.37
583.54	60879.67
583.70	60980.32
583.86	60961.59
584.02	60807.12
584.18	60956.91
584.34	60945.21
584.50	61085.64
584.66	60776.69
584.82	60664.35
584.98	61153.52
585.14	60928.83
585.30	60678.39
585.46	60884.36
585.62	60910.10
585.78	61183.94
585.94	60706.47
586.10	60804.78
586.26	60851.59
586.42	61254.16
586.58	60975.64
586.74	60800.10
586.90	60818.82
587.06	60917.12
587.22	61041.17
587.38	60992.02
587.54	61022.45
587.70	61329.06
587.86	60788.39
588.02	61043.51
588.18	61022.45
588.34	61013.08
588.49	60912.44
