SpectraSuite Data File
++++++++++++++++++++++++++++++++++++
Date: Fri Oct 25 11:25:39 EDT 2013
User: price-jones
Dark Spectrum Present: No
Reference Spectrum Present: No
Number of Sampled Component Spectra: 1
Spectrometers: USB2+H05261
Integration Time (usec): 100000 (USB2+H05261)
Spectra Averaged: 1 (USB2+H05261)
Boxcar Smoothing: 0 (USB2+H05261)
Correct for Electrical Dark: No (USB2+H05261)
Strobe/Lamp Enabled: No (USB2+H05261)
Correct for Detector Non-linearity: No (USB2+H05261)
Correct for Stray Light: No (USB2+H05261)
Number of Pixels in Processed Spectrum: 2048
>>>>>Begin Processed Spectral Data<<<<<
365.73	285.55
365.92	285.55
366.12	285.55
366.32	145.11
366.52	100.64
366.72	138.09
366.91	107.66
367.11	180.22
367.31	102.98
367.51	30.43
367.70	189.58
367.90	121.71
368.10	131.07
368.30	170.86
368.49	142.77
368.69	95.96
368.89	196.60
369.09	184.90
369.28	191.92
369.48	107.66
369.68	194.26
369.87	217.67
370.07	215.33
370.27	292.57
370.47	339.38
370.66	587.47
370.86	671.73
371.06	657.69
371.25	678.76
371.45	674.07
371.65	711.52
371.84	695.14
372.04	645.99
372.24	655.35
372.44	629.60
372.63	772.38
372.83	737.27
373.03	753.65
373.22	755.99
373.42	760.67
373.62	786.42
373.81	784.08
374.01	788.76
374.21	802.80
374.40	849.61
374.60	784.08
374.79	805.14
374.99	795.78
375.19	812.17
375.38	870.68
375.58	905.79
375.78	887.06
375.97	866.00
376.17	882.38
376.37	821.53
376.56	896.43
376.76	802.80
376.95	840.25
377.15	945.58
377.35	887.06
377.54	847.27
377.74	901.11
377.93	870.68
378.13	936.21
378.33	1053.24
378.52	931.53
378.72	933.87
378.91	945.58
379.11	931.53
379.31	929.19
379.50	922.17
379.70	978.34
379.89	954.94
380.09	936.21
380.28	940.90
380.48	1006.43
380.68	966.64
380.87	1027.50
381.07	983.02
381.26	1015.79
381.46	954.94
381.65	1008.77
381.85	1083.67
382.04	1109.41
382.24	1071.97
382.43	1048.56
382.63	1069.62
382.83	1032.18
383.02	1083.67
383.22	1179.63
383.41	1093.03
383.61	1041.54
383.80	1139.84
384.00	1128.14
384.19	1104.73
384.39	1123.46
384.58	1078.99
384.78	1107.07
384.97	1146.86
385.17	1071.97
385.36	1198.35
385.56	1109.41
385.75	1146.86
385.95	1151.54
386.14	1135.16
386.34	1245.16
386.53	1203.04
386.72	1203.04
386.92	1294.32
387.11	1277.93
387.31	1238.14
387.50	1254.53
387.70	1158.57
387.89	1249.85
388.09	1284.95
388.28	1315.38
388.48	1345.81
388.67	1270.91
388.86	1303.68
389.06	1348.15
389.25	1334.11
389.45	1341.13
389.64	1294.32
389.84	1359.85
390.03	1357.51
390.22	1369.21
390.42	1425.39
390.61	1451.13
390.81	1296.66
391.00	1383.26
391.19	1416.02
391.39	1467.52
391.58	1446.45
391.78	1453.47
391.97	1479.22
392.16	1453.47
392.36	1509.65
392.55	1497.94
392.75	1474.54
392.94	1495.60
393.13	1519.01
393.33	1497.94
393.52	1575.18
393.71	1591.56
393.91	1563.48
394.10	1488.58
394.29	1528.37
394.49	1589.22
394.68	1626.67
394.88	1584.54
395.07	1664.12
395.26	1680.50
395.46	1654.76
395.65	1750.72
395.84	1746.04
396.04	1760.08
396.23	1678.16
396.42	1769.44
396.62	1783.49
396.81	1834.98
397.00	1776.47
397.19	1858.39
397.39	1802.21
397.58	1804.55
397.77	1685.19
397.97	1816.26
398.16	1886.47
398.35	1842.00
398.55	1813.92
398.74	1851.36
398.93	1909.88
399.12	1900.52
399.32	1865.41
399.51	2043.29
399.70	1912.22
399.90	1966.05
400.09	2066.69
400.28	2073.71
400.47	2029.24
400.67	2099.46
400.86	2066.69
401.05	2019.88
401.24	2136.91
401.44	2200.10
401.63	2104.14
401.82	2050.31
402.01	2057.33
402.21	2190.74
402.40	2232.87
402.59	2134.57
402.78	2251.60
402.97	2326.49
403.17	2258.62
403.36	2260.96
403.55	2317.13
403.74	2260.96
403.93	2267.98
404.13	2382.67
404.32	2289.04
404.51	2326.49
404.70	2377.98
404.89	2431.82
405.09	2590.97
405.28	2492.67
405.47	2420.11
405.66	2600.34
405.85	2490.33
406.05	2553.52
406.24	2541.82
406.43	2532.46
406.62	2696.30
406.81	2656.51
407.00	2497.35
407.20	2619.06
407.39	2630.76
407.58	2693.96
407.77	2626.08
407.96	2815.66
408.15	2764.17
408.34	2649.49
408.54	2841.41
408.73	2778.22
408.92	2855.45
409.11	2818.00
409.30	2956.10
409.49	2846.09
409.68	2874.18
409.87	2911.63
410.07	3084.83
410.26	3035.67
410.45	2918.65
410.64	2906.95
410.83	3115.25
411.02	2939.71
411.21	3094.19
411.40	3105.89
411.59	3279.09
411.78	3314.20
411.98	3166.74
412.17	3288.45
412.36	3211.22
412.55	3255.69
412.74	3499.10
412.93	3332.92
413.12	3283.77
413.31	3475.70
413.50	3405.48
413.69	3375.05
413.88	3559.95
414.07	3585.70
414.26	3641.87
414.45	3691.02
414.64	3660.60
414.83	3705.07
415.02	3833.80
415.22	3740.18
415.41	3929.76
415.60	3936.78
415.79	3995.29
415.98	3826.78
416.17	4058.49
416.36	3925.08
416.55	3878.27
416.74	4074.87
416.93	4086.58
417.12	4053.81
417.31	4114.66
417.50	4046.79
417.69	4163.81
417.88	4252.75
418.07	4262.12
418.26	4372.12
418.45	4358.08
418.64	4418.93
418.83	4409.57
419.02	4367.44
419.21	4514.89
419.39	4528.94
419.58	4381.48
419.77	4365.10
419.96	4451.70
420.15	4725.54
420.34	4360.42
420.53	4690.43
420.72	4601.49
420.91	4727.88
421.10	4758.31
421.29	4709.16
421.48	4589.79
421.67	4697.46
421.86	4753.63
422.05	4741.93
422.24	4793.42
422.43	4788.74
422.61	4880.02
422.80	4896.40
422.99	4936.19
423.18	5004.07
423.37	4826.18
423.56	4997.04
423.75	4805.12
423.94	4901.08
424.13	4601.49
424.32	4786.40
424.50	5083.64
424.69	5195.99
424.88	4884.70
425.07	5055.56
425.26	4931.51
425.45	4880.02
425.64	4947.89
425.83	4990.02
426.01	5259.18
426.20	5109.39
426.39	5149.18
426.58	5088.32
426.77	5062.58
426.96	5104.71
427.15	4936.19
427.33	5188.97
427.52	5156.20
427.71	5221.74
427.90	5184.29
428.09	5254.50
428.28	5296.63
428.46	5198.33
428.65	5207.69
428.84	5593.88
429.03	5418.34
429.22	5423.02
429.40	5472.17
429.59	5547.07
429.78	5287.27
429.97	5298.97
430.16	5390.25
430.34	5582.18
430.53	5706.23
430.72	5650.05
430.91	5678.14
431.10	5680.48
431.28	5687.50
431.47	5858.36
431.66	5757.72
431.85	5809.21
432.03	5738.99
432.22	5984.75
432.41	5771.76
432.60	5937.94
432.79	5755.38
432.97	5881.77
433.16	6052.63
433.35	5902.83
433.54	6008.16
433.72	6143.91
433.91	6183.70
434.10	6059.65
434.28	6211.78
434.47	6164.97
434.66	6157.95
434.85	6143.91
435.03	6279.66
435.22	6134.54
435.41	6445.84
435.59	6534.78
435.78	6462.22
435.97	6443.49
436.16	6506.69
436.34	6267.95
436.53	6319.45
436.72	6597.97
436.90	6408.39
437.09	6691.59
437.28	6597.97
437.46	6619.04
437.65	6698.61
437.84	6736.06
438.02	6654.14
438.21	6670.53
438.40	6722.02
438.58	6810.96
438.77	7129.27
438.96	6946.71
439.14	7084.80
439.33	7187.79
439.52	7117.57
439.70	7274.38
439.89	7150.34
440.08	7283.75
440.26	7309.49
440.45	7272.04
440.63	7573.97
440.82	7566.95
441.01	7391.41
441.19	7543.55
441.38	7571.63
441.57	7681.64
441.75	7873.56
441.94	7906.33
442.12	7831.43
442.31	7976.55
442.50	8112.30
442.68	7889.95
442.87	7915.69
443.05	8135.70
443.24	8315.92
443.43	8116.98
443.61	8121.66
443.80	8367.42
443.98	7747.17
444.17	7702.70
444.35	8152.09
444.54	8411.89
444.73	8259.75
444.91	8205.92
445.10	8332.31
445.28	8458.70
445.47	8065.49
445.65	8269.11
445.84	8659.98
446.02	8383.80
446.21	8269.11
446.39	8269.11
446.58	8461.04
446.77	8421.25
446.95	8393.16
447.14	8592.11
447.32	8601.47
447.51	8650.62
447.69	8374.44
447.88	8557.00
448.06	8545.30
448.25	8531.25
448.43	8596.79
448.62	8582.74
448.80	8538.27
448.99	8690.41
449.17	8760.63
449.36	8542.96
449.54	8734.88
449.73	8978.30
449.91	8898.72
450.10	8931.48
450.28	8926.80
450.46	9104.68
450.65	9144.47
450.83	9125.75
451.02	9043.83
451.20	9202.99
451.39	9228.73
451.57	9085.96
451.76	8903.40
451.94	9071.92
452.13	9193.62
452.31	9317.67
452.49	9181.92
452.68	9387.89
452.86	9268.52
453.05	9303.63
453.23	9439.38
453.42	9437.04
453.60	9266.18
453.78	9488.53
453.97	9315.33
454.15	9556.41
454.34	9493.21
454.52	9638.33
454.70	9495.55
454.89	9645.35
455.07	9788.12
455.26	9631.30
455.44	9832.59
455.62	9839.61
455.81	9940.26
455.99	10094.73
456.17	9980.04
456.36	10073.67
456.54	10141.54
456.73	10394.32
456.91	10466.88
457.09	10382.62
457.28	10504.32
457.46	10438.79
457.64	10506.66
457.83	10485.60
458.01	10178.99
458.19	10862.43
458.38	10532.41
458.56	10721.99
458.74	10958.39
458.93	10714.97
459.11	10567.52
459.29	10429.43
459.48	10780.51
459.66	10897.53
459.84	10895.19
460.03	10925.62
460.21	10843.70
460.39	10927.96
460.57	10911.58
460.76	11201.80
460.94	11077.76
461.12	11185.42
461.31	10995.84
461.49	11047.33
461.67	11047.33
461.85	11417.13
462.04	11241.59
462.22	11962.48
462.40	11548.20
462.59	11445.22
462.77	11412.45
462.95	11452.24
463.13	11604.38
463.32	11440.54
463.50	11625.44
463.68	11683.95
463.86	11875.88
464.05	11548.20
464.23	11751.83
464.41	11985.88
464.59	11651.19
464.78	12243.34
464.96	12009.29
465.14	11990.56
465.32	12077.16
465.50	12128.66
465.69	12114.61
465.87	12430.59
466.05	12070.14
466.23	12306.54
466.41	12257.39
466.60	12430.59
466.78	12049.08
466.96	12222.28
467.14	12327.60
467.32	12233.98
467.51	12575.70
467.69	12152.06
467.87	12531.23
468.05	12465.69
468.23	12578.04
468.41	12519.53
468.60	12411.86
468.78	12615.49
468.96	12575.70
469.14	12776.98
469.32	12945.50
469.50	12315.90
469.69	12814.43
469.87	13018.06
470.05	12973.59
470.23	13020.40
470.41	13008.70
470.59	13149.13
470.77	13263.82
470.95	13305.95
471.14	13614.90
471.32	13275.52
471.50	13532.98
471.68	13404.25
471.86	13540.00
472.04	13624.26
472.22	13926.19
472.40	13678.09
472.58	13673.41
472.77	13830.23
472.95	13855.97
473.13	14658.78
473.31	14181.31
473.49	13944.91
473.67	14017.47
473.85	14033.85
474.03	14525.36
474.21	14516.00
474.39	14700.90
474.57	14513.66
474.75	14530.05
474.93	15007.52
475.12	14757.08
475.30	14970.07
475.48	14864.74
475.66	15194.76
475.84	14817.93
476.02	15330.51
476.20	15414.77
476.38	15590.31
476.56	15765.85
476.74	15784.57
476.92	15964.79
477.10	15625.42
477.28	16269.06
477.46	16187.14
477.64	16065.44
477.82	16507.80
478.00	16837.81
478.18	16931.44
478.36	16636.53
478.54	17191.23
478.72	17104.64
478.90	17186.55
479.08	17226.34
479.26	17776.37
479.44	17671.04
479.62	18040.85
479.80	17809.14
479.98	18017.44
480.16	18422.36
480.34	18024.47
480.52	18122.77
480.70	18644.71
480.88	18230.43
481.06	18675.13
481.24	18745.35
481.41	18998.13
481.59	18995.79
481.77	19449.85
481.95	19653.48
482.13	19641.78
482.31	19761.14
482.49	20271.38
482.67	20025.62
482.85	20472.67
483.03	20603.74
483.21	20706.72
483.39	20823.75
483.57	20666.93
483.74	21027.37
483.92	21305.90
484.10	20989.92
484.28	21729.53
484.46	21986.99
484.64	22319.35
484.82	21731.87
485.00	22324.03
485.18	22527.66
485.35	22916.19
485.53	22609.58
485.71	22712.56
485.89	23536.43
486.07	23236.84
486.25	23239.18
486.43	23644.09
486.61	23566.85
486.78	23946.02
486.96	23960.06
487.14	24306.46
487.32	24664.57
487.50	24563.92
487.68	24922.02
487.85	24968.84
488.03	25305.87
488.21	25458.01
488.39	25326.94
488.57	26031.44
488.75	26040.80
488.92	26396.56
489.10	26647.00
489.28	26829.56
489.46	27019.14
489.64	26768.71
489.81	27482.57
489.99	27545.76
490.17	27704.92
490.35	27733.01
490.53	27936.63
490.70	28507.72
490.88	28409.42
491.06	28924.34
491.24	28762.84
491.41	28690.29
491.59	29181.80
491.77	28875.19
491.95	29383.09
492.13	29975.24
492.30	29766.93
492.48	29848.85
492.66	30305.26
492.84	30260.79
493.01	30581.44
493.19	30836.56
493.37	30855.28
493.54	30785.07
493.72	31229.77
493.90	31386.58
494.08	32011.51
494.25	32077.04
494.43	31608.93
494.61	32187.05
494.79	32334.50
494.96	32304.07
495.14	32767.50
495.32	32910.27
495.49	33109.22
495.67	32921.98
495.85	33488.38
496.02	33378.38
496.20	33972.88
496.38	34110.97
496.55	33909.68
496.73	34487.79
496.91	34902.07
497.09	34632.91
497.26	34450.35
497.44	34960.58
497.62	34981.65
497.79	35812.54
497.97	35393.58
498.14	35810.20
498.32	35988.08
498.50	36154.26
498.67	36109.78
498.85	36392.99
499.03	36519.38
499.20	36395.33
499.38	36914.93
499.56	36811.95
499.73	36947.70
499.91	37202.82
500.08	37773.91
500.26	37560.92
500.44	37603.05
500.61	37823.06
500.79	37240.26
500.97	38291.16
501.14	38227.97
501.32	38471.39
501.49	38192.86
501.67	38813.10
501.84	39079.92
502.02	38827.15
502.20	38913.75
502.37	39075.24
502.55	39180.57
502.72	39014.39
502.90	39662.72
503.07	39367.81
503.25	39615.91
503.43	39299.94
503.60	40114.44
503.78	39775.06
503.95	39674.42
504.13	40542.76
504.30	40545.10
504.48	40105.08
504.65	40795.54
504.83	41219.17
505.01	41106.83
505.18	40781.49
505.36	41256.62
505.53	41113.85
505.71	41610.04
505.88	41654.51
506.06	41390.03
506.23	41914.31
506.41	41390.03
506.58	42124.96
506.76	41958.78
506.93	42436.25
507.11	42061.77
507.28	42749.88
507.46	42583.71
507.63	42506.47
507.81	42553.28
507.98	42576.69
508.16	42733.50
508.33	43117.35
508.50	42916.06
508.68	43339.70
508.85	43667.37
509.03	43777.38
509.20	44055.90
509.38	44011.43
509.55	44360.17
509.73	44467.84
509.90	44421.03
510.08	44362.51
510.25	44437.41
510.42	44671.46
510.60	44964.03
510.77	45118.51
510.95	45261.28
511.12	44926.58
511.30	44933.60
511.47	44989.78
511.64	45359.58
511.82	45502.35
511.99	45219.15
512.17	45455.54
512.34	46005.57
512.51	46494.74
512.69	45979.82
512.86	46241.96
513.04	46445.59
513.21	46611.77
513.38	46595.38
513.56	46878.59
513.73	46391.76
513.90	46724.11
514.08	46384.74
514.25	46827.10
514.43	47325.63
514.60	47330.31
514.77	46740.50
514.95	47519.90
515.12	47267.12
515.29	47524.58
515.47	47997.37
515.64	47955.24
515.81	47665.01
515.99	47917.79
516.16	47676.71
516.33	48002.05
516.51	48413.98
516.68	48603.56
516.85	48399.94
517.03	48872.73
517.20	48633.99
517.37	48676.12
517.54	48823.58
517.72	48678.46
517.89	48786.13
518.06	48935.92
518.24	49251.89
518.41	49174.66
518.58	49020.18
518.75	49502.33
518.93	49127.84
519.10	49223.81
519.27	49291.68
519.45	49619.36
519.62	50127.25
519.79	49748.09
519.96	49743.41
520.14	50045.33
520.31	50230.24
520.48	50511.10
520.65	50267.69
520.83	50225.56
521.00	50581.32
521.17	50597.70
521.34	50501.74
521.52	50916.01
521.69	50501.74
521.86	51063.47
522.03	51187.52
522.20	50916.01
522.38	51269.43
522.55	51428.59
522.72	50997.93
522.89	51175.81
523.07	51681.37
523.24	51503.49
523.41	51758.61
523.58	51164.11
523.75	51817.12
523.92	51377.10
524.10	51756.27
524.27	51709.46
524.44	51688.39
524.61	51854.57
524.78	51725.84
524.96	51845.21
525.13	52247.78
525.30	52470.13
525.47	52325.02
525.64	52271.18
525.81	52463.11
525.98	52371.83
526.16	52481.83
526.33	52514.60
526.50	52800.15
526.67	52914.83
526.84	52947.60
527.01	52509.92
527.18	52720.57
527.36	52816.53
527.53	52861.00
527.70	53010.79
527.87	53160.59
528.04	53036.54
528.21	53549.12
528.38	53240.17
528.55	53488.26
528.72	53399.32
528.89	53399.32
529.07	53291.66
529.24	53212.08
529.41	53476.56
529.58	53448.47
529.75	53572.52
529.92	53616.99
530.09	53722.32
530.26	53476.56
530.43	53727.00
530.60	53736.36
530.77	53848.71
530.94	53734.02
531.11	53932.96
531.28	53982.12
531.46	54052.33
531.63	54316.81
531.80	54057.01
531.97	54398.73
532.14	54415.11
532.31	54178.72
532.48	54511.08
532.65	54658.53
532.82	54117.87
532.99	54681.94
533.16	54302.77
533.33	54688.96
533.50	54782.58
533.67	54714.70
533.84	54595.34
534.01	54784.92
534.18	54937.05
534.35	54932.37
534.52	54932.37
534.69	55227.28
534.86	55238.98
535.03	54873.86
535.20	55054.08
535.37	55145.36
535.54	55533.89
535.71	55051.74
535.88	55381.76
536.05	55454.31
536.22	55526.87
536.38	55295.16
536.55	55512.83
536.72	55306.86
536.89	55435.59
537.06	55475.38
537.23	55622.83
537.40	55398.14
537.57	55456.65
537.74	55662.62
537.91	55959.87
538.08	55798.37
538.25	55573.68
538.42	55707.09
538.59	56390.53
538.75	55587.72
538.92	56055.83
539.09	56086.26
539.26	56065.19
539.43	56140.09
539.60	56074.55
539.77	55957.53
539.94	56296.91
540.11	55992.64
540.28	56360.10
540.44	56439.68
540.61	56324.99
540.78	56189.24
540.95	56451.38
541.12	56341.38
541.29	56432.66
541.46	56385.85
541.62	56603.52
541.79	56484.15
541.96	56374.14
542.13	56376.48
542.30	56479.47
542.47	56699.48
542.63	56666.71
542.80	56769.69
542.97	56797.78
543.14	56970.98
543.31	57073.96
543.48	57228.44
543.64	57364.19
543.81	57066.94
543.98	57284.61
544.15	57539.73
544.32	57359.51
544.48	57483.56
544.65	57123.11
544.82	57270.57
544.99	57146.52
545.16	57368.87
545.32	57247.16
545.49	57607.61
545.66	57602.92
545.83	57551.43
546.00	57542.07
546.16	57528.03
546.33	57502.28
546.50	57521.01
546.67	57556.11
546.83	57401.64
547.00	57689.52
547.17	57755.06
547.34	57829.96
547.50	57970.39
547.67	57904.85
547.84	57932.94
548.00	58040.60
548.17	58199.76
548.34	57944.64
548.51	58358.92
548.67	58124.86
548.84	57733.99
549.01	57888.47
549.18	58124.86
549.34	58298.06
549.51	58429.13
549.68	58314.45
549.84	58127.20
550.01	58375.30
550.18	58138.91
550.34	58265.30
550.51	58181.04
550.68	58157.63
550.84	58143.59
551.01	58429.13
551.18	58412.75
551.34	58408.07
551.51	58356.58
551.68	58403.39
551.84	58461.90
552.01	58234.87
552.18	58394.03
552.34	58302.74
552.51	58520.41
552.68	58316.79
552.84	58440.84
553.01	58471.26
553.18	58976.82
553.34	58820.00
553.51	58534.46
553.67	58787.24
553.84	58869.15
554.01	58791.92
554.17	58960.44
554.34	58845.75
554.51	58897.24
554.67	58922.99
554.84	59025.97
555.00	58646.80
555.17	58808.30
555.33	58939.37
555.50	58843.41
555.67	58908.94
555.83	58880.86
556.00	59119.59
556.16	59370.03
556.33	59093.85
556.50	59096.19
556.66	59318.54
556.83	59091.51
556.99	59238.96
557.16	59234.28
557.32	59451.95
557.49	59585.36
557.65	59297.47
557.82	59206.19
557.98	59175.76
558.15	59327.90
558.32	59276.41
558.48	59313.86
558.65	59604.08
558.81	59412.16
558.98	59545.57
559.14	59442.59
559.31	59505.78
559.47	59669.62
559.64	59447.27
559.80	59552.59
559.97	59587.70
560.13	59585.36
560.30	59714.09
560.46	59505.78
560.63	59711.75
560.79	59662.60
560.96	59669.62
561.12	59681.32
561.29	59906.01
561.45	59568.97
561.61	59824.09
561.78	59648.55
561.94	59594.72
562.11	59648.55
562.27	59852.18
562.44	59732.81
562.60	59894.31
562.77	59854.52
562.93	59716.43
563.10	59870.90
563.26	59840.48
563.42	60081.55
563.59	59882.61
563.75	59826.43
563.92	59990.27
564.08	59889.63
564.24	59922.40
564.41	60074.53
564.57	59943.46
564.74	60104.96
564.90	59863.88
565.07	60107.30
565.23	60016.02
565.39	60023.04
565.56	59945.80
565.72	60114.32
565.88	60006.65
566.05	59994.95
566.21	59929.42
566.38	60060.49
566.54	59936.44
566.70	60257.09
566.87	60254.75
567.03	60172.83
567.19	60388.16
567.36	60250.07
567.52	60067.51
567.68	60458.38
567.85	60313.26
568.01	60285.18
568.17	60055.81
568.34	60196.24
568.50	60189.22
568.66	60420.93
568.83	60355.39
568.99	60287.52
569.15	60193.90
569.32	60385.82
569.48	60336.67
569.64	60299.22
569.81	60430.29
569.97	60306.24
570.13	60285.18
570.30	60360.08
570.46	60420.93
570.62	60390.50
570.78	60294.54
570.95	60299.22
571.11	60687.75
571.27	60427.95
571.43	60252.41
571.60	60336.67
571.76	60474.76
571.92	60301.56
572.09	60542.64
572.25	60210.28
572.41	60336.67
572.57	60441.99
572.74	60676.05
572.90	60521.57
573.06	60676.05
573.22	60416.25
573.38	60465.40
573.55	60385.82
573.71	60676.05
573.87	60535.62
574.03	60420.93
574.20	60568.38
574.36	60491.15
574.52	60673.71
574.68	60559.02
574.84	60673.71
575.01	60708.82
575.17	60739.24
575.33	60697.11
575.49	60537.96
575.65	60640.94
575.82	60750.94
575.98	60739.24
576.14	60889.04
576.30	60931.17
576.46	60552.00
576.62	60683.07
576.79	60500.51
576.95	60591.79
577.11	60643.28
577.27	60753.29
577.43	60757.97
577.59	60718.18
577.75	60638.60
577.92	60453.70
578.08	60776.69
578.24	60823.50
578.40	60793.07
578.56	60905.42
578.72	60746.26
578.88	60865.63
579.04	60966.27
579.21	60849.25
579.37	61010.74
579.53	60748.60
579.69	60692.43
579.85	60612.85
580.01	60601.15
580.17	60678.39
580.33	60846.91
580.49	61038.83
580.65	60933.51
580.82	60774.35
580.98	60828.18
581.14	60804.78
581.30	60804.78
581.46	60931.17
581.62	60797.76
581.78	60830.52
581.94	60837.54
582.10	60956.91
582.26	60989.68
582.42	60690.09
582.58	60832.86
582.74	60828.18
582.90	60973.30
583.06	60739.24
583.22	60687.75
583.38	60832.86
583.54	61027.13
583.70	60779.03
583.86	60921.80
584.02	60837.54
584.18	60772.01
584.34	60870.31
584.50	60959.25
584.66	60659.66
584.82	60451.36
584.98	61066.92
585.14	61155.86
585.30	60956.91
585.46	60800.10
585.62	60804.78
585.78	60917.12
585.94	60720.52
586.10	60844.57
586.26	61113.73
586.42	60919.46
586.58	61076.28
586.74	60828.18
586.90	60814.14
587.06	60856.27
587.22	60949.89
587.38	60884.36
587.54	60938.19
587.70	61116.07
587.86	60889.04
588.02	60985.00
588.18	61104.37
588.34	61120.75
588.49	61029.47
