SpectraSuite Data File
++++++++++++++++++++++++++++++++++++
Date: Fri Oct 25 11:23:15 EDT 2013
User: price-jones
Dark Spectrum Present: No
Reference Spectrum Present: No
Number of Sampled Component Spectra: 1
Spectrometers: USB2+H05261
Integration Time (usec): 100000 (USB2+H05261)
Spectra Averaged: 1 (USB2+H05261)
Boxcar Smoothing: 0 (USB2+H05261)
Correct for Electrical Dark: No (USB2+H05261)
Strobe/Lamp Enabled: No (USB2+H05261)
Correct for Detector Non-linearity: No (USB2+H05261)
Correct for Stray Light: No (USB2+H05261)
Number of Pixels in Processed Spectrum: 2048
>>>>>Begin Processed Spectral Data<<<<<
365.73	231.71
365.92	231.71
366.12	231.71
366.32	175.54
366.52	191.92
366.72	227.03
366.91	107.66
367.11	135.75
367.31	63.19
367.51	77.24
367.70	107.66
367.90	149.79
368.10	58.51
368.30	175.54
368.49	135.75
368.69	112.35
368.89	147.45
369.09	147.45
369.28	91.28
369.48	133.41
369.68	175.54
369.87	173.20
370.07	182.56
370.27	208.31
370.47	278.52
370.66	561.73
370.86	660.03
371.06	596.84
371.25	671.73
371.45	587.47
371.65	734.93
371.84	709.18
372.04	685.78
372.24	706.84
372.44	765.36
372.63	758.33
372.83	734.93
373.03	697.48
373.22	685.78
373.42	727.91
373.62	767.70
373.81	777.06
374.01	819.19
374.21	868.34
374.40	856.64
374.60	763.01
374.79	746.63
374.99	737.27
375.19	861.32
375.38	884.72
375.58	746.63
375.78	830.89
375.97	786.42
376.17	905.79
376.37	800.46
376.56	866.00
376.76	898.77
376.95	835.57
377.15	926.85
377.35	926.85
377.54	863.66
377.74	842.59
377.93	828.55
378.13	866.00
378.33	971.32
378.52	964.30
378.72	1057.92
378.91	983.02
379.11	952.60
379.31	983.02
379.50	952.60
379.70	997.07
379.89	1041.54
380.09	1048.56
380.28	931.53
380.48	990.05
380.68	1029.84
380.87	966.64
381.07	1025.15
381.26	1053.24
381.46	1062.60
381.65	919.83
381.85	1095.37
382.04	1057.92
382.24	1067.28
382.43	1114.10
382.63	1048.56
382.83	1048.56
383.02	1078.99
383.22	1121.12
383.41	1095.37
383.61	1142.18
383.80	1088.35
384.00	1107.07
384.19	1062.60
384.39	1114.10
384.58	1102.39
384.78	1074.31
384.97	1165.59
385.17	1102.39
385.36	1179.63
385.56	1196.01
385.75	1181.97
385.95	1196.01
386.14	1207.72
386.34	1256.87
386.53	1153.88
386.72	1146.86
386.92	1217.08
387.11	1294.32
387.31	1174.95
387.50	1235.80
387.70	1177.29
387.89	1188.99
388.09	1294.32
388.28	1277.93
388.48	1249.85
388.67	1310.70
388.86	1254.53
389.06	1306.02
389.25	1273.25
389.45	1409.00
389.64	1313.04
389.84	1434.75
390.03	1376.24
390.22	1369.21
390.42	1469.86
390.61	1401.98
390.81	1355.17
391.00	1441.77
391.19	1322.40
391.39	1504.96
391.58	1451.13
391.78	1549.43
391.97	1458.15
392.16	1526.03
392.36	1495.60
392.55	1476.88
392.75	1511.99
392.94	1441.77
393.13	1542.41
393.33	1465.18
393.52	1577.52
393.71	1591.56
393.91	1535.39
394.10	1486.24
394.29	1547.09
394.49	1626.67
394.68	1699.23
394.88	1598.59
395.07	1682.85
395.26	1652.42
395.46	1755.40
395.65	1746.04
395.84	1743.70
396.04	1774.13
396.23	1739.02
396.42	1668.80
396.62	1834.98
396.81	1863.07
397.00	1713.27
397.19	1706.25
397.39	1823.28
397.58	1844.34
397.77	1776.47
397.97	1830.30
398.16	1937.96
398.35	1860.73
398.55	1893.49
398.74	1849.02
398.93	1961.37
399.12	1916.90
399.32	2026.90
399.51	1973.07
399.70	1998.82
399.90	2031.58
400.09	2017.54
400.28	2122.87
400.47	2001.16
400.67	2057.33
400.86	2111.16
401.05	2015.20
401.24	2111.16
401.44	2157.97
401.63	2176.70
401.82	2085.42
402.01	2146.27
402.21	2129.89
402.40	2134.57
402.59	2251.60
402.78	2218.83
402.97	2251.60
403.17	2265.64
403.36	2188.40
403.55	2223.51
403.74	2354.58
403.93	2286.70
404.13	2370.96
404.32	2312.45
404.51	2420.11
404.70	2436.50
404.89	2377.98
405.09	2457.56
405.28	2560.55
405.47	2583.95
405.66	2619.06
405.85	2574.59
406.05	2370.96
406.24	2663.53
406.43	2509.05
406.62	2537.14
406.81	2572.25
407.00	2565.23
407.20	2495.01
407.39	2525.44
407.58	2686.94
407.77	2820.35
407.96	2773.53
408.15	2803.96
408.34	2801.62
408.54	2913.97
408.73	2738.43
408.92	2867.16
409.11	2932.69
409.30	2892.90
409.49	2911.63
409.68	2939.71
409.87	2925.67
410.07	2970.14
410.26	2967.80
410.45	2939.71
410.64	2855.45
410.83	3080.14
411.02	3215.90
411.21	3185.47
411.40	3173.77
411.59	3155.04
411.78	3215.90
411.98	3265.05
412.17	3304.84
412.36	3239.30
412.55	3311.86
412.74	3438.25
412.93	3480.38
413.12	3442.93
413.31	3536.55
413.50	3517.83
413.69	3543.57
413.88	3698.05
414.07	3501.44
414.26	3698.05
414.45	3688.68
414.64	3899.33
414.83	3728.47
415.02	3763.58
415.22	3833.80
415.41	4056.15
415.60	3889.97
415.79	4060.83
415.98	4011.68
416.17	3962.53
416.36	3988.27
416.55	4032.74
416.74	4102.96
416.93	4128.70
417.12	4189.56
417.31	4114.66
417.50	4191.90
417.69	4294.88
417.88	4262.12
418.07	4339.35
418.26	4325.31
418.45	4339.35
418.64	4486.81
418.83	4505.53
419.02	4575.75
419.21	4512.55
419.39	4592.13
419.58	4444.68
419.77	4477.44
419.96	4578.09
420.15	4568.73
420.34	4592.13
420.53	4652.98
420.72	4896.40
420.91	4767.67
421.10	4709.16
421.29	4814.48
421.48	4800.44
421.67	4748.95
421.86	4905.76
422.05	4791.08
422.24	4837.89
422.43	4933.85
422.61	4896.40
422.80	4945.55
422.99	4959.60
423.18	4887.04
423.37	4957.25
423.56	4891.72
423.75	4851.93
423.94	4938.53
424.13	4746.61
424.32	4833.21
424.50	5057.90
424.69	5210.03
424.88	5107.05
425.07	4966.62
425.26	4959.60
425.45	4929.17
425.64	4898.74
425.83	4952.57
426.01	5043.85
426.20	5071.94
426.39	5111.73
426.58	5008.75
426.77	4985.34
426.96	5191.31
427.15	5217.05
427.33	5313.02
427.52	5207.69
427.71	5289.61
427.90	5291.95
428.09	5425.36
428.28	5441.75
428.46	5451.11
428.65	5305.99
428.84	5273.23
429.03	5577.50
429.22	5509.62
429.40	5535.37
429.59	5453.45
429.78	5254.50
429.97	5254.50
430.16	5591.54
430.34	5659.42
430.53	5755.38
430.72	5748.36
430.91	5710.91
431.10	5593.88
431.28	5881.77
431.47	5806.87
431.66	5951.98
431.85	5788.14
432.03	5937.94
432.22	5863.04
432.41	5893.47
432.60	6026.88
432.79	5916.87
432.97	6108.80
433.16	6141.57
433.35	5973.05
433.54	6092.41
433.72	6157.95
433.91	6134.54
434.10	6228.17
434.28	6232.85
434.47	6190.72
434.66	6223.48
434.85	6274.98
435.03	6410.73
435.22	6399.02
435.41	6602.65
435.59	6504.35
435.78	6567.54
435.97	6597.97
436.16	6532.44
436.34	6523.07
436.53	6689.25
436.72	6675.21
436.90	6516.05
437.09	6600.31
437.28	6670.53
437.46	6677.55
437.65	6689.25
437.84	6801.60
438.02	7009.90
438.21	7028.63
438.40	6750.10
438.58	7098.84
438.77	7185.44
438.96	6857.77
439.14	7002.88
439.33	7311.83
439.52	7269.70
439.70	7143.32
439.89	7325.88
440.08	7304.81
440.26	7478.01
440.45	7328.22
440.63	7365.67
440.82	7700.36
441.01	7637.17
441.19	7712.07
441.38	7688.66
441.57	7831.43
441.75	7953.14
441.94	7988.25
442.12	7880.58
442.31	8205.92
442.50	8145.06
442.68	8088.89
442.87	8131.02
443.05	8217.62
443.24	8362.73
443.43	8194.22
443.61	8196.56
443.80	8374.44
443.98	8287.84
444.17	7992.93
444.35	8245.71
444.54	8446.99
444.73	8390.82
444.91	8390.82
445.10	8402.52
445.28	8568.70
445.47	8336.99
445.65	8407.20
445.84	8554.66
446.02	8439.97
446.21	8290.18
446.39	8533.59
446.58	8535.93
446.77	8634.24
446.95	8346.35
447.14	8381.46
447.32	8667.00
447.51	8566.36
447.69	8592.11
447.88	8575.72
448.06	8685.73
448.25	8435.29
448.43	8681.05
448.62	8664.66
448.80	8739.56
448.99	8872.97
449.17	8774.67
449.36	8767.65
449.54	8856.59
449.73	8875.31
449.91	9064.89
450.10	9020.42
450.28	8901.06
450.46	9193.62
450.65	9027.45
450.83	9247.46
451.02	9104.68
451.20	9205.33
451.39	9263.84
451.57	9336.40
451.76	9252.14
451.94	9188.94
452.13	9331.72
452.31	9235.75
452.49	9181.92
452.68	9439.38
452.86	9542.36
453.05	9584.49
453.23	9628.96
453.42	9294.27
453.60	9427.68
453.78	9628.96
453.97	9521.30
454.15	9710.88
454.34	9572.79
454.52	9781.10
454.70	9860.68
454.89	9703.86
455.07	9933.23
455.26	10068.98
455.44	10186.01
455.62	9858.34
455.81	9951.96
455.99	10022.17
456.17	9984.73
456.36	9963.66
456.54	10230.48
456.73	10464.54
456.91	10377.94
457.09	10595.61
457.28	10633.05
457.46	10506.66
457.64	10724.33
457.83	10759.44
458.01	10651.78
458.19	10885.83
458.38	10583.90
458.56	10946.69
458.74	10937.32
458.93	10600.29
459.11	10771.15
459.29	10813.28
459.48	10949.03
459.66	10939.66
459.84	10890.51
460.03	11028.60
460.21	11002.86
460.39	11063.71
460.57	11096.48
460.76	11215.85
460.94	11199.46
461.12	11012.22
461.31	11272.02
461.49	11124.57
461.67	11250.96
461.85	11637.14
462.04	11576.29
462.22	11613.74
462.40	11700.34
462.59	11569.27
462.77	11784.60
462.95	11754.17
463.13	11667.57
463.32	11744.81
463.50	11733.11
463.68	11981.20
463.86	11936.73
464.05	11997.59
464.23	11901.62
464.41	11817.36
464.59	11836.09
464.78	12358.03
464.96	12051.42
465.14	11925.03
465.32	12002.27
465.50	12238.66
465.69	12376.75
465.87	12198.87
466.05	12374.41
466.23	12266.75
466.41	12201.21
466.60	12620.17
466.78	12276.11
466.96	12397.82
467.14	12585.06
467.32	12472.71
467.51	12648.26
467.69	12453.99
467.87	12645.91
468.05	12641.23
468.23	12486.76
468.41	12547.61
468.60	13004.02
468.78	12996.99
468.96	12744.22
469.14	12812.09
469.32	13064.87
469.50	12774.64
469.69	12861.24
469.87	13364.46
470.05	13043.81
470.23	13259.13
470.41	13144.45
470.59	13483.83
470.77	13469.78
470.95	13554.04
471.14	13734.26
471.32	13282.54
471.50	13612.56
471.68	13865.33
471.86	13659.37
472.04	13935.55
472.22	14017.47
472.40	13954.27
472.58	14029.17
472.77	14150.88
472.95	14314.72
473.13	14672.82
473.31	14312.38
473.49	14143.86
473.67	14298.33
473.85	14497.28
474.03	14874.10
474.21	14595.58
474.39	15077.73
474.57	14801.55
474.75	15108.16
474.93	15033.26
475.12	15372.64
475.30	15365.62
475.48	15075.39
475.66	15510.73
475.84	15386.68
476.02	15503.71
476.20	15824.36
476.38	15667.55
476.56	15957.77
476.74	16123.95
476.92	16119.27
477.10	15957.77
477.28	16308.85
477.46	16482.05
477.64	16060.76
477.82	16730.15
478.00	17015.69
478.18	16929.09
478.36	17048.46
478.54	17097.61
478.72	17371.46
478.90	17401.88
479.08	17502.53
479.26	17762.33
479.44	18045.53
479.62	18108.72
479.80	18209.37
479.98	18291.29
480.16	18768.76
480.34	18647.05
480.52	18815.57
480.70	18843.65
480.88	18607.26
481.06	18986.43
481.24	19047.28
481.41	19386.66
481.59	19468.58
481.77	19784.55
481.95	19545.81
482.13	19978.81
482.31	19704.97
482.49	20446.92
482.67	20798.00
482.85	20748.85
483.03	20917.37
483.21	21261.43
483.39	20800.34
483.57	21207.59
483.74	21593.78
483.92	21738.90
484.10	21436.97
484.28	21977.63
484.46	22211.68
484.64	22359.14
484.82	22155.51
485.00	22785.12
485.18	22916.19
485.35	23335.14
485.53	23168.96
485.71	23208.75
485.89	23768.14
486.07	23716.65
486.25	23267.27
486.43	23840.70
486.61	23939.00
486.78	24400.08
486.96	24250.29
487.14	24744.14
487.32	24870.53
487.50	24996.92
487.68	25193.53
487.85	25420.56
488.03	25766.96
488.21	26111.02
488.39	25680.36
488.57	26361.45
488.75	26368.48
488.92	26897.44
489.10	27126.81
489.28	26764.03
489.46	27129.15
489.64	27543.42
489.81	28421.13
489.99	27950.68
490.17	28072.39
490.35	28376.66
490.53	28369.63
490.70	28734.76
490.88	28690.29
491.06	29010.94
491.24	29172.44
491.41	29359.68
491.59	29188.82
491.77	29795.02
491.95	30005.67
492.13	30260.79
492.30	30314.62
492.48	30272.49
492.66	30092.27
492.84	30499.52
493.01	31026.14
493.19	30923.16
493.37	31601.91
493.54	31740.00
493.72	32091.09
493.90	31894.48
494.08	32198.75
494.25	32219.81
494.43	32486.64
494.61	32507.70
494.79	32814.31
494.96	32704.31
495.14	33036.66
495.32	33560.94
495.49	33589.03
495.67	33539.88
495.85	33977.56
496.02	33586.69
496.20	34183.52
496.38	34080.54
496.55	34302.89
496.73	35534.01
496.91	34885.68
497.09	35180.59
497.26	35227.40
497.44	35082.29
497.62	35768.07
497.79	36238.51
497.97	35885.09
498.14	36484.27
498.32	36526.40
498.50	36292.35
498.67	36964.08
498.85	36692.58
499.03	37003.87
499.20	37371.33
499.38	36821.31
499.56	37832.42
499.73	37713.05
499.91	37645.18
500.08	37935.40
500.26	37511.77
500.44	37912.00
500.61	38352.02
500.79	38106.26
500.97	38548.62
501.14	38574.37
501.32	38712.46
501.49	38960.56
501.67	39318.66
501.84	39285.89
502.02	39124.40
502.20	39281.21
502.37	39735.27
502.55	39400.58
502.72	39875.71
502.90	39903.79
503.07	39861.66
503.25	40575.53
503.43	40451.48
503.60	40854.05
503.78	41027.25
503.95	40538.08
504.13	40868.09
504.30	40676.17
504.48	40842.35
504.65	40685.53
504.83	41240.24
505.01	41698.98
505.18	41851.12
505.36	42211.56
505.53	41879.21
505.71	42089.85
505.88	42387.10
506.06	41942.40
506.23	42466.68
506.41	42426.89
506.58	42600.09
506.76	42693.71
506.93	42768.61
507.11	42775.63
507.28	43007.34
507.46	43126.71
507.63	43409.92
507.81	43536.30
507.98	43365.45
508.16	43662.69
508.33	43620.56
508.50	43672.06
508.68	44257.19
508.85	44196.34
509.03	44308.68
509.20	44849.35
509.38	44776.79
509.55	44973.39
509.73	44926.58
509.90	45050.63
510.08	45057.65
510.25	44847.00
510.42	45106.80
510.60	45605.34
510.77	45970.46
510.95	45680.24
511.12	45581.93
511.30	46014.93
511.47	45731.73
511.64	45785.56
511.82	46342.61
511.99	46007.91
512.17	46244.30
512.34	46447.93
512.51	46775.61
512.69	46864.55
512.86	47175.84
513.04	46883.27
513.21	46972.21
513.38	47257.76
513.56	47117.32
513.73	47538.62
513.90	47524.58
514.08	47201.58
514.25	47672.03
514.43	47945.87
514.60	47772.67
514.77	47643.94
514.95	48156.52
515.12	48109.71
515.29	47814.80
515.47	48189.29
515.64	48685.48
515.81	47725.86
515.99	48355.47
516.16	48678.46
516.33	48655.06
516.51	49130.19
516.68	48891.45
516.85	48952.30
517.03	49439.14
517.20	49464.88
517.37	49499.99
517.54	49134.87
517.72	49532.76
517.89	49687.23
518.06	49771.49
518.24	49624.04
518.41	49483.61
518.58	49511.69
518.75	49776.17
518.93	50012.57
519.10	50080.44
519.27	50087.46
519.45	49940.01
519.62	50466.63
519.79	50160.02
519.96	50543.87
520.14	50471.31
520.31	50679.62
520.48	50960.48
520.65	50405.78
520.83	51103.26
521.00	51019.00
521.17	50834.10
521.34	51044.74
521.52	50939.42
521.69	51295.18
521.86	51475.40
522.03	51587.75
522.20	51868.61
522.38	51604.13
522.55	51880.31
522.72	51791.37
522.89	51852.23
523.07	52027.77
523.24	51782.01
523.41	52257.14
523.58	51618.17
523.75	52355.44
523.92	51957.55
524.10	52533.32
524.27	52287.57
524.44	52430.34
524.61	52725.25
524.78	52589.50
524.96	52568.43
525.13	52493.54
525.30	52828.23
525.47	52949.94
525.64	52816.53
525.81	53144.20
525.98	53113.78
526.16	53020.16
526.33	52917.17
526.50	53450.81
526.67	53183.99
526.84	53127.82
527.01	53078.67
527.18	53490.60
527.36	53286.98
527.53	53434.43
527.70	53806.58
527.87	53649.76
528.04	53373.58
528.21	53588.91
528.38	53577.20
528.55	53792.53
528.72	53689.55
528.89	53619.33
529.07	53619.33
529.24	53654.44
529.41	54026.59
529.58	53932.96
529.75	53939.99
529.92	54047.65
530.09	54078.08
530.26	54012.54
530.43	54314.47
530.60	54209.15
530.77	54185.74
530.94	54344.90
531.11	54307.45
531.28	54457.24
531.46	54089.78
531.63	54546.18
531.80	54571.93
531.97	54714.70
532.14	54990.89
532.31	54525.12
532.48	54866.84
532.65	55117.28
532.82	54763.85
532.99	54651.51
533.16	54953.44
533.33	55107.91
533.50	55330.26
533.67	54941.74
533.84	55089.19
534.01	55414.52
534.18	55206.22
534.35	55592.40
534.52	55519.85
534.69	55676.66
534.86	55414.52
535.03	55386.44
535.20	55524.53
535.37	55653.26
535.54	55667.30
535.71	55648.58
535.88	55817.10
536.05	55655.60
536.22	56018.38
536.38	56013.70
536.55	55870.93
536.72	56009.02
536.89	55688.37
537.06	55948.17
537.23	56348.40
537.40	55817.10
537.57	55959.87
537.74	55920.08
537.91	56207.97
538.08	55973.91
538.25	56170.52
538.42	56317.97
538.59	56301.59
538.75	56189.24
538.92	56362.44
539.09	56371.80
539.26	56610.54
539.43	56549.68
539.60	56624.58
539.77	56598.83
539.94	56851.61
540.11	56741.61
540.28	56615.22
540.44	56720.54
540.61	56762.67
540.78	56692.46
540.95	56678.41
541.12	56725.22
541.29	56673.73
541.46	56802.46
541.62	56671.39
541.79	56809.48
541.96	56631.60
542.13	56779.06
542.30	56687.78
542.47	56978.00
542.63	57172.27
542.80	57195.67
542.97	57078.64
543.14	57532.71
543.31	57406.32
543.48	57324.40
543.64	57822.93
543.81	57631.01
543.98	57441.43
544.15	57588.88
544.32	58061.67
544.48	57757.40
544.65	57677.82
544.82	57579.52
544.99	57698.89
545.16	57813.57
545.32	57752.72
545.49	57858.04
545.66	57954.00
545.83	57780.81
546.00	58148.27
546.16	57836.98
546.33	57745.70
546.50	57722.29
546.67	58099.12
546.83	57680.16
547.00	57958.69
547.17	57872.09
547.34	58047.63
547.50	58262.96
547.67	58356.58
547.84	57944.64
548.00	58319.13
548.17	58415.09
548.34	58485.31
548.51	58555.52
548.67	58452.54
548.84	58557.86
549.01	58351.90
549.18	58401.05
549.34	58370.62
549.51	58623.40
549.68	58532.12
549.84	58649.14
550.01	58768.51
550.18	58546.16
550.34	58927.67
550.51	58866.81
550.68	58623.40
550.84	58590.63
551.01	58721.70
551.18	58618.72
551.34	58822.34
551.51	58777.87
551.68	58892.56
551.84	58897.24
552.01	58681.91
552.18	58829.37
552.34	58838.73
552.51	58974.48
552.68	58908.94
552.84	59089.16
553.01	59271.73
553.18	59168.74
553.34	59007.25
553.51	58798.94
553.67	59213.21
553.84	59009.59
554.01	59250.66
554.17	59166.40
554.34	59302.15
554.51	59168.74
554.67	59133.63
554.84	59395.77
555.00	59260.02
555.17	59147.68
555.33	59245.98
555.50	59238.96
555.67	59203.85
555.83	59203.85
556.00	59433.22
556.16	59594.72
556.33	59409.82
556.50	59484.72
556.66	59662.60
556.83	59341.94
556.99	59508.12
557.16	59671.96
557.32	59835.80
557.49	59908.35
557.65	59561.95
557.82	59618.13
557.98	59758.56
558.15	59643.87
558.32	59681.32
558.48	59763.24
558.65	59770.26
558.81	59667.28
558.98	59784.30
559.14	59786.64
559.31	59866.22
559.47	60011.34
559.64	60065.17
559.80	59938.78
559.97	60207.94
560.13	59950.48
560.30	59908.35
560.46	59952.82
560.63	60025.38
560.79	59931.76
560.96	60158.79
561.12	60046.44
561.29	60009.00
561.45	60133.04
561.61	60088.57
561.78	60041.76
561.94	60051.12
562.11	60140.07
562.27	59992.61
562.44	60114.32
562.60	60390.50
562.77	60210.28
562.93	59934.10
563.10	60374.12
563.26	60086.23
563.42	60430.29
563.59	60238.37
563.75	60264.11
563.92	60498.17
564.08	60229.01
564.24	60479.44
564.41	60186.88
564.57	60200.92
564.74	60346.03
564.90	60458.38
565.07	60301.56
565.23	60423.27
565.39	60299.22
565.56	60360.08
565.72	60231.35
565.88	60470.08
566.05	60179.85
566.21	60512.21
566.38	60449.02
566.54	60736.90
566.70	60671.37
566.87	60580.09
567.03	60390.50
567.19	60734.56
567.36	60619.88
567.52	60624.56
567.68	60699.45
567.85	60547.32
568.01	60762.65
568.17	60519.23
568.34	60437.31
568.50	60507.53
568.66	60378.80
568.83	60669.03
568.99	60671.37
569.15	60697.11
569.32	60683.07
569.48	60619.88
569.64	60863.29
569.81	60582.43
569.97	60601.15
570.13	60561.36
570.30	60631.58
570.46	60598.81
570.62	60830.52
570.78	60790.73
570.95	60640.94
571.11	60853.93
571.27	60928.83
571.43	60720.52
571.60	60816.48
571.76	60851.59
571.92	60912.44
572.09	61048.19
572.25	60687.75
572.41	60739.24
572.57	60760.31
572.74	60980.32
572.90	60807.12
573.06	60856.27
573.22	60886.70
573.38	60767.33
573.55	60994.36
573.71	60931.17
573.87	61057.56
574.03	60676.05
574.20	60973.30
574.36	60828.18
574.52	60928.83
574.68	61031.81
574.84	60956.91
575.01	61031.81
575.17	61055.21
575.33	61006.06
575.49	61041.17
575.65	61071.60
575.82	61045.85
575.98	61158.20
576.14	61160.54
576.30	61076.28
576.46	60921.80
576.62	61113.73
576.79	61027.13
576.95	60980.32
577.11	61132.45
577.27	61113.73
577.43	61212.03
577.59	60811.80
577.75	61020.11
577.92	61069.26
578.08	61071.60
578.24	61186.28
578.40	61303.31
578.56	61097.34
578.72	61118.41
578.88	61195.65
579.04	61193.31
579.21	61071.60
579.37	61148.84
579.53	61303.31
579.69	60970.96
579.85	61078.62
580.01	61127.77
580.17	60797.76
580.33	61066.92
580.49	61024.79
580.65	61052.87
580.82	61008.40
580.98	60935.85
581.14	60940.53
581.30	61401.61
581.46	61095.00
581.62	61188.63
581.78	61148.84
581.94	61263.52
582.10	61099.68
582.26	61162.88
582.42	61017.77
582.58	61219.05
582.74	61057.56
582.90	61155.86
583.06	61031.81
583.22	61137.13
583.38	61277.57
583.54	61265.86
583.70	61329.06
583.86	61167.56
584.02	61137.13
584.18	61364.17
584.34	61134.79
584.50	61268.20
584.66	61261.18
584.82	60760.31
584.98	61230.75
585.14	61429.70
585.30	61008.40
585.46	61097.34
585.62	61244.80
585.78	61322.04
585.94	61219.05
586.10	61315.01
586.26	61251.82
586.42	61336.08
586.58	61228.41
586.74	61326.72
586.90	61186.28
587.06	61167.56
587.22	61413.32
587.38	61205.01
587.54	61310.33
587.70	61478.85
587.86	61305.65
588.02	61275.22
588.18	61418.00
588.34	61303.31
588.49	61076.28
