SpectraSuite Data File
++++++++++++++++++++++++++++++++++++
Date: Fri Oct 25 11:25:50 EDT 2013
User: price-jones
Dark Spectrum Present: No
Reference Spectrum Present: No
Number of Sampled Component Spectra: 1
Spectrometers: USB2+H05261
Integration Time (usec): 100000 (USB2+H05261)
Spectra Averaged: 1 (USB2+H05261)
Boxcar Smoothing: 0 (USB2+H05261)
Correct for Electrical Dark: No (USB2+H05261)
Strobe/Lamp Enabled: No (USB2+H05261)
Correct for Detector Non-linearity: No (USB2+H05261)
Correct for Stray Light: No (USB2+H05261)
Number of Pixels in Processed Spectrum: 2048
>>>>>Begin Processed Spectral Data<<<<<
365.73	166.18
365.92	166.18
366.12	166.18
366.32	79.58
366.52	163.84
366.72	180.22
366.91	133.41
367.11	152.13
367.31	196.60
367.51	91.28
367.70	152.13
367.90	180.22
368.10	119.37
368.30	152.13
368.49	131.07
368.69	156.82
368.89	152.13
369.09	241.08
369.28	203.63
369.48	147.45
369.68	205.97
369.87	173.20
370.07	198.95
370.27	212.99
370.47	287.89
370.66	695.14
370.86	613.22
371.06	699.82
371.25	709.18
371.45	730.25
371.65	697.48
371.84	648.33
372.04	671.73
372.24	713.86
372.44	732.59
372.63	739.61
372.83	692.80
373.03	809.83
373.22	730.25
373.42	748.97
373.62	873.02
373.81	795.78
374.01	802.80
374.21	814.51
374.40	833.23
374.60	847.27
374.79	833.23
374.99	866.00
375.19	866.00
375.38	880.04
375.58	823.87
375.78	887.06
375.97	842.59
376.17	990.05
376.37	931.53
376.56	826.21
376.76	793.44
376.95	894.08
377.15	954.94
377.35	931.53
377.54	880.04
377.74	851.96
377.93	976.00
378.13	929.19
378.33	875.36
378.52	858.98
378.72	915.15
378.91	1020.47
379.11	945.58
379.31	947.92
379.50	968.98
379.70	994.73
379.89	1018.13
380.09	964.30
380.28	997.07
380.48	997.07
380.68	1071.97
380.87	990.05
381.07	964.30
381.26	1029.84
381.46	1013.45
381.65	987.71
381.85	1043.88
382.04	1025.15
382.24	1053.24
382.43	1050.90
382.63	1027.50
382.83	1001.75
383.02	1053.24
383.22	1114.10
383.41	1064.94
383.61	1067.28
383.80	1086.01
384.00	1146.86
384.19	1172.61
384.39	1118.78
384.58	1111.75
384.78	1158.57
384.97	1074.31
385.17	1123.46
385.36	1221.76
385.56	1174.95
385.75	1151.54
385.95	1205.38
386.14	1212.40
386.34	1210.06
386.53	1282.61
386.72	1210.06
386.92	1284.95
387.11	1261.55
387.31	1275.59
387.50	1200.69
387.70	1233.46
387.89	1247.51
388.09	1313.04
388.28	1303.68
388.48	1327.08
388.67	1390.28
388.86	1364.53
389.06	1284.95
389.25	1441.77
389.45	1245.16
389.64	1329.42
389.84	1341.13
390.03	1345.81
390.22	1444.11
390.42	1383.26
390.61	1383.26
390.81	1423.05
391.00	1444.11
391.19	1458.15
391.39	1425.39
391.58	1523.69
391.78	1577.52
391.97	1502.62
392.16	1472.20
392.36	1610.29
392.55	1476.88
392.75	1554.12
392.94	1540.07
393.13	1558.80
393.33	1579.86
393.52	1575.18
393.71	1572.84
393.91	1584.54
394.10	1591.56
394.29	1612.63
394.49	1596.25
394.68	1516.67
394.88	1633.69
395.07	1659.44
395.26	1743.70
395.46	1586.88
395.65	1713.27
395.84	1720.29
396.04	1804.55
396.23	1790.51
396.42	1762.42
396.62	1699.23
396.81	1760.08
397.00	1839.66
397.19	1818.60
397.39	1783.49
397.58	1863.07
397.77	1844.34
397.97	1837.32
398.16	1879.45
398.35	1834.98
398.55	1839.66
398.74	1879.45
398.93	1980.09
399.12	1930.94
399.32	1984.77
399.51	1991.80
399.70	1973.07
399.90	2001.16
400.09	2045.63
400.28	2001.16
400.47	2052.65
400.67	2059.67
400.86	1998.82
401.05	2160.31
401.24	2087.76
401.44	2146.27
401.63	2122.87
401.82	2104.14
402.01	2202.44
402.21	2169.68
402.40	2204.78
402.59	2169.68
402.78	2162.66
402.97	2211.81
403.17	2359.26
403.36	2293.72
403.55	2361.60
403.74	2413.09
403.93	2272.66
404.13	2410.75
404.32	2401.39
404.51	2265.64
404.70	2380.32
404.89	2410.75
405.09	2457.56
405.28	2429.48
405.47	2429.48
405.66	2513.74
405.85	2499.69
406.05	2541.82
406.24	2558.21
406.43	2539.48
406.62	2583.95
406.81	2768.85
407.00	2675.23
407.20	2553.52
407.39	2637.78
407.58	2799.28
407.77	2661.19
407.96	2850.77
408.15	2705.66
408.34	2677.57
408.54	2813.32
408.73	2871.84
408.92	2958.44
409.11	2853.11
409.30	2909.29
409.49	2801.62
409.68	2935.03
409.87	2892.90
410.07	3014.61
410.26	2895.24
410.45	2972.48
410.64	3023.97
410.83	3082.49
411.02	3126.96
411.21	3091.85
411.40	2958.44
411.59	3094.19
411.78	3220.58
411.98	3131.64
412.17	3267.39
412.36	3251.00
412.55	3316.54
412.74	3321.22
412.93	3478.04
413.12	3351.65
413.31	3496.76
413.50	3379.73
413.69	3456.97
413.88	3531.87
414.07	3627.83
414.26	3665.28
414.45	3529.53
414.64	3644.21
414.83	3679.32
415.02	3803.37
415.22	3674.64
415.41	3918.06
415.60	3829.12
415.79	3978.91
415.98	4007.00
416.17	3943.80
416.36	3901.67
416.55	4021.04
416.74	3999.98
416.93	4084.23
417.12	4128.70
417.31	4189.56
417.50	4140.41
417.69	4313.61
417.88	4266.80
418.07	4280.84
418.26	4252.75
418.45	4259.78
418.64	4325.31
418.83	4430.63
419.02	4447.02
419.21	4461.06
419.39	4470.42
419.58	4451.70
419.77	4468.08
419.96	4461.06
420.15	4599.15
420.34	4510.21
420.53	4554.68
420.72	4716.18
420.91	4681.07
421.10	4685.75
421.29	4910.44
421.48	4636.60
421.67	4692.77
421.86	4765.33
422.05	4809.80
422.24	4629.58
422.43	4704.48
422.61	4854.27
422.80	5114.07
422.99	4777.03
423.18	4870.65
423.37	5116.41
423.56	5039.17
423.75	4779.37
423.94	4847.25
424.13	4851.93
424.32	4737.24
424.50	4943.21
424.69	5048.54
424.88	5114.07
425.07	5015.77
425.26	5076.62
425.45	4898.74
425.64	4990.02
425.83	4952.57
426.01	5062.58
426.20	5085.98
426.39	5053.22
426.58	4987.68
426.77	5111.73
426.96	5247.48
427.15	5128.11
427.33	5153.86
427.52	4980.66
427.71	5128.11
427.90	5247.48
428.09	5210.03
428.28	5441.75
428.46	5221.74
428.65	5355.15
428.84	5474.51
429.03	5558.77
429.22	5296.63
429.40	5390.25
429.59	5521.32
429.78	5270.89
429.97	5259.18
430.16	5359.83
430.34	5654.73
430.53	5708.57
430.72	5701.54
430.91	5547.07
431.10	5563.45
431.28	5675.80
431.47	5664.10
431.66	5729.63
431.85	5771.76
432.03	5980.07
432.22	5923.90
432.41	5951.98
432.60	5846.66
432.79	5975.39
432.97	5982.41
433.16	6031.56
433.35	6010.50
433.54	6113.48
433.72	6171.99
433.91	6078.37
434.10	6043.26
434.28	6073.69
434.47	6214.12
434.66	6225.82
434.85	6249.23
435.03	6155.61
435.22	6204.76
435.41	6396.68
435.59	6401.37
435.78	6569.88
435.97	6380.30
436.16	6394.34
436.34	6253.91
436.53	6520.73
436.72	6506.69
436.90	6408.39
437.09	6703.29
437.28	6413.07
437.46	6490.31
437.65	6555.84
437.84	6801.60
438.02	6656.48
438.21	6736.06
438.40	6612.01
438.58	7045.01
438.77	7075.44
438.96	6871.81
439.14	7030.97
439.33	7023.95
439.52	7243.96
439.70	7232.26
439.89	7185.44
440.08	7375.03
440.26	7543.55
440.45	7297.79
440.63	7475.67
440.82	7564.61
441.01	7398.43
441.19	7625.47
441.38	7669.94
441.57	7714.41
441.75	7772.92
441.94	7962.50
442.12	7899.31
442.31	8098.25
442.50	7831.43
442.68	7971.86
442.87	8009.31
443.05	8114.64
443.24	8191.88
443.43	8210.60
443.61	8126.34
443.80	8388.48
443.98	7936.76
444.17	8093.57
444.35	8142.72
444.54	8355.71
444.73	8294.86
444.91	8390.82
445.10	8475.08
445.28	8236.35
445.47	8332.31
445.65	8168.47
445.84	8421.25
446.02	8629.56
446.21	8283.16
446.39	8273.79
446.58	8465.72
446.77	8446.99
446.95	8407.20
447.14	8348.69
447.32	8538.27
447.51	8414.23
447.69	8432.95
447.88	8365.07
448.06	8594.45
448.25	8376.78
448.43	8461.04
448.62	8432.95
448.80	8500.83
448.99	8774.67
449.17	8842.54
449.36	8557.00
449.54	8802.75
449.73	8788.71
449.91	8877.65
450.10	8894.04
450.28	9341.08
450.46	9022.77
450.65	9013.40
450.83	8828.50
451.02	8884.67
451.20	9071.92
451.39	9217.03
451.57	9205.33
451.76	9109.36
451.94	9116.39
452.13	9465.13
452.31	9364.48
452.49	9116.39
452.68	9469.81
452.86	9284.91
453.05	9308.31
453.23	9542.36
453.42	9324.69
453.60	9238.09
453.78	9282.56
453.97	9423.00
454.15	9476.83
454.34	9481.51
454.52	9788.12
454.70	9596.20
454.89	9767.06
455.07	9675.77
455.26	9778.76
455.44	10052.60
455.62	9884.08
455.81	9762.37
455.99	9813.87
456.17	9870.04
456.36	10106.43
456.54	10422.41
456.73	10303.04
456.91	10413.04
457.09	10384.96
457.28	10396.66
457.46	10260.91
457.64	10539.43
457.83	10548.79
458.01	10352.19
458.19	10707.95
458.38	10590.92
458.56	10757.10
458.74	10832.00
458.93	10658.80
459.11	10588.58
459.29	10686.89
459.48	10710.29
459.66	10895.19
459.84	10857.75
460.03	11087.12
460.21	10827.32
460.39	10754.76
460.57	11103.50
460.76	10902.22
460.94	11005.20
461.12	11150.31
461.31	11157.33
461.49	11169.04
461.67	11042.65
461.85	11576.29
462.04	11286.06
462.22	11913.33
462.40	11527.14
462.59	11290.74
462.77	11492.03
462.95	11620.76
463.13	11698.00
463.32	11515.44
463.50	11700.34
463.68	11702.68
463.86	11800.98
464.05	11761.19
464.23	11672.25
464.41	12046.74
464.59	11875.88
464.78	11978.86
464.96	11918.01
465.14	12229.30
465.32	12100.57
465.50	12189.51
465.69	12182.49
465.87	12140.36
466.05	11995.25
466.23	12100.57
466.41	12442.29
466.60	12297.17
466.78	12191.85
466.96	12025.67
467.14	12313.56
467.32	12287.81
467.51	12273.77
467.69	11918.01
467.87	12255.04
468.05	12599.10
468.23	12334.62
468.41	12451.65
468.60	12624.85
468.78	12645.91
468.96	12711.45
469.14	13013.38
469.32	12779.32
469.50	12531.23
469.69	12793.37
469.87	12875.29
470.05	12985.29
470.23	12966.57
470.41	13261.48
470.59	13200.62
470.77	13308.29
470.95	12964.23
471.14	13294.24
471.32	12989.97
471.50	13556.38
471.68	13565.74
471.86	13570.43
472.04	13631.28
472.22	14050.24
472.40	13650.00
472.58	13802.14
472.77	13680.43
472.95	13994.06
473.13	14448.13
473.31	13963.64
473.49	14022.15
473.67	14008.11
473.85	14143.86
474.03	14595.58
474.21	14604.94
474.39	14806.23
474.57	14764.10
474.75	15019.22
474.93	15133.90
475.12	14787.50
475.30	15396.04
475.48	14974.75
475.66	15176.03
475.84	15012.20
476.02	15321.15
476.20	15314.13
476.38	15770.53
476.56	15704.99
476.74	15723.72
476.92	15829.04
477.10	15735.42
477.28	16065.44
477.46	16182.46
477.64	16233.96
477.82	16238.64
478.00	16765.26
478.18	16917.39
478.36	16943.14
478.54	16879.94
478.72	17088.25
478.90	17106.98
479.08	17401.88
479.26	17556.36
479.44	17465.08
479.62	17741.26
479.80	17806.80
479.98	18125.11
480.16	18684.50
480.34	18066.60
480.52	18548.75
480.70	18209.37
480.88	18494.91
481.06	18551.09
481.24	19077.71
481.41	19056.64
481.59	19536.45
481.77	19459.21
481.95	19033.24
482.13	20084.14
482.31	19627.73
482.49	20149.67
482.67	20285.42
482.85	20210.53
483.03	20575.65
483.21	20723.10
483.39	21032.05
483.57	20685.65
483.74	20889.28
483.92	21458.03
484.10	21177.17
484.28	21446.33
484.46	22097.00
484.64	22251.47
484.82	21649.96
485.00	22335.73
485.18	22335.73
485.35	22984.06
485.53	22740.64
485.71	22623.62
485.89	23513.02
486.07	23304.71
486.25	23307.05
486.43	23412.38
486.61	23915.59
486.78	23899.21
486.96	24175.39
487.14	24367.32
487.32	24369.66
487.50	24514.77
487.68	24858.83
487.85	24964.15
488.03	25336.30
488.21	25439.28
488.39	25542.27
488.57	26050.16
488.75	25907.39
488.92	26347.41
489.10	26508.91
489.28	26721.90
489.46	26803.82
489.64	27061.27
489.81	27555.13
489.99	27889.82
490.17	27901.53
490.35	27894.50
490.53	27995.15
490.70	28563.90
490.88	28170.69
491.06	28865.83
491.24	28638.80
491.41	29163.08
491.59	29600.76
491.77	29195.84
491.95	29766.93
492.13	29614.80
492.30	29797.36
492.48	30148.44
492.66	29820.77
492.84	30213.98
493.01	30581.44
493.19	30602.50
493.37	30909.11
493.54	31119.76
493.72	31445.10
493.90	31264.88
494.08	31615.96
494.25	31742.35
494.43	31913.20
494.61	32009.17
494.79	32594.30
494.96	32538.13
495.14	32849.42
495.32	32896.23
495.49	33184.12
495.67	33308.16
495.85	33134.96
496.02	33544.56
496.20	33745.84
496.38	34197.57
496.55	34057.14
496.73	34728.87
496.91	34359.06
497.09	34515.88
497.26	34925.47
497.44	34831.85
497.62	35033.14
497.79	35690.83
497.97	35826.58
498.14	35910.84
498.32	36081.70
498.50	36112.13
498.67	36491.29
498.85	36231.49
499.03	36713.64
499.20	36603.64
499.38	36790.88
499.56	36837.69
499.73	36914.93
499.91	37160.69
500.08	37486.02
500.26	37310.48
500.44	37579.64
500.61	37275.37
500.79	37769.22
500.97	37881.57
501.14	38773.31
501.32	38366.06
501.49	38300.53
501.67	38459.68
501.84	38532.24
502.02	38284.14
502.20	39269.51
502.37	39110.35
502.55	39049.50
502.72	39178.23
502.90	39379.51
503.07	39498.88
503.25	39508.24
503.43	39665.06
503.60	39735.27
503.78	39819.53
503.95	40142.53
504.13	40149.55
504.30	40652.76
504.48	40411.69
504.65	40531.06
504.83	41010.87
505.01	40844.69
505.18	41001.50
505.36	41668.56
505.53	41275.35
505.71	41163.00
505.88	41640.47
506.06	41404.08
506.23	41724.73
506.41	41652.17
506.58	41921.34
506.76	42454.98
506.93	42520.51
507.11	42394.12
507.28	42293.48
507.46	42417.53
507.63	42600.09
507.81	43075.22
507.98	42986.28
508.16	42794.36
508.33	43021.39
508.50	42979.26
508.68	43669.72
508.85	43983.35
509.03	43849.94
509.20	43936.54
509.38	43728.23
509.55	44238.47
509.73	44493.58
509.90	44474.86
510.08	44453.79
510.25	44486.56
510.42	44460.82
510.60	44772.11
510.77	45031.91
510.95	45549.17
511.12	45111.49
511.30	45380.65
511.47	45282.34
511.64	45092.76
511.82	45972.80
511.99	45773.86
512.17	45949.40
512.34	45853.44
512.51	46426.87
512.69	46014.93
512.86	46089.83
513.04	46356.65
513.21	46600.07
513.38	46920.72
513.56	46602.41
513.73	46649.22
513.90	46838.80
514.08	46539.21
514.25	46841.14
514.43	47201.58
514.60	47173.50
514.77	47433.30
514.95	47625.22
515.12	47573.73
515.29	47178.18
515.47	47803.10
515.64	47767.99
515.81	47636.92
515.99	48037.16
516.16	48299.30
516.33	48215.04
516.51	48542.71
516.68	48196.31
516.85	48467.81
517.03	48725.27
517.20	48835.28
517.37	48589.52
517.54	48512.28
517.72	48807.19
517.89	48797.83
518.06	49162.95
518.24	49219.13
518.41	48961.67
518.58	49448.50
518.75	49645.10
518.93	49654.47
519.10	49425.09
519.27	49818.30
519.45	49492.97
519.62	49748.09
519.79	49769.15
519.96	50040.65
520.14	50136.62
520.31	50071.08
520.48	50522.80
520.65	50452.59
520.83	50726.43
521.00	50721.75
521.17	50621.11
521.34	50527.48
521.52	50707.71
521.69	50756.86
521.86	50908.99
522.03	50857.50
522.20	51152.41
522.38	51452.00
522.55	51199.22
522.72	51082.19
522.89	51234.33
523.07	51702.43
523.24	51374.76
523.41	51753.93
523.58	51379.44
523.75	51550.30
523.92	51922.44
524.10	52158.84
524.27	52074.58
524.44	51758.61
524.61	51966.91
524.78	52179.90
524.96	52257.14
525.13	51901.38
525.30	52238.42
525.47	52114.37
525.64	52296.93
525.81	52552.05
525.98	52577.79
526.16	52484.17
526.33	52317.99
526.50	52928.87
526.67	52526.30
526.84	52861.00
527.01	52842.27
527.18	52638.65
527.36	52952.28
527.53	53102.07
527.70	53116.12
527.87	52973.34
528.04	52905.47
528.21	53305.70
528.38	53174.63
528.55	53645.08
528.72	53392.30
528.89	53153.57
529.07	53221.44
529.24	53301.02
529.41	53588.91
529.58	53682.53
529.75	53698.91
529.92	53628.69
530.09	53837.00
530.26	53553.80
530.43	53464.86
530.60	53769.13
530.77	53977.43
530.94	53893.18
531.11	53888.49
531.28	54052.33
531.46	54155.32
531.63	54110.85
531.80	54108.50
531.97	54204.47
532.14	54267.66
532.31	54323.83
532.48	54260.64
532.65	54356.60
532.82	54426.82
532.99	54452.56
533.16	54405.75
533.33	54695.98
533.50	54820.03
533.67	54848.11
533.84	54450.22
534.01	54880.88
534.18	54665.55
534.35	55269.41
534.52	54958.12
534.69	55447.29
534.86	55189.83
535.03	54883.22
535.20	55171.11
535.37	55288.13
535.54	54934.71
535.71	55295.16
535.88	55309.20
536.05	55224.94
536.22	55473.04
536.38	55426.23
536.55	55337.29
536.72	55650.92
536.89	55180.47
537.06	55529.21
537.23	55714.11
537.40	55433.25
537.57	55510.49
537.74	55707.09
537.91	55908.38
538.08	55863.91
538.25	55693.05
538.42	55784.33
538.59	55894.33
538.75	55856.88
538.92	56128.39
539.09	56051.15
539.26	55877.95
539.43	55948.17
539.60	56041.79
539.77	56287.54
539.94	56580.11
540.11	56198.60
540.28	56505.21
540.44	56334.35
540.61	56322.65
540.78	56140.09
540.95	56310.95
541.12	56172.86
541.29	56395.21
541.46	56390.53
541.62	56516.92
541.79	56753.31
541.96	56416.27
542.13	56608.20
542.30	56619.90
542.47	56774.37
542.63	56816.50
542.80	56797.78
542.97	56992.04
543.14	57109.07
543.31	56886.72
543.48	57202.69
543.64	57127.80
543.81	57443.77
543.98	57361.85
544.15	57305.68
544.32	57286.95
544.48	57518.67
544.65	57315.04
544.82	57256.53
544.99	57240.14
545.16	57322.06
545.32	57296.31
545.49	57481.22
545.66	57822.93
545.83	57593.56
546.00	57677.82
546.16	57616.97
546.33	57577.18
546.50	57361.85
546.67	57619.31
546.83	57368.87
547.00	57829.96
547.17	57640.37
547.34	57595.90
547.50	57855.70
547.67	57918.90
547.84	58035.92
548.00	58049.97
548.17	57986.77
548.34	57944.64
548.51	58157.63
548.67	57890.81
548.84	57930.60
549.01	58068.69
549.18	57935.28
549.34	58286.36
549.51	58251.25
549.68	58305.09
549.84	58394.03
550.01	58387.00
550.18	58314.45
550.34	58344.87
550.51	58562.54
550.68	58578.93
550.84	58232.53
551.01	58344.87
551.18	58459.56
551.34	58415.09
551.51	58452.54
551.68	58473.60
551.84	58555.52
552.01	58581.27
552.18	58497.01
552.34	58412.75
552.51	58607.01
552.68	58599.99
552.84	58578.93
553.01	58735.74
553.18	58597.65
553.34	58766.17
553.51	58628.08
553.67	58794.26
553.84	58824.68
554.01	58766.17
554.17	59007.25
554.34	59018.95
554.51	58925.33
554.67	58983.84
554.84	58953.41
555.00	58822.34
555.17	59018.95
555.33	59178.10
555.50	58974.48
555.67	58710.00
555.83	58960.44
556.00	58920.65
556.16	59288.11
556.33	59049.38
556.50	59138.32
556.66	59449.61
556.83	59140.66
556.99	59187.47
557.16	59360.67
557.32	59449.61
557.49	59473.01
557.65	59217.89
557.82	59107.89
557.98	59255.34
558.15	59341.94
558.32	59496.42
558.48	59299.81
558.65	59344.28
558.81	59365.35
558.98	59512.80
559.14	59398.12
559.31	59494.08
559.47	59501.10
559.64	59580.68
559.80	59763.24
559.97	59552.59
560.13	59664.94
560.30	59760.90
560.46	59714.09
560.63	59732.81
560.79	59702.38
560.96	59859.20
561.12	59678.98
561.29	59716.43
561.45	59737.49
561.61	59739.83
561.78	59870.90
561.94	59835.80
562.11	59786.64
562.27	59634.51
562.44	59779.62
562.60	60013.68
562.77	59938.78
562.93	59643.87
563.10	60095.60
563.26	59735.15
563.42	60247.73
563.59	60018.36
563.75	59999.63
563.92	59980.91
564.08	59994.95
564.24	60137.72
564.41	59997.29
564.57	60123.68
564.74	60090.91
564.90	60086.23
565.07	60051.12
565.23	60217.30
565.39	60016.02
565.56	60189.22
565.72	60121.34
565.88	60247.73
566.05	60126.02
566.21	59990.27
566.38	60046.44
566.54	60186.88
566.70	60280.50
566.87	60434.97
567.03	59901.33
567.19	60348.37
567.36	60083.89
567.52	60067.51
567.68	60547.32
567.85	60320.29
568.01	60280.50
568.17	60261.77
568.34	60341.35
568.50	60397.52
568.66	60186.88
568.83	60252.41
568.99	60301.56
569.15	60350.71
569.32	60355.39
569.48	60390.50
569.64	60411.57
569.81	60243.05
569.97	60432.63
570.13	60322.63
570.30	60423.27
570.46	60385.82
570.62	60647.96
570.78	60486.46
570.95	60254.75
571.11	60371.78
571.27	60395.18
571.43	60477.10
571.60	60566.04
571.76	60346.03
571.92	60629.24
572.09	60406.89
572.25	60516.89
572.41	60491.15
572.57	60521.57
572.74	60687.75
572.90	60505.19
573.06	60456.04
573.22	60559.02
573.38	60561.36
573.55	60697.11
573.71	60566.04
573.87	60760.31
574.03	60460.72
574.20	60650.30
574.36	60598.81
574.52	60650.30
574.68	60643.28
574.84	60647.96
575.01	60666.69
575.17	60697.11
575.33	60505.19
575.49	60528.59
575.65	60608.17
575.82	60856.27
575.98	60762.65
576.14	60851.59
576.30	60851.59
576.46	60582.43
576.62	60470.08
576.79	60507.53
576.95	60573.06
577.11	60643.28
577.27	60905.42
577.43	60772.01
577.59	60601.15
577.75	60519.23
577.92	60640.94
578.08	60589.45
578.24	60774.35
578.40	60872.65
578.56	60811.80
578.72	60772.01
578.88	60947.55
579.04	60963.93
579.21	60743.92
579.37	60914.78
579.53	60790.73
579.69	60706.47
579.85	60706.47
580.01	60750.94
580.17	60727.54
580.33	60837.54
580.49	60952.23
580.65	60945.21
580.82	60874.99
580.98	60973.30
581.14	60851.59
581.30	60821.16
581.46	60800.10
581.62	60905.42
581.78	60823.50
581.94	60839.89
582.10	60781.37
582.26	60772.01
582.42	60706.47
582.58	60882.02
582.74	60935.85
582.90	60804.78
583.06	60931.17
583.22	60619.88
583.38	60856.27
583.54	60874.99
583.70	60804.78
583.86	61123.09
584.02	60865.63
584.18	60788.39
584.34	60839.89
584.50	60914.78
584.66	60743.92
584.82	60706.47
584.98	61043.51
585.14	60917.12
585.30	60865.63
585.46	61024.79
585.62	60945.21
585.78	61083.30
585.94	60849.25
586.10	60924.14
586.26	60704.13
586.42	61146.50
586.58	61244.80
586.74	61134.79
586.90	61076.28
587.06	61043.51
587.22	61127.77
587.38	60889.04
587.54	61144.16
587.70	60795.42
587.86	61165.22
588.02	60867.97
588.18	61155.86
588.34	60996.70
588.49	60928.83
