SpectraSuite Data File
++++++++++++++++++++++++++++++++++++
Date: Fri Oct 25 10:46:54 EDT 2013
User: price-jones
Dark Spectrum Present: No
Reference Spectrum Present: No
Number of Sampled Component Spectra: 1
Spectrometers: USB2+H05261
Integration Time (usec): 100000 (USB2+H05261)
Spectra Averaged: 1 (USB2+H05261)
Boxcar Smoothing: 0 (USB2+H05261)
Correct for Electrical Dark: No (USB2+H05261)
Strobe/Lamp Enabled: No (USB2+H05261)
Correct for Detector Non-linearity: No (USB2+H05261)
Correct for Stray Light: No (USB2+H05261)
Number of Pixels in Processed Spectrum: 2048
>>>>>Begin Processed Spectral Data<<<<<
365.73	107.66
365.92	107.66
366.12	107.66
366.32	91.28
366.52	21.06
366.72	98.30
366.91	44.47
367.11	32.77
367.31	0.00
367.51	9.36
367.70	39.79
367.90	32.77
368.10	77.24
368.30	100.64
368.49	77.24
368.69	39.79
368.89	56.17
369.09	0.00
369.28	42.13
369.48	72.56
369.68	81.92
369.87	187.24
370.07	138.09
370.27	112.35
370.47	198.95
370.66	407.25
370.86	402.57
371.06	524.28
371.25	496.19
371.45	407.25
371.65	554.71
371.84	524.28
372.04	407.25
372.24	468.11
372.44	517.26
372.63	552.37
372.83	507.90
373.03	437.68
373.22	500.87
373.42	463.43
373.62	552.37
373.81	624.92
374.01	617.90
374.21	456.40
374.40	475.13
374.60	594.50
374.79	573.43
374.99	627.26
375.19	610.88
375.38	552.37
375.58	566.41
375.78	667.05
375.97	662.37
376.17	678.76
376.37	561.73
376.56	641.31
376.76	643.65
376.95	634.29
377.15	606.20
377.35	685.78
377.54	688.12
377.74	620.24
377.93	557.05
378.13	638.97
378.33	615.56
378.52	725.57
378.72	690.46
378.91	702.16
379.11	702.16
379.31	662.37
379.50	667.05
379.70	709.18
379.89	657.69
380.09	617.90
380.28	763.01
380.48	692.80
380.68	594.50
380.87	748.97
381.07	725.57
381.26	704.50
381.46	655.35
381.65	575.77
381.85	751.31
382.04	660.03
382.24	685.78
382.43	763.01
382.63	592.16
382.83	681.10
383.02	774.72
383.22	777.06
383.41	704.50
383.61	704.50
383.80	847.27
384.00	833.23
384.19	711.52
384.39	765.36
384.58	847.27
384.78	732.59
384.97	849.61
385.17	833.23
385.36	828.55
385.56	774.72
385.75	819.19
385.95	770.04
386.14	828.55
386.34	821.53
386.53	812.17
386.72	837.91
386.92	954.94
387.11	961.96
387.31	840.25
387.50	910.47
387.70	882.38
387.89	912.81
388.09	826.21
388.28	898.77
388.48	903.45
388.67	912.81
388.86	922.17
389.06	940.90
389.25	950.26
389.45	943.24
389.64	929.19
389.84	1156.22
390.03	1013.45
390.22	978.34
390.42	954.94
390.61	1025.15
390.81	1032.18
391.00	1004.09
391.19	1050.90
391.39	997.07
391.58	1144.52
391.78	1132.82
391.97	1022.81
392.16	1034.52
392.36	1128.14
392.55	1018.13
392.75	964.30
392.94	980.68
393.13	1067.28
393.33	973.66
393.52	1151.54
393.71	1034.52
393.91	1078.99
394.10	1132.82
394.29	1193.67
394.49	1107.07
394.68	1156.22
394.88	1083.67
395.07	1270.91
395.26	1118.78
395.46	1277.93
395.65	1233.46
395.84	1299.00
396.04	1249.85
396.23	1139.84
396.42	1191.33
396.62	1207.72
396.81	1252.19
397.00	1287.29
397.19	1254.53
397.39	1348.15
397.58	1444.11
397.77	1301.34
397.97	1299.00
398.16	1352.83
398.35	1540.07
398.55	1404.32
398.74	1465.18
398.93	1547.09
399.12	1636.03
399.32	1483.90
399.51	1472.20
399.70	1488.58
399.90	1523.69
400.09	1561.14
400.28	1540.07
400.47	1458.15
400.67	1589.22
400.86	1598.59
401.05	1528.37
401.24	1682.85
401.44	1643.06
401.63	1575.18
401.82	1661.78
402.01	1643.06
402.21	1792.85
402.40	1682.85
402.59	1577.52
402.78	1732.00
402.97	1713.27
403.17	1858.39
403.36	1888.81
403.55	1865.41
403.74	2001.16
403.93	1767.10
404.13	1886.47
404.32	1846.68
404.51	1823.28
404.70	1874.77
404.89	2012.86
405.09	2026.90
405.28	1923.92
405.47	1963.71
405.66	1996.48
405.85	1909.88
406.05	1977.75
406.24	1944.99
406.43	1994.14
406.62	2062.01
406.81	2059.67
407.00	2012.86
407.20	1994.14
407.39	2120.53
407.58	2024.56
407.77	2090.10
407.96	2165.00
408.15	2207.13
408.34	2120.53
408.54	2165.00
408.73	2176.70
408.92	2221.17
409.11	2204.78
409.30	2267.98
409.49	2181.38
409.68	2157.97
409.87	2188.40
410.07	2216.49
410.26	2394.37
410.45	2363.94
410.64	2373.30
410.83	2448.20
411.02	2504.37
411.21	2553.52
411.40	2370.96
411.59	2509.05
411.78	2541.82
411.98	2565.23
412.17	2544.16
412.36	2640.12
412.55	2661.19
412.74	2677.57
412.93	2621.40
413.12	2551.18
413.31	2787.58
413.50	2808.64
413.69	2733.75
413.88	2846.09
414.07	2815.66
414.26	2904.60
414.45	2946.73
414.64	2895.24
414.83	3103.55
415.02	2953.76
415.22	2951.42
415.41	3002.91
415.60	2995.89
415.79	3131.64
415.98	3176.11
416.17	3255.69
416.36	3052.06
416.55	3136.32
416.74	3183.13
416.93	3192.49
417.12	3265.05
417.31	3234.62
417.50	3335.26
417.69	3538.89
417.88	3274.41
418.07	3227.60
418.26	3485.06
418.45	3541.23
418.64	3438.25
418.83	3482.72
419.02	3627.83
419.21	3616.13
419.39	3503.78
419.58	3520.17
419.77	3571.66
419.96	3503.78
420.15	3571.66
420.34	3674.64
420.53	3707.41
420.72	3726.13
420.91	3751.88
421.10	3805.71
421.29	3875.93
421.48	3943.80
421.67	3791.67
421.86	3698.05
422.05	3681.66
422.24	3702.73
422.43	3786.99
422.61	3866.56
422.80	3939.12
422.99	3768.26
423.18	3899.33
423.37	3913.38
423.56	3904.01
423.75	3852.52
423.94	3845.50
424.13	3658.26
424.32	3641.87
424.50	3960.19
424.69	3904.01
424.88	3908.69
425.07	3838.48
425.26	3885.29
425.45	3812.73
425.64	3824.44
425.83	3904.01
426.01	3946.14
426.20	3873.59
426.39	4095.94
426.58	3885.29
426.77	3889.97
426.96	3922.74
427.15	3978.91
427.33	4102.96
427.52	3992.95
427.71	4070.19
427.90	4135.73
428.09	4163.81
428.28	3983.59
428.46	4067.85
428.65	4077.21
428.84	4072.53
429.03	4205.94
429.22	4138.07
429.40	4168.49
429.59	4037.42
429.78	3978.91
429.97	3950.82
430.16	3936.78
430.34	4124.02
430.53	4245.73
430.72	4177.86
430.91	4191.90
431.10	4351.06
431.28	4566.39
431.47	4519.57
431.66	4538.30
431.85	4348.72
432.03	4667.03
432.22	4585.11
432.41	4540.64
432.60	4610.86
432.79	4550.00
432.97	4695.11
433.16	4755.97
433.35	4461.06
433.54	4573.41
433.72	4652.98
433.91	4557.02
434.10	4683.41
434.28	4657.67
434.47	4727.88
434.66	4858.95
434.85	4798.10
435.03	4674.05
435.22	4933.85
435.41	5116.41
435.59	4975.98
435.78	5184.29
435.97	4999.38
436.16	5001.72
436.34	5109.39
436.53	5004.07
436.72	5067.26
436.90	5181.95
437.09	5043.85
437.28	5018.11
437.46	5004.07
437.65	5177.26
437.84	5287.27
438.02	5137.48
438.21	5259.18
438.40	5142.16
438.58	5331.74
438.77	5313.02
438.96	5392.59
439.14	5500.26
439.33	5654.73
439.52	5610.26
439.70	5537.71
439.89	5678.14
440.08	5628.99
440.26	5561.11
440.45	5500.26
440.63	5689.84
440.82	5671.12
441.01	5743.67
441.19	5930.92
441.38	5921.56
441.57	6054.97
441.75	6087.73
441.94	6258.59
442.12	6115.82
442.31	6202.42
442.50	6361.58
442.68	6193.06
442.87	6188.38
443.05	6291.36
443.24	6279.66
443.43	6401.37
443.61	6256.25
443.80	6586.27
443.98	6090.07
444.17	6148.59
444.35	6303.06
444.54	6628.40
444.73	6361.58
444.91	6335.83
445.10	6267.95
445.28	6452.86
445.47	6274.98
445.65	6352.21
445.84	6333.49
446.02	6448.18
446.21	6448.18
446.39	6436.47
446.58	6424.77
446.77	6567.54
446.95	6394.34
447.14	6600.31
447.32	6656.48
447.51	6340.51
447.69	6387.32
447.88	6558.18
448.06	6530.09
448.25	6623.72
448.43	6719.68
448.62	6612.01
448.80	6586.27
448.99	6546.48
449.17	6740.74
449.36	6768.83
449.54	6874.15
449.73	6649.46
449.91	6988.84
450.10	6892.88
450.28	7052.03
450.46	7073.10
450.65	6970.12
450.83	7000.54
451.02	7016.93
451.20	7007.56
451.39	7204.17
451.57	7129.27
451.76	7066.08
451.94	7026.29
452.13	7297.79
452.31	7185.44
452.49	6970.12
452.68	7049.69
452.86	7096.50
453.05	7037.99
453.23	7403.11
453.42	7190.13
453.60	7054.37
453.78	7332.90
453.97	7405.46
454.15	7236.94
454.34	7157.36
454.52	7543.55
454.70	7435.88
454.89	7473.33
455.07	7440.56
455.26	7466.31
455.44	7658.23
455.62	7620.78
455.81	7627.81
455.99	7707.38
456.17	7562.27
456.36	7695.68
456.54	8002.29
456.73	7946.12
456.91	8187.19
457.09	7871.22
457.28	8191.88
457.46	8049.10
457.64	8098.25
457.83	8060.80
458.01	7838.45
458.19	8212.94
458.38	7918.03
458.56	8035.06
458.74	8271.45
458.93	8088.89
459.11	8156.77
459.29	8184.85
459.48	8149.75
459.66	8149.75
459.84	8152.09
460.03	8510.19
460.21	8353.37
460.39	8182.51
460.57	8339.33
460.76	8430.61
460.94	8549.98
461.12	8432.95
461.31	8659.98
461.49	8601.47
461.67	8421.25
461.85	8624.87
462.04	8575.72
462.22	9184.26
462.40	8748.92
462.59	8858.93
462.77	8716.16
462.95	8580.40
463.13	8828.50
463.32	8659.98
463.50	8575.72
463.68	9053.19
463.86	8683.39
464.05	8805.10
464.23	8681.05
464.41	9043.83
464.59	8802.75
464.78	9090.64
464.96	8994.68
465.14	8994.68
465.32	9001.70
465.50	9069.58
465.69	9107.02
465.87	9067.24
466.05	9004.04
466.23	9165.54
466.41	9104.68
466.60	9296.61
466.78	9034.47
466.96	9095.32
467.14	9116.39
467.32	9018.08
467.51	9172.56
467.69	8931.48
467.87	9404.27
468.05	9247.46
468.23	9289.59
468.41	9341.08
468.60	9533.00
468.78	9488.53
468.96	9294.27
469.14	9610.24
469.32	9736.63
469.50	9247.46
469.69	9767.06
469.87	9530.66
470.05	9694.50
470.23	9792.80
470.41	9493.21
470.59	9767.06
470.77	9926.21
470.95	9827.91
471.14	9923.87
471.32	9788.12
471.50	10143.88
471.68	10139.20
471.86	10256.23
472.04	10186.01
472.22	10417.72
472.40	10113.45
472.58	10286.65
472.77	10586.24
472.95	10443.47
473.13	10710.29
473.31	10326.44
473.49	10291.34
473.67	10583.90
473.85	10541.77
474.03	10789.87
474.21	10897.53
474.39	10855.40
474.57	10810.93
474.75	10930.30
474.93	10995.84
475.12	11138.61
475.30	11098.82
475.48	10939.66
475.66	11096.48
475.84	10946.69
476.02	11197.12
476.20	11311.81
476.38	11398.41
476.56	11482.67
476.74	11747.15
476.92	11679.27
477.10	11705.02
477.28	12046.74
477.46	11974.18
477.64	12023.33
477.82	12161.42
478.00	12704.43
478.18	12353.35
478.36	12280.79
478.54	12418.88
478.72	12596.76
478.90	12774.64
479.08	12851.88
479.26	12994.65
479.44	13167.85
479.62	13217.01
479.80	13193.60
479.98	13174.88
480.16	13465.10
480.34	13350.42
480.52	13755.33
480.70	13565.74
480.88	13245.09
481.06	13570.43
481.24	13905.12
481.41	13760.01
481.59	14190.67
481.77	14401.32
481.95	14132.15
482.13	14408.34
482.31	14235.14
482.49	14597.92
482.67	14576.86
482.85	14775.80
483.03	14888.15
483.21	15059.01
483.39	15023.90
483.57	15075.39
483.74	15215.82
483.92	15616.05
484.10	15393.70
484.28	15754.15
484.46	15960.11
484.64	16301.83
484.82	15508.39
485.00	15929.69
485.18	16140.33
485.35	16252.68
485.53	15929.69
485.71	16060.76
485.89	16184.80
486.07	16257.36
486.25	16617.80
486.43	16772.28
486.61	17238.05
486.78	17067.19
486.96	17099.95
487.14	17495.50
487.32	17280.18
487.50	17930.84
487.68	18057.23
487.85	18527.68
488.03	17928.50
488.21	18192.98
488.39	18216.39
488.57	18246.82
488.75	18717.26
488.92	18916.21
489.10	19000.47
489.28	19051.96
489.46	19585.60
489.64	19372.61
489.81	19950.73
489.99	20011.58
490.17	20070.09
490.35	20222.23
490.53	19913.28
490.70	20271.38
490.88	20271.38
491.06	20517.14
491.24	20561.61
491.41	20458.62
491.59	20561.61
491.77	20819.07
491.95	21156.10
492.13	20779.28
492.30	21282.49
492.48	21350.37
492.66	21329.30
492.84	21774.00
493.01	21928.48
493.19	21893.37
493.37	21963.59
493.54	22328.71
493.72	22286.58
493.90	22087.64
494.08	22223.39
494.25	22754.69
494.43	22801.50
494.61	23030.87
494.79	23229.82
494.96	23087.04
495.14	23154.92
495.32	23534.09
495.49	23335.14
495.67	23583.24
495.85	23768.14
496.02	23690.90
496.20	23861.76
496.38	24299.44
496.55	24180.07
496.73	24650.52
496.91	24659.88
497.09	24725.42
497.26	24737.12
497.44	25027.35
497.62	24910.32
497.79	25434.60
497.97	24816.70
498.14	25355.02
498.32	25427.58
498.50	25254.38
498.67	25809.09
498.85	25544.61
499.03	25937.82
499.20	26054.84
499.38	26064.21
499.56	26300.60
499.73	26536.99
499.91	26183.57
500.08	26485.50
500.26	26338.05
500.44	26623.59
500.61	26387.20
500.79	26462.10
500.97	26752.32
501.14	27061.27
501.32	26904.46
501.49	26890.41
501.67	26731.26
501.84	27332.78
502.02	27147.87
502.20	27433.42
502.37	27400.65
502.55	27833.65
502.72	27592.58
502.90	27803.22
503.07	27835.99
503.25	27681.52
503.43	27569.17
503.60	28048.98
503.78	27573.85
503.95	28163.67
504.13	28402.40
504.30	28339.21
504.48	28444.53
504.65	28561.56
504.83	28795.61
505.01	29053.07
505.18	29097.54
505.36	29165.42
505.53	29106.90
505.71	29355.00
505.88	29106.90
506.06	28996.90
506.23	29254.36
506.41	29060.09
506.58	29685.01
506.76	29661.61
506.93	29717.78
507.11	29993.97
507.28	29818.42
507.46	29694.38
507.63	30464.41
507.81	29764.59
507.98	30143.76
508.16	30106.31
508.33	30099.29
508.50	30085.25
508.68	30841.24
508.85	30801.45
509.03	30799.11
509.20	30672.72
509.38	30813.15
509.55	31253.17
509.73	31208.70
509.90	31023.80
510.08	31330.41
510.25	30937.20
510.42	31409.99
510.60	31559.78
510.77	31569.15
510.95	31819.58
511.12	31634.68
511.30	31913.20
511.47	32053.64
511.64	31997.46
511.82	31707.24
511.99	31758.73
512.17	31988.10
512.34	32348.54
512.51	32741.75
512.69	32556.85
512.86	32210.45
513.04	32797.93
513.21	32357.91
513.38	32877.51
513.56	32357.91
513.73	32739.41
513.90	32556.85
514.08	33207.52
514.25	33020.28
514.43	32685.58
514.60	32961.76
514.77	32947.72
514.95	33191.14
515.12	33476.68
515.29	33397.10
515.47	33949.47
515.64	33532.86
515.81	33600.73
515.99	33502.43
516.16	33055.39
516.33	33605.41
516.51	33809.04
516.68	33319.87
516.85	33090.49
517.03	33343.27
517.20	33872.23
517.37	33818.40
517.54	34396.51
517.72	33919.04
517.89	34188.21
518.06	33469.66
518.24	33874.57
518.41	34335.66
518.58	34146.08
518.75	34436.30
518.93	34660.99
519.10	34611.84
519.27	34881.00
519.45	34768.66
519.62	35012.07
519.79	35173.57
519.96	34944.20
520.14	35555.08
520.31	35002.71
520.48	35115.06
520.65	35295.28
520.83	35555.08
521.00	36074.68
521.17	35644.02
521.34	36341.50
521.52	35931.90
521.69	36065.31
521.86	35976.37
522.03	36156.60
522.20	35814.88
522.38	36126.17
522.55	36273.62
522.72	36282.98
522.89	36158.94
523.07	36561.51
523.24	36112.13
523.41	36336.82
523.58	36268.94
523.75	36727.69
523.92	36680.88
524.10	36842.37
524.27	36856.42
524.44	37226.22
524.61	37198.13
524.78	37062.38
524.96	37083.45
525.13	37322.18
525.30	37954.13
525.47	37799.65
525.64	37549.21
525.81	37282.39
525.98	37233.24
526.16	37565.60
526.33	36950.04
526.50	37418.14
526.67	37591.34
526.84	37167.71
527.01	37434.53
527.18	37848.80
527.36	38000.94
527.53	38164.78
527.70	38309.89
527.87	38249.03
528.04	38565.01
528.21	38272.44
528.38	38190.52
528.55	38848.21
528.72	38972.26
528.89	38834.17
529.07	38883.32
529.24	38382.45
529.41	38337.98
529.58	38195.20
529.75	38642.24
529.92	38637.56
530.09	38880.98
530.26	38862.26
530.43	39489.52
530.60	38742.89
530.77	39105.67
530.94	39505.90
531.11	39416.96
531.28	38749.91
531.46	39571.44
531.63	39335.04
531.80	39288.23
531.97	39318.66
532.14	39466.11
532.31	39264.83
532.48	39583.14
532.65	39508.24
532.82	39512.92
532.99	39515.26
533.16	39849.96
533.33	39625.27
533.50	39913.16
533.67	39728.25
533.84	39768.04
534.01	39587.82
534.18	40013.80
534.35	40069.97
534.52	39978.69
534.69	40271.26
534.86	40500.63
535.03	39985.71
535.20	40570.85
535.37	40540.42
535.54	41172.36
535.71	40573.19
535.88	40669.15
536.05	40643.40
536.22	40495.95
536.38	40437.44
536.55	40407.01
536.72	40481.91
536.89	40491.27
537.06	40875.12
537.23	41200.45
537.40	41081.08
537.57	40982.78
537.74	40905.54
537.91	41633.45
538.08	41195.77
538.25	41500.04
538.42	40961.72
538.59	40921.93
538.75	41294.07
538.92	41095.13
539.09	40926.61
539.26	41134.92
539.43	41031.93
539.60	41247.26
539.77	41095.13
539.94	41399.40
540.11	41212.15
540.28	41659.20
540.44	41415.78
540.61	41558.55
540.78	41661.54
540.95	41493.02
541.12	41546.85
541.29	41553.87
541.46	41820.69
541.62	42162.41
541.79	41654.51
541.96	41652.17
542.13	41689.62
542.30	41710.69
542.47	41926.02
542.63	42164.75
542.80	42188.16
542.97	42834.14
543.14	42527.53
543.31	42401.14
543.48	42848.19
543.64	42855.21
543.81	43044.79
543.98	42909.04
544.15	42829.46
544.32	42873.93
544.48	42691.37
544.65	42754.57
544.82	42508.81
544.99	42277.10
545.16	42944.15
545.32	42995.64
545.49	43524.60
545.66	43262.46
545.83	43000.32
546.00	43033.09
546.16	42953.51
546.33	43005.00
546.50	42487.74
546.67	43323.32
546.83	43133.73
547.00	43192.25
547.17	42939.47
547.34	43070.54
547.50	43594.82
547.67	43784.40
547.84	43400.55
548.00	43445.02
548.17	44009.09
548.34	43693.12
548.51	44016.11
548.67	43838.23
548.84	43775.04
549.01	43370.13
549.18	43728.23
549.34	43585.46
549.51	43695.46
549.68	43997.39
549.84	43917.81
550.01	44074.63
550.18	43833.55
550.34	43576.09
550.51	43845.26
550.68	44306.34
550.84	43430.98
551.01	44034.84
551.18	43910.79
551.34	43613.54
551.51	43735.25
551.68	44130.80
551.84	44341.45
552.01	44088.67
552.18	44278.25
552.34	44449.11
552.51	44177.61
552.68	44364.85
552.84	44790.83
553.01	44641.04
553.18	44596.57
553.34	44399.96
553.51	44126.12
553.67	44673.81
553.84	44715.93
554.01	44559.12
554.17	44404.64
554.34	44573.16
554.51	44851.69
554.67	44722.96
554.84	44603.59
555.00	44334.43
555.17	44797.85
555.33	44786.15
555.50	45083.40
555.67	44212.72
555.83	44678.49
556.00	44891.48
556.16	45064.67
556.33	44879.77
556.50	44837.64
556.66	45291.71
556.83	44968.71
556.99	44809.56
557.16	45233.19
557.32	45275.32
557.49	44814.24
557.65	44865.73
557.82	44919.56
557.98	44739.34
558.15	44828.28
558.32	45104.46
558.48	45172.34
558.65	45303.41
558.81	44949.99
558.98	44914.88
559.14	44926.58
559.31	45226.17
559.47	45010.84
559.64	45212.13
559.80	45207.45
559.97	45298.73
560.13	45404.05
560.30	45378.31
560.46	45340.86
560.63	45170.00
560.79	45584.27
560.96	45366.60
561.12	45193.40
561.29	45811.31
561.45	45354.90
561.61	45308.09
561.78	45565.55
561.94	45106.80
562.11	44940.63
562.27	45071.70
562.44	45572.57
562.60	45635.77
562.77	45965.78
562.93	46007.91
563.10	45780.88
563.26	45593.64
563.42	45387.67
563.59	45289.37
563.75	45659.17
563.92	45797.26
564.08	45603.00
564.24	45635.77
564.41	45961.10
564.57	45577.25
564.74	45469.59
564.90	45886.20
565.07	45525.76
565.23	45748.11
565.39	45743.43
565.56	45783.22
565.72	45729.39
565.88	45741.09
566.05	45682.58
566.21	45603.00
566.38	45743.43
566.54	45563.21
566.70	45993.87
566.87	46052.38
567.03	45968.12
567.19	46092.17
567.36	45731.73
567.52	45738.75
567.68	46525.17
567.85	45942.38
568.01	45649.81
568.17	45907.27
568.34	46398.78
568.50	45965.78
568.66	45923.65
568.83	46106.21
568.99	46031.32
569.15	45930.67
569.32	45940.04
569.48	46054.72
569.64	46148.34
569.81	46038.34
569.97	46024.29
570.13	45815.99
570.30	45673.21
570.46	45427.46
570.62	45654.49
570.78	45897.91
570.95	45762.15
571.11	46602.41
571.27	45717.68
571.43	46190.47
571.60	46127.28
571.76	45684.92
571.92	46141.32
572.09	45996.21
572.25	46017.27
572.41	45947.06
572.57	45998.55
572.74	46375.37
572.90	46057.06
573.06	46127.28
573.22	46122.60
573.38	46178.77
573.55	45851.09
573.71	46298.14
573.87	46155.36
574.03	46078.13
574.20	45614.70
574.36	45935.35
574.52	46218.56
574.68	46068.76
574.84	46328.56
575.01	45869.82
575.17	46232.60
575.33	45752.79
575.49	46000.89
575.65	46520.49
575.82	46562.62
575.98	46085.15
576.14	46473.68
576.30	46197.49
576.46	46150.68
576.62	45848.75
576.79	46157.70
576.95	45860.46
577.11	46321.54
577.27	46045.36
577.43	46326.22
577.59	46237.28
577.75	46536.87
577.92	46096.85
578.08	45933.01
578.24	45846.41
578.40	45928.33
578.56	45815.99
578.72	46007.91
578.88	46298.14
579.04	46190.47
579.21	46005.57
579.37	45897.91
579.53	46124.94
579.69	46087.49
579.85	46078.13
580.01	46279.41
580.17	46361.33
580.33	46307.50
580.49	46653.90
580.65	46082.81
580.82	46286.43
580.98	46054.72
581.14	46218.56
581.30	46405.80
581.46	46160.05
581.62	46199.83
581.78	45998.55
581.94	46553.26
582.10	46579.00
582.26	46366.01
582.42	46148.34
582.58	46223.24
582.74	46127.28
582.90	46197.49
583.06	46532.19
583.22	46382.40
583.38	46646.88
583.54	46876.25
583.70	46511.13
583.86	46333.24
584.02	46089.83
584.18	46302.82
584.34	46066.42
584.50	46515.81
584.66	46225.58
584.82	45993.87
584.98	46593.04
585.14	46204.52
585.30	46183.45
585.46	46380.06
585.62	46040.68
585.78	46225.58
585.94	46124.94
586.10	46487.72
586.26	46167.07
586.42	46623.47
586.58	46387.08
586.74	46340.27
586.90	46234.94
587.06	46576.66
587.22	46717.09
587.38	46480.70
587.54	46328.56
587.70	46206.86
587.86	46714.75
588.02	46358.99
588.18	46663.26
588.34	46436.23
588.49	45965.78
588.65	45668.53
588.81	45771.52
588.97	45633.42
589.13	46286.43
589.29	45717.68
589.45	46459.63
589.61	46291.12
589.77	46789.65
589.93	46251.33
