SpectraSuite Data File
++++++++++++++++++++++++++++++++++++
Date: Fri Oct 25 11:26:23 EDT 2013
User: price-jones
Dark Spectrum Present: No
Reference Spectrum Present: No
Number of Sampled Component Spectra: 1
Spectrometers: USB2+H05261
Integration Time (usec): 100000 (USB2+H05261)
Spectra Averaged: 1 (USB2+H05261)
Boxcar Smoothing: 0 (USB2+H05261)
Correct for Electrical Dark: No (USB2+H05261)
Strobe/Lamp Enabled: No (USB2+H05261)
Correct for Detector Non-linearity: No (USB2+H05261)
Correct for Stray Light: No (USB2+H05261)
Number of Pixels in Processed Spectrum: 2048
>>>>>Begin Processed Spectral Data<<<<<
365.73	224.69
365.92	224.69
366.12	224.69
366.32	126.39
366.52	140.43
366.72	166.18
366.91	222.35
367.11	175.54
367.31	91.28
367.51	210.65
367.70	124.05
367.90	170.86
368.10	107.66
368.30	35.11
368.49	117.03
368.69	154.48
368.89	142.77
369.09	149.79
369.28	154.48
369.48	163.84
369.68	201.29
369.87	191.92
370.07	238.73
370.27	227.03
370.47	229.37
370.66	624.92
370.86	629.60
371.06	674.07
371.25	655.35
371.45	629.60
371.65	753.65
371.84	833.23
372.04	692.80
372.24	685.78
372.44	683.44
372.63	699.82
372.83	674.07
373.03	725.57
373.22	690.46
373.42	786.42
373.62	784.08
373.81	786.42
374.01	833.23
374.21	875.36
374.40	772.38
374.60	854.30
374.79	812.17
374.99	755.99
375.19	828.55
375.38	898.77
375.58	844.93
375.78	837.91
375.97	856.64
376.17	980.68
376.37	875.36
376.56	912.81
376.76	802.80
376.95	877.70
377.15	908.13
377.35	910.47
377.54	908.13
377.74	840.25
377.93	964.30
378.13	882.38
378.33	936.21
378.52	903.45
378.72	1043.88
378.91	978.34
379.11	940.90
379.31	910.47
379.50	938.55
379.70	947.92
379.89	931.53
380.09	971.32
380.28	875.36
380.48	901.11
380.68	894.08
380.87	950.26
381.07	1025.15
381.26	1025.15
381.46	961.96
381.65	1060.26
381.85	1121.12
382.04	1090.69
382.24	1041.54
382.43	1086.01
382.63	1046.22
382.83	1050.90
383.02	1174.95
383.22	1144.52
383.41	1043.88
383.61	1039.20
383.80	1020.47
384.00	1132.82
384.19	1165.59
384.39	1093.03
384.58	1153.88
384.78	1179.63
384.97	1158.57
385.17	1177.29
385.36	1088.35
385.56	1214.74
385.75	1214.74
385.95	1107.07
386.14	1137.50
386.34	1144.52
386.53	1146.86
386.72	1212.40
386.92	1266.23
387.11	1261.55
387.31	1214.74
387.50	1228.78
387.70	1203.04
387.89	1294.32
388.09	1207.72
388.28	1310.70
388.48	1366.87
388.67	1327.08
388.86	1331.76
389.06	1364.53
389.25	1350.49
389.45	1322.40
389.64	1308.36
389.84	1399.64
390.03	1418.36
390.22	1341.13
390.42	1390.28
390.61	1376.24
390.81	1320.06
391.00	1387.94
391.19	1409.00
391.39	1392.62
391.58	1474.54
391.78	1427.73
391.97	1418.36
392.16	1474.54
392.36	1549.43
392.55	1500.28
392.75	1563.48
392.94	1437.09
393.13	1479.22
393.33	1462.83
393.52	1533.05
393.71	1509.65
393.91	1629.01
394.10	1570.50
394.29	1418.36
394.49	1671.14
394.68	1664.12
394.88	1652.42
395.07	1626.67
395.26	1671.14
395.46	1717.95
395.65	1750.72
395.84	1614.97
396.04	1788.17
396.23	1757.74
396.42	1755.40
396.62	1816.26
396.81	1701.57
397.00	1783.49
397.19	1820.94
397.39	1792.85
397.58	1820.94
397.77	1809.23
397.97	1844.34
398.16	1818.60
398.35	1902.86
398.55	1942.64
398.74	1881.79
398.93	1881.79
399.12	1937.96
399.32	1877.11
399.51	1893.49
399.70	2092.44
399.90	1937.96
400.09	2026.90
400.28	2036.27
400.47	1954.35
400.67	1989.46
400.86	2045.63
401.05	2136.91
401.24	2132.23
401.44	2143.93
401.63	2115.84
401.82	2183.72
402.01	2019.88
402.21	2150.95
402.40	2174.36
402.59	2223.51
402.78	2263.30
402.97	2155.63
403.17	2232.87
403.36	2193.08
403.55	2207.13
403.74	2340.54
403.93	2370.96
404.13	2314.79
404.32	2284.36
404.51	2300.75
404.70	2237.55
404.89	2319.47
405.09	2417.77
405.28	2448.20
405.47	2473.95
405.66	2450.54
405.85	2480.97
406.05	2567.57
406.24	2502.03
406.43	2590.97
406.62	2565.23
406.81	2637.78
407.00	2583.95
407.20	2590.97
407.39	2602.68
407.58	2719.70
407.77	2757.15
407.96	2743.11
408.15	2761.83
408.34	2658.85
408.54	2712.68
408.73	2827.37
408.92	2729.06
409.11	2834.39
409.30	2827.37
409.49	2937.37
409.68	2876.52
409.87	2902.26
410.07	2970.14
410.26	3042.70
410.45	3138.66
410.64	3070.78
410.83	3009.93
411.02	2988.86
411.21	3148.02
411.40	2935.03
411.59	3164.40
411.78	3115.25
411.98	3148.02
412.17	3180.79
412.36	3267.39
412.55	3307.18
412.74	3398.46
412.93	3351.65
413.12	3358.67
413.31	3524.85
413.50	3456.97
413.69	3452.29
413.88	3651.24
414.07	3616.13
414.26	3595.06
414.45	3578.68
414.64	3599.74
414.83	3637.19
415.02	3782.31
415.22	3847.84
415.41	3719.11
415.60	3838.48
415.79	3817.41
415.98	4009.34
416.17	3983.59
416.36	4039.76
416.55	3911.04
416.74	4058.49
416.93	4074.87
417.12	4205.94
417.31	4245.73
417.50	4028.06
417.69	4184.88
417.88	4259.78
418.07	4142.75
418.26	4315.95
418.45	4353.40
418.64	4388.50
418.83	4346.37
419.02	4280.84
419.21	4477.44
419.39	4475.10
419.58	4568.73
419.77	4400.21
419.96	4484.47
420.15	4463.40
420.34	4444.68
420.53	4615.54
420.72	4697.46
420.91	4650.64
421.10	4772.35
421.29	4784.06
421.48	4578.09
421.67	4779.37
421.86	4863.63
422.05	4648.30
422.24	4777.03
422.43	4830.87
422.61	4819.16
422.80	4889.38
422.99	4999.38
423.18	4987.68
423.37	5018.11
423.56	4973.64
423.75	4978.32
423.94	4912.78
424.13	4578.09
424.32	4699.80
424.50	4802.78
424.69	5125.77
424.88	4912.78
425.07	4940.87
425.26	4765.33
425.45	5046.20
425.64	4919.81
425.83	4945.55
426.01	5015.77
426.20	4924.49
426.39	4957.25
426.58	4975.98
426.77	4964.28
426.96	5252.16
427.15	4950.23
427.33	5165.56
427.52	5027.47
427.71	5242.80
427.90	5062.58
428.09	5266.21
428.28	5315.36
428.46	5069.60
428.65	5406.64
428.84	5535.37
429.03	5467.49
429.22	5263.86
429.40	5430.04
429.59	5453.45
429.78	5376.21
429.97	5277.91
430.16	5425.36
430.34	5563.45
430.53	5554.09
430.72	5526.00
430.91	5593.88
431.10	5589.20
431.28	5785.80
431.47	5802.19
431.66	5727.29
431.85	5841.98
432.03	5891.13
432.22	5991.77
432.41	5898.15
432.60	5724.95
432.79	5795.17
432.97	5895.81
433.16	6064.33
433.35	5806.87
433.54	6073.69
433.72	5959.00
433.91	6066.67
434.10	6167.31
434.28	6069.01
434.47	6197.74
434.66	6310.08
434.85	6143.91
435.03	6282.00
435.22	6230.51
435.41	6551.16
435.59	6352.21
435.78	6661.16
435.97	6338.17
436.16	6366.26
436.34	6298.38
436.53	6487.96
436.72	6698.61
436.90	6499.67
437.09	6539.46
437.28	6377.96
437.46	6513.71
437.65	6452.86
437.84	6609.67
438.02	6663.51
438.21	6801.60
438.40	6609.67
438.58	6848.41
438.77	6970.12
438.96	6764.15
439.14	7197.15
439.33	7150.34
439.52	7370.35
439.70	7133.95
439.89	7417.16
440.08	7482.69
440.26	7304.81
440.45	7307.15
440.63	7363.33
440.82	7520.14
441.01	7496.74
441.19	7545.89
441.38	7672.28
441.57	7793.98
441.75	7707.38
441.94	7936.76
442.12	7836.11
442.31	8210.60
442.50	7946.12
442.68	7702.70
442.87	7805.69
443.05	8154.43
443.24	8142.72
443.43	8215.28
443.61	8074.85
443.80	8348.69
443.98	8189.53
444.17	7772.92
444.35	8077.19
444.54	8259.75
444.73	8205.92
444.91	8102.93
445.10	8255.07
445.28	8126.34
445.47	8177.83
445.65	8264.43
445.84	8219.96
446.02	8278.47
446.21	8451.67
446.39	8397.84
446.58	8428.27
446.77	8402.52
446.95	8201.24
447.14	8285.50
447.32	8325.29
447.51	8381.46
447.69	8458.70
447.88	8409.54
448.06	8472.74
448.25	8557.00
448.43	8500.83
448.62	8475.08
448.80	8454.02
448.99	8648.28
449.17	8643.60
449.36	8594.45
449.54	8872.97
449.73	9025.11
449.91	9027.45
450.10	8968.93
450.28	9008.72
450.46	8994.68
450.65	8933.82
450.83	9011.06
451.02	8758.28
451.20	9060.21
451.39	8905.74
451.57	9273.20
451.76	9055.53
451.94	9142.13
452.13	9434.70
452.31	9305.97
452.49	9095.32
452.68	9298.95
452.86	9516.62
453.05	9301.29
453.23	9490.87
453.42	9254.48
453.60	9214.69
453.78	9453.42
453.97	9350.44
454.15	9259.16
454.34	9301.29
454.52	9659.39
454.70	9699.18
454.89	9617.26
455.07	9708.54
455.26	9774.08
455.44	9949.62
455.62	9832.59
455.81	9724.93
455.99	9970.68
456.17	9940.26
456.36	9853.66
456.54	10073.67
456.73	10244.52
456.91	10176.65
457.09	10253.89
457.28	10476.24
457.46	10068.98
457.64	10342.83
457.83	10331.12
458.01	10410.70
458.19	10684.55
458.38	10303.04
458.56	10633.05
458.74	10621.35
458.93	10656.46
459.11	10721.99
459.29	10630.71
459.48	10710.29
459.66	10824.98
459.84	10815.62
460.03	10988.82
460.21	10899.87
460.39	10911.58
460.57	10761.78
460.76	11091.80
460.94	11138.61
461.12	11213.51
461.31	11080.10
461.49	11073.07
461.67	11068.39
461.85	11276.70
462.04	11157.33
462.22	11466.28
462.40	11522.46
462.59	11435.86
462.77	11552.88
462.95	11550.54
463.13	11335.21
463.32	11433.52
463.50	11630.12
463.68	11698.00
463.86	11859.49
464.05	11477.99
464.23	11485.01
464.41	11810.34
464.59	11688.64
464.78	12004.61
464.96	12009.29
465.14	12053.76
465.32	11758.85
465.50	11955.46
465.69	12241.00
465.87	12131.00
466.05	12226.96
466.23	12126.32
466.41	12348.67
466.60	12423.56
466.78	12138.02
466.96	12161.42
467.14	12264.41
467.32	12131.00
467.51	12493.78
467.69	12159.08
467.87	12241.00
468.05	12704.43
468.23	12439.95
468.41	12568.68
468.60	12547.61
468.78	12678.68
468.96	12201.21
469.14	12753.58
469.32	12999.34
469.50	12702.09
469.69	12957.21
469.87	13107.00
470.05	13085.94
470.23	13266.16
470.41	13078.91
470.59	13303.60
470.77	13034.44
470.95	13224.03
471.14	13446.38
471.32	13153.81
471.50	13521.27
471.68	13722.56
471.86	13497.87
472.04	13577.45
472.22	13862.99
472.40	13671.07
472.58	13825.54
472.77	13872.36
472.95	14157.90
473.13	14661.12
473.31	14008.11
473.49	14108.75
473.67	14143.86
473.85	14073.64
474.03	14516.00
474.21	14347.48
474.39	14846.02
474.57	14504.30
474.75	14717.29
474.93	15108.16
475.12	14766.44
475.30	14850.70
475.48	14941.98
475.66	14881.13
475.84	15089.43
476.02	15309.44
476.20	15494.35
476.38	15410.09
476.56	15964.79
476.74	15789.25
476.92	15840.75
477.10	15562.22
477.28	16177.78
477.46	15957.77
477.64	16191.83
477.82	16402.47
478.00	16947.82
478.18	16917.39
478.36	16774.62
478.54	17186.55
478.72	16861.22
478.90	17209.96
479.08	17596.15
479.26	17476.78
479.44	17532.95
479.62	17640.62
479.80	17937.87
479.98	17994.04
480.16	18314.69
480.34	18040.85
480.52	18466.83
480.70	18361.50
480.88	18511.30
481.06	18658.75
481.24	18661.09
481.41	18771.10
481.59	19321.12
481.77	19159.63
481.95	19262.61
482.13	19566.88
482.31	19501.34
482.49	19955.41
482.67	20149.67
482.85	20320.53
483.03	20255.00
483.21	20634.16
483.39	20905.66
483.57	20758.21
483.74	20428.20
483.92	21366.75
484.10	21060.14
484.28	21326.96
484.46	21776.34
484.64	22272.54
484.82	21874.65
485.00	22082.95
485.18	22438.72
485.35	22691.49
485.53	22787.46
485.71	23016.83
485.89	23288.33
486.07	23454.51
486.25	23229.82
486.43	23613.66
486.61	23571.54
486.78	23981.13
486.96	24294.76
487.14	24320.51
487.32	24545.20
487.50	24608.39
487.68	24847.13
487.85	25034.37
488.03	25532.90
488.21	25673.34
488.39	25586.74
488.57	25696.74
488.75	26010.37
488.92	26345.07
489.10	26586.15
489.28	26677.43
489.46	26979.36
489.64	26967.65
489.81	27484.91
489.99	26965.31
490.17	27510.66
490.35	27796.20
490.53	27892.16
490.70	28222.18
490.88	28046.64
491.06	28783.91
491.24	28629.43
491.41	28580.28
491.59	29156.05
491.77	29076.48
491.95	29071.79
492.13	29582.03
492.30	29465.00
492.48	29806.72
492.66	30335.68
492.84	30221.00
493.01	30239.72
493.19	30136.74
493.37	31150.19
493.54	30768.68
493.72	31304.67
493.90	31166.57
494.08	31850.01
494.25	31812.56
494.43	31510.63
494.61	32126.19
494.79	32271.31
494.96	32364.93
495.14	32222.16
495.32	33191.14
495.49	33099.86
495.67	33200.50
495.85	33420.51
496.02	33259.01
496.20	33376.04
496.38	33991.60
496.55	34110.97
496.73	34934.84
496.91	34040.75
497.09	34799.08
497.26	34543.97
497.44	34930.16
497.62	34953.56
497.79	35529.33
497.97	35110.38
498.14	35775.09
498.32	35557.42
498.50	35723.60
498.67	36676.19
498.85	36198.73
499.03	36191.70
499.20	36498.31
499.38	36994.51
499.56	37207.50
499.73	36383.63
499.91	36980.46
500.08	36957.06
500.26	36978.12
500.44	37539.85
500.61	37483.68
500.79	37354.95
500.97	37844.12
501.14	38349.68
501.32	37579.64
501.49	38366.06
501.67	38455.00
501.84	38810.76
502.02	38625.86
502.20	39124.40
502.37	39002.69
502.55	38983.96
502.72	39218.02
502.90	39526.97
503.07	39641.65
503.25	39159.50
503.43	39763.36
503.60	39828.90
503.78	39459.09
503.95	40306.37
504.13	40727.66
504.30	40376.58
504.48	40170.61
504.65	40222.11
504.83	40575.53
505.01	40788.52
505.18	41123.21
505.36	41265.99
505.53	40713.62
505.71	41069.38
505.88	41579.62
506.06	41074.06
506.23	41132.57
506.41	41731.75
506.58	41940.06
506.76	41865.16
506.93	42277.10
507.11	42249.01
507.28	42377.74
507.46	42312.20
507.63	42780.31
507.81	43133.73
507.98	42597.75
508.16	43096.28
508.33	42983.94
508.50	43002.66
508.68	43414.60
508.85	43021.39
509.03	43225.01
509.20	43885.04
509.38	43765.68
509.55	44091.01
509.73	44231.44
509.90	44186.97
510.08	44383.58
510.25	44343.79
510.42	44418.69
510.60	44933.60
510.77	44797.85
510.95	44971.05
511.12	44720.62
511.30	44942.97
511.47	45097.44
511.64	45069.36
511.82	45347.88
511.99	45553.85
512.17	45556.19
512.34	45378.31
512.51	46099.19
512.69	46298.14
512.86	46258.35
513.04	46714.75
513.21	46628.15
513.38	46396.44
513.56	46892.63
513.73	46768.58
513.90	46705.39
514.08	46092.17
514.25	46642.20
514.43	47159.45
514.60	47288.18
514.77	47044.77
514.95	47571.39
515.12	47206.26
515.29	47342.02
515.47	47728.20
515.64	47688.42
515.81	47767.99
515.99	47583.09
516.16	48144.82
516.33	48144.82
516.51	48292.27
516.68	48093.33
516.85	48336.74
517.03	48577.82
517.20	48364.83
517.37	48830.60
517.54	48701.87
517.72	48446.75
517.89	48608.25
518.06	48924.22
518.24	48985.07
518.41	48615.27
518.58	49207.42
518.75	49036.56
518.93	49492.97
519.10	49223.81
519.27	49338.49
519.45	49338.49
519.62	49492.97
519.79	49815.96
519.96	49212.10
520.14	49956.39
520.31	49731.70
520.48	49951.71
520.65	49766.81
520.83	50244.28
521.00	50382.37
521.17	50335.56
521.34	50272.37
521.52	50480.67
521.69	50595.36
521.86	50691.32
522.03	50993.25
522.20	51007.29
522.38	51388.80
522.55	51147.73
522.72	50988.57
522.89	51063.47
523.07	51407.53
523.24	51320.93
523.41	51515.19
523.58	51353.69
523.75	51332.63
523.92	51423.91
524.10	51664.99
524.27	51826.48
524.44	51760.95
524.61	51760.95
524.78	52154.16
524.96	52034.79
525.13	51885.00
525.30	52435.02
525.47	52193.95
525.64	51948.19
525.81	52303.95
525.98	52563.75
526.16	52205.65
526.33	52402.25
526.50	53043.56
526.67	52753.33
526.84	52767.38
527.01	52589.50
527.18	52549.71
527.36	52966.32
527.53	52807.17
527.70	53141.86
527.87	52821.21
528.04	52758.02
528.21	53263.57
528.38	53118.46
528.55	53207.40
528.72	53310.38
528.89	53329.11
529.07	52816.53
529.24	53207.40
529.41	53525.71
529.58	53345.49
529.75	53446.13
529.92	53567.84
530.09	53614.65
530.26	53736.36
530.43	53616.99
530.60	53752.74
530.77	53544.44
530.94	53893.18
531.11	53778.49
531.28	53914.24
531.46	53860.41
531.63	54267.66
531.80	54155.32
531.97	54129.57
532.14	54071.06
532.31	54363.62
532.48	54525.12
532.65	54372.99
532.82	54216.17
532.99	54344.90
533.16	54550.87
533.33	54890.24
533.50	54703.00
533.67	54387.03
533.84	54588.31
534.01	54787.26
534.18	55056.42
534.35	55110.25
534.52	54958.12
534.69	55079.83
534.86	54993.23
535.03	55089.19
535.20	55206.22
535.37	55058.76
535.54	55269.41
535.71	54976.84
535.88	55243.66
536.05	55248.35
536.22	55395.80
536.38	55341.97
536.55	55107.91
536.72	55241.32
536.89	55224.94
537.06	55325.58
537.23	55554.96
537.40	55346.65
537.57	55608.79
537.74	55573.68
537.91	55489.42
538.08	55873.27
538.25	55449.63
538.42	55697.73
538.59	56231.37
538.75	55774.97
538.92	55997.32
539.09	55847.52
539.26	56088.60
539.43	55891.99
539.60	56182.22
539.77	56023.06
539.94	56119.02
540.11	56011.36
540.28	56151.79
540.44	56257.12
540.61	56135.41
540.78	56165.84
540.95	56301.59
541.12	56147.11
541.29	56491.17
541.46	56647.99
541.62	56435.00
541.79	56402.23
541.96	56285.20
542.13	56381.16
542.30	56432.66
542.47	56484.15
542.63	56662.03
542.80	56526.28
542.97	56938.21
543.14	56975.66
543.31	56952.26
543.48	56736.93
543.64	57268.23
543.81	57205.03
543.98	57141.84
544.15	57174.61
544.32	57116.09
544.48	57148.86
544.65	56956.94
544.82	57223.76
544.99	57415.68
545.16	57319.72
545.32	57219.08
545.49	57628.67
545.66	57586.54
545.83	57415.68
546.00	57490.58
546.16	57387.60
546.33	57361.85
546.50	57207.37
546.67	57572.50
546.83	57371.21
547.00	57542.07
547.17	57591.22
547.34	57656.76
547.50	57757.40
547.67	57862.72
547.84	57954.00
548.00	57925.92
548.17	58082.73
548.34	57977.41
548.51	58131.89
548.67	58021.88
548.84	58169.33
549.01	57799.53
549.18	57991.45
549.34	58071.03
549.51	58138.91
549.68	58064.01
549.84	58021.88
550.01	58344.87
550.18	58150.61
550.34	58438.50
550.51	58246.57
550.68	58150.61
550.84	58134.23
551.01	58307.43
551.18	58202.10
551.34	58480.63
551.51	58562.54
551.68	58185.72
551.84	58408.07
552.01	58204.44
552.18	58459.56
552.34	58372.96
552.51	58609.35
552.68	58260.62
552.84	58487.65
553.01	58880.86
553.18	58665.53
553.34	58733.40
553.51	58590.63
553.67	58609.35
553.84	58810.64
554.01	58717.02
554.17	58894.90
554.34	58927.67
554.51	58805.96
554.67	58658.51
554.84	58873.84
555.00	58838.73
555.17	58794.26
555.33	58873.84
555.50	59032.99
555.67	58953.41
555.83	59196.83
556.00	59016.61
556.16	59245.98
556.33	58972.14
556.50	59131.29
556.66	59161.72
556.83	58859.79
556.99	59227.26
557.16	59180.45
557.32	59341.94
557.49	59576.00
557.65	59210.87
557.82	59299.81
557.98	59393.43
558.15	59341.94
558.32	59360.67
558.48	59126.61
558.65	59386.41
558.81	59208.53
558.98	59414.50
559.14	59398.12
559.31	59393.43
559.47	59344.28
559.64	59686.00
559.80	59583.02
559.97	59367.69
560.13	59440.24
560.30	59648.55
560.46	59735.15
560.63	59662.60
560.79	59625.15
560.96	59634.51
561.12	59590.04
561.29	59604.08
561.45	59674.30
561.61	59660.26
561.78	59545.57
561.94	59695.36
562.11	59540.89
562.27	59650.89
562.44	59849.84
562.60	59948.14
562.77	59831.11
562.93	59688.34
563.10	59941.12
563.26	59728.13
563.42	60172.83
563.59	59772.60
563.75	59765.58
563.92	59943.46
564.08	59835.80
564.24	59784.30
564.41	59983.25
564.57	59959.84
564.74	59856.86
564.90	59924.74
565.07	59798.35
565.23	59760.90
565.39	59901.33
565.56	60107.30
565.72	60006.65
565.88	60018.36
566.05	59920.05
566.21	59976.23
566.38	60034.74
566.54	59985.59
566.70	60107.30
566.87	60252.41
567.03	60219.64
567.19	60243.05
567.36	59924.74
567.52	60027.72
567.68	60425.61
567.85	60182.19
568.01	60266.45
568.17	60224.32
568.34	60210.28
568.50	60030.06
568.66	60275.82
568.83	60280.50
568.99	60025.38
569.15	60343.69
569.32	60416.25
569.48	59891.97
569.64	60399.86
569.81	60165.81
569.97	60172.83
570.13	60257.09
570.30	60198.58
570.46	60446.68
570.62	60404.55
570.78	60376.46
570.95	60388.16
571.11	60193.90
571.27	60170.49
571.43	60280.50
571.60	60540.30
571.76	60287.52
571.92	60350.71
572.09	60481.78
572.25	60477.10
572.41	60416.25
572.57	60364.76
572.74	60608.17
572.90	60418.59
573.06	60463.06
573.22	60687.75
573.38	60446.68
573.55	60334.33
573.71	60786.05
573.87	60488.80
574.03	60521.57
574.20	60596.47
574.36	60528.59
574.52	60729.88
574.68	60643.28
574.84	60647.96
575.01	60699.45
575.17	60619.88
575.33	60514.55
575.49	60339.01
575.65	60570.72
575.82	60666.69
575.98	60636.26
576.14	60619.88
576.30	60722.86
576.46	60493.49
576.62	60601.15
576.79	60516.89
576.95	60449.02
577.11	60500.51
577.27	60669.03
577.43	60474.76
577.59	60430.29
577.75	60589.45
577.92	60589.45
578.08	60449.02
578.24	60669.03
578.40	60807.12
578.56	60755.63
578.72	60608.17
578.88	60753.29
579.04	60931.17
579.21	60647.96
579.37	60874.99
579.53	60879.67
579.69	60472.42
579.85	60563.70
580.01	60669.03
580.17	60706.47
580.33	60811.80
580.49	60608.17
580.65	60811.80
580.82	60708.82
580.98	60603.49
581.14	60552.00
581.30	60917.12
581.46	60652.64
581.62	60598.81
581.78	60570.72
581.94	60811.80
582.10	60676.05
582.26	60779.03
582.42	60807.12
582.58	60837.54
582.74	60818.82
582.90	60830.52
583.06	60877.33
583.22	60512.21
583.38	60741.58
583.54	60645.62
583.70	60966.27
583.86	60804.78
584.02	60596.47
584.18	60821.16
584.34	60797.76
584.50	61041.17
584.66	60669.03
584.82	60711.16
584.98	60940.53
585.14	61064.58
585.30	60552.00
585.46	60900.74
585.62	60764.99
585.78	60865.63
585.94	60601.15
586.10	60797.76
586.26	60837.54
586.42	60942.87
586.58	60942.87
586.74	60739.24
586.90	60882.02
587.06	60870.31
587.22	61006.06
587.38	60715.84
587.54	60987.34
587.70	61085.64
587.86	60757.97
588.02	60917.12
588.18	60746.26
588.34	60860.95
588.49	60898.40
