SpectraSuite Data File
++++++++++++++++++++++++++++++++++++
Date: Fri Oct 25 11:25:55 EDT 2013
User: price-jones
Dark Spectrum Present: No
Reference Spectrum Present: No
Number of Sampled Component Spectra: 1
Spectrometers: USB2+H05261
Integration Time (usec): 100000 (USB2+H05261)
Spectra Averaged: 1 (USB2+H05261)
Boxcar Smoothing: 0 (USB2+H05261)
Correct for Electrical Dark: No (USB2+H05261)
Strobe/Lamp Enabled: No (USB2+H05261)
Correct for Detector Non-linearity: No (USB2+H05261)
Correct for Stray Light: No (USB2+H05261)
Number of Pixels in Processed Spectrum: 2048
>>>>>Begin Processed Spectral Data<<<<<
365.73	255.12
365.92	255.12
366.12	255.12
366.32	107.66
366.52	105.32
366.72	177.88
366.91	126.39
367.11	196.60
367.31	159.16
367.51	117.03
367.70	166.18
367.90	126.39
368.10	168.52
368.30	163.84
368.49	154.48
368.69	173.20
368.89	140.43
369.09	140.43
369.28	166.18
369.48	187.24
369.68	159.16
369.87	283.20
370.07	191.92
370.27	208.31
370.47	313.63
370.66	615.56
370.86	564.07
371.06	650.67
371.25	753.65
371.45	608.54
371.65	671.73
371.84	709.18
372.04	643.65
372.24	697.48
372.44	702.16
372.63	786.42
372.83	734.93
373.03	713.86
373.22	774.72
373.42	816.85
373.62	844.93
373.81	774.72
374.01	772.38
374.21	781.74
374.40	760.67
374.60	795.78
374.79	814.51
374.99	786.42
375.19	800.46
375.38	856.64
375.58	763.01
375.78	917.49
375.97	873.02
376.17	912.81
376.37	866.00
376.56	908.13
376.76	840.25
376.95	847.27
377.15	884.72
377.35	873.02
377.54	889.40
377.74	828.55
377.93	861.32
378.13	938.55
378.33	954.94
378.52	919.83
378.72	976.00
378.91	917.49
379.11	947.92
379.31	912.81
379.50	940.90
379.70	912.81
379.89	959.62
380.09	973.66
380.28	880.04
380.48	943.24
380.68	929.19
380.87	976.00
381.07	1083.67
381.26	1055.58
381.46	1046.22
381.65	980.68
381.85	1060.26
382.04	1067.28
382.24	1064.94
382.43	1067.28
382.63	1074.31
382.83	1125.80
383.02	1050.90
383.22	1128.14
383.41	1057.92
383.61	1125.80
383.80	1167.93
384.00	1043.88
384.19	1181.97
384.39	1160.91
384.58	1128.14
384.78	1135.16
384.97	1163.25
385.17	1193.67
385.36	1125.80
385.56	1212.40
385.75	1074.31
385.95	1217.08
386.14	1273.25
386.34	1172.61
386.53	1142.18
386.72	1165.59
386.92	1308.36
387.11	1207.72
387.31	1249.85
387.50	1205.38
387.70	1296.66
387.89	1331.76
388.09	1181.97
388.28	1263.89
388.48	1331.76
388.67	1308.36
388.86	1343.47
389.06	1341.13
389.25	1341.13
389.45	1334.11
389.64	1345.81
389.84	1317.72
390.03	1355.17
390.22	1409.00
390.42	1329.42
390.61	1385.60
390.81	1394.96
391.00	1357.51
391.19	1362.19
391.39	1411.34
391.58	1399.64
391.78	1394.96
391.97	1535.39
392.16	1507.30
392.36	1483.90
392.55	1493.26
392.75	1544.75
392.94	1612.63
393.13	1605.61
393.33	1509.65
393.52	1479.22
393.71	1528.37
393.91	1638.38
394.10	1523.69
394.29	1533.05
394.49	1629.01
394.68	1626.67
394.88	1589.22
395.07	1610.29
395.26	1682.85
395.46	1774.13
395.65	1696.89
395.84	1657.10
396.04	1792.85
396.23	1666.46
396.42	1682.85
396.62	1792.85
396.81	1788.17
397.00	1746.04
397.19	1790.51
397.39	1755.40
397.58	1863.07
397.77	1844.34
397.97	1818.60
398.16	1928.60
398.35	1884.13
398.55	1886.47
398.74	1909.88
398.93	1956.69
399.12	1942.64
399.32	1926.26
399.51	1956.69
399.70	2066.69
399.90	2017.54
400.09	1956.69
400.28	2076.06
400.47	2043.29
400.67	2101.80
400.86	2083.08
401.05	2064.35
401.24	2045.63
401.44	2136.91
401.63	2157.97
401.82	2193.08
402.01	2174.36
402.21	2157.97
402.40	2129.89
402.59	2134.57
402.78	2275.00
402.97	2153.29
403.17	2298.41
403.36	2216.49
403.55	2303.09
403.74	2401.39
403.93	2300.75
404.13	2333.51
404.32	2415.43
404.51	2342.88
404.70	2452.88
404.89	2354.58
405.09	2569.91
405.28	2450.54
405.47	2424.80
405.66	2588.63
405.85	2473.95
406.05	2513.74
406.24	2621.40
406.43	2579.27
406.62	2654.17
406.81	2649.49
407.00	2597.99
407.20	2553.52
407.39	2705.66
407.58	2635.44
407.77	2719.70
407.96	2672.89
408.15	2775.88
408.34	2806.30
408.54	2834.39
408.73	2825.03
408.92	2679.91
409.11	2834.39
409.30	2965.46
409.49	2972.48
409.68	2979.50
409.87	2972.48
410.07	3000.57
410.26	2953.76
410.45	2911.63
410.64	3012.27
410.83	3143.34
411.02	3206.53
411.21	3155.04
411.40	3171.43
411.59	3335.26
411.78	3208.87
411.98	3213.56
412.17	3255.69
412.36	3325.90
412.55	3300.16
412.74	3297.81
412.93	3487.40
413.12	3368.03
413.31	3407.82
413.50	3428.88
413.69	3496.76
413.88	3592.72
414.07	3646.55
414.26	3660.60
414.45	3660.60
414.64	3651.24
414.83	3623.15
415.02	3737.84
415.22	3836.14
415.41	3737.84
415.60	3829.12
415.79	3955.51
415.98	3925.08
416.17	4098.28
416.36	3889.97
416.55	3892.31
416.74	4152.11
416.93	4227.01
417.12	4306.59
417.31	4170.83
417.50	4088.92
417.69	4259.78
417.88	4332.33
418.07	4348.72
418.26	4159.13
418.45	4475.10
418.64	4547.66
418.83	4486.81
419.02	4435.32
419.21	4526.60
419.39	4388.50
419.58	4510.21
419.77	4599.15
419.96	4552.34
420.15	4489.15
420.34	4594.47
420.53	4648.30
420.72	4629.58
420.91	4716.18
421.10	4823.84
421.29	4805.12
421.48	4674.05
421.67	4681.07
421.86	4826.18
422.05	4788.74
422.24	4844.91
422.43	4807.46
422.61	4936.19
422.80	4863.63
422.99	4952.57
423.18	4882.36
423.37	4959.60
423.56	5013.43
423.75	4922.15
423.94	4833.21
424.13	4550.00
424.32	4774.69
424.50	4786.40
424.69	5025.13
424.88	5020.45
425.07	4940.87
425.26	5043.85
425.45	4891.72
425.64	5020.45
425.83	4903.42
426.01	4968.96
426.20	5121.09
426.39	5062.58
426.58	4966.62
426.77	5078.96
426.96	5078.96
427.15	4966.62
427.33	5203.01
427.52	5043.85
427.71	5465.15
427.90	5315.36
428.09	5418.34
428.28	5392.59
428.46	5341.10
428.65	5366.85
428.84	5322.38
429.03	5640.69
429.22	5364.51
429.40	5350.46
429.59	5511.96
429.78	5427.70
429.97	5397.28
430.16	5526.00
430.34	5579.84
430.53	5664.10
430.72	5605.58
430.91	5584.52
431.10	5659.42
431.28	5722.61
431.47	5682.82
431.66	5858.36
431.85	5769.42
432.03	5825.59
432.22	5886.45
432.41	5909.85
432.60	5820.91
432.79	5959.00
432.97	5884.11
433.16	5907.51
433.35	5916.87
433.54	6101.78
433.72	5914.53
433.91	6150.93
434.10	6069.01
434.28	6033.90
434.47	6207.10
434.66	6193.06
434.85	6282.00
435.03	6307.74
435.22	6263.27
435.41	6438.81
435.59	6466.90
435.78	6408.39
435.97	6408.39
436.16	6392.00
436.34	6537.12
436.53	6682.23
436.72	6733.72
436.90	6436.47
437.09	6729.04
437.28	6410.73
437.46	6555.84
437.65	6654.14
437.84	6743.08
438.02	6925.65
438.21	6726.70
438.40	6693.93
438.58	7117.57
438.77	7030.97
438.96	7066.08
439.14	6960.75
439.33	7166.72
439.52	7194.81
439.70	7232.26
439.89	7227.57
440.08	7382.05
440.26	7225.23
440.45	7431.20
440.63	7424.18
440.82	7485.03
441.01	7400.77
441.19	7611.42
441.38	7674.62
441.57	7761.22
441.75	7658.23
441.94	8128.68
442.12	8044.42
442.31	7847.82
442.50	8011.65
442.68	7857.18
442.87	8116.98
443.05	8177.83
443.24	8215.28
443.43	8093.57
443.61	8231.66
443.80	8524.23
443.98	7920.37
444.17	7808.03
444.35	8320.60
444.54	8241.03
444.73	8369.76
444.91	8051.44
445.10	8383.80
445.28	8257.41
445.47	8128.68
445.65	8297.20
445.84	8454.02
446.02	8542.96
446.21	8360.39
446.39	8308.90
446.58	8360.39
446.77	8259.75
446.95	8259.75
447.14	8259.75
447.32	8489.12
447.51	8336.99
447.69	8365.07
447.88	8484.44
448.06	8264.43
448.25	8526.57
448.43	8533.59
448.62	8477.42
448.80	8580.40
448.99	8732.54
449.17	8744.24
449.36	8606.15
449.54	8879.99
449.73	8952.55
449.91	9018.08
450.10	8940.85
450.28	9123.41
450.46	9226.39
450.65	8973.61
450.83	9249.80
451.02	9226.39
451.20	9364.48
451.39	9025.11
451.57	9167.88
451.76	8982.98
451.94	9186.60
452.13	9277.88
452.31	9228.73
452.49	9202.99
452.68	9486.19
452.86	9334.06
453.05	9366.82
453.23	9558.75
453.42	9273.20
453.60	9252.14
453.78	9603.22
453.97	9263.84
454.15	9504.92
454.34	9317.67
454.52	9832.59
454.70	9738.97
454.89	9811.53
455.07	9692.16
455.26	9987.07
455.44	10008.13
455.62	9837.27
455.81	9834.93
455.99	9774.08
456.17	9839.61
456.36	10263.25
456.54	10085.37
456.73	10195.37
456.91	10490.28
457.09	10396.66
457.28	10663.48
457.46	10384.96
457.64	10518.37
457.83	10399.00
458.01	10565.18
458.19	10794.55
458.38	10455.17
458.56	10633.05
458.74	10490.28
458.93	10597.95
459.11	10857.75
459.29	10801.57
459.48	10642.42
459.66	10670.50
459.84	11000.52
460.03	10960.73
460.21	10956.05
460.39	10958.39
460.57	11059.03
460.76	11096.48
460.94	10972.43
461.12	10998.18
461.31	11178.40
461.49	10977.11
461.67	10988.82
461.85	11438.20
462.04	11316.49
462.22	11655.87
462.40	11414.79
462.59	11248.61
462.77	11641.82
462.95	11683.95
463.13	11459.26
463.32	11644.17
463.50	11686.29
463.68	11646.51
463.86	11889.92
464.05	11545.86
464.23	11690.98
464.41	12016.31
464.59	11351.60
464.78	11985.88
464.96	11850.13
465.14	11784.60
465.32	12123.98
465.50	12093.55
465.69	12327.60
465.87	12257.39
466.05	12140.36
466.23	12231.64
466.41	12229.30
466.60	12360.37
466.78	11990.56
466.96	12365.05
467.14	12182.49
467.32	12255.04
467.51	12643.57
467.69	12177.81
467.87	12283.13
468.05	12725.49
468.23	12304.20
468.41	12449.31
468.60	12575.70
468.78	12748.90
468.96	12655.28
469.14	12896.35
469.32	12807.41
469.50	12868.27
469.69	13095.30
469.87	13067.21
470.05	13029.76
470.23	13338.71
470.41	13249.77
470.59	13429.99
470.77	13064.87
470.95	13259.13
471.14	13556.38
471.32	13109.34
471.50	13575.11
471.68	13664.05
471.86	13818.52
472.04	13860.65
472.22	14087.68
472.40	13837.25
472.58	13724.90
472.77	13996.40
472.95	14185.99
473.13	14775.80
473.31	14036.19
473.49	14122.79
473.67	14054.92
473.85	14272.59
474.03	14794.53
474.21	14551.11
474.39	14946.66
474.57	14771.12
474.75	14843.68
474.93	15021.56
475.12	14930.28
475.30	14871.76
475.48	15108.16
475.66	15126.88
475.84	15269.66
476.02	15255.61
476.20	15279.02
476.38	15712.02
476.56	15927.35
476.74	15974.16
476.92	15822.02
477.10	16039.69
477.28	15995.22
477.46	16077.14
477.64	16266.72
477.82	16613.12
478.00	16910.37
478.18	16638.87
478.36	16992.29
478.54	17163.15
478.72	16800.37
478.90	17387.84
479.08	17118.68
479.26	17624.23
479.44	17617.21
479.62	17589.13
479.80	18176.60
479.98	18097.02
480.16	18572.15
480.34	18443.42
480.52	18771.10
480.70	18616.62
480.88	18588.53
481.06	18820.25
481.24	18946.64
481.41	19154.94
481.59	19143.24
481.77	19714.33
481.95	19424.11
482.13	19667.52
482.31	19873.49
482.49	19962.43
482.67	19990.52
482.85	20540.54
483.03	20561.61
483.21	20865.88
483.39	20945.45
483.57	21053.12
483.74	20952.48
483.92	21656.98
484.10	21130.36
484.28	21624.21
484.46	21900.39
484.64	22256.15
484.82	22209.34
485.00	22527.66
485.18	22810.86
485.35	22813.20
485.53	22525.32
485.71	22752.35
485.89	23349.18
486.07	23234.50
486.25	23051.94
486.43	23524.72
486.61	23791.55
486.78	23824.31
486.96	23892.19
487.14	24545.20
487.32	24294.76
487.50	24727.76
487.68	24933.73
487.85	24996.92
488.03	25692.06
488.21	25820.79
488.39	25640.57
488.57	25816.11
488.75	25947.18
488.92	26604.87
489.10	26216.34
489.28	26586.15
489.46	27157.24
489.64	26630.62
489.81	27704.92
489.99	27278.94
490.17	27852.38
490.35	28051.32
490.53	28149.62
490.70	28559.22
490.88	27859.40
491.06	28643.48
491.24	28882.21
491.41	29163.08
491.59	29088.18
491.77	29364.36
491.95	29687.36
492.13	29617.14
492.30	29848.85
492.48	29912.05
492.66	30312.28
492.84	30284.19
493.01	30726.55
493.19	30574.42
493.37	31012.10
493.54	31185.30
493.72	31646.38
493.90	31407.65
494.08	31772.77
494.25	31941.29
494.43	32208.11
494.61	31910.86
494.79	32182.37
494.96	32378.97
495.14	32528.77
495.32	32847.08
495.49	32849.42
495.67	33141.99
495.85	33574.98
496.02	33640.52
496.20	33998.62
496.38	33586.69
496.55	34150.76
496.73	34958.24
496.91	34572.05
497.09	34719.51
497.26	34918.45
497.44	35037.82
497.62	34972.28
497.79	35838.28
497.97	35601.89
498.14	35976.37
498.32	35903.82
498.50	35875.73
498.67	36657.47
498.85	36304.05
499.03	36514.70
499.20	36783.86
499.38	36297.03
499.56	37226.22
499.73	37401.76
499.91	37263.67
500.08	37656.88
500.26	37614.75
500.44	37415.80
500.61	37263.67
500.79	37895.61
500.97	37780.93
501.14	38134.35
501.32	38555.64
501.49	38291.16
501.67	38712.46
501.84	39189.93
502.02	38464.36
502.20	39168.87
502.37	39079.92
502.55	38941.83
502.72	39735.27
502.90	39548.03
503.07	39505.90
503.25	39730.59
503.43	39395.90
503.60	40130.83
503.78	40409.35
503.95	40271.26
504.13	40376.58
504.30	40683.19
504.48	40512.33
504.65	40975.76
504.83	40563.82
505.01	41511.74
505.18	41097.47
505.36	41448.55
505.53	41074.06
505.71	41577.28
505.88	41853.46
506.06	41439.18
506.23	41888.57
506.41	41900.27
506.58	42064.11
506.76	42005.59
506.93	41993.89
507.11	42181.13
507.28	42492.43
507.46	42843.51
507.63	42478.38
507.81	43056.50
507.98	42784.99
508.16	42948.83
508.33	43360.76
508.50	43517.58
508.68	43278.85
508.85	43770.36
509.03	43643.97
509.20	43674.40
509.38	44264.21
509.55	44107.40
509.73	44549.76
509.90	44580.18
510.08	44233.78
510.25	44629.34
510.42	44676.15
510.60	45071.70
510.77	44814.24
510.95	45235.53
511.12	45411.07
511.30	45120.85
511.47	45352.56
511.64	45467.25
511.82	46183.45
511.99	45731.73
512.17	45764.49
512.34	45694.28
512.51	46220.90
512.69	46295.80
512.86	46478.36
513.04	46595.38
513.21	46866.89
513.38	46394.10
513.56	46621.13
513.73	46674.96
513.90	47056.47
514.08	46995.62
514.25	47182.86
514.43	47611.18
514.60	47304.57
514.77	47330.31
514.95	47758.63
515.12	47309.25
515.29	47461.38
515.47	48016.09
515.64	47957.58
515.81	47835.87
515.99	47847.57
516.16	48254.82
516.33	48193.97
516.51	48498.24
516.68	48208.01
516.85	48418.66
517.03	48540.37
517.20	48994.43
517.37	48383.55
517.54	48797.83
517.72	48680.80
517.89	48643.35
518.06	48657.40
518.24	49078.69
518.41	49200.40
518.58	49762.13
518.75	48900.81
518.93	49284.66
519.10	49354.88
519.27	50026.61
519.45	49488.29
519.62	50057.04
519.79	49776.17
519.96	49888.52
520.14	50265.34
520.31	50108.53
520.48	50190.45
520.65	50050.02
520.83	50548.55
521.00	50635.15
521.17	50351.94
521.34	50721.75
521.52	50894.95
521.69	51103.26
521.86	50981.55
522.03	51243.69
522.20	51409.87
522.38	51519.87
522.55	51714.14
522.72	51299.86
522.89	51311.56
523.07	51571.36
523.24	51470.72
523.41	51655.62
523.58	51367.74
523.75	51950.53
523.92	52058.20
524.10	51892.02
524.27	52158.84
524.44	51728.18
524.61	51934.15
524.78	52128.41
524.96	52046.49
525.13	52002.02
525.30	52168.20
525.47	52582.48
525.64	52472.47
525.81	52594.18
525.98	52662.05
526.16	52392.89
526.33	52802.49
526.50	52706.52
526.67	52666.73
526.84	52563.75
527.01	53031.86
527.18	52898.45
527.36	52891.43
527.53	52856.32
527.70	53382.94
527.87	53429.75
528.04	53174.63
528.21	53183.99
528.38	53059.94
528.55	53586.57
528.72	53312.72
528.89	53380.60
529.07	53413.37
529.24	53406.34
529.41	53551.46
529.58	53710.61
529.75	53698.91
529.92	53804.24
530.09	53801.89
530.26	53862.75
530.43	53820.62
530.60	53661.46
530.77	54007.86
530.94	53928.28
531.11	53928.28
531.28	54113.19
531.46	54293.41
531.63	54492.35
531.80	54094.46
531.97	54485.33
532.14	54291.07
532.31	54333.20
532.48	54567.25
532.65	54770.88
532.82	54588.31
532.99	54834.07
533.16	54583.63
533.33	54611.72
533.50	54724.07
533.67	54817.69
533.84	54473.63
534.01	54740.45
534.18	54719.38
534.35	55107.91
534.52	55112.59
534.69	55187.49
534.86	55192.17
535.03	55056.42
535.20	55213.24
535.37	55128.98
535.54	55433.25
535.71	55196.85
535.88	55587.72
536.05	55587.72
536.22	55538.57
536.38	55547.93
536.55	55484.74
536.72	55639.22
536.89	55358.35
537.06	55613.47
537.23	55779.65
537.40	55206.22
537.57	55679.00
537.74	55821.78
537.91	56231.37
538.08	55915.40
538.25	55704.75
538.42	55819.44
538.59	56116.68
538.75	55842.84
538.92	55964.55
539.09	56163.50
539.26	56072.21
539.43	56137.75
539.60	56491.17
539.77	56161.15
539.94	56369.46
540.11	56507.55
540.28	56495.85
540.44	56332.01
540.61	56409.25
540.78	56477.13
540.95	56568.41
541.12	56191.58
541.29	56451.38
541.46	56367.12
541.62	56582.45
541.79	56734.59
541.96	56516.92
542.13	56523.94
542.30	56626.92
542.47	56825.87
542.63	56713.52
542.80	56884.38
542.97	57104.39
543.14	57282.27
543.31	57027.15
543.48	57134.82
543.64	57492.92
543.81	57481.22
543.98	57495.26
544.15	57282.27
544.32	57549.09
544.48	57411.00
544.65	57137.16
544.82	57378.23
544.99	57242.48
545.16	57535.05
545.32	57333.76
545.49	57680.16
545.66	57799.53
545.83	57642.71
546.00	57673.14
546.16	57710.59
546.33	57581.86
546.50	57542.07
546.67	57701.23
546.83	57446.11
547.00	57621.65
547.17	57476.54
547.34	57790.17
547.50	58075.71
547.67	57844.00
547.84	58052.31
548.00	58110.82
548.17	58080.39
548.34	57993.79
548.51	58045.29
548.67	58010.18
548.84	58052.31
549.01	58073.37
549.18	57932.94
549.34	58258.27
549.51	58211.46
549.68	58202.10
549.84	58454.88
550.01	58497.01
550.18	58391.68
550.34	58387.00
550.51	58529.78
550.68	58272.32
550.84	58267.64
551.01	58583.61
551.18	58419.77
551.34	58190.40
551.51	58665.53
551.68	58571.91
551.84	58384.66
552.01	58433.81
552.18	58581.27
552.34	58230.19
552.51	58571.91
552.68	58419.77
552.84	58686.59
553.01	58775.53
553.18	58791.92
553.34	58759.15
553.51	58782.55
553.67	58649.14
553.84	58824.68
554.01	58925.33
554.17	58997.88
554.34	58993.20
554.51	59086.82
554.67	58993.20
554.84	59028.31
555.00	58951.07
555.17	58913.62
555.33	58939.37
555.50	58646.80
555.67	58871.49
555.83	58855.11
556.00	59007.25
556.16	59285.77
556.33	59414.50
556.50	59208.53
556.66	59426.20
556.83	59290.45
556.99	59339.60
557.16	59458.97
557.32	59473.01
557.49	59627.49
557.65	59227.26
557.82	59421.52
557.98	59229.60
558.15	59426.20
558.32	59238.96
558.48	59414.50
558.65	59447.27
558.81	59669.62
558.98	59517.48
559.14	59721.11
559.31	59643.87
559.47	59650.89
559.64	59568.97
559.80	59686.00
559.97	59889.63
560.13	59522.16
560.30	59695.36
560.46	59686.00
560.63	59964.52
560.79	59704.73
560.96	59749.20
561.12	59826.43
561.29	59657.91
561.45	59856.86
561.61	59786.64
561.78	59833.46
561.94	59667.28
562.11	59936.44
562.27	59821.75
562.44	59671.96
562.60	60154.11
562.77	59992.61
562.93	59779.62
563.10	60044.10
563.26	59835.80
563.42	60189.22
563.59	60090.91
563.75	59845.16
563.92	59924.74
564.08	59774.94
564.24	59969.21
564.41	60020.70
564.57	60221.98
564.74	60137.72
564.90	60133.04
565.07	60025.38
565.23	60200.92
565.39	60245.39
565.56	60076.87
565.72	60039.42
565.88	60191.56
566.05	60095.60
566.21	59920.05
566.38	60156.45
566.54	60217.30
566.70	60306.24
566.87	60362.42
567.03	60067.51
567.19	60214.96
567.36	60268.79
567.52	60315.61
567.68	60711.16
567.85	60310.92
568.01	60397.52
568.17	60006.65
568.34	60294.54
568.50	60324.97
568.66	60427.95
568.83	60341.35
568.99	60238.37
569.15	60221.98
569.32	60381.14
569.48	60275.82
569.64	60463.06
569.81	60362.42
569.97	60296.88
570.13	60355.39
570.30	60301.56
570.46	60392.84
570.62	60395.18
570.78	60528.59
570.95	60374.12
571.11	60582.43
571.27	60392.84
571.43	60516.89
571.60	60603.49
571.76	60493.49
571.92	60449.02
572.09	60671.37
572.25	60416.25
572.41	60481.78
572.57	60479.44
572.74	60535.62
572.90	60427.95
573.06	60643.28
573.22	60523.91
573.38	60598.81
573.55	60514.55
573.71	60769.67
573.87	60561.36
574.03	60601.15
574.20	60556.68
574.36	60530.93
574.52	60676.05
574.68	60715.84
574.84	60757.97
575.01	60795.42
575.17	60566.04
575.33	60563.70
575.49	60603.49
575.65	60701.79
575.82	60694.77
575.98	60809.46
576.14	60982.66
576.30	60816.48
576.46	60774.35
576.62	60678.39
576.79	60617.53
576.95	60519.23
577.11	60664.35
577.27	61020.11
577.43	60776.69
577.59	60680.73
577.75	60734.56
577.92	60870.31
578.08	60669.03
578.24	60781.37
578.40	60903.08
578.56	60931.17
578.72	60774.35
578.88	60896.06
579.04	60977.98
579.21	60938.19
579.37	60776.69
579.53	60872.65
579.69	60706.47
579.85	60624.56
580.01	60872.65
580.17	60683.07
580.33	60772.01
580.49	60907.76
580.65	60725.20
580.82	61066.92
580.98	60926.49
581.14	60893.72
581.30	60825.84
581.46	60924.14
581.62	60844.57
581.78	60772.01
581.94	60952.23
582.10	60898.40
582.26	60837.54
582.42	60741.58
582.58	61062.24
582.74	60884.36
582.90	60874.99
583.06	60727.54
583.22	60917.12
583.38	61064.58
583.54	60945.21
583.70	60905.42
583.86	61006.06
584.02	60624.56
584.18	61106.71
584.34	60996.70
584.50	61057.56
584.66	60872.65
584.82	60732.22
584.98	61050.53
585.14	61123.09
585.30	61013.08
585.46	61106.71
585.62	61106.71
585.78	61013.08
585.94	60825.84
586.10	61048.19
586.26	61085.64
586.42	60968.61
586.58	61209.69
586.74	61022.45
586.90	61090.32
587.06	60910.10
587.22	61214.37
587.38	61078.62
587.54	61193.31
587.70	61162.88
587.86	61099.68
588.02	60994.36
588.18	61080.96
588.34	61022.45
588.49	61097.34
