SpectraSuite Data File
++++++++++++++++++++++++++++++++++++
Date: Fri Oct 25 11:26:35 EDT 2013
User: price-jones
Dark Spectrum Present: No
Reference Spectrum Present: No
Number of Sampled Component Spectra: 1
Spectrometers: USB2+H05261
Integration Time (usec): 100000 (USB2+H05261)
Spectra Averaged: 1 (USB2+H05261)
Boxcar Smoothing: 0 (USB2+H05261)
Correct for Electrical Dark: No (USB2+H05261)
Strobe/Lamp Enabled: No (USB2+H05261)
Correct for Detector Non-linearity: No (USB2+H05261)
Correct for Stray Light: No (USB2+H05261)
Number of Pixels in Processed Spectrum: 2048
>>>>>Begin Processed Spectral Data<<<<<
365.73	159.16
365.92	159.16
366.12	159.16
366.32	107.66
366.52	121.71
366.72	124.05
366.91	124.05
367.11	53.83
367.31	121.71
367.51	81.92
367.70	81.92
367.90	177.88
368.10	170.86
368.30	154.48
368.49	152.13
368.69	173.20
368.89	222.35
369.09	156.82
369.28	133.41
369.48	187.24
369.68	163.84
369.87	220.01
370.07	229.37
370.27	170.86
370.47	280.86
370.66	610.88
370.86	655.35
371.06	690.46
371.25	664.71
371.45	634.29
371.65	683.44
371.84	781.74
372.04	657.69
372.24	786.42
372.44	653.01
372.63	711.52
372.83	732.59
373.03	765.36
373.22	779.40
373.42	835.57
373.62	805.14
373.81	866.00
374.01	786.42
374.21	828.55
374.40	812.17
374.60	826.21
374.79	802.80
374.99	837.91
375.19	777.06
375.38	826.21
375.58	882.38
375.78	861.32
375.97	873.02
376.17	933.87
376.37	856.64
376.56	877.70
376.76	877.70
376.95	887.06
377.15	917.49
377.35	854.30
377.54	866.00
377.74	961.96
377.93	938.55
378.13	887.06
378.33	877.70
378.52	940.90
378.72	959.62
378.91	992.39
379.11	940.90
379.31	917.49
379.50	924.51
379.70	1046.22
379.89	926.85
380.09	933.87
380.28	968.98
380.48	929.19
380.68	961.96
380.87	1081.33
381.07	1039.20
381.26	1055.58
381.46	1057.92
381.65	1048.56
381.85	1001.75
382.04	1118.78
382.24	1053.24
382.43	997.07
382.63	1137.50
382.83	1083.67
383.02	1057.92
383.22	1088.35
383.41	1074.31
383.61	1111.75
383.80	1160.91
384.00	1130.48
384.19	1139.84
384.39	1151.54
384.58	1144.52
384.78	1132.82
384.97	1172.61
385.17	1102.39
385.36	1165.59
385.56	1144.52
385.75	1170.27
385.95	1193.67
386.14	1266.23
386.34	1217.08
386.53	1212.40
386.72	1256.87
386.92	1217.08
387.11	1219.42
387.31	1261.55
387.50	1217.08
387.70	1270.91
387.89	1303.68
388.09	1263.89
388.28	1282.61
388.48	1139.84
388.67	1301.34
388.86	1273.25
389.06	1261.55
389.25	1299.00
389.45	1348.15
389.64	1387.94
389.84	1418.36
390.03	1359.85
390.22	1406.66
390.42	1397.30
390.61	1376.24
390.81	1313.04
391.00	1355.17
391.19	1423.05
391.39	1439.43
391.58	1502.62
391.78	1446.45
391.97	1448.79
392.16	1420.71
392.36	1509.65
392.55	1500.28
392.75	1514.33
392.94	1509.65
393.13	1570.50
393.33	1624.33
393.52	1535.39
393.71	1603.27
393.91	1607.95
394.10	1575.18
394.29	1598.59
394.49	1607.95
394.68	1673.48
394.88	1603.27
395.07	1685.19
395.26	1746.04
395.46	1600.93
395.65	1673.48
395.84	1771.79
396.04	1774.13
396.23	1783.49
396.42	1764.76
396.62	1760.08
396.81	1834.98
397.00	1823.28
397.19	1708.59
397.39	1802.21
397.58	1860.73
397.77	1774.13
397.97	1916.90
398.16	1865.41
398.35	1916.90
398.55	1898.17
398.74	2036.27
398.93	2008.18
399.12	1940.30
399.32	1846.68
399.51	1909.88
399.70	2001.16
399.90	1930.94
400.09	2010.52
400.28	2045.63
400.47	2001.16
400.67	2031.58
400.86	2057.33
401.05	2172.02
401.24	2232.87
401.44	2239.89
401.63	2115.84
401.82	2260.96
402.01	2157.97
402.21	2244.57
402.40	2162.66
402.59	2267.98
402.78	2260.96
402.97	2244.57
403.17	2239.89
403.36	2197.76
403.55	2263.30
403.74	2375.64
403.93	2335.85
404.13	2415.43
404.32	2457.56
404.51	2333.51
404.70	2394.37
404.89	2349.90
405.09	2527.78
405.28	2480.97
405.47	2525.44
405.66	2523.10
405.85	2689.28
406.05	2527.78
406.24	2485.65
406.43	2544.16
406.62	2726.72
406.81	2754.81
407.00	2541.82
407.20	2602.68
407.39	2736.09
407.58	2679.91
407.77	2658.85
407.96	2710.34
408.15	2771.19
408.34	2708.00
408.54	2768.85
408.73	2768.85
408.92	2792.26
409.11	2796.94
409.30	2789.92
409.49	2888.22
409.68	2939.71
409.87	2864.82
410.07	3016.95
410.26	3021.63
410.45	2986.52
410.64	3183.13
410.83	3227.60
411.02	3133.98
411.21	3126.96
411.40	3105.89
411.59	3119.93
411.78	3171.43
411.98	3155.04
412.17	3218.24
412.36	3293.13
412.55	3218.24
412.74	3361.01
412.93	3426.54
413.12	3337.60
413.31	3581.02
413.50	3721.45
413.69	3501.44
413.88	3625.49
414.07	3585.70
414.26	3730.81
414.45	3529.53
414.64	3709.75
414.83	3726.13
415.02	3812.73
415.22	3829.12
415.41	3901.67
415.60	3875.93
415.79	3889.97
415.98	3899.33
416.17	4053.81
416.36	3929.76
416.55	3946.14
416.74	4070.19
416.93	3974.23
417.12	4187.22
417.31	4159.13
417.50	4278.50
417.69	4367.44
417.88	4409.57
418.07	4341.69
418.26	4344.03
418.45	4449.36
418.64	4341.69
418.83	4407.23
419.02	4458.72
419.21	4535.96
419.39	4571.07
419.58	4514.89
419.77	4587.45
419.96	4751.29
420.15	4559.36
420.34	4748.95
420.53	4709.16
420.72	4528.94
420.91	4699.80
421.10	4795.76
421.29	4784.06
421.48	4821.50
421.67	4943.21
421.86	4786.40
422.05	4833.21
422.24	4887.04
422.43	4765.33
422.61	4858.95
422.80	4889.38
422.99	4856.61
423.18	4931.51
423.37	4992.36
423.56	4908.10
423.75	4851.93
423.94	4889.38
424.13	4641.28
424.32	4786.40
424.50	4945.55
424.69	5011.09
424.88	5041.51
425.07	4971.30
425.26	4966.62
425.45	4882.36
425.64	5013.43
425.83	4964.28
426.01	5240.46
426.20	5048.54
426.39	5160.88
426.58	5238.12
426.77	5125.77
426.96	5121.09
427.15	5294.29
427.33	5228.76
427.52	5224.08
427.71	5338.76
427.90	5217.05
428.09	5355.15
428.28	5455.79
428.46	5437.06
428.65	5392.59
428.84	5577.50
429.03	5521.32
429.22	5373.87
429.40	5598.56
429.59	5528.35
429.78	5291.95
429.97	5212.37
430.16	5413.66
430.34	5614.95
430.53	5689.84
430.72	5734.31
430.91	5619.63
431.10	5621.97
431.28	5703.89
431.47	5846.66
431.66	5928.58
431.85	5886.45
432.03	5956.66
432.22	5984.75
432.41	5900.49
432.60	5884.11
432.79	5959.00
432.97	6132.20
433.16	6099.44
433.35	6043.26
433.54	6111.14
433.72	6230.51
433.91	6080.71
434.10	6228.17
434.28	6052.63
434.47	6202.42
434.66	6312.42
434.85	6319.45
435.03	6373.28
435.22	6363.92
435.41	6548.82
435.59	6471.58
435.78	6532.44
435.97	6478.60
436.16	6555.84
436.34	6551.16
436.53	6712.66
436.72	6792.23
436.90	6562.86
437.09	6619.04
437.28	6576.91
437.46	6647.12
437.65	6761.81
437.84	6761.81
438.02	6743.08
438.21	6785.21
438.40	6729.04
438.58	7061.40
438.77	7087.14
438.96	6817.98
439.14	7087.14
439.33	7157.36
439.52	7166.72
439.70	7178.42
439.89	7325.88
440.08	7375.03
440.26	7309.49
440.45	7307.15
440.63	7545.89
440.82	7515.46
441.01	7323.54
441.19	7758.88
441.38	7922.71
441.57	7779.94
441.75	7768.24
441.94	7878.24
442.12	8002.29
442.31	7995.27
442.50	8107.62
442.68	7969.52
442.87	8168.47
443.05	8163.79
443.24	8196.56
443.43	8203.58
443.61	8285.50
443.80	8456.36
443.98	8198.90
444.17	7857.18
444.35	8327.63
444.54	8376.78
444.73	8304.22
444.91	8212.94
445.10	8568.70
445.28	8491.46
445.47	8414.23
445.65	8409.54
445.84	8315.92
446.02	8383.80
446.21	8458.70
446.39	8549.98
446.58	8615.51
446.77	8568.70
446.95	8458.70
447.14	8372.10
447.32	8594.45
447.51	8423.59
447.69	8465.72
447.88	8524.23
448.06	8669.34
448.25	8596.79
448.43	8795.73
448.62	8505.51
448.80	8465.72
448.99	8683.39
449.17	8606.15
449.36	8580.40
449.54	8894.04
449.73	8833.18
449.91	9100.00
450.10	8994.68
450.28	9027.45
450.46	9188.94
450.65	9125.75
450.83	8915.10
451.02	8938.51
451.20	9188.94
451.39	9132.77
451.57	9074.26
451.76	9123.41
451.94	9069.58
452.13	9465.13
452.31	9392.57
452.49	9247.46
452.68	9654.71
452.86	9303.63
453.05	9577.47
453.23	9394.91
453.42	9378.53
453.60	9432.36
453.78	9434.70
453.97	9579.81
454.15	9430.02
454.34	9509.60
454.52	9628.96
454.70	9954.30
454.89	9717.90
455.07	9956.64
455.26	9919.19
455.44	10017.49
455.62	9856.00
455.81	9872.38
455.99	9912.17
456.17	9956.64
456.36	10171.97
456.54	10153.24
456.73	10391.98
456.91	10600.29
457.09	10483.26
457.28	10560.50
457.46	10501.98
457.64	10553.48
457.83	10363.89
458.01	10485.60
458.19	10771.15
458.38	10518.37
458.56	10628.37
458.74	10619.01
458.93	10626.03
459.11	11056.69
459.29	10850.72
459.48	10871.79
459.66	10703.27
459.84	10712.63
460.03	11232.23
460.21	10960.73
460.39	10878.81
460.57	11180.74
460.76	10897.53
460.94	11356.28
461.12	11379.68
461.31	11295.43
461.49	11257.98
461.67	11110.52
461.85	11690.98
462.04	11297.77
462.22	11803.32
462.40	11712.04
462.59	11482.67
462.77	11428.84
462.95	11536.50
463.13	11777.58
463.32	11618.42
463.50	11756.51
463.68	11974.18
463.86	11742.47
464.05	11894.60
464.23	11623.10
464.41	12095.89
464.59	11744.81
464.78	12147.38
464.96	12086.53
465.14	11910.99
465.32	12088.87
465.50	12327.60
465.69	12168.45
465.87	12095.89
466.05	12233.98
466.23	12369.73
466.41	12402.50
466.60	12414.20
466.78	12166.10
466.96	12231.64
467.14	12390.80
467.32	12461.01
467.51	12594.42
467.69	12278.45
467.87	12327.60
468.05	12571.02
468.23	12545.27
468.41	12416.54
468.60	12807.41
468.78	12875.29
468.96	12622.51
469.14	12711.45
469.32	13177.22
469.50	12528.89
469.69	13081.25
469.87	13081.25
470.05	13142.11
470.23	13657.03
470.41	13067.21
470.59	13317.65
470.77	13158.49
470.95	13116.36
471.14	13797.46
471.32	13081.25
471.50	13460.42
471.68	13752.99
471.86	13760.01
472.04	13750.65
472.22	14127.47
472.40	13980.02
472.58	14022.15
472.77	14235.14
472.95	14127.47
473.13	14677.50
473.31	14260.88
473.49	14195.35
473.67	14211.73
473.85	14237.48
474.03	14616.65
474.21	14792.19
474.39	14848.36
474.57	14775.80
474.75	14855.38
474.93	14841.34
475.12	15047.30
475.30	15138.58
475.48	14885.81
475.66	15358.60
475.84	15037.94
476.02	15445.20
476.20	15487.32
476.38	15662.86
476.56	16163.74
476.74	15871.17
476.92	16002.24
477.10	15667.55
477.28	16397.79
477.46	16423.54
477.64	16456.31
477.82	16376.73
478.00	17032.08
478.18	16702.06
478.36	17074.21
478.54	16919.73
478.72	17198.26
478.90	17366.78
479.08	17556.36
479.26	17961.27
479.44	17490.82
479.62	17909.78
479.80	18143.83
479.98	18200.01
480.16	18675.13
480.34	18457.46
480.52	18665.77
480.70	18417.68
480.88	18689.18
481.06	18948.98
481.24	19087.07
481.41	19131.54
481.59	19152.60
481.77	19676.88
481.95	19934.34
482.13	19770.51
482.31	19719.01
482.49	20187.12
482.67	20294.79
482.85	20465.64
483.03	20554.58
483.21	20926.73
483.39	20858.85
483.57	20854.17
483.74	21137.38
483.92	21664.00
484.10	21034.39
484.28	21724.85
484.46	21900.39
484.64	22321.69
484.82	21944.86
485.00	22478.50
485.18	22747.67
485.35	23264.92
485.53	22874.06
485.71	22490.21
485.89	23391.31
486.07	23651.11
486.25	23541.11
486.43	23693.24
486.61	23903.89
486.78	24411.79
486.96	24507.75
487.14	24531.15
487.32	24545.20
487.50	25219.27
487.68	25216.93
487.85	25298.85
488.03	25450.99
488.21	26111.02
488.39	25820.79
488.57	26565.08
488.75	26155.49
488.92	26466.78
489.10	26754.66
489.28	26827.22
489.46	27213.41
489.64	26944.25
489.81	27440.44
489.99	27950.68
490.17	27784.50
490.35	28390.70
490.53	28311.12
490.70	28542.83
490.88	28587.30
491.06	28662.20
491.24	28711.35
491.41	29263.72
491.59	29275.42
491.77	29640.54
491.95	29923.75
492.13	30073.54
492.30	30155.46
492.48	30284.19
492.66	30253.76
492.84	30455.05
493.01	30831.88
493.19	30953.58
493.37	31421.69
493.54	31449.78
493.72	31669.79
493.90	31615.96
494.08	31714.26
494.25	31854.69
494.43	32175.34
494.61	32554.51
494.79	32573.24
494.96	32816.65
495.14	33013.26
495.32	33261.35
495.49	33490.73
495.67	33174.75
495.85	33205.18
496.02	34164.80
496.20	34061.82
496.38	34005.64
496.55	34225.65
496.73	34995.69
496.91	34609.50
497.09	34766.32
497.26	34930.16
497.44	35271.87
497.62	35091.65
497.79	36046.59
497.97	35416.99
498.14	36072.34
498.32	36400.01
498.50	36458.52
498.67	36683.22
498.85	36545.12
499.03	37053.02
499.20	36776.84
499.38	36910.25
499.56	37188.77
499.73	37331.54
499.91	37570.28
500.08	37731.78
500.26	37848.80
500.44	38274.78
500.61	37418.14
500.79	37635.81
500.97	38080.52
501.14	38855.23
501.32	38742.89
501.49	38742.89
501.67	38965.24
501.84	39009.71
502.02	39349.09
502.20	39260.15
502.37	39431.01
502.55	39435.69
502.72	39227.38
502.90	39885.07
503.07	39454.41
503.25	40233.81
503.43	39861.66
503.60	40292.32
503.78	40481.91
503.95	40699.58
504.13	40624.68
504.30	40863.41
504.48	40561.48
504.65	41331.52
504.83	40844.69
505.01	41588.98
505.18	41521.10
505.36	41635.79
505.53	40847.03
505.71	41696.64
505.88	42124.96
506.06	41305.77
506.23	41956.44
506.41	42122.62
506.58	42029.00
506.76	42284.12
506.93	43131.39
507.11	42677.33
507.28	42988.62
507.46	42885.64
507.63	42920.74
507.81	43150.12
507.98	42904.36
508.16	43428.64
508.33	43625.25
508.50	43580.78
508.68	43753.97
508.85	43983.35
509.03	44004.41
509.20	43845.26
509.38	44252.51
509.55	44458.48
509.73	44542.74
509.90	44699.55
510.08	44545.08
510.25	44629.34
510.42	45425.12
510.60	45441.50
510.77	45446.18
510.95	45888.54
511.12	45174.68
511.30	45588.95
511.47	46061.74
511.64	45876.84
511.82	45911.95
511.99	45748.11
512.17	46155.36
512.34	46195.15
512.51	46314.52
512.69	46616.45
512.86	46623.47
513.04	46850.50
513.21	46962.85
513.38	46836.46
513.56	46803.69
513.73	46752.20
513.90	47374.78
514.08	46913.70
514.25	47536.28
514.43	47489.47
514.60	47295.21
514.77	47426.28
514.95	48100.35
515.12	47473.09
515.29	47945.87
515.47	48240.78
515.64	48236.10
515.81	48219.72
515.99	48662.08
516.16	48353.13
516.33	48362.49
516.51	48488.88
516.68	48673.78
516.85	48870.39
517.03	48865.70
517.20	49001.46
517.37	48877.41
517.54	49050.61
517.72	49315.09
517.89	49043.59
518.06	49287.00
518.24	49076.35
518.41	49172.31
518.58	49371.26
518.75	49752.77
518.93	49689.57
519.10	49670.85
519.27	50038.31
519.45	49984.48
519.62	50068.74
519.79	50024.27
519.96	49705.96
520.14	50239.60
520.31	50057.04
520.48	50499.40
520.65	50490.04
520.83	50684.30
521.00	50614.08
521.17	50536.85
521.34	50974.53
521.52	50864.52
521.69	51070.49
521.86	51231.99
522.03	51264.75
522.20	51667.33
522.38	51594.77
522.55	51545.62
522.72	51503.49
522.89	51360.72
523.07	51861.59
523.24	51526.89
523.41	52053.51
523.58	51550.30
523.75	51873.29
523.92	52142.45
524.10	52285.23
524.27	52519.28
524.44	52090.96
524.61	52151.82
524.78	52044.15
524.96	52456.09
525.13	52437.36
525.30	52397.57
525.47	52430.34
525.64	52828.23
525.81	52996.75
525.98	52875.04
526.16	52472.47
526.33	52811.85
526.50	53144.20
526.67	53066.97
526.84	53303.36
527.01	52961.64
527.18	52945.26
527.36	53048.24
527.53	53216.76
527.70	53829.98
527.87	53399.32
528.04	53291.66
528.21	53525.71
528.38	53411.02
528.55	53738.70
528.72	53396.98
528.89	53619.33
529.07	53883.81
529.24	53609.97
529.41	53968.07
529.58	53783.17
529.75	53729.34
529.92	54185.74
530.09	54054.67
530.26	53968.07
530.43	54244.26
530.60	53822.96
530.77	53675.51
530.94	54277.02
531.11	54080.42
531.28	54490.01
531.46	54213.83
531.63	54293.41
531.80	54342.56
531.97	54218.51
532.14	54724.07
532.31	54522.78
532.48	54801.30
532.65	54471.29
532.82	54597.68
532.99	54717.04
533.16	54775.56
533.33	54784.92
533.50	55018.97
533.67	54836.41
533.84	54693.64
534.01	55250.69
534.18	54930.03
534.35	55440.27
534.52	55229.62
534.69	55107.91
534.86	55414.52
535.03	55213.24
535.20	55456.65
535.37	55557.30
535.54	55515.17
535.71	55447.29
535.88	55281.11
536.05	55688.37
536.22	55629.85
536.38	55714.11
536.55	55597.09
536.72	55789.01
536.89	55643.90
537.06	55674.32
537.23	55952.85
537.40	55569.00
537.57	55936.46
537.74	55884.97
537.91	55833.48
538.08	56161.15
538.25	56034.77
538.42	55936.46
538.59	56332.01
538.75	56002.00
538.92	56392.87
539.09	56332.01
539.26	56081.58
539.43	56193.92
539.60	56495.85
539.77	56299.25
539.94	56612.88
540.11	56413.93
540.28	56481.81
540.44	56647.99
540.61	56484.15
540.78	56545.00
540.95	56687.78
541.12	56381.16
541.29	56573.09
541.46	56825.87
541.62	56797.78
541.79	56662.03
541.96	56664.37
542.13	56982.68
542.30	56875.02
542.47	56966.30
542.63	57059.92
542.80	56914.81
542.97	57190.99
543.14	57226.10
543.31	57293.97
543.48	57127.80
543.64	57492.92
543.81	57509.30
543.98	57464.83
544.15	57570.16
544.32	57528.03
544.48	57535.05
544.65	57506.96
544.82	57715.27
544.99	57375.89
545.16	57413.34
545.32	57588.88
545.49	57822.93
545.66	57780.81
545.83	57663.78
546.00	57691.86
546.16	57853.36
546.33	57731.65
546.50	57762.08
546.67	57911.88
546.83	57612.29
547.00	57986.77
547.17	57757.40
547.34	57888.47
547.50	58040.60
547.67	58323.81
547.84	58239.55
548.00	58246.57
548.17	58351.90
548.34	58101.46
548.51	58358.92
548.67	58218.49
548.84	58267.64
549.01	58365.94
549.18	58286.36
549.34	58244.23
549.51	58403.39
549.68	58452.54
549.84	58539.14
550.01	58344.87
550.18	58443.18
550.34	58337.85
550.51	58340.19
550.68	58457.22
550.84	58307.43
551.01	58604.67
551.18	58560.20
551.34	58501.69
551.51	58850.43
551.68	58747.45
551.84	58646.80
552.01	58302.74
552.18	58724.04
552.34	58473.60
552.51	58693.61
552.68	58489.99
552.84	58522.76
553.01	58880.86
553.18	58871.49
553.34	59016.61
553.51	58747.45
553.67	58951.07
553.84	59150.02
554.01	58930.01
554.17	59147.68
554.34	59135.98
554.51	58922.99
554.67	59255.34
554.84	58979.16
555.00	59077.46
555.17	59114.91
555.33	59044.69
555.50	59093.85
555.67	59058.74
555.83	59105.55
556.00	59217.89
556.16	59159.38
556.33	59370.03
556.50	59262.36
556.66	59526.84
556.83	59337.26
556.99	59526.84
557.16	59405.14
557.32	59753.88
557.49	59805.37
557.65	59468.33
557.82	59473.01
557.98	59355.99
558.15	59594.72
558.32	59772.60
558.48	59629.83
558.65	59587.70
558.81	59608.76
558.98	59470.67
559.14	59730.47
559.31	59678.98
559.47	59828.77
559.64	59793.67
559.80	59760.90
559.97	59742.17
560.13	59730.47
560.30	59889.63
560.46	59941.12
560.63	59700.04
560.79	59803.03
560.96	59936.44
561.12	59788.98
561.29	59877.93
561.45	60048.78
561.61	59723.45
561.78	60018.36
561.94	59875.58
562.11	60030.06
562.27	60034.74
562.44	60095.60
562.60	60154.11
562.77	60240.71
562.93	59987.93
563.10	60179.85
563.26	59927.08
563.42	60247.73
563.59	60140.07
563.75	59966.87
563.92	60172.83
564.08	60116.66
564.24	60278.16
564.41	60172.83
564.57	60179.85
564.74	60189.22
564.90	60343.69
565.07	60214.96
565.23	60191.56
565.39	60165.81
565.56	60341.35
565.72	60154.11
565.88	60369.44
566.05	60296.88
566.21	60275.82
566.38	60329.65
566.54	60140.07
566.70	60434.97
566.87	60418.59
567.03	60212.62
567.19	60481.78
567.36	60418.59
567.52	60554.34
567.68	60664.35
567.85	60399.86
568.01	60526.25
568.17	60399.86
568.34	60556.68
568.50	60594.13
568.66	60329.65
568.83	60507.53
568.99	60605.83
569.15	60446.68
569.32	60477.10
569.48	60453.70
569.64	60626.90
569.81	60638.60
569.97	60320.29
570.13	60554.34
570.30	60537.96
570.46	60645.62
570.62	60186.88
570.78	60715.84
570.95	60514.55
571.11	60643.28
571.27	60495.83
571.43	60465.40
571.60	60610.51
571.76	60626.90
571.92	60619.88
572.09	60736.90
572.25	60544.98
572.41	60528.59
572.57	60722.86
572.74	61010.74
572.90	60673.71
573.06	60741.58
573.22	60772.01
573.38	60853.93
573.55	60823.50
573.71	61036.49
573.87	60842.23
574.03	60568.38
574.20	60905.42
574.36	60821.16
574.52	60907.76
574.68	60786.05
574.84	60982.66
575.01	60811.80
575.17	60825.84
575.33	60774.35
575.49	60610.51
575.65	60704.13
575.82	60961.59
575.98	61109.05
576.14	61029.47
576.30	60589.45
576.46	60790.73
576.62	60577.75
576.79	60891.38
576.95	60622.22
577.11	60837.54
577.27	60865.63
577.43	60935.85
577.59	60919.46
577.75	60764.99
577.92	60692.43
578.08	60800.10
578.24	60999.04
578.40	60907.76
578.56	61160.54
578.72	60954.57
578.88	61113.73
579.04	61036.49
579.21	61062.24
579.37	61104.37
579.53	60896.06
579.69	60839.89
579.85	60996.70
580.01	60690.09
580.17	60863.29
580.33	60877.33
580.49	61134.79
580.65	60966.27
580.82	60956.91
580.98	60919.46
581.14	60816.48
581.30	61212.03
581.46	60963.93
581.62	60977.98
581.78	61008.40
581.94	60846.91
582.10	60884.36
582.26	60837.54
582.42	61090.32
582.58	61036.49
582.74	60938.19
582.90	60961.59
583.06	61062.24
583.22	60816.48
583.38	60973.30
583.54	60947.55
583.70	61085.64
583.86	60963.93
584.02	60999.04
584.18	61095.00
584.34	61160.54
584.50	61034.15
584.66	60942.87
584.82	60933.51
584.98	61371.19
585.14	61340.76
585.30	61010.74
585.46	61123.09
585.62	61073.94
585.78	61296.29
585.94	60886.70
586.10	61092.66
586.26	61066.92
586.42	61073.94
586.58	61153.52
586.74	61202.67
586.90	61106.71
587.06	60996.70
587.22	61219.05
587.38	60970.96
587.54	61041.17
587.70	61261.18
587.86	61219.05
588.02	61165.22
588.18	61113.73
588.34	60996.70
588.49	61120.75
