SpectraSuite Data File
++++++++++++++++++++++++++++++++++++
Date: Fri Oct 25 11:33:26 EDT 2013
User: price-jones
Dark Spectrum Present: No
Reference Spectrum Present: No
Number of Sampled Component Spectra: 1
Spectrometers: USB2+H05261
Integration Time (usec): 100000 (USB2+H05261)
Spectra Averaged: 1 (USB2+H05261)
Boxcar Smoothing: 0 (USB2+H05261)
Correct for Electrical Dark: No (USB2+H05261)
Strobe/Lamp Enabled: No (USB2+H05261)
Correct for Detector Non-linearity: No (USB2+H05261)
Correct for Stray Light: No (USB2+H05261)
Number of Pixels in Processed Spectrum: 2048
>>>>>Begin Processed Spectral Data<<<<<
365.73	278.52
365.92	278.52
366.12	278.52
366.32	215.33
366.52	161.50
366.72	182.56
366.91	177.88
367.11	154.48
367.31	149.79
367.51	110.01
367.70	194.26
367.90	182.56
368.10	208.31
368.30	194.26
368.49	161.50
368.69	236.39
368.89	212.99
369.09	208.31
369.28	156.82
369.48	191.92
369.68	187.24
369.87	159.16
370.07	332.36
370.27	280.86
370.47	330.02
370.66	421.30
370.86	461.09
371.06	489.17
371.25	613.22
371.45	540.66
371.65	575.77
371.84	554.71
372.04	620.24
372.24	554.71
372.44	554.71
372.63	587.47
372.83	615.56
373.03	620.24
373.22	601.52
373.42	594.50
373.62	655.35
373.81	557.05
374.01	615.56
374.21	631.94
374.40	669.39
374.60	676.41
374.79	657.69
374.99	564.07
375.19	624.92
375.38	671.73
375.58	765.36
375.78	695.14
375.97	585.13
376.17	699.82
376.37	720.88
376.56	704.50
376.76	690.46
376.95	638.97
377.15	683.44
377.35	678.76
377.54	692.80
377.74	763.01
377.93	643.65
378.13	699.82
378.33	758.33
378.52	746.63
378.72	702.16
378.91	713.86
379.11	720.88
379.31	737.27
379.50	622.58
379.70	741.95
379.89	755.99
380.09	685.78
380.28	692.80
380.48	744.29
380.68	662.37
380.87	711.52
381.07	699.82
381.26	800.46
381.46	802.80
381.65	765.36
381.85	746.63
382.04	805.14
382.24	760.67
382.43	744.29
382.63	842.59
382.83	791.10
383.02	793.44
383.22	833.23
383.41	788.76
383.61	858.98
383.80	779.40
384.00	734.93
384.19	807.48
384.39	746.63
384.58	816.85
384.78	807.48
384.97	758.33
385.17	856.64
385.36	784.08
385.56	863.66
385.75	779.40
385.95	798.12
386.14	821.53
386.34	880.04
386.53	863.66
386.72	936.21
386.92	908.13
387.11	894.08
387.31	938.55
387.50	894.08
387.70	910.47
387.89	964.30
388.09	931.53
388.28	1013.45
388.48	856.64
388.67	971.32
388.86	952.60
389.06	980.68
389.25	978.34
389.45	966.64
389.64	1004.09
389.84	898.77
390.03	990.05
390.22	978.34
390.42	870.68
390.61	959.62
390.81	983.02
391.00	990.05
391.19	1057.92
391.39	985.37
391.58	971.32
391.78	1057.92
391.97	983.02
392.16	1015.79
392.36	1048.56
392.55	1001.75
392.75	1034.52
392.94	1027.50
393.13	964.30
393.33	1067.28
393.52	1109.41
393.71	1104.73
393.91	1076.65
394.10	983.02
394.29	1111.75
394.49	1160.91
394.68	1123.46
394.88	1121.12
395.07	1186.65
395.26	1121.12
395.46	1121.12
395.65	1203.04
395.84	1191.33
396.04	1322.40
396.23	1114.10
396.42	1219.42
396.62	1102.39
396.81	1231.12
397.00	1263.89
397.19	1233.46
397.39	1203.04
397.58	1228.78
397.77	1226.44
397.97	1245.16
398.16	1228.78
398.35	1299.00
398.55	1252.19
398.74	1392.62
398.93	1289.64
399.12	1254.53
399.32	1341.13
399.51	1343.47
399.70	1416.02
399.90	1357.51
400.09	1308.36
400.28	1425.39
400.47	1355.17
400.67	1373.89
400.86	1345.81
401.05	1437.09
401.24	1446.45
401.44	1416.02
401.63	1453.47
401.82	1514.33
402.01	1458.15
402.21	1392.62
402.40	1472.20
402.59	1465.18
402.78	1549.43
402.97	1493.26
403.17	1565.82
403.36	1547.09
403.55	1652.42
403.74	1530.71
403.93	1589.22
404.13	1591.56
404.32	1551.78
404.51	1645.40
404.70	1568.16
404.89	1645.40
405.09	1605.61
405.28	1694.55
405.47	1598.59
405.66	1727.32
405.85	1703.91
406.05	1813.92
406.24	1671.14
406.43	1732.00
406.62	1753.06
406.81	1912.22
407.00	1661.78
407.20	1760.08
407.39	1802.21
407.58	1888.81
407.77	1856.04
407.96	1865.41
408.15	1970.73
408.34	1867.75
408.54	1961.37
408.73	1867.75
408.92	1944.99
409.11	2036.27
409.30	1970.73
409.49	1966.05
409.68	1949.67
409.87	2031.58
410.07	2026.90
410.26	2040.95
410.45	2132.23
410.64	1937.96
410.83	2129.89
411.02	2176.70
411.21	2050.31
411.40	2263.30
411.59	2193.08
411.78	2277.34
411.98	2176.70
412.17	2275.00
412.36	2263.30
412.55	2284.36
412.74	2434.16
412.93	2253.94
413.12	2370.96
413.31	2480.97
413.50	2431.82
413.69	2392.03
413.88	2530.12
414.07	2401.39
414.26	2429.48
414.45	2523.10
414.64	2492.67
414.83	2539.48
415.02	2600.34
415.22	2682.25
415.41	2677.57
415.60	2708.00
415.79	2722.04
415.98	2558.21
416.17	2754.81
416.36	2778.22
416.55	2745.45
416.74	2766.51
416.93	2745.45
417.12	2923.33
417.31	2883.54
417.50	2911.63
417.69	3012.27
417.88	2885.88
418.07	3056.74
418.26	2967.80
418.45	2967.80
418.64	3061.42
418.83	3094.19
419.02	3033.33
419.21	3131.64
419.39	3183.13
419.58	3084.83
419.77	3096.53
419.96	3265.05
420.15	3180.79
420.34	3143.34
420.53	3251.00
420.72	3255.69
420.91	3183.13
421.10	3248.66
421.29	3316.54
421.48	3260.37
421.67	3211.22
421.86	3417.18
422.05	3229.94
422.24	3281.43
422.43	3384.41
422.61	3304.84
422.80	3375.05
422.99	3538.89
423.18	3473.36
423.37	3576.34
423.56	3524.85
423.75	3412.50
423.94	3328.24
424.13	3311.86
424.32	3361.01
424.50	3431.23
424.69	3421.86
424.88	3492.08
425.07	3393.78
425.26	3398.46
425.45	3440.59
425.64	3449.95
425.83	3480.38
426.01	3559.95
426.20	3555.27
426.39	3574.00
426.58	3442.93
426.77	3508.46
426.96	3557.61
427.15	3524.85
427.33	3768.26
427.52	3595.06
427.71	3592.72
427.90	3716.77
428.09	3733.15
428.28	3602.08
428.46	3646.55
428.65	3686.34
428.84	3868.91
429.03	3833.80
429.22	3684.00
429.40	3728.47
429.59	3779.97
429.78	3658.26
429.97	3646.55
430.16	3817.41
430.34	3901.67
430.53	3920.40
430.72	3894.65
430.91	3829.12
431.10	4004.66
431.28	3953.16
431.47	3941.46
431.66	3995.29
431.85	4053.81
432.03	3999.98
432.22	4119.34
432.41	4060.83
432.60	4070.19
432.79	4191.90
432.97	4105.30
433.16	4170.83
433.35	4079.55
433.54	4121.68
433.72	4231.69
433.91	4255.09
434.10	4236.37
434.28	4269.14
434.47	4276.16
434.66	4362.76
434.85	4379.14
435.03	4409.57
435.22	4409.57
435.41	4564.04
435.59	4468.08
435.78	4540.64
435.97	4372.12
436.16	4449.36
436.34	4526.60
436.53	4533.62
436.72	4535.96
436.90	4423.61
437.09	4599.15
437.28	4566.39
437.46	4512.55
437.65	4542.98
437.84	4660.01
438.02	4699.80
438.21	4697.46
438.40	4610.86
438.58	4723.20
438.77	4830.87
438.96	4723.20
439.14	4971.30
439.33	4947.89
439.52	4877.68
439.70	4861.29
439.89	5128.11
440.08	5167.90
440.26	5081.30
440.45	4966.62
440.63	5214.71
440.82	5249.82
441.01	5203.01
441.19	5291.95
441.38	5160.88
441.57	5320.04
441.75	5406.64
441.94	5401.96
442.12	5334.08
442.31	5516.64
442.50	5511.96
442.68	5455.79
442.87	5427.70
443.05	5626.65
443.24	5530.69
443.43	5631.33
443.61	5638.35
443.80	5760.06
443.98	5558.77
444.17	5469.83
444.35	5584.52
444.54	5738.99
444.73	5797.51
444.91	5682.82
445.10	5703.89
445.28	5788.14
445.47	5621.97
445.65	5722.61
445.84	5729.63
446.02	5795.17
446.21	5715.59
446.39	5781.12
446.58	5905.17
446.77	5734.31
446.95	5666.44
447.14	5844.32
447.32	5844.32
447.51	5762.40
447.69	5617.29
447.88	5851.34
448.06	5860.70
448.25	5809.21
448.43	5877.09
448.62	5991.77
448.80	5951.98
448.99	6010.50
449.17	5849.00
449.36	5820.91
449.54	6040.92
449.73	6139.23
449.91	6143.91
450.10	6010.50
450.28	6150.93
450.46	6127.52
450.65	6125.18
450.83	6122.84
451.02	6242.21
451.20	6324.13
451.39	6249.23
451.57	6347.53
451.76	6071.35
451.94	6267.95
452.13	6289.02
452.31	6363.92
452.49	6200.08
452.68	6312.42
452.86	6239.87
453.05	6427.11
453.23	6567.54
453.42	6469.24
453.60	6459.88
453.78	6548.82
453.97	6415.41
454.15	6499.67
454.34	6513.71
454.52	6509.03
454.70	6499.67
454.89	6476.26
455.07	6726.70
455.26	6518.39
455.44	6799.26
455.62	6813.30
455.81	6832.02
455.99	6815.64
456.17	6803.94
456.36	6825.00
456.54	7035.65
456.73	7094.16
456.91	7042.67
457.09	7056.72
457.28	7122.25
457.46	7054.37
457.64	6958.41
457.83	7030.97
458.01	7124.59
458.19	7321.20
458.38	7293.11
458.56	7178.42
458.74	7363.33
458.93	7162.04
459.11	7293.11
459.29	7155.02
459.48	7353.96
459.66	7456.95
459.84	7218.21
460.03	7360.98
460.21	7618.44
460.39	7459.29
460.57	7419.50
460.76	7566.95
460.94	7489.71
461.12	7637.17
461.31	7630.15
461.49	7599.72
461.67	7555.25
461.85	7719.09
462.04	7564.61
462.22	7992.93
462.40	7826.75
462.59	7782.28
462.77	7775.26
462.95	8088.89
463.13	7838.45
463.32	7939.10
463.50	7953.14
463.68	7866.54
463.86	8112.30
464.05	7908.67
464.23	7798.66
464.41	7950.80
464.59	7850.16
464.78	8182.51
464.96	8049.10
465.14	7995.27
465.32	8212.94
465.50	8194.22
465.69	8203.58
465.87	8081.87
466.05	8217.62
466.23	8468.06
466.41	8325.29
466.60	8510.19
466.78	8152.09
466.96	8325.29
467.14	8276.13
467.32	8264.43
467.51	8379.12
467.69	8147.40
467.87	8390.82
468.05	8538.27
468.23	8414.23
468.41	8566.36
468.60	8421.25
468.78	8533.59
468.96	8472.74
469.14	8547.64
469.32	8828.50
469.50	8615.51
469.69	8615.51
469.87	8720.84
470.05	8702.11
470.23	8877.65
470.41	8887.01
470.59	8805.10
470.77	8849.57
470.95	8851.91
471.14	9156.18
471.32	8919.78
471.50	9118.73
471.68	9032.13
471.86	9263.84
472.04	9165.54
472.22	9579.81
472.40	9202.99
472.58	9394.91
472.77	9432.36
472.95	9579.81
473.13	9827.91
473.31	9357.46
473.49	9385.55
473.67	9362.14
473.85	9474.49
474.03	9806.84
474.21	9902.81
474.39	9678.12
474.57	9853.66
474.75	9893.44
474.93	9970.68
475.12	9923.87
475.30	9991.75
475.48	10087.71
475.66	9881.74
475.84	10097.07
476.02	10249.21
476.20	10338.15
476.38	10509.01
476.56	10633.05
476.74	10710.29
476.92	10583.90
477.10	10501.98
477.28	10960.73
477.46	10771.15
477.64	10967.75
477.82	11101.16
478.00	11688.64
478.18	11140.95
478.36	11400.75
478.54	11477.99
478.72	11358.62
478.90	11501.39
479.08	11723.74
479.26	11655.87
479.44	11831.41
479.62	11826.73
479.80	11995.25
479.98	11990.56
480.16	12409.52
480.34	12119.29
480.52	12496.12
480.70	12219.94
480.88	12451.65
481.06	12336.96
481.24	12765.28
481.41	12936.14
481.59	12580.38
481.77	12940.82
481.95	12868.27
482.13	13067.21
482.31	13025.08
482.49	13153.81
482.67	13638.30
482.85	13635.96
483.03	13722.56
483.21	13605.53
483.39	13865.33
483.57	13834.91
483.74	13942.57
483.92	14132.15
484.10	14129.81
484.28	14288.97
484.46	14691.54
484.64	14628.35
484.82	14464.51
485.00	14616.65
485.18	14960.70
485.35	15384.34
485.53	15304.76
485.71	15089.43
485.89	15433.49
486.07	15396.04
486.25	15604.35
486.43	15754.15
486.61	16035.01
486.78	16102.89
486.96	16027.99
487.14	16224.59
487.32	16446.94
487.50	16500.78
487.68	16554.61
487.85	16678.66
488.03	16917.39
488.21	16800.37
488.39	16905.69
488.57	17156.13
488.75	17238.05
488.92	17518.91
489.10	17369.12
489.28	17554.02
489.46	17783.39
489.64	18043.19
489.81	18129.79
489.99	18113.41
490.17	18356.82
490.35	18614.28
490.53	18518.32
490.70	18848.33
490.88	18504.28
491.06	19314.10
491.24	19192.39
491.41	19171.33
491.59	19410.06
491.77	19564.54
491.95	19545.81
492.13	19786.89
492.30	19779.87
492.48	19854.76
492.66	19864.13
492.84	19983.49
493.01	20442.24
493.19	20526.50
493.37	20514.80
493.54	20592.03
493.72	20849.49
493.90	20999.29
494.08	20933.75
494.25	21109.29
494.43	21071.84
494.61	21233.34
494.79	21359.73
494.96	21907.41
495.14	21514.20
495.32	21893.37
495.49	21839.54
495.67	22050.19
495.85	22321.69
496.02	22019.76
496.20	22410.63
496.38	22700.86
496.55	22607.23
496.73	23028.53
496.91	22974.70
497.09	22941.93
497.26	22857.67
497.44	23220.45
497.62	23290.67
497.79	23847.72
497.97	23494.30
498.14	23777.50
498.32	23838.36
498.50	24084.11
498.67	24088.79
498.85	24250.29
499.03	24430.51
499.20	24414.13
499.38	24390.72
499.56	24493.71
499.73	24556.90
499.91	24713.72
500.08	25076.50
500.26	24814.36
500.44	24907.98
500.61	24917.34
500.79	25010.96
500.97	25195.87
501.14	25582.06
501.32	25415.88
501.49	25528.22
501.67	25820.79
501.84	25912.07
502.02	25804.41
502.20	25832.49
502.37	26019.74
502.55	25923.77
502.72	26040.80
502.90	26092.29
503.07	25851.22
503.25	26181.23
503.43	26277.19
503.60	26448.05
503.78	26843.60
503.95	26583.80
504.13	26899.78
504.30	26857.65
504.48	26806.16
504.65	27124.47
504.83	27136.17
505.01	27264.90
505.18	27566.83
505.36	27955.36
505.53	27470.87
505.71	27889.82
505.88	27866.42
506.06	27597.26
506.23	28034.94
506.41	27449.80
506.58	27887.48
506.76	28379.00
506.93	28327.50
507.11	28020.89
507.28	28350.91
507.46	28570.92
507.63	28535.81
507.81	28652.84
507.98	28510.07
508.16	28409.42
508.33	28563.90
508.50	29036.69
508.68	28758.16
508.85	28929.02
509.03	29146.69
509.20	29359.68
509.38	29790.34
509.55	29827.79
509.73	29626.50
509.90	29874.60
510.08	29572.67
510.25	29631.18
510.42	29886.30
510.60	30319.30
510.77	29986.94
510.95	30146.10
511.12	30108.65
511.30	30326.32
511.47	29977.58
511.64	30108.65
511.82	30450.37
511.99	30391.86
512.17	30899.75
512.34	30527.61
512.51	30904.43
512.69	30955.93
512.86	30948.90
513.04	31295.30
513.21	31122.10
513.38	31061.25
513.56	31365.52
513.73	30855.28
513.90	31480.21
514.08	31058.91
514.25	32002.14
514.43	31922.57
514.60	31857.03
514.77	32025.55
514.95	32266.63
515.12	32013.85
515.29	32353.23
515.47	32339.18
515.64	32341.52
515.81	32542.81
515.99	32032.57
516.16	32713.67
516.33	32498.34
516.51	32816.65
516.68	32737.07
516.85	33041.34
517.03	32994.53
517.20	32737.07
517.37	33170.07
517.54	33198.16
517.72	33233.27
517.89	33376.04
518.06	33759.89
518.24	33502.43
518.41	33277.74
518.58	33273.06
518.75	32751.12
518.93	33443.91
519.10	33518.81
519.27	33675.63
519.45	33439.23
519.62	34148.42
519.79	33907.34
519.96	33961.17
520.14	34213.95
520.31	34504.18
520.48	34115.65
520.65	34024.37
520.83	34242.04
521.00	34906.75
521.17	34752.27
521.34	34464.39
521.52	34866.96
521.69	34810.79
521.86	34635.25
522.03	35171.23
522.20	34958.24
522.38	35274.21
522.55	35185.27
522.72	35187.61
522.89	35084.63
523.07	36011.48
523.24	35264.85
523.41	35796.15
523.58	35550.40
523.75	35629.98
523.92	35477.84
524.10	36039.57
524.27	35812.54
524.44	35833.60
524.61	36290.01
524.78	36189.36
524.96	36451.50
525.13	36126.17
525.30	36231.49
525.47	36858.76
525.64	36381.29
525.81	36727.69
525.98	36488.95
526.16	36601.30
526.33	36608.32
526.50	37261.33
526.67	36446.82
526.84	36840.03
527.01	37053.02
527.18	36708.96
527.36	37230.90
527.53	37071.75
527.70	37682.62
527.87	37422.83
528.04	36931.31
528.21	37097.49
528.38	37167.71
528.55	37745.82
528.72	37600.71
528.89	37467.30
529.07	37532.83
529.24	37769.22
529.41	37764.54
529.58	37904.98
529.75	37373.67
529.92	38101.58
530.09	38190.52
530.26	38492.45
530.43	38029.02
530.60	38075.84
530.77	38143.71
530.94	37879.23
531.11	38040.73
531.28	38291.16
531.46	38380.10
531.63	38569.69
531.80	38756.93
531.97	38352.02
532.14	38504.15
532.31	38455.00
532.48	38876.30
532.65	38909.07
532.82	38497.13
532.99	38660.97
533.16	38981.62
533.33	39304.62
533.50	39295.25
533.67	39269.51
533.84	38873.96
534.01	39220.36
534.18	39124.40
534.35	39566.76
534.52	39150.14
534.69	39552.71
534.86	39381.85
535.03	39515.26
535.20	39763.36
535.37	39695.49
535.54	39690.80
535.71	40215.08
535.88	39751.66
536.05	39658.04
536.22	40311.05
536.38	40060.61
536.55	39929.54
536.72	39779.74
536.89	39641.65
537.06	40353.18
537.23	40451.48
537.40	40116.78
537.57	40252.53
537.74	40350.84
537.91	40512.33
538.08	40935.97
538.25	40177.64
538.42	40509.99
538.59	40751.07
538.75	40715.96
538.92	40884.48
539.09	41167.68
539.26	40519.35
539.43	40811.92
539.60	40746.39
539.77	40865.75
539.94	40781.49
540.11	40903.20
540.28	41090.44
540.44	41102.15
540.61	40758.09
540.78	41106.83
540.95	41020.23
541.12	41357.27
541.29	41081.08
541.46	41329.18
541.62	41635.79
541.79	41750.48
541.96	40961.72
542.13	41560.89
542.30	41408.76
542.47	41762.18
542.63	41694.30
542.80	42281.78
542.97	42167.09
543.14	42040.70
543.31	41956.44
543.48	41834.74
543.64	42487.74
543.81	42192.84
543.98	42291.14
544.15	42368.38
544.32	42754.57
544.48	42770.95
544.65	42663.28
544.82	42644.56
544.99	42590.73
545.16	42698.39
545.32	42609.45
545.49	42761.59
545.66	43117.35
545.83	42946.49
546.00	43077.56
546.16	42693.71
546.33	42986.28
546.50	42895.00
546.67	43325.66
546.83	42735.84
547.00	43033.09
547.17	43122.03
547.34	42623.50
547.50	43349.06
547.67	43519.92
547.84	43351.40
548.00	43175.86
548.17	43702.48
548.34	43782.06
548.51	43880.36
548.67	43632.27
548.84	43400.55
549.01	43742.27
549.18	43681.42
549.34	44011.43
549.51	43894.41
549.68	43700.14
549.84	43882.70
550.01	44109.74
550.18	43838.23
550.34	44182.29
550.51	44135.48
550.68	44442.09
550.84	44016.11
551.01	43936.54
551.18	43810.15
551.34	43686.10
551.51	44037.18
551.68	44643.38
551.84	44081.65
552.01	43824.19
552.18	43929.51
552.34	44273.57
552.51	44474.86
552.68	43976.33
552.84	44395.28
553.01	44500.61
553.18	44257.19
553.34	44641.04
553.51	44215.06
553.67	44163.57
553.84	44348.47
554.01	44947.65
554.17	44514.65
554.34	44875.09
554.51	45041.27
554.67	45109.14
554.84	45312.77
555.00	44996.80
555.17	44755.72
555.33	45193.40
555.50	45041.27
555.67	44926.58
555.83	45212.13
556.00	45090.42
556.16	45268.30
556.33	45272.98
556.50	45162.98
556.66	45392.35
556.83	44835.30
556.99	46033.66
557.16	45921.31
557.32	45787.90
557.49	45464.91
557.65	45301.07
557.82	45642.79
557.98	45219.15
558.15	45399.37
558.32	45256.60
558.48	45418.10
558.65	45708.32
558.81	45481.29
558.98	45448.52
559.14	45668.53
559.31	45116.17
559.47	45921.31
559.64	45830.03
559.80	45675.55
559.97	45628.74
560.13	45827.69
560.30	45682.58
560.46	46164.73
560.63	46089.83
560.79	46000.89
560.96	46160.05
561.12	45907.27
561.29	46256.01
561.45	46101.53
561.61	45893.22
561.78	45633.42
561.94	45972.80
562.11	45907.27
562.27	45579.59
562.44	45581.93
562.60	46160.05
562.77	45858.12
562.93	45954.08
563.10	46476.02
563.26	46096.85
563.42	46651.56
563.59	46143.66
563.75	46036.00
563.92	46454.95
564.08	46401.12
564.24	46773.27
564.41	46574.32
564.57	46195.15
564.74	46539.21
564.90	46354.31
565.07	46756.88
565.23	46508.79
565.39	46518.15
565.56	46281.75
565.72	46326.22
565.88	46429.21
566.05	46754.54
566.21	46571.98
566.38	46859.87
566.54	46913.70
566.70	47000.30
566.87	46326.22
567.03	46469.00
567.19	46997.96
567.36	47133.71
567.52	46328.56
567.68	47019.02
567.85	46567.30
568.01	47117.32
568.17	46653.90
568.34	46909.02
568.50	46660.92
568.66	46756.88
568.83	46714.75
568.99	46621.13
569.15	46775.61
569.32	46773.27
569.48	46681.98
569.64	46906.68
569.81	47068.17
569.97	46768.58
570.13	46995.62
570.30	46429.21
570.46	47037.75
570.62	47239.03
570.78	46789.65
570.95	47257.76
571.11	46969.87
571.27	46864.55
571.43	46808.37
571.60	46815.40
571.76	46873.91
571.92	46614.11
572.09	46873.91
572.25	47023.70
572.41	46452.61
572.57	47178.18
572.74	47489.47
572.90	47264.78
573.06	47187.54
573.22	47498.83
573.38	47398.19
573.55	47143.07
573.71	47363.08
573.87	47475.43
574.03	47243.71
574.20	47601.82
574.36	46958.17
574.52	47351.38
574.68	47309.25
574.84	47487.13
575.01	47416.91
575.17	47253.08
575.33	47463.72
575.49	47210.95
575.65	47487.13
575.82	47622.88
575.98	47007.32
576.14	47342.02
576.30	47360.74
576.46	47173.50
576.62	47367.76
576.79	47587.77
576.95	46717.09
577.11	47040.09
577.27	47292.86
577.43	47246.05
577.59	47578.41
577.75	47653.31
577.92	47224.99
578.08	47143.07
578.24	47337.33
578.40	47388.83
578.56	47419.25
578.72	47590.11
578.88	47704.80
579.04	47636.92
579.21	47461.38
579.37	47578.41
579.53	47765.65
579.69	47419.25
579.85	47334.99
580.01	47313.93
580.17	47253.08
580.33	47503.51
580.49	47318.61
580.65	47693.10
580.82	47508.19
580.98	47583.09
581.14	47196.90
581.30	47496.49
581.46	47306.91
581.62	47615.86
581.78	47547.98
581.94	47667.35
582.10	47718.84
582.26	47835.87
582.42	47250.74
582.58	47590.11
582.74	47498.83
582.90	47597.13
583.06	47454.36
583.22	47459.04
583.38	47391.17
583.54	47489.47
583.70	47494.15
583.86	47861.61
584.02	47714.16
584.18	48144.82
584.34	48076.94
584.50	47899.06
584.66	47838.21
584.82	47512.88
584.98	47892.04
585.14	47964.60
585.30	47339.68
585.46	47798.42
585.62	47313.93
585.78	47452.02
585.94	47456.70
586.10	47681.39
586.26	47468.40
586.42	47597.13
586.58	48095.67
586.74	47704.80
586.90	47847.57
587.06	47660.33
587.22	48081.63
587.38	47533.94
587.54	47964.60
587.70	48051.20
587.86	47253.08
588.02	47496.49
588.18	47517.56
588.34	47693.10
588.49	47611.18
588.65	47730.54
588.81	47765.65
588.97	48016.09
589.13	47973.96
589.29	47831.19
589.45	48212.70
589.61	47957.58
589.77	47873.32
589.93	47833.53
590.08	48119.07
