SpectraSuite Data File
++++++++++++++++++++++++++++++++++++
Date: Fri Oct 25 11:25:37 EDT 2013
User: price-jones
Dark Spectrum Present: No
Reference Spectrum Present: No
Number of Sampled Component Spectra: 1
Spectrometers: USB2+H05261
Integration Time (usec): 100000 (USB2+H05261)
Spectra Averaged: 1 (USB2+H05261)
Boxcar Smoothing: 0 (USB2+H05261)
Correct for Electrical Dark: No (USB2+H05261)
Strobe/Lamp Enabled: No (USB2+H05261)
Correct for Detector Non-linearity: No (USB2+H05261)
Correct for Stray Light: No (USB2+H05261)
Number of Pixels in Processed Spectrum: 2048
>>>>>Begin Processed Spectral Data<<<<<
365.73	224.69
365.92	224.69
366.12	224.69
366.32	163.84
366.52	154.48
366.72	210.65
366.91	128.73
367.11	86.60
367.31	152.13
367.51	182.56
367.70	184.90
367.90	105.32
368.10	142.77
368.30	124.05
368.49	133.41
368.69	180.22
368.89	210.65
369.09	152.13
369.28	105.32
369.48	133.41
369.68	217.67
369.87	180.22
370.07	273.84
370.27	234.05
370.47	360.44
370.66	601.52
370.86	643.65
371.06	624.92
371.25	674.07
371.45	641.31
371.65	784.08
371.84	737.27
372.04	819.19
372.24	678.76
372.44	695.14
372.63	734.93
372.83	753.65
373.03	699.82
373.22	770.04
373.42	725.57
373.62	767.70
373.81	809.83
374.01	760.67
374.21	777.06
374.40	816.85
374.60	912.81
374.79	840.25
374.99	851.96
375.19	840.25
375.38	844.93
375.58	833.23
375.78	950.26
375.97	898.77
376.17	901.11
376.37	851.96
376.56	898.77
376.76	833.23
376.95	847.27
377.15	889.40
377.35	905.79
377.54	875.36
377.74	875.36
377.93	915.15
378.13	997.07
378.33	896.43
378.52	903.45
378.72	870.68
378.91	959.62
379.11	912.81
379.31	1006.43
379.50	961.96
379.70	999.41
379.89	990.05
380.09	968.98
380.28	1011.11
380.48	1011.11
380.68	973.66
380.87	992.39
381.07	1001.75
381.26	1086.01
381.46	1086.01
381.65	990.05
381.85	901.11
382.04	1057.92
382.24	1008.77
382.43	1069.62
382.63	1046.22
382.83	1118.78
383.02	1095.37
383.22	1137.50
383.41	1109.41
383.61	1139.84
383.80	1181.97
384.00	1160.91
384.19	1217.08
384.39	1191.33
384.58	1086.01
384.78	1146.86
384.97	1224.10
385.17	1123.46
385.36	1221.76
385.56	1188.99
385.75	1160.91
385.95	1198.35
386.14	1184.31
386.34	1247.51
386.53	1245.16
386.72	1219.42
386.92	1261.55
387.11	1299.00
387.31	1205.38
387.50	1156.22
387.70	1214.74
387.89	1291.98
388.09	1345.81
388.28	1308.36
388.48	1235.80
388.67	1263.89
388.86	1268.57
389.06	1238.14
389.25	1306.02
389.45	1432.41
389.64	1259.21
389.84	1313.04
390.03	1394.96
390.22	1430.07
390.42	1420.71
390.61	1411.34
390.81	1399.64
391.00	1359.85
391.19	1446.45
391.39	1451.13
391.58	1490.92
391.78	1416.02
391.97	1502.62
392.16	1430.07
392.36	1486.24
392.55	1390.28
392.75	1617.31
392.94	1523.69
393.13	1509.65
393.33	1476.88
393.52	1640.72
393.71	1523.69
393.91	1699.23
394.10	1617.31
394.29	1624.33
394.49	1593.90
394.68	1547.09
394.88	1549.43
395.07	1689.87
395.26	1682.85
395.46	1624.33
395.65	1734.34
395.84	1619.65
396.04	1799.87
396.23	1633.69
396.42	1741.36
396.62	1640.72
396.81	1792.85
397.00	1717.95
397.19	1734.34
397.39	1753.06
397.58	1827.96
397.77	1797.53
397.97	1832.64
398.16	1771.79
398.35	1923.92
398.55	1851.36
398.74	1923.92
398.93	1888.81
399.12	1928.60
399.32	1963.71
399.51	1961.37
399.70	1968.39
399.90	1914.56
400.09	2043.29
400.28	1991.80
400.47	2085.42
400.67	2101.80
400.86	2043.29
401.05	2085.42
401.24	2108.82
401.44	2092.44
401.63	2083.08
401.82	2078.40
402.01	2024.56
402.21	2139.25
402.40	2160.31
402.59	2204.78
402.78	2202.44
402.97	2183.72
403.17	2200.10
403.36	2235.21
403.55	2284.36
403.74	2267.98
403.93	2380.32
404.13	2466.92
404.32	2200.10
404.51	2373.30
404.70	2483.31
404.89	2293.72
405.09	2466.92
405.28	2537.14
405.47	2377.98
405.66	2462.24
405.85	2504.37
406.05	2600.34
406.24	2478.63
406.43	2495.01
406.62	2633.10
406.81	2595.65
407.00	2602.68
407.20	2605.02
407.39	2565.23
407.58	2595.65
407.77	2782.90
407.96	2640.12
408.15	2712.68
408.34	2740.77
408.54	2738.43
408.73	2754.81
408.92	2822.69
409.11	2848.43
409.30	2885.88
409.49	2984.18
409.68	2899.92
409.87	2724.38
410.07	2911.63
410.26	3005.25
410.45	3047.38
410.64	3056.74
410.83	3084.83
411.02	3094.19
411.21	3183.13
411.40	2956.10
411.59	3229.94
411.78	3040.36
411.98	3094.19
412.17	3321.22
412.36	3283.77
412.55	3171.43
412.74	3365.69
412.93	3302.50
413.12	3297.81
413.31	3564.64
413.50	3529.53
413.69	3421.86
413.88	3658.26
414.07	3508.46
414.26	3510.80
414.45	3613.79
414.64	3712.09
414.83	3712.09
415.02	3616.13
415.22	3768.26
415.41	3864.22
415.60	3798.69
415.79	3962.53
415.98	4009.34
416.17	3864.22
416.36	3983.59
416.55	3934.44
416.74	3964.87
416.93	4166.15
417.12	4086.58
417.31	4159.13
417.50	4266.80
417.69	4290.20
417.88	4243.39
418.07	4278.50
418.26	4313.61
418.45	4360.42
418.64	4432.97
418.83	4447.02
419.02	4470.42
419.21	4465.74
419.39	4603.83
419.58	4568.73
419.77	4425.95
419.96	4428.29
420.15	4458.72
420.34	4580.43
420.53	4552.34
420.72	4606.17
420.91	4699.80
421.10	4760.65
421.29	4704.48
421.48	4692.77
421.67	4781.71
421.86	4823.84
422.05	4718.52
422.24	4779.37
422.43	4966.62
422.61	4990.02
422.80	4975.98
422.99	4819.16
423.18	4861.29
423.37	5034.49
423.56	4940.87
423.75	4968.96
423.94	4856.61
424.13	4561.70
424.32	4683.41
424.50	4795.76
424.69	5029.81
424.88	5053.22
425.07	4912.78
425.26	4861.29
425.45	4833.21
425.64	5041.51
425.83	5043.85
426.01	5036.83
426.20	4975.98
426.39	5020.45
426.58	5081.30
426.77	5074.28
426.96	4947.89
427.15	5174.92
427.33	5172.58
427.52	5188.97
427.71	5226.42
427.90	5156.20
428.09	5203.01
428.28	5275.57
428.46	5191.31
428.65	5518.98
428.84	5626.65
429.03	5448.77
429.22	5214.71
429.40	5411.32
429.59	5497.92
429.78	5458.13
429.97	5434.72
430.16	5366.85
430.34	5530.69
430.53	5689.84
430.72	5813.89
430.91	5689.84
431.10	5738.99
431.28	5694.52
431.47	5867.72
431.66	5895.81
431.85	5865.38
432.03	6026.88
432.22	5916.87
432.41	5970.71
432.60	5774.10
432.79	5884.11
432.97	5874.74
433.16	6033.90
433.35	5994.11
433.54	6005.81
433.72	6071.35
433.91	6193.06
434.10	6092.41
434.28	5959.00
434.47	6092.41
434.66	6251.57
434.85	6143.91
435.03	6300.72
435.22	6279.66
435.41	6497.33
435.59	6457.54
435.78	6452.86
435.97	6291.36
436.16	6555.84
436.34	6537.12
436.53	6471.58
436.72	6499.67
436.90	6630.74
437.09	6654.14
437.28	6525.41
437.46	6691.59
437.65	6614.35
437.84	6778.19
438.02	6693.93
438.21	6724.36
438.40	6719.68
438.58	6911.60
438.77	7035.65
438.96	6972.46
439.14	6958.41
439.33	7185.44
439.52	7194.81
439.70	7180.76
439.89	7297.79
440.08	7353.96
440.26	7250.98
440.45	7417.16
440.63	7389.07
440.82	7695.68
441.01	7534.18
441.19	7719.09
441.38	7819.73
441.57	7559.93
441.75	7686.32
441.94	7716.75
442.12	7742.49
442.31	7983.57
442.50	8112.30
442.68	8107.62
442.87	8051.44
443.05	8102.93
443.24	8231.66
443.43	8013.99
443.61	8161.45
443.80	8439.97
443.98	7857.18
444.17	7864.20
444.35	8208.26
444.54	8266.77
444.73	8327.63
444.91	8353.37
445.10	8243.37
445.28	8404.86
445.47	8105.28
445.65	8259.75
445.84	8479.76
446.02	8472.74
446.21	8187.19
446.39	8472.74
446.58	8336.99
446.77	8423.59
446.95	8362.73
447.14	8290.18
447.32	8442.31
447.51	8341.67
447.69	8315.92
447.88	8362.73
448.06	8472.74
448.25	8404.86
448.43	8748.92
448.62	8486.78
448.80	8613.17
448.99	8690.41
449.17	8564.02
449.36	8777.01
449.54	8723.18
449.73	8809.78
449.91	9018.08
450.10	9022.77
450.28	9022.77
450.46	8898.72
450.65	8987.66
450.83	9111.71
451.02	8931.48
451.20	9158.52
451.39	9114.05
451.57	9071.92
451.76	9029.79
451.94	9153.84
452.13	9242.78
452.31	9174.90
452.49	9252.14
452.68	9235.75
452.86	9212.35
453.05	9415.98
453.23	9453.42
453.42	9301.29
453.60	9322.35
453.78	9486.19
453.97	9465.13
454.15	9600.88
454.34	9298.95
454.52	9521.30
454.70	9591.52
454.89	9593.86
455.07	9879.40
455.26	9701.52
455.44	9764.72
455.62	9722.59
455.81	9998.77
455.99	9996.43
456.17	10085.37
456.36	10127.50
456.54	10174.31
456.73	10377.94
456.91	10415.38
457.09	10324.10
457.28	10616.67
457.46	10195.37
457.64	10588.58
457.83	10487.94
458.01	10436.45
458.19	10726.68
458.38	10471.56
458.56	10569.86
458.74	10764.12
458.93	10597.95
459.11	10649.44
459.29	10672.84
459.48	10839.02
459.66	10539.43
459.84	10885.83
460.03	11150.31
460.21	10934.98
460.39	10731.36
460.57	10963.07
460.76	11171.38
460.94	11087.12
461.12	11342.24
461.31	11213.51
461.49	11124.57
461.67	11066.05
461.85	11587.99
462.04	11169.04
462.22	11625.44
462.40	11438.20
462.59	11524.80
462.77	11454.58
462.95	11375.00
463.13	11382.03
463.32	11651.19
463.50	11653.53
463.68	11590.33
463.86	11709.70
464.05	11578.63
464.23	11854.81
464.41	11749.49
464.59	11913.33
464.78	12077.16
464.96	11882.90
465.14	11960.14
465.32	12189.51
465.50	12091.21
465.69	11995.25
465.87	12142.70
466.05	12037.38
466.23	11967.16
466.41	12002.27
466.60	12191.85
466.78	12198.87
466.96	12163.76
467.14	12088.87
467.32	12388.46
467.51	12425.90
467.69	12119.29
467.87	12306.54
468.05	12606.13
468.23	12313.56
468.41	12236.32
468.60	12758.26
468.78	12695.07
468.96	12594.42
469.14	12592.08
469.32	12922.10
469.50	12622.51
469.69	12994.65
469.87	13334.03
470.05	12968.91
470.23	12903.37
470.41	13121.04
470.59	13149.13
470.77	13011.04
470.95	13149.13
471.14	13558.72
471.32	13249.77
471.50	13516.59
471.68	13561.06
471.86	13645.32
472.04	13598.51
472.22	13923.85
472.40	13401.91
472.58	13837.25
472.77	13699.16
472.95	14324.08
473.13	14455.15
473.31	14043.21
473.49	14197.69
473.67	14022.15
473.85	14218.75
474.03	14719.63
474.21	14611.96
474.39	14487.92
474.57	14654.09
474.75	14881.13
474.93	15087.09
475.12	14960.70
475.30	15124.54
475.48	15218.16
475.66	14965.39
475.84	14979.43
476.02	15131.56
476.20	15260.29
476.38	15742.44
476.56	15957.77
476.74	15840.75
476.92	15763.51
477.10	15880.53
477.28	16105.23
477.46	16135.65
477.64	16161.40
477.82	16175.44
478.00	16692.70
478.18	16884.62
478.36	17135.06
478.54	17291.88
478.72	16826.11
478.90	17427.63
479.08	17624.23
479.26	17710.83
479.44	17404.22
479.62	17617.21
479.80	18113.41
479.98	18281.92
480.16	18405.97
480.34	18162.56
480.52	18808.54
480.70	18508.96
480.88	18221.07
481.06	18773.44
481.24	18850.67
481.41	19103.45
481.59	19260.27
481.77	19529.43
481.95	19232.18
482.13	19487.30
482.31	19714.33
482.49	20203.50
482.67	20081.80
482.85	20362.66
483.03	20676.29
483.21	20570.97
483.39	20678.63
483.57	20650.55
483.74	20896.30
483.92	21043.76
484.10	21160.78
484.28	21392.50
484.46	21802.09
484.64	22300.62
484.82	21781.03
485.00	22312.33
485.18	22892.78
485.35	22918.53
485.53	22754.69
485.71	22909.16
485.89	23346.84
486.07	23463.87
486.25	23293.01
486.43	23536.43
486.61	23704.95
486.78	24027.94
486.96	24254.97
487.14	24428.17
487.32	24521.79
487.50	24877.55
487.68	24837.76
487.85	24905.64
488.03	25301.19
488.21	25888.67
488.39	25516.52
488.57	25640.57
488.75	25851.22
488.92	26127.40
489.10	26656.36
489.28	26799.13
489.46	27021.48
489.64	27030.85
489.81	27407.67
489.99	27330.44
490.17	27498.95
490.35	28058.34
490.53	28002.17
490.70	28334.53
490.88	28079.41
491.06	28786.25
491.24	28645.82
491.41	28987.53
491.59	29249.67
491.77	29193.50
491.95	29551.60
492.13	29563.31
492.30	30050.14
492.48	29898.00
492.66	30328.66
492.84	30047.80
493.01	30141.42
493.19	30759.32
493.37	30897.41
493.54	30670.38
493.72	31283.60
493.90	31335.09
494.08	31494.25
494.25	31906.18
494.43	31950.65
494.61	32067.68
494.79	32224.50
494.96	32577.92
495.14	32589.62
495.32	32776.86
495.49	32826.01
495.67	32966.45
495.85	33294.12
496.02	33729.46
496.20	33689.67
496.38	33860.53
496.55	33916.70
496.73	34843.56
496.91	34312.25
497.09	34836.53
497.26	34789.72
497.44	34653.97
497.62	35669.76
497.79	35271.87
497.97	35047.18
498.14	35800.83
498.32	36231.49
498.50	36226.81
498.67	36259.58
498.85	36175.32
499.03	36376.61
499.20	36549.81
499.38	36568.53
499.56	36868.12
499.73	37141.96
499.91	36842.37
500.08	37076.43
500.26	37221.54
500.44	37357.29
500.61	37806.67
500.79	37502.40
500.97	37841.78
501.14	38426.92
501.32	38471.39
501.49	38309.89
501.67	38932.47
501.84	38768.63
502.02	38689.06
502.20	38670.33
502.37	39051.84
502.55	39168.87
502.72	39192.27
502.90	39405.26
503.07	39093.97
503.25	39438.03
503.43	39718.89
503.60	39763.36
503.78	40208.06
503.95	40030.18
504.13	40116.78
504.30	40741.71
504.48	40250.19
504.65	40748.73
504.83	40699.58
505.01	41113.85
505.18	40559.14
505.36	41116.19
505.53	40912.56
505.71	41336.20
505.88	41750.48
506.06	41214.49
506.23	41668.56
506.41	41598.34
506.58	41752.82
506.76	42190.50
506.93	42096.88
507.11	41801.97
507.28	42113.26
507.46	42319.23
507.63	42663.28
507.81	43150.12
507.98	42813.08
508.16	42792.01
508.33	42880.95
508.50	43370.13
508.68	43250.76
508.85	43402.89
509.03	43339.70
509.20	43707.16
509.38	44402.30
509.55	43709.50
509.73	44177.61
509.90	44545.08
510.08	44463.16
510.25	44210.38
510.42	44524.01
510.60	44786.15
510.77	45020.20
510.95	45223.83
511.12	45310.43
511.30	44959.35
511.47	45385.33
511.64	45284.68
511.82	45439.16
511.99	45387.67
512.17	46122.60
512.34	45476.61
512.51	46122.60
512.69	46094.51
512.86	46036.00
513.04	46045.36
513.21	46433.89
513.38	46522.83
513.56	47210.95
513.73	46555.60
513.90	46997.96
514.08	47012.00
514.25	47224.99
514.43	47463.72
514.60	47299.89
514.77	47107.96
514.95	47356.06
515.12	47456.70
515.29	47136.05
515.47	47735.23
515.64	47714.16
515.81	47641.60
515.99	47903.74
516.16	47938.85
516.33	48165.88
516.51	48210.35
516.68	48465.47
516.85	48465.47
517.03	48697.19
517.20	48882.09
517.37	48685.48
517.54	48725.27
517.72	48891.45
517.89	49137.21
518.06	48954.64
518.24	48964.01
518.41	49052.95
518.58	48982.73
518.75	49226.15
518.93	49256.57
519.10	49071.67
519.27	49918.95
519.45	49474.24
519.62	49998.52
519.79	49703.62
519.96	49925.97
520.14	49684.89
520.31	49846.39
520.48	50178.75
520.65	50101.51
520.83	50071.08
521.00	50171.72
521.17	50190.45
521.34	50735.79
521.52	50604.72
521.69	50726.43
521.86	50829.41
522.03	51079.85
522.20	51110.28
522.38	50958.14
522.55	51372.42
522.72	51264.75
522.89	51194.54
523.07	51686.05
523.24	51470.72
523.41	51339.65
523.58	51236.67
523.75	51590.09
523.92	51533.92
524.10	51798.40
524.27	51774.99
524.44	52158.84
524.61	52264.16
524.78	52233.74
524.96	51763.29
525.13	52439.70
525.30	52310.97
525.47	52294.59
525.64	52451.41
525.81	52573.11
525.98	52353.10
526.16	52481.83
526.33	52573.11
526.50	52870.36
526.67	52364.81
526.84	52734.61
527.01	52692.48
527.18	52636.31
527.36	52743.97
527.53	52783.76
527.70	53268.25
527.87	53099.73
528.04	52842.27
528.21	53172.29
528.38	53078.67
528.55	53301.02
528.72	53146.54
528.89	53219.10
529.07	53270.59
529.24	53134.84
529.41	53769.13
529.58	53495.28
529.75	53698.91
529.92	53682.53
530.09	53570.18
530.26	53886.15
530.43	54120.21
530.60	53591.25
530.77	53687.21
530.94	53918.92
531.11	53965.73
531.28	53930.62
531.46	53886.15
531.63	54171.70
531.80	53839.34
531.97	54255.96
532.14	54309.79
532.31	54485.33
532.48	54178.72
532.65	54408.09
532.82	54342.56
532.99	54553.21
533.16	54401.07
533.33	54628.10
533.50	54976.84
533.67	54672.57
533.84	54686.62
534.01	54883.22
534.18	54925.35
534.35	55278.77
534.52	54958.12
534.69	55126.64
534.86	55011.95
535.03	54915.99
535.20	55187.49
535.37	55215.58
535.54	55313.88
535.71	55217.92
535.88	55040.04
536.05	55292.82
536.22	55318.56
536.38	55494.10
536.55	55669.64
536.72	55643.90
536.89	55374.73
537.06	55234.30
537.23	55437.93
537.40	55505.80
537.57	55442.61
537.74	55618.15
537.91	55749.22
538.08	55664.96
538.25	55491.76
538.42	55866.25
538.59	55934.12
538.75	55913.06
538.92	55983.27
539.09	56170.52
539.26	56041.79
539.43	56044.13
539.60	56200.94
539.77	55973.91
539.94	56250.09
540.11	56226.69
540.28	56282.86
540.44	56186.90
540.61	56425.64
540.78	56069.87
540.95	56310.95
541.12	56320.31
541.29	56418.61
541.46	56418.61
541.62	56512.23
541.79	56589.47
541.96	56226.69
542.13	56435.00
542.30	56364.78
542.47	56790.76
542.63	56959.28
542.80	56863.32
542.97	57176.95
543.14	57188.65
543.31	57188.65
543.48	57221.42
543.64	57174.61
543.81	57165.24
543.98	57340.78
544.15	57085.67
544.32	57483.56
544.48	57418.02
544.65	57293.97
544.82	57340.78
544.99	57151.20
545.16	57499.94
545.32	57375.89
545.49	57401.64
545.66	57434.41
545.83	57432.07
546.00	57523.35
546.16	57497.60
546.33	57654.42
546.50	57359.51
546.67	57411.00
546.83	57340.78
547.00	57567.82
547.17	57521.01
547.34	57673.14
547.50	57640.37
547.67	57993.79
547.84	57677.82
548.00	57977.41
548.17	58078.05
548.34	57972.73
548.51	58164.65
548.67	58115.50
548.84	58145.93
549.01	57907.19
549.18	57958.69
549.34	57865.06
549.51	58131.89
549.68	58429.13
549.84	58370.62
550.01	58279.34
550.18	58042.95
550.34	58333.17
550.51	58246.57
550.68	58363.60
550.84	58176.36
551.01	58286.36
551.18	58354.24
551.34	58478.28
551.51	58424.45
551.68	58452.54
551.84	58571.91
552.01	58417.43
552.18	58464.24
552.34	58375.30
552.51	58684.25
552.68	58363.60
552.84	58688.93
553.01	58768.51
553.18	58660.85
553.34	58780.21
553.51	58653.82
553.67	58731.06
553.84	58890.22
554.01	59056.40
554.17	59143.00
554.34	58857.45
554.51	58789.58
554.67	58927.67
554.84	58780.21
555.00	58904.26
555.17	58946.39
555.33	58897.24
555.50	58997.88
555.67	58801.28
555.83	58885.54
556.00	59194.49
556.16	59325.56
556.33	59175.76
556.50	59199.17
556.66	59393.43
556.83	59014.27
556.99	59072.78
557.16	59292.79
557.32	59374.71
557.49	59505.78
557.65	59138.32
557.82	59353.65
557.98	59110.23
558.15	59047.04
558.32	59341.94
558.48	59110.23
558.65	59393.43
558.81	59498.76
558.98	59330.24
559.14	59583.02
559.31	59496.42
559.47	59480.03
559.64	59578.34
559.80	59475.35
559.97	59615.79
560.13	59454.29
560.30	59444.93
560.46	59847.50
560.63	59800.69
560.79	59566.63
560.96	59898.99
561.12	59690.68
561.29	59533.87
561.45	59831.11
561.61	59803.03
561.78	59718.77
561.94	59615.79
562.11	59674.30
562.27	59690.68
562.44	59950.48
562.60	59910.69
562.77	59753.88
562.93	59749.20
563.10	59831.11
563.26	59730.47
563.42	60079.21
563.59	59955.16
563.75	59978.57
563.92	60088.57
564.08	59880.27
564.24	60041.76
564.41	60095.60
564.57	60046.44
564.74	60114.32
564.90	59999.63
565.07	60238.37
565.23	59964.52
565.39	60072.19
565.56	59980.91
565.72	60158.79
565.88	60177.51
566.05	60055.81
566.21	60231.35
566.38	60060.49
566.54	60219.64
566.70	60109.64
566.87	60310.92
567.03	60062.83
567.19	60240.71
567.36	60158.79
567.52	60182.19
567.68	60502.85
567.85	60069.85
568.01	60275.82
568.17	60172.83
568.34	60271.14
568.50	60266.45
568.66	60030.06
568.83	60292.20
568.99	60221.98
569.15	60479.44
569.32	60406.89
569.48	60334.33
569.64	60530.93
569.81	60453.70
569.97	60198.58
570.13	60294.54
570.30	60261.77
570.46	60217.30
570.62	60498.17
570.78	60303.90
570.95	60315.61
571.11	60444.33
571.27	60292.20
571.43	60577.75
571.60	60519.23
571.76	60268.79
571.92	60444.33
572.09	60449.02
572.25	60533.28
572.41	60444.33
572.57	60470.08
572.74	60584.77
572.90	60406.89
573.06	60493.49
573.22	60601.15
573.38	60484.12
573.55	60498.17
573.71	60718.18
573.87	60699.45
574.03	60495.83
574.20	60647.96
574.36	60605.83
574.52	60636.26
574.68	60795.42
574.84	60662.00
575.01	60666.69
575.17	60739.24
575.33	60570.72
575.49	60439.65
575.65	60650.30
575.82	60769.67
575.98	60755.63
576.14	60846.91
576.30	60776.69
576.46	60631.58
576.62	60769.67
576.79	60748.60
576.95	60392.84
577.11	60580.09
577.27	60912.44
577.43	60830.52
577.59	60631.58
577.75	60694.77
577.92	60533.28
578.08	60666.69
578.24	60692.43
578.40	60992.02
578.56	60687.75
578.72	60601.15
578.88	60985.00
579.04	60963.93
579.21	60683.07
579.37	61013.08
579.53	60846.91
579.69	60559.02
579.85	60680.73
580.01	60743.92
580.17	60559.02
580.33	60907.76
580.49	60884.36
580.65	60903.08
580.82	60900.74
580.98	60694.77
581.14	60573.06
581.30	60945.21
581.46	60914.78
581.62	60921.80
581.78	60783.71
581.94	60882.02
582.10	60704.13
582.26	60818.82
582.42	60900.74
582.58	61015.43
582.74	60809.46
582.90	60891.38
583.06	60912.44
583.22	60722.86
583.38	60781.37
583.54	60753.29
583.70	60917.12
583.86	60837.54
584.02	60818.82
584.18	60924.14
584.34	60914.78
584.50	60809.46
584.66	60746.26
584.82	60584.77
584.98	60884.36
585.14	61078.62
585.30	60807.12
585.46	60959.25
585.62	60973.30
585.78	60977.98
585.94	60769.67
586.10	61066.92
586.26	60842.23
586.42	60734.56
586.58	60917.12
586.74	60846.91
586.90	61050.53
587.06	61078.62
587.22	61024.79
587.38	61001.38
587.54	60947.55
587.70	61111.39
587.86	60994.36
588.02	60697.11
588.18	61336.08
588.34	61003.72
588.49	60828.18
