SpectraSuite Data File
++++++++++++++++++++++++++++++++++++
Date: Fri Oct 25 10:47:26 EDT 2013
User: price-jones
Dark Spectrum Present: No
Reference Spectrum Present: No
Number of Sampled Component Spectra: 1
Spectrometers: USB2+H05261
Integration Time (usec): 100000 (USB2+H05261)
Spectra Averaged: 1 (USB2+H05261)
Boxcar Smoothing: 0 (USB2+H05261)
Correct for Electrical Dark: No (USB2+H05261)
Strobe/Lamp Enabled: No (USB2+H05261)
Correct for Detector Non-linearity: No (USB2+H05261)
Correct for Stray Light: No (USB2+H05261)
Number of Pixels in Processed Spectrum: 2048
>>>>>Begin Processed Spectral Data<<<<<
365.73	98.30
365.92	98.30
366.12	98.30
366.32	35.11
366.52	16.38
366.72	77.24
366.91	2.34
367.11	23.41
367.31	7.02
367.51	77.24
367.70	46.81
367.90	56.17
368.10	74.90
368.30	51.49
368.49	23.41
368.69	79.58
368.89	88.94
369.09	98.30
369.28	84.26
369.48	37.45
369.68	56.17
369.87	149.79
370.07	60.85
370.27	117.03
370.47	175.54
370.66	355.76
370.86	428.32
371.06	465.77
371.25	470.45
371.45	404.91
371.65	411.93
371.84	486.83
372.04	463.43
372.24	468.11
372.44	475.13
372.63	463.43
372.83	493.85
373.03	524.28
373.22	510.24
373.42	526.62
373.62	505.56
373.81	468.11
374.01	524.28
374.21	573.43
374.40	552.37
374.60	608.54
374.79	554.71
374.99	585.13
375.19	634.29
375.38	554.71
375.58	578.11
375.78	667.05
375.97	622.58
376.17	653.01
376.37	613.22
376.56	606.20
376.76	580.45
376.95	552.37
377.15	620.24
377.35	636.63
377.54	645.99
377.74	653.01
377.93	615.56
378.13	582.79
378.33	615.56
378.52	528.96
378.72	613.22
378.91	667.05
379.11	617.90
379.31	603.86
379.50	571.09
379.70	629.60
379.89	580.45
380.09	601.52
380.28	624.92
380.48	704.50
380.68	554.71
380.87	622.58
381.07	631.94
381.26	697.48
381.46	697.48
381.65	706.84
381.85	660.03
382.04	671.73
382.24	650.67
382.43	697.48
382.63	685.78
382.83	678.76
383.02	695.14
383.22	744.29
383.41	638.97
383.61	683.44
383.80	830.89
384.00	781.74
384.19	732.59
384.39	744.29
384.58	772.38
384.78	755.99
384.97	725.57
385.17	791.10
385.36	702.16
385.56	793.44
385.75	741.95
385.95	830.89
386.14	849.61
386.34	826.21
386.53	847.27
386.72	777.06
386.92	788.76
387.11	830.89
387.31	910.47
387.50	875.36
387.70	791.10
387.89	842.59
388.09	798.12
388.28	777.06
388.48	772.38
388.67	875.36
388.86	924.51
389.06	849.61
389.25	947.92
389.45	908.13
389.64	936.21
389.84	922.17
390.03	922.17
390.22	924.51
390.42	912.81
390.61	943.24
390.81	919.83
391.00	898.77
391.19	987.71
391.39	905.79
391.58	938.55
391.78	908.13
391.97	959.62
392.16	961.96
392.36	980.68
392.55	1048.56
392.75	987.71
392.94	922.17
393.13	957.28
393.33	912.81
393.52	980.68
393.71	1090.69
393.91	1018.13
394.10	985.37
394.29	1006.43
394.49	1064.94
394.68	1093.03
394.88	1062.60
395.07	1156.22
395.26	1097.71
395.46	1008.77
395.65	1226.44
395.84	1149.20
396.04	1153.88
396.23	1043.88
396.42	1139.84
396.62	1163.25
396.81	1179.63
397.00	1081.33
397.19	1151.54
397.39	1210.06
397.58	1224.10
397.77	1242.82
397.97	1275.59
398.16	1329.42
398.35	1254.53
398.55	1214.74
398.74	1299.00
398.93	1294.32
399.12	1306.02
399.32	1366.87
399.51	1387.94
399.70	1308.36
399.90	1423.05
400.09	1406.66
400.28	1369.21
400.47	1394.96
400.67	1509.65
400.86	1497.94
401.05	1392.62
401.24	1472.20
401.44	1537.73
401.63	1458.15
401.82	1497.94
402.01	1465.18
402.21	1526.03
402.40	1598.59
402.59	1507.30
402.78	1614.97
402.97	1526.03
403.17	1626.67
403.36	1413.68
403.55	1652.42
403.74	1558.80
403.93	1610.29
404.13	1661.78
404.32	1577.52
404.51	1614.97
404.70	1743.70
404.89	1643.06
405.09	1813.92
405.28	1764.76
405.47	1680.50
405.66	1764.76
405.85	1813.92
406.05	1717.95
406.24	1797.53
406.43	1713.27
406.62	1811.57
406.81	1816.26
407.00	1781.15
407.20	1844.34
407.39	1760.08
407.58	1928.60
407.77	1914.56
407.96	1921.58
408.15	1886.47
408.34	1893.49
408.54	1973.07
408.73	1914.56
408.92	2031.58
409.11	1928.60
409.30	2054.99
409.49	2057.33
409.68	2057.33
409.87	2040.95
410.07	2122.87
410.26	2174.36
410.45	2099.46
410.64	2143.93
410.83	2157.97
411.02	2207.13
411.21	2307.77
411.40	2211.81
411.59	2286.70
411.78	2312.45
411.98	2207.13
412.17	2242.23
412.36	2305.43
412.55	2385.01
412.74	2485.65
412.93	2443.52
413.12	2333.51
413.31	2544.16
413.50	2509.05
413.69	2457.56
413.88	2455.22
414.07	2602.68
414.26	2562.89
414.45	2630.76
414.64	2628.42
414.83	2644.81
415.02	2679.91
415.22	2820.35
415.41	2799.28
415.60	2654.17
415.79	2799.28
415.98	2829.71
416.17	2923.33
416.36	2782.90
416.55	2834.39
416.74	2883.54
416.93	2937.37
417.12	2787.58
417.31	2956.10
417.50	2951.42
417.69	3059.08
417.88	3047.38
418.07	2920.99
418.26	3028.65
418.45	3068.44
418.64	3220.58
418.83	3045.04
419.02	3091.85
419.21	3187.81
419.39	3361.01
419.58	3164.40
419.77	3272.07
419.96	3262.71
420.15	3255.69
420.34	3318.88
420.53	3293.13
420.72	3353.99
420.91	3375.05
421.10	3375.05
421.29	3405.48
421.48	3222.92
421.67	3433.57
421.86	3276.75
422.05	3398.46
422.24	3382.07
422.43	3365.69
422.61	3445.27
422.80	3485.06
422.99	3471.01
423.18	3454.63
423.37	3602.08
423.56	3581.02
423.75	3405.48
423.94	3342.28
424.13	3342.28
424.32	3337.60
424.50	3555.27
424.69	3620.81
424.88	3566.98
425.07	3510.80
425.26	3499.10
425.45	3471.01
425.64	3531.87
425.83	3592.72
426.01	3552.93
426.20	3396.12
426.39	3712.09
426.58	3559.95
426.77	3581.02
426.96	3550.59
427.15	3405.48
427.33	3730.81
427.52	3861.88
427.71	3779.97
427.90	3669.96
428.09	3646.55
428.28	3761.24
428.46	3737.84
428.65	3644.21
428.84	3868.91
429.03	3892.31
429.22	3684.00
429.40	3749.54
429.59	3882.95
429.78	3581.02
429.97	3599.74
430.16	3716.77
430.34	3754.22
430.53	3892.31
430.72	3817.41
430.91	3950.82
431.10	3995.29
431.28	4039.76
431.47	4149.77
431.66	4163.81
431.85	4173.18
432.03	4248.07
432.22	4266.80
432.41	4203.60
432.60	4095.94
432.79	4046.79
432.97	4170.83
433.16	4393.19
433.35	4154.45
433.54	4156.79
433.72	4177.86
433.91	4292.54
434.10	4428.29
434.28	4255.09
434.47	4304.25
434.66	4395.53
434.85	4334.67
435.03	4299.56
435.22	4505.53
435.41	4606.17
435.59	4500.85
435.78	4561.70
435.97	4542.98
436.16	4409.57
436.34	4519.57
436.53	4477.44
436.72	4762.99
436.90	4631.92
437.09	4695.11
437.28	4627.24
437.46	4732.56
437.65	4695.11
437.84	4559.36
438.02	4505.53
438.21	4594.47
438.40	4585.11
438.58	4938.53
438.77	4816.82
438.96	4840.23
439.14	4870.65
439.33	5064.92
439.52	5123.43
439.70	5093.01
439.89	5170.24
440.08	5125.77
440.26	5212.37
440.45	5039.17
440.63	5107.05
440.82	5371.53
441.01	5324.72
441.19	5446.43
441.38	5441.75
441.57	5416.00
441.75	5568.13
441.94	5544.73
442.12	5488.56
442.31	5659.42
442.50	5717.93
442.68	5563.45
442.87	5628.99
443.05	5666.44
443.24	5762.40
443.43	5631.33
443.61	5949.64
443.80	5867.72
443.98	5750.70
444.17	5624.31
444.35	6008.16
444.54	5966.03
444.73	5818.57
444.91	5699.20
445.10	5741.33
445.28	5844.32
445.47	5631.33
445.65	5804.53
445.84	5860.70
446.02	5987.09
446.21	5830.27
446.39	5930.92
446.58	5755.38
446.77	5919.21
446.95	5928.58
447.14	5841.98
447.32	5844.32
447.51	5951.98
447.69	5935.60
447.88	5984.75
448.06	6090.07
448.25	6052.63
448.43	5996.45
448.62	5898.15
448.80	5856.02
448.99	5991.77
449.17	5996.45
449.36	6078.37
449.54	6274.98
449.73	6258.59
449.91	6282.00
450.10	6125.18
450.28	6282.00
450.46	6235.19
450.65	6298.38
450.83	6314.77
451.02	6284.34
451.20	6326.47
451.39	6307.74
451.57	6225.82
451.76	6410.73
451.94	6356.90
452.13	6422.43
452.31	6450.52
452.49	6307.74
452.68	6567.54
452.86	6399.02
453.05	6455.20
453.23	6502.01
453.42	6700.95
453.60	6527.75
453.78	6649.46
453.97	6642.44
454.15	6633.08
454.34	6623.72
454.52	6712.66
454.70	6689.25
454.89	6733.72
455.07	6841.39
455.26	6729.04
455.44	6867.13
455.62	7047.35
455.81	6773.51
455.99	6871.81
456.17	7049.69
456.36	6927.99
456.54	7091.82
456.73	7119.91
456.91	7194.81
457.09	7119.91
457.28	7463.97
457.46	7227.57
457.64	7199.49
457.83	7192.47
458.01	7187.79
458.19	7531.84
458.38	7391.41
458.56	7447.58
458.74	7339.92
458.93	7215.87
459.11	7527.16
459.29	7534.18
459.48	7475.67
459.66	7527.16
459.84	7562.27
460.03	7651.21
460.21	7470.99
460.39	7578.65
460.57	7590.36
460.76	7555.25
460.94	7676.96
461.12	7786.96
461.31	7698.02
461.49	7651.21
461.67	7707.38
461.85	7927.39
462.04	7796.32
462.22	8367.42
462.40	7939.10
462.59	8021.02
462.77	8013.99
462.95	8191.88
463.13	8028.04
463.32	7939.10
463.50	8124.00
463.68	8198.90
463.86	8063.15
464.05	7962.50
464.23	7990.59
464.41	8173.15
464.59	7927.39
464.78	8116.98
464.96	8147.40
465.14	8053.78
465.32	8266.77
465.50	8196.56
465.69	8280.82
465.87	8360.39
466.05	8465.72
466.23	8264.43
466.41	8379.12
466.60	8479.76
466.78	8276.13
466.96	8358.05
467.14	8400.18
467.32	8491.46
467.51	8472.74
467.69	8454.02
467.87	8547.64
468.05	8648.28
468.23	8535.93
468.41	8297.20
468.60	8578.06
468.78	8542.96
468.96	8659.98
469.14	8812.12
469.32	8641.26
469.50	8627.21
469.69	8784.03
469.87	8870.63
470.05	8758.28
470.23	9050.85
470.41	8887.01
470.59	9022.77
470.77	8823.82
470.95	9226.39
471.14	9207.67
471.32	9090.64
471.50	9174.90
471.68	9291.93
471.86	9268.52
472.04	9334.06
472.22	9507.26
472.40	9308.31
472.58	9327.03
472.77	9549.39
472.95	9486.19
473.13	9540.02
473.31	9315.33
473.49	9540.02
473.67	9570.45
473.85	9617.26
474.03	9902.81
474.21	9816.21
474.39	9797.48
474.57	10090.05
474.75	9825.57
474.93	10328.78
475.12	10132.18
475.30	10106.43
475.48	10204.74
475.66	10043.24
475.84	10239.84
476.02	10485.60
476.20	10209.42
476.38	10532.41
476.56	10878.81
476.74	10520.71
476.92	10766.46
477.10	10696.25
477.28	10808.59
477.46	10628.37
477.64	11028.60
477.82	11330.53
478.00	11375.00
478.18	11178.40
478.36	11297.77
478.54	11332.87
478.72	11501.39
478.90	11674.59
479.08	11737.79
479.26	11880.56
479.44	11988.22
479.62	12013.97
479.80	12060.78
479.98	12346.33
480.16	12306.54
480.34	12208.23
480.52	12512.50
480.70	12505.48
480.88	12123.98
481.06	12545.27
481.24	12510.16
481.41	12882.31
481.59	12870.61
481.77	12950.18
481.95	13296.58
482.13	13254.45
482.31	13184.24
482.49	13317.65
482.67	13516.59
482.85	13558.72
483.03	13844.27
483.21	13860.65
483.39	13921.51
483.57	13951.93
483.74	14132.15
483.92	14246.84
484.10	14019.81
484.28	14408.34
484.46	14663.46
484.64	14597.92
484.82	14703.25
485.00	14736.01
485.18	15089.43
485.35	15325.83
485.53	14808.57
485.71	14934.96
485.89	15255.61
486.07	15215.82
486.25	15466.26
486.43	15576.27
486.61	15604.35
486.78	15740.10
486.96	15822.02
487.14	16280.77
487.32	16032.67
487.50	16294.81
487.68	16519.50
487.85	16741.85
488.03	16791.00
488.21	17048.46
488.39	17216.98
488.57	17121.02
488.75	16959.52
488.92	17584.44
489.10	17528.27
489.28	17612.53
489.46	17722.54
489.64	17694.45
489.81	18387.25
489.99	18307.67
490.17	18434.06
490.35	18618.96
490.53	18363.84
490.70	18897.49
490.88	18654.07
491.06	19044.94
491.24	18991.11
491.41	19049.62
491.59	18941.96
491.77	19005.15
491.95	19468.58
492.13	19379.64
492.30	20105.20
492.48	19864.13
492.66	19960.09
492.84	19868.81
493.01	19967.11
493.19	20198.82
493.37	20533.52
493.54	20599.05
493.72	20556.93
493.90	20620.12
494.08	21020.35
494.25	20898.64
494.43	21270.79
494.61	21315.26
494.79	21394.84
494.96	21249.72
495.14	21502.50
495.32	21706.13
495.49	21876.99
495.67	21837.20
495.85	21617.19
496.02	22008.06
496.20	22026.78
496.38	22153.17
496.55	22457.44
496.73	23133.86
496.91	22586.17
497.09	22822.56
497.26	23147.90
497.44	23218.11
497.62	23356.21
497.79	23536.43
497.97	22965.34
498.14	23632.39
498.32	23536.43
498.50	23683.88
498.67	23852.40
498.85	24011.56
499.03	24013.90
499.20	24114.54
499.38	24215.18
499.56	24259.65
499.73	24130.92
499.91	24224.54
500.08	24432.85
500.26	24194.12
500.44	24734.78
500.61	24542.86
500.79	24402.43
500.97	24779.25
501.14	25048.41
501.32	25268.42
501.49	25200.55
501.67	25785.68
501.84	25357.36
502.02	25432.26
502.20	25326.94
502.37	25366.73
502.55	25507.16
502.72	25886.32
502.90	25462.69
503.07	25792.70
503.25	25944.84
503.43	25717.81
503.60	25717.81
503.78	26127.40
503.95	26431.67
504.13	26139.10
504.30	26272.51
504.48	26382.52
504.65	26663.38
504.83	27016.80
505.01	27187.66
505.18	26888.07
505.36	27124.47
505.53	26714.87
505.71	27232.13
505.88	27538.74
506.06	26984.04
506.23	27428.74
506.41	27742.37
506.58	27679.18
506.76	27718.96
506.93	27920.25
507.11	27559.81
507.28	27810.25
507.46	27819.61
507.63	27772.80
507.81	28662.20
507.98	28247.93
508.16	28119.20
508.33	28133.24
508.50	28336.87
508.68	28327.50
508.85	28676.24
509.03	28678.58
509.20	28851.78
509.38	28858.81
509.55	28573.26
509.73	28917.32
509.90	29146.69
510.08	28615.39
510.25	29184.14
510.42	29329.25
510.60	29661.61
510.77	29493.09
510.95	29443.94
511.12	29656.93
511.30	29900.34
511.47	29591.39
511.64	29851.19
511.82	29862.90
511.99	29926.09
512.17	30092.27
512.34	29535.22
512.51	29928.43
512.69	30579.10
512.86	30263.13
513.04	30632.93
513.21	30801.45
513.38	30855.28
513.56	30522.93
513.73	30682.08
513.90	30551.01
514.08	30920.82
514.25	30768.68
514.43	30635.27
514.60	31103.38
514.77	30792.09
514.95	31227.43
515.12	31108.06
515.29	31414.67
515.47	31882.78
515.64	31707.24
515.81	31178.28
515.99	31353.82
516.16	31732.98
516.33	31133.81
516.51	31711.92
516.68	31281.26
516.85	31775.11
517.03	31782.13
517.20	31585.53
517.37	31908.52
517.54	31950.65
517.72	32210.45
517.89	31931.93
518.06	32287.69
518.24	32205.77
518.41	32144.92
518.58	32081.72
518.75	32407.06
518.93	32666.86
519.10	32781.54
519.27	32711.33
519.45	32507.70
519.62	32868.14
519.79	33163.05
519.96	33053.05
520.14	33385.40
520.31	32816.65
520.48	33436.89
520.65	33223.90
520.83	33067.09
521.00	33528.17
521.17	33324.55
521.34	33563.28
521.52	33598.39
521.69	33956.49
521.86	33902.66
522.03	33961.17
522.20	34141.39
522.38	34499.50
522.55	34506.52
522.72	34031.39
522.89	33940.11
523.07	34361.40
523.24	34340.34
523.41	34506.52
523.58	34316.93
523.75	34754.61
523.92	34866.96
524.10	35173.57
524.27	34944.20
524.44	34969.94
524.61	34848.24
524.78	34892.71
524.96	34789.72
525.13	35466.14
525.30	35831.26
525.47	35332.73
525.64	35852.33
525.81	35330.39
525.98	35257.83
526.16	35332.73
526.33	35082.29
526.50	35592.53
526.67	35152.51
526.84	35391.24
527.01	35314.00
527.18	35658.06
527.36	35803.17
527.53	35859.35
527.70	36477.25
527.87	35969.35
528.04	35889.77
528.21	36105.10
528.38	36400.01
528.55	36341.50
528.72	36091.06
528.89	36371.92
529.07	36079.36
529.24	36797.90
529.41	36388.31
529.58	36306.39
529.75	36430.44
529.92	36655.13
530.09	36519.38
530.26	37071.75
530.43	36994.51
530.60	36659.81
530.77	36510.02
530.94	36781.52
531.11	37076.43
531.28	37085.79
531.46	37006.21
531.63	37404.10
531.80	37090.47
531.97	37528.15
532.14	37324.52
532.31	37359.63
532.48	37273.03
532.65	37565.60
532.82	37553.90
532.99	37773.91
533.16	37443.89
533.33	37577.30
533.50	37581.98
533.67	37940.08
533.84	37778.59
534.01	38483.09
534.18	37755.18
534.35	38103.92
534.52	37670.92
534.69	38234.99
534.86	38375.42
535.03	38227.97
535.20	38202.22
535.37	38579.05
535.54	38345.00
535.71	38237.33
535.88	38522.88
536.05	38419.89
536.22	38569.69
536.38	38356.70
536.55	38284.14
536.72	38389.47
536.89	38387.13
537.06	38660.97
537.23	38920.77
537.40	38518.20
537.57	38888.00
537.74	38962.90
537.91	38955.88
538.08	39339.72
538.25	39047.16
538.42	39002.69
538.59	39283.55
538.75	38504.15
538.92	39140.78
539.09	39342.06
539.26	39040.14
539.43	39358.45
539.60	38920.77
539.77	38862.26
539.94	38930.13
540.11	39007.37
540.28	39234.40
540.44	39077.58
540.61	39225.04
540.78	39428.66
540.95	39473.13
541.12	39068.22
541.29	39288.23
541.46	39679.10
541.62	39927.20
541.79	39541.01
541.96	39695.49
542.13	39480.16
542.30	39894.43
542.47	39849.96
542.63	39688.46
542.80	39789.11
542.97	40463.18
543.14	40671.49
543.31	40009.12
543.48	40252.53
543.64	40669.15
543.81	40828.30
543.98	40313.39
544.15	40219.77
544.32	40627.02
544.48	40804.90
544.65	40683.19
544.82	40807.24
544.99	40566.16
545.16	40556.80
545.32	40514.67
545.49	40793.20
545.66	40877.46
545.83	41284.71
546.00	41151.30
546.16	40950.01
546.33	40559.14
546.50	40659.79
546.67	41083.42
546.83	40322.75
547.00	40832.99
547.17	41008.53
547.34	40994.48
547.50	40957.03
547.67	41214.49
547.84	41270.67
548.00	41514.08
548.17	41841.76
548.34	41244.92
548.51	41984.53
548.67	41471.95
548.84	41521.10
549.01	41883.89
549.18	41151.30
549.34	41855.80
549.51	41745.80
549.68	41813.67
549.84	41785.58
550.01	41748.14
550.18	42033.68
550.34	42082.83
550.51	41841.76
550.68	41565.57
550.84	41930.70
551.01	42080.49
551.18	41462.59
551.34	42178.79
551.51	42328.59
551.68	42277.10
551.84	42293.48
552.01	42131.98
552.18	42092.19
552.34	42473.70
552.51	42518.17
552.68	42337.95
552.84	42354.33
553.01	42314.55
553.18	42412.85
553.34	42354.33
553.51	41998.57
553.67	42326.25
553.84	42670.31
554.01	42562.64
554.17	42843.51
554.34	43196.93
554.51	42944.15
554.67	43021.39
554.84	42689.03
555.00	42773.29
555.17	43168.84
555.33	43019.05
555.50	42572.00
555.67	42560.30
555.83	42742.86
556.00	42822.44
556.16	43480.13
556.33	42866.91
556.50	43012.02
556.66	43475.45
556.83	42749.88
556.99	43232.04
557.16	43220.33
557.32	42368.38
557.49	43147.78
557.65	42822.44
557.82	42630.52
557.98	43138.41
558.15	43026.07
558.32	43643.97
558.48	43304.59
558.65	43292.89
558.81	43501.20
558.98	43370.13
559.14	43168.84
559.31	43510.56
559.47	43136.07
559.64	43643.97
559.80	43208.63
559.97	43421.62
560.13	43075.22
560.30	43152.46
560.46	43449.70
560.63	43529.28
560.79	43510.56
560.96	43641.63
561.12	43552.69
561.29	43931.86
561.45	43274.16
561.61	43459.07
561.78	43482.47
561.94	43388.85
562.11	43543.33
562.27	43510.56
562.44	43365.45
562.60	43805.47
562.77	44243.15
562.93	43833.55
563.10	44055.90
563.26	43480.13
563.42	43723.55
563.59	43529.28
563.75	44030.16
563.92	43903.77
564.08	43807.81
564.24	44027.82
564.41	43765.68
564.57	43824.19
564.74	43807.81
564.90	44203.36
565.07	44133.14
565.23	44030.16
565.39	43892.07
565.56	44044.20
565.72	44133.14
565.88	43840.57
566.05	44048.88
566.21	43945.90
566.38	43833.55
566.54	44229.10
566.70	44161.23
566.87	44421.03
567.03	44130.80
567.19	44060.58
567.36	44296.98
567.52	44112.08
567.68	44175.27
567.85	44353.15
568.01	44308.68
568.17	43973.98
568.34	44519.33
568.50	43934.20
568.66	43899.09
568.83	44318.04
568.99	44336.77
569.15	44128.46
569.32	44170.59
569.48	44189.31
569.64	44467.84
569.81	44348.47
569.97	44137.82
570.13	44311.02
570.30	43594.82
570.46	43758.66
570.62	43880.36
570.78	43873.34
570.95	44151.87
571.11	44280.60
571.27	44018.46
571.43	44444.43
571.60	44751.04
571.76	44465.50
571.92	44414.01
572.09	44170.59
572.25	44575.50
572.41	44402.30
572.57	44254.85
572.74	44617.63
572.90	44467.84
573.06	44673.81
573.22	44292.30
573.38	44212.72
573.55	44486.56
573.71	44575.50
573.87	44479.54
574.03	44025.48
574.20	44289.96
574.36	43938.88
574.52	44474.86
574.68	44425.71
574.84	44729.98
575.01	44416.35
575.17	44371.88
575.33	44676.15
575.49	44404.64
575.65	44900.84
575.82	44701.89
575.98	44172.93
576.14	44568.48
576.30	44439.75
576.46	44498.26
576.62	44158.89
576.79	44509.97
576.95	44479.54
577.11	44191.65
577.27	44580.18
577.43	44355.49
577.59	44329.75
577.75	44140.16
577.92	44282.94
578.08	44179.95
578.24	44526.35
578.40	44308.68
578.56	44409.32
578.72	44224.42
578.88	44818.92
579.04	44996.80
579.21	44493.58
579.37	44062.93
579.53	44217.40
579.69	44196.34
579.85	44767.43
580.01	44542.74
580.17	44905.52
580.33	44854.03
580.49	44851.69
580.65	44619.97
580.82	44985.10
580.98	44332.09
581.14	44762.75
581.30	45062.33
581.46	44598.91
581.62	44603.59
581.78	44697.21
581.94	45062.33
582.10	44673.81
582.26	44603.59
582.42	44816.58
582.58	44458.48
582.74	44776.79
582.90	44612.95
583.06	44741.68
583.22	44322.72
583.38	45127.87
583.54	44631.68
583.70	44760.40
583.86	44964.03
584.02	44128.46
584.18	44758.06
584.34	44521.67
584.50	44830.62
584.66	45074.04
584.82	44676.15
584.98	44886.79
585.14	44985.10
585.30	44526.35
585.46	44758.06
585.62	44367.20
585.78	44617.63
585.94	44442.09
586.10	44505.29
586.26	44868.07
586.42	44531.03
586.58	44561.46
586.74	44699.55
586.90	44617.63
587.06	44348.47
587.22	44835.30
587.38	44456.14
587.54	45464.91
587.70	44720.62
587.86	44987.44
588.02	44718.28
588.18	44994.46
588.34	44470.18
588.49	44566.14
588.65	44341.45
588.81	44533.37
588.97	44416.35
589.13	44526.35
589.29	44444.43
589.45	44570.82
589.61	44629.34
589.77	44807.22
589.93	44886.79
590.08	45322.13
590.24	44828.28
590.40	44748.70
