SpectraSuite Data File
++++++++++++++++++++++++++++++++++++
Date: Fri Oct 25 11:23:04 EDT 2013
User: price-jones
Dark Spectrum Present: No
Reference Spectrum Present: No
Number of Sampled Component Spectra: 1
Spectrometers: USB2+H05261
Integration Time (usec): 100000 (USB2+H05261)
Spectra Averaged: 1 (USB2+H05261)
Boxcar Smoothing: 0 (USB2+H05261)
Correct for Electrical Dark: No (USB2+H05261)
Strobe/Lamp Enabled: No (USB2+H05261)
Correct for Detector Non-linearity: No (USB2+H05261)
Correct for Stray Light: No (USB2+H05261)
Number of Pixels in Processed Spectrum: 2048
>>>>>Begin Processed Spectral Data<<<<<
365.73	255.12
365.92	255.12
366.12	255.12
366.32	180.22
366.52	77.24
366.72	102.98
366.91	168.52
367.11	93.62
367.31	100.64
367.51	110.01
367.70	152.13
367.90	131.07
368.10	121.71
368.30	133.41
368.49	142.77
368.69	63.19
368.89	191.92
369.09	187.24
369.28	114.69
369.48	173.20
369.68	198.95
369.87	173.20
370.07	161.50
370.27	222.35
370.47	351.08
370.66	629.60
370.86	603.86
371.06	631.94
371.25	741.95
371.45	613.22
371.65	692.80
371.84	627.26
372.04	650.67
372.24	681.10
372.44	737.27
372.63	739.61
372.83	765.36
373.03	669.39
373.22	767.70
373.42	723.23
373.62	793.44
373.81	772.38
374.01	781.74
374.21	819.19
374.40	770.04
374.60	816.85
374.79	828.55
374.99	772.38
375.19	837.91
375.38	821.53
375.58	779.40
375.78	896.43
375.97	842.59
376.17	891.74
376.37	830.89
376.56	882.38
376.76	847.27
376.95	898.77
377.15	842.59
377.35	912.81
377.54	947.92
377.74	978.34
377.93	880.04
378.13	887.06
378.33	877.70
378.52	887.06
378.72	929.19
378.91	997.07
379.11	954.94
379.31	1036.86
379.50	842.59
379.70	964.30
379.89	985.37
380.09	992.39
380.28	1008.77
380.48	1057.92
380.68	1029.84
380.87	1053.24
381.07	1039.20
381.26	997.07
381.46	999.41
381.65	959.62
381.85	1041.54
382.04	1095.37
382.24	1123.46
382.43	1039.20
382.63	1013.45
382.83	1027.50
383.02	1184.31
383.22	1032.18
383.41	1118.78
383.61	1097.71
383.80	1158.57
384.00	1132.82
384.19	1100.05
384.39	1184.31
384.58	1158.57
384.78	1036.86
384.97	1135.16
385.17	1139.84
385.36	1128.14
385.56	1179.63
385.75	1221.76
385.95	1245.16
386.14	1188.99
386.34	1153.88
386.53	1160.91
386.72	1156.22
386.92	1259.21
387.11	1186.65
387.31	1196.01
387.50	1228.78
387.70	1221.76
387.89	1188.99
388.09	1366.87
388.28	1235.80
388.48	1345.81
388.67	1306.02
388.86	1277.93
389.06	1359.85
389.25	1404.32
389.45	1317.72
389.64	1387.94
389.84	1397.30
390.03	1479.22
390.22	1423.05
390.42	1348.15
390.61	1462.83
390.81	1434.75
391.00	1399.64
391.19	1423.05
391.39	1387.94
391.58	1376.24
391.78	1472.20
391.97	1432.41
392.16	1488.58
392.36	1575.18
392.55	1589.22
392.75	1533.05
392.94	1453.47
393.13	1570.50
393.33	1474.54
393.52	1584.54
393.71	1621.99
393.91	1612.63
394.10	1638.38
394.29	1575.18
394.49	1596.25
394.68	1607.95
394.88	1682.85
395.07	1687.53
395.26	1753.06
395.46	1692.21
395.65	1673.48
395.84	1729.66
396.04	1832.64
396.23	1734.34
396.42	1844.34
396.62	1715.61
396.81	1825.62
397.00	1778.81
397.19	1806.89
397.39	1788.17
397.58	1853.70
397.77	1760.08
397.97	1809.23
398.16	1849.02
398.35	1888.81
398.55	1891.15
398.74	1816.26
398.93	1954.35
399.12	1914.56
399.32	1994.14
399.51	1982.43
399.70	1984.77
399.90	2003.50
400.09	2043.29
400.28	2015.20
400.47	2085.42
400.67	2064.35
400.86	2071.37
401.05	2209.47
401.24	2059.67
401.44	2097.12
401.63	2059.67
401.82	2143.93
402.01	2115.84
402.21	2150.95
402.40	2174.36
402.59	2183.72
402.78	2197.76
402.97	2312.45
403.17	2368.62
403.36	2214.15
403.55	2342.88
403.74	2267.98
403.93	2319.47
404.13	2345.22
404.32	2314.79
404.51	2429.48
404.70	2389.69
404.89	2326.49
405.09	2555.86
405.28	2373.30
405.47	2466.92
405.66	2513.74
405.85	2518.42
406.05	2511.39
406.24	2626.08
406.43	2553.52
406.62	2677.57
406.81	2693.96
407.00	2621.40
407.20	2682.25
407.39	2597.99
407.58	2686.94
407.77	2792.26
407.96	2780.56
408.15	2712.68
408.34	2787.58
408.54	2855.45
408.73	2686.94
408.92	2822.69
409.11	2904.60
409.30	2974.82
409.49	3023.97
409.68	2925.67
409.87	2930.35
410.07	2953.76
410.26	3014.61
410.45	3016.95
410.64	3246.32
410.83	3047.38
411.02	3030.99
411.21	3229.94
411.40	3206.53
411.59	3316.54
411.78	3136.32
411.98	3330.58
412.17	3321.22
412.36	3290.79
412.55	3499.10
412.74	3623.15
412.93	3574.00
413.12	3419.52
413.31	3456.97
413.50	3543.57
413.69	3590.38
413.88	3503.78
414.07	3604.42
414.26	3676.98
414.45	3737.84
414.64	3588.04
414.83	3801.03
415.02	3749.54
415.22	3894.65
415.41	3967.21
415.60	3932.10
415.79	3885.29
415.98	3894.65
416.17	3915.72
416.36	4098.28
416.55	4063.17
416.74	4184.88
416.93	3974.23
417.12	4161.47
417.31	4259.78
417.50	4170.83
417.69	4299.56
417.88	4393.19
418.07	4351.06
418.26	4252.75
418.45	4383.82
418.64	4475.10
418.83	4444.68
419.02	4507.87
419.21	4491.49
419.39	4697.46
419.58	4547.66
419.77	4601.49
419.96	4592.13
420.15	4669.37
420.34	4713.84
420.53	4697.46
420.72	4652.98
420.91	4774.69
421.10	4641.28
421.29	4601.49
421.48	4779.37
421.67	4861.29
421.86	4767.67
422.05	4873.00
422.24	4947.89
422.43	4823.84
422.61	4931.51
422.80	5032.15
422.99	4926.83
423.18	4997.04
423.37	5085.98
423.56	4912.78
423.75	5015.77
423.94	4964.28
424.13	4695.11
424.32	4877.68
424.50	5043.85
424.69	5221.74
424.88	5104.71
425.07	4994.70
425.26	4959.60
425.45	5041.51
425.64	5076.62
425.83	5057.90
426.01	5184.29
426.20	5125.77
426.39	5069.60
426.58	5102.37
426.77	5240.46
426.96	5247.48
427.15	5231.10
427.33	5186.63
427.52	5125.77
427.71	5322.38
427.90	5385.57
428.09	5240.46
428.28	5394.93
428.46	5420.68
428.65	5439.40
428.84	5481.53
429.03	5502.60
429.22	5437.06
429.40	5416.00
429.59	5507.28
429.78	5308.34
429.97	5378.55
430.16	5600.90
430.34	5657.07
430.53	5500.26
430.72	5617.29
430.91	5650.05
431.10	5659.42
431.28	5797.51
431.47	5825.59
431.66	5736.65
431.85	5881.77
432.03	6078.37
432.22	5935.60
432.41	6050.28
432.60	5942.62
432.79	6015.18
432.97	6001.13
433.16	6239.87
433.35	6197.74
433.54	6125.18
433.72	6183.70
433.91	6069.01
434.10	6087.73
434.28	6141.57
434.47	6167.31
434.66	6356.90
434.85	6394.34
435.03	6555.84
435.22	6188.38
435.41	6595.63
435.59	6410.73
435.78	6523.07
435.97	6480.94
436.16	6621.38
436.34	6373.28
436.53	6623.72
436.72	6579.25
436.90	6626.06
437.09	6782.87
437.28	6359.24
437.46	6637.76
437.65	6857.77
437.84	6834.36
438.02	6843.73
438.21	6899.90
438.40	6509.03
438.58	7077.78
438.77	7007.56
438.96	6927.99
439.14	7229.91
439.33	7307.15
439.52	7068.42
439.70	7260.34
439.89	7473.33
440.08	7384.39
440.26	7407.80
440.45	7595.04
440.63	7353.96
440.82	7632.49
441.01	7550.57
441.19	7705.04
441.38	7765.90
441.57	7817.39
441.75	7735.47
441.94	8011.65
442.12	8013.99
442.31	8107.62
442.50	8116.98
442.68	7929.74
442.87	8138.04
443.05	8175.49
443.24	8334.65
443.43	8257.41
443.61	8325.29
443.80	8475.08
443.98	8180.17
444.17	7974.21
444.35	8257.41
444.54	8512.53
444.73	8226.98
444.91	8273.79
445.10	8358.05
445.28	8493.80
445.47	8500.83
445.65	8482.10
445.84	8521.89
446.02	8463.38
446.21	8493.80
446.39	8449.33
446.58	8685.73
446.77	8571.04
446.95	8278.47
447.14	8477.42
447.32	8599.13
447.51	8559.34
447.69	8461.04
447.88	8645.94
448.06	8645.94
448.25	8451.67
448.43	8669.34
448.62	8669.34
448.80	8826.16
448.99	8901.06
449.17	8915.10
449.36	8720.84
449.54	8765.31
449.73	8945.53
449.91	8982.98
450.10	9107.02
450.28	9074.26
450.46	9205.33
450.65	9109.36
450.83	9125.75
451.02	9027.45
451.20	9308.31
451.39	9376.19
451.57	9289.59
451.76	9219.37
451.94	9212.35
452.13	9441.72
452.31	9441.72
452.49	9392.57
452.68	9310.65
452.86	9345.76
453.05	9736.63
453.23	9762.37
453.42	9378.53
453.60	9490.87
453.78	9558.75
453.97	9624.28
454.15	9525.98
454.34	9589.17
454.52	9886.42
454.70	9778.76
454.89	9893.44
455.07	9830.25
455.26	9984.73
455.44	10092.39
455.62	9975.36
455.81	9877.06
455.99	10122.82
456.17	10080.69
456.36	10080.69
456.54	10485.60
456.73	10272.61
456.91	10413.04
457.09	10686.89
457.28	10626.03
457.46	10420.06
457.64	10593.26
457.83	10640.08
458.01	10621.35
458.19	10757.10
458.38	10471.56
458.56	10902.22
458.74	10534.75
458.93	10813.28
459.11	10771.15
459.29	10743.06
459.48	10869.45
459.66	10939.66
459.84	11117.54
460.03	11213.51
460.21	11297.77
460.39	11129.25
460.57	11005.20
460.76	11197.12
460.94	11075.42
461.12	11314.15
461.31	11229.89
461.49	11349.26
461.67	11220.53
461.85	11583.31
462.04	11288.40
462.22	11740.13
462.40	11578.63
462.59	11616.08
462.77	11569.27
462.95	11770.55
463.13	11667.57
463.32	11784.60
463.50	12051.42
463.68	11866.52
463.86	11798.64
464.05	11791.62
464.23	11756.51
464.41	11929.71
464.59	11868.86
464.78	12320.58
464.96	11941.41
465.14	12037.38
465.32	12128.66
465.50	12273.77
465.69	12095.89
465.87	12250.36
466.05	12276.11
466.23	12336.96
466.41	12276.11
466.60	12737.20
466.78	12245.68
466.96	12332.28
467.14	12521.87
467.32	12423.56
467.51	12758.26
467.69	12348.67
467.87	12409.52
468.05	12688.04
468.23	12638.89
468.41	12564.00
468.60	12814.43
468.78	12645.91
468.96	12573.36
469.14	12821.45
469.32	13298.92
469.50	12805.07
469.69	13242.75
469.87	13193.60
470.05	13362.12
470.23	13359.78
470.41	13465.10
470.59	13437.02
470.77	13291.90
470.95	13437.02
471.14	13727.24
471.32	13399.57
471.50	13743.63
471.68	13860.65
471.86	13944.91
472.04	14008.11
472.22	14136.84
472.40	13879.38
472.58	14080.66
472.77	14160.24
472.95	14274.93
473.13	14764.10
473.31	14148.54
473.49	14174.28
473.67	14408.34
473.85	14394.29
474.03	14911.55
474.21	14611.96
474.39	14850.70
474.57	14897.51
474.75	15157.31
474.93	15009.86
475.12	14867.08
475.30	15117.52
475.48	15264.97
475.66	15431.15
475.84	15073.05
476.02	15459.24
476.20	15492.01
476.38	15929.69
476.56	16240.98
476.74	16177.78
476.92	15847.77
477.10	16372.05
477.28	16236.30
477.46	16376.73
477.64	16833.13
477.82	16769.94
478.00	17118.68
478.18	17216.98
478.36	17191.23
478.54	17359.75
478.72	17338.69
478.90	17809.14
479.08	17720.20
479.26	17806.80
479.44	17837.22
479.62	17940.21
479.80	18307.67
479.98	18427.04
480.16	18761.73
480.34	18443.42
480.52	18824.93
480.70	18822.59
480.88	18824.93
481.06	18796.84
481.24	18745.35
481.41	19197.07
481.59	19669.86
481.77	19857.10
481.95	19466.24
482.13	20027.96
482.31	19829.02
482.49	20556.93
482.67	20357.98
482.85	20882.26
483.03	20512.46
483.21	20809.70
483.39	20982.90
483.57	21319.94
483.74	21874.65
483.92	21481.44
484.10	21493.14
484.28	22068.91
484.46	22157.85
484.64	22476.16
484.82	22010.40
485.00	22471.48
485.18	23161.94
485.35	23140.88
485.53	22965.34
485.71	23225.14
485.89	23761.12
486.07	23513.02
486.25	23985.81
486.43	23843.04
486.61	24102.84
486.78	24570.94
486.96	24381.36
487.14	24517.11
487.32	24924.36
487.50	25022.67
487.68	25380.77
487.85	25626.53
488.03	25411.20
488.21	25975.27
488.39	25811.43
488.57	26199.96
488.75	26513.59
488.92	26625.93
489.10	26794.45
489.28	26909.14
489.46	27566.83
489.64	26969.99
489.81	28313.46
489.99	27637.05
490.17	28177.71
490.35	28198.77
490.53	28552.20
490.70	28713.69
490.88	28505.38
491.06	29071.79
491.24	29001.58
491.41	29273.08
491.59	29539.90
491.77	29839.49
491.95	29834.81
492.13	30370.79
492.30	30258.45
492.48	30190.57
492.66	30433.99
492.84	31136.15
493.01	30775.70
493.19	30958.27
493.37	31147.85
493.54	31211.04
493.72	32154.28
493.90	31934.27
494.08	32032.57
494.25	32327.48
494.43	32339.18
494.61	32783.88
494.79	32617.71
494.96	32966.45
495.14	32753.46
495.32	33345.61
495.49	33610.09
495.67	33663.93
495.85	33549.24
496.02	34192.89
496.20	34232.68
496.38	34373.11
496.55	34766.32
496.73	35590.19
496.91	34616.52
497.09	35161.87
497.26	35412.31
497.44	35536.35
497.62	35599.55
497.79	36198.73
497.97	35824.24
498.14	36252.56
498.32	36196.38
498.50	36582.57
498.67	36767.48
498.85	36704.28
499.03	37303.46
499.20	37415.80
499.38	37053.02
499.56	37523.47
499.73	37741.14
499.91	37539.85
500.08	38024.34
500.26	37521.13
500.44	38155.41
500.61	38127.33
500.79	38288.82
500.97	38590.75
501.14	38775.66
501.32	38417.55
501.49	38836.51
501.67	38773.31
501.84	39271.85
502.02	39194.61
502.20	39442.71
502.37	39681.44
502.55	39798.47
502.72	39777.40
502.90	40224.45
503.07	40051.25
503.25	40484.25
503.43	40114.44
503.60	40643.40
503.78	40498.29
503.95	40624.68
504.13	40762.77
504.30	41392.37
504.48	40697.24
504.65	40999.16
504.83	41200.45
505.01	41720.05
505.18	41209.81
505.36	41996.23
505.53	41385.35
505.71	42110.92
505.88	41703.67
506.06	41715.37
506.23	42256.03
506.41	42419.87
506.58	42878.61
506.76	42712.44
506.93	42918.40
507.11	42288.80
507.28	43346.72
507.46	42780.31
507.63	43856.96
507.81	43629.93
507.98	42852.87
508.16	43571.41
508.33	43648.65
508.50	44229.10
508.68	43978.67
508.85	44308.68
509.03	44399.96
509.20	44402.30
509.38	45038.93
509.55	44699.55
509.73	44912.54
509.90	45223.83
510.08	44971.05
510.25	45013.18
510.42	45624.06
510.60	45144.25
510.77	45968.12
510.95	45886.20
511.12	45441.50
511.30	45827.69
511.47	45834.71
511.64	45734.07
511.82	46312.18
511.99	45968.12
512.17	46361.33
512.34	46398.78
512.51	46892.63
512.69	47049.45
512.86	46569.64
513.04	47349.04
513.21	47173.50
513.38	46841.14
513.56	47320.95
513.73	47384.15
513.90	47454.36
514.08	46784.97
514.25	47540.96
514.43	47962.26
514.60	47824.17
514.77	48119.07
514.95	47992.68
515.12	48210.35
515.29	48027.79
515.47	48385.89
515.64	48690.16
515.81	48238.44
515.99	48942.94
516.16	48875.07
516.33	48872.73
516.51	49291.68
516.68	48811.87
516.85	48861.02
517.03	49345.51
517.20	49188.70
517.37	49013.16
517.54	49202.74
517.72	49560.84
517.89	49544.46
518.06	49794.90
518.24	49741.06
518.41	49602.97
518.58	49422.75
518.75	49560.84
518.93	50209.17
519.10	49989.16
519.27	49876.82
519.45	50045.33
519.62	50075.76
519.79	50581.32
519.96	50368.33
520.14	50829.41
520.31	50487.70
520.48	50880.91
520.65	50967.51
520.83	51180.49
521.00	51023.68
521.17	50820.05
521.34	50986.23
521.52	50997.93
521.69	51241.35
521.86	51304.54
522.03	51276.46
522.20	51971.60
522.38	51716.48
522.55	51742.22
522.72	51772.65
522.89	51690.73
523.07	51868.61
523.24	52020.75
523.41	52357.78
523.58	51709.46
523.75	52175.22
523.92	52238.42
524.10	52566.09
524.27	52390.55
524.44	52196.29
524.61	52416.30
524.78	52240.76
524.96	52633.97
525.13	52561.41
525.30	52626.95
525.47	52891.43
525.64	52961.64
525.81	52980.37
525.98	52879.72
526.16	52863.34
526.33	52753.33
526.50	53202.72
526.67	53109.10
526.84	53148.88
527.01	53312.72
527.18	53200.38
527.36	53256.55
527.53	53148.88
527.70	53895.52
527.87	53612.31
528.04	53319.74
528.21	53696.57
528.38	53670.82
528.55	53909.56
528.72	53729.34
528.89	53544.44
529.07	53743.38
529.24	53874.45
529.41	54155.32
529.58	54145.95
529.75	54117.87
529.92	54319.15
530.09	54230.21
530.26	54253.62
530.43	54457.24
530.60	54188.08
530.77	54110.85
530.94	54670.23
531.11	54162.34
531.28	54471.29
531.46	54522.78
531.63	54686.62
531.80	54717.04
531.97	54841.09
532.14	54834.07
532.31	54597.68
532.48	54595.34
532.65	55117.28
532.82	54794.28
532.99	55121.96
533.16	54890.24
533.33	55096.21
533.50	55416.86
533.67	55100.89
533.84	55007.27
534.01	55182.81
534.18	55285.79
534.35	55234.30
534.52	55238.98
534.69	55561.98
534.86	55676.66
535.03	55318.56
535.20	55475.38
535.37	55585.38
535.54	55707.09
535.71	55484.74
535.88	55444.95
536.05	55751.56
536.22	55922.42
536.38	56126.05
536.55	55781.99
536.72	55831.14
536.89	55842.84
537.06	55611.13
537.23	55917.74
537.40	55739.86
537.57	56114.34
537.74	56133.07
537.91	56165.84
538.08	56142.43
538.25	56083.92
538.42	56226.69
538.59	56465.42
538.75	56179.88
538.92	56437.34
539.09	56442.02
539.26	56369.46
539.43	56390.53
539.60	56362.44
539.77	56514.58
539.94	56676.07
540.11	56484.15
540.28	56912.47
540.44	56633.94
540.61	56863.32
540.78	56748.63
540.95	56762.67
541.12	56629.26
541.29	56624.58
541.46	57134.82
541.62	56662.03
541.79	56963.96
541.96	56821.19
542.13	56786.08
542.30	57027.15
542.47	57181.63
542.63	57106.73
542.80	57153.54
542.97	57411.00
543.14	57368.87
543.31	57518.67
543.48	57577.18
543.64	57829.96
543.81	57448.45
543.98	57612.29
544.15	57558.45
544.32	57698.89
544.48	57715.27
544.65	57673.14
544.82	57743.36
544.99	57457.81
545.16	57790.17
545.32	57703.57
545.49	57935.28
545.66	57996.13
545.83	58003.16
546.00	57916.56
546.16	57986.77
546.33	58174.02
546.50	57455.47
546.67	57829.96
546.83	57813.57
547.00	58078.05
547.17	57888.47
547.34	58248.91
547.50	58129.54
547.67	58251.25
547.84	58340.19
548.00	58234.87
548.17	58679.57
548.34	58447.86
548.51	58691.27
548.67	58438.50
548.84	58398.71
549.01	58286.36
549.18	58497.01
549.34	58508.71
549.51	58616.38
549.68	58679.57
549.84	58770.85
550.01	58576.59
550.18	58576.59
550.34	58585.95
550.51	58782.55
550.68	58878.52
550.84	58464.24
551.01	58787.24
551.18	58777.87
551.34	58805.96
551.51	59021.29
551.68	58803.62
551.84	58876.18
552.01	58864.47
552.18	59032.99
552.34	58894.90
552.51	59000.22
552.68	58890.22
552.84	58955.75
553.01	59379.39
553.18	59135.98
553.34	59065.76
553.51	58953.41
553.67	58965.12
553.84	59203.85
554.01	59276.41
554.17	59234.28
554.34	59313.86
554.51	59063.42
554.67	59313.86
554.84	59384.07
555.00	59245.98
555.17	59051.72
555.33	59189.81
555.50	59290.45
555.67	59377.05
555.83	59409.82
556.00	59367.69
556.16	59545.57
556.33	59473.01
556.50	59510.46
556.66	59700.04
556.83	59489.40
556.99	59693.02
557.16	59695.36
557.32	59765.58
557.49	59632.17
557.65	59627.49
557.82	59681.32
557.98	59817.07
558.15	59767.92
558.32	59597.06
558.48	59716.43
558.65	59767.92
558.81	59690.68
558.98	59664.94
559.14	59896.65
559.31	59917.71
559.47	59744.51
559.64	59966.87
559.80	59978.57
559.97	60065.17
560.13	59653.23
560.30	60041.76
560.46	59796.01
560.63	60104.96
560.79	60032.40
560.96	60013.68
561.12	60109.64
561.29	60147.09
561.45	60168.15
561.61	60151.77
561.78	60025.38
561.94	59931.76
562.11	59948.14
562.27	60224.32
562.44	60334.33
562.60	60350.71
562.77	60137.72
562.93	59994.95
563.10	60282.84
563.26	60149.43
563.42	60432.63
563.59	60271.14
563.75	60072.19
563.92	60289.86
564.08	60207.94
564.24	60299.22
564.41	60467.74
564.57	60430.29
564.74	60371.78
564.90	60488.80
565.07	60458.38
565.23	60371.78
565.39	60367.10
565.56	60420.93
565.72	60331.99
565.88	60458.38
566.05	60364.76
566.21	60376.46
566.38	60561.36
566.54	60514.55
566.70	60563.70
566.87	60484.12
567.03	60577.75
567.19	60743.92
567.36	60535.62
567.52	60552.00
567.68	60905.42
567.85	60701.79
568.01	60561.36
568.17	60608.17
568.34	60582.43
568.50	60680.73
568.66	60439.65
568.83	60769.67
568.99	60486.46
569.15	60779.03
569.32	60678.39
569.48	60683.07
569.64	60699.45
569.81	60528.59
569.97	60757.97
570.13	60694.77
570.30	60598.81
570.46	60842.23
570.62	60720.52
570.78	60764.99
570.95	60776.69
571.11	60830.52
571.27	60647.96
571.43	60601.15
571.60	60884.36
571.76	60814.14
571.92	60896.06
572.09	60846.91
572.25	60893.72
572.41	60825.84
572.57	60788.39
572.74	61125.43
572.90	60786.05
573.06	61174.58
573.22	60886.70
573.38	60673.71
573.55	60924.14
573.71	61265.86
573.87	61031.81
574.03	60797.76
574.20	60837.54
574.36	60818.82
574.52	61090.32
574.68	61095.00
574.84	61130.11
575.01	60933.51
575.17	60987.34
575.33	60886.70
575.49	61006.06
575.65	61055.21
575.82	60999.04
575.98	60982.66
576.14	61174.58
576.30	61212.03
576.46	60942.87
576.62	60931.17
576.79	61013.08
576.95	60764.99
577.11	61148.84
577.27	61120.75
577.43	61052.87
577.59	61219.05
577.75	60856.27
577.92	60889.04
578.08	61020.11
578.24	61158.20
578.40	61219.05
578.56	61043.51
578.72	61073.94
578.88	61249.48
579.04	61303.31
579.21	61300.97
579.37	61284.59
579.53	61270.54
579.69	60891.38
579.85	60905.42
580.01	60989.68
580.17	61118.41
580.33	61270.54
580.49	61179.26
580.65	61158.20
580.82	61031.81
580.98	61066.92
581.14	61113.73
581.30	61134.79
581.46	61209.69
581.62	61197.99
581.78	61003.72
581.94	61200.33
582.10	61078.62
582.26	61013.08
582.42	61057.56
582.58	61137.13
582.74	61242.46
582.90	61172.24
583.06	61226.07
583.22	60912.44
583.38	61261.18
583.54	61160.54
583.70	61146.50
583.86	61324.38
584.02	61151.18
584.18	61310.33
584.34	61048.19
584.50	61319.70
584.66	61104.37
584.82	61080.96
584.98	61331.40
585.14	61190.97
585.30	61247.14
585.46	61279.91
585.62	61137.13
585.78	61300.97
585.94	61277.57
586.10	61235.44
586.26	61272.88
586.42	61202.67
586.58	61303.31
586.74	61403.95
586.90	61183.94
587.06	61141.81
587.22	61469.49
587.38	61371.19
587.54	61520.98
587.70	61544.39
587.86	61268.20
588.02	61385.23
588.18	61333.74
588.34	61244.80
588.49	61258.84
