SpectraSuite Data File
++++++++++++++++++++++++++++++++++++
Date: Fri Oct 25 11:23:38 EDT 2013
User: price-jones
Dark Spectrum Present: No
Reference Spectrum Present: No
Number of Sampled Component Spectra: 1
Spectrometers: USB2+H05261
Integration Time (usec): 100000 (USB2+H05261)
Spectra Averaged: 1 (USB2+H05261)
Boxcar Smoothing: 0 (USB2+H05261)
Correct for Electrical Dark: No (USB2+H05261)
Strobe/Lamp Enabled: No (USB2+H05261)
Correct for Detector Non-linearity: No (USB2+H05261)
Correct for Stray Light: No (USB2+H05261)
Number of Pixels in Processed Spectrum: 2048
>>>>>Begin Processed Spectral Data<<<<<
365.73	280.86
365.92	280.86
366.12	280.86
366.32	220.01
366.52	88.94
366.72	156.82
366.91	133.41
367.11	145.11
367.31	154.48
367.51	212.99
367.70	161.50
367.90	194.26
368.10	114.69
368.30	154.48
368.49	152.13
368.69	124.05
368.89	177.88
369.09	98.30
369.28	166.18
369.48	187.24
369.68	161.50
369.87	182.56
370.07	229.37
370.27	227.03
370.47	386.19
370.66	601.52
370.86	664.71
371.06	655.35
371.25	627.26
371.45	610.88
371.65	709.18
371.84	674.07
372.04	798.12
372.24	734.93
372.44	702.16
372.63	685.78
372.83	699.82
373.03	660.03
373.22	779.40
373.42	763.01
373.62	739.61
373.81	767.70
374.01	840.25
374.21	854.30
374.40	788.76
374.60	823.87
374.79	828.55
374.99	873.02
375.19	809.83
375.38	781.74
375.58	774.72
375.78	849.61
375.97	889.40
376.17	896.43
376.37	821.53
376.56	880.04
376.76	954.94
376.95	915.15
377.15	924.51
377.35	971.32
377.54	835.57
377.74	940.90
377.93	910.47
378.13	933.87
378.33	957.28
378.52	884.72
378.72	936.21
378.91	912.81
379.11	945.58
379.31	898.77
379.50	959.62
379.70	1020.47
379.89	1006.43
380.09	990.05
380.28	954.94
380.48	1006.43
380.68	933.87
380.87	973.66
381.07	1015.79
381.26	1060.26
381.46	1022.81
381.65	1095.37
381.85	992.39
382.04	1008.77
382.24	1083.67
382.43	1102.39
382.63	1062.60
382.83	1060.26
383.02	1078.99
383.22	1158.57
383.41	1107.07
383.61	1193.67
383.80	1186.65
384.00	1207.72
384.19	1104.73
384.39	1151.54
384.58	1057.92
384.78	1139.84
384.97	1118.78
385.17	1188.99
385.36	1039.20
385.56	1097.71
385.75	1186.65
385.95	1181.97
386.14	1149.20
386.34	1203.04
386.53	1207.72
386.72	1128.14
386.92	1203.04
387.11	1254.53
387.31	1324.74
387.50	1240.48
387.70	1233.46
387.89	1266.23
388.09	1301.34
388.28	1275.59
388.48	1268.57
388.67	1336.45
388.86	1306.02
389.06	1373.89
389.25	1380.92
389.45	1345.81
389.64	1287.29
389.84	1299.00
390.03	1376.24
390.22	1418.36
390.42	1357.51
390.61	1324.74
390.81	1371.55
391.00	1373.89
391.19	1390.28
391.39	1418.36
391.58	1401.98
391.78	1432.41
391.97	1444.11
392.16	1474.54
392.36	1495.60
392.55	1479.22
392.75	1486.24
392.94	1465.18
393.13	1526.03
393.33	1458.15
393.52	1472.20
393.71	1603.27
393.91	1603.27
394.10	1476.88
394.29	1554.12
394.49	1612.63
394.68	1687.53
394.88	1703.91
395.07	1682.85
395.26	1589.22
395.46	1682.85
395.65	1724.97
395.84	1607.95
396.04	1788.17
396.23	1767.10
396.42	1762.42
396.62	1797.53
396.81	1760.08
397.00	1739.02
397.19	1755.40
397.39	1755.40
397.58	1785.83
397.77	1797.53
397.97	1856.04
398.16	1914.56
398.35	1900.52
398.55	1827.96
398.74	1942.64
398.93	1937.96
399.12	1860.73
399.32	1846.68
399.51	1954.35
399.70	1989.46
399.90	1959.03
400.09	2010.52
400.28	1935.62
400.47	2019.88
400.67	2186.06
400.86	2085.42
401.05	2169.68
401.24	2022.22
401.44	2139.25
401.63	2106.48
401.82	2216.49
402.01	1977.75
402.21	2134.57
402.40	2197.76
402.59	2127.55
402.78	2083.08
402.97	2188.40
403.17	2275.00
403.36	2310.11
403.55	2387.35
403.74	2354.58
403.93	2361.60
404.13	2293.72
404.32	2349.90
404.51	2347.56
404.70	2424.80
404.89	2319.47
405.09	2513.74
405.28	2450.54
405.47	2520.76
405.66	2499.69
405.85	2506.71
406.05	2455.22
406.24	2595.65
406.43	2525.44
406.62	2534.80
406.81	2684.59
407.00	2532.46
407.20	2712.68
407.39	2649.49
407.58	2597.99
407.77	2780.56
407.96	2708.00
408.15	2703.32
408.34	2731.41
408.54	2782.90
408.73	2829.71
408.92	2899.92
409.11	2878.86
409.30	2913.97
409.49	2923.33
409.68	2789.92
409.87	2965.46
410.07	3021.63
410.26	3068.44
410.45	3112.91
410.64	3098.87
410.83	2984.18
411.02	3098.87
411.21	3227.60
411.40	3049.72
411.59	3166.74
411.78	3251.00
411.98	3194.83
412.17	3251.00
412.36	3346.97
412.55	3304.84
412.74	3391.44
412.93	3363.35
413.12	3412.50
413.31	3695.71
413.50	3389.10
413.69	3487.40
413.88	3597.40
414.07	3674.64
414.26	3648.90
414.45	3719.11
414.64	3742.52
414.83	3658.26
415.02	3770.60
415.22	3796.35
415.41	3829.12
415.60	3833.80
415.79	3873.59
415.98	3882.95
416.17	3922.74
416.36	4018.70
416.55	3978.91
416.74	4039.76
416.93	4065.51
417.12	4107.64
417.31	4063.17
417.50	4166.15
417.69	4215.30
417.88	4248.07
418.07	4362.76
418.26	4365.10
418.45	4393.19
418.64	4442.34
418.83	4491.49
419.02	4447.02
419.21	4444.68
419.39	4514.89
419.58	4411.91
419.77	4524.26
419.96	4587.45
420.15	4762.99
420.34	4531.28
420.53	4638.94
420.72	4744.27
420.91	4599.15
421.10	4734.90
421.29	4641.28
421.48	4826.18
421.67	4734.90
421.86	4805.12
422.05	4720.86
422.24	4924.49
422.43	4741.93
422.61	4964.28
422.80	4954.91
422.99	5011.09
423.18	4999.38
423.37	5008.75
423.56	4938.53
423.75	5071.94
423.94	4901.08
424.13	4454.04
424.32	4723.20
424.50	5006.41
424.69	5259.18
424.88	4992.36
425.07	5167.90
425.26	4983.00
425.45	4873.00
425.64	4973.64
425.83	4887.04
426.01	5067.26
426.20	5181.95
426.39	4957.25
426.58	5053.22
426.77	5121.09
426.96	5231.10
427.15	5214.71
427.33	5179.61
427.52	5249.82
427.71	5315.36
427.90	5305.99
428.09	5287.27
428.28	5411.32
428.46	5420.68
428.65	5528.35
428.84	5310.68
429.03	5547.07
429.22	5453.45
429.40	5399.62
429.59	5387.91
429.78	5334.08
429.97	5390.25
430.16	5612.60
430.34	5600.90
430.53	5708.57
430.72	5680.48
430.91	5771.76
431.10	5621.97
431.28	5715.59
431.47	5879.43
431.66	5949.64
431.85	5790.49
432.03	5879.43
432.22	6040.92
432.41	5912.19
432.60	5907.51
432.79	5834.96
432.97	6057.31
433.16	6064.33
433.35	5942.62
433.54	6031.56
433.72	6202.42
433.91	6064.33
434.10	6122.84
434.28	6202.42
434.47	5961.34
434.66	6209.44
434.85	6354.55
435.03	6204.76
435.22	6305.40
435.41	6427.11
435.59	6277.32
435.78	6312.42
435.97	6394.34
436.16	6574.56
436.34	6478.60
436.53	6509.03
436.72	6722.02
436.90	6534.78
437.09	6569.88
437.28	6513.71
437.46	6553.50
437.65	6628.40
437.84	6881.18
438.02	6825.00
438.21	6691.59
438.40	6729.04
438.58	6920.96
438.77	7108.21
438.96	6810.96
439.14	7246.30
439.33	7140.97
439.52	7241.62
439.70	7068.42
439.89	7314.17
440.08	7250.98
440.26	7531.84
440.45	7304.81
440.63	7499.08
440.82	7681.64
441.01	7538.87
441.19	7630.15
441.38	7747.17
441.57	7796.32
441.75	7969.52
441.94	7946.12
442.12	8030.38
442.31	8142.72
442.50	7974.21
442.68	7838.45
442.87	8109.96
443.05	8259.75
443.24	8133.36
443.43	8037.40
443.61	8348.69
443.80	8566.36
443.98	8138.04
444.17	7929.74
444.35	8353.37
444.54	8425.93
444.73	8163.79
444.91	8222.30
445.10	8411.89
445.28	8517.21
445.47	8369.76
445.65	8367.42
445.84	8449.33
446.02	8512.53
446.21	8444.65
446.39	8339.33
446.58	8297.20
446.77	8425.93
446.95	8276.13
447.14	8358.05
447.32	8552.32
447.51	8416.57
447.69	8617.85
447.88	8645.94
448.06	8549.98
448.25	8484.44
448.43	8582.74
448.62	8575.72
448.80	8641.26
448.99	8833.18
449.17	8652.96
449.36	8723.18
449.54	8950.21
449.73	8950.21
449.91	8959.57
450.10	9135.11
450.28	9284.91
450.46	9046.17
450.65	9090.64
450.83	8978.30
451.02	9128.09
451.20	9228.73
451.39	9146.81
451.57	9167.88
451.76	9034.47
451.94	9315.33
452.13	9301.29
452.31	9025.11
452.49	9282.56
452.68	9338.74
452.86	9404.27
453.05	9467.47
453.23	9378.53
453.42	9380.87
453.60	9249.80
453.78	9497.89
453.97	9378.53
454.15	9673.43
454.34	9502.58
454.52	9682.80
454.70	9743.65
454.89	9816.21
455.07	9872.38
455.26	9863.02
455.44	9958.98
455.62	9982.38
455.81	10068.98
455.99	10054.94
456.17	9909.83
456.36	10061.96
456.54	10108.77
456.73	10452.83
456.91	10473.90
457.09	10555.82
457.28	10497.30
457.46	10249.21
457.64	10239.84
457.83	10682.20
458.01	10340.49
458.19	10942.00
458.38	10499.64
458.56	10630.71
458.74	10705.61
458.93	10822.64
459.11	10888.17
459.29	10843.70
459.48	11131.59
459.66	11016.90
459.84	10988.82
460.03	11070.73
460.21	11133.93
460.39	10841.36
460.57	10963.07
460.76	11094.14
460.94	11344.58
461.12	11358.62
461.31	11279.04
461.49	11147.97
461.67	11178.40
461.85	11679.27
462.04	11243.93
462.22	11597.35
462.40	11733.11
462.59	11700.34
462.77	11580.97
462.95	11758.85
463.13	11616.08
463.32	11838.43
463.50	11798.64
463.68	11782.26
463.86	12191.85
464.05	11695.66
464.23	11630.12
464.41	11861.84
464.59	11737.79
464.78	12325.26
464.96	12016.31
465.14	11723.74
465.32	11941.41
465.50	12203.55
465.69	12341.64
465.87	12428.24
466.05	12105.25
466.23	12173.13
466.41	12362.71
466.60	12465.69
466.78	12233.98
466.96	12074.82
467.14	12358.03
467.32	12299.52
467.51	12592.08
467.69	12301.86
467.87	12521.87
468.05	12634.21
468.23	12549.95
468.41	12613.15
468.60	12821.45
468.78	12648.26
468.96	12578.04
469.14	12889.33
469.32	12912.74
469.50	12758.26
469.69	13013.38
469.87	13107.00
470.05	13284.88
470.23	13334.03
470.41	13146.79
470.59	13312.97
470.77	13071.89
470.95	13607.87
471.14	13607.87
471.32	13336.37
471.50	13647.66
471.68	13532.98
471.86	13731.92
472.04	13820.86
472.22	14031.51
472.40	13694.47
472.58	14104.07
472.77	14099.39
472.95	14193.01
473.13	14803.89
473.31	14010.45
473.49	14085.34
473.67	14057.26
473.85	14232.80
474.03	14682.18
474.21	14518.34
474.39	14588.56
474.57	14855.38
474.75	14927.94
474.93	14726.65
475.12	14977.09
475.30	15019.22
475.48	15166.67
475.66	15250.93
475.84	15489.67
476.02	15335.19
476.20	15555.20
476.38	15775.21
476.56	15779.89
476.74	16135.65
476.92	15906.28
477.10	15960.11
477.28	16278.43
477.46	15796.28
477.64	16135.65
477.82	16566.31
478.00	16975.91
478.18	16973.56
478.36	16975.91
478.54	17139.74
478.72	17371.46
478.90	17191.23
479.08	17563.38
479.26	17825.52
479.44	17591.47
479.62	18038.51
479.80	18160.22
479.98	18237.45
480.16	18579.17
480.34	18469.17
480.52	18862.38
480.70	18588.53
480.88	18595.56
481.06	18726.63
481.24	19021.53
481.41	19215.80
481.59	19400.70
481.77	19477.94
481.95	19571.56
482.13	19868.81
482.31	19866.47
482.49	20297.13
482.67	20067.75
482.85	20353.30
483.03	20812.04
483.21	20795.66
483.39	21069.50
483.57	21095.25
483.74	21069.50
483.92	21553.99
484.10	21338.66
484.28	21858.26
484.46	21858.26
484.64	22548.72
484.82	21909.75
485.00	22099.34
485.18	22569.79
485.35	23000.44
485.53	22499.57
485.71	23227.48
485.89	23747.08
486.07	23143.22
486.25	23534.09
486.43	23559.83
486.61	24011.56
486.78	24051.34
486.96	24290.08
487.14	24587.33
487.32	24577.97
487.50	24929.05
487.68	24870.53
487.85	25345.66
488.03	25427.58
488.21	26103.99
488.39	26115.70
488.57	26029.10
488.75	26113.36
488.92	26485.50
489.10	26579.12
489.28	26857.65
489.46	27321.07
489.64	27136.17
489.81	27564.49
489.99	27850.03
490.17	27985.79
490.35	28364.95
490.53	28360.27
490.70	28587.30
490.88	28158.99
491.06	28725.39
491.24	29097.54
491.41	29188.82
491.59	29467.34
491.77	29359.68
491.95	29755.23
492.13	29909.71
492.30	30150.78
492.48	30078.22
492.66	30204.61
492.84	30469.09
493.01	30911.46
493.19	30810.81
493.37	31145.51
493.54	31569.15
493.72	31548.08
493.90	31576.17
494.08	32039.59
494.25	32189.39
494.43	31960.02
494.61	32222.16
494.79	32570.90
494.96	32627.07
495.14	32783.88
495.32	33083.47
495.49	32886.87
495.67	33832.44
495.85	33329.23
496.02	33937.77
496.20	33881.60
496.38	34054.79
496.55	33851.17
496.73	34768.66
496.91	35033.14
497.09	34892.71
497.26	34930.16
497.44	34700.78
497.62	35405.28
497.79	35744.66
497.97	35615.93
498.14	35885.09
498.32	36418.74
498.50	36037.23
498.67	36982.80
498.85	36837.69
499.03	36765.14
499.20	36563.85
499.38	37060.04
499.56	37118.56
499.73	37317.50
499.91	37521.13
500.08	37893.27
500.26	37493.04
500.44	37612.41
500.61	37916.68
500.79	38141.37
500.97	38345.00
501.14	38934.81
501.32	38670.33
501.49	39180.57
501.67	39133.76
501.84	39213.34
502.02	39299.94
502.20	39283.55
502.37	39269.51
502.55	39297.59
502.72	39435.69
502.90	39746.98
503.07	39620.59
503.25	39798.47
503.43	39758.68
503.60	40203.38
503.78	40240.83
503.95	40350.84
504.13	40678.51
504.30	40849.37
504.48	40460.84
504.65	40636.38
504.83	41038.95
505.01	41535.15
505.18	41326.84
505.36	41778.56
505.53	41603.02
505.71	41764.52
505.88	42092.19
506.06	41720.05
506.23	42169.43
506.41	42080.49
506.58	42403.49
506.76	42459.66
506.93	42663.28
507.11	42216.24
507.28	42810.74
507.46	42972.24
507.63	43002.66
507.81	43225.01
507.98	42866.91
508.16	43543.33
508.33	43784.40
508.50	43978.67
508.68	43833.55
508.85	44076.97
509.03	44151.87
509.20	44240.81
509.38	44856.37
509.55	44463.16
509.73	44559.12
509.90	44634.02
510.08	44666.78
510.25	44650.40
510.42	44839.98
510.60	44968.71
510.77	45071.70
510.95	45698.96
511.12	45165.32
511.30	45301.07
511.47	45380.65
511.64	45752.79
511.82	46351.97
511.99	46171.75
512.17	46007.91
512.34	46014.93
512.51	46630.49
512.69	46305.16
512.86	46670.28
513.04	46808.37
513.21	46815.40
513.38	47061.15
513.56	47503.51
513.73	46782.63
513.90	47161.79
514.08	47122.01
514.25	47683.73
514.43	47547.98
514.60	47702.46
514.77	47643.94
514.95	48060.56
515.12	47391.17
515.29	47660.33
515.47	48367.17
515.64	48348.45
515.81	47966.94
515.99	48605.91
516.16	48523.99
516.33	48729.95
516.51	48666.76
516.68	48533.35
516.85	48809.53
517.03	49029.54
517.20	49118.48
517.37	48591.86
517.54	49130.19
517.72	49022.52
517.89	49092.74
518.06	49457.86
518.24	49497.65
518.41	49677.87
518.58	49411.05
518.75	49095.08
518.93	49689.57
519.10	49631.06
519.27	50124.91
519.45	50012.57
519.62	50263.00
519.79	50265.34
519.96	50045.33
520.14	50429.18
520.31	50253.64
520.48	50560.25
520.65	50342.58
520.83	50880.91
521.00	50773.24
521.17	50616.43
521.34	50808.35
521.52	51126.66
521.69	50934.74
521.86	51138.36
522.03	51239.01
522.20	51508.17
522.38	51627.54
522.55	51473.06
522.72	51253.05
522.89	51634.56
523.07	51693.07
523.24	51388.80
523.41	51686.05
523.58	51777.33
523.75	52327.36
523.92	51896.70
524.10	51859.25
524.27	52207.99
524.44	52175.22
524.61	52037.13
524.78	52406.94
524.96	52378.85
525.13	52425.66
525.30	52559.07
525.47	52664.39
525.64	52692.48
525.81	52568.43
525.98	52671.42
526.16	52678.44
526.33	53111.44
526.50	53006.11
526.67	53071.65
526.84	52818.87
527.01	53003.77
527.18	53303.36
527.36	53148.88
527.53	53130.16
527.70	53488.26
527.87	53546.78
528.04	53375.92
528.21	53750.40
528.38	53406.34
528.55	53652.10
528.72	53455.50
528.89	53521.03
529.07	53436.77
529.24	53593.59
529.41	53879.13
529.58	53734.02
529.75	53741.04
529.92	53918.92
530.09	53932.96
530.26	54113.19
530.43	54131.91
530.60	54033.61
530.77	53872.11
530.94	54223.19
531.11	53965.73
531.28	54230.21
531.46	54394.05
531.63	54405.75
531.80	54216.17
531.97	54869.18
532.14	54745.13
532.31	54480.65
532.48	54677.25
532.65	54740.45
532.82	54370.64
532.99	54796.62
533.16	54569.59
533.33	54993.23
533.50	55119.62
533.67	54852.80
533.84	54691.30
534.01	54951.10
534.18	54953.44
534.35	55278.77
534.52	54937.05
534.69	55414.52
534.86	55351.33
535.03	55318.56
535.20	55388.78
535.37	55564.32
535.54	55611.13
535.71	55470.70
535.88	55529.21
536.05	55327.92
536.22	55475.38
536.38	55728.16
536.55	55721.13
536.72	55646.24
536.89	55622.83
537.06	55880.29
537.23	55693.05
537.40	55784.33
537.57	55739.86
537.74	55934.12
537.91	56051.15
538.08	56114.34
538.25	55903.70
538.42	55950.51
538.59	56184.56
538.75	55824.12
538.92	56032.42
539.09	56409.25
539.26	56289.88
539.43	56046.47
539.60	56186.90
539.77	56282.86
539.94	56458.40
540.11	56500.53
540.28	56619.90
540.44	56413.93
540.61	56596.49
540.78	56474.79
540.95	56521.60
541.12	56355.42
541.29	56388.19
541.46	56865.66
541.62	56519.26
541.79	56884.38
541.96	56711.18
542.13	56528.62
542.30	56793.10
542.47	56807.14
542.63	57031.83
542.80	57261.21
542.97	57006.09
543.14	57275.25
543.31	57293.97
543.48	57261.21
543.64	57202.69
543.81	57607.61
543.98	57537.39
544.15	57481.22
544.32	57553.77
544.48	57846.34
544.65	57497.60
544.82	57638.03
544.99	57420.36
545.16	57591.22
545.32	57560.79
545.49	57825.28
545.66	58047.63
545.83	57563.14
546.00	57659.10
546.16	57900.17
546.33	57696.55
546.50	57647.39
546.67	57619.31
546.83	57656.76
547.00	57668.46
547.17	57771.44
547.34	57918.90
547.50	57993.79
547.67	58314.45
547.84	58157.63
548.00	58239.55
548.17	58372.96
548.34	58101.46
548.51	58471.26
548.67	58328.49
548.84	58323.81
549.01	58012.52
549.18	58213.80
549.34	58473.60
549.51	58269.98
549.68	58419.77
549.84	58478.28
550.01	58665.53
550.18	58529.78
550.34	58543.82
550.51	58316.79
550.68	58511.05
550.84	58230.19
551.01	58597.65
551.18	58651.48
551.34	58672.55
551.51	58796.60
551.68	58784.90
551.84	58532.12
552.01	58635.10
552.18	58695.95
552.34	58628.08
552.51	58855.11
552.68	58820.00
552.84	58731.06
553.01	59086.82
553.18	58937.03
553.34	58906.60
553.51	58805.96
553.67	58883.20
553.84	59107.89
554.01	58983.84
554.17	59091.51
554.34	58944.05
554.51	59121.93
554.67	59208.53
554.84	59093.85
555.00	59058.74
555.17	59180.45
555.33	59161.72
555.50	59217.89
555.67	59105.55
555.83	59018.95
556.00	59203.85
556.16	59456.63
556.33	59306.83
556.50	59416.84
556.66	59451.95
556.83	59262.36
556.99	59391.09
557.16	59664.94
557.32	59681.32
557.49	59793.67
557.65	59489.40
557.82	59391.09
557.98	59409.82
558.15	59437.90
558.32	59700.04
558.48	59468.33
558.65	59739.83
558.81	59400.46
558.98	59620.47
559.14	59700.04
559.31	59690.68
559.47	59648.55
559.64	59604.08
559.80	59840.48
559.97	59737.49
560.13	59604.08
560.30	59744.51
560.46	59786.64
560.63	59753.88
560.79	59994.95
560.96	59798.35
561.12	60093.25
561.29	59934.10
561.45	59908.35
561.61	59992.61
561.78	59646.21
561.94	59983.25
562.11	59861.54
562.27	59859.20
562.44	59955.16
562.60	60224.32
562.77	60058.15
562.93	59880.27
563.10	60346.03
563.26	59784.30
563.42	60231.35
563.59	60116.66
563.75	60048.78
563.92	60191.56
564.08	60161.13
564.24	60292.20
564.41	60266.45
564.57	60348.37
564.74	60161.13
564.90	60107.30
565.07	60250.07
565.23	60217.30
565.39	60313.26
565.56	60212.62
565.72	59978.57
565.88	60184.54
566.05	60355.39
566.21	60154.11
566.38	60346.03
566.54	60299.22
566.70	60247.73
566.87	60526.25
567.03	60175.17
567.19	60481.78
567.36	60423.27
567.52	60413.91
567.68	60547.32
567.85	60650.30
568.01	60612.85
568.17	60390.50
568.34	60416.25
568.50	60615.19
568.66	60395.18
568.83	60324.97
568.99	60474.76
569.15	60580.09
569.32	60434.97
569.48	60411.57
569.64	60528.59
569.81	60528.59
569.97	60266.45
570.13	60701.79
570.30	60411.57
570.46	60537.96
570.62	60626.90
570.78	60556.68
570.95	60383.48
571.11	60631.58
571.27	60622.22
571.43	60769.67
571.60	60734.56
571.76	60652.64
571.92	60825.84
572.09	60708.82
572.25	60692.43
572.41	60477.10
572.57	60823.50
572.74	60882.02
572.90	61001.38
573.06	60729.88
573.22	60638.60
573.38	60654.98
573.55	60762.65
573.71	60917.12
573.87	60762.65
574.03	60629.24
574.20	60886.70
574.36	60699.45
574.52	60863.29
574.68	60610.51
574.84	61034.15
575.01	60664.35
575.17	60750.94
575.33	60617.53
575.49	60914.78
575.65	60725.20
575.82	60947.55
575.98	60701.79
576.14	61134.79
576.30	60767.33
576.46	60699.45
576.62	60856.27
576.79	60699.45
576.95	60722.86
577.11	60865.63
577.27	61069.26
577.43	61013.08
577.59	60739.24
577.75	60914.78
577.92	60853.93
578.08	61003.72
578.24	61045.85
578.40	60959.25
578.56	61050.53
578.72	60860.95
578.88	61036.49
579.04	61052.87
579.21	60837.54
579.37	61080.96
579.53	61197.99
579.69	60652.64
579.85	60947.55
580.01	60954.57
580.17	60961.59
580.33	61048.19
580.49	61099.68
580.65	61006.06
580.82	60940.53
580.98	61001.38
581.14	60879.67
581.30	60959.25
581.46	61116.07
581.62	61027.13
581.78	60919.46
581.94	60952.23
582.10	60912.44
582.26	61038.83
582.42	61095.00
582.58	60924.14
582.74	61076.28
582.90	61052.87
583.06	60938.19
583.22	60896.06
583.38	60912.44
583.54	61059.90
583.70	61183.94
583.86	61008.40
584.02	60980.32
584.18	61188.63
584.34	60987.34
584.50	60963.93
584.66	60828.18
584.82	60835.20
584.98	61223.73
585.14	61146.50
585.30	60931.17
585.46	61134.79
585.62	60966.27
585.78	60947.55
585.94	60870.31
586.10	61085.64
586.26	61216.71
586.42	61162.88
586.58	61478.85
586.74	61066.92
586.90	61052.87
587.06	60882.02
587.22	61139.47
587.38	61125.43
587.54	61151.18
587.70	61233.10
587.86	61073.94
588.02	61176.92
588.18	61155.86
588.34	61221.39
588.49	61076.28
