SpectraSuite Data File
++++++++++++++++++++++++++++++++++++
Date: Fri Oct 25 11:25:54 EDT 2013
User: price-jones
Dark Spectrum Present: No
Reference Spectrum Present: No
Number of Sampled Component Spectra: 1
Spectrometers: USB2+H05261
Integration Time (usec): 100000 (USB2+H05261)
Spectra Averaged: 1 (USB2+H05261)
Boxcar Smoothing: 0 (USB2+H05261)
Correct for Electrical Dark: No (USB2+H05261)
Strobe/Lamp Enabled: No (USB2+H05261)
Correct for Detector Non-linearity: No (USB2+H05261)
Correct for Stray Light: No (USB2+H05261)
Number of Pixels in Processed Spectrum: 2048
>>>>>Begin Processed Spectral Data<<<<<
365.73	128.73
365.92	128.73
366.12	128.73
366.32	147.45
366.52	182.56
366.72	170.86
366.91	159.16
367.11	72.56
367.31	105.32
367.51	124.05
367.70	135.75
367.90	163.84
368.10	91.28
368.30	88.94
368.49	180.22
368.69	168.52
368.89	201.29
369.09	163.84
369.28	133.41
369.48	168.52
369.68	147.45
369.87	170.86
370.07	159.16
370.27	259.80
370.47	372.15
370.66	524.28
370.86	603.86
371.06	645.99
371.25	781.74
371.45	645.99
371.65	741.95
371.84	676.41
372.04	695.14
372.24	660.03
372.44	763.01
372.63	723.23
372.83	655.35
373.03	709.18
373.22	744.29
373.42	812.17
373.62	753.65
373.81	791.10
374.01	807.48
374.21	828.55
374.40	791.10
374.60	863.66
374.79	786.42
374.99	823.87
375.19	847.27
375.38	793.44
375.58	851.96
375.78	903.45
375.97	854.30
376.17	851.96
376.37	891.74
376.56	819.19
376.76	858.98
376.95	889.40
377.15	891.74
377.35	891.74
377.54	828.55
377.74	877.70
377.93	917.49
378.13	926.85
378.33	915.15
378.52	924.51
378.72	966.64
378.91	950.26
379.11	976.00
379.31	910.47
379.50	929.19
379.70	1046.22
379.89	1107.07
380.09	971.32
380.28	973.66
380.48	1013.45
380.68	997.07
380.87	1004.09
381.07	926.85
381.26	990.05
381.46	1018.13
381.65	1046.22
381.85	1048.56
382.04	1086.01
382.24	1109.41
382.43	1067.28
382.63	952.60
382.83	1095.37
383.02	1057.92
383.22	1158.57
383.41	1071.97
383.61	1083.67
383.80	1109.41
384.00	1064.94
384.19	1210.06
384.39	1095.37
384.58	1071.97
384.78	1203.04
384.97	1167.93
385.17	1081.33
385.36	1188.99
385.56	1186.65
385.75	1163.25
385.95	1160.91
386.14	1191.33
386.34	1177.29
386.53	1174.95
386.72	1228.78
386.92	1299.00
387.11	1282.61
387.31	1310.70
387.50	1259.21
387.70	1336.45
387.89	1289.64
388.09	1284.95
388.28	1331.76
388.48	1409.00
388.67	1329.42
388.86	1401.98
389.06	1355.17
389.25	1289.64
389.45	1348.15
389.64	1387.94
389.84	1364.53
390.03	1418.36
390.22	1378.58
390.42	1430.07
390.61	1350.49
390.81	1420.71
391.00	1469.86
391.19	1420.71
391.39	1423.05
391.58	1409.00
391.78	1420.71
391.97	1516.67
392.16	1537.73
392.36	1533.05
392.55	1533.05
392.75	1542.41
392.94	1465.18
393.13	1526.03
393.33	1472.20
393.52	1682.85
393.71	1621.99
393.91	1577.52
394.10	1558.80
394.29	1610.29
394.49	1523.69
394.68	1727.32
394.88	1554.12
395.07	1699.23
395.26	1675.82
395.46	1661.78
395.65	1736.68
395.84	1706.25
396.04	1902.86
396.23	1720.29
396.42	1734.34
396.62	1795.19
396.81	1804.55
397.00	1778.81
397.19	1717.95
397.39	1771.79
397.58	1895.83
397.77	1809.23
397.97	1961.37
398.16	1874.77
398.35	1900.52
398.55	1952.01
398.74	1891.15
398.93	1952.01
399.12	1874.77
399.32	1961.37
399.51	1877.11
399.70	2036.27
399.90	1966.05
400.09	2045.63
400.28	2062.01
400.47	2108.82
400.67	2059.67
400.86	2127.55
401.05	2125.21
401.24	2059.67
401.44	2090.10
401.63	2141.59
401.82	2146.27
402.01	2054.99
402.21	2141.59
402.40	2244.57
402.59	2165.00
402.78	2251.60
402.97	2150.95
403.17	2305.43
403.36	2242.23
403.55	2321.81
403.74	2361.60
403.93	2459.90
404.13	2270.32
404.32	2394.37
404.51	2436.50
404.70	2382.67
404.89	2424.80
405.09	2415.43
405.28	2530.12
405.47	2546.50
405.66	2525.44
405.85	2506.71
406.05	2532.46
406.24	2537.14
406.43	2478.63
406.62	2630.76
406.81	2679.91
407.00	2480.97
407.20	2616.72
407.39	2705.66
407.58	2778.22
407.77	2796.94
407.96	2850.77
408.15	2747.79
408.34	2715.02
408.54	2637.78
408.73	2766.51
408.92	2799.28
409.11	2803.96
409.30	2942.05
409.49	2967.80
409.68	2813.32
409.87	2953.76
410.07	3005.25
410.26	3000.57
410.45	2885.88
410.64	2930.35
410.83	3145.68
411.02	3063.76
411.21	3080.14
411.40	3176.11
411.59	3251.00
411.78	3094.19
411.98	3258.03
412.17	3236.96
412.36	3286.11
412.55	3382.07
412.74	3562.30
412.93	3524.85
413.12	3295.47
413.31	3529.53
413.50	3517.83
413.69	3417.18
413.88	3639.53
414.07	3655.92
414.26	3552.93
414.45	3693.37
414.64	3609.11
414.83	3735.50
415.02	3733.15
415.22	3981.25
415.41	3866.56
415.60	3831.46
415.79	3995.29
415.98	3922.74
416.17	4030.40
416.36	3957.85
416.55	4084.23
416.74	4166.15
416.93	4063.17
417.12	4065.51
417.31	4140.41
417.50	4194.24
417.69	4400.21
417.88	4306.59
418.07	4156.79
418.26	4259.78
418.45	4315.95
418.64	4355.74
418.83	4407.23
419.02	4510.21
419.21	4468.08
419.39	4475.10
419.58	4507.87
419.77	4566.39
419.96	4603.83
420.15	4557.02
420.34	4559.36
420.53	4578.09
420.72	4685.75
420.91	4690.43
421.10	4660.01
421.29	4751.29
421.48	4641.28
421.67	4931.51
421.86	4835.55
422.05	4840.23
422.24	4800.44
422.43	4887.04
422.61	4901.08
422.80	5050.88
422.99	4905.76
423.18	4994.70
423.37	4940.87
423.56	4849.59
423.75	4968.96
423.94	4854.27
424.13	4606.17
424.32	4798.10
424.50	4945.55
424.69	5118.75
424.88	5093.01
425.07	4987.68
425.26	4847.25
425.45	4868.31
425.64	4999.38
425.83	4959.60
426.01	5020.45
426.20	4952.57
426.39	5053.22
426.58	4915.12
426.77	4889.38
426.96	5081.30
427.15	5153.86
427.33	5263.86
427.52	5060.24
427.71	5254.50
427.90	5219.39
428.09	5439.40
428.28	5514.30
428.46	5380.89
428.65	5366.85
428.84	5533.03
429.03	5556.43
429.22	5324.72
429.40	5444.09
429.59	5518.98
429.78	5310.68
429.97	5205.35
430.16	5575.16
430.34	5722.61
430.53	5834.96
430.72	5502.60
430.91	5694.52
431.10	5509.62
431.28	5949.64
431.47	5729.63
431.66	5944.96
431.85	5696.86
432.03	5856.02
432.22	5961.34
432.41	5834.96
432.60	6008.16
432.79	6017.52
432.97	6061.99
433.16	5991.77
433.35	5825.59
433.54	6239.87
433.72	5987.09
433.91	6125.18
434.10	6333.49
434.28	6122.84
434.47	6188.38
434.66	6246.89
434.85	6424.77
435.03	6324.13
435.22	6537.12
435.41	6670.53
435.59	6427.11
435.78	6534.78
435.97	6492.65
436.16	6345.19
436.34	6448.18
436.53	6438.81
436.72	6548.82
436.90	6389.66
437.09	6743.08
437.28	6537.12
437.46	6509.03
437.65	6640.10
437.84	6782.87
438.02	6724.36
438.21	6693.93
438.40	6665.85
438.58	7176.08
438.77	7061.40
438.96	7021.61
439.14	7150.34
439.33	7208.85
439.52	7180.76
439.70	7276.73
439.89	7543.55
440.08	7419.50
440.26	7267.36
440.45	7344.60
440.63	7520.14
440.82	7609.08
441.01	7412.48
441.19	7578.65
441.38	7810.37
441.57	7744.83
441.75	7801.01
441.94	8025.70
442.12	7892.29
442.31	7999.95
442.50	7918.03
442.68	7927.39
442.87	8121.66
443.05	8156.77
443.24	8248.05
443.43	8276.13
443.61	8161.45
443.80	8531.25
443.98	7894.63
444.17	7873.56
444.35	8273.79
444.54	8397.84
444.73	8285.50
444.91	8241.03
445.10	8219.96
445.28	8184.85
445.47	8154.43
445.65	8430.61
445.84	8549.98
446.02	8468.06
446.21	8454.02
446.39	8409.54
446.58	8629.56
446.77	8421.25
446.95	8362.73
447.14	8463.38
447.32	8566.36
447.51	8575.72
447.69	8397.84
447.88	8446.99
448.06	8386.14
448.25	8472.74
448.43	8676.37
448.62	8636.58
448.80	8573.38
448.99	8676.37
449.17	8779.35
449.36	8585.08
449.54	8833.18
449.73	8762.97
449.91	9277.88
450.10	8959.57
450.28	9231.07
450.46	9118.73
450.65	9067.24
450.83	9146.81
451.02	9125.75
451.20	9301.29
451.39	9167.88
451.57	8968.93
451.76	9057.87
451.94	9067.24
452.13	9235.75
452.31	9160.86
452.49	9294.27
452.68	9415.98
452.86	9331.72
453.05	9401.93
453.23	9598.54
453.42	9582.15
453.60	9430.02
453.78	9537.68
453.97	9458.10
454.15	9425.34
454.34	9439.38
454.52	9745.99
454.70	9582.15
454.89	9764.72
455.07	9792.80
455.26	9804.50
455.44	9966.00
455.62	9914.51
455.81	9982.38
455.99	9951.96
456.17	10190.69
456.36	10064.30
456.54	10207.08
456.73	10286.65
456.91	10328.78
457.09	10338.15
457.28	10455.17
457.46	10485.60
457.64	10562.84
457.83	10670.50
458.01	10469.22
458.19	10733.70
458.38	10581.56
458.56	10719.65
458.74	10785.19
458.93	10857.75
459.11	10815.62
459.29	10773.49
459.48	10892.85
459.66	10698.59
459.84	10963.07
460.03	11012.22
460.21	11070.73
460.39	11044.99
460.57	11021.58
460.76	11157.33
460.94	11180.74
461.12	11323.51
461.31	11260.32
461.49	11173.72
461.67	11178.40
461.85	11300.11
462.04	11037.97
462.22	11751.83
462.40	11494.37
462.59	11569.27
462.77	11417.13
462.95	11690.98
463.13	11592.67
463.32	11571.61
463.50	11637.14
463.68	11728.42
463.86	11840.77
464.05	11868.86
464.23	11735.45
464.41	12004.61
464.59	11534.16
464.78	12042.06
464.96	11981.20
465.14	11796.30
465.32	11995.25
465.50	12081.85
465.69	11922.69
465.87	12154.40
466.05	12180.15
466.23	12102.91
466.41	12168.45
466.60	12624.85
466.78	12149.72
466.96	11967.16
467.14	12278.45
467.32	12439.95
467.51	12540.59
467.69	12271.43
467.87	12545.27
468.05	12341.64
468.23	12463.35
468.41	12559.31
468.60	12683.36
468.78	12713.79
468.96	12561.66
469.14	12786.35
469.32	12863.58
469.50	12643.57
469.69	12875.29
469.87	12945.50
470.05	13067.21
470.23	13008.70
470.41	13186.58
470.59	13301.26
470.77	12996.99
470.95	13355.10
471.14	13558.72
471.32	13139.77
471.50	13467.44
471.68	13631.28
471.86	13610.22
472.04	13870.01
472.22	14169.60
472.40	13872.36
472.58	13841.93
472.77	13998.74
472.95	14085.34
473.13	14314.72
473.31	14265.57
473.49	14366.21
473.67	14036.19
473.85	14181.31
474.03	14679.84
474.21	14558.13
474.39	14691.54
474.57	14824.95
474.75	14752.40
474.93	14888.15
475.12	14724.31
475.30	15190.08
475.48	15089.43
475.66	15243.91
475.84	15112.84
476.02	15264.97
476.20	15435.83
476.38	15868.83
476.56	15712.02
476.74	15896.92
476.92	15740.10
477.10	15807.98
477.28	15754.15
477.46	16198.85
477.64	16318.22
477.82	16524.18
478.00	16821.43
478.18	16826.11
478.36	16842.50
478.54	17448.69
478.72	17188.89
478.90	17399.54
479.08	17706.15
479.26	17717.86
479.44	17804.46
479.62	17879.35
479.80	17853.61
479.98	18097.02
480.16	18478.53
480.34	18431.72
480.52	18485.55
480.70	18508.96
480.88	18258.52
481.06	18831.95
481.24	18691.52
481.41	19143.24
481.59	19482.62
481.77	19541.13
481.95	19197.07
482.13	20086.48
482.31	19601.99
482.49	20467.98
482.67	20222.23
482.85	20559.27
483.03	20479.69
483.21	20985.24
483.39	20945.45
483.57	20819.07
483.74	21373.77
483.92	21076.52
484.10	21226.32
484.28	21558.67
484.46	21853.58
484.64	22567.45
484.82	22036.14
485.00	22649.36
485.18	22567.45
485.35	22640.00
485.53	22586.17
485.71	23005.13
485.89	23480.25
486.07	23016.83
486.25	23314.08
486.43	23487.28
486.61	23660.48
486.78	23742.39
486.96	24322.85
487.14	24538.18
487.32	24713.72
487.50	24872.87
487.68	25144.38
487.85	25486.09
488.03	25352.68
488.21	25773.98
488.39	25869.94
488.57	25759.94
488.75	26326.35
488.92	26733.60
489.10	26862.33
489.28	26794.45
489.46	27030.85
489.64	26991.06
489.81	27520.02
489.99	27674.49
490.17	27758.75
490.35	28133.24
490.53	28327.50
490.70	28465.60
490.88	28217.50
491.06	29123.29
491.24	28701.99
491.41	28931.36
491.59	29359.68
491.77	29357.34
491.95	29472.03
492.13	30012.69
492.30	29968.22
492.48	30258.45
492.66	30490.16
492.84	30338.02
493.01	30539.31
493.19	30707.83
493.37	31035.50
493.54	30890.39
493.72	31328.07
493.90	31157.21
494.08	31594.89
494.25	32051.30
494.43	32245.56
494.61	32589.62
494.79	32311.10
494.96	32697.28
495.14	32903.25
495.32	33158.37
495.49	33362.00
495.67	33390.08
495.85	33628.82
496.02	33574.98
496.20	33855.85
496.38	34246.72
496.55	34225.65
496.73	34499.50
496.91	34560.35
497.09	35180.59
497.26	34958.24
497.44	34822.49
497.62	35470.82
497.79	35849.99
497.97	34995.69
498.14	35805.52
498.32	36212.77
498.50	36055.95
498.67	36720.66
498.85	36318.09
499.03	36655.13
499.20	36549.81
499.38	36418.74
499.56	37326.86
499.73	36870.46
499.91	37207.50
500.08	37336.23
500.26	37191.11
500.44	37844.12
500.61	38162.43
500.79	37851.14
500.97	37876.89
501.14	38022.00
501.32	38323.93
501.49	38188.18
501.67	38569.69
501.84	39166.52
502.02	39019.07
502.20	39131.42
502.37	38967.58
502.55	38785.02
502.72	39402.92
502.90	39592.50
503.07	39587.82
503.25	39517.60
503.43	39398.24
503.60	40116.78
503.78	40135.51
503.95	40257.21
504.13	40397.65
504.30	40889.16
504.48	40737.02
504.65	40807.24
504.83	40919.59
505.01	41345.56
505.18	41111.51
505.36	41722.39
505.53	41315.14
505.71	41223.86
505.88	41940.06
506.06	41764.52
506.23	41741.11
506.41	41706.01
506.58	42155.39
506.76	41879.21
506.93	42527.53
507.11	42567.32
507.28	43075.22
507.46	42731.16
507.63	42932.45
507.81	43358.42
507.98	42902.02
508.16	43229.69
508.33	43463.75
508.50	43667.37
508.68	43475.45
508.85	43992.71
509.03	43662.69
509.20	43917.81
509.38	44158.89
509.55	44105.06
509.73	44287.62
509.90	44383.58
510.08	44282.94
510.25	44449.11
510.42	44769.77
510.60	44989.78
510.77	45310.43
510.95	45303.41
511.12	45219.15
511.30	45350.22
511.47	45628.74
511.64	45413.41
511.82	46115.58
511.99	45785.56
512.17	46045.36
512.34	45373.63
512.51	46513.47
512.69	46593.04
512.86	46384.74
513.04	46681.98
513.21	46520.49
513.38	47047.11
513.56	47047.11
513.73	47140.73
513.90	46885.61
514.08	46887.95
514.25	47414.57
514.43	47540.96
514.60	47299.89
514.77	47468.40
514.95	47379.46
515.12	47409.89
515.29	47725.86
515.47	47976.30
515.64	48156.52
515.81	47555.00
515.99	47966.94
516.16	48535.69
516.33	48355.47
516.51	48500.58
516.68	48437.39
516.85	48325.04
517.03	48863.36
517.20	48821.23
517.37	48734.63
517.54	48795.49
517.72	48746.34
517.89	49127.84
518.06	49099.76
518.24	49064.65
518.41	49495.31
518.58	49516.37
518.75	49155.93
518.93	49965.76
519.10	49354.88
519.27	49972.78
519.45	49731.70
519.62	49654.47
519.79	49715.32
519.96	49734.04
520.14	50246.62
520.31	49656.81
520.48	50450.25
520.65	50403.44
520.83	50548.55
521.00	50918.35
521.17	50485.36
521.34	50564.93
521.52	50878.57
521.69	51140.71
521.86	51037.72
522.03	51072.83
522.20	51178.15
522.38	51494.13
522.55	51597.11
522.72	51096.24
522.89	51309.22
523.07	51543.28
523.24	51327.95
523.41	51709.46
523.58	51327.95
523.75	51805.42
523.92	52046.49
524.10	51990.32
524.27	52102.67
524.44	52020.75
524.61	52245.44
524.78	52109.69
524.96	52282.89
525.13	52252.46
525.30	52264.16
525.47	52357.78
525.64	52210.33
525.81	52701.84
525.98	52760.36
526.16	52456.09
526.33	52624.60
526.50	52783.76
526.67	52863.34
526.84	52879.72
527.01	52786.10
527.18	53024.84
527.36	52844.62
527.53	53071.65
527.70	53073.99
527.87	53441.45
528.04	53071.65
528.21	53755.08
528.38	53322.08
528.55	53338.47
528.72	53294.00
528.89	53570.18
529.07	53485.92
529.24	53258.89
529.41	53556.14
529.58	53478.90
529.75	54059.35
529.92	53750.40
530.09	53785.51
530.26	54035.95
530.43	53942.33
530.60	53883.81
530.77	53935.30
530.94	54314.47
531.11	54291.07
531.28	54195.10
531.46	54049.99
531.63	54429.16
531.80	54211.49
531.97	54405.75
532.14	54279.36
532.31	54372.99
532.48	54461.93
532.65	54803.64
532.82	54508.74
532.99	54724.07
533.16	54595.34
533.33	54894.92
533.50	55105.57
533.67	54857.48
533.84	54649.17
534.01	54997.91
534.18	54824.71
534.35	55112.59
534.52	55112.59
534.69	55171.11
534.86	55274.09
535.03	55023.65
535.20	54923.01
535.37	55313.88
535.54	55255.37
535.71	55161.75
535.88	55285.79
536.05	55468.36
536.22	55660.28
536.38	55618.15
536.55	55519.85
536.72	55697.73
536.89	55325.58
537.06	55491.76
537.23	55714.11
537.40	55524.53
537.57	55653.26
537.74	55807.73
537.91	55924.76
538.08	55868.59
538.25	55592.40
538.42	55903.70
538.59	55931.78
538.75	55891.99
538.92	56067.53
539.09	56238.39
539.26	56090.94
539.43	55990.30
539.60	56009.02
539.77	56236.05
539.94	56292.22
540.11	56556.70
540.28	56198.60
540.44	56516.92
540.61	56498.19
540.78	56327.33
540.95	56222.01
541.12	56481.81
541.29	56598.83
541.46	56615.22
541.62	56727.56
541.79	56727.56
541.96	56479.47
542.13	56832.89
542.30	56797.78
542.47	56947.57
542.63	56657.35
542.80	57013.11
542.97	56933.53
543.14	57343.12
543.31	57071.62
543.48	57071.62
543.64	57333.76
543.81	57368.87
543.98	57471.85
544.15	57216.74
544.32	57251.84
544.48	57572.50
544.65	57240.14
544.82	57422.70
544.99	57240.14
545.16	57544.41
545.32	57354.83
545.49	57619.31
545.66	57649.74
545.83	57619.31
546.00	57804.21
546.16	57654.42
546.33	57336.10
546.50	57354.83
546.67	57605.26
546.83	57415.68
547.00	57792.51
547.17	57841.66
547.34	57783.15
547.50	57923.58
547.67	58042.95
547.84	58066.35
548.00	58045.29
548.17	58358.92
548.34	58040.60
548.51	58188.06
548.67	58089.76
548.84	58028.90
549.01	58141.25
549.18	58164.65
549.34	58225.51
549.51	58342.53
549.68	58461.90
549.84	58466.58
550.01	58450.20
550.18	58089.76
550.34	58382.32
550.51	58457.22
550.68	58337.85
550.84	58159.97
551.01	58447.86
551.18	58440.84
551.34	58515.73
551.51	58672.55
551.68	58637.44
551.84	58745.11
552.01	58358.92
552.18	58604.67
552.34	58433.81
552.51	58482.97
552.68	58468.92
552.84	58726.38
553.01	58951.07
553.18	58866.81
553.34	58684.25
553.51	58719.36
553.67	58787.24
553.84	58908.94
554.01	58848.09
554.17	59075.12
554.34	58988.52
554.51	59007.25
554.67	59037.67
554.84	58955.75
555.00	58981.50
555.17	58810.64
555.33	59084.48
555.50	58906.60
555.67	58897.24
555.83	59063.42
556.00	58988.52
556.16	59210.87
556.33	59337.26
556.50	59128.95
556.66	59564.29
556.83	58981.50
556.99	59395.77
557.16	59477.69
557.32	59409.82
557.49	59660.26
557.65	59416.84
557.82	59164.06
557.98	59210.87
558.15	59533.87
558.32	59561.95
558.48	59358.33
558.65	59304.49
558.81	59599.40
558.98	59437.90
559.14	59807.71
559.31	59831.11
559.47	59592.38
559.64	59585.36
559.80	59796.01
559.97	59854.52
560.13	59501.10
560.30	59622.81
560.46	59700.04
560.63	59777.28
560.79	59891.97
560.96	59889.63
561.12	59877.93
561.29	59959.84
561.45	59894.31
561.61	59737.49
561.78	59901.33
561.94	59810.05
562.11	59922.40
562.27	59920.05
562.44	59824.09
562.60	60032.40
562.77	59920.05
562.93	59966.87
563.10	60231.35
563.26	59910.69
563.42	60182.19
563.59	59826.43
563.75	60013.68
563.92	59987.93
564.08	59973.89
564.24	60062.83
564.41	60079.21
564.57	59973.89
564.74	60083.89
564.90	60018.36
565.07	59980.91
565.23	59976.23
565.39	60121.34
565.56	59873.24
565.72	60100.28
565.88	60219.64
566.05	59931.76
566.21	60200.92
566.38	60144.75
566.54	60369.44
566.70	60530.93
566.87	60385.82
567.03	60172.83
567.19	60416.25
567.36	60331.99
567.52	60261.77
567.68	60505.19
567.85	60495.83
568.01	60385.82
568.17	60161.13
568.34	60554.34
568.50	60439.65
568.66	60245.39
568.83	60353.05
568.99	60346.03
569.15	60397.52
569.32	60350.71
569.48	60376.46
569.64	60488.80
569.81	60453.70
569.97	60334.33
570.13	60535.62
570.30	60151.77
570.46	60416.25
570.62	60498.17
570.78	60465.40
570.95	60336.67
571.11	60570.72
571.27	60416.25
571.43	60477.10
571.60	60458.38
571.76	60465.40
571.92	60584.77
572.09	60528.59
572.25	60533.28
572.41	60434.97
572.57	60530.93
572.74	60743.92
572.90	60512.21
573.06	60573.06
573.22	60556.68
573.38	60526.25
573.55	60552.00
573.71	60844.57
573.87	60643.28
574.03	60416.25
574.20	60727.54
574.36	60610.51
574.52	60722.86
574.68	60647.96
574.84	60779.03
575.01	60783.71
575.17	60882.02
575.33	60755.63
575.49	60540.30
575.65	60676.05
575.82	60760.31
575.98	60687.75
576.14	60977.98
576.30	60828.18
576.46	60622.22
576.62	60722.86
576.79	60680.73
576.95	60425.61
577.11	60774.35
577.27	61038.83
577.43	60793.07
577.59	60757.97
577.75	60669.03
577.92	60687.75
578.08	60713.50
578.24	60872.65
578.40	60954.57
578.56	61024.79
578.72	60757.97
578.88	60912.44
579.04	61155.86
579.21	60832.86
579.37	60886.70
579.53	60903.08
579.69	60713.50
579.85	60713.50
580.01	60753.29
580.17	60772.01
580.33	61022.45
580.49	61041.17
580.65	60828.18
580.82	60743.92
580.98	60910.10
581.14	60804.78
581.30	60992.02
581.46	60732.22
581.62	60999.04
581.78	60772.01
581.94	60928.83
582.10	60582.43
582.26	61017.77
582.42	60865.63
582.58	60921.80
582.74	61038.83
582.90	61015.43
583.06	60996.70
583.22	60863.29
583.38	60746.26
583.54	61015.43
583.70	60832.86
583.86	61024.79
584.02	60961.59
584.18	61024.79
584.34	60980.32
584.50	61087.98
584.66	60970.96
584.82	60914.78
584.98	61162.88
585.14	60832.86
585.30	60935.85
585.46	60999.04
585.62	60996.70
585.78	61080.96
585.94	60842.23
586.10	61228.41
586.26	61102.03
586.42	60980.32
586.58	61031.81
586.74	60956.91
586.90	61024.79
587.06	60968.61
587.22	61186.28
587.38	61015.43
587.54	61008.40
587.70	61132.45
587.86	61125.43
588.02	60949.89
588.18	61188.63
588.34	60952.23
588.49	61031.81
