SpectraSuite Data File
++++++++++++++++++++++++++++++++++++
Date: Fri Oct 25 10:44:35 EDT 2013
User: price-jones
Dark Spectrum Present: No
Reference Spectrum Present: No
Number of Sampled Component Spectra: 1
Spectrometers: USB2+H05261
Integration Time (usec): 100000 (USB2+H05261)
Spectra Averaged: 1 (USB2+H05261)
Boxcar Smoothing: 0 (USB2+H05261)
Correct for Electrical Dark: No (USB2+H05261)
Strobe/Lamp Enabled: No (USB2+H05261)
Correct for Detector Non-linearity: No (USB2+H05261)
Correct for Stray Light: No (USB2+H05261)
Number of Pixels in Processed Spectrum: 2048
>>>>>Begin Processed Spectral Data<<<<<
365.73	131.07
365.92	131.07
366.12	131.07
366.32	16.38
366.52	32.77
366.72	0.00
366.91	0.00
367.11	25.75
367.31	30.43
367.51	0.00
367.70	0.00
367.90	0.00
368.10	30.43
368.30	0.00
368.49	14.04
368.69	0.00
368.89	72.56
369.09	74.90
369.28	74.90
369.48	28.09
369.68	79.58
369.87	74.90
370.07	88.94
370.27	42.13
370.47	147.45
370.66	322.99
370.86	425.98
371.06	491.51
371.25	535.98
371.45	395.55
371.65	489.17
371.84	486.83
372.04	470.45
372.24	400.23
372.44	379.17
372.63	433.00
372.83	507.90
373.03	486.83
373.22	503.22
373.42	505.56
373.62	489.17
373.81	519.60
374.01	521.94
374.21	554.71
374.40	561.73
374.60	599.18
374.79	493.85
374.99	573.43
375.19	505.56
375.38	622.58
375.58	526.62
375.78	641.31
375.97	472.79
376.17	617.90
376.37	571.09
376.56	608.54
376.76	573.43
376.95	554.71
377.15	568.75
377.35	547.69
377.54	589.82
377.74	622.58
377.93	564.07
378.13	648.33
378.33	615.56
378.52	561.73
378.72	629.60
378.91	667.05
379.11	669.39
379.31	664.71
379.50	608.54
379.70	564.07
379.89	655.35
380.09	564.07
380.28	650.67
380.48	636.63
380.68	657.69
380.87	711.52
381.07	521.94
381.26	788.76
381.46	660.03
381.65	594.50
381.85	713.86
382.04	643.65
382.24	716.20
382.43	732.59
382.63	643.65
382.83	657.69
383.02	695.14
383.22	641.31
383.41	674.07
383.61	718.54
383.80	725.57
384.00	720.88
384.19	723.23
384.39	702.16
384.58	739.61
384.78	781.74
384.97	744.29
385.17	739.61
385.36	751.31
385.56	711.52
385.75	739.61
385.95	781.74
386.14	767.70
386.34	711.52
386.53	753.65
386.72	828.55
386.92	802.80
387.11	816.85
387.31	807.48
387.50	830.89
387.70	784.08
387.89	828.55
388.09	819.19
388.28	861.32
388.48	931.53
388.67	880.04
388.86	842.59
389.06	889.40
389.25	877.70
389.45	912.81
389.64	819.19
389.84	877.70
390.03	889.40
390.22	903.45
390.42	915.15
390.61	947.92
390.81	987.71
391.00	990.05
391.19	1076.65
391.39	924.51
391.58	1015.79
391.78	1001.75
391.97	964.30
392.16	945.58
392.36	1076.65
392.55	1006.43
392.75	919.83
392.94	924.51
393.13	987.71
393.33	910.47
393.52	999.41
393.71	973.66
393.91	1004.09
394.10	1069.62
394.29	1102.39
394.49	1090.69
394.68	1125.80
394.88	1081.33
395.07	1123.46
395.26	1142.18
395.46	1022.81
395.65	1200.69
395.84	1142.18
396.04	1123.46
396.23	1025.15
396.42	1046.22
396.62	1123.46
396.81	1107.07
397.00	1132.82
397.19	1214.74
397.39	1242.82
397.58	1284.95
397.77	1158.57
397.97	1263.89
398.16	1254.53
398.35	1261.55
398.55	1242.82
398.74	1299.00
398.93	1385.60
399.12	1394.96
399.32	1338.79
399.51	1345.81
399.70	1350.49
399.90	1338.79
400.09	1383.26
400.28	1420.71
400.47	1390.28
400.67	1453.47
400.86	1441.77
401.05	1455.81
401.24	1472.20
401.44	1446.45
401.63	1572.84
401.82	1526.03
402.01	1547.09
402.21	1502.62
402.40	1516.67
402.59	1495.60
402.78	1633.69
402.97	1685.19
403.17	1638.38
403.36	1671.14
403.55	1577.52
403.74	1664.12
403.93	1696.89
404.13	1659.44
404.32	1626.67
404.51	1671.14
404.70	1563.48
404.89	1732.00
405.09	1830.30
405.28	1732.00
405.47	1750.72
405.66	1778.81
405.85	1734.34
406.05	1757.74
406.24	1799.87
406.43	1881.79
406.62	1874.77
406.81	1865.41
407.00	1853.70
407.20	1790.51
407.39	1952.01
407.58	1902.86
407.77	2038.61
407.96	1963.71
408.15	2022.22
408.34	1956.69
408.54	2097.12
408.73	2099.46
408.92	2057.33
409.11	2064.35
409.30	2057.33
409.49	2097.12
409.68	2069.03
409.87	2024.56
410.07	2062.01
410.26	2256.28
410.45	2169.68
410.64	2190.74
410.83	2300.75
411.02	2296.07
411.21	2312.45
411.40	2326.49
411.59	2296.07
411.78	2136.91
411.98	2335.85
412.17	2324.15
412.36	2382.67
412.55	2361.60
412.74	2387.35
412.93	2480.97
413.12	2506.71
413.31	2605.02
413.50	2516.08
413.69	2532.46
413.88	2565.23
414.07	2544.16
414.26	2548.84
414.45	2572.25
414.64	2661.19
414.83	2705.66
415.02	2710.34
415.22	2761.83
415.41	2794.60
415.60	2949.08
415.79	2789.92
415.98	2918.65
416.17	2906.95
416.36	2949.08
416.55	3049.72
416.74	2979.50
416.93	2970.14
417.12	2881.20
417.31	3000.57
417.50	2963.12
417.69	3304.84
417.88	3096.53
418.07	2909.29
418.26	3105.89
418.45	3171.43
418.64	3318.88
418.83	3295.47
419.02	3094.19
419.21	3171.43
419.39	3201.85
419.58	3112.91
419.77	3138.66
419.96	3356.33
420.15	3412.50
420.34	3410.16
420.53	3501.44
420.72	3513.14
420.91	3496.76
421.10	3473.36
421.29	3538.89
421.48	3468.67
421.67	3424.20
421.86	3368.03
422.05	3475.70
422.24	3382.07
422.43	3480.38
422.61	3407.82
422.80	3473.36
422.99	3435.91
423.18	3538.89
423.37	3548.25
423.56	3555.27
423.75	3482.72
423.94	3501.44
424.13	3344.63
424.32	3356.33
424.50	3634.85
424.69	3667.62
424.88	3576.34
425.07	3660.60
425.26	3534.21
425.45	3564.64
425.64	3588.04
425.83	3595.06
426.01	3630.17
426.20	3712.09
426.39	3782.31
426.58	3655.92
426.77	3552.93
426.96	3676.98
427.15	3786.99
427.33	3571.66
427.52	3733.15
427.71	3808.05
427.90	3871.25
428.09	3747.20
428.28	3777.62
428.46	3887.63
428.65	3735.50
428.84	3908.69
429.03	3850.18
429.22	3758.90
429.40	3904.01
429.59	3946.14
429.78	3810.39
429.97	3749.54
430.16	3700.39
430.34	3854.86
430.53	3873.59
430.72	3840.82
430.91	3857.20
431.10	3925.08
431.28	4084.23
431.47	4180.20
431.66	4166.15
431.85	4063.17
432.03	4173.18
432.22	4285.52
432.41	4372.12
432.60	4187.22
432.79	4208.28
432.97	4262.12
433.16	4355.74
433.35	4194.24
433.54	4278.50
433.72	4351.06
433.91	4205.94
434.10	4456.38
434.28	4372.12
434.47	4411.91
434.66	4400.21
434.85	4573.41
435.03	4528.94
435.22	4641.28
435.41	4603.83
435.59	4652.98
435.78	4561.70
435.97	4660.01
436.16	4519.57
436.34	4447.02
436.53	4636.60
436.72	4608.51
436.90	4748.95
437.09	4620.22
437.28	4683.41
437.46	4940.87
437.65	4762.99
437.84	4744.27
438.02	4636.60
438.21	4779.37
438.40	4770.01
438.58	4947.89
438.77	4847.25
438.96	4985.34
439.14	5139.82
439.33	5151.52
439.52	5151.52
439.70	5184.29
439.89	5214.71
440.08	5177.26
440.26	5224.08
440.45	5247.48
440.63	5530.69
440.82	5338.76
441.01	5352.81
441.19	5579.84
441.38	5537.71
441.57	5488.56
441.75	5645.37
441.94	5881.77
442.12	5621.97
442.31	5806.87
442.50	5809.21
442.68	5706.23
442.87	5994.11
443.05	5643.03
443.24	5825.59
443.43	5753.04
443.61	5797.51
443.80	6024.54
443.98	5788.14
444.17	5645.37
444.35	6040.92
444.54	5951.98
444.73	5914.53
444.91	5905.17
445.10	5994.11
445.28	5736.65
445.47	5914.53
445.65	6045.60
445.84	6033.90
446.02	6003.47
446.21	6054.97
446.39	5949.64
446.58	6054.97
446.77	6164.97
446.95	5961.34
447.14	6097.10
447.32	6146.25
447.51	6073.69
447.69	5987.09
447.88	6076.03
448.06	6118.16
448.25	6043.26
448.43	6052.63
448.62	6136.88
448.80	6108.80
448.99	6303.06
449.17	6204.76
449.36	6277.32
449.54	6356.90
449.73	6328.81
449.91	6464.56
450.10	6342.85
450.28	6363.92
450.46	6520.73
450.65	6434.13
450.83	6469.24
451.02	6424.77
451.20	6520.73
451.39	6448.18
451.57	6368.60
451.76	6656.48
451.94	6380.30
452.13	6647.12
452.31	6700.95
452.49	6455.20
452.68	6548.82
452.86	6586.27
453.05	6630.74
453.23	6724.36
453.42	6459.88
453.60	6654.14
453.78	6864.79
453.97	6569.88
454.15	6686.91
454.34	6628.40
454.52	6787.55
454.70	6729.04
454.89	6951.39
455.07	6951.39
455.26	6963.09
455.44	7054.37
455.62	7103.53
455.81	7098.84
455.99	7014.59
456.17	7080.12
456.36	7145.66
456.54	7185.44
456.73	7218.21
456.91	7531.84
457.09	7201.83
457.28	7604.40
457.46	7358.64
457.64	7386.73
457.83	7358.64
458.01	7279.07
458.19	7318.86
458.38	7534.18
458.56	7536.52
458.74	7571.63
458.93	7419.50
459.11	7440.56
459.29	7438.22
459.48	7485.03
459.66	7529.50
459.84	7595.04
460.03	7782.28
460.21	7847.82
460.39	7660.57
460.57	7852.50
460.76	7990.59
460.94	7943.78
461.12	7747.17
461.31	7784.62
461.49	7819.73
461.67	7801.01
461.85	7981.23
462.04	7932.08
462.22	8135.70
462.40	8313.58
462.59	8063.15
462.77	8217.62
462.95	8308.90
463.13	8128.68
463.32	7967.18
463.50	8231.66
463.68	8203.58
463.86	8271.45
464.05	8088.89
464.23	8236.35
464.41	8081.87
464.59	8051.44
464.78	8571.04
464.96	8182.51
465.14	8184.85
465.32	8568.70
465.50	8482.10
465.69	8524.23
465.87	8315.92
466.05	8470.40
466.23	8259.75
466.41	8435.29
466.60	8580.40
466.78	8329.97
466.96	8627.21
467.14	8482.10
467.32	8564.02
467.51	8695.09
467.69	8468.06
467.87	8498.49
468.05	8788.71
468.23	8594.45
468.41	8711.47
468.60	8737.22
468.78	8891.70
468.96	8699.77
469.14	8798.07
469.32	8917.44
469.50	8753.60
469.69	8978.30
469.87	9039.15
470.05	8966.59
470.23	9125.75
470.41	8889.35
470.59	9303.63
470.77	9109.36
470.95	9472.15
471.14	9345.76
471.32	9254.48
471.50	9324.69
471.68	9488.53
471.86	9455.76
472.04	9460.45
472.22	9741.31
472.40	9666.41
472.58	9554.07
472.77	9575.13
472.95	9628.96
473.13	9830.25
473.31	9650.03
473.49	9785.78
473.67	9575.13
473.85	9811.53
474.03	9816.21
474.21	10118.14
474.39	10225.80
474.57	10129.84
474.75	10249.21
474.93	10377.94
475.12	10281.97
475.30	10420.06
475.48	10303.04
475.66	10431.77
475.84	10349.85
476.02	10670.50
476.20	10476.24
476.38	10665.82
476.56	10993.50
476.74	10850.72
476.92	10782.85
477.10	10813.28
477.28	10923.28
477.46	11042.65
477.64	11211.17
477.82	11332.87
478.00	11342.24
478.18	11538.84
478.36	11536.50
478.54	11742.47
478.72	11639.48
478.90	11765.87
479.08	11798.64
479.26	11969.50
479.44	12212.92
479.62	12020.99
479.80	12299.52
479.98	12334.62
480.16	12498.46
480.34	12437.61
480.52	12795.71
480.70	12800.39
480.88	12400.16
481.06	12896.35
481.24	12711.45
481.41	12776.98
481.59	13249.77
481.77	13097.64
481.95	13385.52
482.13	13371.48
482.31	13291.90
482.49	13748.31
482.67	13891.08
482.85	13724.90
483.03	13790.44
483.21	14064.28
483.39	14305.35
483.57	14317.06
483.74	14209.39
483.92	14501.96
484.10	14267.91
484.28	14831.97
484.46	14956.02
484.64	15075.39
484.82	14963.04
485.00	15059.01
485.18	15023.90
485.35	15267.31
485.53	15105.82
485.71	15033.26
485.89	15403.07
486.07	15421.79
486.25	15616.05
486.43	15592.65
486.61	15995.22
486.78	15936.71
486.96	16086.50
487.14	16159.06
487.32	16210.55
487.50	16683.34
487.68	16676.32
487.85	17207.62
488.03	17139.74
488.21	17326.99
488.39	17128.04
488.57	17451.03
488.75	17289.54
488.92	17640.62
489.10	18010.42
489.28	18015.10
489.46	18001.06
489.64	18061.91
489.81	18611.94
489.99	18909.19
490.17	18911.53
490.35	18897.49
490.53	18993.45
490.70	18965.36
490.88	18630.66
491.06	19234.52
491.24	19023.87
491.41	19393.68
491.59	19386.66
491.77	19592.62
491.95	19461.55
492.13	19646.46
492.30	20027.96
492.48	20273.72
492.66	20325.21
492.84	20126.27
493.01	20460.96
493.19	20507.77
493.37	20730.12
493.54	20790.98
493.72	21032.05
493.90	21191.21
494.08	21064.82
494.25	21621.87
494.43	21394.84
494.61	21577.40
494.79	21436.97
494.96	21549.31
495.14	21844.22
495.32	21876.99
495.49	21827.84
495.67	22071.25
495.85	22324.03
496.02	22501.91
496.20	22970.02
496.38	22794.48
496.55	22450.42
496.73	23255.56
496.91	23096.41
497.09	23295.35
497.26	23356.21
497.44	23157.26
497.62	23407.70
497.79	23695.58
497.97	23276.63
498.14	23660.48
498.32	24128.58
498.50	23814.95
498.67	24102.84
498.85	24084.11
499.03	24236.25
499.20	24346.25
499.38	24545.20
499.56	24322.85
499.73	24505.41
499.91	24751.17
500.08	24877.55
500.26	24519.45
500.44	25125.65
500.61	24823.72
500.79	24657.54
500.97	24936.07
501.14	25663.97
501.32	25350.34
501.49	25586.74
501.67	25521.20
501.84	25296.51
502.02	25708.44
502.20	26040.80
502.37	26155.49
502.55	25804.41
502.72	26066.55
502.90	26267.83
503.07	26129.74
503.25	26036.12
503.43	26120.38
503.60	26389.54
503.78	26518.27
503.95	26356.77
504.13	26841.26
504.30	26445.71
504.48	26644.66
504.65	27112.77
504.83	27405.33
505.01	27421.72
505.18	27035.53
505.36	27721.30
505.53	27632.36
505.71	27583.21
505.88	27372.57
506.06	27267.24
506.23	27580.87
506.41	27711.94
506.58	27473.21
506.76	27859.40
506.93	27990.47
507.11	28102.81
507.28	28091.11
507.46	27971.74
507.63	28315.80
507.81	28418.78
507.98	27859.40
508.16	28472.62
508.33	28526.45
508.50	28952.43
508.68	28996.90
508.85	29165.42
509.03	29244.99
509.20	28931.36
509.38	29233.29
509.55	29401.81
509.73	29343.30
509.90	28980.51
510.08	29158.39
510.25	29514.16
510.42	29689.70
510.60	29343.30
510.77	29783.32
510.95	30000.99
511.12	30029.07
511.30	30232.70
511.47	30279.51
511.64	30368.45
511.82	30433.99
511.99	30597.82
512.17	30326.32
512.34	30043.12
512.51	30616.55
512.69	30469.09
512.86	30644.63
513.04	30958.27
513.21	30595.48
513.38	30960.61
513.56	31000.40
513.73	31007.42
513.90	31442.76
514.08	30965.29
514.25	31112.74
514.43	31412.33
514.60	31246.15
514.77	31147.85
514.95	31768.09
515.12	31655.75
515.29	31646.38
515.47	32205.77
515.64	31545.74
515.81	31742.35
515.99	31627.66
516.16	31882.78
516.33	31831.29
516.51	32334.50
516.68	31644.04
516.85	31740.00
517.03	32332.16
517.20	32371.95
517.37	32561.53
517.54	32011.51
517.72	32437.48
517.89	32437.48
518.06	32184.71
518.24	32254.92
518.41	31985.76
518.58	32570.90
518.75	32776.86
518.93	32971.13
519.10	32659.84
519.27	33298.80
519.45	32465.57
519.62	33048.36
519.79	33390.08
519.96	33275.40
520.14	33331.57
520.31	33584.35
520.48	33200.50
520.65	33401.79
520.83	33598.39
521.00	34003.30
521.17	33965.85
521.34	34029.05
521.52	33558.60
521.69	34258.42
521.86	34298.21
522.03	34398.85
522.20	34345.02
522.38	34366.09
522.55	34478.43
522.72	34478.43
522.89	34522.90
523.07	34815.47
523.24	34319.28
523.41	34883.34
523.58	34602.48
523.75	35157.19
523.92	35314.00
524.10	35421.67
524.27	35466.14
524.44	35349.11
524.61	35222.72
524.78	35477.84
524.96	35662.74
525.13	35812.54
525.30	35835.94
525.47	35882.75
525.64	35646.36
525.81	35646.36
525.98	35456.78
526.16	35524.65
526.33	35800.83
526.50	35929.56
526.67	35758.70
526.84	35512.95
527.01	35660.40
527.18	35931.90
527.36	36196.38
527.53	36191.70
527.70	36638.75
527.87	36809.61
528.04	36322.77
528.21	36451.50
528.38	36715.98
528.55	36226.81
528.72	36510.02
528.89	37340.91
529.07	36603.64
529.24	36542.78
529.41	36809.61
529.58	36739.39
529.75	36713.64
529.92	36872.80
530.09	37141.96
530.26	37216.86
530.43	37352.61
530.60	36828.33
530.77	37319.84
530.94	37462.61
531.11	37050.68
531.28	37296.44
531.46	37404.10
531.63	37305.80
531.80	37750.50
531.97	37755.18
532.14	37191.11
532.31	37141.96
532.48	37820.72
532.65	37701.35
532.82	37673.26
532.99	38054.77
533.16	37675.60
533.33	37656.88
533.50	37937.74
533.67	38314.57
533.84	37584.32
534.01	37640.50
534.18	37965.83
534.35	38565.01
534.52	38525.22
534.69	38258.40
534.86	38328.61
535.03	38471.39
535.20	38747.57
535.37	38721.82
535.54	38990.98
535.71	38705.44
535.88	38197.54
536.05	38586.07
536.22	38628.20
536.38	38845.87
536.55	39051.84
536.72	38562.67
536.89	38508.83
537.06	38880.98
537.23	39222.70
537.40	39248.44
537.57	39449.73
537.74	38960.56
537.91	39550.37
538.08	39026.09
538.25	38909.07
538.42	39529.31
538.59	39386.54
538.75	38920.77
538.92	39232.06
539.09	39791.45
539.26	39452.07
539.43	39445.05
539.60	39182.91
539.77	39669.74
539.94	39379.51
540.11	39108.01
540.28	39442.71
540.44	39641.65
540.61	39552.71
540.78	39798.47
540.95	39346.75
541.12	39777.40
541.29	39672.08
541.46	40121.46
541.62	39786.77
541.79	40388.28
541.96	39894.43
542.13	40086.36
542.30	40240.83
542.47	40116.78
542.63	40266.58
542.80	40559.14
542.97	40481.91
543.14	40751.07
543.31	40807.24
543.48	40814.26
543.64	41071.72
543.81	40903.20
543.98	41261.30
544.15	40807.24
544.32	40512.33
544.48	41216.83
544.65	41289.39
544.82	41031.93
544.99	41060.02
545.16	41429.82
545.32	41315.14
545.49	41294.07
545.66	41408.76
545.83	41076.40
546.00	41638.13
546.16	41275.35
546.33	40907.88
546.50	40903.20
546.67	41172.36
546.83	40945.33
547.00	41462.59
547.17	41317.48
547.34	41500.04
547.50	41270.67
547.67	41713.03
547.84	41933.04
548.00	41839.42
548.17	41780.90
548.34	41642.81
548.51	42068.79
548.67	42024.32
548.84	42080.49
549.01	41553.87
549.18	41853.46
549.34	42141.35
549.51	42253.69
549.68	42110.92
549.84	41984.53
550.01	42256.03
550.18	42234.97
550.34	41942.40
550.51	42057.09
550.68	42244.33
550.84	41764.52
551.01	42616.47
551.18	42085.17
551.34	42155.39
551.51	42576.69
551.68	42342.63
551.84	42438.59
552.01	42466.68
552.18	42408.17
552.34	42471.36
552.51	42815.42
552.68	42515.83
552.84	43037.77
553.01	42803.72
553.18	42752.23
553.34	42630.52
553.51	42618.81
553.67	42319.23
553.84	43049.47
554.01	42904.36
554.17	43093.94
554.34	43091.60
554.51	42703.07
554.67	43126.71
554.84	43246.08
555.00	42759.25
555.17	43143.09
555.33	43026.07
555.50	42918.40
555.67	43306.93
555.83	43107.99
556.00	43344.38
556.16	43367.79
556.33	43077.56
556.50	42995.64
556.66	43047.13
556.83	42644.56
556.99	43782.06
557.16	43278.85
557.32	43438.00
557.49	43435.66
557.65	42909.04
557.82	43351.40
557.98	43072.88
558.15	43356.08
558.32	43203.95
558.48	43430.98
558.65	43353.74
558.81	43215.65
558.98	43150.12
559.14	43618.22
559.31	43349.06
559.47	43119.69
559.64	43672.06
559.80	43985.69
559.97	43742.27
560.13	43164.16
560.30	42960.53
560.46	43573.75
560.63	43803.13
560.79	43950.58
560.96	43997.39
561.12	43543.33
561.29	43688.44
561.45	43791.42
561.61	43789.08
561.78	43611.20
561.94	43498.86
562.11	43828.87
562.27	43526.94
562.44	43840.57
562.60	43831.21
562.77	44081.65
562.93	43868.66
563.10	44168.25
563.26	43964.62
563.42	44226.76
563.59	43672.06
563.75	43838.23
563.92	44163.57
564.08	43952.92
564.24	44156.55
564.41	44013.77
564.57	43950.58
564.74	44091.01
564.90	44034.84
565.07	44325.07
565.23	43826.53
565.39	44161.23
565.56	44037.18
565.72	43835.89
565.88	43896.75
566.05	44088.67
566.21	43772.70
566.38	44081.65
566.54	44203.36
566.70	44311.02
566.87	44547.42
567.03	44240.81
567.19	44566.14
567.36	44631.68
567.52	43845.26
567.68	44285.28
567.85	44004.41
568.01	44704.23
568.17	44182.29
568.34	44348.47
568.50	43992.71
568.66	43906.11
568.83	44535.71
568.99	43842.92
569.15	43861.64
569.32	43941.22
569.48	44285.28
569.64	44605.93
569.81	44336.77
569.97	44135.48
570.13	44217.40
570.30	44079.31
570.46	44540.39
570.62	44100.37
570.78	43936.54
570.95	44493.58
571.11	44818.92
571.27	44390.60
571.43	44729.98
571.60	44250.17
571.76	43906.11
571.92	44156.55
572.09	44273.57
572.25	43957.60
572.41	44020.80
572.57	44704.23
572.74	44889.13
572.90	44219.74
573.06	45228.51
573.22	44367.20
573.38	44306.34
573.55	44559.12
573.71	44622.31
573.87	44825.94
574.03	44411.67
574.20	44406.98
574.36	44505.29
574.52	44589.55
574.68	44336.77
574.84	44641.04
575.01	44568.48
575.17	44626.99
575.33	43955.26
575.49	44186.97
575.65	44900.84
575.82	44648.06
575.98	44811.90
576.14	44720.62
576.30	44687.85
576.46	44304.00
576.62	44535.71
576.79	44505.29
576.95	44088.67
577.11	44664.44
577.27	44215.06
577.43	44659.76
577.59	44348.47
577.75	44634.02
577.92	44018.46
578.08	44425.71
578.24	44147.18
578.40	44669.12
578.56	44580.18
578.72	44538.05
578.88	44713.59
579.04	44739.34
579.21	44676.15
579.37	44540.39
579.53	44196.34
579.69	44119.10
579.85	44545.08
580.01	45083.40
580.17	44690.19
580.33	44722.96
580.49	44886.79
580.65	44493.58
580.82	44919.56
580.98	44861.05
581.14	44678.49
581.30	44512.31
581.46	44739.34
581.62	44781.47
581.78	44577.84
581.94	45064.67
582.10	44348.47
582.26	44865.73
582.42	44348.47
582.58	44603.59
582.74	44619.97
582.90	44989.78
583.06	45160.64
583.22	44919.56
583.38	45050.63
583.54	44985.10
583.70	44608.27
583.86	44818.92
584.02	44369.54
584.18	44444.43
584.34	44669.12
584.50	44783.81
584.66	44863.39
584.82	44140.16
584.98	45277.66
585.14	44964.03
585.30	44582.52
585.46	44779.13
585.62	44430.39
585.78	44308.68
585.94	44266.55
586.10	44591.89
586.26	44978.07
586.42	44800.19
586.58	44715.93
586.74	44718.28
586.90	44903.18
587.06	44638.70
587.22	45074.04
587.38	44390.60
587.54	45254.26
587.70	44893.82
587.86	45319.79
588.02	44772.11
588.18	44346.13
588.34	44961.69
588.49	44612.95
588.65	44505.29
588.81	44507.63
588.97	44596.57
589.13	44479.54
589.29	44758.06
589.45	44945.31
589.61	44865.73
589.77	44858.71
589.93	44748.70
590.08	45090.42
590.24	44898.50
