SpectraSuite Data File
++++++++++++++++++++++++++++++++++++
Date: Fri Oct 25 11:34:41 EDT 2013
User: price-jones
Dark Spectrum Present: No
Reference Spectrum Present: No
Number of Sampled Component Spectra: 1
Spectrometers: USB2+H05261
Integration Time (usec): 100000 (USB2+H05261)
Spectra Averaged: 1 (USB2+H05261)
Boxcar Smoothing: 0 (USB2+H05261)
Correct for Electrical Dark: No (USB2+H05261)
Strobe/Lamp Enabled: No (USB2+H05261)
Correct for Detector Non-linearity: No (USB2+H05261)
Correct for Stray Light: No (USB2+H05261)
Number of Pixels in Processed Spectrum: 2048
>>>>>Begin Processed Spectral Data<<<<<
365.73	269.16
365.92	269.16
366.12	269.16
366.32	208.31
366.52	287.89
366.72	166.18
366.91	168.52
367.11	217.67
367.31	168.52
367.51	161.50
367.70	121.71
367.90	187.24
368.10	205.97
368.30	191.92
368.49	159.16
368.69	182.56
368.89	152.13
369.09	149.79
369.28	198.95
369.48	238.73
369.68	255.12
369.87	238.73
370.07	264.48
370.27	322.99
370.47	374.49
370.66	456.40
370.86	554.71
371.06	500.87
371.25	575.77
371.45	594.50
371.65	554.71
371.84	561.73
372.04	554.71
372.24	594.50
372.44	559.39
372.63	503.22
372.83	528.96
373.03	578.11
373.22	582.79
373.42	554.71
373.62	631.94
373.81	650.67
374.01	582.79
374.21	603.86
374.40	599.18
374.60	692.80
374.79	629.60
374.99	624.92
375.19	653.01
375.38	660.03
375.58	627.26
375.78	758.33
375.97	713.86
376.17	690.46
376.37	718.54
376.56	688.12
376.76	699.82
376.95	683.44
377.15	608.54
377.35	716.20
377.54	716.20
377.74	692.80
377.93	657.69
378.13	718.54
378.33	734.93
378.52	627.26
378.72	720.88
378.91	716.20
379.11	676.41
379.31	704.50
379.50	667.05
379.70	697.48
379.89	739.61
380.09	739.61
380.28	770.04
380.48	727.91
380.68	695.14
380.87	763.01
381.07	645.99
381.26	779.40
381.46	758.33
381.65	713.86
381.85	777.06
382.04	798.12
382.24	716.20
382.43	760.67
382.63	823.87
382.83	795.78
383.02	732.59
383.22	781.74
383.41	767.70
383.61	786.42
383.80	814.51
384.00	772.38
384.19	713.86
384.39	837.91
384.58	849.61
384.78	858.98
384.97	807.48
385.17	734.93
385.36	823.87
385.56	741.95
385.75	809.83
385.95	868.34
386.14	823.87
386.34	873.02
386.53	823.87
386.72	870.68
386.92	823.87
387.11	870.68
387.31	856.64
387.50	812.17
387.70	795.78
387.89	880.04
388.09	877.70
388.28	823.87
388.48	887.06
388.67	877.70
388.86	922.17
389.06	931.53
389.25	938.55
389.45	863.66
389.64	964.30
389.84	959.62
390.03	924.51
390.22	950.26
390.42	894.08
390.61	950.26
390.81	891.74
391.00	973.66
391.19	961.96
391.39	929.19
391.58	973.66
391.78	905.79
391.97	957.28
392.16	999.41
392.36	1004.09
392.55	910.47
392.75	1015.79
392.94	999.41
393.13	1036.86
393.33	1018.13
393.52	1104.73
393.71	1025.15
393.91	1022.81
394.10	1060.26
394.29	1181.97
394.49	971.32
394.68	1158.57
394.88	1050.90
395.07	1081.33
395.26	1151.54
395.46	1156.22
395.65	1163.25
395.84	1093.03
396.04	1193.67
396.23	1177.29
396.42	1179.63
396.62	1177.29
396.81	1142.18
397.00	1088.35
397.19	1221.76
397.39	1107.07
397.58	1277.93
397.77	1217.08
397.97	1235.80
398.16	1193.67
398.35	1301.34
398.55	1315.38
398.74	1259.21
398.93	1317.72
399.12	1228.78
399.32	1228.78
399.51	1219.42
399.70	1268.57
399.90	1261.55
400.09	1345.81
400.28	1261.55
400.47	1277.93
400.67	1439.43
400.86	1296.66
401.05	1259.21
401.24	1380.92
401.44	1357.51
401.63	1404.32
401.82	1392.62
402.01	1352.83
402.21	1289.64
402.40	1380.92
402.59	1495.60
402.78	1467.52
402.97	1448.79
403.17	1376.24
403.36	1371.55
403.55	1448.79
403.74	1556.46
403.93	1516.67
404.13	1577.52
404.32	1469.86
404.51	1483.90
404.70	1504.96
404.89	1533.05
405.09	1596.25
405.28	1596.25
405.47	1554.12
405.66	1717.95
405.85	1717.95
406.05	1715.61
406.24	1748.38
406.43	1657.10
406.62	1757.74
406.81	1827.96
407.00	1753.06
407.20	1685.19
407.39	1682.85
407.58	1671.14
407.77	1729.66
407.96	1769.44
408.15	1914.56
408.34	1820.94
408.54	1905.20
408.73	1825.62
408.92	1806.89
409.11	1846.68
409.30	1888.81
409.49	1863.07
409.68	1912.22
409.87	1877.11
410.07	1977.75
410.26	2022.22
410.45	1949.67
410.64	1980.09
410.83	2054.99
411.02	1952.01
411.21	2092.44
411.40	2026.90
411.59	2115.84
411.78	2026.90
411.98	2052.65
412.17	2090.10
412.36	2076.06
412.55	2134.57
412.74	2223.51
412.93	2193.08
413.12	2211.81
413.31	2244.57
413.50	2286.70
413.69	2197.76
413.88	2441.18
414.07	2385.01
414.26	2282.02
414.45	2499.69
414.64	2504.37
414.83	2448.20
415.02	2448.20
415.22	2534.80
415.41	2497.35
415.60	2527.78
415.79	2602.68
415.98	2689.28
416.17	2509.05
416.36	2511.39
416.55	2637.78
416.74	2682.25
416.93	2712.68
417.12	2670.55
417.31	2745.45
417.50	2717.36
417.69	2750.13
417.88	2799.28
418.07	2740.77
418.26	2789.92
418.45	2752.47
418.64	2911.63
418.83	2881.20
419.02	2843.75
419.21	2951.42
419.39	3007.59
419.58	2937.37
419.77	2820.35
419.96	2991.20
420.15	2949.08
420.34	2904.60
420.53	3045.04
420.72	3049.72
420.91	3021.63
421.10	3157.38
421.29	3091.85
421.48	3117.59
421.67	3087.17
421.86	3105.89
422.05	3082.49
422.24	3023.97
422.43	3159.72
422.61	3265.05
422.80	3283.77
422.99	3162.06
423.18	3096.53
423.37	3166.74
423.56	3185.47
423.75	3314.20
423.94	3089.51
424.13	2998.23
424.32	3129.30
424.50	3337.60
424.69	3370.37
424.88	3398.46
425.07	3260.37
425.26	3201.85
425.45	3248.66
425.64	3157.38
425.83	3241.64
426.01	3279.09
426.20	3255.69
426.39	3365.69
426.58	3220.58
426.77	3283.77
426.96	3410.16
427.15	3232.28
427.33	3503.78
427.52	3368.03
427.71	3325.90
427.90	3435.91
428.09	3496.76
428.28	3466.33
428.46	3557.61
428.65	3524.85
428.84	3616.13
429.03	3588.04
429.22	3597.40
429.40	3566.98
429.59	3571.66
429.78	3449.95
429.97	3545.91
430.16	3702.73
430.34	3686.34
430.53	3627.83
430.72	3632.51
430.91	3618.47
431.10	3637.19
431.28	3786.99
431.47	3550.59
431.66	3749.54
431.85	3662.94
432.03	3761.24
432.22	3817.41
432.41	3913.38
432.60	3957.85
432.79	3992.95
432.97	3974.23
433.16	3892.31
433.35	3880.61
433.54	3836.14
433.72	3932.10
433.91	3904.01
434.10	4049.13
434.28	3896.99
434.47	4046.79
434.66	4072.53
434.85	4009.34
435.03	4051.47
435.22	4149.77
435.41	4189.56
435.59	4201.26
435.78	4145.09
435.97	4325.31
436.16	4210.62
436.34	4100.62
436.53	4222.33
436.72	4238.71
436.90	4084.23
437.09	4257.43
437.28	4250.41
437.46	4301.90
437.65	4243.39
437.84	4458.72
438.02	4313.61
438.21	4442.34
438.40	4301.90
438.58	4402.55
438.77	4622.56
438.96	4507.87
439.14	4442.34
439.33	4685.75
439.52	4692.77
439.70	4758.31
439.89	4718.52
440.08	4671.71
440.26	4695.11
440.45	4692.77
440.63	4781.71
440.82	4940.87
441.01	4730.22
441.19	4826.18
441.38	4971.30
441.57	5013.43
441.75	4961.94
441.94	5060.24
442.12	4943.21
442.31	5259.18
442.50	5135.14
442.68	5067.26
442.87	5224.08
443.05	5411.32
443.24	5327.06
443.43	5217.05
443.61	5282.59
443.80	5245.14
443.98	5062.58
444.17	5041.51
444.35	5301.31
444.54	5310.68
444.73	5259.18
444.91	5362.17
445.10	5282.59
445.28	5334.08
445.47	5432.38
445.65	5462.81
445.84	5397.28
446.02	5317.70
446.21	5334.08
446.39	5406.64
446.58	5369.19
446.77	5383.23
446.95	5380.89
447.14	5357.49
447.32	5528.35
447.51	5373.87
447.69	5472.17
447.88	5486.22
448.06	5488.56
448.25	5497.92
448.43	5458.13
448.62	5500.26
448.80	5607.92
448.99	5570.48
449.17	5589.20
449.36	5598.56
449.54	5673.46
449.73	5636.01
449.91	5673.46
450.10	5556.43
450.28	5720.27
450.46	5834.96
450.65	5738.99
450.83	5792.83
451.02	6005.81
451.20	5818.57
451.39	5902.83
451.57	5837.30
451.76	5930.92
451.94	5881.77
452.13	5804.53
452.31	5811.55
452.49	5980.07
452.68	6001.13
452.86	5980.07
453.05	6094.76
453.23	6043.26
453.42	6052.63
453.60	5989.43
453.78	6169.65
453.97	6031.56
454.15	6141.57
454.34	6059.65
454.52	6209.44
454.70	6303.06
454.89	6118.16
455.07	6193.06
455.26	6200.08
455.44	6216.46
455.62	6310.08
455.81	6277.32
455.99	6420.09
456.17	6284.34
456.36	6434.13
456.54	6574.56
456.73	6368.60
456.91	6640.10
457.09	6654.14
457.28	6796.92
457.46	6590.95
457.64	6703.29
457.83	6642.44
458.01	6672.87
458.19	6778.19
458.38	6789.89
458.56	6857.77
458.74	6775.85
458.93	6841.39
459.11	6733.72
459.29	6785.21
459.48	6885.86
459.66	6715.00
459.84	6864.79
460.03	7152.68
460.21	6960.75
460.39	7084.80
460.57	7047.35
460.76	7096.50
460.94	7056.72
461.12	7098.84
461.31	7185.44
461.49	6993.52
461.67	7157.36
461.85	7375.03
462.04	6963.09
462.22	7630.15
462.40	7173.74
462.59	7538.87
462.77	7178.42
462.95	7527.16
463.13	7466.31
463.32	7445.24
463.50	7691.00
463.68	7442.90
463.86	7470.99
464.05	7365.67
464.23	7478.01
464.41	7400.77
464.59	7501.42
464.78	7691.00
464.96	7562.27
465.14	7585.68
465.32	7527.16
465.50	7501.42
465.69	7747.17
465.87	7772.92
466.05	7793.98
466.23	7611.42
466.41	7672.28
466.60	7758.88
466.78	7585.68
466.96	7768.24
467.14	7644.19
467.32	7721.43
467.51	7901.65
467.69	7634.83
467.87	7740.15
468.05	7999.95
468.23	8035.06
468.41	7925.05
468.60	7934.42
468.78	8025.70
468.96	7971.86
469.14	8149.75
469.32	8091.23
469.50	7796.32
469.69	8156.77
469.87	8177.83
470.05	8191.88
470.23	8177.83
470.41	8086.55
470.59	8252.73
470.77	8224.64
470.95	8252.73
471.14	8575.72
471.32	8339.33
471.50	8594.45
471.68	8578.06
471.86	8505.51
472.04	8772.33
472.22	8681.05
472.40	8697.43
472.58	8599.13
472.77	8774.67
472.95	8807.44
473.13	9135.11
473.31	8816.80
473.49	8816.80
473.67	8847.22
473.85	8975.95
474.03	9245.12
474.21	9025.11
474.39	9254.48
474.57	9343.42
474.75	9296.61
474.93	9317.67
475.12	9380.87
475.30	9659.39
475.48	9315.33
475.66	9455.76
475.84	9685.14
476.02	9406.61
476.20	9734.29
476.38	9823.23
476.56	9884.08
476.74	10061.96
476.92	9795.14
477.10	9841.95
477.28	10050.26
477.46	10200.05
477.64	10291.34
477.82	10293.68
478.00	10649.44
478.18	10441.13
478.36	10619.01
478.54	10752.42
478.72	10649.44
478.90	10726.68
479.08	10951.37
479.26	11063.71
479.44	11248.61
479.62	10871.79
479.80	11293.08
479.98	11272.02
480.16	11375.00
480.34	11454.58
480.52	11501.39
480.70	11648.85
480.88	11513.10
481.06	11700.34
481.24	11644.17
481.41	11641.82
481.59	12095.89
481.77	12086.53
481.95	12184.83
482.13	12343.99
482.31	12182.49
482.49	12493.78
482.67	12634.21
482.85	12636.55
483.03	12767.62
483.21	12826.14
483.39	12915.08
483.57	13240.41
483.74	13233.39
483.92	13041.46
484.10	13025.08
484.28	13563.40
484.46	13774.05
484.64	13977.68
484.82	13689.79
485.00	13839.59
485.18	14193.01
485.35	14314.72
485.53	14075.98
485.71	14232.80
485.89	14572.18
486.07	14565.15
486.25	14445.79
486.43	14586.22
486.61	14998.15
486.78	14876.44
486.96	15220.50
487.14	15264.97
487.32	15321.15
487.50	15342.21
487.68	15318.81
487.85	16004.58
488.03	15889.90
488.21	16079.48
488.39	15997.56
488.57	15836.06
488.75	16156.72
488.92	16432.90
489.10	16533.54
489.28	16505.46
489.46	16624.83
489.64	16685.68
489.81	16844.84
489.99	17088.25
490.17	17123.36
490.35	16968.88
490.53	17350.39
490.70	17397.20
490.88	17432.31
491.06	17778.71
491.24	17788.07
491.41	17968.29
491.59	18001.06
491.77	18033.83
491.95	17884.03
492.13	18408.31
492.30	18586.19
492.48	18965.36
492.66	18668.11
492.84	18611.94
493.01	18953.66
493.19	18923.23
493.37	19241.54
493.54	19056.64
493.72	19571.56
493.90	19377.30
494.08	19522.41
494.25	19569.22
494.43	19864.13
494.61	20053.71
494.79	20339.26
494.96	20091.16
495.14	20423.51
495.32	20702.04
495.49	20414.15
495.67	20552.24
495.85	20505.43
496.02	20765.23
496.20	21025.03
496.38	20865.88
496.55	21125.68
496.73	21458.03
496.91	21378.45
497.09	21296.53
497.26	21415.90
497.44	21483.78
497.62	21654.64
497.79	22188.28
497.97	21909.75
498.14	22003.38
498.32	22279.56
498.50	21919.12
498.67	22560.42
498.85	22431.69
499.03	22473.82
499.20	22654.05
499.38	22780.43
499.56	22897.46
499.73	23084.70
499.91	22998.10
500.08	23232.16
500.26	23105.77
500.44	23468.55
500.61	23480.25
500.79	23463.87
500.97	23604.30
501.14	23679.20
501.32	23885.17
501.49	24091.13
501.67	24112.20
501.84	24273.70
502.02	23978.79
502.20	24149.65
502.37	24505.41
502.55	24341.57
502.72	24416.47
502.90	24348.59
503.07	24437.53
503.25	24524.13
503.43	24369.66
503.60	24865.85
503.78	24608.39
503.95	24973.52
504.13	24744.14
504.30	25163.10
504.48	25050.75
504.65	25174.80
504.83	25315.23
505.01	25544.61
505.18	25579.71
505.36	25568.01
505.53	25614.82
505.71	26157.83
505.88	25722.49
506.06	25642.91
506.23	26143.78
506.41	25816.11
506.58	26389.54
506.76	26380.18
506.93	26675.09
507.11	26225.70
507.28	26403.58
507.46	26436.35
507.63	26677.43
507.81	26836.58
507.98	26677.43
508.16	26775.73
508.33	27070.64
508.50	26712.53
508.68	26871.69
508.85	27283.62
509.03	27166.60
509.20	27075.32
509.38	27887.48
509.55	27723.65
509.73	27232.13
509.90	27187.66
510.08	27513.00
510.25	28039.62
510.42	27810.25
510.60	28180.05
510.77	28180.05
510.95	28357.93
511.12	28386.02
511.30	28250.27
511.47	28315.80
511.64	28114.52
511.82	28367.29
511.99	28481.98
512.17	28617.73
512.34	28341.55
512.51	28961.79
512.69	28872.85
512.86	28779.23
513.04	29153.71
513.21	29160.73
513.38	29249.67
513.56	29750.55
513.73	28802.63
513.90	29525.86
514.08	29383.09
514.25	29839.49
514.43	29663.95
514.60	29928.43
514.77	29703.74
514.95	29778.64
515.12	29972.90
515.29	29759.91
515.47	29788.00
515.64	29778.64
515.81	29869.92
515.99	30118.01
516.16	30363.77
516.33	30473.78
516.51	30478.46
516.68	30541.65
516.85	30630.59
517.03	30859.96
517.20	30831.88
517.37	30735.92
517.54	30831.88
517.72	31047.21
517.89	30845.92
518.06	30967.63
518.24	31454.46
518.41	30735.92
518.58	30899.75
518.75	30890.39
518.93	31620.64
519.10	31417.01
519.27	31606.59
519.45	31452.12
519.62	31365.52
519.79	32018.53
519.96	31309.35
520.14	32018.53
520.31	31962.36
520.48	32126.19
520.65	31899.16
520.83	32231.52
521.00	32334.50
521.17	32292.37
521.34	32563.87
521.52	32268.97
521.69	32685.58
521.86	32811.97
522.03	32313.44
522.20	32856.44
522.38	33270.72
522.55	32608.34
522.72	32992.19
522.89	33160.71
523.07	33699.03
523.24	33151.35
523.41	33242.63
523.58	33031.98
523.75	33570.30
523.92	33158.37
524.10	33263.69
524.27	33865.21
524.44	33755.21
524.61	34000.96
524.78	33717.76
524.96	34263.10
525.13	34143.74
525.30	33944.79
525.47	33900.32
525.64	33907.34
525.81	33912.02
525.98	34487.79
526.16	34312.25
526.33	33762.23
526.50	34607.16
526.67	34288.85
526.84	34600.14
527.01	34398.85
527.18	34394.17
527.36	34759.30
527.53	34995.69
527.70	35117.40
527.87	34962.92
528.04	34696.10
528.21	34885.68
528.38	35091.65
528.55	35227.40
528.72	34986.33
528.89	35007.39
529.07	35175.91
529.24	34745.25
529.41	35044.84
529.58	35346.77
529.75	35332.73
529.92	35428.69
530.09	35468.48
530.26	35285.92
530.43	35243.79
530.60	35276.55
530.77	35419.33
530.94	35826.58
531.11	35543.38
531.28	35803.17
531.46	35644.02
531.63	35438.05
531.80	35573.80
531.97	36182.34
532.14	36348.52
532.31	36114.47
532.48	36123.83
532.65	36725.35
532.82	36627.04
532.99	36395.33
533.16	36194.04
533.33	36580.23
533.50	36573.21
533.67	36491.29
533.84	36463.21
534.01	36425.76
534.18	36676.19
534.35	37116.22
534.52	37172.39
534.69	37069.40
534.86	37027.28
535.03	37230.90
535.20	36924.29
535.37	37141.96
535.54	37471.98
535.71	37127.92
535.88	37390.06
536.05	36914.93
536.22	37661.56
536.38	37111.53
536.55	37457.93
536.72	36940.68
536.89	37134.94
537.06	37418.14
537.23	37703.69
537.40	37462.61
537.57	37455.59
537.74	37333.89
537.91	37528.15
538.08	37818.38
538.25	37626.45
538.42	38003.28
538.59	37963.49
538.75	37691.99
538.92	38424.57
539.09	38277.12
539.26	37794.97
539.43	38478.41
539.60	38047.75
539.77	38054.77
539.94	38504.15
540.11	38309.89
540.28	38401.17
540.44	38590.75
540.61	38876.30
540.78	38520.54
540.95	37970.51
541.12	38347.34
541.29	38230.31
541.46	38330.95
541.62	38600.12
541.79	39210.99
541.96	38625.86
542.13	38476.07
542.30	38635.22
542.47	39082.27
542.63	39171.21
542.80	39346.75
542.97	39033.11
543.14	39175.89
543.31	39285.89
543.48	39171.21
543.64	39772.72
543.81	40091.04
543.98	39873.37
544.15	39313.98
544.32	39393.56
544.48	40168.27
544.65	40280.62
544.82	40107.42
544.99	40114.44
545.16	39838.26
545.32	39941.24
545.49	40184.66
545.66	40027.84
545.83	40261.90
546.00	40079.33
546.16	40161.25
546.33	40086.36
546.50	40208.06
546.67	40034.86
546.83	39789.11
547.00	40086.36
547.17	39901.45
547.34	40268.92
547.50	40364.88
547.67	40957.03
547.84	40437.44
548.00	40987.46
548.17	40694.89
548.34	40854.05
548.51	41207.47
548.67	40935.97
548.84	40748.73
549.01	41020.23
549.18	40781.49
549.34	41378.33
549.51	41219.17
549.68	40842.35
549.84	40762.77
550.01	40964.06
550.18	41050.66
550.34	41352.58
550.51	41333.86
550.68	41167.68
550.84	41282.37
551.01	41464.93
551.18	41181.73
551.34	41076.40
551.51	41380.67
551.68	41401.74
551.84	41401.74
552.01	41310.46
552.18	41226.20
552.34	41270.67
552.51	41860.48
552.68	41029.59
552.84	41640.47
553.01	41710.69
553.18	41303.43
553.34	41411.10
553.51	41347.90
553.67	42029.00
553.84	41937.72
554.01	41865.16
554.17	42305.18
554.34	42202.20
554.51	42054.75
554.67	42073.47
554.84	41933.04
555.00	42000.91
555.17	42000.91
555.33	42281.78
555.50	42019.64
555.67	42527.53
555.83	41998.57
556.00	42391.78
556.16	42539.24
556.33	41731.75
556.50	42494.77
556.66	42368.38
556.83	41921.34
556.99	42452.64
557.16	42658.60
557.32	42506.47
557.49	42850.53
557.65	42279.44
557.82	42422.21
557.98	42801.38
558.15	42412.85
558.32	42696.05
558.48	42417.53
558.65	42433.91
558.81	42712.44
558.98	42667.97
559.14	42738.18
559.31	42356.67
559.47	42777.97
559.64	42454.98
559.80	42948.83
559.97	42806.06
560.13	42630.52
560.30	43019.05
560.46	42993.30
560.63	42670.31
560.79	43012.02
560.96	43730.57
561.12	43091.60
561.29	43290.55
561.45	42927.77
561.61	43407.58
561.78	43058.84
561.94	43199.27
562.11	42990.96
562.27	43093.94
562.44	43063.52
562.60	42672.65
562.77	43154.80
562.93	43194.59
563.10	43679.08
563.26	43126.71
563.42	43775.04
563.59	43213.31
563.75	43143.09
563.92	43356.08
564.08	43548.01
564.24	43377.15
564.41	43412.26
564.57	43442.68
564.74	43325.66
564.90	43426.30
565.07	43274.16
565.23	43578.43
565.39	43386.51
565.56	43863.98
565.72	43735.25
565.88	43400.55
566.05	43749.29
566.21	43667.37
566.38	43868.66
566.54	43852.28
566.70	44013.77
566.87	43709.50
567.03	43543.33
567.19	43859.30
567.36	43995.05
567.52	43594.82
567.68	44025.48
567.85	43704.82
568.01	44198.68
568.17	43501.20
568.34	43627.59
568.50	43985.69
568.66	43533.96
568.83	44172.93
568.99	43936.54
569.15	43995.05
569.32	43924.83
569.48	43569.07
569.64	44264.21
569.81	43908.45
569.97	43962.28
570.13	44371.88
570.30	43693.12
570.46	44217.40
570.62	44053.56
570.78	44025.48
570.95	43679.08
571.11	44320.38
571.27	44088.67
571.43	44292.30
571.60	44088.67
571.76	44030.16
571.92	44198.68
572.09	43992.71
572.25	44208.04
572.41	43835.89
572.57	44086.33
572.74	44737.00
572.90	44083.99
573.06	44252.51
573.22	44477.20
573.38	44275.91
573.55	44219.74
573.71	45074.04
573.87	44334.43
574.03	44907.86
574.20	44589.55
574.36	44402.30
574.52	44521.67
574.68	44432.73
574.84	44608.27
575.01	44697.21
575.17	44687.85
575.33	44741.68
575.49	43711.84
575.65	44704.23
575.82	44435.07
575.98	44341.45
576.14	44374.22
576.30	44509.97
576.46	44619.97
576.62	44734.66
576.79	44406.98
576.95	44315.70
577.11	44732.32
577.27	44947.65
577.43	44774.45
577.59	44292.30
577.75	44498.26
577.92	44360.17
578.08	44388.26
578.24	44802.53
578.40	44837.64
578.56	44657.42
578.72	44516.99
578.88	44814.24
579.04	44641.04
579.21	44479.54
579.37	44514.65
579.53	44521.67
579.69	44615.29
579.85	44231.44
580.01	44488.90
580.17	44975.73
580.33	44257.19
580.49	44687.85
580.65	44563.80
580.82	44821.26
580.98	44432.73
581.14	44161.23
581.30	44713.59
581.46	44336.77
581.62	44772.11
581.78	44643.38
581.94	44531.03
582.10	44259.53
582.26	44619.97
582.42	44751.04
582.58	44734.66
582.74	44252.51
582.90	44257.19
583.06	44729.98
583.22	44711.25
583.38	44786.15
583.54	44779.13
583.70	44605.93
583.86	44708.91
584.02	44624.65
584.18	44802.53
584.34	45195.74
584.50	44832.96
584.66	44877.43
584.82	45380.65
584.98	45198.09
585.14	44638.70
585.30	44404.64
585.46	44744.02
585.62	44788.49
585.78	44809.56
585.94	44521.67
586.10	44488.90
586.26	44676.15
586.42	44531.03
586.58	44472.52
586.74	44821.26
586.90	44811.90
587.06	44617.63
587.22	44982.76
587.38	44591.89
587.54	45200.43
587.70	45233.19
587.86	44987.44
588.02	44479.54
588.18	44292.30
588.34	44844.66
588.49	44711.25
588.65	44545.08
588.81	44865.73
588.97	44788.49
589.13	44844.66
589.29	45287.03
589.45	45219.15
589.61	45165.32
589.77	45303.41
589.93	44774.45
590.08	45354.90
590.24	45432.14
