SpectraSuite Data File
++++++++++++++++++++++++++++++++++++
Date: Fri Oct 25 11:26:10 EDT 2013
User: price-jones
Dark Spectrum Present: No
Reference Spectrum Present: No
Number of Sampled Component Spectra: 1
Spectrometers: USB2+H05261
Integration Time (usec): 100000 (USB2+H05261)
Spectra Averaged: 1 (USB2+H05261)
Boxcar Smoothing: 0 (USB2+H05261)
Correct for Electrical Dark: No (USB2+H05261)
Strobe/Lamp Enabled: No (USB2+H05261)
Correct for Detector Non-linearity: No (USB2+H05261)
Correct for Stray Light: No (USB2+H05261)
Number of Pixels in Processed Spectrum: 2048
>>>>>Begin Processed Spectral Data<<<<<
365.73	262.14
365.92	262.14
366.12	262.14
366.32	77.24
366.52	156.82
366.72	215.33
366.91	156.82
367.11	86.60
367.31	119.37
367.51	98.30
367.70	60.85
367.90	271.50
368.10	177.88
368.30	173.20
368.49	215.33
368.69	187.24
368.89	166.18
369.09	156.82
369.28	170.86
369.48	168.52
369.68	177.88
369.87	252.78
370.07	159.16
370.27	264.48
370.47	325.33
370.66	587.47
370.86	592.16
371.06	709.18
371.25	699.82
371.45	709.18
371.65	795.78
371.84	660.03
372.04	760.67
372.24	690.46
372.44	732.59
372.63	870.68
372.83	777.06
373.03	695.14
373.22	779.40
373.42	760.67
373.62	819.19
373.81	765.36
374.01	765.36
374.21	814.51
374.40	795.78
374.60	798.12
374.79	844.93
374.99	809.83
375.19	805.14
375.38	882.38
375.58	842.59
375.78	954.94
375.97	915.15
376.17	889.40
376.37	816.85
376.56	830.89
376.76	882.38
376.95	875.36
377.15	910.47
377.35	837.91
377.54	894.08
377.74	992.39
377.93	894.08
378.13	954.94
378.33	968.98
378.52	929.19
378.72	950.26
378.91	901.11
379.11	889.40
379.31	1027.50
379.50	940.90
379.70	983.02
379.89	926.85
380.09	961.96
380.28	1004.09
380.48	947.92
380.68	1015.79
380.87	1048.56
381.07	936.21
381.26	1048.56
381.46	1043.88
381.65	1060.26
381.85	1071.97
382.04	1027.50
382.24	1041.54
382.43	1043.88
382.63	1001.75
382.83	978.34
383.02	1093.03
383.22	1139.84
383.41	1062.60
383.61	1118.78
383.80	1050.90
384.00	1097.71
384.19	1086.01
384.39	1193.67
384.58	1151.54
384.78	1160.91
384.97	1184.31
385.17	1151.54
385.36	1200.69
385.56	1277.93
385.75	1135.16
385.95	1179.63
386.14	1151.54
386.34	1181.97
386.53	1203.04
386.72	1177.29
386.92	1240.48
387.11	1235.80
387.31	1270.91
387.50	1331.76
387.70	1275.59
387.89	1284.95
388.09	1341.13
388.28	1261.55
388.48	1329.42
388.67	1380.92
388.86	1373.89
389.06	1291.98
389.25	1275.59
389.45	1416.02
389.64	1306.02
389.84	1345.81
390.03	1430.07
390.22	1425.39
390.42	1430.07
390.61	1446.45
390.81	1369.21
391.00	1383.26
391.19	1446.45
391.39	1380.92
391.58	1469.86
391.78	1507.30
391.97	1441.77
392.16	1444.11
392.36	1629.01
392.55	1497.94
392.75	1521.35
392.94	1579.86
393.13	1589.22
393.33	1523.69
393.52	1495.60
393.71	1598.59
393.91	1593.90
394.10	1561.14
394.29	1568.16
394.49	1516.67
394.68	1654.76
394.88	1547.09
395.07	1722.63
395.26	1668.80
395.46	1790.51
395.65	1643.06
395.84	1732.00
396.04	1790.51
396.23	1778.81
396.42	1666.46
396.62	1706.25
396.81	1753.06
397.00	1774.13
397.19	1760.08
397.39	1874.77
397.58	1874.77
397.77	1820.94
397.97	1849.02
398.16	1774.13
398.35	1849.02
398.55	1912.22
398.74	1867.75
398.93	1919.24
399.12	1994.14
399.32	1865.41
399.51	1867.75
399.70	1973.07
399.90	2003.50
400.09	1998.82
400.28	2026.90
400.47	2010.52
400.67	2038.61
400.86	2036.27
401.05	2054.99
401.24	2101.80
401.44	2015.20
401.63	2073.71
401.82	2125.21
402.01	2134.57
402.21	2148.61
402.40	2181.38
402.59	2190.74
402.78	2211.81
402.97	2282.02
403.17	2237.55
403.36	2260.96
403.55	2165.00
403.74	2256.28
403.93	2349.90
404.13	2459.90
404.32	2361.60
404.51	2438.84
404.70	2413.09
404.89	2504.37
405.09	2420.11
405.28	2490.33
405.47	2420.11
405.66	2413.09
405.85	2595.65
406.05	2534.80
406.24	2464.58
406.43	2635.44
406.62	2663.53
406.81	2647.15
407.00	2600.34
407.20	2581.61
407.39	2609.70
407.58	2663.53
407.77	2747.79
407.96	2593.31
408.15	2677.57
408.34	2747.79
408.54	2820.35
408.73	2736.09
408.92	2745.45
409.11	2771.19
409.30	2803.96
409.49	2853.11
409.68	2944.39
409.87	2878.86
410.07	3023.97
410.26	2925.67
410.45	2972.48
410.64	3068.44
410.83	3023.97
411.02	3108.23
411.21	3075.46
411.40	3145.68
411.59	3133.98
411.78	3318.88
411.98	3201.85
412.17	3187.81
412.36	3197.17
412.55	3393.78
412.74	3445.27
412.93	3456.97
413.12	3396.12
413.31	3597.40
413.50	3485.06
413.69	3459.31
413.88	3613.79
414.07	3632.51
414.26	3618.47
414.45	3684.00
414.64	3581.02
414.83	3681.66
415.02	3761.24
415.22	3723.79
415.41	3758.90
415.60	3714.43
415.79	3948.48
415.98	3946.14
416.17	3978.91
416.36	3922.74
416.55	3941.46
416.74	4053.81
416.93	4042.11
417.12	4084.23
417.31	4149.77
417.50	4175.52
417.69	4257.43
417.88	4243.39
418.07	4313.61
418.26	4271.48
418.45	4212.96
418.64	4416.59
418.83	4482.13
419.02	4411.91
419.21	4564.04
419.39	4589.79
419.58	4505.53
419.77	4428.29
419.96	4730.22
420.15	4440.00
420.34	4526.60
420.53	4517.23
420.72	4692.77
420.91	4704.48
421.10	4713.84
421.29	4770.01
421.48	4599.15
421.67	4936.19
421.86	4781.71
422.05	4683.41
422.24	4748.95
422.43	4746.61
422.61	4861.29
422.80	4968.96
422.99	4854.27
423.18	4873.00
423.37	4894.06
423.56	4936.19
423.75	4950.23
423.94	4828.53
424.13	4486.81
424.32	4833.21
424.50	4945.55
424.69	5142.16
424.88	5032.15
425.07	5018.11
425.26	4903.42
425.45	4896.40
425.64	4865.97
425.83	4968.96
426.01	4987.68
426.20	5095.35
426.39	5032.15
426.58	5118.75
426.77	5046.20
426.96	5046.20
427.15	5064.92
427.33	5240.46
427.52	5163.22
427.71	5291.95
427.90	5231.10
428.09	5128.11
428.28	5439.40
428.46	5359.83
428.65	5621.97
428.84	5500.26
429.03	5610.26
429.22	5509.62
429.40	5364.51
429.59	5423.02
429.78	5083.64
429.97	5135.14
430.16	5336.42
430.34	5614.95
430.53	5659.42
430.72	5785.80
430.91	5568.13
431.10	5612.60
431.28	5617.29
431.47	5715.59
431.66	5687.50
431.85	5593.88
432.03	6040.92
432.22	5874.74
432.41	5914.53
432.60	5900.49
432.79	5872.40
432.97	6094.76
433.16	6057.31
433.35	5930.92
433.54	6279.66
433.72	5930.92
433.91	6003.47
434.10	6249.23
434.28	6143.91
434.47	6200.08
434.66	6183.70
434.85	6310.08
435.03	6361.58
435.22	6260.93
435.41	6422.43
435.59	6296.04
435.78	6387.32
435.97	6305.40
436.16	6232.85
436.34	6544.14
436.53	6338.17
436.72	6497.33
436.90	6413.07
437.09	6576.91
437.28	6651.80
437.46	6506.69
437.65	6747.76
437.84	6700.95
438.02	6860.11
438.21	6780.53
438.40	6565.20
438.58	6878.83
438.77	6977.14
438.96	7035.65
439.14	7150.34
439.33	7105.87
439.52	7101.19
439.70	7283.75
439.89	7452.27
440.08	7386.73
440.26	7419.50
440.45	7396.09
440.63	7337.58
440.82	7513.12
441.01	7480.35
441.19	7637.17
441.38	7691.00
441.57	7616.10
441.75	7906.33
441.94	7896.97
442.12	8030.38
442.31	8098.25
442.50	7941.44
442.68	7981.23
442.87	8025.70
443.05	8156.77
443.24	8252.73
443.43	8025.70
443.61	8102.93
443.80	8533.59
443.98	8187.19
444.17	7831.43
444.35	8329.97
444.54	8360.39
444.73	8259.75
444.91	8327.63
445.10	8325.29
445.28	8379.12
445.47	8102.93
445.65	8276.13
445.84	8418.91
446.02	8311.24
446.21	8369.76
446.39	8580.40
446.58	8493.80
446.77	8454.02
446.95	8554.66
447.14	8564.02
447.32	8468.06
447.51	8606.15
447.69	8505.51
447.88	8561.68
448.06	8681.05
448.25	8498.49
448.43	8498.49
448.62	8659.98
448.80	8318.26
448.99	8592.11
449.17	8835.52
449.36	8582.74
449.54	8781.69
449.73	9043.83
449.91	8865.95
450.10	8936.17
450.28	9102.34
450.46	9029.79
450.65	9125.75
450.83	9151.49
451.02	9067.24
451.20	9064.89
451.39	9310.65
451.57	9046.17
451.76	9048.51
451.94	9137.45
452.13	9268.52
452.31	9324.69
452.49	9013.40
452.68	9214.69
452.86	9406.61
453.05	9376.19
453.23	9507.26
453.42	9490.87
453.60	9327.03
453.78	9612.58
453.97	9432.36
454.15	9495.55
454.34	9401.93
454.52	9666.41
454.70	9774.08
454.89	9790.46
455.07	9678.12
455.26	9710.88
455.44	10076.01
455.62	9813.87
455.81	9888.76
455.99	10129.84
456.17	9942.60
456.36	10050.26
456.54	10052.60
456.73	10183.67
456.91	10382.62
457.09	10492.62
457.28	10349.85
457.46	10312.40
457.64	10679.86
457.83	10485.60
458.01	10342.83
458.19	10583.90
458.38	10579.22
458.56	10647.10
458.74	10885.83
458.93	10602.63
459.11	10555.82
459.29	10567.52
459.48	10794.55
459.66	10864.77
459.84	10939.66
460.03	10778.17
460.21	10949.03
460.39	10984.13
460.57	11080.10
460.76	11192.44
460.94	11267.34
461.12	10988.82
461.31	11169.04
461.49	11059.03
461.67	11084.78
461.85	11449.90
462.04	10967.75
462.22	11817.36
462.40	11672.25
462.59	11445.22
462.77	11407.77
462.95	11726.08
463.13	11587.99
463.32	11623.10
463.50	11889.92
463.68	11981.20
463.86	11609.06
464.05	11878.22
464.23	11744.81
464.41	11913.33
464.59	11903.96
464.78	12212.92
464.96	12074.82
465.14	11583.31
465.32	12217.60
465.50	12042.06
465.69	12128.66
465.87	12194.19
466.05	12201.21
466.23	12175.47
466.41	12182.49
466.60	12423.56
466.78	12077.16
466.96	12063.12
467.14	12248.02
467.32	12556.97
467.51	12613.15
467.69	12320.58
467.87	12416.54
468.05	12674.00
468.23	12477.40
468.41	12533.57
468.60	13020.40
468.78	12449.31
468.96	12500.80
469.14	12692.73
469.32	12905.71
469.50	12692.73
469.69	13013.38
469.87	13048.49
470.05	13081.25
470.23	13158.49
470.41	13177.22
470.59	13078.91
470.77	13357.44
470.95	13287.22
471.14	13528.30
471.32	12999.34
471.50	13525.96
471.68	13799.80
471.86	13399.57
472.04	13678.09
472.22	14022.15
472.40	13736.60
472.58	13781.07
472.77	13701.50
472.95	13973.00
473.13	14410.68
473.31	13951.93
473.49	14045.55
473.67	14178.97
473.85	14260.88
474.03	14380.25
474.21	14609.62
474.39	14618.99
474.57	14546.43
474.75	14909.21
474.93	14965.39
475.12	14918.57
475.30	15211.14
475.48	14977.09
475.66	14899.85
475.84	15304.76
476.02	15604.35
476.20	15524.77
476.38	15721.38
476.56	15719.04
476.74	15990.54
476.92	15782.23
477.10	15754.15
477.28	15917.98
477.46	16140.33
477.64	16460.99
477.82	16507.80
478.00	16957.18
478.18	17092.93
478.36	17011.01
478.54	16786.32
478.72	16933.78
478.90	17446.35
479.08	17565.72
479.26	17949.57
479.44	17551.68
479.62	17607.85
479.80	18181.28
479.98	18106.38
480.16	18604.92
480.34	18331.08
480.52	18602.58
480.70	18686.84
480.88	18380.23
481.06	18628.32
481.24	18792.16
481.41	19023.87
481.59	19475.60
481.77	19545.81
481.95	19491.98
482.13	19541.13
482.31	19550.49
482.49	20266.70
482.67	20128.61
482.85	20538.20
483.03	20549.90
483.21	20617.78
483.39	20795.66
483.57	20641.18
483.74	21198.23
483.92	21429.94
484.10	20940.77
484.28	21823.16
484.46	21893.37
484.64	22689.15
484.82	21954.22
485.00	22244.45
485.18	22717.24
485.35	22902.14
485.53	23101.09
485.71	23056.62
485.89	23484.94
486.07	23426.42
486.25	23419.40
486.43	23824.31
486.61	23878.15
486.78	23711.97
486.96	24116.88
487.14	24554.56
487.32	24620.10
487.50	24954.79
487.68	24915.00
487.85	25055.43
488.03	25652.27
488.21	25848.88
488.39	25408.86
488.57	26003.35
488.75	26141.44
488.92	26480.82
489.10	26487.84
489.28	26827.22
489.46	27091.70
489.64	27033.19
489.81	27531.72
489.99	27613.64
490.17	27171.28
490.35	28283.03
490.53	28187.07
490.70	28411.76
490.88	28095.79
491.06	28868.17
491.24	28690.29
491.41	29043.71
491.59	29383.09
491.77	29319.89
491.95	29083.50
492.13	29575.01
492.30	29998.65
492.48	30122.69
492.66	30331.00
492.84	30148.44
493.01	30543.99
493.19	30581.44
493.37	31023.80
493.54	31054.23
493.72	31475.52
493.90	31213.38
494.08	31861.71
494.25	31782.13
494.43	32374.29
494.61	32524.08
494.79	32444.51
494.96	32060.66
495.14	32383.65
495.32	32868.14
495.49	33195.82
495.67	33450.94
495.85	33813.72
496.02	33303.48
496.20	33942.45
496.38	33867.55
496.55	33757.55
496.73	35077.61
496.91	34440.98
497.09	34436.30
497.26	34707.80
497.44	35112.72
497.62	35178.25
497.79	35828.92
497.97	35274.21
498.14	35763.39
498.32	36332.14
498.50	36243.20
498.67	36240.86
498.85	36701.94
499.03	36840.03
499.20	36521.72
499.38	36652.79
499.56	36769.82
499.73	36877.48
499.91	37273.03
500.08	37500.06
500.26	37097.49
500.44	38078.18
500.61	37464.96
500.79	37591.34
500.97	38380.10
501.14	38452.66
501.32	38546.28
501.49	38110.94
501.67	38824.81
501.84	38670.33
502.02	38309.89
502.20	38583.73
502.37	39374.83
502.55	38981.62
502.72	39037.80
502.90	39721.23
503.07	39353.77
503.25	39871.03
503.43	39714.21
503.60	40126.14
503.78	40147.21
503.95	40238.49
504.13	40203.38
504.30	40760.43
504.48	40725.32
504.65	40446.80
504.83	40924.27
505.01	41738.77
505.18	41303.43
505.36	41649.83
505.53	41017.89
505.71	41130.23
505.88	41598.34
506.06	41319.82
506.23	41666.22
506.41	41832.39
506.58	41890.91
506.76	42026.66
506.93	42567.32
507.11	42054.75
507.28	42089.85
507.46	42829.46
507.63	42473.70
507.81	43093.94
507.98	43124.37
508.16	42925.42
508.33	43840.57
508.50	43215.65
508.68	43372.47
508.85	44135.48
509.03	43655.67
509.20	44491.24
509.38	44109.74
509.55	44404.64
509.73	44638.70
509.90	44453.79
510.08	44294.64
510.25	44994.46
510.42	44793.17
510.60	44849.35
510.77	45390.01
510.95	45481.29
511.12	45027.23
511.30	45013.18
511.47	45034.25
511.64	45324.47
511.82	45890.88
511.99	45289.37
512.17	45724.71
512.34	45745.77
512.51	45930.67
512.69	46363.67
512.86	46068.76
513.04	46820.08
513.21	46579.00
513.38	46160.05
513.56	46923.06
513.73	46848.16
513.90	47051.79
514.08	46993.28
514.25	47175.84
514.43	47253.08
514.60	47297.55
514.77	47234.35
514.95	47524.58
515.12	47555.00
515.29	47269.46
515.47	47601.82
515.64	47814.80
515.81	47707.14
515.99	48044.18
516.16	48109.71
516.33	48619.95
516.51	48678.46
516.68	48486.54
516.85	48425.68
517.03	48872.73
517.20	48961.67
517.37	48753.36
517.54	48601.22
517.72	48715.91
517.89	48938.26
518.06	49497.65
518.24	49020.18
518.41	49151.25
518.58	49216.78
518.75	49041.24
518.93	49165.29
519.10	49221.47
519.27	49659.15
519.45	49558.50
519.62	49874.48
519.79	49860.43
519.96	49940.01
520.14	50195.13
520.31	50178.75
520.48	50138.96
520.65	50075.76
520.83	50511.10
521.00	50637.49
521.17	50162.36
521.34	50382.37
521.52	50759.20
521.69	50813.03
521.86	50712.39
522.03	51208.58
522.20	51243.69
522.38	51578.39
522.55	51473.06
522.72	51091.55
522.89	51140.71
523.07	51803.08
523.24	51264.75
523.41	51569.02
523.58	51250.71
523.75	51880.31
523.92	51786.69
524.10	51885.00
524.27	51688.39
524.44	52158.84
524.61	51810.10
524.78	51943.51
524.96	52332.04
525.13	52119.05
525.30	52217.35
525.47	52385.87
525.64	52516.94
525.81	52879.72
525.98	52648.01
526.16	52390.55
526.33	52589.50
526.50	52821.21
526.67	52666.73
526.84	53102.07
527.01	52917.17
527.18	52732.27
527.36	52622.26
527.53	53233.14
527.70	53256.55
527.87	53251.87
528.04	53052.92
528.21	53385.28
528.38	53499.97
528.55	53588.91
528.72	53331.45
528.89	53284.64
529.07	53207.40
529.24	53422.73
529.41	53801.89
529.58	53638.06
529.75	53572.52
529.92	53759.76
530.09	53879.13
530.26	53993.82
530.43	53958.71
530.60	53727.00
530.77	53876.79
530.94	54337.88
531.11	54071.06
531.28	53867.43
531.46	54136.59
531.63	54351.92
531.80	54494.69
531.97	54611.72
532.14	54349.58
532.31	54398.73
532.48	54274.68
532.65	54457.24
532.82	54604.70
532.99	54852.80
533.16	54651.51
533.33	54752.15
533.50	54841.09
533.67	55044.72
533.84	54527.46
534.01	54892.58
534.18	54885.56
534.35	55093.87
534.52	54904.29
534.69	55112.59
534.86	55246.00
535.03	54927.69
535.20	55079.83
535.37	55187.49
535.54	55196.85
535.71	55250.69
535.88	55337.29
536.05	55311.54
536.22	55739.86
536.38	55639.22
536.55	55543.25
536.72	55674.32
536.89	55524.53
537.06	55622.83
537.23	55716.45
537.40	55561.98
537.57	55611.13
537.74	55735.18
537.91	55990.30
538.08	55679.00
538.25	55744.54
538.42	56130.73
538.59	56065.19
538.75	55852.20
538.92	56006.68
539.09	56374.14
539.26	56112.00
539.43	56053.49
539.60	56446.70
539.77	56273.50
539.94	56360.10
540.11	56371.80
540.28	56186.90
540.44	56432.66
540.61	56612.88
540.78	56385.85
540.95	56598.83
541.12	56360.10
541.29	56516.92
541.46	56598.83
541.62	56545.00
541.79	56594.15
541.96	56439.68
542.13	56652.67
542.30	56573.09
542.47	57034.17
542.63	56828.21
542.80	56631.60
542.97	56966.30
543.14	57022.47
543.31	57202.69
543.48	57069.28
543.64	57345.47
543.81	57354.83
543.98	57331.42
544.15	57148.86
544.32	57254.18
544.48	57523.35
544.65	57399.30
544.82	57661.44
544.99	57258.87
545.16	57448.45
545.32	57408.66
545.49	57666.12
545.66	57741.02
545.83	57787.83
546.00	57631.01
546.16	57513.98
546.33	57743.36
546.50	57312.70
546.67	57855.70
546.83	57319.72
547.00	57829.96
547.17	57453.13
547.34	57818.25
547.50	58010.18
547.67	58014.86
547.84	57961.03
548.00	58056.99
548.17	58143.59
548.34	57984.43
548.51	58300.40
548.67	58337.85
548.84	57977.41
549.01	58014.86
549.18	58005.50
549.34	58253.59
549.51	58164.65
549.68	58213.80
549.84	58312.11
550.01	58412.75
550.18	58129.54
550.34	58513.39
550.51	58487.65
550.68	58433.81
550.84	58096.78
551.01	58588.29
551.18	58408.07
551.34	58426.79
551.51	58735.74
551.68	58609.35
551.84	58492.33
552.01	58485.31
552.18	58487.65
552.34	58492.33
552.51	58873.84
552.68	58454.88
552.84	58588.29
553.01	58710.00
553.18	58592.97
553.34	58775.53
553.51	58705.32
553.67	58838.73
553.84	58948.73
554.01	58679.57
554.17	59018.95
554.34	58775.53
554.51	59061.08
554.67	59147.68
554.84	59054.06
555.00	59037.67
555.17	58876.18
555.33	58986.18
555.50	58897.24
555.67	58906.60
555.83	58906.60
556.00	59093.85
556.16	59405.14
556.33	59203.85
556.50	59245.98
556.66	59105.55
556.83	58899.58
556.99	59461.31
557.16	59489.40
557.32	59503.44
557.49	59515.14
557.65	59416.84
557.82	59363.01
557.98	59444.93
558.15	59435.56
558.32	59419.18
558.48	59442.59
558.65	59206.19
558.81	59543.23
558.98	59381.73
559.14	59592.38
559.31	59599.40
559.47	59681.32
559.64	59847.50
559.80	59636.85
559.97	59847.50
560.13	59533.87
560.30	59634.51
560.46	59721.11
560.63	59718.77
560.79	59714.09
560.96	60037.08
561.12	59683.66
561.29	59824.09
561.45	59882.61
561.61	59847.50
561.78	59826.43
561.94	59709.41
562.11	59877.93
562.27	59784.30
562.44	59828.77
562.60	60280.50
562.77	59957.50
562.93	59639.19
563.10	60060.49
563.26	59945.80
563.42	59987.93
563.59	59896.65
563.75	60093.25
563.92	60165.81
564.08	59884.95
564.24	60119.00
564.41	60144.75
564.57	60076.87
564.74	60261.77
564.90	60231.35
565.07	60289.86
565.23	60079.21
565.39	60055.81
565.56	60350.71
565.72	59985.59
565.88	60107.30
566.05	60205.60
566.21	60020.70
566.38	60158.79
566.54	60292.20
566.70	60432.63
566.87	60261.77
567.03	60147.09
567.19	60355.39
567.36	60196.24
567.52	60221.98
567.68	60481.78
567.85	60416.25
568.01	60500.51
568.17	60317.95
568.34	60353.05
568.50	60259.43
568.66	59973.89
568.83	60250.07
568.99	60439.65
569.15	60369.44
569.32	60399.86
569.48	60388.16
569.64	60507.53
569.81	60334.33
569.97	60360.08
570.13	60229.01
570.30	60289.86
570.46	60434.97
570.62	60603.49
570.78	60608.17
570.95	60622.22
571.11	60554.34
571.27	60549.66
571.43	60598.81
571.60	60456.04
571.76	60516.89
571.92	60514.55
572.09	60568.38
572.25	60617.53
572.41	60552.00
572.57	60573.06
572.74	60736.90
572.90	60825.84
573.06	60610.51
573.22	60523.91
573.38	60659.66
573.55	60479.44
573.71	60786.05
573.87	60734.56
574.03	60568.38
574.20	60596.47
574.36	60512.21
574.52	60720.52
574.68	60734.56
574.84	60683.07
575.01	60961.59
575.17	60823.50
575.33	60774.35
575.49	60587.11
575.65	60750.94
575.82	60692.43
575.98	60654.98
576.14	60846.91
576.30	60860.95
576.46	60552.00
576.62	60748.60
576.79	60755.63
576.95	60486.46
577.11	60739.24
577.27	60879.67
577.43	60727.54
577.59	60676.05
577.75	60867.97
577.92	60720.52
578.08	60547.32
578.24	60727.54
578.40	60999.04
578.56	60783.71
578.72	60818.82
578.88	60877.33
579.04	60949.89
579.21	60690.09
579.37	61017.77
579.53	60912.44
579.69	60493.49
579.85	60844.57
580.01	60612.85
580.17	60559.02
580.33	60823.50
580.49	60977.98
580.65	61027.13
580.82	60954.57
580.98	60654.98
581.14	60732.22
581.30	60942.87
581.46	60865.63
581.62	60671.37
581.78	60650.30
581.94	61006.06
582.10	60790.73
582.26	60884.36
582.42	60933.51
582.58	60734.56
582.74	60804.78
582.90	60938.19
583.06	60896.06
583.22	60938.19
583.38	60865.63
583.54	60774.35
583.70	60839.89
583.86	60924.14
584.02	61036.49
584.18	61066.92
584.34	60760.31
584.50	61015.43
584.66	60889.04
584.82	60814.14
584.98	61233.10
585.14	61050.53
585.30	60910.10
585.46	60954.57
585.62	61048.19
585.78	61029.47
585.94	60952.23
586.10	60914.78
586.26	61076.28
586.42	61109.05
586.58	61113.73
586.74	61200.33
586.90	60956.91
587.06	60795.42
587.22	60966.27
587.38	60999.04
587.54	61111.39
587.70	61244.80
587.86	61029.47
588.02	60938.19
588.18	61029.47
588.34	60989.68
588.49	61059.90
