SpectraSuite Data File
++++++++++++++++++++++++++++++++++++
Date: Fri Oct 25 10:47:34 EDT 2013
User: price-jones
Dark Spectrum Present: No
Reference Spectrum Present: No
Number of Sampled Component Spectra: 1
Spectrometers: USB2+H05261
Integration Time (usec): 100000 (USB2+H05261)
Spectra Averaged: 1 (USB2+H05261)
Boxcar Smoothing: 0 (USB2+H05261)
Correct for Electrical Dark: No (USB2+H05261)
Strobe/Lamp Enabled: No (USB2+H05261)
Correct for Detector Non-linearity: No (USB2+H05261)
Correct for Stray Light: No (USB2+H05261)
Number of Pixels in Processed Spectrum: 2048
>>>>>Begin Processed Spectral Data<<<<<
365.73	149.79
365.92	149.79
366.12	149.79
366.32	37.45
366.52	16.38
366.72	91.28
366.91	2.34
367.11	18.72
367.31	53.83
367.51	110.01
367.70	42.13
367.90	74.90
368.10	0.00
368.30	0.00
368.49	0.00
368.69	42.13
368.89	63.19
369.09	44.47
369.28	79.58
369.48	63.19
369.68	51.49
369.87	77.24
370.07	138.09
370.27	119.37
370.47	191.92
370.66	379.17
370.86	400.23
371.06	411.93
371.25	486.83
371.45	442.36
371.65	433.00
371.84	411.93
372.04	521.94
372.24	479.81
372.44	435.34
372.63	498.53
372.83	531.30
373.03	449.38
373.22	454.06
373.42	510.24
373.62	528.96
373.81	470.45
374.01	482.15
374.21	510.24
374.40	540.66
374.60	627.26
374.79	547.69
374.99	472.79
375.19	531.30
375.38	521.94
375.58	587.47
375.78	484.49
375.97	566.41
376.17	528.96
376.37	592.16
376.56	547.69
376.76	564.07
376.95	496.19
377.15	554.71
377.35	552.37
377.54	608.54
377.74	608.54
377.93	568.75
378.13	599.18
378.33	540.66
378.52	610.88
378.72	610.88
378.91	594.50
379.11	585.13
379.31	610.88
379.50	653.01
379.70	613.22
379.89	664.71
380.09	734.93
380.28	603.86
380.48	688.12
380.68	575.77
380.87	631.94
381.07	587.47
381.26	655.35
381.46	702.16
381.65	711.52
381.85	727.91
382.04	638.97
382.24	720.88
382.43	685.78
382.63	599.18
382.83	713.86
383.02	683.44
383.22	713.86
383.41	653.01
383.61	716.20
383.80	690.46
384.00	765.36
384.19	674.07
384.39	690.46
384.58	741.95
384.78	669.39
384.97	734.93
385.17	744.29
385.36	791.10
385.56	732.59
385.75	755.99
385.95	821.53
386.14	737.27
386.34	793.44
386.53	791.10
386.72	847.27
386.92	774.72
387.11	791.10
387.31	784.08
387.50	772.38
387.70	882.38
387.89	821.53
388.09	730.25
388.28	812.17
388.48	805.14
388.67	805.14
388.86	837.91
389.06	744.29
389.25	901.11
389.45	894.08
389.64	877.70
389.84	929.19
390.03	868.34
390.22	880.04
390.42	854.30
390.61	931.53
390.81	917.49
391.00	917.49
391.19	847.27
391.39	983.02
391.58	968.98
391.78	983.02
391.97	994.73
392.16	1022.81
392.36	1020.47
392.55	992.39
392.75	1022.81
392.94	896.43
393.13	971.32
393.33	919.83
393.52	947.92
393.71	971.32
393.91	1004.09
394.10	1008.77
394.29	1095.37
394.49	1029.84
394.68	1050.90
394.88	1018.13
395.07	1125.80
395.26	1036.86
395.46	1060.26
395.65	1163.25
395.84	1114.10
396.04	1196.01
396.23	1149.20
396.42	1097.71
396.62	1083.67
396.81	1111.75
397.00	1165.59
397.19	1132.82
397.39	1184.31
397.58	1224.10
397.77	1235.80
397.97	1256.87
398.16	1198.35
398.35	1296.66
398.55	1266.23
398.74	1310.70
398.93	1345.81
399.12	1289.64
399.32	1280.27
399.51	1324.74
399.70	1420.71
399.90	1441.77
400.09	1411.34
400.28	1446.45
400.47	1411.34
400.67	1465.18
400.86	1469.86
401.05	1378.58
401.24	1511.99
401.44	1427.73
401.63	1502.62
401.82	1495.60
402.01	1535.39
402.21	1495.60
402.40	1441.77
402.59	1497.94
402.78	1547.09
402.97	1519.01
403.17	1652.42
403.36	1551.78
403.55	1593.90
403.74	1577.52
403.93	1568.16
404.13	1565.82
404.32	1607.95
404.51	1661.78
404.70	1729.66
404.89	1755.40
405.09	1638.38
405.28	1710.93
405.47	1680.50
405.66	1776.47
405.85	1792.85
406.05	1767.10
406.24	1792.85
406.43	1884.13
406.62	1778.81
406.81	1902.86
407.00	1722.63
407.20	1846.68
407.39	1860.73
407.58	1891.15
407.77	1839.66
407.96	1909.88
408.15	1916.90
408.34	1905.20
408.54	1956.69
408.73	1886.47
408.92	1973.07
409.11	2017.54
409.30	2043.29
409.49	1954.35
409.68	1900.52
409.87	2052.65
410.07	2097.12
410.26	2038.61
410.45	2043.29
410.64	2050.31
410.83	2094.78
411.02	2183.72
411.21	2239.89
411.40	2073.71
411.59	2263.30
411.78	2118.18
411.98	2228.19
412.17	2265.64
412.36	2356.92
412.55	2368.62
412.74	2396.71
412.93	2335.85
413.12	2258.62
413.31	2612.04
413.50	2382.67
413.69	2361.60
413.88	2534.80
414.07	2719.70
414.26	2483.31
414.45	2626.08
414.64	2619.06
414.83	2448.20
415.02	2693.96
415.22	2708.00
415.41	2759.49
415.60	2658.85
415.79	2888.22
415.98	2834.39
416.17	2881.20
416.36	2729.06
416.55	2862.48
416.74	2850.77
416.93	2808.64
417.12	2970.14
417.31	2864.82
417.50	2813.32
417.69	3042.70
417.88	2979.50
418.07	3070.78
418.26	3115.25
418.45	3075.46
418.64	3129.30
418.83	3225.26
419.02	3045.04
419.21	3101.21
419.39	3173.77
419.58	3033.33
419.77	3169.09
419.96	3115.25
420.15	3269.73
420.34	3190.15
420.53	3213.56
420.72	3344.63
420.91	3431.23
421.10	3372.71
421.29	3456.97
421.48	3337.60
421.67	3346.97
421.86	3405.48
422.05	3309.52
422.24	3386.76
422.43	3384.41
422.61	3332.92
422.80	3487.40
422.99	3508.46
423.18	3562.30
423.37	3520.17
423.56	3475.70
423.75	3501.44
423.94	3389.10
424.13	3241.64
424.32	3330.58
424.50	3566.98
424.69	3623.15
424.88	3447.61
425.07	3557.61
425.26	3445.27
425.45	3480.38
425.64	3536.55
425.83	3585.70
426.01	3606.77
426.20	3442.93
426.39	3571.66
426.58	3574.00
426.77	3522.51
426.96	3566.98
427.15	3513.14
427.33	3588.04
427.52	3634.85
427.71	3550.59
427.90	3597.40
428.09	3730.81
428.28	3763.58
428.46	3735.50
428.65	3719.11
428.84	3716.77
429.03	3904.01
429.22	3606.77
429.40	3779.97
429.59	3840.82
429.78	3672.30
429.97	3658.26
430.16	3733.15
430.34	3726.13
430.53	3847.84
430.72	3812.73
430.91	3686.34
431.10	3859.54
431.28	4091.26
431.47	4025.72
431.66	4152.11
431.85	3983.59
432.03	4198.92
432.22	4117.00
432.41	4138.07
432.60	4212.96
432.79	4205.94
432.97	4163.81
433.16	4222.33
433.35	4196.58
433.54	4217.65
433.72	4081.89
433.91	4117.00
434.10	4241.05
434.28	4390.84
434.47	4299.56
434.66	4297.22
434.85	4341.69
435.03	4454.04
435.22	4245.73
435.41	4554.68
435.59	4554.68
435.78	4454.04
435.97	4589.79
436.16	4564.04
436.34	4641.28
436.53	4486.81
436.72	4734.90
436.90	4561.70
437.09	4690.43
437.28	4456.38
437.46	4599.15
437.65	4620.22
437.84	4755.97
438.02	4744.27
438.21	4781.71
438.40	4704.48
438.58	4772.35
438.77	4744.27
438.96	4908.10
439.14	5083.64
439.33	4882.36
439.52	4985.34
439.70	5249.82
439.89	5188.97
440.08	5172.58
440.26	5078.96
440.45	5093.01
440.63	5076.62
440.82	5268.55
441.01	5144.50
441.19	5324.72
441.38	5336.42
441.57	5327.06
441.75	5430.04
441.94	5451.11
442.12	5591.54
442.31	5647.71
442.50	5678.14
442.68	5750.70
442.87	5481.53
443.05	5570.48
443.24	5767.08
443.43	5664.10
443.61	5872.40
443.80	5900.49
443.98	5523.66
444.17	5451.11
444.35	5832.62
444.54	5863.04
444.73	5806.87
444.91	5731.97
445.10	5743.67
445.28	5584.52
445.47	5849.00
445.65	5792.83
445.84	5834.96
446.02	5710.91
446.21	5977.73
446.39	5858.36
446.58	5844.32
446.77	5975.39
446.95	5834.96
447.14	5830.27
447.32	6099.44
447.51	5980.07
447.69	5851.34
447.88	5996.45
448.06	6064.33
448.25	5919.21
448.43	6038.58
448.62	5991.77
448.80	6003.47
448.99	6064.33
449.17	6017.52
449.36	5935.60
449.54	6239.87
449.73	6417.75
449.91	6164.97
450.10	6272.64
450.28	6551.16
450.46	6328.81
450.65	6483.28
450.83	6186.04
451.02	6338.17
451.20	6300.72
451.39	6492.65
451.57	6462.22
451.76	6307.74
451.94	6349.87
452.13	6438.81
452.31	6406.05
452.49	6326.47
452.68	6340.51
452.86	6340.51
453.05	6513.71
453.23	6480.94
453.42	6429.45
453.60	6466.90
453.78	6663.51
453.97	6499.67
454.15	6700.95
454.34	6609.67
454.52	6586.27
454.70	6703.29
454.89	6757.13
455.07	6766.49
455.26	6754.79
455.44	6869.47
455.62	7066.08
455.81	6745.42
455.99	6946.71
456.17	6923.30
456.36	6911.60
456.54	6794.58
456.73	7030.97
456.91	7037.99
457.09	7279.07
457.28	7403.11
457.46	7063.74
457.64	7037.99
457.83	7063.74
458.01	7337.58
458.19	7368.01
458.38	7255.66
458.56	7487.37
458.74	7393.75
458.93	7368.01
459.11	7379.71
459.29	7258.00
459.48	7529.50
459.66	7384.39
459.84	7400.77
460.03	7531.84
460.21	7218.21
460.39	7573.97
460.57	7597.38
460.76	7667.60
460.94	7744.83
461.12	7688.66
461.31	7597.38
461.49	7609.08
461.67	7564.61
461.85	7702.70
462.04	7550.57
462.22	8304.22
462.40	7936.76
462.59	7908.67
462.77	7925.05
462.95	7831.43
463.13	7953.14
463.32	7948.46
463.50	7889.95
463.68	8084.21
463.86	8142.72
464.05	7733.13
464.23	7922.71
464.41	8058.46
464.59	7943.78
464.78	8105.28
464.96	8105.28
465.14	8173.15
465.32	8444.65
465.50	8400.18
465.69	8219.96
465.87	8212.94
466.05	8053.78
466.23	8152.09
466.41	8217.62
466.60	8425.93
466.78	8353.37
466.96	8072.51
467.14	8397.84
467.32	8236.35
467.51	8428.27
467.69	8367.42
467.87	8664.66
468.05	8608.49
468.23	8311.24
468.41	8439.97
468.60	8428.27
468.78	8648.28
468.96	8601.47
469.14	8678.71
469.32	8774.67
469.50	8512.53
469.69	8828.50
469.87	8943.19
470.05	8877.65
470.23	8865.95
470.41	8858.93
470.59	9142.13
470.77	8727.86
470.95	9046.17
471.14	8945.53
471.32	8891.70
471.50	9123.41
471.68	9167.88
471.86	9261.50
472.04	9151.49
472.22	9479.17
472.40	9282.56
472.58	9322.35
472.77	9401.93
472.95	9338.74
473.13	9650.03
473.31	9455.76
473.49	9490.87
473.67	9568.11
473.85	9568.11
474.03	9689.82
474.21	9874.72
474.39	9881.74
474.57	9905.15
474.75	10115.80
474.93	10029.20
475.12	10083.03
475.30	10183.67
475.48	9973.02
475.66	9884.08
475.84	10080.69
476.02	10583.90
476.20	10373.25
476.38	10483.26
476.56	10555.82
476.74	10658.80
476.92	10633.05
477.10	10579.22
477.28	10867.11
477.46	10916.26
477.64	11000.52
477.82	11185.42
478.00	11454.58
478.18	11105.84
478.36	11438.20
478.54	11559.91
478.72	11513.10
478.90	11587.99
479.08	11908.65
479.26	11920.35
479.44	11758.85
479.62	11789.28
479.80	11887.58
479.98	12056.10
480.16	12409.52
480.34	12304.20
480.52	12133.34
480.70	12241.00
480.88	12184.83
481.06	12622.51
481.24	12346.33
481.41	12821.45
481.59	12690.38
481.77	12835.50
481.95	12959.55
482.13	13046.15
482.31	13074.23
482.49	13287.22
482.67	13427.65
482.85	13696.82
483.03	13612.56
483.21	13647.66
483.39	14047.90
483.57	13769.37
483.74	13919.17
483.92	14066.62
484.10	14080.66
484.28	14305.35
484.46	14532.39
484.64	14796.87
484.82	14424.72
485.00	14635.37
485.18	14731.33
485.35	15002.83
485.53	14848.36
485.71	14934.96
485.89	15138.58
486.07	15169.01
486.25	15344.55
486.43	15510.73
486.61	15782.23
486.78	15885.22
486.96	15922.66
487.14	16166.08
487.32	16042.03
487.50	16360.34
487.68	16486.73
487.85	16418.86
488.03	16931.44
488.21	16893.99
488.39	16676.32
488.57	16854.20
488.75	17357.41
488.92	17231.02
489.10	17743.60
489.28	17420.61
489.46	17493.16
489.64	17900.42
489.81	18029.15
489.99	18167.24
490.17	18132.13
490.35	18485.55
490.53	18642.37
490.70	18483.21
490.88	18291.29
491.06	19077.71
491.24	18984.09
491.41	18827.27
491.59	19124.52
491.77	19068.34
491.95	19372.61
492.13	19442.83
492.30	19707.31
492.48	19920.30
492.66	19857.10
492.84	19632.41
493.01	19946.05
493.19	20049.03
493.37	20336.91
493.54	20360.32
493.72	20786.30
493.90	20383.73
494.08	20357.98
494.25	21062.48
494.43	20966.52
494.61	21062.48
494.79	21371.43
494.96	21238.02
495.14	21146.74
495.32	21479.10
495.49	21415.90
495.67	21563.36
495.85	21605.49
496.02	22064.23
496.20	22061.89
496.38	22136.79
496.55	22148.49
496.73	23012.15
496.91	22391.91
497.09	22750.01
497.26	22841.29
497.44	23058.96
497.62	23042.57
497.79	23281.31
497.97	23199.39
498.14	23461.53
498.32	23440.47
498.50	23391.31
498.67	23662.82
498.85	23772.82
499.03	23768.14
499.20	23931.98
499.38	23807.93
499.56	24191.78
499.73	24346.25
499.91	24292.42
500.08	24353.27
500.26	24240.93
500.44	24549.88
500.61	24737.12
500.79	24390.72
500.97	24992.24
501.14	24917.34
501.32	24835.42
501.49	24568.60
501.67	25317.57
501.84	25083.52
502.02	24999.26
502.20	25193.53
502.37	25612.48
502.55	25661.63
502.72	25486.09
502.90	25813.77
503.07	25682.70
503.25	25834.83
503.43	25799.73
503.60	26438.69
503.78	26050.16
503.95	26370.82
504.13	25947.18
504.30	26239.75
504.48	26302.94
504.65	26511.25
504.83	26600.19
505.01	26745.30
505.18	26635.30
505.36	26969.99
505.53	26930.20
505.71	27204.05
505.88	26944.25
506.06	27070.64
506.23	27264.90
506.41	27164.26
506.58	27182.98
506.76	27513.00
506.93	27309.37
507.11	27700.24
507.28	27718.96
507.46	27660.45
507.63	28009.19
507.81	27964.72
507.98	28088.77
508.16	27793.86
508.33	28081.75
508.50	28563.90
508.68	27835.99
508.85	28613.05
509.03	28177.71
509.20	28664.54
509.38	28648.16
509.55	29024.98
509.73	29071.79
509.90	29043.71
510.08	28966.47
510.25	29472.03
510.42	29036.69
510.60	29036.69
510.77	29116.26
510.95	29539.90
511.12	29362.02
511.30	29427.56
511.47	29996.31
511.64	29532.88
511.82	29834.81
511.99	29867.58
512.17	30092.27
512.34	29701.40
512.51	30162.48
512.69	30347.39
512.86	30293.55
513.04	30806.13
513.21	30384.83
513.38	30426.96
513.56	30604.84
513.73	30520.59
513.90	30656.34
514.08	30270.15
514.25	31178.28
514.43	30649.32
514.60	31112.74
514.77	31094.02
514.95	30906.77
515.12	30911.46
515.29	30897.41
515.47	31262.54
515.64	31377.22
515.81	31400.63
515.99	31405.31
516.16	31435.74
516.33	31679.15
516.51	31534.04
516.68	31697.88
516.85	31522.34
517.03	32009.17
517.20	31536.38
517.37	31971.72
517.54	31861.71
517.72	31995.12
517.89	31985.76
518.06	31828.95
518.24	32318.12
518.41	31938.95
518.58	32196.41
518.75	32266.63
518.93	32449.19
519.10	32341.52
519.27	32641.11
519.45	32285.35
519.62	32900.91
519.79	33043.68
519.96	33289.44
520.14	33153.69
520.31	32708.99
520.48	33120.92
520.65	32929.00
520.83	33436.89
521.00	33277.74
521.17	33268.37
521.34	33467.32
521.52	33869.89
521.69	33427.53
521.86	33287.10
522.03	34036.07
522.20	34167.14
522.38	34473.75
522.55	33879.25
522.72	34101.61
522.89	33961.17
523.07	34015.01
523.24	33759.89
523.41	34410.56
523.58	33834.78
523.75	34792.06
523.92	34558.01
524.10	34478.43
524.27	34682.06
524.44	34646.95
524.61	34962.92
524.78	34918.45
524.96	34815.47
525.13	34955.90
525.30	35220.38
525.47	35393.58
525.64	35196.98
525.81	35402.94
525.98	35550.40
526.16	35089.31
526.33	35086.97
526.50	35180.59
526.67	35035.48
526.84	35543.38
527.01	35709.55
527.18	35351.45
527.36	36009.14
527.53	35950.63
527.70	35803.17
527.87	35672.10
528.04	35629.98
528.21	36100.42
528.38	35866.37
528.55	36252.56
528.72	35974.03
528.89	36350.86
529.07	36257.24
529.24	35777.43
529.41	36648.11
529.58	36025.53
529.75	35955.31
529.92	36198.73
530.09	36437.46
530.26	36662.15
530.43	36837.69
530.60	36149.57
530.77	36828.33
530.94	36858.76
531.11	36783.86
531.28	36905.57
531.46	36996.85
531.63	37179.41
531.80	36842.37
531.97	37298.78
532.14	37251.97
532.31	36825.99
532.48	36851.73
532.65	37212.18
532.82	36950.04
532.99	37755.18
533.16	37331.54
533.33	37645.18
533.50	37631.13
533.67	37535.17
533.84	37432.19
534.01	37427.51
534.18	37895.61
534.35	38206.90
534.52	38066.47
534.69	37530.49
534.86	37799.65
535.03	37593.68
535.20	38265.42
535.37	38230.31
535.54	38398.83
535.71	38323.93
535.88	37883.91
536.05	37991.58
536.22	38473.73
536.38	38352.02
536.55	38630.54
536.72	38347.34
536.89	37780.93
537.06	38274.78
537.23	38312.23
537.40	38335.63
537.57	38595.43
537.74	38511.17
537.91	38801.40
538.08	39047.16
538.25	38391.81
538.42	38712.46
538.59	39187.59
538.75	38176.48
538.92	38841.19
539.09	39187.59
539.26	38920.77
539.43	39056.52
539.60	39119.71
539.77	39089.29
539.94	39241.42
540.11	38859.91
540.28	39321.00
540.44	39381.85
540.61	39564.42
540.78	38852.89
540.95	38663.31
541.12	39229.72
541.29	39449.73
541.46	39405.26
541.62	39531.65
541.79	39901.45
541.96	39487.18
542.13	39407.60
542.30	39948.26
542.47	40208.06
542.63	39648.68
542.80	39775.06
542.97	40437.44
543.14	40488.93
543.31	40329.77
543.48	40261.90
543.64	40996.82
543.81	40744.05
543.98	40435.10
544.15	40091.04
544.32	40832.99
544.48	40718.30
544.65	40507.65
544.82	40151.89
544.99	40304.02
545.16	40931.29
545.32	40184.66
545.49	40744.05
545.66	41062.36
545.83	40992.14
546.00	41024.91
546.16	40903.20
546.33	40690.21
546.50	40500.63
546.67	40411.69
546.83	40545.10
547.00	41069.38
547.17	41069.38
547.34	41045.97
547.50	41394.71
547.67	41322.16
547.84	41488.34
548.00	41462.59
548.17	41649.83
548.34	41235.56
548.51	41532.81
548.67	41481.31
548.84	41406.42
549.01	41455.57
549.18	41228.54
549.34	41949.42
549.51	41794.95
549.68	41539.83
549.84	41713.03
550.01	41748.14
550.18	41598.34
550.34	41764.52
550.51	41411.10
550.68	41757.50
550.84	41397.06
551.01	41823.03
551.18	41785.58
551.34	41549.19
551.51	41897.93
551.68	42356.67
551.84	42192.84
552.01	41633.45
552.18	42436.25
552.34	41982.19
552.51	41970.49
552.68	42211.56
552.84	42672.65
553.01	42841.17
553.18	42115.60
553.34	41986.87
553.51	42293.48
553.67	41963.46
553.84	42295.82
554.01	42607.11
554.17	42700.73
554.34	42534.56
554.51	42511.15
554.67	42602.43
554.84	42799.04
555.00	42707.76
555.17	42651.58
555.33	42658.60
555.50	42174.11
555.67	42869.25
555.83	42906.70
556.00	43173.52
556.16	43040.11
556.33	42515.83
556.50	42532.22
556.66	43440.34
556.83	42710.10
556.99	43058.84
557.16	42969.90
557.32	43112.67
557.49	42948.83
557.65	43084.58
557.82	42981.60
557.98	42792.01
558.15	43178.20
558.32	43241.40
558.48	43255.44
558.65	43164.16
558.81	42756.91
558.98	43136.07
559.14	43367.79
559.31	43253.10
559.47	42960.53
559.64	43288.21
559.80	43775.04
559.97	43548.01
560.13	43229.69
560.30	43093.94
560.46	43704.82
560.63	43140.75
560.79	43351.40
560.96	43388.85
561.12	43168.84
561.29	43473.11
561.45	42904.36
561.61	43295.23
561.78	43620.56
561.94	43601.84
562.11	43526.94
562.27	43264.80
562.44	43461.41
562.60	43477.79
562.77	43564.39
562.93	43751.63
563.10	43641.63
563.26	43173.52
563.42	44126.12
563.59	43517.58
563.75	43702.48
563.92	43697.80
564.08	43531.62
564.24	44208.04
564.41	43988.03
564.57	43669.72
564.74	43810.15
564.90	43973.98
565.07	44093.35
565.23	43746.95
565.39	43360.76
565.56	44098.03
565.72	43866.32
565.88	43922.49
566.05	43548.01
566.21	43917.81
566.38	43271.82
566.54	43512.90
566.70	43999.73
566.87	43901.43
567.03	43641.63
567.19	44133.14
567.36	43992.71
567.52	43978.67
567.68	43868.66
567.85	43964.62
568.01	44186.97
568.17	44374.22
568.34	44339.11
568.50	44079.31
568.66	43875.68
568.83	43915.47
568.99	43840.57
569.15	44163.57
569.32	44086.33
569.48	43849.94
569.64	44430.39
569.81	44278.25
569.97	43882.70
570.13	44004.41
570.30	44126.12
570.46	44172.93
570.62	43594.82
570.78	44215.06
570.95	43835.89
571.11	44498.26
571.27	44023.14
571.43	43906.11
571.60	44147.18
571.76	44233.78
571.92	43901.43
572.09	44034.84
572.25	44444.43
572.41	43966.96
572.57	44060.58
572.74	44755.72
572.90	44357.83
573.06	44893.82
573.22	44341.45
573.38	44479.54
573.55	43990.37
573.71	44215.06
573.87	44296.98
574.03	44339.11
574.20	44533.37
574.36	44320.38
574.52	44371.88
574.68	44439.75
574.84	44608.27
575.01	44371.88
575.17	44357.83
575.33	44149.53
575.49	44278.25
575.65	44542.74
575.82	44584.86
575.98	44399.96
576.14	44839.98
576.30	44538.05
576.46	44294.64
576.62	44423.37
576.79	44254.85
576.95	43959.94
577.11	44570.82
577.27	44224.42
577.43	44493.58
577.59	44119.10
577.75	44430.39
577.92	44282.94
578.08	44062.93
578.24	44236.12
578.40	43934.20
578.56	44720.62
578.72	44697.21
578.88	44811.90
579.04	44612.95
579.21	44449.11
579.37	44236.12
579.53	44392.94
579.69	43639.29
579.85	44666.78
580.01	44505.29
580.17	44797.85
580.33	44671.46
580.49	44559.12
580.65	44938.29
580.82	44348.47
580.98	44610.61
581.14	44311.02
581.30	44519.33
581.46	44245.49
581.62	44383.58
581.78	44421.03
581.94	44793.17
582.10	44362.51
582.26	44147.18
582.42	44722.96
582.58	44189.31
582.74	43948.24
582.90	44418.69
583.06	44603.59
583.22	44605.93
583.38	44772.11
583.54	44858.71
583.70	44744.02
583.86	44395.28
584.02	44409.32
584.18	44341.45
584.34	44638.70
584.50	44573.16
584.66	44729.98
584.82	44491.24
584.98	44495.92
585.14	44498.26
585.30	44442.09
585.46	44722.96
585.62	44439.75
585.78	44615.29
585.94	44421.03
586.10	44203.36
586.26	44542.74
586.42	44584.86
586.58	44818.92
586.74	44563.80
586.90	44418.69
587.06	43807.81
587.22	44687.85
587.38	44336.77
587.54	44989.78
587.70	45186.38
587.86	45256.60
588.02	44875.09
588.18	44739.34
588.34	44467.84
588.49	44479.54
588.65	44430.39
588.81	44259.53
588.97	44692.53
589.13	44615.29
589.29	44348.47
589.45	44531.03
589.61	44416.35
589.77	44912.54
589.93	44889.13
590.08	44582.52
590.24	44971.05
