SpectraSuite Data File
++++++++++++++++++++++++++++++++++++
Date: Fri Oct 25 11:33:23 EDT 2013
User: price-jones
Dark Spectrum Present: No
Reference Spectrum Present: No
Number of Sampled Component Spectra: 1
Spectrometers: USB2+H05261
Integration Time (usec): 100000 (USB2+H05261)
Spectra Averaged: 1 (USB2+H05261)
Boxcar Smoothing: 0 (USB2+H05261)
Correct for Electrical Dark: No (USB2+H05261)
Strobe/Lamp Enabled: No (USB2+H05261)
Correct for Detector Non-linearity: No (USB2+H05261)
Correct for Stray Light: No (USB2+H05261)
Number of Pixels in Processed Spectrum: 2048
>>>>>Begin Processed Spectral Data<<<<<
365.73	304.27
365.92	304.27
366.12	304.27
366.32	170.86
366.52	196.60
366.72	166.18
366.91	135.75
367.11	180.22
367.31	149.79
367.51	229.37
367.70	264.48
367.90	173.20
368.10	198.95
368.30	187.24
368.49	198.95
368.69	170.86
368.89	220.01
369.09	224.69
369.28	220.01
369.48	255.12
369.68	248.10
369.87	297.25
370.07	276.18
370.27	327.68
370.47	311.29
370.66	447.04
370.86	552.37
371.06	552.37
371.25	571.09
371.45	557.05
371.65	566.41
371.84	601.52
372.04	568.75
372.24	550.03
372.44	589.82
372.63	627.26
372.83	601.52
373.03	592.16
373.22	631.94
373.42	601.52
373.62	606.20
373.81	587.47
374.01	748.97
374.21	657.69
374.40	643.65
374.60	641.31
374.79	648.33
374.99	606.20
375.19	660.03
375.38	746.63
375.58	676.41
375.78	692.80
375.97	650.67
376.17	697.48
376.37	744.29
376.56	627.26
376.76	643.65
376.95	702.16
377.15	713.86
377.35	676.41
377.54	638.97
377.74	683.44
377.93	669.39
378.13	638.97
378.33	683.44
378.52	727.91
378.72	739.61
378.91	674.07
379.11	634.29
379.31	718.54
379.50	732.59
379.70	734.93
379.89	760.67
380.09	678.76
380.28	730.25
380.48	685.78
380.68	699.82
380.87	781.74
381.07	716.20
381.26	763.01
381.46	702.16
381.65	739.61
381.85	730.25
382.04	807.48
382.24	784.08
382.43	821.53
382.63	849.61
382.83	692.80
383.02	791.10
383.22	791.10
383.41	760.67
383.61	849.61
383.80	840.25
384.00	774.72
384.19	830.89
384.39	781.74
384.58	819.19
384.78	821.53
384.97	847.27
385.17	828.55
385.36	784.08
385.56	798.12
385.75	781.74
385.95	910.47
386.14	851.96
386.34	809.83
386.53	812.17
386.72	833.23
386.92	896.43
387.11	966.64
387.31	917.49
387.50	866.00
387.70	833.23
387.89	870.68
388.09	940.90
388.28	884.72
388.48	844.93
388.67	917.49
388.86	919.83
389.06	936.21
389.25	947.92
389.45	1015.79
389.64	912.81
389.84	990.05
390.03	947.92
390.22	983.02
390.42	1022.81
390.61	947.92
390.81	980.68
391.00	1027.50
391.19	1139.84
391.39	931.53
391.58	968.98
391.78	1100.05
391.97	1032.18
392.16	1015.79
392.36	1039.20
392.55	1027.50
392.75	1060.26
392.94	1050.90
393.13	1064.94
393.33	1004.09
393.52	987.71
393.71	1032.18
393.91	1088.35
394.10	1053.24
394.29	1008.77
394.49	1181.97
394.68	1093.03
394.88	1135.16
395.07	1139.84
395.26	1121.12
395.46	1228.78
395.65	1224.10
395.84	1188.99
396.04	1294.32
396.23	1291.98
396.42	1184.31
396.62	1196.01
396.81	1193.67
397.00	1210.06
397.19	1210.06
397.39	1228.78
397.58	1282.61
397.77	1144.52
397.97	1256.87
398.16	1203.04
398.35	1228.78
398.55	1296.66
398.74	1306.02
398.93	1310.70
399.12	1301.34
399.32	1334.11
399.51	1294.32
399.70	1390.28
399.90	1406.66
400.09	1387.94
400.28	1448.79
400.47	1359.85
400.67	1385.60
400.86	1472.20
401.05	1493.26
401.24	1490.92
401.44	1490.92
401.63	1472.20
401.82	1413.68
402.01	1465.18
402.21	1392.62
402.40	1488.58
402.59	1481.56
402.78	1493.26
402.97	1460.49
403.17	1523.69
403.36	1621.99
403.55	1605.61
403.74	1572.84
403.93	1542.41
404.13	1668.80
404.32	1633.69
404.51	1626.67
404.70	1710.93
404.89	1584.54
405.09	1741.36
405.28	1764.76
405.47	1575.18
405.66	1722.63
405.85	1682.85
406.05	1739.02
406.24	1802.21
406.43	1703.91
406.62	1863.07
406.81	1811.57
407.00	1797.53
407.20	1820.94
407.39	1849.02
407.58	1881.79
407.77	1952.01
407.96	1856.04
408.15	1886.47
408.34	1799.87
408.54	2019.88
408.73	1870.09
408.92	1827.96
409.11	1926.26
409.30	1989.46
409.49	1968.39
409.68	1994.14
409.87	2054.99
410.07	2024.56
410.26	2090.10
410.45	2127.55
410.64	2202.44
410.83	2092.44
411.02	2127.55
411.21	2150.95
411.40	2120.53
411.59	2181.38
411.78	2157.97
411.98	2286.70
412.17	2314.79
412.36	2200.10
412.55	2317.13
412.74	2401.39
412.93	2382.67
413.12	2289.04
413.31	2352.24
413.50	2434.16
413.69	2335.85
413.88	2478.63
414.07	2363.94
414.26	2565.23
414.45	2492.67
414.64	2431.82
414.83	2523.10
415.02	2633.10
415.22	2626.08
415.41	2799.28
415.60	2729.06
415.79	2630.76
415.98	2782.90
416.17	2747.79
416.36	2700.98
416.55	2841.41
416.74	2902.26
416.93	2766.51
417.12	2766.51
417.31	2822.69
417.50	2782.90
417.69	2925.67
417.88	3042.70
418.07	2834.39
418.26	3019.29
418.45	3124.62
418.64	3082.49
418.83	2991.20
419.02	3023.97
419.21	3066.10
419.39	3080.14
419.58	3115.25
419.77	3124.62
419.96	3159.72
420.15	3197.17
420.34	3302.50
420.53	3159.72
420.72	3335.26
420.91	3304.84
421.10	3295.47
421.29	3234.62
421.48	3304.84
421.67	3220.58
421.86	3295.47
422.05	3276.75
422.24	3302.50
422.43	3379.73
422.61	3330.58
422.80	3342.28
422.99	3410.16
423.18	3426.54
423.37	3520.17
423.56	3454.63
423.75	3328.24
423.94	3332.92
424.13	3141.00
424.32	3316.54
424.50	3396.12
424.69	3431.23
424.88	3527.19
425.07	3531.87
425.26	3609.11
425.45	3414.84
425.64	3552.93
425.83	3548.25
426.01	3417.18
426.20	3562.30
426.39	3405.48
426.58	3557.61
426.77	3534.21
426.96	3557.61
427.15	3524.85
427.33	3613.79
427.52	3585.70
427.71	3646.55
427.90	3571.66
428.09	3604.42
428.28	3714.43
428.46	3763.58
428.65	3805.71
428.84	3918.06
429.03	3875.93
429.22	3721.45
429.40	3782.31
429.59	3742.52
429.78	3719.11
429.97	3716.77
430.16	3808.05
430.34	3875.93
430.53	3777.62
430.72	3915.72
430.91	3843.16
431.10	3756.56
431.28	3822.09
431.47	4051.47
431.66	4124.02
431.85	3885.29
432.03	4128.70
432.22	4049.13
432.41	4184.88
432.60	4046.79
432.79	3967.21
432.97	4079.55
433.16	4119.34
433.35	4072.53
433.54	4276.16
433.72	4184.88
433.91	4315.95
434.10	4114.66
434.28	4079.55
434.47	4250.41
434.66	4393.19
434.85	4395.53
435.03	4245.73
435.22	4304.25
435.41	4533.62
435.59	4540.64
435.78	4418.93
435.97	4498.51
436.16	4334.67
436.34	4461.06
436.53	4545.32
436.72	4596.81
436.90	4477.44
437.09	4451.70
437.28	4519.57
437.46	4578.09
437.65	4690.43
437.84	4613.20
438.02	4582.77
438.21	4744.27
438.40	4535.96
438.58	4730.22
438.77	4791.08
438.96	4657.67
439.14	4919.81
439.33	4945.55
439.52	4915.12
439.70	4880.02
439.89	5146.84
440.08	5130.45
440.26	5015.77
440.45	4898.74
440.63	5167.90
440.82	5137.48
441.01	5060.24
441.19	5114.07
441.38	5284.93
441.57	5305.99
441.75	5366.85
441.94	5425.36
442.12	5383.23
442.31	5364.51
442.50	5537.71
442.68	5437.06
442.87	5572.82
443.05	5460.47
443.24	5633.67
443.43	5762.40
443.61	5643.03
443.80	5788.14
443.98	5451.11
444.17	5289.61
444.35	5645.37
444.54	5717.93
444.73	5633.67
444.91	5561.11
445.10	5790.49
445.28	5734.31
445.47	5650.05
445.65	5659.42
445.84	5645.37
446.02	5708.57
446.21	5746.02
446.39	5746.02
446.58	5806.87
446.77	5664.10
446.95	5617.29
447.14	5797.51
447.32	5874.74
447.51	5830.27
447.69	5825.59
447.88	5797.51
448.06	5888.79
448.25	5771.76
448.43	5652.39
448.62	5874.74
448.80	5731.97
448.99	6059.65
449.17	6115.82
449.36	6064.33
449.54	6071.35
449.73	6066.67
449.91	6050.28
450.10	6031.56
450.28	6106.46
450.46	6195.40
450.65	6146.25
450.83	6279.66
451.02	6244.55
451.20	6324.13
451.39	6150.93
451.57	6132.20
451.76	6223.48
451.94	6469.24
452.13	6382.64
452.31	6307.74
452.49	6214.12
452.68	6452.86
452.86	6455.20
453.05	6532.44
453.23	6438.81
453.42	6377.96
453.60	6342.85
453.78	6366.26
453.97	6389.66
454.15	6413.07
454.34	6576.91
454.52	6487.96
454.70	6696.27
454.89	6532.44
455.07	6637.76
455.26	6832.02
455.44	6628.40
455.62	6731.38
455.81	6761.81
455.99	6864.79
456.17	6862.45
456.36	6796.92
456.54	6846.07
456.73	6970.12
456.91	7009.90
457.09	7145.66
457.28	7438.22
457.46	6925.65
457.64	7045.01
457.83	7059.06
458.01	7002.88
458.19	7344.60
458.38	7136.29
458.56	7213.53
458.74	7250.98
458.93	7309.49
459.11	7318.86
459.29	7339.92
459.48	7234.60
459.66	7307.15
459.84	7419.50
460.03	7548.23
460.21	7389.07
460.39	7541.21
460.57	7538.87
460.76	7531.84
460.94	7620.78
461.12	7595.04
461.31	7555.25
461.49	7449.93
461.67	7499.08
461.85	7674.62
462.04	7602.06
462.22	8187.19
462.40	7735.47
462.59	7812.71
462.77	7737.81
462.95	7716.75
463.13	7850.16
463.32	7953.14
463.50	7896.97
463.68	7955.48
463.86	8210.60
464.05	7826.75
464.23	7992.93
464.41	8081.87
464.59	7885.26
464.78	7969.52
464.96	7978.89
465.14	7798.66
465.32	8002.29
465.50	8177.83
465.69	8035.06
465.87	8280.82
466.05	8042.08
466.23	8269.11
466.41	8280.82
466.60	8662.32
466.78	8238.69
466.96	8273.79
467.14	8210.60
467.32	8479.76
467.51	8376.78
467.69	8098.25
467.87	8297.20
468.05	8367.42
468.23	8273.79
468.41	8362.73
468.60	8446.99
468.78	8423.59
468.96	8344.01
469.14	8744.24
469.32	8833.18
469.50	8439.97
469.69	8847.22
469.87	8826.16
470.05	8730.20
470.23	8795.73
470.41	8975.95
470.59	9078.94
470.77	8711.47
470.95	8905.74
471.14	9092.98
471.32	8779.35
471.50	9167.88
471.68	9032.13
471.86	9137.45
472.04	8985.32
472.22	9298.95
472.40	9022.77
472.58	9165.54
472.77	9366.82
472.95	9376.19
473.13	9724.93
473.31	9231.07
473.49	9472.15
473.67	9626.62
473.85	9600.88
474.03	9736.63
474.21	9825.57
474.39	9668.75
474.57	9977.70
474.75	10012.81
474.93	10047.92
475.12	9937.91
475.30	10244.52
475.48	10010.47
475.66	10064.30
475.84	10078.35
476.02	10464.54
476.20	10422.41
476.38	10424.75
476.56	10619.01
476.74	10509.01
476.92	10581.56
477.10	10588.58
477.28	10743.06
477.46	10693.91
477.64	10895.19
477.82	11138.61
478.00	11147.97
478.18	11091.80
478.36	11391.39
478.54	11328.19
478.72	11330.53
478.90	11705.02
479.08	11758.85
479.26	11925.03
479.44	11728.42
479.62	12119.29
479.80	12063.12
479.98	12145.04
480.16	12198.87
480.34	12243.34
480.52	12491.44
480.70	12629.53
480.88	12245.68
481.06	12526.55
481.24	12521.87
481.41	12858.90
481.59	12875.29
481.77	13060.19
481.95	12842.52
482.13	13219.35
482.31	13018.06
482.49	13312.97
482.67	13701.50
482.85	13525.96
483.03	13446.38
483.21	13708.52
483.39	14045.55
483.57	13708.52
483.74	14354.51
483.92	14087.68
484.10	14057.26
484.28	14637.71
484.46	14527.71
484.64	14743.03
484.82	14471.53
485.00	14588.56
485.18	15241.57
485.35	14993.47
485.53	15115.18
485.71	15047.30
485.89	15573.92
486.07	15433.49
486.25	15421.79
486.43	15449.88
486.61	15742.44
486.78	15917.98
486.96	15910.96
487.14	16259.70
487.32	16315.87
487.50	16306.51
487.68	16713.77
487.85	16503.12
488.03	16926.75
488.21	17090.59
488.39	16945.48
488.57	17174.85
488.75	17153.79
488.92	17668.70
489.10	17610.19
489.28	17685.09
489.46	17867.65
489.64	18122.77
489.81	18202.35
489.99	18150.85
490.17	18214.05
490.35	18625.98
490.53	18768.76
490.70	18789.82
490.88	18668.11
491.06	19103.45
491.24	19140.90
491.41	19215.80
491.59	19206.44
491.77	19431.13
491.95	19623.05
492.13	19789.23
492.30	19707.31
492.48	19950.73
492.66	20365.00
492.84	20009.24
493.01	20479.69
493.19	20135.63
493.37	20711.40
493.54	20739.49
493.72	20662.25
493.90	20697.36
494.08	20893.96
494.25	21301.22
494.43	20996.95
494.61	21069.50
494.79	21591.44
494.96	21177.17
495.14	21689.74
495.32	21900.39
495.49	22197.64
495.67	21930.82
495.85	22141.47
496.02	22352.12
496.20	22380.20
496.38	22614.26
496.55	22705.54
496.73	22946.61
496.91	23007.47
497.09	23101.09
497.26	23215.77
497.44	23138.54
497.62	23192.37
497.79	23819.63
497.97	23484.94
498.14	23798.57
498.32	24018.58
498.50	24114.54
498.67	24098.16
498.85	23948.36
499.03	24231.57
499.20	24400.08
499.38	24320.51
499.56	24395.40
499.73	24751.17
499.91	24755.85
500.08	25025.01
500.26	24606.05
500.44	24889.26
500.61	25429.92
500.79	25184.16
500.97	25432.26
501.14	25570.35
501.32	25209.91
501.49	25619.50
501.67	25596.10
501.84	25853.56
502.02	25799.73
502.20	25869.94
502.37	25909.73
502.55	26321.66
502.72	25914.41
502.90	26228.04
503.07	26068.89
503.25	26129.74
503.43	26111.02
503.60	26438.69
503.78	26457.42
503.95	26778.07
504.13	27119.79
504.30	26672.74
504.48	26883.39
504.65	27077.66
504.83	27449.80
505.01	27489.59
505.18	27058.93
505.36	27641.73
505.53	27150.21
505.71	27744.71
505.88	27431.08
506.06	28011.53
506.23	27744.71
506.41	28032.60
506.58	27941.32
506.76	28016.21
506.93	28409.42
507.11	28243.24
507.28	28360.27
507.46	28297.08
507.63	28524.11
507.81	28823.70
507.98	28170.69
508.16	28589.64
508.33	28882.21
508.50	28922.00
508.68	28856.46
508.85	29090.52
509.03	29029.66
509.20	29237.97
509.38	29612.46
509.55	29577.35
509.73	29509.47
509.90	29993.97
510.08	29944.81
510.25	29565.65
510.42	29930.77
510.60	30153.12
510.77	29820.77
510.95	30551.01
511.12	30228.02
511.30	30110.99
511.47	30637.61
511.64	30321.64
511.82	30473.78
511.99	30689.10
512.17	30670.38
512.34	30689.10
512.51	30703.15
512.69	31040.18
512.86	31400.63
513.04	31103.38
513.21	31246.15
513.38	31161.89
513.56	31314.03
513.73	31051.89
513.90	31604.25
514.08	31161.89
514.25	31768.09
514.43	31730.64
514.60	32130.87
514.77	31976.40
514.95	32187.05
515.12	31730.64
515.29	32144.92
515.47	32177.68
515.64	32517.06
515.81	32374.29
515.99	32369.61
516.16	32545.15
516.33	32692.60
516.51	32910.27
516.68	32362.59
516.85	32687.92
517.03	33017.94
517.20	32435.14
517.37	33156.03
517.54	33158.37
517.72	33308.16
517.89	33464.98
518.06	33090.49
518.24	33326.89
518.41	33493.07
518.58	33535.20
518.75	33343.27
518.93	33631.16
519.10	33806.70
519.27	33654.56
519.45	33879.25
519.62	33670.95
519.79	34031.39
519.96	33626.48
520.14	33986.92
520.31	33970.54
520.48	34380.13
520.65	34375.45
520.83	34450.35
521.00	34471.41
521.17	34223.31
521.34	34548.65
521.52	34625.89
521.69	34836.53
521.86	35000.37
522.03	35129.10
522.20	35388.90
522.38	35285.92
522.55	35222.72
522.72	35070.59
522.89	35325.71
523.07	36210.43
523.24	35372.52
523.41	35749.34
523.58	35276.55
523.75	35534.01
523.92	35480.18
524.10	35828.92
524.27	36144.89
524.44	36238.51
524.61	35896.80
524.78	35875.73
524.96	36357.88
525.13	36620.02
525.30	36629.38
525.47	36306.39
525.64	36687.90
525.81	36870.46
525.98	36680.88
526.16	36610.66
526.33	36297.03
526.50	36727.69
526.67	36444.48
526.84	37050.68
527.01	37043.66
527.18	36720.66
527.36	37109.19
527.53	37191.11
527.70	37759.86
527.87	37329.20
528.04	37134.94
528.21	37240.26
528.38	37160.69
528.55	37687.31
528.72	37645.18
528.89	37336.23
529.07	37455.59
529.24	37427.51
529.41	38057.11
529.58	37479.00
529.75	37682.62
529.92	38019.66
530.09	38249.03
530.26	37794.97
530.43	37727.10
530.60	37942.42
530.77	37923.70
530.94	38279.46
531.11	38314.57
531.28	38148.39
531.46	38258.40
531.63	38813.10
531.80	38478.41
531.97	38368.40
532.14	38635.22
532.31	38890.34
532.48	38909.07
532.65	39227.38
532.82	38480.75
532.99	38768.63
533.16	38735.87
533.33	39510.58
533.50	39316.32
533.67	38892.68
533.84	38635.22
534.01	39185.25
534.18	39440.37
534.35	39868.69
534.52	39475.48
534.69	39557.39
534.86	39693.15
535.03	39622.93
535.20	39704.85
535.37	39447.39
535.54	39735.27
535.71	39922.52
535.88	39901.45
536.05	40119.12
536.22	39693.15
536.38	39791.45
536.55	39889.75
536.72	40046.57
536.89	40027.84
537.06	40009.12
537.23	40428.07
537.40	40500.63
537.57	40048.91
537.74	40573.19
537.91	40612.98
538.08	40718.30
538.25	40208.06
538.42	40666.81
538.59	40617.66
538.75	40975.76
538.92	41020.23
539.09	40905.54
539.26	40664.47
539.43	40875.12
539.60	40842.35
539.77	40732.34
539.94	41668.56
540.11	40882.14
540.28	40978.10
540.44	40971.08
540.61	40851.71
540.78	41160.66
540.95	41104.49
541.12	41209.81
541.29	41104.49
541.46	41303.43
541.62	41542.17
541.79	41841.76
541.96	41509.40
542.13	41357.27
542.30	41441.53
542.47	42150.71
542.63	41816.01
542.80	41972.83
542.97	42256.03
543.14	42068.79
543.31	41993.89
543.48	42330.93
543.64	42529.87
543.81	42614.13
543.98	42241.99
544.15	42686.69
544.32	42384.76
544.48	42724.14
544.65	42464.34
544.82	42569.66
544.99	42621.16
545.16	42780.31
545.32	42810.74
545.49	42642.22
545.66	43136.07
545.83	42724.14
546.00	42784.99
546.16	43054.15
546.33	42803.72
546.50	42988.62
546.67	42953.51
546.83	42822.44
547.00	42958.19
547.17	42962.87
547.34	43119.69
547.50	43093.94
547.67	43243.74
547.84	43384.17
548.00	43487.15
548.17	43819.51
548.34	43784.40
548.51	43765.68
548.67	43695.46
548.84	43718.87
549.01	43459.07
549.18	43592.48
549.34	43569.07
549.51	43784.40
549.68	43562.05
549.84	43831.21
550.01	43964.62
550.18	43658.01
550.34	43519.92
550.51	44273.57
550.68	43770.36
550.84	43805.47
551.01	44322.72
551.18	44119.10
551.34	43702.48
551.51	44219.74
551.68	44292.30
551.84	44355.49
552.01	44547.42
552.18	44198.68
552.34	44074.63
552.51	44432.73
552.68	44500.61
552.84	44713.59
553.01	44369.54
553.18	44467.84
553.34	44645.72
553.51	44430.39
553.67	44566.14
553.84	44708.91
554.01	44580.18
554.17	44795.51
554.34	44985.10
554.51	44938.29
554.67	45586.61
554.84	45071.70
555.00	44985.10
555.17	44854.03
555.33	45240.21
555.50	45015.52
555.67	44863.39
555.83	45298.73
556.00	45364.26
556.16	45214.47
556.33	45385.33
556.50	45404.05
556.66	45485.97
556.83	45226.17
556.99	45251.92
557.16	45565.55
557.32	45390.01
557.49	45427.46
557.65	45329.16
557.82	45593.64
557.98	45460.23
558.15	45488.31
558.32	45326.81
558.48	45680.24
558.65	45780.88
558.81	45429.80
558.98	45425.12
559.14	45537.46
559.31	45303.41
559.47	45624.06
559.64	45846.41
559.80	46220.90
559.97	45839.39
560.13	45682.58
560.30	45937.69
560.46	46176.43
560.63	45916.63
560.79	45832.37
560.96	45947.06
561.12	45834.71
561.29	45745.77
561.45	46293.46
561.61	45993.87
561.78	46092.17
561.94	46253.67
562.11	46246.65
562.27	46263.03
562.44	46260.69
562.60	46066.42
562.77	45787.90
562.93	46117.92
563.10	46176.43
563.26	45904.93
563.42	46581.34
563.59	46106.21
563.75	46082.81
563.92	46497.08
564.08	46391.76
564.24	46415.16
564.41	46515.81
564.57	46775.61
564.74	45713.00
564.90	45872.16
565.07	46637.51
565.23	46176.43
565.39	46190.47
565.56	46843.48
565.72	46689.01
565.88	46366.01
566.05	46476.02
566.21	46281.75
566.38	46700.71
566.54	46588.36
566.70	46616.45
566.87	46707.73
567.03	46553.26
567.19	46717.09
567.36	46464.32
567.52	46794.33
567.68	47194.56
567.85	46330.90
568.01	46848.16
568.17	46677.30
568.34	46822.42
568.50	46581.34
568.66	46403.46
568.83	46766.24
568.99	47021.36
569.15	46649.22
569.32	46576.66
569.48	46520.49
569.64	47332.65
569.81	46796.67
569.97	46974.55
570.13	47250.74
570.30	46717.09
570.46	46513.47
570.62	47028.38
570.78	47409.89
570.95	46768.58
571.11	47072.85
571.27	47103.28
571.43	46775.61
571.60	46934.76
571.76	47175.84
571.92	46789.65
572.09	46754.54
572.25	47007.32
572.41	46958.17
572.57	47192.22
572.74	47491.81
572.90	46953.49
573.06	47288.18
573.22	47213.29
573.38	47405.21
573.55	47220.31
573.71	47349.04
573.87	47433.30
574.03	47311.59
574.20	47777.36
574.36	47346.70
574.52	47290.52
574.68	47107.96
574.84	47683.73
575.01	47173.50
575.17	47562.03
575.33	47239.03
575.49	47386.49
575.65	47299.89
575.82	47744.59
575.98	47358.40
576.14	47157.11
576.30	47344.36
576.46	47224.99
576.62	47203.92
576.79	47290.52
576.95	46672.62
577.11	47510.53
577.27	47419.25
577.43	47381.80
577.59	47594.79
577.75	46946.47
577.92	47250.74
578.08	47573.73
578.24	47835.87
578.40	47782.04
578.56	47707.14
578.72	47201.58
578.88	47674.37
579.04	47353.72
579.21	47318.61
579.37	47569.05
579.53	47718.84
579.69	47641.60
579.85	47419.25
580.01	47587.77
580.17	47475.43
580.33	47936.51
580.49	47540.96
580.65	47973.96
580.82	47480.11
580.98	47215.63
581.14	47173.50
581.30	47447.34
581.46	47374.78
581.62	47604.16
581.78	47227.33
581.94	47711.82
582.10	47271.80
582.26	47655.65
582.42	47344.36
582.58	47585.43
582.74	47735.23
582.90	47482.45
583.06	47594.79
583.22	47320.95
583.38	47810.12
583.54	48215.04
583.70	47716.50
583.86	47555.00
584.02	47583.09
584.18	47917.79
584.34	47728.20
584.50	47828.85
584.66	47618.20
584.82	47690.76
584.98	47948.21
585.14	47538.62
585.30	47473.09
585.46	47660.33
585.62	47721.18
585.78	48041.84
585.94	47166.48
586.10	47782.04
586.26	47430.96
586.42	47629.90
586.58	47693.10
586.74	47777.36
586.90	47566.71
587.06	47484.79
587.22	48006.73
587.38	47826.51
587.54	47980.98
587.70	47964.60
587.86	47838.21
588.02	47611.18
588.18	47746.93
588.34	47924.81
588.49	47814.80
588.65	47697.78
588.81	47889.70
588.97	48186.95
589.13	47739.91
589.29	47915.45
589.45	48287.59
589.61	47978.64
589.77	48439.73
589.93	47892.04
