SpectraSuite Data File
++++++++++++++++++++++++++++++++++++
Date: Fri Oct 25 11:34:00 EDT 2013
User: price-jones
Dark Spectrum Present: No
Reference Spectrum Present: No
Number of Sampled Component Spectra: 1
Spectrometers: USB2+H05261
Integration Time (usec): 100000 (USB2+H05261)
Spectra Averaged: 1 (USB2+H05261)
Boxcar Smoothing: 0 (USB2+H05261)
Correct for Electrical Dark: No (USB2+H05261)
Strobe/Lamp Enabled: No (USB2+H05261)
Correct for Detector Non-linearity: No (USB2+H05261)
Correct for Stray Light: No (USB2+H05261)
Number of Pixels in Processed Spectrum: 2048
>>>>>Begin Processed Spectral Data<<<<<
365.73	311.29
365.92	311.29
366.12	311.29
366.32	248.10
366.52	196.60
366.72	163.84
366.91	117.03
367.11	159.16
367.31	163.84
367.51	187.24
367.70	187.24
367.90	177.88
368.10	142.77
368.30	142.77
368.49	170.86
368.69	227.03
368.89	142.77
369.09	180.22
369.28	205.97
369.48	163.84
369.68	231.71
369.87	252.78
370.07	269.16
370.27	290.23
370.47	285.55
370.66	510.24
370.86	564.07
371.06	547.69
371.25	554.71
371.45	547.69
371.65	568.75
371.84	475.13
372.04	505.56
372.24	514.92
372.44	585.13
372.63	601.52
372.83	578.11
373.03	559.39
373.22	547.69
373.42	571.09
373.62	653.01
373.81	655.35
374.01	650.67
374.21	559.39
374.40	669.39
374.60	601.52
374.79	653.01
374.99	582.79
375.19	725.57
375.38	641.31
375.58	688.12
375.78	627.26
375.97	671.73
376.17	753.65
376.37	657.69
376.56	631.94
376.76	674.07
376.95	629.60
377.15	723.23
377.35	695.14
377.54	674.07
377.74	702.16
377.93	653.01
378.13	678.76
378.33	678.76
378.52	678.76
378.72	725.57
378.91	638.97
379.11	681.10
379.31	697.48
379.50	725.57
379.70	758.33
379.89	725.57
380.09	774.72
380.28	706.84
380.48	730.25
380.68	734.93
380.87	734.93
381.07	751.31
381.26	753.65
381.46	758.33
381.65	772.38
381.85	720.88
382.04	723.23
382.24	739.61
382.43	802.80
382.63	809.83
382.83	774.72
383.02	821.53
383.22	770.04
383.41	849.61
383.61	861.32
383.80	777.06
384.00	800.46
384.19	814.51
384.39	826.21
384.58	807.48
384.78	866.00
384.97	819.19
385.17	795.78
385.36	821.53
385.56	875.36
385.75	847.27
385.95	812.17
386.14	821.53
386.34	821.53
386.53	936.21
386.72	908.13
386.92	856.64
387.11	870.68
387.31	978.34
387.50	812.17
387.70	891.74
387.89	919.83
388.09	887.06
388.28	903.45
388.48	851.96
388.67	919.83
388.86	950.26
389.06	779.40
389.25	896.43
389.45	954.94
389.64	873.02
389.84	1006.43
390.03	936.21
390.22	954.94
390.42	910.47
390.61	905.79
390.81	959.62
391.00	1034.52
391.19	1071.97
391.39	971.32
391.58	997.07
391.78	1011.11
391.97	1036.86
392.16	1032.18
392.36	999.41
392.55	1013.45
392.75	999.41
392.94	1093.03
393.13	1034.52
393.33	1013.45
393.52	1055.58
393.71	1100.05
393.91	1111.75
394.10	1039.20
394.29	1088.35
394.49	1043.88
394.68	1116.44
394.88	1137.50
395.07	1083.67
395.26	1128.14
395.46	1083.67
395.65	1186.65
395.84	1179.63
396.04	1226.44
396.23	1156.22
396.42	1193.67
396.62	1205.38
396.81	1107.07
397.00	1320.06
397.19	1261.55
397.39	1163.25
397.58	1233.46
397.77	1214.74
397.97	1181.97
398.16	1226.44
398.35	1198.35
398.55	1301.34
398.74	1296.66
398.93	1245.16
399.12	1263.89
399.32	1275.59
399.51	1256.87
399.70	1385.60
399.90	1317.72
400.09	1352.83
400.28	1341.13
400.47	1397.30
400.67	1446.45
400.86	1460.49
401.05	1446.45
401.24	1409.00
401.44	1373.89
401.63	1437.09
401.82	1430.07
402.01	1462.83
402.21	1399.64
402.40	1418.36
402.59	1434.75
402.78	1453.47
402.97	1579.86
403.17	1476.88
403.36	1458.15
403.55	1497.94
403.74	1537.73
403.93	1612.63
404.13	1598.59
404.32	1586.88
404.51	1652.42
404.70	1666.46
404.89	1533.05
405.09	1657.10
405.28	1612.63
405.47	1671.14
405.66	1715.61
405.85	1696.89
406.05	1696.89
406.24	1682.85
406.43	1734.34
406.62	1788.17
406.81	1959.03
407.00	1713.27
407.20	1715.61
407.39	1729.66
407.58	1771.79
407.77	1846.68
407.96	1944.99
408.15	1846.68
408.34	1818.60
408.54	1891.15
408.73	1891.15
408.92	1914.56
409.11	1966.05
409.30	1954.35
409.49	1954.35
409.68	1909.88
409.87	1987.11
410.07	2010.52
410.26	2015.20
410.45	1984.77
410.64	2139.25
410.83	2120.53
411.02	2015.20
411.21	2120.53
411.40	2111.16
411.59	2062.01
411.78	2136.91
411.98	2150.95
412.17	2136.91
412.36	2342.88
412.55	2270.32
412.74	2333.51
412.93	2277.34
413.12	2186.06
413.31	2377.98
413.50	2300.75
413.69	2331.17
413.88	2387.35
414.07	2420.11
414.26	2431.82
414.45	2459.90
414.64	2408.41
414.83	2579.27
415.02	2497.35
415.22	2574.59
415.41	2609.70
415.60	2593.31
415.79	2640.12
415.98	2740.77
416.17	2621.40
416.36	2736.09
416.55	2789.92
416.74	2871.84
416.93	2710.34
417.12	2619.06
417.31	2810.98
417.50	2874.18
417.69	2850.77
417.88	2890.56
418.07	2876.52
418.26	2925.67
418.45	3016.95
418.64	3112.91
418.83	3042.70
419.02	3009.93
419.21	2930.35
419.39	3033.33
419.58	3016.95
419.77	2981.84
419.96	3152.70
420.15	3077.80
420.34	3148.02
420.53	3162.06
420.72	3197.17
420.91	3166.74
421.10	3253.34
421.29	3243.98
421.48	3087.17
421.67	3185.47
421.86	3295.47
422.05	3218.24
422.24	3281.43
422.43	3304.84
422.61	3314.20
422.80	3361.01
422.99	3311.86
423.18	3426.54
423.37	3431.23
423.56	3428.88
423.75	3375.05
423.94	3328.24
424.13	3159.72
424.32	3279.09
424.50	3421.86
424.69	3417.18
424.88	3400.80
425.07	3391.44
425.26	3281.43
425.45	3435.91
425.64	3386.76
425.83	3468.67
426.01	3463.99
426.20	3452.29
426.39	3506.12
426.58	3489.74
426.77	3520.17
426.96	3566.98
427.15	3496.76
427.33	3566.98
427.52	3559.95
427.71	3583.36
427.90	3576.34
428.09	3648.90
428.28	3658.26
428.46	3735.50
428.65	3684.00
428.84	3723.79
429.03	3719.11
429.22	3606.77
429.40	3658.26
429.59	3796.35
429.78	3604.42
429.97	3632.51
430.16	3623.15
430.34	3826.78
430.53	3894.65
430.72	3936.78
430.91	3831.46
431.10	3868.91
431.28	3852.52
431.47	3983.59
431.66	3822.09
431.85	3960.19
432.03	4128.70
432.22	4212.96
432.41	4119.34
432.60	4051.47
432.79	4060.83
432.97	4042.11
433.16	4011.68
433.35	4058.49
433.54	4128.70
433.72	4124.02
433.91	4023.38
434.10	4259.78
434.28	4236.37
434.47	4149.77
434.66	4376.80
434.85	4259.78
435.03	4358.08
435.22	4238.71
435.41	4348.72
435.59	4341.69
435.78	4339.35
435.97	4353.40
436.16	4348.72
436.34	4355.74
436.53	4575.75
436.72	4580.43
436.90	4285.52
437.09	4638.94
437.28	4135.73
437.46	4423.61
437.65	4393.19
437.84	4489.15
438.02	4519.57
438.21	4531.28
438.40	4461.06
438.58	4667.03
438.77	4737.24
438.96	4718.52
439.14	4744.27
439.33	4936.19
439.52	4849.59
439.70	4779.37
439.89	4903.42
440.08	4926.83
440.26	4898.74
440.45	4805.12
440.63	4999.38
440.82	4987.68
441.01	4931.51
441.19	5090.67
441.38	5139.82
441.57	5191.31
441.75	5275.57
441.94	5226.42
442.12	5294.29
442.31	5579.84
442.50	5509.62
442.68	5507.28
442.87	5413.66
443.05	5444.09
443.24	5490.90
443.43	5603.24
443.61	5542.39
443.80	5551.75
443.98	5544.73
444.17	5277.91
444.35	5715.59
444.54	5502.60
444.73	5516.64
444.91	5577.50
445.10	5509.62
445.28	5404.30
445.47	5589.20
445.65	5591.54
445.84	5701.54
446.02	5954.32
446.21	5713.25
446.39	5469.83
446.58	5551.75
446.77	5619.63
446.95	5579.84
447.14	5816.23
447.32	5584.52
447.51	5753.04
447.69	5680.48
447.88	5729.63
448.06	5643.03
448.25	5783.46
448.43	5743.67
448.62	5671.12
448.80	5764.74
448.99	5736.65
449.17	5839.64
449.36	5799.85
449.54	5959.00
449.73	5928.58
449.91	5956.66
450.10	6066.67
450.28	6101.78
450.46	6031.56
450.65	5987.09
450.83	5942.62
451.02	6106.46
451.20	6022.20
451.39	6146.25
451.57	6061.99
451.76	6171.99
451.94	6106.46
452.13	6106.46
452.31	6279.66
452.49	6171.99
452.68	6230.51
452.86	6368.60
453.05	6267.95
453.23	6352.21
453.42	6349.87
453.60	6181.35
453.78	6319.45
453.97	6265.61
454.15	6415.41
454.34	6354.55
454.52	6509.03
454.70	6459.88
454.89	6562.86
455.07	6523.07
455.26	6544.14
455.44	6658.82
455.62	6778.19
455.81	6654.14
455.99	6581.59
456.17	6829.68
456.36	6675.21
456.54	6881.18
456.73	6916.28
456.91	6995.86
457.09	6986.50
457.28	6995.86
457.46	6815.64
457.64	6906.92
457.83	6951.39
458.01	6878.83
458.19	7119.91
458.38	7014.59
458.56	7248.64
458.74	6972.46
458.93	7056.72
459.11	7213.53
459.29	6979.48
459.48	7199.49
459.66	7229.91
459.84	7330.56
460.03	7365.67
460.21	7400.77
460.39	7206.51
460.57	7283.75
460.76	7218.21
460.94	7323.54
461.12	7475.67
461.31	7550.57
461.49	7543.55
461.67	7445.24
461.85	7461.63
462.04	7506.10
462.22	8046.76
462.40	7592.70
462.59	7597.38
462.77	7646.53
462.95	7819.73
463.13	7749.51
463.32	7475.67
463.50	7932.08
463.68	7756.54
463.86	7688.66
464.05	7662.91
464.23	7632.49
464.41	7840.79
464.59	7742.49
464.78	8095.91
464.96	7726.11
465.14	7815.05
465.32	8093.57
465.50	7981.23
465.69	8074.85
465.87	8060.80
466.05	7920.37
466.23	7992.93
466.41	8051.44
466.60	8250.39
466.78	8112.30
466.96	7948.46
467.14	7948.46
467.32	8313.58
467.51	8280.82
467.69	7976.55
467.87	8182.51
468.05	8320.60
468.23	8032.72
468.41	8243.37
468.60	8353.37
468.78	8489.12
468.96	8404.86
469.14	8475.08
469.32	8416.57
469.50	8269.11
469.69	8704.45
469.87	8702.11
470.05	8299.54
470.23	8823.82
470.41	8627.21
470.59	8823.82
470.77	8762.97
470.95	8891.70
471.14	9022.77
471.32	8826.16
471.50	8882.33
471.68	8891.70
471.86	8791.05
472.04	9177.24
472.22	9345.76
472.40	9004.04
472.58	8908.08
472.77	8884.67
472.95	9238.09
473.13	9514.28
473.31	9097.66
473.49	9252.14
473.67	9399.59
473.85	9308.31
474.03	9762.37
474.21	9617.26
474.39	9879.40
474.57	9687.48
474.75	9657.05
474.93	9776.42
475.12	9668.75
475.30	10040.90
475.48	9989.41
475.66	9923.87
475.84	9916.85
476.02	9893.44
476.20	10057.28
476.38	10221.12
476.56	10406.02
476.74	10469.22
476.92	10450.49
477.10	10293.68
477.28	10569.86
477.46	10796.89
477.64	10771.15
477.82	10747.74
478.00	11033.29
478.18	10958.39
478.36	11016.90
478.54	11389.05
478.72	11417.13
478.90	11293.08
479.08	11492.03
479.26	11454.58
479.44	11337.56
479.62	11618.42
479.80	11793.96
479.98	12009.29
480.16	11880.56
480.34	12025.67
480.52	12304.20
480.70	12009.29
480.88	12013.97
481.06	12283.13
481.24	12393.14
481.41	12512.50
481.59	12439.95
481.77	12498.46
481.95	12812.09
482.13	12882.31
482.31	12875.29
482.49	12933.80
482.67	13254.45
482.85	13226.37
483.03	13446.38
483.21	13671.07
483.39	13741.29
483.57	13617.24
483.74	13769.37
483.92	13806.82
484.10	13755.33
484.28	13919.17
484.46	14373.23
484.64	14555.79
484.82	14473.87
485.00	14338.12
485.18	14834.32
485.35	14565.15
485.53	14644.73
485.71	14932.62
485.89	15246.25
486.07	15059.01
486.25	15201.78
486.43	15166.67
486.61	15452.22
486.78	15569.24
486.96	15784.57
487.14	15819.68
487.32	16072.46
487.50	16027.99
487.68	16102.89
487.85	16453.97
488.03	16451.63
488.21	16769.94
488.39	16554.61
488.57	17125.70
488.75	17156.13
488.92	17006.33
489.10	17263.79
489.28	17259.11
489.46	17472.10
489.64	17322.30
489.81	17731.90
489.99	17867.65
490.17	17996.38
490.35	18263.20
490.53	18141.49
490.70	18452.78
490.88	18670.45
491.06	18649.39
491.24	18120.43
491.41	18787.48
491.59	19007.49
491.77	19005.15
491.95	18967.70
492.13	19246.23
492.30	19587.94
492.48	19201.76
492.66	19332.82
492.84	20142.65
493.01	19735.40
493.19	19833.70
493.37	20105.20
493.54	19768.16
493.72	20505.43
493.90	20182.44
494.08	20547.56
494.25	20404.79
494.43	20629.48
494.61	21013.33
494.79	21008.65
494.96	21144.40
495.14	20865.88
495.32	21308.24
495.49	21415.90
495.67	21598.46
495.85	21605.49
496.02	21991.67
496.20	22192.96
496.38	22129.77
496.55	22162.53
496.73	22415.31
496.91	22462.12
497.09	22441.06
497.26	22375.52
497.44	22431.69
497.62	22480.85
497.79	22881.08
497.97	23278.97
498.14	23091.73
498.32	23484.94
498.50	23267.27
498.67	23789.20
498.85	23470.89
499.03	24070.07
499.20	23936.66
499.38	24016.24
499.56	23931.98
499.73	24109.86
499.91	24236.25
500.08	24751.17
500.26	24531.15
500.44	24238.59
500.61	24496.05
500.79	24224.54
500.97	24584.99
501.14	25083.52
501.32	25053.09
501.49	24996.92
501.67	25090.54
501.84	25378.43
502.02	25317.57
502.20	25692.06
502.37	25626.53
502.55	25233.32
502.72	25376.09
502.90	25628.87
503.07	25713.13
503.25	25759.94
503.43	25542.27
503.60	25848.88
503.78	25661.63
503.95	26099.31
504.13	25984.63
504.30	26150.81
504.48	26321.66
504.65	26691.47
504.83	26794.45
505.01	26906.80
505.18	26647.00
505.36	26815.52
505.53	26714.87
505.71	26799.13
505.88	27370.22
506.06	26934.88
506.23	27330.44
506.41	27297.67
506.58	27498.95
506.76	27297.67
506.93	27541.08
507.11	27379.59
507.28	27817.27
507.46	28233.88
507.63	27847.69
507.81	28166.01
507.98	27805.56
508.16	28102.81
508.33	28079.41
508.50	28039.62
508.68	28634.11
508.85	28395.38
509.03	28664.54
509.20	28430.49
509.38	28868.17
509.55	28463.25
509.73	29116.26
509.90	28872.85
510.08	28950.09
510.25	28929.02
510.42	29020.30
510.60	29111.58
510.77	29158.39
510.95	30022.05
511.12	29125.63
511.30	29738.85
511.47	29649.91
511.64	29677.99
511.82	30059.50
511.99	30040.78
512.17	29879.28
512.34	30136.74
512.51	29993.97
512.69	30602.50
512.86	30096.95
513.04	30321.64
513.21	30623.57
513.38	30841.24
513.56	30586.12
513.73	31014.44
513.90	30448.03
514.08	30646.97
514.25	30850.60
514.43	30988.69
514.60	31129.12
514.77	31161.89
514.95	31325.73
515.12	30951.24
515.29	31243.81
515.47	31454.46
515.64	31512.97
515.81	31257.85
515.99	31707.24
516.16	32240.88
516.33	31742.35
516.51	32072.36
516.68	31732.98
516.85	32201.09
517.03	32051.30
517.20	32437.48
517.37	32030.23
517.54	32493.66
517.72	32425.78
517.89	32444.51
518.06	32587.28
518.24	32364.93
518.41	32575.58
518.58	32690.26
518.75	32711.33
518.93	33027.30
519.10	32868.14
519.27	32837.72
519.45	33055.39
519.62	33177.09
519.79	33186.46
519.96	33418.17
520.14	33357.32
520.31	33170.07
520.48	33455.62
520.65	33539.88
520.83	33680.31
521.00	33741.16
521.17	33841.81
521.34	33937.77
521.52	34139.05
521.69	33958.83
521.86	34316.93
522.03	34267.78
522.20	34220.97
522.38	34696.10
522.55	34714.83
522.72	34604.82
522.89	34623.54
523.07	34934.84
523.24	34625.89
523.41	34829.51
523.58	34611.84
523.75	34960.58
523.92	35091.65
524.10	35222.72
524.27	35772.75
524.44	35592.53
524.61	35225.06
524.78	35285.92
524.96	35896.80
525.13	35669.76
525.30	35398.26
525.47	35864.03
525.64	35754.02
525.81	35592.53
525.98	35840.62
526.16	35887.43
526.33	35749.34
526.50	36442.14
526.67	35536.35
526.84	36610.66
527.01	36245.54
527.18	36156.60
527.36	36273.62
527.53	36093.40
527.70	36470.23
527.87	36624.70
528.04	36444.48
528.21	36524.06
528.38	36580.23
528.55	36713.64
528.72	37050.68
528.89	36907.91
529.07	36797.90
529.24	36484.27
529.41	36907.91
529.58	36601.30
529.75	36669.17
529.92	36795.56
530.09	37067.06
530.26	37270.69
530.43	37212.18
530.60	37137.28
530.77	36992.17
530.94	37378.36
531.11	37207.50
531.28	37188.77
531.46	37570.28
531.63	37610.07
531.80	37855.82
531.97	37883.91
532.14	37963.49
532.31	37928.38
532.48	37839.44
532.65	37912.00
532.82	38213.93
532.99	38080.52
533.16	37766.88
533.33	38433.94
533.50	38272.44
533.67	38234.99
533.84	37912.00
534.01	38263.08
534.18	38230.31
534.35	38096.90
534.52	38831.83
534.69	38941.83
534.86	38897.36
535.03	38792.04
535.20	38576.71
535.37	39115.03
535.54	38700.76
535.71	38693.74
535.88	39117.37
536.05	38859.91
536.22	38897.36
536.38	39026.09
536.55	39274.19
536.72	39409.94
536.89	39138.44
537.06	39332.70
537.23	39550.37
537.40	39271.85
537.57	39440.37
537.74	39360.79
537.91	39969.33
538.08	39852.30
538.25	39108.01
538.42	39562.08
538.59	39959.97
538.75	39510.58
538.92	40201.04
539.09	40039.54
539.26	39695.49
539.43	39931.88
539.60	39754.00
539.77	40182.32
539.94	40280.62
540.11	39974.01
540.28	40336.79
540.44	40084.01
540.61	40072.31
540.78	40217.43
540.95	40598.93
541.12	39962.31
541.29	40390.62
541.46	40362.54
541.62	40343.81
541.79	40978.10
541.96	40105.08
542.13	40149.55
542.30	40779.15
542.47	41017.89
542.63	40832.99
542.80	41116.19
542.97	41273.01
543.14	41022.57
543.31	41223.86
543.48	41291.73
543.64	41673.24
543.81	41673.24
543.98	41364.29
544.15	41532.81
544.32	41663.88
544.48	41855.80
544.65	41984.53
544.82	41832.39
544.99	41118.53
545.16	41614.72
545.32	41439.18
545.49	41947.08
545.66	42038.36
545.83	41900.27
546.00	42256.03
546.16	41771.54
546.33	41521.10
546.50	42061.77
546.67	42284.12
546.83	42071.13
547.00	41745.80
547.17	42265.39
547.34	42014.96
547.50	42848.19
547.67	42745.20
547.84	42396.46
548.00	42478.38
548.17	42904.36
548.34	42522.85
548.51	43049.47
548.67	42756.91
548.84	42813.08
549.01	42937.13
549.18	42569.66
549.34	42967.55
549.51	42890.32
549.68	43150.12
549.84	42855.21
550.01	43283.53
550.18	42932.45
550.34	43304.59
550.51	43456.73
550.68	42895.00
550.84	42560.30
551.01	43381.83
551.18	43023.73
551.34	43077.56
551.51	43339.70
551.68	43143.09
551.84	43215.65
552.01	43304.59
552.18	43250.76
552.34	42808.40
552.51	43625.25
552.68	43196.93
552.84	43313.95
553.01	44165.91
553.18	43833.55
553.34	43842.92
553.51	43356.08
553.67	43683.76
553.84	43995.05
554.01	44041.86
554.17	43538.65
554.34	43454.39
554.51	43817.17
554.67	44009.09
554.84	43941.22
555.00	43873.34
555.17	44215.06
555.33	44257.19
555.50	44119.10
555.67	44030.16
555.83	43786.74
556.00	44191.65
556.16	44673.81
556.33	44292.30
556.50	44261.87
556.66	44568.48
556.83	43915.47
556.99	44453.79
557.16	44865.73
557.32	44804.88
557.49	44737.00
557.65	44311.02
557.82	44722.96
557.98	44172.93
558.15	44224.42
558.32	44804.88
558.48	44559.12
558.65	44603.59
558.81	44641.04
558.98	44811.90
559.14	44612.95
559.31	44594.23
559.47	44355.49
559.64	44416.35
559.80	45104.46
559.97	44601.25
560.13	44531.03
560.30	44474.86
560.46	45165.32
560.63	45181.70
560.79	45378.31
560.96	45067.02
561.12	45415.76
561.29	44903.18
561.45	44727.64
561.61	44727.64
561.78	45282.34
561.94	45179.36
562.11	44898.50
562.27	44935.95
562.44	45254.26
562.60	45219.15
562.77	45500.01
562.93	45277.66
563.10	45500.01
563.26	45179.36
563.42	45755.13
563.59	45261.28
563.75	45106.80
563.92	45507.04
564.08	45298.73
564.24	45780.88
564.41	45205.11
564.57	45361.92
564.74	45544.48
564.90	45329.16
565.07	45354.90
565.23	45551.51
565.39	45916.63
565.56	45532.78
565.72	45570.23
565.88	45595.98
566.05	45654.49
566.21	45677.90
566.38	45727.05
566.54	45741.09
566.70	46078.13
566.87	45315.11
567.03	45670.87
567.19	45869.82
567.36	45619.38
567.52	46094.51
567.68	46202.18
567.85	45846.41
568.01	45858.12
568.17	45710.66
568.34	45701.30
568.50	46223.24
568.66	46120.26
568.83	45811.31
568.99	45832.37
569.15	45895.56
569.32	45867.48
569.48	46045.36
569.64	46410.48
569.81	46366.01
569.97	46071.10
570.13	46043.02
570.30	45684.92
570.46	46506.44
570.62	45963.44
570.78	46263.03
570.95	46068.76
571.11	46080.47
571.27	46099.19
571.43	45703.64
571.60	46043.02
571.76	46078.13
571.92	45867.48
572.09	46007.91
572.25	45806.62
572.41	45769.18
572.57	46019.61
572.74	46316.86
572.90	46211.54
573.06	46248.99
573.22	46443.25
573.38	46326.22
573.55	46260.69
573.71	46646.88
573.87	46473.68
574.03	46494.74
574.20	46356.65
574.36	46223.24
574.52	46431.55
574.68	46349.63
574.84	46820.08
575.01	47035.41
575.17	46660.92
575.33	46110.89
575.49	46120.26
575.65	46337.93
575.82	46473.68
575.98	46143.66
576.14	46478.36
576.30	46670.28
576.46	46031.32
576.62	46473.68
576.79	46532.19
576.95	46560.28
577.11	46237.28
577.27	46820.08
577.43	46330.90
577.59	46567.30
577.75	46806.03
577.92	46216.22
578.08	46183.45
578.24	46394.10
578.40	46686.67
578.56	47030.72
578.72	46515.81
578.88	46656.24
579.04	46284.09
579.21	46284.09
579.37	46230.26
579.53	46569.64
579.69	46358.99
579.85	46478.36
580.01	46050.04
580.17	46623.47
580.33	46649.22
580.49	46579.00
580.65	46946.47
580.82	46824.76
580.98	46689.01
581.14	46396.44
581.30	46974.55
581.46	46621.13
581.62	46433.89
581.78	46405.80
581.94	46555.60
582.10	46789.65
582.26	46843.48
582.42	46319.20
582.58	46646.88
582.74	46841.14
582.90	46857.52
583.06	47136.05
583.22	46461.97
583.38	46597.73
583.54	46656.24
583.70	46878.59
583.86	46679.64
584.02	46492.40
584.18	46670.28
584.34	47002.64
584.50	46721.77
584.66	46539.21
584.82	47178.18
584.98	47367.76
585.14	46859.87
585.30	46501.76
585.46	46672.62
585.62	46831.78
585.78	46960.51
585.94	46361.33
586.10	46836.46
586.26	46398.78
586.42	47143.07
586.58	46979.23
586.74	46749.86
586.90	46656.24
587.06	47180.52
587.22	46766.24
587.38	46581.34
587.54	47283.50
587.70	46838.80
587.86	47311.59
588.02	46632.83
588.18	46623.47
588.34	46813.05
588.49	46761.56
588.65	46831.78
588.81	46796.67
588.97	47129.03
589.13	46906.68
589.29	46784.97
589.45	46972.21
589.61	47117.32
589.77	47421.59
589.93	47267.12
590.08	46958.17
