SpectraSuite Data File
++++++++++++++++++++++++++++++++++++
Date: Fri Oct 25 11:25:09 EDT 2013
User: price-jones
Dark Spectrum Present: No
Reference Spectrum Present: No
Number of Sampled Component Spectra: 1
Spectrometers: USB2+H05261
Integration Time (usec): 100000 (USB2+H05261)
Spectra Averaged: 1 (USB2+H05261)
Boxcar Smoothing: 0 (USB2+H05261)
Correct for Electrical Dark: No (USB2+H05261)
Strobe/Lamp Enabled: No (USB2+H05261)
Correct for Detector Non-linearity: No (USB2+H05261)
Correct for Stray Light: No (USB2+H05261)
Number of Pixels in Processed Spectrum: 2048
>>>>>Begin Processed Spectral Data<<<<<
365.73	191.92
365.92	191.92
366.12	191.92
366.32	128.73
366.52	159.16
366.72	147.45
366.91	149.79
367.11	100.64
367.31	88.94
367.51	140.43
367.70	110.01
367.90	161.50
368.10	180.22
368.30	154.48
368.49	187.24
368.69	119.37
368.89	168.52
369.09	168.52
369.28	191.92
369.48	231.71
369.68	184.90
369.87	248.10
370.07	182.56
370.27	248.10
370.47	358.10
370.66	622.58
370.86	690.46
371.06	711.52
371.25	592.16
371.45	702.16
371.65	676.41
371.84	662.37
372.04	699.82
372.24	751.31
372.44	774.72
372.63	739.61
372.83	716.20
373.03	711.52
373.22	739.61
373.42	716.20
373.62	779.40
373.81	866.00
374.01	812.17
374.21	868.34
374.40	819.19
374.60	784.08
374.79	755.99
374.99	809.83
375.19	807.48
375.38	826.21
375.58	819.19
375.78	835.57
375.97	868.34
376.17	952.60
376.37	819.19
376.56	873.02
376.76	816.85
376.95	896.43
377.15	889.40
377.35	849.61
377.54	912.81
377.74	837.91
377.93	887.06
378.13	959.62
378.33	980.68
378.52	905.79
378.72	961.96
378.91	919.83
379.11	910.47
379.31	891.74
379.50	889.40
379.70	1008.77
379.89	957.28
380.09	1011.11
380.28	936.21
380.48	863.66
380.68	917.49
380.87	936.21
381.07	1043.88
381.26	987.71
381.46	1015.79
381.65	1062.60
381.85	1069.62
382.04	985.37
382.24	978.34
382.43	1050.90
382.63	1071.97
382.83	1083.67
383.02	1093.03
383.22	1135.16
383.41	1116.44
383.61	1151.54
383.80	1163.25
384.00	1142.18
384.19	1121.12
384.39	1107.07
384.58	1093.03
384.78	1109.41
384.97	1165.59
385.17	1111.75
385.36	1146.86
385.56	1186.65
385.75	1170.27
385.95	1174.95
386.14	1252.19
386.34	1081.33
386.53	1203.04
386.72	1235.80
386.92	1266.23
387.11	1226.44
387.31	1327.08
387.50	1174.95
387.70	1259.21
387.89	1252.19
388.09	1364.53
388.28	1259.21
388.48	1217.08
388.67	1336.45
388.86	1306.02
389.06	1287.29
389.25	1331.76
389.45	1310.70
389.64	1308.36
389.84	1441.77
390.03	1413.68
390.22	1383.26
390.42	1453.47
390.61	1413.68
390.81	1343.47
391.00	1362.19
391.19	1432.41
391.39	1460.49
391.58	1437.09
391.78	1504.96
391.97	1502.62
392.16	1385.60
392.36	1516.67
392.55	1432.41
392.75	1504.96
392.94	1465.18
393.13	1500.28
393.33	1488.58
393.52	1526.03
393.71	1610.29
393.91	1600.93
394.10	1607.95
394.29	1645.40
394.49	1554.12
394.68	1640.72
394.88	1540.07
395.07	1643.06
395.26	1619.65
395.46	1760.08
395.65	1727.32
395.84	1827.96
396.04	1832.64
396.23	1762.42
396.42	1785.83
396.62	1717.95
396.81	1741.36
397.00	1736.68
397.19	1750.72
397.39	1692.21
397.58	1830.30
397.77	1797.53
397.97	1849.02
398.16	1923.92
398.35	1863.07
398.55	1900.52
398.74	1909.88
398.93	1984.77
399.12	1935.62
399.32	1900.52
399.51	1942.64
399.70	2012.86
399.90	1919.24
400.09	1952.01
400.28	2108.82
400.47	1968.39
400.67	2080.74
400.86	2005.84
401.05	2078.40
401.24	2106.48
401.44	2062.01
401.63	2111.16
401.82	2113.50
402.01	2101.80
402.21	2265.64
402.40	2211.81
402.59	2223.51
402.78	2111.16
402.97	2200.10
403.17	2310.11
403.36	2153.29
403.55	2237.55
403.74	2293.72
403.93	2394.37
404.13	2265.64
404.32	2289.04
404.51	2394.37
404.70	2314.79
404.89	2359.26
405.09	2401.39
405.28	2466.92
405.47	2443.52
405.66	2534.80
405.85	2534.80
406.05	2466.92
406.24	2597.99
406.43	2525.44
406.62	2532.46
406.81	2698.64
407.00	2572.25
407.20	2558.21
407.39	2541.82
407.58	2703.32
407.77	2738.43
407.96	2736.09
408.15	2796.94
408.34	2691.62
408.54	2803.96
408.73	2932.69
408.92	2736.09
409.11	2766.51
409.30	2834.39
409.49	2897.58
409.68	2918.65
409.87	2899.92
410.07	2904.60
410.26	2977.16
410.45	2913.97
410.64	2923.33
410.83	3098.87
411.02	3040.36
411.21	3133.98
411.40	3122.27
411.59	3239.30
411.78	3166.74
411.98	3155.04
412.17	3272.07
412.36	3190.15
412.55	3372.71
412.74	3417.18
412.93	3419.52
413.12	3452.29
413.31	3531.87
413.50	3382.07
413.69	3454.63
413.88	3613.79
414.07	3595.06
414.26	3522.51
414.45	3651.24
414.64	3655.92
414.83	3789.33
415.02	3639.53
415.22	3852.52
415.41	3798.69
415.60	3843.16
415.79	3854.86
415.98	3887.63
416.17	4002.32
416.36	3850.18
416.55	3922.74
416.74	4152.11
416.93	4046.79
417.12	4138.07
417.31	4081.89
417.50	4166.15
417.69	4191.90
417.88	4198.92
418.07	4238.71
418.26	4212.96
418.45	4332.33
418.64	4435.32
418.83	4451.70
419.02	4425.95
419.21	4582.77
419.39	4379.14
419.58	4482.13
419.77	4369.78
419.96	4564.04
420.15	4491.49
420.34	4491.49
420.53	4552.34
420.72	4685.75
420.91	4636.60
421.10	4643.62
421.29	4704.48
421.48	4559.36
421.67	4819.16
421.86	4713.84
422.05	4772.35
422.24	4678.73
422.43	4858.95
422.61	4865.97
422.80	4887.04
422.99	4894.06
423.18	4816.82
423.37	5027.47
423.56	5022.79
423.75	4971.30
423.94	4819.16
424.13	4470.42
424.32	4709.16
424.50	4861.29
424.69	5036.83
424.88	5050.88
425.07	4882.36
425.26	4873.00
425.45	4966.62
425.64	4919.81
425.83	4929.17
426.01	4929.17
426.20	5121.09
426.39	4933.85
426.58	4889.38
426.77	5027.47
426.96	5093.01
427.15	5128.11
427.33	5193.65
427.52	5195.99
427.71	5252.16
427.90	5242.80
428.09	5331.74
428.28	5284.93
428.46	5331.74
428.65	5294.29
428.84	5406.64
429.03	5483.88
429.22	5277.91
429.40	5607.92
429.59	5313.02
429.78	5310.68
429.97	5408.98
430.16	5591.54
430.34	5521.32
430.53	5692.18
430.72	5792.83
430.91	5617.29
431.10	5579.84
431.28	5624.31
431.47	5738.99
431.66	5809.21
431.85	5753.04
432.03	5816.23
432.22	5905.17
432.41	5853.68
432.60	5933.26
432.79	5734.31
432.97	5778.78
433.16	6113.48
433.35	5954.32
433.54	5921.56
433.72	6167.31
433.91	6071.35
434.10	6188.38
434.28	6162.63
434.47	6176.67
434.66	6242.21
434.85	6148.59
435.03	6441.15
435.22	6326.47
435.41	6471.58
435.59	6317.11
435.78	6352.21
435.97	6303.06
436.16	6366.26
436.34	6345.19
436.53	6424.77
436.72	6539.46
436.90	6619.04
437.09	6651.80
437.28	6389.66
437.46	6665.85
437.65	6401.37
437.84	6750.10
438.02	6719.68
438.21	6640.10
438.40	6649.46
438.58	6750.10
438.77	6871.81
438.96	6792.23
439.14	6967.77
439.33	7066.08
439.52	7066.08
439.70	7302.47
439.89	7180.76
440.08	7293.11
440.26	7176.08
440.45	7323.54
440.63	7520.14
440.82	7412.48
441.01	7529.50
441.19	7625.47
441.38	7517.80
441.57	7824.41
441.75	7562.27
441.94	7962.50
442.12	7864.20
442.31	7922.71
442.50	7969.52
442.68	7847.82
442.87	8114.64
443.05	8063.15
443.24	8175.49
443.43	8053.78
443.61	8173.15
443.80	8397.84
443.98	8126.34
444.17	7889.95
444.35	8135.70
444.54	8231.66
444.73	8283.16
444.91	8222.30
445.10	8273.79
445.28	8187.19
445.47	8161.45
445.65	8222.30
445.84	8327.63
446.02	8451.67
446.21	8315.92
446.39	8276.13
446.58	8369.76
446.77	8430.61
446.95	8339.33
447.14	8454.02
447.32	8643.60
447.51	8496.14
447.69	8458.70
447.88	8559.34
448.06	8601.47
448.25	8603.81
448.43	8498.49
448.62	8528.91
448.80	8662.32
448.99	8517.21
449.17	8746.58
449.36	8657.64
449.54	8800.41
449.73	8737.22
449.91	8894.04
450.10	8835.52
450.28	9132.77
450.46	8844.88
450.65	8823.82
450.83	9144.47
451.02	8861.27
451.20	8973.61
451.39	8982.98
451.57	9020.42
451.76	8966.59
451.94	8994.68
452.13	9165.54
452.31	9462.79
452.49	9015.74
452.68	9100.00
452.86	9128.09
453.05	9397.25
453.23	9460.45
453.42	9188.94
453.60	9174.90
453.78	9474.49
453.97	9348.10
454.15	9338.74
454.34	9444.06
454.52	9523.64
454.70	9540.02
454.89	9757.69
455.07	9671.09
455.26	9818.55
455.44	9689.82
455.62	9816.21
455.81	9848.97
455.99	9888.76
456.17	9858.34
456.36	10080.69
456.54	10122.82
456.73	10207.08
456.91	10492.62
457.09	10399.00
457.28	10361.55
457.46	10380.28
457.64	10689.23
457.83	10445.81
458.01	10373.25
458.19	10808.59
458.38	10464.54
458.56	10588.58
458.74	10509.01
458.93	10614.33
459.11	10623.69
459.29	10757.10
459.48	10864.77
459.66	10721.99
459.84	10768.80
460.03	10963.07
460.21	10918.60
460.39	11033.29
460.57	10597.95
460.76	10937.32
460.94	11124.57
461.12	11183.08
461.31	10853.06
461.49	11063.71
461.67	11204.14
461.85	11456.92
462.04	11173.72
462.22	11620.76
462.40	11449.90
462.59	11410.11
462.77	11330.53
462.95	11536.50
463.13	11473.31
463.32	11552.88
463.50	11892.26
463.68	11672.25
463.86	11829.07
464.05	11496.71
464.23	11599.70
464.41	11800.98
464.59	11592.67
464.78	12100.57
464.96	11946.09
465.14	11770.55
465.32	12067.80
465.50	12290.15
465.69	12072.48
465.87	11943.75
466.05	12088.87
466.23	12154.40
466.41	12294.83
466.60	12156.74
466.78	12126.32
466.96	12194.19
467.14	12187.17
467.32	11887.58
467.51	12542.93
467.69	12058.44
467.87	12484.42
468.05	12355.69
468.23	12245.68
468.41	12552.29
468.60	12362.71
468.78	12608.47
468.96	12629.53
469.14	12643.57
469.32	13048.49
469.50	12669.32
469.69	12999.34
469.87	12767.62
470.05	13062.53
470.23	13254.45
470.41	13275.52
470.59	13149.13
470.77	13029.76
470.95	13298.92
471.14	13231.05
471.32	13226.37
471.50	13750.65
471.68	13720.22
471.86	13645.32
472.04	13614.90
472.22	14099.39
472.40	13397.23
472.58	13762.35
472.77	13797.46
472.95	14031.51
473.13	14637.71
473.31	14108.75
473.49	13799.80
473.67	14242.16
473.85	14450.47
474.03	14420.04
474.21	14476.21
474.39	14691.54
474.57	14614.30
474.75	14698.56
474.93	14925.60
475.12	14853.04
475.30	15096.46
475.48	14984.11
475.66	14984.11
475.84	15150.29
476.02	15346.89
476.20	15346.89
476.38	15653.50
476.56	15990.54
476.74	15903.94
476.92	15906.28
477.10	15620.74
477.28	16058.42
477.46	15915.64
477.64	16381.41
477.82	16505.46
478.00	16863.56
478.18	16671.64
478.36	17039.10
478.54	17090.59
478.72	16861.22
478.90	17193.58
479.08	17584.44
479.26	17579.76
479.44	17530.61
479.62	17823.18
479.80	17799.77
479.98	18235.11
480.16	18436.40
480.34	18153.20
480.52	18569.81
480.70	18778.12
480.88	18583.85
481.06	18508.96
481.24	18735.99
481.41	19019.19
481.59	19433.47
481.77	19487.30
481.95	19297.72
482.13	19330.48
482.31	19550.49
482.49	20325.21
482.67	19798.59
482.85	20493.73
483.03	20524.16
483.21	20720.76
483.39	20718.42
483.57	20868.22
483.74	21186.53
483.92	21268.45
484.10	20776.94
484.28	21631.23
484.46	21738.90
484.64	22237.43
484.82	21951.88
485.00	22504.25
485.18	22698.52
485.35	22981.72
485.53	22661.07
485.71	22696.17
485.89	23136.20
486.07	23164.28
486.25	22862.35
486.43	23269.61
486.61	23541.11
486.78	23931.98
486.96	23955.38
487.14	24287.74
487.32	24748.82
487.50	24788.61
487.68	24690.31
487.85	24779.25
488.03	25249.70
488.21	25682.70
488.39	25736.53
488.57	25872.28
488.75	25809.09
488.92	26176.55
489.10	26438.69
489.28	26558.06
489.46	26857.65
489.64	26911.48
489.81	27356.18
489.99	27075.32
490.17	27515.34
490.35	28144.94
490.53	28037.28
490.70	28325.16
490.88	27950.68
491.06	28671.56
491.24	28601.35
491.41	28783.91
491.59	29223.93
491.77	28882.21
491.95	29364.36
492.13	29879.28
492.30	29809.06
492.48	29888.64
492.66	30228.02
492.84	29963.54
493.01	30611.87
493.19	30209.29
493.37	31117.42
493.54	31206.36
493.72	31482.55
493.90	31508.29
494.08	31585.53
494.25	31559.78
494.43	31842.99
494.61	32231.52
494.79	32123.85
494.96	32177.68
495.14	32488.98
495.32	32994.53
495.49	32781.54
495.67	32680.90
495.85	33244.97
496.02	33406.47
496.20	33890.96
496.38	33586.69
496.55	33879.25
496.73	34607.16
496.91	34492.47
497.09	34719.51
497.26	34754.61
497.44	34806.11
497.62	35129.10
497.79	35735.30
497.97	35522.31
498.14	35859.35
498.32	36308.73
498.50	36093.40
498.67	36367.24
498.85	36016.16
499.03	36465.55
499.20	36500.65
499.38	36699.60
499.56	37163.03
499.73	37067.06
499.91	37116.22
500.08	37354.95
500.26	36992.17
500.44	37635.81
500.61	37345.59
500.79	37668.58
500.97	38256.06
501.14	38087.54
501.32	37975.19
501.49	38483.09
501.67	38707.78
501.84	38815.44
502.02	38693.74
502.20	38717.14
502.37	38693.74
502.55	39035.45
502.72	39098.65
502.90	39379.51
503.07	39590.16
503.25	39590.16
503.43	39119.71
503.60	40149.55
503.78	40074.65
503.95	40236.15
504.13	40512.33
504.30	40212.74
504.48	40184.66
504.65	40570.85
504.83	40587.23
505.01	40479.57
505.18	40374.24
505.36	41640.47
505.53	41050.66
505.71	41249.60
505.88	41544.51
506.06	41057.68
506.23	41633.45
506.41	41900.27
506.58	41972.83
506.76	41808.99
506.93	42419.87
507.11	41752.82
507.28	41923.68
507.46	42459.66
507.63	42534.56
507.81	43302.25
507.98	42766.27
508.16	42972.24
508.33	43344.38
508.50	43313.95
508.68	43367.79
508.85	43838.23
509.03	43428.64
509.20	43920.15
509.38	43973.98
509.55	44102.71
509.73	44296.98
509.90	44669.12
510.08	44231.44
510.25	44306.34
510.42	44442.09
510.60	44683.17
510.77	44758.06
510.95	45132.55
511.12	44708.91
511.30	44809.56
511.47	45350.22
511.64	45331.50
511.82	45944.72
511.99	45488.31
512.17	45682.58
512.34	46101.53
512.51	45925.99
512.69	46101.53
512.86	46110.89
513.04	46246.65
513.21	46471.34
513.38	46459.63
513.56	46787.31
513.73	46791.99
513.90	46911.36
514.08	47012.00
514.25	46801.35
514.43	47079.88
514.60	47255.42
514.77	47241.37
514.95	47416.91
515.12	47400.53
515.29	47405.21
515.47	47655.65
515.64	47927.15
515.81	47636.92
515.99	47793.74
516.16	48418.66
516.33	47800.76
516.51	48280.57
516.68	48009.07
516.85	48123.75
517.03	48545.05
517.20	48818.89
517.37	48397.60
517.54	48474.84
517.72	48992.09
517.89	49083.37
518.06	48732.29
518.24	48657.40
518.41	48891.45
518.58	49518.71
518.75	49195.72
518.93	49193.38
519.10	49027.20
519.27	49394.67
519.45	49677.87
519.62	49745.75
519.79	49443.82
519.96	49443.82
520.14	50010.23
520.31	49911.92
520.48	50216.19
520.65	50347.26
520.83	50340.24
521.00	50162.36
521.17	50349.60
521.34	50600.04
521.52	50686.64
521.69	50499.40
521.86	50955.80
522.03	51117.30
522.20	51042.40
522.38	51126.66
522.55	51114.96
522.72	51234.33
522.89	50782.60
523.07	51459.02
523.24	51037.72
523.41	51239.01
523.58	51231.99
523.75	51690.73
523.92	51615.83
524.10	51618.17
524.27	51805.42
524.44	51922.44
524.61	51997.34
524.78	52020.75
524.96	52086.28
525.13	52205.65
525.30	52107.35
525.47	52519.28
525.64	51962.23
525.81	52416.30
525.98	52538.01
526.16	52406.94
526.33	52523.96
526.50	52629.29
526.67	52315.65
526.84	52921.85
527.01	52720.57
527.18	52729.93
527.36	52648.01
527.53	53134.84
527.70	53490.60
527.87	53172.29
528.04	52992.07
528.21	53209.74
528.38	53312.72
528.55	53361.87
528.72	52973.34
528.89	53289.32
529.07	53312.72
529.24	53062.29
529.41	53670.82
529.58	53385.28
529.75	53432.09
529.92	53497.62
530.09	53579.54
530.26	53549.12
530.43	53982.12
530.60	53382.94
530.77	53752.74
530.94	53907.22
531.11	53820.62
531.28	54057.01
531.46	53998.50
531.63	53937.65
531.80	53954.03
531.97	54375.33
532.14	54504.06
532.31	54157.66
532.48	54293.41
532.65	54834.07
532.82	54377.67
532.99	54391.71
533.16	54255.96
533.33	54436.18
533.50	54745.13
533.67	54536.82
533.84	54312.13
534.01	54686.62
534.18	54731.09
534.35	55014.29
534.52	54948.76
534.69	54918.33
534.86	54948.76
535.03	55021.31
535.20	54960.46
535.37	55260.05
535.54	55246.00
535.71	55159.41
535.88	54941.74
536.05	55356.01
536.22	55348.99
536.38	55529.21
536.55	55334.95
536.72	55257.71
536.89	55302.18
537.06	55482.40
537.23	55608.79
537.40	55203.88
537.57	55351.33
537.74	55625.17
537.91	55800.71
538.08	55456.65
538.25	55587.72
538.42	55449.63
538.59	55994.98
538.75	55781.99
538.92	56065.19
539.09	55922.42
539.26	56046.47
539.43	55749.22
539.60	56055.83
539.77	56046.47
539.94	56226.69
540.11	56114.34
540.28	56081.58
540.44	56371.80
540.61	56226.69
540.78	56385.85
540.95	56158.81
541.12	56229.03
541.29	56348.40
541.46	56446.70
541.62	56336.69
541.79	56222.01
541.96	56133.07
542.13	56484.15
542.30	56624.58
542.47	56713.52
542.63	56594.15
542.80	56774.37
542.97	56959.28
543.14	57038.86
543.31	56919.49
543.48	57167.58
543.64	57375.89
543.81	57162.90
543.98	57113.75
544.15	57174.61
544.32	57036.51
544.48	57558.45
544.65	57359.51
544.82	57394.62
544.99	57111.41
545.16	57448.45
545.32	57155.88
545.49	57364.19
545.66	57687.18
545.83	57553.77
546.00	57502.28
546.16	57600.58
546.33	57275.25
546.50	57513.98
546.67	57581.86
546.83	57436.75
547.00	57497.60
547.17	57441.43
547.34	57736.34
547.50	57963.37
547.67	58150.61
547.84	57710.59
548.00	57937.62
548.17	58024.22
548.34	58085.07
548.51	58171.67
548.67	58164.65
548.84	58033.58
549.01	58075.71
549.18	57832.30
549.34	58103.80
549.51	58248.91
549.68	58148.27
549.84	58216.14
550.01	58394.03
550.18	58295.72
550.34	58408.07
550.51	58358.92
550.68	58164.65
550.84	58038.26
551.01	58204.44
551.18	58307.43
551.34	58475.94
551.51	58452.54
551.68	58499.35
551.84	58344.87
552.01	58518.07
552.18	58422.11
552.34	58234.87
552.51	58307.43
552.68	58506.37
552.84	58450.20
553.01	58972.14
553.18	58487.65
553.34	58602.33
553.51	58391.68
553.67	58714.68
553.84	58679.57
554.01	58801.28
554.17	58845.75
554.34	58995.54
554.51	58775.53
554.67	58759.15
554.84	58815.32
555.00	59007.25
555.17	58965.12
555.33	58798.94
555.50	58705.32
555.67	58780.21
555.83	58922.99
556.00	58981.50
556.16	59458.97
556.33	59138.32
556.50	59061.08
556.66	59215.55
556.83	59065.76
556.99	59292.79
557.16	59355.99
557.32	59323.22
557.49	59592.38
557.65	59143.00
557.82	59269.39
557.98	59260.02
558.15	59524.50
558.32	59224.92
558.48	59353.65
558.65	59381.73
558.81	59409.82
558.98	59309.18
559.14	59634.51
559.31	59554.93
559.47	59547.91
559.64	59634.51
559.80	59470.67
559.97	59503.44
560.13	59629.83
560.30	59482.37
560.46	59634.51
560.63	59653.23
560.79	59608.76
560.96	59728.13
561.12	59594.72
561.29	59664.94
561.45	59646.21
561.61	59571.32
561.78	59678.98
561.94	59597.06
562.11	59634.51
562.27	59854.52
562.44	59868.56
562.60	60023.04
562.77	59898.99
562.93	59620.47
563.10	59896.65
563.26	59840.48
563.42	60011.34
563.59	59765.58
563.75	59922.40
563.92	59962.18
564.08	59833.46
564.24	59824.09
564.41	59964.52
564.57	60023.04
564.74	60165.81
564.90	59938.78
565.07	60011.34
565.23	60037.08
565.39	59971.55
565.56	60072.19
565.72	59856.86
565.88	60097.94
566.05	59817.07
566.21	60076.87
566.38	59887.29
566.54	59997.29
566.70	60224.32
566.87	60104.96
567.03	60001.97
567.19	60416.25
567.36	60200.92
567.52	59999.63
567.68	60189.22
567.85	60165.81
568.01	60371.78
568.17	60198.58
568.34	60331.99
568.50	60266.45
568.66	60168.15
568.83	60348.37
568.99	60212.62
569.15	60273.48
569.32	60411.57
569.48	60144.75
569.64	60240.71
569.81	60385.82
569.97	60161.13
570.13	60296.88
570.30	60303.90
570.46	60533.28
570.62	60240.71
570.78	60144.75
570.95	60453.70
571.11	60547.32
571.27	60245.39
571.43	60425.61
571.60	60371.78
571.76	60425.61
571.92	60608.17
572.09	60507.53
572.25	60430.29
572.41	60491.15
572.57	60287.52
572.74	60917.12
572.90	60406.89
573.06	60294.54
573.22	60409.23
573.38	60481.78
573.55	60491.15
573.71	60846.91
573.87	60624.56
574.03	60505.19
574.20	60654.98
574.36	60348.37
574.52	60467.74
574.68	60535.62
574.84	60692.43
575.01	60559.02
575.17	60699.45
575.33	60495.83
575.49	60406.89
575.65	60760.31
575.82	60898.40
575.98	60638.60
576.14	60554.34
576.30	60757.97
576.46	60680.73
576.62	60582.43
576.79	60729.88
576.95	60652.64
577.11	60605.83
577.27	60718.18
577.43	60743.92
577.59	60549.66
577.75	60402.21
577.92	60601.15
578.08	60849.25
578.24	60727.54
578.40	60935.85
578.56	60835.20
578.72	60898.40
578.88	60830.52
579.04	60811.80
579.21	60638.60
579.37	60797.76
579.53	60650.30
579.69	60324.97
579.85	60776.69
580.01	60425.61
580.17	60673.71
580.33	60914.78
580.49	60921.80
580.65	60844.57
580.82	60797.76
580.98	60580.09
581.14	60654.98
581.30	60877.33
581.46	60680.73
581.62	60662.00
581.78	60582.43
581.94	60573.06
582.10	60743.92
582.26	60814.14
582.42	60739.24
582.58	60748.60
582.74	60760.31
582.90	60786.05
583.06	60671.37
583.22	60652.64
583.38	60835.20
583.54	60706.47
583.70	60786.05
583.86	60828.18
584.02	60662.00
584.18	60818.82
584.34	60690.09
584.50	60846.91
584.66	60851.59
584.82	60811.80
584.98	61036.49
585.14	60919.46
585.30	60970.96
585.46	60970.96
585.62	60795.42
585.78	60989.68
585.94	61034.15
586.10	60708.82
586.26	60764.99
586.42	60919.46
586.58	60837.54
586.74	61001.38
586.90	61080.96
587.06	60706.47
587.22	60856.27
587.38	60867.97
587.54	61106.71
587.70	61144.16
587.86	61022.45
588.02	60800.10
588.18	60907.76
588.34	60870.31
588.49	60809.46
