SpectraSuite Data File
++++++++++++++++++++++++++++++++++++
Date: Fri Oct 25 11:23:28 EDT 2013
User: price-jones
Dark Spectrum Present: No
Reference Spectrum Present: No
Number of Sampled Component Spectra: 1
Spectrometers: USB2+H05261
Integration Time (usec): 100000 (USB2+H05261)
Spectra Averaged: 1 (USB2+H05261)
Boxcar Smoothing: 0 (USB2+H05261)
Correct for Electrical Dark: No (USB2+H05261)
Strobe/Lamp Enabled: No (USB2+H05261)
Correct for Detector Non-linearity: No (USB2+H05261)
Correct for Stray Light: No (USB2+H05261)
Number of Pixels in Processed Spectrum: 2048
>>>>>Begin Processed Spectral Data<<<<<
365.73	215.33
365.92	215.33
366.12	215.33
366.32	163.84
366.52	117.03
366.72	95.96
366.91	159.16
367.11	88.94
367.31	203.63
367.51	119.37
367.70	187.24
367.90	170.86
368.10	84.26
368.30	88.94
368.49	159.16
368.69	147.45
368.89	156.82
369.09	189.58
369.28	60.85
369.48	175.54
369.68	217.67
369.87	140.43
370.07	227.03
370.27	231.71
370.47	290.23
370.66	578.11
370.86	582.79
371.06	575.77
371.25	620.24
371.45	622.58
371.65	699.82
371.84	678.76
372.04	671.73
372.24	664.71
372.44	709.18
372.63	676.41
372.83	713.86
373.03	741.95
373.22	821.53
373.42	816.85
373.62	767.70
373.81	751.31
374.01	814.51
374.21	774.72
374.40	774.72
374.60	770.04
374.79	844.93
374.99	854.30
375.19	770.04
375.38	840.25
375.58	770.04
375.78	814.51
375.97	929.19
376.17	887.06
376.37	933.87
376.56	821.53
376.76	837.91
376.95	891.74
377.15	870.68
377.35	880.04
377.54	973.66
377.74	896.43
377.93	791.10
378.13	924.51
378.33	936.21
378.52	938.55
378.72	957.28
378.91	980.68
379.11	924.51
379.31	952.60
379.50	840.25
379.70	926.85
379.89	985.37
380.09	840.25
380.28	971.32
380.48	950.26
380.68	1053.24
380.87	959.62
381.07	1011.11
381.26	1025.15
381.46	1034.52
381.65	1011.11
381.85	1074.31
382.04	1004.09
382.24	983.02
382.43	1067.28
382.63	1001.75
382.83	1027.50
383.02	1109.41
383.22	1074.31
383.41	1081.33
383.61	1074.31
383.80	1095.37
384.00	1158.57
384.19	1102.39
384.39	1102.39
384.58	1083.67
384.78	1193.67
384.97	1207.72
385.17	1118.78
385.36	1153.88
385.56	1203.04
385.75	1191.33
385.95	1128.14
386.14	1228.78
386.34	1214.74
386.53	1268.57
386.72	1196.01
386.92	1219.42
387.11	1233.46
387.31	1317.72
387.50	1235.80
387.70	1289.64
387.89	1177.29
388.09	1233.46
388.28	1322.40
388.48	1362.19
388.67	1397.30
388.86	1324.74
389.06	1275.59
389.25	1357.51
389.45	1263.89
389.64	1383.26
389.84	1394.96
390.03	1348.15
390.22	1343.47
390.42	1472.20
390.61	1373.89
390.81	1329.42
391.00	1406.66
391.19	1458.15
391.39	1490.92
391.58	1481.56
391.78	1511.99
391.97	1474.54
392.16	1394.96
392.36	1547.09
392.55	1523.69
392.75	1549.43
392.94	1523.69
393.13	1600.93
393.33	1500.28
393.52	1530.71
393.71	1638.38
393.91	1596.25
394.10	1607.95
394.29	1533.05
394.49	1514.33
394.68	1692.21
394.88	1668.80
395.07	1643.06
395.26	1636.03
395.46	1678.16
395.65	1680.50
395.84	1739.02
396.04	1872.43
396.23	1675.82
396.42	1811.57
396.62	1755.40
396.81	1846.68
397.00	1809.23
397.19	1771.79
397.39	1877.11
397.58	1706.25
397.77	1846.68
397.97	1919.24
398.16	1851.36
398.35	1893.49
398.55	1804.55
398.74	1851.36
398.93	1898.17
399.12	1834.98
399.32	1856.04
399.51	1900.52
399.70	2031.58
399.90	2012.86
400.09	1909.88
400.28	2062.01
400.47	2080.74
400.67	2165.00
400.86	2176.70
401.05	2038.61
401.24	2132.23
401.44	2150.95
401.63	2092.44
401.82	2052.65
402.01	2160.31
402.21	2181.38
402.40	2204.78
402.59	2204.78
402.78	2183.72
402.97	2328.83
403.17	2190.74
403.36	2303.09
403.55	2265.64
403.74	2359.26
403.93	2338.20
404.13	2377.98
404.32	2356.92
404.51	2406.07
404.70	2413.09
404.89	2445.86
405.09	2546.50
405.28	2387.35
405.47	2506.71
405.66	2473.95
405.85	2537.14
406.05	2448.20
406.24	2626.08
406.43	2623.74
406.62	2593.31
406.81	2729.06
407.00	2609.70
407.20	2682.25
407.39	2670.55
407.58	2754.81
407.77	2785.24
407.96	2820.35
408.15	2726.72
408.34	2771.19
408.54	2768.85
408.73	2860.13
408.92	2839.07
409.11	2888.22
409.30	2810.98
409.49	2871.84
409.68	2942.05
409.87	2925.67
410.07	2890.56
410.26	2890.56
410.45	3007.59
410.64	3056.74
410.83	3108.23
411.02	3180.79
411.21	3185.47
411.40	3035.67
411.59	3260.37
411.78	3171.43
411.98	3260.37
412.17	3229.94
412.36	3269.73
412.55	3316.54
412.74	3318.88
412.93	3494.42
413.12	3342.28
413.31	3592.72
413.50	3377.39
413.69	3478.04
413.88	3517.83
414.07	3681.66
414.26	3700.39
414.45	3644.21
414.64	3768.26
414.83	3868.91
415.02	3786.99
415.22	3700.39
415.41	3899.33
415.60	3939.12
415.79	3983.59
415.98	3880.61
416.17	3908.69
416.36	3936.78
416.55	4056.15
416.74	4077.21
416.93	3999.98
417.12	4091.26
417.31	4154.45
417.50	4217.65
417.69	4344.03
417.88	4224.67
418.07	4248.07
418.26	4437.66
418.45	4388.50
418.64	4524.26
418.83	4397.87
419.02	4416.59
419.21	4386.16
419.39	4491.49
419.58	4512.55
419.77	4615.54
419.96	4634.26
420.15	4669.37
420.34	4580.43
420.53	4851.93
420.72	4819.16
420.91	4643.62
421.10	4755.97
421.29	4901.08
421.48	4784.06
421.67	4926.83
421.86	4784.06
422.05	4765.33
422.24	4765.33
422.43	4915.12
422.61	4868.31
422.80	4926.83
422.99	4802.78
423.18	4919.81
423.37	4971.30
423.56	4875.34
423.75	4788.74
423.94	4884.70
424.13	4643.62
424.32	4690.43
424.50	5034.49
424.69	5111.73
424.88	5078.96
425.07	4973.64
425.26	4826.18
425.45	5029.81
425.64	4837.89
425.83	4929.17
426.01	5195.99
426.20	4945.55
426.39	5188.97
426.58	4968.96
426.77	5149.18
426.96	5114.07
427.15	5020.45
427.33	5329.40
427.52	5233.44
427.71	5179.61
427.90	5273.23
428.09	5423.02
428.28	5359.83
428.46	5282.59
428.65	5366.85
428.84	5528.35
429.03	5558.77
429.22	5371.53
429.40	5483.88
429.59	5425.36
429.78	5336.42
429.97	5336.42
430.16	5542.39
430.34	5614.95
430.53	5636.01
430.72	5551.75
430.91	5579.84
431.10	5760.06
431.28	5804.53
431.47	5769.42
431.66	5849.00
431.85	5783.46
432.03	6069.01
432.22	5923.90
432.41	5844.32
432.60	5926.24
432.79	5844.32
432.97	6076.03
433.16	5998.79
433.35	5963.68
433.54	6085.39
433.72	6017.52
433.91	6169.65
434.10	6087.73
434.28	6050.28
434.47	6200.08
434.66	6141.57
434.85	6377.96
435.03	6333.49
435.22	6347.53
435.41	6752.45
435.59	6399.02
435.78	6487.96
435.97	6506.69
436.16	6356.90
436.34	6476.26
436.53	6612.01
436.72	6813.30
436.90	6518.39
437.09	6637.76
437.28	6494.99
437.46	6712.66
437.65	6787.55
437.84	6726.70
438.02	6612.01
438.21	6857.77
438.40	6841.39
438.58	7108.21
438.77	7002.88
438.96	7012.24
439.14	7075.44
439.33	7206.51
439.52	7187.79
439.70	7314.17
439.89	7499.08
440.08	7265.02
440.26	7379.71
440.45	7487.37
440.63	7545.89
440.82	7648.87
441.01	7665.25
441.19	7592.70
441.38	7723.77
441.57	7981.23
441.75	7875.90
441.94	8046.76
442.12	8037.40
442.31	7974.21
442.50	8070.17
442.68	8067.83
442.87	7918.03
443.05	8205.92
443.24	8236.35
443.43	8222.30
443.61	8283.16
443.80	8454.02
443.98	8063.15
444.17	7719.09
444.35	8217.62
444.54	8423.59
444.73	8152.09
444.91	8482.10
445.10	8461.04
445.28	8423.59
445.47	8416.57
445.65	8547.64
445.84	8418.91
446.02	8353.37
446.21	8458.70
446.39	8425.93
446.58	8692.75
446.77	8411.89
446.95	8404.86
447.14	8510.19
447.32	8524.23
447.51	8561.68
447.69	8510.19
447.88	8528.91
448.06	8718.50
448.25	8489.12
448.43	8779.35
448.62	8723.18
448.80	8636.58
448.99	8667.00
449.17	8777.01
449.36	8837.86
449.54	8898.72
449.73	8985.32
449.91	9186.60
450.10	8868.29
450.28	8952.55
450.46	9202.99
450.65	9247.46
450.83	9242.78
451.02	8964.25
451.20	9266.18
451.39	9130.43
451.57	9224.05
451.76	9104.68
451.94	9320.01
452.13	9296.61
452.31	9348.10
452.49	9202.99
452.68	9294.27
452.86	9165.54
453.05	9500.23
453.23	9502.58
453.42	9312.99
453.60	9488.53
453.78	9626.62
453.97	9446.40
454.15	9483.85
454.34	9582.15
454.52	9696.84
454.70	9788.12
454.89	9785.78
455.07	9851.31
455.26	9928.55
455.44	9776.42
455.62	9879.40
455.81	9853.66
455.99	10136.86
456.17	9963.66
456.36	10160.27
456.54	9991.75
456.73	10614.33
456.91	10485.60
457.09	10452.83
457.28	10839.02
457.46	10359.21
457.64	10560.50
457.83	10572.20
458.01	10298.36
458.19	10710.29
458.38	10637.73
458.56	10710.29
458.74	10794.55
458.93	10806.25
459.11	10895.19
459.29	10869.45
459.48	10824.98
459.66	10888.17
459.84	10888.17
460.03	11150.31
460.21	11257.98
460.39	10843.70
460.57	10911.58
460.76	11171.38
460.94	11138.61
461.12	11304.79
461.31	11325.85
461.49	11105.84
461.67	11044.99
461.85	11527.14
462.04	11501.39
462.22	11742.47
462.40	11590.33
462.59	11396.07
462.77	11625.44
462.95	11578.63
463.13	11548.20
463.32	11913.33
463.50	11812.68
463.68	11812.68
463.86	12032.69
464.05	11735.45
464.23	11735.45
464.41	11955.46
464.59	11864.18
464.78	12109.93
464.96	12138.02
465.14	12116.95
465.32	12128.66
465.50	12093.55
465.69	12402.50
465.87	12173.13
466.05	12156.74
466.23	12079.50
466.41	12383.77
466.60	12517.18
466.78	12250.36
466.96	12362.71
467.14	12175.47
467.32	12442.29
467.51	12725.49
467.69	12283.13
467.87	12479.74
468.05	12624.85
468.23	12290.15
468.41	12531.23
468.60	12699.75
468.78	12585.06
468.96	12725.49
469.14	12788.69
469.32	12975.93
469.50	12648.26
469.69	13032.10
469.87	13074.23
470.05	13132.75
470.23	13167.85
470.41	13205.30
470.59	13219.35
470.77	13212.32
470.95	13217.01
471.14	13474.46
471.32	13163.17
471.50	13624.26
471.68	13818.52
471.86	13881.72
472.04	13624.26
472.22	14024.49
472.40	13717.88
472.58	13767.03
472.77	14092.37
472.95	14305.35
473.13	14611.96
473.31	14485.58
473.49	14174.28
473.67	14122.79
473.85	14314.72
474.03	14469.19
474.21	14555.79
474.39	14869.42
474.57	14799.21
474.75	14831.97
474.93	15087.09
475.12	14754.74
475.30	15183.06
475.48	15040.28
475.66	15112.84
475.84	15208.80
476.02	15426.47
476.20	15365.62
476.38	15789.25
476.56	16100.55
476.74	15812.66
476.92	15744.78
477.10	15915.64
477.28	15999.90
477.46	16074.80
477.64	16507.80
477.82	16854.20
478.00	17109.32
478.18	16851.86
478.36	17088.25
478.54	16989.95
478.72	17039.10
478.90	17490.82
479.08	17802.11
479.26	18125.11
479.44	17862.97
479.62	17987.02
479.80	18307.67
479.98	18260.86
480.16	18450.44
480.34	18242.14
480.52	18916.21
480.70	18857.70
480.88	18684.50
481.06	18881.10
481.24	18815.57
481.41	19323.46
481.59	19255.59
481.77	19583.26
481.95	19707.31
482.13	19829.02
482.31	19887.53
482.49	20240.95
482.67	20360.32
482.85	20535.86
483.03	20641.18
483.21	20893.96
483.39	20952.48
483.57	20994.61
483.74	21394.84
483.92	21654.64
484.10	20924.39
484.28	21380.79
484.46	22192.96
484.64	22438.72
484.82	22188.28
485.00	22532.34
485.18	22869.37
485.35	23229.82
485.53	23150.24
485.71	23428.76
485.89	23742.39
486.07	23257.90
486.25	23522.38
486.43	23772.82
486.61	23711.97
486.78	24032.62
486.96	23981.13
487.14	24711.38
487.32	24706.70
487.50	25160.76
487.68	25050.75
487.85	25493.12
488.03	25816.11
488.21	25965.90
488.39	25603.12
488.57	26445.71
488.75	26415.29
488.92	26429.33
489.10	26857.65
489.28	26984.04
489.46	27426.40
489.64	27260.22
489.81	27857.06
489.99	28088.77
490.17	27653.43
490.35	28210.48
490.53	28467.94
490.70	28847.10
490.88	28208.14
491.06	29013.28
491.24	28552.20
491.41	29170.10
491.59	29287.12
491.77	29736.51
491.95	29666.29
492.13	30127.38
492.30	29975.24
492.48	30263.13
492.66	30132.06
492.84	30085.25
493.01	30731.23
493.19	30429.30
493.37	31269.56
493.54	31218.07
493.72	31536.38
493.90	31648.72
494.08	31971.72
494.25	32154.28
494.43	31934.27
494.61	32388.33
494.79	32404.72
494.96	32914.95
495.14	32744.09
495.32	33546.90
495.49	33017.94
495.67	33099.86
495.85	33661.58
496.02	34040.75
496.20	34185.86
496.38	34005.64
496.55	34637.59
496.73	34911.43
496.91	34883.34
497.09	35262.51
497.26	35201.66
497.44	35220.38
497.62	35569.12
497.79	35903.82
497.97	35604.23
498.14	36112.13
498.32	36505.34
498.50	36133.19
498.67	36816.63
498.85	36774.50
499.03	37062.38
499.20	36968.76
499.38	37223.88
499.56	37097.49
499.73	37806.67
499.91	37471.98
500.08	38160.09
500.26	37556.24
500.44	37869.87
500.61	37642.84
500.79	37947.11
500.97	38443.30
501.14	38916.09
501.32	38789.70
501.49	38593.09
501.67	39061.20
501.84	39257.81
502.02	39054.18
502.20	39126.74
502.37	39447.39
502.55	39681.44
502.72	39608.89
502.90	39665.06
503.07	39969.33
503.25	39864.00
503.43	39976.35
503.60	40264.24
503.78	40734.68
503.95	40889.16
504.13	41053.00
504.30	40624.68
504.48	40718.30
504.65	40924.27
504.83	41778.56
505.01	41443.87
505.18	40924.27
505.36	41794.95
505.53	41509.40
505.71	41848.78
505.88	42078.15
506.06	41954.10
506.23	42071.13
506.41	42330.93
506.58	42178.79
506.76	42349.65
506.93	42815.42
507.11	42639.88
507.28	42993.30
507.46	42642.22
507.63	42948.83
507.81	43470.77
507.98	43000.32
508.16	43477.79
508.33	43620.56
508.50	43730.57
508.68	43672.06
508.85	43856.96
509.03	43531.62
509.20	44161.23
509.38	44512.31
509.55	44526.35
509.73	44676.15
509.90	44886.79
510.08	44767.43
510.25	44715.93
510.42	45223.83
510.60	45464.91
510.77	45322.13
510.95	45579.59
511.12	45010.84
511.30	45500.01
511.47	45815.99
511.64	45970.46
511.82	45837.05
511.99	45937.69
512.17	45916.63
512.34	45986.85
512.51	46485.38
512.69	46408.14
512.86	46438.57
513.04	47086.90
513.21	47023.70
513.38	47138.39
513.56	47262.44
513.73	46770.93
513.90	47302.23
514.08	46801.35
514.25	47695.44
514.43	47515.22
514.60	47861.61
514.77	47358.40
514.95	48055.88
515.12	47667.35
515.29	48032.47
515.47	48147.16
515.64	48507.60
515.81	48360.15
515.99	48456.11
516.16	48488.88
516.33	48325.04
516.51	48680.80
516.68	49134.87
516.85	48582.50
517.03	48996.77
517.20	49301.04
517.37	48961.67
517.54	48865.70
517.72	49443.82
517.89	49013.16
518.06	49205.08
518.24	49373.60
518.41	49177.00
518.58	49581.91
518.75	49848.73
518.93	49925.97
519.10	49595.95
519.27	50014.91
519.45	49757.45
519.62	50230.24
519.79	50513.44
519.96	50494.72
520.14	50382.37
520.31	50169.38
520.48	50501.74
520.65	50976.87
520.83	51044.74
521.00	50845.80
521.17	51105.60
521.34	50962.82
521.52	51023.68
521.69	51243.69
521.86	51234.33
522.03	51227.31
522.20	51386.46
522.38	51639.24
522.55	51557.32
522.72	51295.18
522.89	51601.79
523.07	51725.84
523.24	51927.13
523.41	51686.05
523.58	51562.00
523.75	52121.39
523.92	51892.02
524.10	52327.36
524.27	52236.08
524.44	52212.67
524.61	52217.35
524.78	52360.12
524.96	52161.18
525.13	52610.56
525.30	52530.98
525.47	52704.18
525.64	52772.06
525.81	52619.92
525.98	52816.53
526.16	52825.89
526.33	52736.95
526.50	52987.39
526.67	52809.51
526.84	52912.49
527.01	52816.53
527.18	53207.40
527.36	53013.13
527.53	53301.02
527.70	53647.42
527.87	53366.55
528.04	53389.96
528.21	53677.85
528.38	53600.61
528.55	53656.78
528.72	53762.11
528.89	53490.60
529.07	53474.22
529.24	53502.31
529.41	53851.05
529.58	53846.36
529.75	53755.08
529.92	53951.69
530.09	54042.97
530.26	54138.93
530.43	54005.52
530.60	53951.69
530.77	54099.14
530.94	54113.19
531.11	54335.54
531.28	54424.48
531.46	54398.73
531.63	54492.35
531.80	54342.56
531.97	54660.87
532.14	54698.32
532.31	54773.22
532.48	54782.58
532.65	54763.85
532.82	54789.60
532.99	54930.03
533.16	54815.35
533.33	54906.63
533.50	55161.75
533.67	54925.35
533.84	54789.60
534.01	54960.46
534.18	55136.00
534.35	55365.37
534.52	55126.64
534.69	55313.88
534.86	55426.23
535.03	55505.80
535.20	55234.30
535.37	55707.09
535.54	55400.48
535.71	55267.07
535.88	55634.53
536.05	55597.09
536.22	55629.85
536.38	55554.96
536.55	55969.23
536.72	55847.52
536.89	55950.51
537.06	55686.03
537.23	55861.57
537.40	55789.01
537.57	55927.10
537.74	55927.10
537.91	56186.90
538.08	56151.79
538.25	56107.32
538.42	56065.19
538.59	56388.19
538.75	56156.47
538.92	56226.69
539.09	56170.52
539.26	56165.84
539.43	56495.85
539.60	56392.87
539.77	56411.59
539.94	56463.08
540.11	56556.70
540.28	56718.20
540.44	56767.35
540.61	56493.51
540.78	56561.39
540.95	56521.60
541.12	56683.09
541.29	56610.54
541.46	56832.89
541.62	56708.84
541.79	56690.12
541.96	56369.46
542.13	56713.52
542.30	56722.88
542.47	57069.28
542.63	57104.39
542.80	57226.10
542.97	57230.78
543.14	57291.63
543.31	57111.41
543.48	57464.83
543.64	57567.82
543.81	57312.70
543.98	57633.35
544.15	57584.20
544.32	57797.19
544.48	57628.67
544.65	57460.15
544.82	57602.92
544.99	57476.54
545.16	57647.39
545.32	57518.67
545.49	57977.41
545.66	58038.26
545.83	57855.70
546.00	57829.96
546.16	57862.72
546.33	57612.29
546.50	57485.90
546.67	57813.57
546.83	57626.33
547.00	57804.21
547.17	57984.43
547.34	58019.54
547.50	58103.80
547.67	58216.14
547.84	58155.29
548.00	58375.30
548.17	58307.43
548.34	58211.46
548.51	58401.05
548.67	58398.71
548.84	58178.70
549.01	58099.12
549.18	58349.56
549.34	58286.36
549.51	58475.94
549.68	58382.32
549.84	58585.95
550.01	58602.33
550.18	58520.41
550.34	58590.63
550.51	58805.96
550.68	58581.27
550.84	58452.54
551.01	58644.46
551.18	58705.32
551.34	58763.83
551.51	58625.74
551.68	58805.96
551.84	58738.08
552.01	58492.33
552.18	58836.39
552.34	58632.76
552.51	58717.02
552.68	58632.76
552.84	58920.65
553.01	59056.40
553.18	59007.25
553.34	59166.40
553.51	58946.39
553.67	58812.98
553.84	58965.12
554.01	59117.25
554.17	59049.38
554.34	59346.62
554.51	59206.19
554.67	59264.70
554.84	59185.13
555.00	59089.16
555.17	58937.03
555.33	59381.73
555.50	59014.27
555.67	59150.02
555.83	58995.54
556.00	59370.03
556.16	59540.89
556.33	59320.88
556.50	59353.65
556.66	59538.55
556.83	59171.08
556.99	59559.61
557.16	59578.34
557.32	59505.78
557.49	59732.81
557.65	59501.10
557.82	59400.46
557.98	59494.08
558.15	59533.87
558.32	59587.70
558.48	59405.14
558.65	59531.53
558.81	59510.46
558.98	59723.45
559.14	59690.68
559.31	59838.14
559.47	59882.61
559.64	59854.52
559.80	59826.43
559.97	59920.05
560.13	59788.98
560.30	59779.62
560.46	59774.94
560.63	59873.24
560.79	59990.27
560.96	60013.68
561.12	60104.96
561.29	59898.99
561.45	60025.38
561.61	60009.00
561.78	59856.86
561.94	59948.14
562.11	59903.67
562.27	59800.69
562.44	60051.12
562.60	60083.89
562.77	60065.17
562.93	59884.95
563.10	60196.24
563.26	59838.14
563.42	60329.65
563.59	60203.26
563.75	60034.74
563.92	60069.85
564.08	59910.69
564.24	60341.35
564.41	60081.55
564.57	60280.50
564.74	60130.70
564.90	60259.43
565.07	60172.83
565.23	60264.11
565.39	60257.09
565.56	60168.15
565.72	60184.54
565.88	60308.58
566.05	60250.07
566.21	60257.09
566.38	60547.32
566.54	60385.82
566.70	60437.31
566.87	60453.70
567.03	60289.86
567.19	60486.46
567.36	60364.76
567.52	60437.31
567.68	60687.75
567.85	60722.86
568.01	60692.43
568.17	60512.21
568.34	60540.30
568.50	60383.48
568.66	60378.80
568.83	60544.98
568.99	60495.83
569.15	60619.88
569.32	60486.46
569.48	60636.26
569.64	60516.89
569.81	60449.02
569.97	60390.50
570.13	60575.40
570.30	60463.06
570.46	60589.45
570.62	60779.03
570.78	60631.58
570.95	60577.75
571.11	60704.13
571.27	60493.49
571.43	60540.30
571.60	60825.84
571.76	60842.23
571.92	60804.78
572.09	60673.71
572.25	60687.75
572.41	60580.09
572.57	60732.22
572.74	60996.70
572.90	60650.30
573.06	60732.22
573.22	60779.03
573.38	60870.31
573.55	60828.18
573.71	60970.96
573.87	60863.29
574.03	60640.94
574.20	60729.88
574.36	60755.63
574.52	60846.91
574.68	61003.72
574.84	60975.64
575.01	60690.09
575.17	60867.97
575.33	60743.92
575.49	60835.20
575.65	61020.11
575.82	60879.67
575.98	60956.91
576.14	61017.77
576.30	60924.14
576.46	60905.42
576.62	60671.37
576.79	60853.93
576.95	60793.07
577.11	60835.20
577.27	60973.30
577.43	60856.27
577.59	60816.48
577.75	60851.59
577.92	60837.54
578.08	60846.91
578.24	60856.27
578.40	61076.28
578.56	61052.87
578.72	61160.54
578.88	61329.06
579.04	61319.70
579.21	60940.53
579.37	61076.28
579.53	60989.68
579.69	60977.98
579.85	60921.80
580.01	60779.03
580.17	60924.14
580.33	60949.89
580.49	60938.19
580.65	61031.81
580.82	61109.05
580.98	60877.33
581.14	60781.37
581.30	61010.74
581.46	60797.76
581.62	61141.81
581.78	60823.50
581.94	61055.21
582.10	61190.97
582.26	61027.13
582.42	61291.61
582.58	61176.92
582.74	61197.99
582.90	60884.36
583.06	60858.61
583.22	60896.06
583.38	61265.86
583.54	61130.11
583.70	61268.20
583.86	61226.07
584.02	61022.45
584.18	61207.35
584.34	60985.00
584.50	60893.72
584.66	61102.03
584.82	61059.90
584.98	61104.37
585.14	61111.39
585.30	60821.16
585.46	61249.48
585.62	61174.58
585.78	61169.90
585.94	61153.52
586.10	61137.13
586.26	61193.31
586.42	61230.75
586.58	61254.16
586.74	61104.37
586.90	61188.63
587.06	61158.20
587.22	61382.89
587.38	61102.03
587.54	61104.37
587.70	61235.44
587.86	61258.84
588.02	61064.58
588.18	61350.12
588.34	60985.00
588.49	61176.92
