SpectraSuite Data File
++++++++++++++++++++++++++++++++++++
Date: Fri Oct 25 11:25:19 EDT 2013
User: price-jones
Dark Spectrum Present: No
Reference Spectrum Present: No
Number of Sampled Component Spectra: 1
Spectrometers: USB2+H05261
Integration Time (usec): 100000 (USB2+H05261)
Spectra Averaged: 1 (USB2+H05261)
Boxcar Smoothing: 0 (USB2+H05261)
Correct for Electrical Dark: No (USB2+H05261)
Strobe/Lamp Enabled: No (USB2+H05261)
Correct for Detector Non-linearity: No (USB2+H05261)
Correct for Stray Light: No (USB2+H05261)
Number of Pixels in Processed Spectrum: 2048
>>>>>Begin Processed Spectral Data<<<<<
365.73	273.84
365.92	273.84
366.12	273.84
366.32	177.88
366.52	154.48
366.72	105.32
366.91	100.64
367.11	210.65
367.31	142.77
367.51	201.29
367.70	210.65
367.90	168.52
368.10	149.79
368.30	128.73
368.49	79.58
368.69	124.05
368.89	191.92
369.09	152.13
369.28	117.03
369.48	166.18
369.68	187.24
369.87	191.92
370.07	210.65
370.27	170.86
370.47	304.27
370.66	641.31
370.86	653.01
371.06	582.79
371.25	653.01
371.45	636.63
371.65	674.07
371.84	615.56
372.04	727.91
372.24	734.93
372.44	786.42
372.63	688.12
372.83	779.40
373.03	786.42
373.22	767.70
373.42	760.67
373.62	805.14
373.81	763.01
374.01	767.70
374.21	798.12
374.40	741.95
374.60	781.74
374.79	758.33
374.99	842.59
375.19	861.32
375.38	851.96
375.58	826.21
375.78	894.08
375.97	786.42
376.17	978.34
376.37	896.43
376.56	917.49
376.76	882.38
376.95	891.74
377.15	830.89
377.35	912.81
377.54	896.43
377.74	854.30
377.93	877.70
378.13	856.64
378.33	926.85
378.52	990.05
378.72	971.32
378.91	978.34
379.11	917.49
379.31	959.62
379.50	861.32
379.70	929.19
379.89	957.28
380.09	947.92
380.28	959.62
380.48	1055.58
380.68	1043.88
380.87	954.94
381.07	1062.60
381.26	992.39
381.46	943.24
381.65	1046.22
381.85	1025.15
382.04	1006.43
382.24	1144.52
382.43	1071.97
382.63	1013.45
382.83	1093.03
383.02	1118.78
383.22	1184.31
383.41	1053.24
383.61	1093.03
383.80	1097.71
384.00	1083.67
384.19	1064.94
384.39	1132.82
384.58	1097.71
384.78	1153.88
384.97	1219.42
385.17	1198.35
385.36	1086.01
385.56	1142.18
385.75	1121.12
385.95	1174.95
386.14	1116.44
386.34	1193.67
386.53	1167.93
386.72	1174.95
386.92	1224.10
387.11	1200.69
387.31	1219.42
387.50	1324.74
387.70	1284.95
387.89	1256.87
388.09	1240.48
388.28	1205.38
388.48	1287.29
388.67	1219.42
388.86	1366.87
389.06	1425.39
389.25	1291.98
389.45	1301.34
389.64	1341.13
389.84	1481.56
390.03	1359.85
390.22	1315.38
390.42	1404.32
390.61	1409.00
390.81	1341.13
391.00	1451.13
391.19	1329.42
391.39	1453.47
391.58	1373.89
391.78	1497.94
391.97	1495.60
392.16	1409.00
392.36	1528.37
392.55	1530.71
392.75	1455.81
392.94	1514.33
393.13	1572.84
393.33	1549.43
393.52	1584.54
393.71	1600.93
393.91	1586.88
394.10	1631.35
394.29	1556.46
394.49	1643.06
394.68	1619.65
394.88	1629.01
395.07	1713.27
395.26	1710.93
395.46	1643.06
395.65	1699.23
395.84	1710.93
396.04	1743.70
396.23	1678.16
396.42	1844.34
396.62	1732.00
396.81	1797.53
397.00	1764.76
397.19	1797.53
397.39	1832.64
397.58	1799.87
397.77	1729.66
397.97	1900.52
398.16	1912.22
398.35	2005.84
398.55	1860.73
398.74	1797.53
398.93	1944.99
399.12	1998.82
399.32	1907.54
399.51	1923.92
399.70	2038.61
399.90	1872.43
400.09	2054.99
400.28	2064.35
400.47	2052.65
400.67	2050.31
400.86	2136.91
401.05	2045.63
401.24	2069.03
401.44	2155.63
401.63	2080.74
401.82	2157.97
402.01	2127.55
402.21	2120.53
402.40	2106.48
402.59	2176.70
402.78	2221.17
402.97	2232.87
403.17	2258.62
403.36	2256.28
403.55	2373.30
403.74	2296.07
403.93	2338.20
404.13	2282.02
404.32	2345.22
404.51	2373.30
404.70	2441.18
404.89	2387.35
405.09	2431.82
405.28	2471.61
405.47	2485.65
405.66	2541.82
405.85	2544.16
406.05	2459.90
406.24	2581.61
406.43	2602.68
406.62	2593.31
406.81	2684.59
407.00	2583.95
407.20	2630.76
407.39	2548.84
407.58	2541.82
407.77	2717.36
407.96	2661.19
408.15	2689.28
408.34	2654.17
408.54	2708.00
408.73	2778.22
408.92	2810.98
409.11	2883.54
409.30	3009.93
409.49	2874.18
409.68	2953.76
409.87	2967.80
410.07	2925.67
410.26	2991.20
410.45	3080.14
410.64	3019.29
410.83	2988.86
411.02	3075.46
411.21	3129.30
411.40	3227.60
411.59	3183.13
411.78	3150.36
411.98	3159.72
412.17	3119.93
412.36	3300.16
412.55	3384.41
412.74	3330.58
412.93	3372.71
413.12	3389.10
413.31	3555.27
413.50	3508.46
413.69	3466.33
413.88	3576.34
414.07	3555.27
414.26	3630.17
414.45	3606.77
414.64	3583.36
414.83	3669.96
415.02	3758.90
415.22	3728.47
415.41	3920.40
415.60	3915.72
415.79	3880.61
415.98	3871.25
416.17	3861.88
416.36	4072.53
416.55	3801.03
416.74	3875.93
416.93	3927.42
417.12	3934.44
417.31	4084.23
417.50	4140.41
417.69	4227.01
417.88	4329.99
418.07	4266.80
418.26	4126.36
418.45	4175.52
418.64	4381.48
418.83	4327.65
419.02	4292.54
419.21	4381.48
419.39	4465.74
419.58	4447.02
419.77	4470.42
419.96	4580.43
420.15	4613.20
420.34	4634.26
420.53	4606.17
420.72	4725.54
420.91	4758.31
421.10	4587.45
421.29	4795.76
421.48	4542.98
421.67	4718.52
421.86	4713.84
422.05	4884.70
422.24	4676.39
422.43	4671.71
422.61	4826.18
422.80	5013.43
422.99	4875.34
423.18	5011.09
423.37	4964.28
423.56	4727.88
423.75	4901.08
423.94	4847.25
424.13	4620.22
424.32	4620.22
424.50	5118.75
424.69	5097.69
424.88	5057.90
425.07	4765.33
425.26	4952.57
425.45	4980.66
425.64	4936.19
425.83	4994.70
426.01	4971.30
426.20	5142.16
426.39	4884.70
426.58	4910.44
426.77	4891.72
426.96	5158.54
427.15	4978.32
427.33	5254.50
427.52	5210.03
427.71	5289.61
427.90	5280.25
428.09	5210.03
428.28	5252.16
428.46	5280.25
428.65	5298.97
428.84	5348.12
429.03	5455.79
429.22	5418.34
429.40	5518.98
429.59	5462.81
429.78	5324.72
429.97	5249.82
430.16	5453.45
430.34	5481.53
430.53	5675.80
430.72	5547.07
430.91	5432.38
431.10	5486.22
431.28	5661.76
431.47	5797.51
431.66	5921.56
431.85	5696.86
432.03	5790.49
432.22	5966.03
432.41	5870.06
432.60	5755.38
432.79	5895.81
432.97	5795.17
433.16	5891.13
433.35	5947.30
433.54	5923.90
433.72	6115.82
433.91	6040.92
434.10	6008.16
434.28	5987.09
434.47	6270.30
434.66	6242.21
434.85	6291.36
435.03	6190.72
435.22	6099.44
435.41	6464.56
435.59	6321.79
435.78	6436.47
435.97	6422.43
436.16	6359.24
436.34	6319.45
436.53	6408.39
436.72	6693.93
436.90	6516.05
437.09	6623.72
437.28	6441.15
437.46	6420.09
437.65	6548.82
437.84	6761.81
438.02	6558.18
438.21	6663.51
438.40	6586.27
438.58	6815.64
438.77	6967.77
438.96	6895.22
439.14	6972.46
439.33	6810.96
439.52	7124.59
439.70	7138.63
439.89	7131.61
440.08	7382.05
440.26	7117.57
440.45	7192.47
440.63	7405.46
440.82	7620.78
441.01	7531.84
441.19	7634.83
441.38	7562.27
441.57	7756.54
441.75	7730.79
441.94	7793.98
442.12	7784.62
442.31	7772.92
442.50	7953.14
442.68	7920.37
442.87	7967.18
443.05	8037.40
443.24	8219.96
443.43	8152.09
443.61	8149.75
443.80	8362.73
443.98	8053.78
444.17	7932.08
444.35	8222.30
444.54	8388.48
444.73	8184.85
444.91	8025.70
445.10	8124.00
445.28	8152.09
445.47	8100.59
445.65	8205.92
445.84	8376.78
446.02	8477.42
446.21	8428.27
446.39	8395.50
446.58	8411.89
446.77	8531.25
446.95	8383.80
447.14	8362.73
447.32	8634.24
447.51	8257.41
447.69	8353.37
447.88	8491.46
448.06	8547.64
448.25	8479.76
448.43	8489.12
448.62	8627.21
448.80	8416.57
448.99	8561.68
449.17	8526.57
449.36	8439.97
449.54	8608.49
449.73	8898.72
449.91	8926.80
450.10	8894.04
450.28	8922.12
450.46	9139.79
450.65	8931.48
450.83	9013.40
451.02	8872.97
451.20	9284.91
451.39	8910.42
451.57	9055.53
451.76	8929.14
451.94	9034.47
452.13	9217.03
452.31	9270.86
452.49	8964.25
452.68	9289.59
452.86	9224.05
453.05	9207.67
453.23	9460.45
453.42	9240.44
453.60	9280.22
453.78	9408.95
453.97	9516.62
454.15	9547.05
454.34	9343.42
454.52	9607.90
454.70	9554.07
454.89	9643.01
455.07	9813.87
455.26	9774.08
455.44	9921.53
455.62	9858.34
455.81	9790.46
455.99	9879.40
456.17	9968.34
456.36	9909.83
456.54	10164.95
456.73	10094.73
456.91	10314.74
457.09	10305.38
457.28	10420.06
457.46	10310.06
457.64	10504.32
457.83	10298.36
458.01	10459.85
458.19	10656.46
458.38	10562.84
458.56	10677.52
458.74	10876.47
458.93	10679.86
459.11	10743.06
459.29	10649.44
459.48	10705.61
459.66	10857.75
459.84	10988.82
460.03	10775.83
460.21	10883.49
460.39	10979.45
460.57	10906.90
460.76	10803.91
460.94	11009.88
461.12	10892.85
461.31	10885.83
461.49	11122.23
461.67	11140.95
461.85	11379.68
462.04	11211.17
462.22	11695.66
462.40	11564.59
462.59	11297.77
462.77	11410.11
462.95	11506.07
463.13	11391.39
463.32	11377.34
463.50	11616.08
463.68	11639.48
463.86	11896.94
464.05	11452.24
464.23	11325.85
464.41	11496.71
464.59	11559.91
464.78	11927.37
464.96	11950.78
465.14	11599.70
465.32	11761.19
465.50	12063.12
465.69	11971.84
465.87	11983.54
466.05	11882.90
466.23	12177.81
466.41	12353.35
466.60	12376.75
466.78	12091.21
466.96	12088.87
467.14	12152.06
467.32	12336.96
467.51	12416.54
467.69	12203.55
467.87	12362.71
468.05	12727.83
468.23	12395.48
468.41	12521.87
468.60	12582.72
468.78	12823.80
468.96	12507.82
469.14	12592.08
469.32	12791.03
469.50	12571.02
469.69	12786.35
469.87	12826.14
470.05	12926.78
470.23	13132.75
470.41	12989.97
470.59	13219.35
470.77	13107.00
470.95	13256.79
471.14	13441.70
471.32	12971.25
471.50	13392.55
471.68	13551.70
471.86	13638.30
472.04	13532.98
472.22	14080.66
472.40	13788.10
472.58	13460.42
472.77	13839.59
472.95	13806.82
473.13	14628.35
473.31	13848.95
473.49	14033.85
473.67	14054.92
473.85	14157.90
474.03	14438.76
474.21	14759.42
474.39	14553.45
474.57	14785.16
474.75	14913.89
474.93	14906.87
475.12	15054.33
475.30	15070.71
475.48	14883.47
475.66	15089.43
475.84	14965.39
476.02	15276.68
476.20	15222.84
476.38	15632.44
476.56	15960.11
476.74	15679.25
476.92	15747.12
477.10	15864.15
477.28	15932.03
477.46	16128.63
477.64	16196.51
477.82	16423.54
478.00	16858.88
478.18	16755.90
478.36	16762.92
478.54	16847.18
478.72	17013.35
478.90	17226.34
479.08	17376.14
479.26	17446.35
479.44	17628.92
479.62	17668.70
479.80	17755.30
479.98	17958.93
480.16	18588.53
480.34	17991.70
480.52	18443.42
480.70	18356.82
480.88	18349.80
481.06	18527.68
481.24	18806.20
481.41	19166.65
481.59	19187.71
481.77	19157.28
481.95	19386.66
482.13	19353.89
482.31	19754.12
482.49	19927.32
482.67	19756.46
482.85	20381.38
483.03	20252.66
483.21	20606.08
483.39	20442.24
483.57	20713.74
483.74	20664.59
483.92	21170.15
484.10	21095.25
484.28	21542.29
484.46	21909.75
484.64	22092.32
484.82	21727.19
485.00	22279.56
485.18	22214.02
485.35	22686.81
485.53	22387.22
485.71	22965.34
485.89	23398.34
486.07	23030.87
486.25	23063.64
486.43	23419.40
486.61	23501.32
486.78	23967.09
486.96	23983.47
487.14	24446.90
487.32	24374.34
487.50	24638.82
487.68	24957.13
487.85	24954.79
488.03	25387.79
488.21	25624.18
488.39	25366.73
488.57	25942.50
488.75	26237.41
488.92	25872.28
489.10	26859.99
489.28	26597.85
489.46	26480.82
489.64	26785.09
489.81	27307.03
489.99	27625.34
490.17	27426.40
490.35	28060.68
490.53	27976.42
490.70	28046.64
490.88	28020.89
491.06	28514.75
491.24	28259.63
491.41	28673.90
491.59	29120.95
491.77	28980.51
491.95	29434.58
492.13	29605.44
492.30	29699.06
492.48	29844.17
492.66	30328.66
492.84	30092.27
493.01	30586.12
493.19	30333.34
493.37	30773.36
493.54	31087.00
493.72	31157.21
493.90	31056.57
494.08	31583.19
494.25	31686.17
494.43	31803.20
494.61	32070.02
494.79	31957.67
494.96	32063.00
495.14	32591.96
495.32	32858.78
495.49	32732.39
495.67	33132.62
495.85	33701.37
496.02	33317.53
496.20	33759.89
496.38	33752.87
496.55	33916.70
496.73	34422.26
496.91	33930.75
497.09	34728.87
497.26	34504.18
497.44	34644.61
497.62	35044.84
497.79	35285.92
497.97	35409.96
498.14	35690.83
498.32	35824.24
498.50	36032.55
498.67	36102.76
498.85	35999.78
499.03	36264.26
499.20	36306.39
499.38	36652.79
499.56	36802.58
499.73	36641.09
499.91	36917.27
500.08	36849.39
500.26	37076.43
500.44	37504.74
500.61	37844.12
500.79	37467.30
500.97	37944.76
501.14	37923.70
501.32	37869.87
501.49	38340.32
501.67	38518.20
501.84	38920.77
502.02	38326.27
502.20	38756.93
502.37	38363.72
502.55	39119.71
502.72	39072.90
502.90	39482.50
503.07	39316.32
503.25	39831.24
503.43	39363.13
503.60	39807.83
503.78	39981.03
503.95	39945.92
504.13	40093.38
504.30	40084.01
504.48	40093.38
504.65	40697.24
504.83	40517.01
505.01	41228.54
505.18	40715.96
505.36	40797.88
505.53	41085.76
505.71	41441.53
505.88	41385.35
506.06	41134.92
506.23	41495.36
506.41	41530.47
506.58	41446.21
506.76	42122.62
506.93	41776.22
507.11	41687.28
507.28	41792.61
507.46	42429.23
507.63	42548.60
507.81	43037.77
507.98	42564.98
508.16	42511.15
508.33	43168.84
508.50	43145.44
508.68	43433.32
508.85	43512.90
509.03	43761.00
509.20	43779.72
509.38	43922.49
509.55	44240.81
509.73	43779.72
509.90	44453.79
510.08	44083.99
510.25	44334.43
510.42	44409.32
510.60	44671.46
510.77	44896.16
510.95	44744.02
511.12	44896.16
511.30	44879.77
511.47	45221.49
511.64	45195.74
511.82	45483.63
511.99	45516.40
512.17	45631.08
512.34	45528.10
512.51	45813.65
512.69	46096.85
512.86	46485.38
513.04	46099.19
513.21	46466.66
513.38	46237.28
513.56	46674.96
513.73	46284.09
513.90	46698.37
514.08	46326.22
514.25	46754.54
514.43	47278.82
514.60	46890.29
514.77	47037.75
514.95	47334.99
515.12	47049.45
515.29	47358.40
515.47	47611.18
515.64	47660.33
515.81	47709.48
515.99	47566.71
516.16	47861.61
516.33	47992.68
516.51	48832.94
516.68	48236.10
516.85	48231.42
517.03	48502.92
517.20	48491.22
517.37	48495.90
517.54	48598.88
517.72	48465.47
517.89	48809.53
518.06	49359.56
518.24	48673.78
518.41	49074.01
518.58	48409.30
518.75	48921.88
518.93	49177.00
519.10	48790.81
519.27	49757.45
519.45	49404.03
519.62	49790.22
519.79	49649.78
519.96	49401.69
520.14	49825.32
520.31	49818.30
520.48	50131.93
520.65	50141.30
520.83	50347.26
521.00	50157.68
521.17	50199.81
521.34	50548.55
521.52	50475.99
521.69	50450.25
521.86	50635.15
522.03	50969.85
522.20	50827.07
522.38	51075.17
522.55	50951.12
522.72	50794.31
522.89	51035.38
523.07	51409.87
523.24	51302.20
523.41	51615.83
523.58	51295.18
523.75	51377.10
523.92	51821.80
524.10	51473.06
524.27	51576.04
524.44	51564.34
524.61	51798.40
524.78	51885.00
524.96	51702.43
525.13	52119.05
525.30	51877.97
525.47	52151.82
525.64	52151.82
525.81	52215.01
525.98	52549.71
526.16	52219.69
526.33	52257.14
526.50	53048.24
526.67	52449.06
526.84	52638.65
527.01	52481.83
527.18	52568.43
527.36	52610.56
527.53	52406.94
527.70	53205.06
527.87	52886.74
528.04	52865.68
528.21	52975.69
528.38	52900.79
528.55	53167.61
528.72	53237.83
528.89	53155.91
529.07	53209.74
529.24	53219.10
529.41	53312.72
529.58	53485.92
529.75	53471.88
529.92	53553.80
530.09	53462.52
530.26	53563.16
530.43	53736.36
530.60	53399.32
530.77	53705.93
530.94	53851.05
531.11	53806.58
531.28	53600.61
531.46	53556.14
531.63	54232.55
531.80	53928.28
531.97	54061.69
532.14	54078.08
532.31	54122.55
532.48	54475.97
532.65	54656.19
532.82	54181.06
532.99	54094.46
533.16	54314.47
533.33	54490.01
533.50	54637.47
533.67	54401.07
533.84	54337.88
534.01	54775.56
534.18	54581.29
534.35	54932.37
534.52	54845.77
534.69	54993.23
534.86	54967.48
535.03	54908.97
535.20	54997.91
535.37	54808.32
535.54	55072.81
535.71	54908.97
535.88	54824.71
536.05	55147.70
536.22	55136.00
536.38	55501.12
536.55	55318.56
536.72	55269.41
536.89	55267.07
537.06	55341.97
537.23	55482.40
537.40	55262.39
537.57	55419.20
537.74	55765.60
537.91	55791.35
538.08	55737.52
538.25	55400.48
538.42	55480.06
538.59	55913.06
538.75	55573.68
538.92	55503.46
539.09	55987.95
539.26	55976.25
539.43	55814.76
539.60	56317.97
539.77	56044.13
539.94	56013.70
540.11	55917.74
540.28	56303.93
540.44	56329.67
540.61	56140.09
540.78	55913.06
540.95	56341.38
541.12	56233.71
541.29	56053.49
541.46	56233.71
541.62	56392.87
541.79	56460.74
541.96	56179.88
542.13	56334.35
542.30	56332.01
542.47	56580.11
542.63	56568.41
542.80	56713.52
542.97	56891.40
543.14	57088.01
543.31	56940.55
543.48	56928.85
543.64	57020.13
543.81	57104.39
543.98	56954.60
544.15	56980.34
544.32	57265.89
544.48	57286.95
544.65	57237.80
544.82	57322.06
544.99	57099.71
545.16	57261.21
545.32	57345.47
545.49	57705.91
545.66	57654.42
545.83	57546.75
546.00	57481.22
546.16	57427.38
546.33	57415.68
546.50	57378.23
546.67	57495.26
546.83	57029.49
547.00	57619.31
547.17	57572.50
547.34	57687.18
547.50	57691.86
547.67	57970.39
547.84	57593.56
548.00	57794.85
548.17	57975.07
548.34	58024.22
548.51	57783.15
548.67	57886.13
548.84	58028.90
549.01	57928.26
549.18	58127.20
549.34	58164.65
549.51	58021.88
549.68	58218.49
549.84	58239.55
550.01	58206.78
550.18	57979.75
550.34	58218.49
550.51	58164.65
550.68	58246.57
550.84	57944.64
551.01	58234.87
551.18	58274.66
551.34	58230.19
551.51	58274.66
551.68	58274.66
551.84	58267.64
552.01	58183.38
552.18	58637.44
552.34	58410.41
552.51	58436.16
552.68	58176.36
552.84	58621.06
553.01	58789.58
553.18	58408.07
553.34	58845.75
553.51	58497.01
553.67	58651.48
553.84	58726.38
554.01	58728.72
554.17	58754.47
554.34	58866.81
554.51	58791.92
554.67	58782.55
554.84	58794.26
555.00	58733.40
555.17	58681.91
555.33	58955.75
555.50	58890.22
555.67	58880.86
555.83	58707.66
556.00	58913.62
556.16	59269.39
556.33	58906.60
556.50	59093.85
556.66	59245.98
556.83	58911.28
556.99	59159.38
557.16	59154.70
557.32	59143.00
557.49	59363.01
557.65	59042.35
557.82	59161.72
557.98	59089.16
558.15	59173.42
558.32	59306.83
558.48	59238.96
558.65	59267.05
558.81	59351.30
558.98	59121.93
559.14	59365.35
559.31	59416.84
559.47	59381.73
559.64	59484.72
559.80	59671.96
559.97	59664.94
560.13	59365.35
560.30	59508.12
560.46	59583.02
560.63	59473.01
560.79	59608.76
560.96	59639.19
561.12	59468.33
561.29	59669.62
561.45	59632.17
561.61	59641.53
561.78	59753.88
561.94	59468.33
562.11	59681.32
562.27	59686.00
562.44	59650.89
562.60	59978.57
562.77	59653.23
562.93	59597.06
563.10	59938.78
563.26	59707.07
563.42	59927.08
563.59	59913.03
563.75	59744.51
563.92	60060.49
564.08	59901.33
564.24	60142.41
564.41	59894.31
564.57	59994.95
564.74	59913.03
564.90	59997.29
565.07	60102.62
565.23	60004.31
565.39	59891.97
565.56	60013.68
565.72	59927.08
565.88	60032.40
566.05	59887.29
566.21	59950.48
566.38	60126.02
566.54	60079.21
566.70	60257.09
566.87	60081.55
567.03	60074.53
567.19	60238.37
567.36	60016.02
567.52	60147.09
567.68	60378.80
567.85	60123.68
568.01	60182.19
568.17	60238.37
568.34	60205.60
568.50	60203.26
568.66	60196.24
568.83	59959.84
568.99	60009.00
569.15	60212.62
569.32	60172.83
569.48	60095.60
569.64	60189.22
569.81	60142.41
569.97	60158.79
570.13	60238.37
570.30	60076.87
570.46	60395.18
570.62	60268.79
570.78	60116.66
570.95	60303.90
571.11	60334.33
571.27	60226.66
571.43	60306.24
571.60	60184.54
571.76	60327.31
571.92	60322.63
572.09	60416.25
572.25	60608.17
572.41	60360.08
572.57	60481.78
572.74	60498.17
572.90	60285.18
573.06	60317.95
573.22	60605.83
573.38	60348.37
573.55	60601.15
573.71	60495.83
573.87	60540.30
574.03	60301.56
574.20	60346.03
574.36	60360.08
574.52	60441.99
574.68	60474.76
574.84	60582.43
575.01	60622.22
575.17	60481.78
575.33	60289.86
575.49	60385.82
575.65	60624.56
575.82	60615.19
575.98	60617.53
576.14	60631.58
576.30	60636.26
576.46	60367.10
576.62	60552.00
576.79	60533.28
576.95	60350.71
577.11	60561.36
577.27	60659.66
577.43	60657.32
577.59	60542.64
577.75	60664.35
577.92	60313.26
578.08	60495.83
578.24	60404.55
578.40	60711.16
578.56	60802.44
578.72	60540.30
578.88	60755.63
579.04	60762.65
579.21	60685.41
579.37	60739.24
579.53	60797.76
579.69	60385.82
579.85	60753.29
580.01	60598.81
580.17	60582.43
580.33	60589.45
580.49	60760.31
580.65	60846.91
580.82	60493.49
580.98	60631.58
581.14	60563.70
581.30	60882.02
581.46	60718.18
581.62	60800.10
581.78	60575.40
581.94	60739.24
582.10	60767.33
582.26	60704.13
582.42	60748.60
582.58	60802.44
582.74	60584.77
582.90	60879.67
583.06	60706.47
583.22	60570.72
583.38	60797.76
583.54	60856.27
583.70	60809.46
583.86	60767.33
584.02	60671.37
584.18	60860.95
584.34	60767.33
584.50	60858.61
584.66	60699.45
584.82	60537.96
584.98	61085.64
585.14	60924.14
585.30	60860.95
585.46	61017.77
585.62	60790.73
585.78	61041.17
585.94	60701.79
586.10	60853.93
586.26	60867.97
586.42	61041.17
586.58	60750.94
586.74	60947.55
586.90	60640.94
587.06	60893.72
587.22	60987.34
587.38	60828.18
587.54	61010.74
587.70	61017.77
587.86	60903.08
588.02	60783.71
588.18	60903.08
588.34	60945.21
588.49	60685.41
