SpectraSuite Data File
++++++++++++++++++++++++++++++++++++
Date: Fri Oct 25 10:43:28 EDT 2013
User: price-jones
Dark Spectrum Present: No
Reference Spectrum Present: No
Number of Sampled Component Spectra: 1
Spectrometers: USB2+H05261
Integration Time (usec): 100000 (USB2+H05261)
Spectra Averaged: 1 (USB2+H05261)
Boxcar Smoothing: 0 (USB2+H05261)
Correct for Electrical Dark: No (USB2+H05261)
Strobe/Lamp Enabled: No (USB2+H05261)
Correct for Detector Non-linearity: No (USB2+H05261)
Correct for Stray Light: No (USB2+H05261)
Number of Pixels in Processed Spectrum: 2048
>>>>>Begin Processed Spectral Data<<<<<
365.73	145.11
365.92	145.11
366.12	145.11
366.32	65.54
366.52	0.00
366.72	32.77
366.91	0.00
367.11	4.68
367.31	0.00
367.51	46.81
367.70	0.00
367.90	0.00
368.10	70.22
368.30	98.30
368.49	74.90
368.69	30.43
368.89	60.85
369.09	0.00
369.28	18.72
369.48	35.11
369.68	72.56
369.87	58.51
370.07	51.49
370.27	112.35
370.47	203.63
370.66	395.55
370.86	400.23
371.06	479.81
371.25	510.24
371.45	507.90
371.65	451.72
371.84	421.30
372.04	435.34
372.24	519.60
372.44	479.81
372.63	479.81
372.83	491.51
373.03	589.82
373.22	465.77
373.42	585.13
373.62	510.24
373.81	540.66
374.01	524.28
374.21	535.98
374.40	592.16
374.60	557.05
374.79	547.69
374.99	540.66
375.19	550.03
375.38	627.26
375.58	531.30
375.78	648.33
375.97	582.79
376.17	706.84
376.37	634.29
376.56	573.43
376.76	575.77
376.95	557.05
377.15	613.22
377.35	660.03
377.54	624.92
377.74	667.05
377.93	650.67
378.13	641.31
378.33	702.16
378.52	653.01
378.72	709.18
378.91	645.99
379.11	629.60
379.31	613.22
379.50	608.54
379.70	791.10
379.89	681.10
380.09	676.41
380.28	699.82
380.48	685.78
380.68	765.36
380.87	660.03
381.07	711.52
381.26	669.39
381.46	732.59
381.65	730.25
381.85	678.76
382.04	638.97
382.24	704.50
382.43	645.99
382.63	674.07
382.83	688.12
383.02	737.27
383.22	760.67
383.41	697.48
383.61	730.25
383.80	816.85
384.00	800.46
384.19	835.57
384.39	751.31
384.58	807.48
384.78	793.44
384.97	833.23
385.17	734.93
385.36	819.19
385.56	805.14
385.75	777.06
385.95	798.12
386.14	844.93
386.34	814.51
386.53	840.25
386.72	924.51
386.92	812.17
387.11	868.34
387.31	861.32
387.50	882.38
387.70	837.91
387.89	849.61
388.09	894.08
388.28	896.43
388.48	788.76
388.67	936.21
388.86	1022.81
389.06	908.13
389.25	997.07
389.45	954.94
389.64	950.26
389.84	1053.24
390.03	961.96
390.22	940.90
390.42	910.47
390.61	987.71
390.81	957.28
391.00	1011.11
391.19	1053.24
391.39	987.71
391.58	992.39
391.78	1048.56
391.97	1006.43
392.16	1057.92
392.36	978.34
392.55	987.71
392.75	1004.09
392.94	997.07
393.13	1006.43
393.33	1018.13
393.52	1032.18
393.71	1043.88
393.91	1125.80
394.10	1128.14
394.29	1170.27
394.49	1156.22
394.68	1186.65
394.88	1205.38
395.07	1256.87
395.26	1306.02
395.46	1139.84
395.65	1259.21
395.84	1179.63
396.04	1151.54
396.23	1097.71
396.42	1081.33
396.62	1142.18
396.81	1184.31
397.00	1139.84
397.19	1320.06
397.39	1348.15
397.58	1392.62
397.77	1317.72
397.97	1341.13
398.16	1453.47
398.35	1448.79
398.55	1334.11
398.74	1547.09
398.93	1540.07
399.12	1481.56
399.32	1397.30
399.51	1486.24
399.70	1467.52
399.90	1600.93
400.09	1572.84
400.28	1629.01
400.47	1610.29
400.67	1682.85
400.86	1631.35
401.05	1600.93
401.24	1547.09
401.44	1671.14
401.63	1664.12
401.82	1755.40
402.01	1682.85
402.21	1785.83
402.40	1668.80
402.59	1778.81
402.78	1746.04
402.97	1710.93
403.17	1804.55
403.36	1825.62
403.55	1757.74
403.74	1900.52
403.93	1799.87
404.13	1783.49
404.32	1839.66
404.51	1842.00
404.70	1888.81
404.89	1935.62
405.09	1968.39
405.28	1921.58
405.47	2024.56
405.66	1933.28
405.85	1994.14
406.05	2015.20
406.24	2069.03
406.43	1977.75
406.62	2010.52
406.81	2106.48
407.00	2085.42
407.20	1987.11
407.39	2076.06
407.58	2073.71
407.77	2148.61
407.96	2195.42
408.15	2209.47
408.34	2242.23
408.54	2214.15
408.73	2200.10
408.92	2263.30
409.11	2293.72
409.30	2263.30
409.49	2347.56
409.68	2314.79
409.87	2307.77
410.07	2368.62
410.26	2242.23
410.45	2354.58
410.64	2495.01
410.83	2605.02
411.02	2392.03
411.21	2532.46
411.40	2623.74
411.59	2609.70
411.78	2708.00
411.98	2506.71
412.17	2548.84
412.36	2729.06
412.55	2633.10
412.74	2670.55
412.93	2719.70
413.12	2684.59
413.31	2757.15
413.50	2796.94
413.69	2818.00
413.88	2956.10
414.07	2944.39
414.26	2895.24
414.45	2953.76
414.64	2923.33
414.83	3056.74
415.02	3101.21
415.22	3103.55
415.41	3023.97
415.60	3150.36
415.79	3108.23
415.98	3187.81
416.17	3150.36
416.36	3253.34
416.55	3187.81
416.74	3412.50
416.93	3199.51
417.12	3236.96
417.31	3251.00
417.50	3440.59
417.69	3414.84
417.88	3534.21
418.07	3433.57
418.26	3417.18
418.45	3452.29
418.64	3627.83
418.83	3534.21
419.02	3592.72
419.21	3531.87
419.39	3686.34
419.58	3543.57
419.77	3501.44
419.96	3756.56
420.15	3632.51
420.34	3630.17
420.53	3716.77
420.72	3847.84
420.91	3829.12
421.10	3763.58
421.29	3763.58
421.48	3815.07
421.67	3885.29
421.86	3929.76
422.05	3735.50
422.24	3733.15
422.43	3761.24
422.61	3786.99
422.80	3756.56
422.99	3915.72
423.18	3992.95
423.37	4032.74
423.56	3983.59
423.75	3929.76
423.94	3740.18
424.13	3768.26
424.32	3892.31
424.50	3892.31
424.69	4049.13
424.88	3932.10
425.07	3843.16
425.26	3838.48
425.45	3899.33
425.64	3829.12
425.83	4023.38
426.01	4067.85
426.20	4173.18
426.39	4021.04
426.58	4021.04
426.77	4016.36
426.96	3974.23
427.15	3943.80
427.33	4032.74
427.52	3981.25
427.71	4081.89
427.90	4142.75
428.09	4229.35
428.28	4138.07
428.46	4131.05
428.65	4187.22
428.84	4255.09
429.03	4100.62
429.22	3946.14
429.40	4128.70
429.59	4091.26
429.78	3971.89
429.97	3950.82
430.16	4042.11
430.34	4170.83
430.53	4098.28
430.72	4229.35
430.91	4294.88
431.10	4353.40
431.28	4545.32
431.47	4601.49
431.66	4711.50
431.85	4554.68
432.03	4557.02
432.22	4669.37
432.41	4589.79
432.60	4662.35
432.79	4657.67
432.97	4781.71
433.16	4697.46
433.35	4655.33
433.54	4535.96
433.72	4578.09
433.91	4573.41
434.10	4795.76
434.28	4716.18
434.47	4938.53
434.66	4873.00
434.85	4910.44
435.03	4800.44
435.22	4889.38
435.41	4985.34
435.59	5093.01
435.78	5125.77
435.97	5184.29
436.16	5139.82
436.34	5109.39
436.53	5158.54
436.72	5247.48
436.90	5261.52
437.09	5212.37
437.28	5078.96
437.46	5226.42
437.65	5071.94
437.84	5121.09
438.02	5130.45
438.21	5142.16
438.40	5121.09
438.58	5249.82
438.77	5394.93
438.96	5224.08
439.14	5490.90
439.33	5568.13
439.52	5666.44
439.70	5465.15
439.89	5568.13
440.08	5643.03
440.26	5633.67
440.45	5577.50
440.63	5764.74
440.82	6092.41
441.01	5863.04
441.19	6015.18
441.38	6015.18
441.57	6061.99
441.75	6129.86
441.94	6171.99
442.12	6197.74
442.31	6260.93
442.50	6375.62
442.68	6094.76
442.87	6258.59
443.05	6541.80
443.24	6380.30
443.43	6516.05
443.61	6328.81
443.80	6642.44
443.98	6324.13
444.17	6267.95
444.35	6333.49
444.54	6729.04
444.73	6413.07
444.91	6520.73
445.10	6502.01
445.28	6319.45
445.47	6204.76
445.65	6417.75
445.84	6546.48
446.02	6436.47
446.21	6396.68
446.39	6520.73
446.58	6729.04
446.77	6612.01
446.95	6656.48
447.14	6612.01
447.32	6794.58
447.51	6576.91
447.69	6658.82
447.88	6693.93
448.06	6689.25
448.25	6628.40
448.43	6707.98
448.62	6520.73
448.80	6654.14
448.99	6827.34
449.17	6897.56
449.36	6677.55
449.54	7143.32
449.73	7033.31
449.91	7035.65
450.10	7124.59
450.28	7304.81
450.46	7276.73
450.65	7272.04
450.83	7094.16
451.02	7131.61
451.20	7066.08
451.39	7218.21
451.57	7321.20
451.76	6998.20
451.94	7286.09
452.13	7279.07
452.31	7199.49
452.49	6958.41
452.68	7222.89
452.86	7164.38
453.05	7426.52
453.23	7316.51
453.42	7131.61
453.60	7272.04
453.78	7246.30
453.97	7328.22
454.15	7197.15
454.34	7447.58
454.52	7438.22
454.70	7700.36
454.89	7548.23
455.07	7562.27
455.26	7602.06
455.44	7630.15
455.62	7679.30
455.81	7651.21
455.99	7527.16
456.17	7845.48
456.36	7864.20
456.54	7920.37
456.73	7934.42
456.91	8088.89
457.09	8051.44
457.28	8245.71
457.46	7969.52
457.64	8133.36
457.83	7857.18
458.01	8133.36
458.19	8131.02
458.38	7927.39
458.56	8145.06
458.74	8049.10
458.93	8018.68
459.11	8234.00
459.29	8327.63
459.48	8411.89
459.66	8428.27
459.84	8489.12
460.03	8428.27
460.21	8564.02
460.39	8376.78
460.57	8547.64
460.76	8730.20
460.94	8606.15
461.12	8585.08
461.31	8755.94
461.49	8674.03
461.67	8571.04
461.85	8854.25
462.04	8585.08
462.22	9142.13
462.40	8826.16
462.59	8730.20
462.77	8737.22
462.95	8980.64
463.13	8936.17
463.32	8917.44
463.50	9240.44
463.68	8849.57
463.86	9029.79
464.05	8858.93
464.23	8823.82
464.41	8940.85
464.59	8875.31
464.78	9088.30
464.96	8990.00
465.14	9158.52
465.32	9291.93
465.50	9160.86
465.69	8943.19
465.87	9139.79
466.05	9006.38
466.23	9186.60
466.41	9149.15
466.60	9200.65
466.78	9179.58
466.96	9092.98
467.14	9029.79
467.32	9294.27
467.51	9305.97
467.69	9235.75
467.87	9291.93
468.05	9455.76
468.23	9469.81
468.41	9666.41
468.60	9406.61
468.78	9462.79
468.96	9570.45
469.14	9523.64
469.32	9713.22
469.50	9406.61
469.69	9500.23
469.87	9570.45
470.05	9790.46
470.23	9851.31
470.41	9769.40
470.59	9788.12
470.77	9774.08
470.95	10061.96
471.14	9783.44
471.32	10143.88
471.50	10183.67
471.68	10314.74
471.86	10211.76
472.04	10174.31
472.22	10307.72
472.40	10214.10
472.58	10258.57
472.77	10513.69
472.95	10469.22
473.13	10670.50
473.31	10576.88
473.49	10373.25
473.67	10509.01
473.85	10518.37
474.03	10890.51
474.21	10885.83
474.39	11059.03
474.57	10857.75
474.75	11096.48
474.93	11112.86
475.12	10860.09
475.30	11213.51
475.48	10977.11
475.66	11152.65
475.84	11119.89
476.02	11339.90
476.20	11363.30
476.38	11709.70
476.56	11819.71
476.74	11658.21
476.92	11812.68
477.10	11885.24
477.28	12212.92
477.46	11988.22
477.64	12313.56
477.82	12084.19
478.00	12716.13
478.18	12383.77
478.36	12437.61
478.54	12556.97
478.72	12533.57
478.90	12718.47
479.08	12844.86
479.26	13092.96
479.44	12856.56
479.62	13116.36
479.80	13214.66
479.98	13298.92
480.16	13771.71
480.34	13628.94
480.52	13699.16
480.70	13745.97
480.88	13582.13
481.06	13898.10
481.24	14118.11
481.41	14036.19
481.59	14366.21
481.77	14366.21
481.95	14235.14
482.13	14445.79
482.31	14530.05
482.49	14534.73
482.67	14869.42
482.85	14841.34
483.03	15026.24
483.21	15119.86
483.39	15405.41
483.57	15435.83
483.74	15192.42
483.92	15463.92
484.10	15461.58
484.28	15683.93
484.46	15985.86
484.64	16116.93
484.82	16201.19
485.00	16306.51
485.18	16428.22
485.35	16116.93
485.53	16070.12
485.71	15868.83
485.89	16154.38
486.07	16320.56
486.25	16631.85
486.43	16475.03
486.61	16915.05
486.78	16943.14
486.96	17135.06
487.14	17408.90
487.32	17614.87
487.50	17769.35
487.68	18150.85
487.85	18207.03
488.03	18235.11
488.21	18494.91
488.39	18415.34
488.57	18672.79
488.75	18796.84
488.92	18944.30
489.10	19023.87
489.28	19314.10
489.46	19438.15
489.64	19344.53
489.81	20056.05
489.99	19932.00
490.17	20365.00
490.35	20114.56
490.53	20170.74
490.70	20381.38
490.88	20070.09
491.06	20861.19
491.24	20594.37
491.41	20636.50
491.59	20566.29
491.77	20615.44
491.95	20863.54
492.13	21158.44
492.30	21408.88
492.48	21701.45
492.66	21294.19
492.84	21357.39
493.01	21750.60
493.19	21731.87
493.37	22082.95
493.54	22190.62
493.72	22508.93
493.90	22618.94
494.08	22595.53
494.25	22904.48
494.43	23339.82
494.61	23019.17
494.79	23360.89
494.96	23248.54
495.14	23253.22
495.32	23391.31
495.49	23608.98
495.67	23604.30
495.85	23917.93
496.02	24184.76
496.20	23995.17
496.38	24297.10
496.55	24467.96
496.73	24992.24
496.91	24713.72
497.09	24664.57
497.26	24645.84
497.44	24727.76
497.62	24982.88
497.79	25160.76
497.97	24854.15
498.14	24971.18
498.32	25362.04
498.50	25551.63
498.67	25687.38
498.85	25827.81
499.03	26040.80
499.20	25942.50
499.38	26274.85
499.56	26209.32
499.73	26223.36
499.91	26368.48
500.08	26431.67
500.26	26288.90
500.44	26703.17
500.61	26466.78
500.79	26485.50
500.97	26511.25
501.14	26850.63
501.32	26691.47
501.49	26801.47
501.67	26958.29
501.84	27374.91
502.02	27461.51
502.20	27044.89
502.37	27845.35
502.55	27868.76
502.72	27831.31
502.90	27817.27
503.07	27742.37
503.25	28051.32
503.43	27840.67
503.60	27962.38
503.78	27681.52
503.95	28077.07
504.13	28217.50
504.30	28594.32
504.48	28669.22
504.65	28306.44
504.83	28650.50
505.01	28950.09
505.18	28734.76
505.36	29076.48
505.53	29252.02
505.71	29649.91
505.88	29584.37
506.06	29411.17
506.23	29369.04
506.41	29411.17
506.58	29516.50
506.76	29518.84
506.93	29797.36
507.11	29766.93
507.28	29907.37
507.46	29722.46
507.63	29607.78
507.81	30183.55
507.98	30139.08
508.16	30089.93
508.33	30604.84
508.50	30522.93
508.68	30824.86
508.85	30787.41
509.03	30796.77
509.20	31264.88
509.38	31131.47
509.55	31065.93
509.73	30979.33
509.90	31005.08
510.08	31314.03
510.25	31098.70
510.42	31438.08
510.60	31264.88
510.77	31482.55
510.95	32119.17
511.12	31859.37
511.30	31814.90
511.47	32177.68
511.64	32423.44
511.82	32208.11
511.99	31688.51
512.17	32048.96
512.34	31852.35
512.51	32280.67
512.69	32430.46
512.86	32072.36
513.04	32772.18
513.21	33186.46
513.38	32842.40
513.56	32577.92
513.73	32690.26
513.90	32936.02
514.08	32840.06
514.25	32561.53
514.43	33003.89
514.60	33216.88
514.77	33230.93
514.95	33333.91
515.12	32982.83
515.29	33743.50
515.47	33453.28
515.64	34036.07
515.81	33638.18
515.99	33479.02
516.16	33851.17
516.33	33273.06
516.51	33694.35
516.68	33060.07
516.85	33514.13
517.03	33509.45
517.20	33340.93
517.37	34066.50
517.54	34260.76
517.72	33855.85
517.89	33802.02
518.06	33830.10
518.24	34286.51
518.41	34403.53
518.58	34075.86
518.75	34300.55
518.93	34476.09
519.10	34497.16
519.27	34878.66
519.45	34920.79
519.62	34995.69
519.79	34824.83
519.96	35391.24
520.14	35395.92
520.31	35538.69
520.48	35168.89
520.65	35241.45
520.83	35601.89
521.00	35901.48
521.17	35555.08
521.34	35208.68
521.52	35725.94
521.69	35817.22
521.86	36065.31
522.03	35999.78
522.20	36187.02
522.38	36428.10
522.55	35957.65
522.72	36322.77
522.89	35826.58
523.07	36250.22
523.24	36091.06
523.41	36547.47
523.58	36533.42
523.75	37064.72
523.92	36957.06
524.10	36996.85
524.27	36788.54
524.44	37088.13
524.61	36935.99
524.78	36917.27
524.96	37125.58
525.13	37422.83
525.30	37401.76
525.47	37895.61
525.64	37226.22
525.81	37020.25
525.98	37385.38
526.16	37179.41
526.33	37074.09
526.50	37509.43
526.67	37111.53
526.84	36580.23
527.01	37415.80
527.18	37727.10
527.36	37457.93
527.53	38244.35
527.70	38092.22
527.87	37853.48
528.04	38239.67
528.21	38480.75
528.38	38340.32
528.55	38726.50
528.72	38455.00
528.89	38384.79
529.07	38520.54
529.24	38728.84
529.41	38646.93
529.58	38284.14
529.75	38419.89
529.92	38710.12
530.09	38579.05
530.26	39119.71
530.43	38946.51
530.60	38689.06
530.77	38773.31
530.94	39578.46
531.11	39124.40
531.28	39363.13
531.46	39129.08
531.63	39807.83
531.80	39393.56
531.97	39356.11
532.14	39262.49
532.31	38686.71
532.48	38869.28
532.65	39318.66
532.82	39112.69
532.99	39470.79
533.16	39395.90
533.33	39894.43
533.50	39894.43
533.67	39758.68
533.84	39840.60
534.01	39784.43
534.18	39709.53
534.35	40203.38
534.52	40048.91
534.69	40446.80
534.86	40727.66
535.03	39681.44
535.20	40322.75
535.37	40273.60
535.54	40594.25
535.71	40533.40
535.88	40376.58
536.05	40140.19
536.22	40542.76
536.38	40580.21
536.55	40591.91
536.72	40306.37
536.89	40133.17
537.06	40362.54
537.23	40694.89
537.40	40758.09
537.57	40823.62
537.74	40776.81
537.91	41029.59
538.08	40783.83
538.25	40577.87
538.42	40755.75
538.59	40961.72
538.75	40842.35
538.92	41036.61
539.09	41045.97
539.26	41251.94
539.43	41212.15
539.60	41214.49
539.77	41155.98
539.94	41308.11
540.11	41130.23
540.28	41167.68
540.44	41244.92
540.61	41216.83
540.78	41366.63
540.95	41181.73
541.12	41385.35
541.29	41476.63
541.46	41319.82
541.62	42192.84
541.79	41991.55
541.96	41406.42
542.13	41776.22
542.30	41497.70
542.47	41949.42
542.63	41329.18
542.80	41944.74
542.97	42227.95
543.14	42305.18
543.31	42064.11
543.48	42665.63
543.64	42724.14
543.81	42742.86
543.98	42473.70
544.15	42459.66
544.32	42588.39
544.48	43243.74
544.65	42604.77
544.82	42476.04
544.99	42422.21
545.16	42602.43
545.32	42670.31
545.49	42834.14
545.66	43494.18
545.83	42866.91
546.00	42834.14
546.16	43012.02
546.33	42794.36
546.50	42422.21
546.67	42990.96
546.83	42508.81
547.00	42857.55
547.17	42890.32
547.34	42850.53
547.50	42827.12
547.67	43323.32
547.84	43115.01
548.00	43463.75
548.17	43491.83
548.34	43662.69
548.51	43466.09
548.67	44023.14
548.84	43622.90
549.01	43264.80
549.18	43243.74
549.34	43384.17
549.51	43667.37
549.68	43765.68
549.84	43433.32
550.01	44275.91
550.18	43433.32
550.34	43597.16
550.51	43665.03
550.68	43510.56
550.84	43770.36
551.01	43669.72
551.18	43931.86
551.34	43782.06
551.51	43943.56
551.68	44121.44
551.84	44196.34
552.01	43812.49
552.18	44329.75
552.34	43636.95
552.51	44215.06
552.68	44053.56
552.84	43971.64
553.01	44474.86
553.18	44233.78
553.34	44264.21
553.51	43913.13
553.67	44428.05
553.84	44980.42
554.01	44531.03
554.17	44491.24
554.34	44196.34
554.51	44170.59
554.67	44879.77
554.84	44839.98
555.00	44367.20
555.17	44390.60
555.33	44634.02
555.50	44612.95
555.67	44772.11
555.83	44467.84
556.00	44406.98
556.16	45031.91
556.33	44271.23
556.50	44587.21
556.66	44332.09
556.83	44486.56
556.99	44378.90
557.16	44325.07
557.32	44215.06
557.49	44905.52
557.65	44355.49
557.82	44795.51
557.98	44601.25
558.15	44779.13
558.32	44933.60
558.48	44477.20
558.65	44641.04
558.81	44598.91
558.98	44526.35
559.14	44877.43
559.31	44198.68
559.47	45015.52
559.64	44996.80
559.80	44704.23
559.97	44954.67
560.13	44655.08
560.30	44582.52
560.46	44966.37
560.63	45158.30
560.79	44823.60
560.96	45305.75
561.12	44889.13
561.29	44889.13
561.45	45352.56
561.61	44854.03
561.78	45078.72
561.94	44830.62
562.11	44844.66
562.27	45193.40
562.44	45151.27
562.60	45415.76
562.77	45041.27
562.93	44952.33
563.10	45591.30
563.26	44573.16
563.42	45558.53
563.59	45202.77
563.75	45083.40
563.92	45284.68
564.08	45523.42
564.24	45450.86
564.41	45624.06
564.57	45226.17
564.74	45497.67
564.90	45394.69
565.07	45385.33
565.23	45612.36
565.39	45497.67
565.56	45209.79
565.72	44931.26
565.88	45249.58
566.05	45420.44
566.21	45331.50
566.38	45195.74
566.54	45504.70
566.70	45708.32
566.87	45652.15
567.03	45357.24
567.19	45914.29
567.36	45647.47
567.52	45457.88
567.68	45572.57
567.85	45315.11
568.01	45495.33
568.17	45661.51
568.34	45844.07
568.50	45350.22
568.66	45310.43
568.83	45579.59
568.99	45062.33
569.15	45471.93
569.32	45617.04
569.48	45172.34
569.64	45691.94
569.81	45574.91
569.97	45621.72
570.13	45715.34
570.30	45387.67
570.46	45127.87
570.62	45261.28
570.78	45092.76
570.95	45305.75
571.11	45567.89
571.27	45483.63
571.43	45104.46
571.60	45373.63
571.76	45663.85
571.92	45682.58
572.09	45317.45
572.25	45851.09
572.41	45918.97
572.57	45640.45
572.74	46017.27
572.90	46024.29
573.06	45830.03
573.22	46014.93
573.38	45752.79
573.55	45748.11
573.71	46047.70
573.87	45944.72
574.03	45488.31
574.20	45457.88
574.36	45713.00
574.52	45621.72
574.68	45911.95
574.84	45841.73
575.01	45722.37
575.17	45815.99
575.33	45249.58
575.49	45549.17
575.65	45509.38
575.82	45872.16
575.98	45984.51
576.14	45970.46
576.30	46073.45
576.46	45975.14
576.62	45422.78
576.79	45778.54
576.95	45631.08
577.11	45591.30
577.27	45710.66
577.43	45495.33
577.59	45425.12
577.75	45500.01
577.92	45366.60
578.08	45350.22
578.24	45537.46
578.40	45368.94
578.56	45900.25
578.72	45813.65
578.88	46099.19
579.04	45724.71
579.21	45432.14
579.37	45228.51
579.53	45546.82
579.69	45310.43
579.85	45689.60
580.01	45277.66
580.17	45787.90
580.33	45834.71
580.49	46003.23
580.65	45731.73
580.82	45455.54
580.98	45797.26
581.14	45542.14
581.30	45471.93
581.46	45588.95
581.62	46087.49
581.78	45713.00
581.94	46216.22
582.10	46050.04
582.26	45991.53
582.42	45865.14
582.58	45766.84
582.74	46089.83
582.90	45787.90
583.06	46213.88
583.22	46171.75
583.38	46197.49
583.54	46382.40
583.70	46057.06
583.86	46174.09
584.02	45745.77
584.18	46033.66
584.34	45752.79
584.50	45834.71
584.66	46160.05
584.82	45827.69
584.98	45984.51
585.14	45961.10
585.30	45514.06
585.46	45741.09
585.62	45792.58
585.78	45691.94
585.94	45600.66
586.10	45610.02
586.26	45333.84
586.42	45879.18
586.58	45825.35
586.74	45614.70
586.90	45670.87
587.06	45965.78
587.22	45895.56
587.38	45916.63
587.54	45996.21
587.70	46192.81
587.86	45855.78
588.02	45970.46
588.18	45801.94
588.34	45600.66
588.49	45640.45
588.65	45254.26
588.81	45184.04
588.97	45560.87
589.13	45640.45
589.29	45633.42
589.45	45556.19
589.61	45268.30
589.77	46075.79
589.93	45764.49
590.08	46326.22
