SpectraSuite Data File
++++++++++++++++++++++++++++++++++++
Date: Fri Oct 25 11:34:15 EDT 2013
User: price-jones
Dark Spectrum Present: No
Reference Spectrum Present: No
Number of Sampled Component Spectra: 1
Spectrometers: USB2+H05261
Integration Time (usec): 100000 (USB2+H05261)
Spectra Averaged: 1 (USB2+H05261)
Boxcar Smoothing: 0 (USB2+H05261)
Correct for Electrical Dark: No (USB2+H05261)
Strobe/Lamp Enabled: No (USB2+H05261)
Correct for Detector Non-linearity: No (USB2+H05261)
Correct for Stray Light: No (USB2+H05261)
Number of Pixels in Processed Spectrum: 2048
>>>>>Begin Processed Spectral Data<<<<<
365.73	299.59
365.92	299.59
366.12	299.59
366.32	238.73
366.52	227.03
366.72	294.91
366.91	205.97
367.11	149.79
367.31	196.60
367.51	189.58
367.70	131.07
367.90	238.73
368.10	175.54
368.30	227.03
368.49	201.29
368.69	220.01
368.89	227.03
369.09	163.84
369.28	205.97
369.48	177.88
369.68	198.95
369.87	252.78
370.07	283.20
370.27	287.89
370.47	320.65
370.66	461.09
370.86	440.02
371.06	514.92
371.25	531.30
371.45	468.11
371.65	512.58
371.84	585.13
372.04	592.16
372.24	648.33
372.44	550.03
372.63	582.79
372.83	610.88
373.03	580.45
373.22	643.65
373.42	678.76
373.62	613.22
373.81	772.38
374.01	631.94
374.21	690.46
374.40	653.01
374.60	603.86
374.79	624.92
374.99	610.88
375.19	622.58
375.38	669.39
375.58	671.73
375.78	610.88
375.97	627.26
376.17	653.01
376.37	606.20
376.56	697.48
376.76	638.97
376.95	699.82
377.15	638.97
377.35	620.24
377.54	702.16
377.74	695.14
377.93	688.12
378.13	763.01
378.33	713.86
378.52	725.57
378.72	711.52
378.91	631.94
379.11	704.50
379.31	716.20
379.50	734.93
379.70	751.31
379.89	657.69
380.09	669.39
380.28	671.73
380.48	648.33
380.68	725.57
380.87	720.88
381.07	727.91
381.26	730.25
381.46	812.17
381.65	716.20
381.85	753.65
382.04	791.10
382.24	770.04
382.43	767.70
382.63	760.67
382.83	697.48
383.02	758.33
383.22	856.64
383.41	795.78
383.61	763.01
383.80	779.40
384.00	840.25
384.19	802.80
384.39	730.25
384.58	809.83
384.78	882.38
384.97	851.96
385.17	842.59
385.36	791.10
385.56	891.74
385.75	826.21
385.95	915.15
386.14	915.15
386.34	823.87
386.53	819.19
386.72	854.30
386.92	882.38
387.11	844.93
387.31	821.53
387.50	854.30
387.70	784.08
387.89	992.39
388.09	931.53
388.28	828.55
388.48	861.32
388.67	926.85
388.86	924.51
389.06	950.26
389.25	987.71
389.45	868.34
389.64	866.00
389.84	954.94
390.03	931.53
390.22	936.21
390.42	947.92
390.61	894.08
390.81	912.81
391.00	945.58
391.19	985.37
391.39	999.41
391.58	943.24
391.78	994.73
391.97	1027.50
392.16	997.07
392.36	1048.56
392.55	1076.65
392.75	1015.79
392.94	1048.56
393.13	1071.97
393.33	1034.52
393.52	1121.12
393.71	1125.80
393.91	1011.11
394.10	1097.71
394.29	1114.10
394.49	1071.97
394.68	1172.61
394.88	1116.44
395.07	1151.54
395.26	1100.05
395.46	1137.50
395.65	1088.35
395.84	1196.01
396.04	1193.67
396.23	1212.40
396.42	1196.01
396.62	1144.52
396.81	1221.76
397.00	1221.76
397.19	1219.42
397.39	1193.67
397.58	1170.27
397.77	1247.51
397.97	1179.63
398.16	1179.63
398.35	1238.14
398.55	1303.68
398.74	1167.93
398.93	1275.59
399.12	1231.12
399.32	1299.00
399.51	1350.49
399.70	1266.23
399.90	1261.55
400.09	1364.53
400.28	1317.72
400.47	1362.19
400.67	1308.36
400.86	1385.60
401.05	1362.19
401.24	1413.68
401.44	1432.41
401.63	1458.15
401.82	1434.75
402.01	1540.07
402.21	1394.96
402.40	1465.18
402.59	1418.36
402.78	1493.26
402.97	1493.26
403.17	1488.58
403.36	1509.65
403.55	1551.78
403.74	1540.07
403.93	1549.43
404.13	1596.25
404.32	1554.12
404.51	1551.78
404.70	1600.93
404.89	1526.03
405.09	1605.61
405.28	1650.08
405.47	1668.80
405.66	1717.95
405.85	1621.99
406.05	1689.87
406.24	1654.76
406.43	1748.38
406.62	1783.49
406.81	1837.32
407.00	1755.40
407.20	1727.32
407.39	1778.81
407.58	1717.95
407.77	1792.85
407.96	1816.26
408.15	1867.75
408.34	1893.49
408.54	1858.39
408.73	1956.69
408.92	1881.79
409.11	1914.56
409.30	1933.28
409.49	1947.33
409.68	1963.71
409.87	1977.75
410.07	2010.52
410.26	1973.07
410.45	2083.08
410.64	1984.77
410.83	2101.80
411.02	2104.14
411.21	2260.96
411.40	2010.52
411.59	2153.29
411.78	2167.34
411.98	2197.76
412.17	2176.70
412.36	2127.55
412.55	2237.55
412.74	2251.60
412.93	2303.09
413.12	2265.64
413.31	2359.26
413.50	2260.96
413.69	2347.56
413.88	2427.14
414.07	2450.54
414.26	2389.69
414.45	2455.22
414.64	2347.56
414.83	2509.05
415.02	2436.50
415.22	2581.61
415.41	2509.05
415.60	2541.82
415.79	2602.68
415.98	2729.06
416.17	2644.81
416.36	2544.16
416.55	2787.58
416.74	2846.09
416.93	2715.02
417.12	2771.19
417.31	2785.24
417.50	2808.64
417.69	2855.45
417.88	2942.05
418.07	2799.28
418.26	2928.01
418.45	2974.82
418.64	3098.87
418.83	2963.12
419.02	2970.14
419.21	3117.59
419.39	2958.44
419.58	2904.60
419.77	3054.40
419.96	3049.72
420.15	3131.64
420.34	3061.42
420.53	3061.42
420.72	3038.02
420.91	3180.79
421.10	3213.56
421.29	3307.18
421.48	3101.21
421.67	3300.16
421.86	3236.96
422.05	3180.79
422.24	3117.59
422.43	3229.94
422.61	3337.60
422.80	3335.26
422.99	3281.43
423.18	3412.50
423.37	3346.97
423.56	3283.77
423.75	3290.79
423.94	3124.62
424.13	3098.87
424.32	3180.79
424.50	3426.54
424.69	3559.95
424.88	3442.93
425.07	3253.34
425.26	3243.98
425.45	3344.63
425.64	3419.52
425.83	3400.80
426.01	3468.67
426.20	3342.28
426.39	3426.54
426.58	3351.65
426.77	3307.18
426.96	3492.08
427.15	3368.03
427.33	3396.12
427.52	3501.44
427.71	3536.55
427.90	3555.27
428.09	3606.77
428.28	3625.49
428.46	3503.78
428.65	3527.19
428.84	3751.88
429.03	3721.45
429.22	3639.53
429.40	3545.91
429.59	3641.87
429.78	3543.57
429.97	3559.95
430.16	3707.41
430.34	3808.05
430.53	3885.29
430.72	3915.72
430.91	3744.86
431.10	3702.73
431.28	3854.86
431.47	3875.93
431.66	4021.04
431.85	3857.20
432.03	3894.65
432.22	3971.89
432.41	4004.66
432.60	3927.42
432.79	3999.98
432.97	4042.11
433.16	4004.66
433.35	3871.25
433.54	4023.38
433.72	3976.57
433.91	4021.04
434.10	4058.49
434.28	4121.68
434.47	4161.47
434.66	4198.92
434.85	4250.41
435.03	4266.80
435.22	4304.25
435.41	4236.37
435.59	4252.75
435.78	4297.22
435.97	4290.20
436.16	4306.59
436.34	4259.78
436.53	4250.41
436.72	4379.14
436.90	4313.61
437.09	4456.38
437.28	4372.12
437.46	4444.68
437.65	4332.33
437.84	4505.53
438.02	4528.94
438.21	4599.15
438.40	4489.15
438.58	4674.05
438.77	4704.48
438.96	4622.56
439.14	4692.77
439.33	4732.56
439.52	4812.14
439.70	4812.14
439.89	4887.04
440.08	4992.36
440.26	4826.18
440.45	4980.66
440.63	4964.28
440.82	5022.79
441.01	4861.29
441.19	5039.17
441.38	5001.72
441.57	5006.41
441.75	5296.63
441.94	5296.63
442.12	5135.14
442.31	5301.31
442.50	5308.34
442.68	5240.46
442.87	5378.55
443.05	5280.25
443.24	5467.49
443.43	5423.02
443.61	5551.75
443.80	5514.30
443.98	5432.38
444.17	5219.39
444.35	5359.83
444.54	5469.83
444.73	5572.82
444.91	5413.66
445.10	5434.72
445.28	5600.90
445.47	5486.22
445.65	5605.58
445.84	5441.75
446.02	5593.88
446.21	5476.85
446.39	5404.30
446.58	5563.45
446.77	5748.36
446.95	5500.26
447.14	5540.05
447.32	5598.56
447.51	5591.54
447.69	5516.64
447.88	5650.05
448.06	5474.51
448.25	5605.58
448.43	5636.01
448.62	5628.99
448.80	5724.95
448.99	5694.52
449.17	5774.10
449.36	5708.57
449.54	5678.14
449.73	5900.49
449.91	5977.73
450.10	5762.40
450.28	5989.43
450.46	6043.26
450.65	5841.98
450.83	5944.96
451.02	5872.40
451.20	6033.90
451.39	6073.69
451.57	6125.18
451.76	5966.03
451.94	5870.06
452.13	6108.80
452.31	6256.25
452.49	6214.12
452.68	6263.27
452.86	6113.48
453.05	6108.80
453.23	6375.62
453.42	6122.84
453.60	6045.60
453.78	6314.77
453.97	6359.24
454.15	6218.80
454.34	6286.68
454.52	6487.96
454.70	6399.02
454.89	6312.42
455.07	6502.01
455.26	6480.94
455.44	6675.21
455.62	6609.67
455.81	6417.75
455.99	6597.97
456.17	6576.91
456.36	6567.54
456.54	6764.15
456.73	6710.32
456.91	6729.04
457.09	6829.68
457.28	6827.34
457.46	6649.46
457.64	6918.62
457.83	6785.21
458.01	6736.06
458.19	6927.99
458.38	6998.20
458.56	6881.18
458.74	6965.43
458.93	7007.56
459.11	7023.95
459.29	7070.76
459.48	7087.14
459.66	7047.35
459.84	7110.55
460.03	7222.89
460.21	7136.29
460.39	7157.36
460.57	7143.32
460.76	7321.20
460.94	7335.24
461.12	7431.20
461.31	7089.48
461.49	7227.57
461.67	7236.94
461.85	7480.35
462.04	7407.80
462.22	7946.12
462.40	7365.67
462.59	7480.35
462.77	7412.48
462.95	7403.11
463.13	7524.82
463.32	7728.45
463.50	7606.74
463.68	7702.70
463.86	7831.43
464.05	7506.10
464.23	7566.95
464.41	7868.88
464.59	7655.89
464.78	7894.63
464.96	7796.32
465.14	7688.66
465.32	7906.33
465.50	7829.09
465.69	7749.51
465.87	7936.76
466.05	7761.22
466.23	7885.26
466.41	7962.50
466.60	8152.09
466.78	7882.92
466.96	7964.84
467.14	7997.61
467.32	8042.08
467.51	8231.66
467.69	7960.16
467.87	8044.42
468.05	8095.91
468.23	8152.09
468.41	8084.21
468.60	8152.09
468.78	8222.30
468.96	8128.68
469.14	8334.65
469.32	8454.02
469.50	8322.94
469.69	8458.70
469.87	8470.40
470.05	8648.28
470.23	8688.07
470.41	8498.49
470.59	8730.20
470.77	8491.46
470.95	8603.81
471.14	8872.97
471.32	8414.23
471.50	8915.10
471.68	8669.34
471.86	8975.95
472.04	8849.57
472.22	9090.64
472.40	8910.42
472.58	8922.12
472.77	8898.72
472.95	9144.47
473.13	9392.57
473.31	9064.89
473.49	9359.80
473.67	9083.62
473.85	9357.46
474.03	9589.17
474.21	9465.13
474.39	9523.64
474.57	9369.16
474.75	9490.87
474.93	9689.82
475.12	9687.48
475.30	9898.13
475.48	9685.14
475.66	9643.01
475.84	9809.19
476.02	9811.53
476.20	10111.11
476.38	10050.26
476.56	10595.61
476.74	10469.22
476.92	10223.46
477.10	10038.56
477.28	10399.00
477.46	10401.34
477.64	10516.03
477.82	10651.78
478.00	10895.19
478.18	10766.46
478.36	10902.22
478.54	11166.70
478.72	11007.54
478.90	11159.67
479.08	11243.93
479.26	11445.22
479.44	11152.65
479.62	11613.74
479.80	11290.74
479.98	11646.51
480.16	11681.61
480.34	11737.79
480.52	11903.96
480.70	12060.78
480.88	11857.15
481.06	11992.90
481.24	12224.62
481.41	12112.27
481.59	12205.89
481.77	12493.78
481.95	12617.83
482.13	12498.46
482.31	12732.51
482.49	12971.25
482.67	12964.23
482.85	12980.61
483.03	13209.98
483.21	13153.81
483.39	13397.23
483.57	13415.95
483.74	13652.34
483.92	13582.13
484.10	13525.96
484.28	13827.88
484.46	14022.15
484.64	14427.06
484.82	13912.14
485.00	14319.40
485.18	14548.77
485.35	14703.25
485.53	14448.13
485.71	14736.01
485.89	14909.21
486.07	14946.66
486.25	15054.33
486.43	14984.11
486.61	15253.27
486.78	15606.69
486.96	15229.87
487.14	15807.98
487.32	15592.65
487.50	16093.52
487.68	15871.17
487.85	15953.09
488.03	16369.71
488.21	16582.70
488.39	16313.53
488.57	16601.42
488.75	16938.46
488.92	16858.88
489.10	17106.98
489.28	17214.64
489.46	17242.73
489.64	17022.72
489.81	17638.28
489.99	17661.68
490.17	17717.86
490.35	18001.06
490.53	18155.54
490.70	18057.23
490.88	18094.68
491.06	18640.03
491.24	18539.38
491.41	18469.17
491.59	18616.62
491.77	18373.21
491.95	18881.10
492.13	19091.75
492.30	19262.61
492.48	19213.46
492.66	19110.47
492.84	19276.65
493.01	19527.09
493.19	19761.14
493.37	19864.13
493.54	19957.75
493.72	20126.27
493.90	20060.73
494.08	20166.06
494.25	20004.56
494.43	20439.90
494.61	20503.09
494.79	20596.71
494.96	20563.95
495.14	20833.11
495.32	21343.35
495.49	20952.48
495.67	20992.26
495.85	21556.33
496.02	21404.20
496.20	21956.57
496.38	21593.78
496.55	21839.54
496.73	22382.54
496.91	21743.58
497.09	22244.45
497.26	22232.75
497.44	22384.88
497.62	22508.93
497.79	22778.09
497.97	22742.99
498.14	22974.70
498.32	22967.68
498.50	23173.64
498.67	22970.02
498.85	23103.43
499.03	23293.01
499.20	23225.14
499.38	23573.88
499.56	23405.36
499.73	23304.71
499.91	23917.93
500.08	24049.00
500.26	23559.83
500.44	23864.10
500.61	24051.34
500.79	24357.96
500.97	24306.46
501.14	24900.96
501.32	24636.48
501.49	24437.53
501.67	24395.40
501.84	24652.86
502.02	24985.22
502.20	25284.81
502.37	24725.42
502.55	24917.34
502.72	25214.59
502.90	25247.36
503.07	24896.28
503.25	25230.98
503.43	25357.36
503.60	25383.11
503.78	25591.42
503.95	25923.77
504.13	25514.18
504.30	25771.64
504.48	25991.65
504.65	26068.89
504.83	26445.71
505.01	26536.99
505.18	26333.37
505.36	26544.02
505.53	26305.28
505.71	26726.58
505.88	27033.19
506.06	26192.94
506.23	26998.08
506.41	26698.49
506.58	27072.98
506.76	26944.25
506.93	27311.71
507.11	27077.66
507.28	27302.35
507.46	27370.22
507.63	27103.40
507.81	27461.51
507.98	27637.05
508.16	27370.22
508.33	27817.27
508.50	27501.29
508.68	28098.13
508.85	28046.64
509.03	28147.28
509.20	28299.42
509.38	28683.27
509.55	28463.25
509.73	28114.52
509.90	28669.22
510.08	28493.68
510.25	28755.82
510.42	29104.56
510.60	29198.18
510.77	28870.51
510.95	29294.14
511.12	28725.39
511.30	29273.08
511.47	29340.96
511.64	29390.11
511.82	29336.27
511.99	29481.39
512.17	29752.89
512.34	29247.33
512.51	29820.77
512.69	30108.65
512.86	29584.37
513.04	29916.73
513.21	30298.23
513.38	30204.61
513.56	30349.73
513.73	29921.41
513.90	30497.18
514.08	30190.57
514.25	30623.57
514.43	30661.02
514.60	30581.44
514.77	30876.35
514.95	31007.42
515.12	30249.08
515.29	30752.30
515.47	31115.08
515.64	31154.87
515.81	31131.47
515.99	31321.05
516.16	31318.71
516.33	31494.25
516.51	31426.37
516.68	31274.24
516.85	31505.95
517.03	31744.69
517.20	31419.35
517.37	31639.36
517.54	32210.45
517.72	31871.07
517.89	32018.53
518.06	31871.07
518.24	31915.54
518.41	31768.09
518.58	32147.26
518.75	32077.04
518.93	32776.86
519.10	32180.03
519.27	32290.03
519.45	32135.56
519.62	32716.01
519.79	32240.88
519.96	32811.97
520.14	32634.09
520.31	32453.87
520.48	33055.39
520.65	33092.83
520.83	33181.77
521.00	33282.42
521.17	33163.05
521.34	33479.02
521.52	33479.02
521.69	33638.18
521.86	33560.94
522.03	33579.67
522.20	33776.27
522.38	34354.38
522.55	34043.09
522.72	33565.62
522.89	33867.55
523.07	33986.92
523.24	33890.96
523.41	34621.20
523.58	33944.79
523.75	34209.27
523.92	34457.37
524.10	34464.39
524.27	34412.90
524.44	34590.78
524.61	35295.28
524.78	34506.52
524.96	35021.44
525.13	35178.25
525.30	35379.54
525.47	35211.02
525.64	34782.70
525.81	35012.07
525.98	35192.30
526.16	35269.53
526.33	35086.97
526.50	35585.50
526.67	35152.51
526.84	35646.36
527.01	35501.25
527.18	35473.16
527.36	35885.09
527.53	35716.58
527.70	36039.57
527.87	36208.09
528.04	36025.53
528.21	35889.77
528.38	35924.88
528.55	36219.79
528.72	36203.41
528.89	36116.81
529.07	36016.16
529.24	35737.64
529.41	36465.55
529.58	36201.07
529.75	36570.87
529.92	36423.42
530.09	36437.46
530.26	36538.10
530.43	36549.81
530.60	36315.75
530.77	36465.55
530.94	36825.99
531.11	36594.28
531.28	36818.97
531.46	36620.02
531.63	37214.52
531.80	36952.38
531.97	37450.91
532.14	37303.46
532.31	37130.26
532.48	37373.67
532.65	37371.33
532.82	37453.25
532.99	37336.23
533.16	37486.02
533.33	37626.45
533.50	37516.45
533.67	37839.44
533.84	37560.92
534.01	37490.70
534.18	37427.51
534.35	38291.16
534.52	38000.94
534.69	37996.26
534.86	38080.52
535.03	38117.96
535.20	38267.76
535.37	38459.68
535.54	38291.16
535.71	38206.90
535.88	38366.06
536.05	38204.56
536.22	38850.55
536.38	38665.65
536.55	38155.41
536.72	38293.50
536.89	38621.18
537.06	38466.70
537.23	38518.20
537.40	38845.87
537.57	38546.28
537.74	38955.88
537.91	39229.72
538.08	39056.52
538.25	38637.56
538.42	39260.15
538.59	39405.26
538.75	38911.41
538.92	39646.33
539.09	39510.58
539.26	39351.43
539.43	39185.25
539.60	39206.31
539.77	39431.01
539.94	39737.62
540.11	39529.31
540.28	39339.72
540.44	39651.02
540.61	39873.37
540.78	39452.07
540.95	39641.65
541.12	39433.35
541.29	39604.20
541.46	39681.44
541.62	39821.87
541.79	40058.27
541.96	39676.76
542.13	40058.27
542.30	39931.88
542.47	39971.67
542.63	40006.78
542.80	40423.39
542.97	40308.71
543.14	40903.20
543.31	40233.81
543.48	40652.76
543.64	41076.40
543.81	41020.23
543.98	40631.70
544.15	40966.40
544.32	40804.90
544.48	40994.48
544.65	40814.26
544.82	40502.97
544.99	40942.99
545.16	41202.79
545.32	40926.61
545.49	41282.37
545.66	41596.00
545.83	41226.20
546.00	41703.67
546.16	41099.81
546.33	40790.86
546.50	40697.24
546.67	41734.09
546.83	41081.08
547.00	41490.68
547.17	41310.46
547.34	41586.64
547.50	41635.79
547.67	41982.19
547.84	41226.20
548.00	41830.05
548.17	42302.84
548.34	42024.32
548.51	41530.47
548.67	42052.41
548.84	42246.67
549.01	41797.29
549.18	42031.34
549.34	42218.58
549.51	41895.59
549.68	42148.37
549.84	41944.74
550.01	42359.02
550.18	41785.58
550.34	42211.56
550.51	42440.93
550.68	42466.68
550.84	42075.81
551.01	42705.41
551.18	42199.86
551.34	42295.82
551.51	42438.59
551.68	42249.01
551.84	42389.44
552.01	42384.76
552.18	42857.55
552.34	42459.66
552.51	42370.72
552.68	42787.33
552.84	42330.93
553.01	42834.14
553.18	42726.48
553.34	42873.93
553.51	42670.31
553.67	42878.61
553.84	43494.18
554.01	43194.59
554.17	42841.17
554.34	43189.91
554.51	43012.02
554.67	43442.68
554.84	43681.42
555.00	43222.67
555.17	43140.75
555.33	43662.69
555.50	43217.99
555.67	43501.20
555.83	43566.73
556.00	43393.53
556.16	44060.58
556.33	43152.46
556.50	43714.19
556.66	43550.35
556.83	43152.46
556.99	44198.68
557.16	44201.02
557.32	43955.26
557.49	44133.14
557.65	43739.93
557.82	43875.68
557.98	43187.56
558.15	43613.54
558.32	43786.74
558.48	43828.87
558.65	43636.95
558.81	43653.33
558.98	44039.52
559.14	43725.89
559.31	44100.37
559.47	44170.59
559.64	44076.97
559.80	44044.20
559.97	44135.48
560.13	44542.74
560.30	44013.77
560.46	44421.03
560.63	44186.97
560.79	44584.86
560.96	44521.67
561.12	44732.32
561.29	44280.60
561.45	44430.39
561.61	44350.81
561.78	44371.88
561.94	44591.89
562.11	44154.21
562.27	43831.21
562.44	44577.84
562.60	44755.72
562.77	44495.92
562.93	44449.11
563.10	45186.38
563.26	44526.35
563.42	45404.05
563.59	44568.48
563.75	44357.83
563.92	44608.27
564.08	44421.03
564.24	44900.84
564.41	44189.31
564.57	44708.91
564.74	44849.35
564.90	44711.25
565.07	44776.79
565.23	45315.11
565.39	44577.84
565.56	44690.19
565.72	45193.40
565.88	44980.42
566.05	44741.68
566.21	44713.59
566.38	44931.26
566.54	45214.47
566.70	45134.89
566.87	45144.25
567.03	44765.09
567.19	45074.04
567.36	44919.56
567.52	45261.28
567.68	45212.13
567.85	44921.90
568.01	45174.68
568.17	44760.40
568.34	45848.75
568.50	45256.60
568.66	44957.01
568.83	45249.58
568.99	45408.73
569.15	45242.56
569.32	45390.01
569.48	44964.03
569.64	45165.32
569.81	45336.18
569.97	45317.45
570.13	45811.31
570.30	45048.29
570.46	45467.25
570.62	45492.99
570.78	45265.96
570.95	45469.59
571.11	44847.00
571.27	45193.40
571.43	45340.86
571.60	45172.34
571.76	45263.62
571.92	45549.17
572.09	45272.98
572.25	45059.99
572.41	45230.85
572.57	45350.22
572.74	45715.34
572.90	45647.47
573.06	45698.96
573.22	45656.83
573.38	45600.66
573.55	45647.47
573.71	46036.00
573.87	45631.08
574.03	45303.41
574.20	45846.41
574.36	45275.32
574.52	46277.07
574.68	45528.10
574.84	45752.79
575.01	46188.13
575.17	45731.73
575.33	45764.49
575.49	45497.67
575.65	46150.68
575.82	45553.85
575.98	45240.21
576.14	45579.59
576.30	46185.79
576.46	45558.53
576.62	45617.04
576.79	45848.75
576.95	45684.92
577.11	45404.05
577.27	45736.41
577.43	46162.39
577.59	45483.63
577.75	45745.77
577.92	45268.30
578.08	45717.68
578.24	45701.30
578.40	45514.06
578.56	45989.19
578.72	45820.67
578.88	45956.42
579.04	45628.74
579.21	45591.30
579.37	46000.89
579.53	45998.55
579.69	45799.60
579.85	45911.95
580.01	45940.04
580.17	45839.39
580.33	46113.23
580.49	46515.81
580.65	46122.60
580.82	45825.35
580.98	45848.75
581.14	45607.68
581.30	45785.56
581.46	45652.15
581.62	46005.57
581.78	45823.01
581.94	46045.36
582.10	45839.39
582.26	45956.42
582.42	45904.93
582.58	46064.08
582.74	46391.76
582.90	46373.03
583.06	45968.12
583.22	45984.51
583.38	46106.21
583.54	46405.80
583.70	45951.74
583.86	45940.04
584.02	46183.45
584.18	45947.06
584.34	46036.00
584.50	46061.74
584.66	46490.06
584.82	46075.79
584.98	46649.22
585.14	46251.33
585.30	45951.74
585.46	46162.39
585.62	45879.18
585.78	46003.23
585.94	45497.67
586.10	46143.66
586.26	46387.08
586.42	46209.20
586.58	46277.07
586.74	46211.54
586.90	45853.44
587.06	45876.84
587.22	46375.37
587.38	45998.55
587.54	46618.79
587.70	46492.40
587.86	46089.83
588.02	46075.79
588.18	46319.20
588.34	46270.05
588.49	45961.10
588.65	46101.53
588.81	46155.36
588.97	46260.69
589.13	46202.18
589.29	46028.98
589.45	46340.27
589.61	46021.95
589.77	46368.35
589.93	46356.65
590.08	46548.57
