SpectraSuite Data File
++++++++++++++++++++++++++++++++++++
Date: Fri Oct 25 10:48:13 EDT 2013
User: price-jones
Dark Spectrum Present: No
Reference Spectrum Present: No
Number of Sampled Component Spectra: 1
Spectrometers: USB2+H05261
Integration Time (usec): 100000 (USB2+H05261)
Spectra Averaged: 1 (USB2+H05261)
Boxcar Smoothing: 0 (USB2+H05261)
Correct for Electrical Dark: No (USB2+H05261)
Strobe/Lamp Enabled: No (USB2+H05261)
Correct for Detector Non-linearity: No (USB2+H05261)
Correct for Stray Light: No (USB2+H05261)
Number of Pixels in Processed Spectrum: 2048
>>>>>Begin Processed Spectral Data<<<<<
365.73	126.39
365.92	126.39
366.12	126.39
366.32	0.00
366.52	72.56
366.72	32.77
366.91	72.56
367.11	65.54
367.31	49.15
367.51	0.00
367.70	0.00
367.90	86.60
368.10	0.00
368.30	9.36
368.49	70.22
368.69	42.13
368.89	145.11
369.09	105.32
369.28	72.56
369.48	142.77
369.68	163.84
369.87	133.41
370.07	110.01
370.27	138.09
370.47	189.58
370.66	440.02
370.86	444.70
371.06	425.98
371.25	449.38
371.45	468.11
371.65	535.98
371.84	407.25
372.04	470.45
372.24	468.11
372.44	498.53
372.63	421.30
372.83	554.71
373.03	517.26
373.22	479.81
373.42	601.52
373.62	545.34
373.81	547.69
374.01	592.16
374.21	585.13
374.40	514.92
374.60	645.99
374.79	573.43
374.99	575.77
375.19	547.69
375.38	587.47
375.58	540.66
375.78	599.18
375.97	643.65
376.17	606.20
376.37	589.82
376.56	568.75
376.76	573.43
376.95	587.47
377.15	587.47
377.35	622.58
377.54	674.07
377.74	575.77
377.93	641.31
378.13	627.26
378.33	622.58
378.52	557.05
378.72	617.90
378.91	620.24
379.11	608.54
379.31	606.20
379.50	704.50
379.70	634.29
379.89	636.63
380.09	653.01
380.28	653.01
380.48	723.23
380.68	671.73
380.87	638.97
381.07	674.07
381.26	669.39
381.46	645.99
381.65	748.97
381.85	706.84
382.04	664.71
382.24	713.86
382.43	662.37
382.63	641.31
382.83	603.86
383.02	751.31
383.22	751.31
383.41	727.91
383.61	819.19
383.80	748.97
384.00	774.72
384.19	791.10
384.39	798.12
384.58	814.51
384.78	763.01
384.97	760.67
385.17	828.55
385.36	706.84
385.56	723.23
385.75	800.46
385.95	805.14
386.14	814.51
386.34	866.00
386.53	793.44
386.72	772.38
386.92	807.48
387.11	732.59
387.31	870.68
387.50	809.83
387.70	858.98
387.89	844.93
388.09	837.91
388.28	861.32
388.48	901.11
388.67	940.90
388.86	866.00
389.06	894.08
389.25	922.17
389.45	903.45
389.64	983.02
389.84	915.15
390.03	945.58
390.22	987.71
390.42	877.70
390.61	945.58
390.81	938.55
391.00	1057.92
391.19	957.28
391.39	1006.43
391.58	1022.81
391.78	912.81
391.97	919.83
392.16	1001.75
392.36	1018.13
392.55	919.83
392.75	987.71
392.94	1034.52
393.13	950.26
393.33	968.98
393.52	1041.54
393.71	1090.69
393.91	1064.94
394.10	1041.54
394.29	1156.22
394.49	1057.92
394.68	1139.84
394.88	1116.44
395.07	1177.29
395.26	1193.67
395.46	1156.22
395.65	1050.90
395.84	1130.48
396.04	1224.10
396.23	1203.04
396.42	1130.48
396.62	1128.14
396.81	1235.80
397.00	1163.25
397.19	1263.89
397.39	1245.16
397.58	1336.45
397.77	1341.13
397.97	1284.95
398.16	1313.04
398.35	1345.81
398.55	1317.72
398.74	1334.11
398.93	1280.27
399.12	1336.45
399.32	1352.83
399.51	1362.19
399.70	1434.75
399.90	1453.47
400.09	1371.55
400.28	1460.49
400.47	1376.24
400.67	1439.43
400.86	1507.30
401.05	1427.73
401.24	1570.50
401.44	1540.07
401.63	1586.88
401.82	1535.39
402.01	1497.94
402.21	1584.54
402.40	1633.69
402.59	1605.61
402.78	1511.99
402.97	1502.62
403.17	1558.80
403.36	1598.59
403.55	1678.16
403.74	1743.70
403.93	1746.04
404.13	1640.72
404.32	1647.74
404.51	1722.63
404.70	1753.06
404.89	1760.08
405.09	1771.79
405.28	1771.79
405.47	1820.94
405.66	1839.66
405.85	1863.07
406.05	1753.06
406.24	1776.47
406.43	1802.21
406.62	1977.75
406.81	1919.24
407.00	1930.94
407.20	1811.57
407.39	1928.60
407.58	1905.20
407.77	1914.56
407.96	2033.93
408.15	2097.12
408.34	1933.28
408.54	1989.46
408.73	2001.16
408.92	1977.75
409.11	2143.93
409.30	2143.93
409.49	2045.63
409.68	1996.48
409.87	2062.01
410.07	2153.29
410.26	2125.21
410.45	2167.34
410.64	2207.13
410.83	2172.02
411.02	2223.51
411.21	2211.81
411.40	2209.47
411.59	2363.94
411.78	2349.90
411.98	2385.01
412.17	2396.71
412.36	2436.50
412.55	2445.86
412.74	2436.50
412.93	2480.97
413.12	2455.22
413.31	2644.81
413.50	2569.91
413.69	2569.91
413.88	2672.89
414.07	2621.40
414.26	2647.15
414.45	2691.62
414.64	2689.28
414.83	2801.62
415.02	2829.71
415.22	2787.58
415.41	2839.07
415.60	2885.88
415.79	2850.77
415.98	2911.63
416.17	3014.61
416.36	2972.48
416.55	2979.50
416.74	3021.63
416.93	2965.46
417.12	3070.78
417.31	2974.82
417.50	3014.61
417.69	3150.36
417.88	3070.78
418.07	3066.10
418.26	3059.08
418.45	3332.92
418.64	3356.33
418.83	3183.13
419.02	3243.98
419.21	3199.51
419.39	3178.45
419.58	3213.56
419.77	3297.81
419.96	3417.18
420.15	3400.80
420.34	3356.33
420.53	3337.60
420.72	3501.44
420.91	3342.28
421.10	3478.04
421.29	3452.29
421.48	3494.42
421.67	3391.44
421.86	3658.26
422.05	3529.53
422.24	3405.48
422.43	3391.44
422.61	3592.72
422.80	3468.67
422.99	3559.95
423.18	3609.11
423.37	3494.42
423.56	3669.96
423.75	3463.99
423.94	3468.67
424.13	3243.98
424.32	3309.52
424.50	3648.90
424.69	3665.28
424.88	3641.87
425.07	3606.77
425.26	3618.47
425.45	3578.68
425.64	3639.53
425.83	3641.87
426.01	3618.47
426.20	3529.53
426.39	3604.42
426.58	3651.24
426.77	3681.66
426.96	3735.50
427.15	3658.26
427.33	3566.98
427.52	3805.71
427.71	3749.54
427.90	3808.05
428.09	3803.37
428.28	3833.80
428.46	3882.95
428.65	3789.33
428.84	3833.80
429.03	3789.33
429.22	3751.88
429.40	3955.51
429.59	4018.70
429.78	3819.75
429.97	3693.37
430.16	3922.74
430.34	3719.11
430.53	3885.29
430.72	3955.51
430.91	3810.39
431.10	3934.44
431.28	4067.85
431.47	4278.50
431.66	4219.99
431.85	4156.79
432.03	4161.47
432.22	4142.75
432.41	4194.24
432.60	4322.97
432.79	4400.21
432.97	4285.52
433.16	4271.48
433.35	4297.22
433.54	4418.93
433.72	4505.53
433.91	4400.21
434.10	4308.93
434.28	4397.87
434.47	4470.42
434.66	4461.06
434.85	4379.14
435.03	4540.64
435.22	4491.49
435.41	4629.58
435.59	4568.73
435.78	4765.33
435.97	4678.73
436.16	4671.71
436.34	4641.28
436.53	4681.07
436.72	4788.74
436.90	4737.24
437.09	4751.29
437.28	4667.03
437.46	4823.84
437.65	4662.35
437.84	4858.95
438.02	4898.74
438.21	4795.76
438.40	4842.57
438.58	4987.68
438.77	4919.81
438.96	4952.57
439.14	4945.55
439.33	5111.73
439.52	5093.01
439.70	5135.14
439.89	5160.88
440.08	5203.01
440.26	5195.99
440.45	5224.08
440.63	5343.44
440.82	5355.15
441.01	5254.50
441.19	5633.67
441.38	5659.42
441.57	5514.30
441.75	5563.45
441.94	5626.65
442.12	5790.49
442.31	5813.89
442.50	5689.84
442.68	5701.54
442.87	5837.30
443.05	5987.09
443.24	5961.34
443.43	5902.83
443.61	5951.98
443.80	5959.00
443.98	5757.72
444.17	5617.29
444.35	5774.10
444.54	5961.34
444.73	5870.06
444.91	5928.58
445.10	6038.58
445.28	5881.77
445.47	5849.00
445.65	5884.11
445.84	5980.07
446.02	5996.45
446.21	5959.00
446.39	6085.39
446.58	6029.22
446.77	6043.26
446.95	6010.50
447.14	6118.16
447.32	6167.31
447.51	6127.52
447.69	5956.66
447.88	6064.33
448.06	6043.26
448.25	6024.54
448.43	6209.44
448.62	6115.82
448.80	6274.98
448.99	6188.38
449.17	6359.24
449.36	6157.95
449.54	6443.49
449.73	6487.96
449.91	6382.64
450.10	6478.60
450.28	6558.18
450.46	6424.77
450.65	6497.33
450.83	6305.40
451.02	6382.64
451.20	6595.63
451.39	6642.44
451.57	6572.22
451.76	6502.01
451.94	6693.93
452.13	6595.63
452.31	6614.35
452.49	6509.03
452.68	6614.35
452.86	6604.99
453.05	6761.81
453.23	6656.48
453.42	6789.89
453.60	6754.79
453.78	6715.00
453.97	6780.53
454.15	6817.98
454.34	6782.87
454.52	6925.65
454.70	6700.95
454.89	6923.30
455.07	6949.05
455.26	6960.75
455.44	7084.80
455.62	6918.62
455.81	7054.37
455.99	6920.96
456.17	6995.86
456.36	7311.83
456.54	7119.91
456.73	7314.17
456.91	7307.15
457.09	7503.76
457.28	7442.90
457.46	7356.30
457.64	7595.04
457.83	7496.74
458.01	7265.02
458.19	7646.53
458.38	7255.66
458.56	7623.12
458.74	7557.59
458.93	7559.93
459.11	7515.46
459.29	7576.31
459.48	7559.93
459.66	7688.66
459.84	7660.57
460.03	7740.15
460.21	7843.14
460.39	7658.23
460.57	7655.89
460.76	7899.31
460.94	7967.18
461.12	7770.58
461.31	7920.37
461.49	7967.18
461.67	7840.79
461.85	8084.21
462.04	8131.02
462.22	8477.42
462.40	8102.93
462.59	8053.78
462.77	8114.64
462.95	8229.32
463.13	7995.27
463.32	8215.28
463.50	8297.20
463.68	8119.32
463.86	8126.34
464.05	8276.13
464.23	8109.96
464.41	8334.65
464.59	8114.64
464.78	8315.92
464.96	8241.03
465.14	8236.35
465.32	8524.23
465.50	8336.99
465.69	8446.99
465.87	8329.97
466.05	8449.33
466.23	8580.40
466.41	8711.47
466.60	8533.59
466.78	8259.75
466.96	8608.49
467.14	8528.91
467.32	8634.24
467.51	8744.24
467.69	8514.87
467.87	8692.75
468.05	8659.98
468.23	8786.37
468.41	8891.70
468.60	8587.43
468.78	8877.65
468.96	8924.46
469.14	8929.14
469.32	9076.60
469.50	8755.94
469.69	9078.94
469.87	9074.26
470.05	9130.43
470.23	9071.92
470.41	9034.47
470.59	9359.80
470.77	9090.64
470.95	8973.61
471.14	9275.54
471.32	9107.02
471.50	9624.28
471.68	9315.33
471.86	9404.27
472.04	9589.17
472.22	9544.70
472.40	9441.72
472.58	9420.66
472.77	9612.58
472.95	9727.27
473.13	10005.79
473.31	9771.74
473.49	9785.78
473.67	9675.77
473.85	9916.85
474.03	10251.55
474.21	10218.78
474.39	10129.84
474.57	10375.59
474.75	10207.08
474.93	10129.84
475.12	10279.63
475.30	10483.26
475.48	10270.27
475.66	10513.69
475.84	10312.40
476.02	10761.78
476.20	10705.61
476.38	10644.76
476.56	10738.38
476.74	10635.39
476.92	10993.50
477.10	10640.08
477.28	10932.64
477.46	11126.91
477.64	11211.17
477.82	11274.36
478.00	11557.57
478.18	11510.75
478.36	11534.16
478.54	11599.70
478.72	11854.81
478.90	11854.81
479.08	11819.71
479.26	12004.61
479.44	12006.95
479.62	12105.25
479.80	12372.07
479.98	12512.50
480.16	12713.79
480.34	12479.74
480.52	12793.37
480.70	12854.22
480.88	12674.00
481.06	12858.90
481.24	12837.84
481.41	12891.67
481.59	13231.05
481.77	13217.01
481.95	13446.38
482.13	13434.68
482.31	13413.61
482.49	13804.48
482.67	13830.23
482.85	13731.92
483.03	13965.98
483.21	13940.23
483.39	14052.58
483.57	14352.16
483.74	14441.11
483.92	14565.15
484.10	14532.39
484.28	14707.93
484.46	14934.96
484.64	15023.90
484.82	14647.07
485.00	15164.33
485.18	15215.82
485.35	15754.15
485.53	15070.71
485.71	15260.29
485.89	15279.02
486.07	15274.34
486.25	15506.05
486.43	15648.82
486.61	16002.24
486.78	16102.89
486.96	15894.58
487.14	16582.70
487.32	16498.44
487.50	16760.58
487.68	17036.76
487.85	17142.08
488.03	17429.97
488.21	17376.14
488.39	17380.82
488.57	17390.18
488.75	17406.56
488.92	17699.13
489.10	17872.33
489.28	18010.42
489.46	18225.75
489.64	18237.45
489.81	18689.18
489.99	18705.56
490.17	18719.60
490.35	18963.02
490.53	18939.62
490.70	18878.76
490.88	19056.64
491.06	19192.39
491.24	19288.35
491.41	19407.72
491.59	19370.27
491.77	19620.71
491.95	19761.14
492.13	20123.93
492.30	20011.58
492.48	20285.42
492.66	20250.32
492.84	20390.75
493.01	20741.83
493.19	20622.46
493.37	20442.24
493.54	20812.04
493.72	21163.12
493.90	20917.37
494.08	21605.49
494.25	21467.39
494.43	21357.39
494.61	21731.87
494.79	21488.46
494.96	21525.91
495.14	21813.79
495.32	21862.94
495.49	22232.75
495.67	22024.44
495.85	22576.81
496.02	22614.26
496.20	22436.38
496.38	22874.06
496.55	22654.05
496.73	23019.17
496.91	22817.88
497.09	23342.16
497.26	23080.02
497.44	23274.29
497.62	23370.25
497.79	23910.91
497.97	23496.64
498.14	23800.91
498.32	23796.23
498.50	23852.40
498.67	24210.50
498.85	24451.58
499.03	24524.13
499.20	24411.79
499.38	24486.68
499.56	24306.46
499.73	24709.04
499.91	24741.80
500.08	24762.87
500.26	24402.43
500.44	24961.81
500.61	24905.64
500.79	24994.58
500.97	25214.59
501.14	25532.90
501.32	25486.09
501.49	25486.09
501.67	25483.75
501.84	25851.22
502.02	25568.01
502.20	25926.11
502.37	26059.52
502.55	26183.57
502.72	26106.34
502.90	26092.29
503.07	26125.06
503.25	26054.84
503.43	26396.56
503.60	26546.36
503.78	26462.10
503.95	26506.57
504.13	26647.00
504.30	26831.90
504.48	27056.59
504.65	27112.77
504.83	27243.84
505.01	27318.73
505.18	27419.38
505.36	27777.48
505.53	27323.41
505.71	27435.76
505.88	27700.24
506.06	27463.85
506.23	28037.28
506.41	27597.26
506.58	28051.32
506.76	28231.54
506.93	28023.23
507.11	28486.66
507.28	28554.54
507.46	28425.81
507.63	28109.83
507.81	28481.98
507.98	28489.00
508.16	28568.58
508.33	28847.10
508.50	28734.76
508.68	28737.10
508.85	29446.28
509.03	28680.92
509.20	29212.23
509.38	29692.04
509.55	29390.11
509.73	29200.52
509.90	29523.52
510.08	29338.62
510.25	29617.14
510.42	29830.13
510.60	29696.72
510.77	29851.19
510.95	30000.99
511.12	30054.82
511.30	30132.06
511.47	30295.89
511.64	30405.90
511.82	30810.81
511.99	29692.04
512.17	30457.39
512.34	30099.29
512.51	30604.84
512.69	30974.65
512.86	30831.88
513.04	31056.57
513.21	30932.52
513.38	30927.84
513.56	31143.17
513.73	30810.81
513.90	31669.79
514.08	30979.33
514.25	31129.12
514.43	31515.31
514.60	31625.32
514.77	31330.41
514.95	31934.27
515.12	31328.07
515.29	32048.96
515.47	31718.94
515.64	32168.32
515.81	31943.63
515.99	32058.32
516.16	32084.06
516.33	32343.86
516.51	32486.64
516.68	31875.76
516.85	31697.88
517.03	31971.72
517.20	32222.16
517.37	32486.64
517.54	32327.48
517.72	32430.46
517.89	32385.99
518.06	32671.54
518.24	32158.96
518.41	32428.12
518.58	32582.60
518.75	32877.51
518.93	32931.34
519.10	33251.99
519.27	32924.32
519.45	32917.29
519.62	33315.19
519.79	33399.44
519.96	33574.98
520.14	34120.33
520.31	33661.58
520.48	33694.35
520.65	33867.55
520.83	34171.82
521.00	33989.26
521.17	34082.88
521.34	33926.07
521.52	33998.62
521.69	34087.56
521.86	34548.65
522.03	34494.82
522.20	34588.44
522.38	34520.56
522.55	34300.55
522.72	34527.58
522.89	34714.83
523.07	34504.18
523.24	34426.94
523.41	35222.72
523.58	34756.96
523.75	35353.79
523.92	35049.52
524.10	35318.68
524.27	35213.36
524.44	35704.87
524.61	35475.50
524.78	35681.47
524.96	35587.85
525.13	35948.29
525.30	35728.28
525.47	36107.44
525.64	36301.71
525.81	36158.94
525.98	35697.85
526.16	35620.61
526.33	35651.04
526.50	35971.69
526.67	35400.60
526.84	35889.77
527.01	35777.43
527.18	35800.83
527.36	36568.53
527.53	36219.79
527.70	36856.42
527.87	36964.08
528.04	36353.20
528.21	36198.73
528.38	36664.49
528.55	36840.03
528.72	36912.59
528.89	36973.44
529.07	36877.48
529.24	36631.72
529.41	36643.43
529.58	36875.14
529.75	36989.83
529.92	37160.69
530.09	36730.03
530.26	37205.16
530.43	37186.43
530.60	36917.27
530.77	37116.22
530.94	37406.44
531.11	37383.04
531.28	37715.39
531.46	37516.45
531.63	37427.51
531.80	37530.49
531.97	37951.79
532.14	37755.18
532.31	37427.51
532.48	38043.07
532.65	37818.38
532.82	37933.06
532.99	38117.96
533.16	37818.38
533.33	37998.60
533.50	38197.54
533.67	38188.18
533.84	37909.66
534.01	38202.22
534.18	38384.79
534.35	38700.76
534.52	37902.64
534.69	38583.73
534.86	38569.69
535.03	38117.96
535.20	38382.45
535.37	38993.32
535.54	39131.42
535.71	39299.94
535.88	38883.32
536.05	38635.22
536.22	38740.55
536.38	39105.67
536.55	38696.08
536.72	39175.89
536.89	38951.20
537.06	38871.62
537.23	39210.99
537.40	39232.06
537.57	39215.68
537.74	39370.15
537.91	39576.12
538.08	39335.04
538.25	39470.79
538.42	39503.56
538.59	39847.62
538.75	39686.12
538.92	39145.46
539.09	39924.86
539.26	39658.04
539.43	40069.97
539.60	39349.09
539.77	39749.32
539.94	39798.47
540.11	39824.22
540.28	39737.62
540.44	39707.19
540.61	39744.64
540.78	39978.69
540.95	40362.54
541.12	39608.89
541.29	40175.30
541.46	39761.02
541.62	40229.13
541.79	40432.75
541.96	39962.31
542.13	40252.53
542.30	40301.68
542.47	40512.33
542.63	40402.33
542.80	40659.79
542.97	41177.04
543.14	40643.40
543.31	41319.82
543.48	41001.50
543.64	41048.32
543.81	41340.88
543.98	41240.24
544.15	40612.98
544.32	41535.15
544.48	41064.70
544.65	41603.02
544.82	41282.37
544.99	41006.19
545.16	41123.21
545.32	41429.82
545.49	41546.85
545.66	41752.82
545.83	41207.47
546.00	41366.63
546.16	41759.84
546.33	41434.50
546.50	41160.66
546.67	41736.43
546.83	41134.92
547.00	41427.48
547.17	41443.87
547.34	41158.32
547.50	41383.01
547.67	41638.13
547.84	41727.07
548.00	41727.07
548.17	42361.36
548.34	42436.25
548.51	41904.95
548.67	42146.03
548.84	42263.05
549.01	42124.96
549.18	41628.77
549.34	42021.98
549.51	42197.52
549.68	42454.98
549.84	42377.74
550.01	42340.29
550.18	42473.70
550.34	42021.98
550.51	42160.07
550.68	42148.37
550.84	41965.81
551.01	42487.74
551.18	42586.05
551.34	42621.16
551.51	42698.39
551.68	42637.54
551.84	42752.23
552.01	42497.11
552.18	42356.67
552.34	42110.92
552.51	42923.08
552.68	42780.31
552.84	42686.69
553.01	43143.09
553.18	43084.58
553.34	42625.84
553.51	42508.81
553.67	42939.47
553.84	42920.74
554.01	43475.45
554.17	43283.53
554.34	42953.51
554.51	43468.43
554.67	43131.39
554.84	42899.68
555.00	43103.31
555.17	43159.48
555.33	43379.49
555.50	43133.73
555.67	43175.86
555.83	43192.25
556.00	43278.85
556.16	43454.39
556.33	43636.95
556.50	43297.57
556.66	43461.41
556.83	43529.28
556.99	43824.19
557.16	43480.13
557.32	43243.74
557.49	43973.98
557.65	43374.81
557.82	43318.64
557.98	43758.66
558.15	43604.18
558.32	43665.03
558.48	43367.79
558.65	43473.11
558.81	43470.77
558.98	43756.32
559.14	43737.59
559.31	43557.37
559.47	43868.66
559.64	43608.86
559.80	43786.74
559.97	44425.71
560.13	43845.26
560.30	43831.21
560.46	43894.41
560.63	43473.11
560.79	44098.03
560.96	43917.81
561.12	44048.88
561.29	44151.87
561.45	44219.74
561.61	43688.44
561.78	44039.52
561.94	44175.27
562.11	44163.57
562.27	43735.25
562.44	44409.32
562.60	44350.81
562.77	44362.51
562.93	44044.20
563.10	44229.10
563.26	43819.51
563.42	44404.64
563.59	43735.25
563.75	44130.80
563.92	44706.57
564.08	44346.13
564.24	44605.93
564.41	44294.64
564.57	44652.74
564.74	44385.92
564.90	44240.81
565.07	44357.83
565.23	44259.53
565.39	44287.62
565.56	44683.17
565.72	44390.60
565.88	44210.38
566.05	44439.75
566.21	44196.34
566.38	44332.09
566.54	44264.21
566.70	44580.18
566.87	44463.16
567.03	44540.39
567.19	45195.74
567.36	44861.05
567.52	44294.64
567.68	44591.89
567.85	44652.74
568.01	44491.24
568.17	44112.08
568.34	44669.12
568.50	44343.79
568.66	44432.73
568.83	44325.07
568.99	44364.85
569.15	44921.90
569.32	44589.55
569.48	44130.80
569.64	45045.95
569.81	44765.09
569.97	44406.98
570.13	44619.97
570.30	44500.61
570.46	44549.76
570.62	44442.09
570.78	44114.42
570.95	44404.64
571.11	44612.95
571.27	45038.93
571.43	44402.30
571.60	44638.70
571.76	44692.53
571.92	44388.26
572.09	44638.70
572.25	44671.46
572.41	44442.09
572.57	44715.93
572.74	45134.89
572.90	44900.84
573.06	44921.90
573.22	44458.48
573.38	44708.91
573.55	44339.11
573.71	44711.25
573.87	45177.02
574.03	44622.31
574.20	44968.71
574.36	44999.14
574.52	44933.60
574.68	45319.79
574.84	44917.22
575.01	44802.53
575.17	44790.83
575.33	44652.74
575.49	44521.67
575.65	44587.21
575.82	45052.97
575.98	44545.08
576.14	45125.53
576.30	44715.93
576.46	44547.42
576.62	44898.50
576.79	44800.19
576.95	44203.36
577.11	44769.77
577.27	44868.07
577.43	44942.97
577.59	44870.41
577.75	44697.21
577.92	44561.46
578.08	45223.83
578.24	44016.11
578.40	44615.29
578.56	44821.26
578.72	44776.79
578.88	44994.46
579.04	45174.68
579.21	44624.65
579.37	44458.48
579.53	44795.51
579.69	44645.72
579.85	44942.97
580.01	45385.33
580.17	45041.27
580.33	45214.47
580.49	45237.87
580.65	45071.70
580.82	44821.26
580.98	44655.08
581.14	44889.13
581.30	45141.91
581.46	45254.26
581.62	44835.30
581.78	45322.13
581.94	45310.43
582.10	44737.00
582.26	45198.09
582.42	45244.90
582.58	45146.59
582.74	45092.76
582.90	45085.74
583.06	45139.57
583.22	44938.29
583.38	45008.50
583.54	45280.00
583.70	45113.83
583.86	45003.82
584.02	44893.82
584.18	44711.25
584.34	45242.56
584.50	45191.06
584.66	45127.87
584.82	44397.62
584.98	45155.96
585.14	45059.99
585.30	44992.12
585.46	45366.60
585.62	44844.66
585.78	45024.89
585.94	44783.81
586.10	45090.42
586.26	45097.44
586.42	45097.44
586.58	45074.04
586.74	45378.31
586.90	44652.74
587.06	44992.12
587.22	44968.71
587.38	44732.32
587.54	44683.17
587.70	45617.04
587.86	45373.63
588.02	45212.13
588.18	44795.51
588.34	45291.71
588.49	45170.00
588.65	44545.08
588.81	44638.70
588.97	45167.66
589.13	44626.99
589.29	44891.48
589.45	44898.50
589.61	45242.56
589.77	45366.60
589.93	44961.69
590.08	45544.48
590.24	45336.18
