SpectraSuite Data File
++++++++++++++++++++++++++++++++++++
Date: Fri Oct 25 11:22:38 EDT 2013
User: price-jones
Dark Spectrum Present: No
Reference Spectrum Present: No
Number of Sampled Component Spectra: 1
Spectrometers: USB2+H05261
Integration Time (usec): 100000 (USB2+H05261)
Spectra Averaged: 1 (USB2+H05261)
Boxcar Smoothing: 0 (USB2+H05261)
Correct for Electrical Dark: No (USB2+H05261)
Strobe/Lamp Enabled: No (USB2+H05261)
Correct for Detector Non-linearity: No (USB2+H05261)
Correct for Stray Light: No (USB2+H05261)
Number of Pixels in Processed Spectrum: 2048
>>>>>Begin Processed Spectral Data<<<<<
365.73	276.18
365.92	276.18
366.12	276.18
366.32	170.86
366.52	112.35
366.72	198.95
366.91	67.88
367.11	112.35
367.31	112.35
367.51	131.07
367.70	37.45
367.90	124.05
368.10	60.85
368.30	140.43
368.49	222.35
368.69	105.32
368.89	184.90
369.09	194.26
369.28	121.71
369.48	163.84
369.68	212.99
369.87	159.16
370.07	170.86
370.27	236.39
370.47	344.06
370.66	643.65
370.86	622.58
371.06	589.82
371.25	678.76
371.45	582.79
371.65	695.14
371.84	559.39
372.04	711.52
372.24	727.91
372.44	732.59
372.63	739.61
372.83	739.61
373.03	755.99
373.22	699.82
373.42	777.06
373.62	781.74
373.81	840.25
374.01	765.36
374.21	830.89
374.40	877.70
374.60	837.91
374.79	758.33
374.99	807.48
375.19	798.12
375.38	882.38
375.58	798.12
375.78	823.87
375.97	908.13
376.17	889.40
376.37	781.74
376.56	847.27
376.76	912.81
376.95	877.70
377.15	997.07
377.35	905.79
377.54	901.11
377.74	903.45
377.93	882.38
378.13	926.85
378.33	978.34
378.52	908.13
378.72	903.45
378.91	973.66
379.11	978.34
379.31	908.13
379.50	884.72
379.70	936.21
379.89	1032.18
380.09	1008.77
380.28	880.04
380.48	973.66
380.68	954.94
380.87	1053.24
381.07	1046.22
381.26	945.58
381.46	1081.33
381.65	924.51
381.85	1020.47
382.04	1060.26
382.24	1104.73
382.43	1060.26
382.63	1067.28
382.83	994.73
383.02	992.39
383.22	1142.18
383.41	1125.80
383.61	1078.99
383.80	1156.22
384.00	1083.67
384.19	1109.41
384.39	1090.69
384.58	1137.50
384.78	1165.59
384.97	1128.14
385.17	1149.20
385.36	1181.97
385.56	1165.59
385.75	1224.10
385.95	1231.12
386.14	1203.04
386.34	1167.93
386.53	1231.12
386.72	1196.01
386.92	1238.14
387.11	1266.23
387.31	1163.25
387.50	1224.10
387.70	1226.44
387.89	1273.25
388.09	1289.64
388.28	1266.23
388.48	1289.64
388.67	1299.00
388.86	1296.66
389.06	1284.95
389.25	1306.02
389.45	1324.74
389.64	1453.47
389.84	1469.86
390.03	1488.58
390.22	1488.58
390.42	1397.30
390.61	1434.75
390.81	1409.00
391.00	1392.62
391.19	1387.94
391.39	1385.60
391.58	1502.62
391.78	1437.09
391.97	1430.07
392.16	1411.34
392.36	1481.56
392.55	1526.03
392.75	1579.86
392.94	1563.48
393.13	1537.73
393.33	1483.90
393.52	1586.88
393.71	1577.52
393.91	1617.31
394.10	1509.65
394.29	1549.43
394.49	1507.30
394.68	1629.01
394.88	1514.33
395.07	1607.95
395.26	1619.65
395.46	1748.38
395.65	1668.80
395.84	1570.50
396.04	1785.83
396.23	1689.87
396.42	1823.28
396.62	1710.93
396.81	1799.87
397.00	1729.66
397.19	1785.83
397.39	1734.34
397.58	1834.98
397.77	1891.15
397.97	1811.57
398.16	1788.17
398.35	1935.62
398.55	1858.39
398.74	1832.64
398.93	1963.71
399.12	1872.43
399.32	1959.03
399.51	1982.43
399.70	1893.49
399.90	1937.96
400.09	1987.11
400.28	2097.12
400.47	2008.18
400.67	2012.86
400.86	2010.52
401.05	1982.43
401.24	2054.99
401.44	2136.91
401.63	2169.68
401.82	2153.29
402.01	2113.50
402.21	2244.57
402.40	2101.80
402.59	2101.80
402.78	2246.91
402.97	2335.85
403.17	2272.66
403.36	2319.47
403.55	2363.94
403.74	2406.07
403.93	2382.67
404.13	2349.90
404.32	2312.45
404.51	2331.17
404.70	2480.97
404.89	2492.67
405.09	2445.86
405.28	2424.80
405.47	2471.61
405.66	2462.24
405.85	2588.63
406.05	2480.97
406.24	2539.48
406.43	2750.13
406.62	2544.16
406.81	2672.89
407.00	2675.23
407.20	2619.06
407.39	2705.66
407.58	2693.96
407.77	2703.32
407.96	2754.81
408.15	2794.60
408.34	2729.06
408.54	2799.28
408.73	2789.92
408.92	2890.56
409.11	2911.63
409.30	2918.65
409.49	2855.45
409.68	2930.35
409.87	2932.69
410.07	3012.27
410.26	3028.65
410.45	3054.40
410.64	3162.06
410.83	3201.85
411.02	3190.15
411.21	3253.34
411.40	3159.72
411.59	3246.32
411.78	3061.42
411.98	3258.03
412.17	3251.00
412.36	3239.30
412.55	3400.80
412.74	3363.35
412.93	3496.76
413.12	3260.37
413.31	3552.93
413.50	3414.84
413.69	3412.50
413.88	3632.51
414.07	3686.34
414.26	3578.68
414.45	3693.37
414.64	3618.47
414.83	3625.49
415.02	3878.27
415.22	3992.95
415.41	3915.72
415.60	3880.61
415.79	4002.32
415.98	4051.47
416.17	4056.15
416.36	3950.82
416.55	4070.19
416.74	4135.73
416.93	4056.15
417.12	4142.75
417.31	4180.20
417.50	4198.92
417.69	4344.03
417.88	4287.86
418.07	4322.97
418.26	4425.95
418.45	4500.85
418.64	4507.87
418.83	4510.21
419.02	4430.63
419.21	4580.43
419.39	4393.19
419.58	4540.64
419.77	4470.42
419.96	4542.98
420.15	4784.06
420.34	4491.49
420.53	4620.22
420.72	4760.65
420.91	4795.76
421.10	4718.52
421.29	4847.25
421.48	4531.28
421.67	4685.75
421.86	4697.46
422.05	4819.16
422.24	4762.99
422.43	4842.57
422.61	4779.37
422.80	5186.63
422.99	5071.94
423.18	4959.60
423.37	5081.30
423.56	4954.91
423.75	4940.87
423.94	4793.42
424.13	4706.82
424.32	4873.00
424.50	5076.62
424.69	5104.71
424.88	5151.52
425.07	4894.06
425.26	4952.57
425.45	5060.24
425.64	5011.09
425.83	5041.51
426.01	5153.86
426.20	4983.00
426.39	5158.54
426.58	5083.64
426.77	5048.54
426.96	5149.18
427.15	5078.96
427.33	5242.80
427.52	5188.97
427.71	5205.35
427.90	5322.38
428.09	5399.62
428.28	5238.12
428.46	5394.93
428.65	5453.45
428.84	5661.76
429.03	5547.07
429.22	5331.74
429.40	5406.64
429.59	5518.98
429.78	5268.55
429.97	5350.46
430.16	5504.94
430.34	5586.86
430.53	5650.05
430.72	5448.77
430.91	5701.54
431.10	5722.61
431.28	5746.02
431.47	5806.87
431.66	5949.64
431.85	5856.02
432.03	5973.05
432.22	5970.71
432.41	6104.12
432.60	5734.31
432.79	5844.32
432.97	5872.40
433.16	6139.23
433.35	6036.24
433.54	6076.03
433.72	6209.44
433.91	5975.39
434.10	6150.93
434.28	6031.56
434.47	6167.31
434.66	6368.60
434.85	6347.53
435.03	6368.60
435.22	6181.35
435.41	6466.90
435.59	6459.88
435.78	6429.45
435.97	6520.73
436.16	6384.98
436.34	6438.81
436.53	6457.54
436.72	6651.80
436.90	6487.96
437.09	6867.13
437.28	6567.54
437.46	6817.98
437.65	6689.25
437.84	6715.00
438.02	6902.24
438.21	6785.21
438.40	6778.19
438.58	6834.36
438.77	7042.67
438.96	7059.06
439.14	7157.36
439.33	7169.06
439.52	7248.64
439.70	7117.57
439.89	7368.01
440.08	7405.46
440.26	7440.56
440.45	7440.56
440.63	7456.95
440.82	7770.58
441.01	7611.42
441.19	7676.96
441.38	7588.02
441.57	7836.11
441.75	7936.76
441.94	7796.32
442.12	7812.71
442.31	8056.12
442.50	8095.91
442.68	8039.74
442.87	8175.49
443.05	8339.33
443.24	8074.85
443.43	8112.30
443.61	8290.18
443.80	8486.78
443.98	8191.88
444.17	7887.61
444.35	8421.25
444.54	8332.31
444.73	8500.83
444.91	8336.99
445.10	8519.55
445.28	8493.80
445.47	8341.67
445.65	8519.55
445.84	8549.98
446.02	8458.70
446.21	8585.08
446.39	8601.47
446.58	8528.91
446.77	8615.51
446.95	8500.83
447.14	8559.34
447.32	8678.71
447.51	8461.04
447.69	8432.95
447.88	8620.19
448.06	8643.60
448.25	8753.60
448.43	8629.56
448.62	8573.38
448.80	8697.43
448.99	8725.52
449.17	8629.56
449.36	8758.28
449.54	8758.28
449.73	8959.57
449.91	8943.19
450.10	8891.70
450.28	9055.53
450.46	9137.45
450.65	9011.06
450.83	9214.69
451.02	9200.65
451.20	9095.32
451.39	9233.41
451.57	9252.14
451.76	9020.42
451.94	9177.24
452.13	9320.01
452.31	9455.76
452.49	9231.07
452.68	9486.19
452.86	9366.82
453.05	9666.41
453.23	9432.36
453.42	9397.25
453.60	9469.81
453.78	9586.83
453.97	9596.20
454.15	9633.64
454.34	9343.42
454.52	9584.49
454.70	9741.31
454.89	9863.02
455.07	9916.85
455.26	9902.81
455.44	10078.35
455.62	10061.96
455.81	9844.29
455.99	10073.67
456.17	10043.24
456.36	10160.27
456.54	10370.91
456.73	10380.28
456.91	10567.52
457.09	10506.66
457.28	10668.16
457.46	10314.74
457.64	10616.67
457.83	10434.11
458.01	10361.55
458.19	10768.80
458.38	10485.60
458.56	10897.53
458.74	10635.39
458.93	10958.39
459.11	10853.06
459.29	10773.49
459.48	10731.36
459.66	10890.51
459.84	10869.45
460.03	11232.23
460.21	11056.69
460.39	11040.31
460.57	10951.37
460.76	11052.01
460.94	11234.57
461.12	11318.83
461.31	10981.79
461.49	11052.01
461.67	11218.19
461.85	11384.37
462.04	11396.07
462.22	12006.95
462.40	11641.82
462.59	11599.70
462.77	11604.38
462.95	11712.04
463.13	11625.44
463.32	11770.55
463.50	11777.58
463.68	11922.69
463.86	12175.47
464.05	11815.02
464.23	11882.90
464.41	11882.90
464.59	11950.78
464.78	12334.62
464.96	12161.42
465.14	12077.16
465.32	11971.84
465.50	12116.95
465.69	12395.48
465.87	12332.28
466.05	12063.12
466.23	12070.14
466.41	12540.59
466.60	12388.46
466.78	12170.79
466.96	12147.38
467.14	12456.33
467.32	12470.37
467.51	12741.88
467.69	12241.00
467.87	12521.87
468.05	12538.25
468.23	12524.21
468.41	12594.42
468.60	12751.24
468.78	12580.38
468.96	12542.93
469.14	12699.75
469.32	13242.75
469.50	12709.11
469.69	13137.43
469.87	13212.32
470.05	13048.49
470.23	13172.54
470.41	13130.41
470.59	13359.78
470.77	13261.48
470.95	13404.25
471.14	13767.03
471.32	13390.20
471.50	13490.85
471.68	13635.96
471.86	13823.20
472.04	13848.95
472.22	14361.53
472.40	13813.84
472.58	14183.65
472.77	14284.29
472.95	14228.12
473.13	14689.20
473.31	14132.15
473.49	14342.80
473.67	14380.25
473.85	14356.85
474.03	14883.47
474.21	14684.52
474.39	14888.15
474.57	15000.49
474.75	14953.68
474.93	15061.35
475.12	15028.58
475.30	15276.68
475.48	15082.41
475.66	15442.85
475.84	15456.90
476.02	15424.13
476.20	15592.65
476.38	15564.56
476.56	16137.99
476.74	16126.29
476.92	15920.32
477.10	16168.42
477.28	16166.08
477.46	16255.02
477.64	16615.46
477.82	16636.53
478.00	17064.85
478.18	17109.32
478.36	16903.35
478.54	17331.67
478.72	17289.54
478.90	17767.01
479.08	17607.85
479.26	17928.50
479.44	18015.10
479.62	17853.61
479.80	18111.07
479.98	18359.16
480.16	18684.50
480.34	18604.92
480.52	18607.26
480.70	18829.61
480.88	18450.44
481.06	18981.74
481.24	18913.87
481.41	18965.36
481.59	19466.24
481.77	19634.75
481.95	19845.40
482.13	19850.08
482.31	19981.15
482.49	20196.48
482.67	20435.22
482.85	20692.68
483.03	20819.07
483.21	20837.79
483.39	21369.09
483.57	20816.72
483.74	21539.95
483.92	21392.50
484.10	21317.60
484.28	22087.64
484.46	22064.23
484.64	22665.75
484.82	22092.32
485.00	22253.81
485.18	22860.01
485.35	23225.14
485.53	22792.14
485.71	23037.89
485.89	23700.26
486.07	23613.66
486.25	23447.49
486.43	23716.65
486.61	24018.58
486.78	24077.09
486.96	24339.23
487.14	24669.25
487.32	24872.87
487.50	24884.58
487.68	24971.18
487.85	25593.76
488.03	25404.17
488.21	25851.22
488.39	25977.61
488.57	26260.81
488.75	26237.41
488.92	26403.58
489.10	26881.05
489.28	26953.61
489.46	27534.06
489.64	27290.65
489.81	28304.10
489.99	27960.04
490.17	28004.51
490.35	28458.57
490.53	28498.36
490.70	28706.67
490.88	28559.22
491.06	29118.60
491.24	29071.79
491.41	29256.70
491.59	29193.50
491.77	29359.68
491.95	29942.47
492.13	30071.20
492.30	30387.18
492.48	30197.59
492.66	30616.55
492.84	30717.19
493.01	31281.26
493.19	30644.63
493.37	31358.50
493.54	31564.46
493.72	31835.97
493.90	31639.36
494.08	31620.64
494.25	32329.82
494.43	32524.08
494.61	32753.46
494.79	32697.28
494.96	32692.60
495.14	33001.55
495.32	33464.98
495.49	33399.44
495.67	33654.56
495.85	33694.35
496.02	33970.54
496.20	34253.74
496.38	34330.98
496.55	34148.42
496.73	34962.92
496.91	34747.59
497.09	34501.84
497.26	35016.75
497.44	35379.54
497.62	35550.40
497.79	36350.86
497.97	35665.08
498.14	36367.24
498.32	36367.24
498.50	36421.08
498.67	36833.01
498.85	36907.91
499.03	37123.24
499.20	36802.58
499.38	37233.24
499.56	37507.08
499.73	37654.54
499.91	37654.54
500.08	37942.42
500.26	37364.31
500.44	38115.62
500.61	37972.85
500.79	38122.65
500.97	38864.60
501.14	39159.50
501.32	38775.66
501.49	38934.81
501.67	38476.07
501.84	39171.21
502.02	39213.34
502.20	39395.90
502.37	39892.09
502.55	39236.74
502.72	39723.57
502.90	39810.17
503.07	39672.08
503.25	39957.63
503.43	40140.19
503.60	40739.36
503.78	40091.04
503.95	40657.45
504.13	40566.16
504.30	40840.01
504.48	40580.21
504.65	41230.88
504.83	41247.26
505.01	41383.01
505.18	41488.34
505.36	41729.41
505.53	41731.75
505.71	42024.32
505.88	41942.40
506.06	41806.65
506.23	42204.54
506.41	41830.05
506.58	42911.38
506.76	42361.36
506.93	42817.76
507.11	42677.33
507.28	43096.28
507.46	42990.96
507.63	43243.74
507.81	43618.22
507.98	43290.55
508.16	43409.92
508.33	43330.34
508.50	43407.58
508.68	43997.39
508.85	44423.37
509.03	44112.08
509.20	44776.79
509.38	44762.75
509.55	44783.81
509.73	44856.37
509.90	44772.11
510.08	45188.72
510.25	44928.92
510.42	44891.48
510.60	45247.24
510.77	45315.11
510.95	45745.77
511.12	45635.77
511.30	45717.68
511.47	45904.93
511.64	46096.85
511.82	46335.59
511.99	45886.20
512.17	46047.70
512.34	45989.19
512.51	46539.21
512.69	46363.67
512.86	46890.29
513.04	46960.51
513.21	46955.83
513.38	47269.46
513.56	47213.29
513.73	47278.82
513.90	47346.70
514.08	47232.01
514.25	47686.07
514.43	47758.63
514.60	47683.73
514.77	47704.80
514.95	47983.32
515.12	48130.78
515.29	47643.94
515.47	48147.16
515.64	48353.13
515.81	48509.94
515.99	48456.11
516.16	48802.51
516.33	48959.33
516.51	48809.53
516.68	48903.15
516.85	49015.50
517.03	48982.73
517.20	49507.01
517.37	49090.40
517.54	49038.90
517.72	48952.30
517.89	49186.36
518.06	49474.24
518.24	49640.42
518.41	49404.03
518.58	49366.58
518.75	49748.09
518.93	49844.05
519.10	49691.91
519.27	49956.39
519.45	50255.98
519.62	50288.75
519.79	50248.96
519.96	50344.92
520.14	50340.24
520.31	50216.19
520.48	50466.63
520.65	50916.01
520.83	50913.67
521.00	51061.13
521.17	50703.03
521.34	50965.17
521.52	51075.17
521.69	51281.14
521.86	51278.80
522.03	51246.03
522.20	51774.99
522.38	51842.87
522.55	51554.98
522.72	51491.79
522.89	51536.26
523.07	51987.98
523.24	51873.29
523.41	51969.26
523.58	51952.87
523.75	52535.66
523.92	52294.59
524.10	52097.98
524.27	52268.84
524.44	52264.16
524.61	52437.36
524.78	52020.75
524.96	52521.62
525.13	52736.95
525.30	52624.60
525.47	52750.99
525.64	52409.28
525.81	53109.10
525.98	52891.43
526.16	52856.32
526.33	52788.44
526.50	53127.82
526.67	53076.33
526.84	52971.00
527.01	53254.21
527.18	52896.11
527.36	53052.92
527.53	53221.44
527.70	53495.28
527.87	53474.22
528.04	53429.75
528.21	53799.55
528.38	53923.60
528.55	53764.45
528.72	53495.28
528.89	53450.81
529.07	53741.04
529.24	53680.19
529.41	53991.48
529.58	53778.49
529.75	54042.97
529.92	54195.10
530.09	54157.66
530.26	53984.46
530.43	54368.30
530.60	54066.38
530.77	54162.34
530.94	54394.05
531.11	54429.16
531.28	54557.89
531.46	54766.20
531.63	54536.82
531.80	54674.91
531.97	54944.08
532.14	54953.44
532.31	54653.85
532.48	54560.23
532.65	54845.77
532.82	54808.32
532.99	54932.37
533.16	55023.65
533.33	54995.57
533.50	54894.92
533.67	55189.83
533.84	54857.48
534.01	55084.51
534.18	55150.04
534.35	55587.72
534.52	55550.27
534.69	55578.36
534.86	55356.01
535.03	55702.41
535.20	55473.04
535.37	55348.99
535.54	55353.67
535.71	55576.02
535.88	55702.41
536.05	55664.96
536.22	55664.96
536.38	55880.29
536.55	55831.14
536.72	55910.72
536.89	55831.14
537.06	55964.55
537.23	55854.54
537.40	55884.97
537.57	55859.23
537.74	56090.94
537.91	56278.18
538.08	56289.88
538.25	55746.88
538.42	56191.58
538.59	56615.22
538.75	56011.36
538.92	56062.85
539.09	56296.91
539.26	56404.57
539.43	56491.17
539.60	56343.72
539.77	56327.33
539.94	56479.47
540.11	56509.89
540.28	56683.09
540.44	56779.06
540.61	56788.42
540.78	56432.66
540.95	56427.98
541.12	56582.45
541.29	56825.87
541.46	56739.27
541.62	56772.03
541.79	57013.11
541.96	56535.64
542.13	56734.59
542.30	56804.80
542.47	57059.92
542.63	57043.54
542.80	57102.05
542.97	57691.86
543.14	57464.83
543.31	57240.14
543.48	57343.12
543.64	57710.59
543.81	57464.83
543.98	57677.82
544.15	57513.98
544.32	58003.16
544.48	57654.42
544.65	57476.54
544.82	57553.77
544.99	57649.74
545.16	57909.53
545.32	57659.10
545.49	57769.10
545.66	58106.14
545.83	57848.68
546.00	57982.09
546.16	57743.36
546.33	57916.56
546.50	57743.36
546.67	58019.54
546.83	57621.65
547.00	57776.12
547.17	57741.02
547.34	57939.96
547.50	58295.72
547.67	58089.76
547.84	58211.46
548.00	58246.57
548.17	58422.11
548.34	58206.78
548.51	58389.34
548.67	58450.20
548.84	58319.13
549.01	58291.04
549.18	58384.66
549.34	58468.92
549.51	58440.84
549.68	58663.19
549.84	58532.12
550.01	58635.10
550.18	58422.11
550.34	58604.67
550.51	58660.85
550.68	58712.34
550.84	58639.78
551.01	58820.00
551.18	58702.98
551.34	58712.34
551.51	58798.94
551.68	58843.41
551.84	58504.03
552.01	58429.13
552.18	58915.96
552.34	58773.19
552.51	59075.12
552.68	58871.49
552.84	58852.77
553.01	59007.25
553.18	59065.76
553.34	59147.68
553.51	58972.14
553.67	59154.70
553.84	59157.04
554.01	59063.42
554.17	59260.02
554.34	59318.54
554.51	59082.14
554.67	59110.23
554.84	59075.12
555.00	59077.46
555.17	59288.11
555.33	59278.75
555.50	59292.79
555.67	59339.60
555.83	59231.94
556.00	59250.66
556.16	59760.90
556.33	59480.03
556.50	59547.91
556.66	59440.24
556.83	59444.93
556.99	59526.84
557.16	59693.02
557.32	59842.82
557.49	59803.03
557.65	59449.61
557.82	59442.59
557.98	59564.29
558.15	59618.13
558.32	59578.34
558.48	59238.96
558.65	59714.09
558.81	59601.74
558.98	59604.08
559.14	59910.69
559.31	59772.60
559.47	59828.77
559.64	59749.20
559.80	60034.74
559.97	60030.06
560.13	59774.94
560.30	59985.59
560.46	60102.62
560.63	59997.29
560.79	60041.76
560.96	60252.41
561.12	60001.97
561.29	60079.21
561.45	60147.09
561.61	60086.23
561.78	59938.78
561.94	60116.66
562.11	60030.06
562.27	60175.17
562.44	60273.48
562.60	60231.35
562.77	60055.81
562.93	59980.91
563.10	60287.52
563.26	60200.92
563.42	60315.61
563.59	60193.90
563.75	60016.02
563.92	60245.39
564.08	60076.87
564.24	60303.90
564.41	60140.07
564.57	60369.44
564.74	60406.89
564.90	60294.54
565.07	60275.82
565.23	60252.41
565.39	60217.30
565.56	60343.69
565.72	60196.24
565.88	60266.45
566.05	60367.10
566.21	60271.14
566.38	60502.85
566.54	60467.74
566.70	60512.21
566.87	60692.43
567.03	60100.28
567.19	60760.31
567.36	60537.96
567.52	60568.38
567.68	60622.22
567.85	60500.51
568.01	60839.89
568.17	60486.46
568.34	60561.36
568.50	60582.43
568.66	60800.10
568.83	60664.35
568.99	60554.34
569.15	60575.40
569.32	60521.57
569.48	60650.30
569.64	60633.92
569.81	60441.99
569.97	60439.65
570.13	60640.94
570.30	60432.63
570.46	60870.31
570.62	60783.71
570.78	60591.79
570.95	60764.99
571.11	60760.31
571.27	60795.42
571.43	60718.18
571.60	60872.65
571.76	60769.67
571.92	60699.45
572.09	60692.43
572.25	60694.77
572.41	60676.05
572.57	60774.35
572.74	60818.82
572.90	60795.42
573.06	60673.71
573.22	60823.50
573.38	60821.16
573.55	60575.40
573.71	60999.04
573.87	60790.73
574.03	60816.48
574.20	60830.52
574.36	60914.78
574.52	60914.78
574.68	60966.27
574.84	60842.23
575.01	60996.70
575.17	60992.02
575.33	60699.45
575.49	60800.10
575.65	60956.91
575.82	60898.40
575.98	60910.10
576.14	60954.57
576.30	61169.90
576.46	60938.19
576.62	60856.27
576.79	61029.47
576.95	60776.69
577.11	61006.06
577.27	61181.60
577.43	61022.45
577.59	60945.21
577.75	60818.82
577.92	60910.10
578.08	60874.99
578.24	60966.27
578.40	61272.88
578.56	60959.25
578.72	61151.18
578.88	61300.97
579.04	61048.19
579.21	60956.91
579.37	61116.07
579.53	61209.69
579.69	60914.78
579.85	60910.10
580.01	60961.59
580.17	60870.31
580.33	61197.99
580.49	61043.51
580.65	61127.77
580.82	60956.91
580.98	60961.59
581.14	60982.66
581.30	61109.05
581.46	61043.51
581.62	61008.40
581.78	61176.92
581.94	61188.63
582.10	61293.95
582.26	61190.97
582.42	61265.86
582.58	61169.90
582.74	61031.81
582.90	61169.90
583.06	61205.01
583.22	61087.98
583.38	61310.33
583.54	61181.60
583.70	61256.50
583.86	61333.74
584.02	61057.56
584.18	61312.67
584.34	61249.48
584.50	61006.06
584.66	61080.96
584.82	61078.62
584.98	61123.09
585.14	61247.14
585.30	61062.24
585.46	61118.41
585.62	61209.69
585.78	61364.17
585.94	61043.51
586.10	61183.94
586.26	61188.63
586.42	61258.84
586.58	61242.46
586.74	61392.25
586.90	61221.39
587.06	61296.29
587.22	61443.74
587.38	61406.30
587.54	61439.06
587.70	61282.25
587.86	61469.49
588.02	61284.59
588.18	61350.12
588.34	61235.44
588.49	61298.63
