SpectraSuite Data File
++++++++++++++++++++++++++++++++++++
Date: Fri Oct 25 11:23:20 EDT 2013
User: price-jones
Dark Spectrum Present: No
Reference Spectrum Present: No
Number of Sampled Component Spectra: 1
Spectrometers: USB2+H05261
Integration Time (usec): 100000 (USB2+H05261)
Spectra Averaged: 1 (USB2+H05261)
Boxcar Smoothing: 0 (USB2+H05261)
Correct for Electrical Dark: No (USB2+H05261)
Strobe/Lamp Enabled: No (USB2+H05261)
Correct for Detector Non-linearity: No (USB2+H05261)
Correct for Stray Light: No (USB2+H05261)
Number of Pixels in Processed Spectrum: 2048
>>>>>Begin Processed Spectral Data<<<<<
365.73	203.63
365.92	203.63
366.12	203.63
366.32	128.73
366.52	149.79
366.72	140.43
366.91	51.49
367.11	156.82
367.31	32.77
367.51	81.92
367.70	112.35
367.90	63.19
368.10	74.90
368.30	126.39
368.49	95.96
368.69	173.20
368.89	149.79
369.09	170.86
369.28	177.88
369.48	107.66
369.68	177.88
369.87	194.26
370.07	205.97
370.27	198.95
370.47	306.61
370.66	561.73
370.86	592.16
371.06	585.13
371.25	685.78
371.45	657.69
371.65	587.47
371.84	634.29
372.04	676.41
372.24	688.12
372.44	723.23
372.63	702.16
372.83	744.29
373.03	690.46
373.22	774.72
373.42	704.50
373.62	711.52
373.81	781.74
374.01	760.67
374.21	849.61
374.40	786.42
374.60	755.99
374.79	842.59
374.99	802.80
375.19	875.36
375.38	917.49
375.58	903.45
375.78	875.36
375.97	805.14
376.17	884.72
376.37	856.64
376.56	910.47
376.76	842.59
376.95	833.23
377.15	882.38
377.35	884.72
377.54	884.72
377.74	929.19
377.93	901.11
378.13	858.98
378.33	898.77
378.52	950.26
378.72	978.34
378.91	926.85
379.11	957.28
379.31	957.28
379.50	983.02
379.70	985.37
379.89	959.62
380.09	1018.13
380.28	994.73
380.48	976.00
380.68	976.00
380.87	931.53
381.07	987.71
381.26	1006.43
381.46	1076.65
381.65	1025.15
381.85	1020.47
382.04	1036.86
382.24	1039.20
382.43	1015.79
382.63	966.64
382.83	1041.54
383.02	1048.56
383.22	1093.03
383.41	1069.62
383.61	1097.71
383.80	1067.28
384.00	1191.33
384.19	1144.52
384.39	1095.37
384.58	1142.18
384.78	1174.95
384.97	1151.54
385.17	1088.35
385.36	1266.23
385.56	1160.91
385.75	1104.73
385.95	1217.08
386.14	1111.75
386.34	1238.14
386.53	1188.99
386.72	1252.19
386.92	1219.42
387.11	1158.57
387.31	1254.53
387.50	1205.38
387.70	1231.12
387.89	1320.06
388.09	1341.13
388.28	1364.53
388.48	1235.80
388.67	1334.11
388.86	1364.53
389.06	1277.93
389.25	1364.53
389.45	1322.40
389.64	1357.51
389.84	1371.55
390.03	1303.68
390.22	1289.64
390.42	1348.15
390.61	1306.02
390.81	1341.13
391.00	1364.53
391.19	1458.15
391.39	1462.83
391.58	1432.41
391.78	1516.67
391.97	1544.75
392.16	1437.09
392.36	1582.20
392.55	1444.11
392.75	1523.69
392.94	1411.34
393.13	1486.24
393.33	1593.90
393.52	1638.38
393.71	1565.82
393.91	1509.65
394.10	1565.82
394.29	1614.97
394.49	1575.18
394.68	1753.06
394.88	1535.39
395.07	1668.80
395.26	1680.50
395.46	1762.42
395.65	1643.06
395.84	1701.57
396.04	1788.17
396.23	1837.32
396.42	1739.02
396.62	1741.36
396.81	1813.92
397.00	1785.83
397.19	1813.92
397.39	1778.81
397.58	1827.96
397.77	1860.73
397.97	1942.64
398.16	1898.17
398.35	1792.85
398.55	1776.47
398.74	1982.43
398.93	1966.05
399.12	1975.41
399.32	1874.77
399.51	1907.54
399.70	2115.84
399.90	1963.71
400.09	1954.35
400.28	2136.91
400.47	2108.82
400.67	2054.99
400.86	2043.29
401.05	2181.38
401.24	2101.80
401.44	2129.89
401.63	2104.14
401.82	2195.42
402.01	2071.37
402.21	2284.36
402.40	2256.28
402.59	2232.87
402.78	2298.41
402.97	2132.23
403.17	2228.19
403.36	2321.81
403.55	2232.87
403.74	2305.43
403.93	2251.60
404.13	2279.68
404.32	2333.51
404.51	2466.92
404.70	2361.60
404.89	2434.16
405.09	2401.39
405.28	2478.63
405.47	2471.61
405.66	2520.76
405.85	2583.95
406.05	2574.59
406.24	2509.05
406.43	2527.78
406.62	2492.67
406.81	2661.19
407.00	2616.72
407.20	2530.12
407.39	2705.66
407.58	2689.28
407.77	2698.64
407.96	2771.19
408.15	2792.26
408.34	2752.47
408.54	2829.71
408.73	2766.51
408.92	2684.59
409.11	2890.56
409.30	2778.22
409.49	2974.82
409.68	2913.97
409.87	2913.97
410.07	2918.65
410.26	3002.91
410.45	3110.57
410.64	3033.33
410.83	3162.06
411.02	3138.66
411.21	3297.81
411.40	3218.24
411.59	3171.43
411.78	3091.85
411.98	3173.77
412.17	3286.11
412.36	3335.26
412.55	3489.74
412.74	3440.59
412.93	3487.40
413.12	3398.46
413.31	3571.66
413.50	3496.76
413.69	3613.79
413.88	3616.13
414.07	3660.60
414.26	3527.19
414.45	3679.32
414.64	3618.47
414.83	3751.88
415.02	3805.71
415.22	3826.78
415.41	3964.87
415.60	3735.50
415.79	4053.81
415.98	3939.12
416.17	3967.21
416.36	4021.04
416.55	4056.15
416.74	3946.14
416.93	4060.83
417.12	3999.98
417.31	4142.75
417.50	4037.42
417.69	4414.25
417.88	4423.61
418.07	4360.42
418.26	4421.27
418.45	4451.70
418.64	4667.03
418.83	4418.93
419.02	4447.02
419.21	4519.57
419.39	4475.10
419.58	4540.64
419.77	4402.55
419.96	4741.93
420.15	4699.80
420.34	4655.33
420.53	4631.92
420.72	4629.58
420.91	4802.78
421.10	4821.50
421.29	4905.76
421.48	4802.78
421.67	4793.42
421.86	4858.95
422.05	4739.58
422.24	4793.42
422.43	4980.66
422.61	5015.77
422.80	5011.09
422.99	4999.38
423.18	5025.13
423.37	5121.09
423.56	4873.00
423.75	4880.02
423.94	4844.91
424.13	4685.75
424.32	4732.56
424.50	4952.57
424.69	5043.85
424.88	5165.56
425.07	5001.72
425.26	4877.68
425.45	5121.09
425.64	5207.69
425.83	4985.34
426.01	5210.03
426.20	5149.18
426.39	5050.88
426.58	5121.09
426.77	5050.88
426.96	5181.95
427.15	5029.81
427.33	5317.70
427.52	5137.48
427.71	5373.87
427.90	5308.34
428.09	5329.40
428.28	5324.72
428.46	5228.76
428.65	5455.79
428.84	5526.00
429.03	5650.05
429.22	5423.02
429.40	5509.62
429.59	5397.28
429.78	5432.38
429.97	5310.68
430.16	5518.98
430.34	5664.10
430.53	5713.25
430.72	5682.82
430.91	5528.35
431.10	5685.16
431.28	5682.82
431.47	5881.77
431.66	5776.44
431.85	5652.39
432.03	5820.91
432.22	5916.87
432.41	6033.90
432.60	5912.19
432.79	6097.10
432.97	6097.10
433.16	6010.50
433.35	6118.16
433.54	6029.22
433.72	6375.62
433.91	6169.65
434.10	6303.06
434.28	6113.48
434.47	6190.72
434.66	6319.45
434.85	6167.31
435.03	6382.64
435.22	6387.32
435.41	6457.54
435.59	6335.83
435.78	6471.58
435.97	6457.54
436.16	6452.86
436.34	6516.05
436.53	6504.35
436.72	6621.38
436.90	6530.09
437.09	6677.55
437.28	6520.73
437.46	6717.34
437.65	6806.28
437.84	6820.32
438.02	6827.34
438.21	6668.19
438.40	6785.21
438.58	6972.46
438.77	7288.43
438.96	7155.02
439.14	7080.12
439.33	7084.80
439.52	7206.51
439.70	7372.69
439.89	7375.03
440.08	7665.25
440.26	7513.12
440.45	7328.22
440.63	7606.74
440.82	7489.71
441.01	7606.74
441.19	7499.08
441.38	7758.88
441.57	7901.65
441.75	7920.37
441.94	8121.66
442.12	8074.85
442.31	8088.89
442.50	8269.11
442.68	8035.06
442.87	8056.12
443.05	8313.58
443.24	8297.20
443.43	8526.57
443.61	8411.89
443.80	8739.56
443.98	8084.21
444.17	7911.01
444.35	8306.56
444.54	8351.03
444.73	8468.06
444.91	8278.47
445.10	8393.16
445.28	8468.06
445.47	8468.06
445.65	8456.36
445.84	8468.06
446.02	8463.38
446.21	8596.79
446.39	8318.26
446.58	8439.97
446.77	8641.26
446.95	8159.11
447.14	8575.72
447.32	8608.49
447.51	8540.61
447.69	8620.19
447.88	8671.68
448.06	8664.66
448.25	8636.58
448.43	8748.92
448.62	8489.12
448.80	8596.79
448.99	8901.06
449.17	8849.57
449.36	8678.71
449.54	9008.72
449.73	9064.89
449.91	9289.59
450.10	9039.15
450.28	9261.50
450.46	9188.94
450.65	9261.50
450.83	9301.29
451.02	9144.47
451.20	9312.99
451.39	9282.56
451.57	9200.65
451.76	9060.21
451.94	9254.48
452.13	9245.12
452.31	9493.21
452.49	9458.10
452.68	9439.38
452.86	9322.35
453.05	9511.94
453.23	9603.22
453.42	9284.91
453.60	9465.13
453.78	9612.58
453.97	9659.39
454.15	9533.00
454.34	9411.29
454.52	9916.85
454.70	9893.44
454.89	9839.61
455.07	9774.08
455.26	9912.17
455.44	9820.89
455.62	9921.53
455.81	9998.77
455.99	10174.31
456.17	10176.65
456.36	10017.49
456.54	10361.55
456.73	10387.30
456.91	10518.37
457.09	10422.41
457.28	10574.54
457.46	10490.28
457.64	10553.48
457.83	10562.84
458.01	10480.92
458.19	10918.60
458.38	10750.08
458.56	10855.40
458.74	10724.33
458.93	10815.62
459.11	10986.47
459.29	10839.02
459.48	11012.22
459.66	10970.09
459.84	11136.27
460.03	11190.10
460.21	11021.58
460.39	11239.25
460.57	11110.52
460.76	11370.32
460.94	11208.83
461.12	11218.19
461.31	11152.65
461.49	11632.46
461.67	11164.36
461.85	11573.95
462.04	11269.68
462.22	11573.95
462.40	11646.51
462.59	11325.85
462.77	11667.57
462.95	11805.66
463.13	11552.88
463.32	11857.15
463.50	11915.67
463.68	11906.31
463.86	12088.87
464.05	11749.49
464.23	12023.33
464.41	12121.63
464.59	11805.66
464.78	12210.57
464.96	11990.56
465.14	11887.58
465.32	12074.82
465.50	12367.39
465.69	12372.07
465.87	12255.04
466.05	12177.81
466.23	12198.87
466.41	12255.04
466.60	12432.93
466.78	12386.12
466.96	12264.41
467.14	12320.58
467.32	12547.61
467.51	12587.40
467.69	12280.79
467.87	12538.25
468.05	12758.26
468.23	12748.90
468.41	12638.89
468.60	12767.62
468.78	12922.10
468.96	12718.47
469.14	13193.60
469.32	13013.38
469.50	12798.05
469.69	13186.58
469.87	12978.27
470.05	13228.71
470.23	13338.71
470.41	13160.83
470.59	13439.36
470.77	13261.48
470.95	13394.89
471.14	13502.55
471.32	13317.65
471.50	13582.13
471.68	13645.32
471.86	13797.46
472.04	13942.57
472.22	14256.20
472.40	13891.08
472.58	13846.61
472.77	14106.41
472.95	14249.18
473.13	14831.97
473.31	14305.35
473.49	14534.73
473.67	14469.19
473.85	14420.04
474.03	14867.08
474.21	14888.15
474.39	14768.78
474.57	14899.85
474.75	15243.91
474.93	15007.52
475.12	15030.92
475.30	15124.54
475.48	15510.73
475.66	15353.91
475.84	15122.20
476.02	15625.42
476.20	15482.64
476.38	16053.73
476.56	15974.16
476.74	15981.18
476.92	16074.80
477.10	16255.02
477.28	16264.38
477.46	16219.91
477.64	16645.89
477.82	16723.13
478.00	17334.01
478.18	16973.56
478.36	16989.95
478.54	17373.80
478.72	17521.25
478.90	17729.56
479.08	17940.21
479.26	17975.31
479.44	18033.83
479.62	17991.70
479.80	17998.72
479.98	18431.72
480.16	18752.37
480.34	18412.99
480.52	18970.04
480.70	19047.28
480.88	18452.78
481.06	19054.30
481.24	19145.58
481.41	18918.55
481.59	19503.68
481.77	19929.66
481.95	19545.81
482.13	19997.54
482.31	19941.36
482.49	20231.59
482.67	20379.04
482.85	20741.83
483.03	20685.65
483.21	20875.24
483.39	21231.00
483.57	20952.48
483.74	21411.22
483.92	21626.55
484.10	21385.47
484.28	22148.49
484.46	22295.94
484.64	22562.76
484.82	21923.80
485.00	22419.99
485.18	22782.77
485.35	22890.44
485.53	23131.51
485.71	23164.28
485.89	23871.12
486.07	23857.08
486.25	23838.36
486.43	23920.28
486.61	23999.85
486.78	24542.86
486.96	24479.66
487.14	24762.87
487.32	24931.39
487.50	25202.89
487.68	24989.90
487.85	25837.17
488.03	26169.53
488.21	25905.05
488.39	26176.55
488.57	26319.32
488.75	26441.03
488.92	26476.14
489.10	27332.78
489.28	26955.95
489.46	27281.28
489.64	27054.25
489.81	28161.33
489.99	28156.64
490.17	28013.87
490.35	28584.96
490.53	28788.59
490.70	28643.48
490.88	28664.54
491.06	29472.03
491.24	29022.64
491.41	29633.52
491.59	29209.89
491.77	29549.26
491.95	29890.98
492.13	30415.26
492.30	30424.62
492.48	30532.29
492.66	30565.06
492.84	30771.02
493.01	31040.18
493.19	31023.80
493.37	30895.07
493.54	31606.59
493.72	31662.77
493.90	31821.92
494.08	31934.27
494.25	32147.26
494.43	32620.05
494.61	32950.06
494.79	32968.79
494.96	33022.62
495.14	33017.94
495.32	33605.41
495.49	33254.33
495.67	33965.85
495.85	33844.15
496.02	34066.50
496.20	34670.36
496.38	34497.16
496.55	34396.51
496.73	35044.84
496.91	35445.07
497.09	35330.39
497.26	35185.27
497.44	35016.75
497.62	35770.41
497.79	36348.52
497.97	35756.36
498.14	36451.50
498.32	36666.83
498.50	36701.94
498.67	37289.42
498.85	36774.50
499.03	37282.39
499.20	36938.33
499.38	37509.43
499.56	37471.98
499.73	37806.67
499.91	37804.33
500.08	38176.48
500.26	37677.94
500.44	38225.63
500.61	38403.51
500.79	38277.12
500.97	38415.21
501.14	38988.64
501.32	38862.26
501.49	38899.70
501.67	39126.74
501.84	39646.33
502.02	39028.43
502.20	39480.16
502.37	40208.06
502.55	40037.20
502.72	39854.64
502.90	40306.37
503.07	39913.16
503.25	40165.93
503.43	40388.28
503.60	40886.82
503.78	41043.63
503.95	40617.66
504.13	41008.53
504.30	41359.61
504.48	41092.79
504.65	40968.74
504.83	41738.77
505.01	41818.35
505.18	41610.04
505.36	41816.01
505.53	41717.71
505.71	41944.74
505.88	42082.83
506.06	41844.10
506.23	42534.56
506.41	42150.71
506.58	42642.22
506.76	42719.46
506.93	43288.21
507.11	43199.27
507.28	43133.73
507.46	43400.55
507.63	43449.70
507.81	43679.08
507.98	42878.61
508.16	43868.66
508.33	43920.15
508.50	43477.79
508.68	44378.90
508.85	44699.55
509.03	44065.27
509.20	44519.33
509.38	44905.52
509.55	44959.35
509.73	44676.15
509.90	45209.79
510.08	44945.31
510.25	45151.27
510.42	45343.20
510.60	45530.44
510.77	45521.08
510.95	45624.06
511.12	45762.15
511.30	46085.15
511.47	46028.98
511.64	45888.54
511.82	46094.51
511.99	46412.82
512.17	46609.43
512.34	46326.22
512.51	46728.80
512.69	46611.77
512.86	46642.20
513.04	46904.34
513.21	47213.29
513.38	47620.54
513.56	47407.55
513.73	47295.21
513.90	47325.63
514.08	47344.36
514.25	47503.51
514.43	47765.65
514.60	47779.70
514.77	47746.93
514.95	48039.50
515.12	48112.05
515.29	47784.38
515.47	48346.11
515.64	48165.88
515.81	48589.52
515.99	48556.75
516.16	48914.86
516.33	48978.05
516.51	48952.30
516.68	48945.28
516.85	48893.79
517.03	49322.11
517.20	49401.69
517.37	49162.95
517.54	49411.05
517.72	49572.55
517.89	49116.14
518.06	49429.77
518.24	49654.47
518.41	49560.84
518.58	49893.20
518.75	49727.02
518.93	49858.09
519.10	50035.97
519.27	50195.13
519.45	50026.61
519.62	50693.66
519.79	50244.28
519.96	50368.33
520.14	50370.67
520.31	50834.10
520.48	50653.87
520.65	50513.44
520.83	51047.08
521.00	51096.24
521.17	51096.24
521.34	50946.44
521.52	51285.82
521.69	51136.02
521.86	51524.55
522.03	51344.33
522.20	51620.52
522.38	51906.06
522.55	51676.69
522.72	51634.56
522.89	51391.14
523.07	52238.42
523.24	52163.52
523.41	52200.97
523.58	51723.50
523.75	52233.74
523.92	52081.60
524.10	52184.58
524.27	52191.61
524.44	52444.38
524.61	52428.00
524.78	52465.45
524.96	52617.58
525.13	52472.47
525.30	52926.53
525.47	52858.66
525.64	52985.05
525.81	53013.13
525.98	53270.59
526.16	52802.49
526.33	52846.96
526.50	53624.01
526.67	52994.41
526.84	53411.02
527.01	53352.51
527.18	53389.96
527.36	53357.19
527.53	53415.71
527.70	53846.36
527.87	53855.73
528.04	53567.84
528.21	53642.74
528.38	53755.08
528.55	53914.24
528.72	53703.59
528.89	53881.47
529.07	53972.75
529.24	53717.64
529.41	53975.09
529.58	54033.61
529.75	53890.83
529.92	54281.70
530.09	54021.90
530.26	54288.73
530.43	54578.95
530.60	54209.15
530.77	54265.32
530.94	54337.88
531.11	54148.29
531.28	54300.43
531.46	54429.16
531.63	54635.13
531.80	54370.64
531.97	54728.75
532.14	54967.48
532.31	54763.85
532.48	54817.69
532.65	55147.70
532.82	54805.98
532.99	55248.35
533.16	54859.82
533.33	55114.94
533.50	55278.77
533.67	55224.94
533.84	55011.95
534.01	55318.56
534.18	55299.84
534.35	55552.62
534.52	55374.73
534.69	55615.81
534.86	55592.40
535.03	55440.27
535.20	55480.06
535.37	55496.44
535.54	55545.59
535.71	55522.19
535.88	55524.53
536.05	55800.71
536.22	55828.80
536.38	55955.19
536.55	56046.47
536.72	55992.64
536.89	55903.70
537.06	55917.74
537.23	56207.97
537.40	56058.17
537.57	55948.17
537.74	56175.20
537.91	56526.28
538.08	56254.78
538.25	55870.93
538.42	56067.53
538.59	56456.06
538.75	56364.78
538.92	56240.73
539.09	56608.20
539.26	56439.68
539.43	56610.54
539.60	56378.82
539.77	56617.56
539.94	56823.53
540.11	56364.78
540.28	56718.20
540.44	56856.29
540.61	56753.31
540.78	56793.10
540.95	56729.90
541.12	56781.40
541.29	56624.58
541.46	56877.36
541.62	56748.63
541.79	56797.78
541.96	56715.86
542.13	56746.29
542.30	56809.48
542.47	57425.04
542.63	57317.38
542.80	57080.98
542.97	57200.35
543.14	57301.00
543.31	57279.93
543.48	57460.15
543.64	57853.36
543.81	57490.58
543.98	57586.54
544.15	57609.95
544.32	57640.37
544.48	57780.81
544.65	57647.39
544.82	57804.21
544.99	57682.50
545.16	57605.26
545.32	57736.34
545.49	58003.16
545.66	58101.46
545.83	57876.77
546.00	58061.67
546.16	57769.10
546.33	57827.62
546.50	57801.87
546.67	57841.66
546.83	57780.81
547.00	57944.64
547.17	57860.38
547.34	58223.17
547.50	58314.45
547.67	58234.87
547.84	58307.43
548.00	58511.05
548.17	58403.39
548.34	58316.79
548.51	58394.03
548.67	58539.14
548.84	58487.65
549.01	58419.77
549.18	58450.20
549.34	58595.31
549.51	58440.84
549.68	58581.27
549.84	58700.64
550.01	58848.09
550.18	58354.24
550.34	58820.00
550.51	58960.44
550.68	58733.40
550.84	58457.22
551.01	58852.77
551.18	58925.33
551.34	58747.45
551.51	58812.98
551.68	58883.20
551.84	58894.90
552.01	58691.27
552.18	58941.71
552.34	58747.45
552.51	59058.74
552.68	59032.99
552.84	58976.82
553.01	59360.67
553.18	59238.96
553.34	59238.96
553.51	58993.20
553.67	59035.33
553.84	59194.49
554.01	59002.56
554.17	59187.47
554.34	59138.32
554.51	59302.15
554.67	59363.01
554.84	59260.02
555.00	59433.22
555.17	59079.80
555.33	59238.96
555.50	59206.19
555.67	59316.20
555.83	59477.69
556.00	59540.89
556.16	59536.21
556.33	59505.78
556.50	59484.72
556.66	59674.30
556.83	59480.03
556.99	59554.93
557.16	59728.13
557.32	59629.83
557.49	59877.93
557.65	59526.84
557.82	59718.77
557.98	59793.67
558.15	59934.10
558.32	59791.33
558.48	59543.23
558.65	59709.41
558.81	59796.01
558.98	59819.41
559.14	59920.05
559.31	59725.79
559.47	59756.22
559.64	59915.37
559.80	59952.82
559.97	59835.80
560.13	59840.48
560.30	59969.21
560.46	59948.14
560.63	60020.70
560.79	60151.77
560.96	60081.55
561.12	59973.89
561.29	60430.29
561.45	59966.87
561.61	60090.91
561.78	60025.38
561.94	60317.95
562.11	60097.94
562.27	60104.96
562.44	60243.05
562.60	60268.79
562.77	60229.01
562.93	59913.03
563.10	60280.50
563.26	60149.43
563.42	60427.95
563.59	60287.52
563.75	60301.56
563.92	60280.50
564.08	60271.14
564.24	60671.37
564.41	60353.05
564.57	60334.33
564.74	60350.71
564.90	60395.18
565.07	60350.71
565.23	60423.27
565.39	60322.63
565.56	60446.68
565.72	60441.99
565.88	60296.88
566.05	60376.46
566.21	60491.15
566.38	60533.28
566.54	60519.23
566.70	60451.36
566.87	60610.51
567.03	60547.32
567.19	60713.50
567.36	60556.68
567.52	60441.99
567.68	60601.15
567.85	60580.09
568.01	60669.03
568.17	60671.37
568.34	60690.09
568.50	60594.13
568.66	60734.56
568.83	60762.65
568.99	60568.38
569.15	60446.68
569.32	60633.92
569.48	60591.79
569.64	60807.12
569.81	60645.62
569.97	60636.26
570.13	60853.93
570.30	60612.85
570.46	60697.11
570.62	60692.43
570.78	60863.29
570.95	60807.12
571.11	60912.44
571.27	60746.26
571.43	60914.78
571.60	60949.89
571.76	60825.84
571.92	60858.61
572.09	60905.42
572.25	60774.35
572.41	60905.42
572.57	60966.27
572.74	61010.74
572.90	60823.50
573.06	60879.67
573.22	60952.23
573.38	60968.61
573.55	60809.46
573.71	61167.56
573.87	61062.24
574.03	60884.36
574.20	60807.12
574.36	61017.77
574.52	60898.40
574.68	61092.66
574.84	61076.28
575.01	61080.96
575.17	60828.18
575.33	60926.49
575.49	60935.85
575.65	60886.70
575.82	61031.81
575.98	60973.30
576.14	61230.75
576.30	61031.81
576.46	61076.28
576.62	61062.24
576.79	60896.06
576.95	60842.23
577.11	61045.85
577.27	61066.92
577.43	61200.33
577.59	60882.02
577.75	61235.44
577.92	60879.67
578.08	60954.57
578.24	61160.54
578.40	61277.57
578.56	61268.20
578.72	60977.98
578.88	61312.67
579.04	61275.22
579.21	61310.33
579.37	61235.44
579.53	61254.16
579.69	61146.50
579.85	61062.24
580.01	61020.11
580.17	61305.65
580.33	60889.04
580.49	61305.65
580.65	61130.11
580.82	61034.15
580.98	61102.03
581.14	61036.49
581.30	61254.16
581.46	61226.07
581.62	61183.94
581.78	61127.77
581.94	61242.46
582.10	61289.27
582.26	61214.37
582.42	61090.32
582.58	61254.16
582.74	61113.73
582.90	61113.73
583.06	61087.98
583.22	60996.70
583.38	61219.05
583.54	61240.12
583.70	61319.70
583.86	61310.33
584.02	61095.00
584.18	61425.02
584.34	61441.40
584.50	61303.31
584.66	61118.41
584.82	61106.71
584.98	61345.44
585.14	61169.90
585.30	61090.32
585.46	61319.70
585.62	61228.41
585.78	61172.24
585.94	61270.54
586.10	61132.45
586.26	61226.07
586.42	61261.18
586.58	61399.27
586.74	61408.64
586.90	61221.39
587.06	61104.37
587.22	61329.06
587.38	61483.53
587.54	61364.17
587.70	61312.67
587.86	61165.22
588.02	61249.48
588.18	61549.07
588.34	61488.21
588.49	61282.25
