SpectraSuite Data File
++++++++++++++++++++++++++++++++++++
Date: Fri Oct 25 11:25:53 EDT 2013
User: price-jones
Dark Spectrum Present: No
Reference Spectrum Present: No
Number of Sampled Component Spectra: 1
Spectrometers: USB2+H05261
Integration Time (usec): 100000 (USB2+H05261)
Spectra Averaged: 1 (USB2+H05261)
Boxcar Smoothing: 0 (USB2+H05261)
Correct for Electrical Dark: No (USB2+H05261)
Strobe/Lamp Enabled: No (USB2+H05261)
Correct for Detector Non-linearity: No (USB2+H05261)
Correct for Stray Light: No (USB2+H05261)
Number of Pixels in Processed Spectrum: 2048
>>>>>Begin Processed Spectral Data<<<<<
365.73	238.73
365.92	238.73
366.12	238.73
366.32	191.92
366.52	110.01
366.72	142.77
366.91	114.69
367.11	166.18
367.31	124.05
367.51	93.62
367.70	147.45
367.90	152.13
368.10	138.09
368.30	147.45
368.49	133.41
368.69	189.58
368.89	173.20
369.09	205.97
369.28	102.98
369.48	196.60
369.68	173.20
369.87	255.12
370.07	229.37
370.27	234.05
370.47	386.19
370.66	592.16
370.86	601.52
371.06	713.86
371.25	688.12
371.45	645.99
371.65	657.69
371.84	683.44
372.04	741.95
372.24	723.23
372.44	758.33
372.63	660.03
372.83	821.53
373.03	713.86
373.22	781.74
373.42	784.08
373.62	777.06
373.81	770.04
374.01	866.00
374.21	868.34
374.40	720.88
374.60	795.78
374.79	779.40
374.99	763.01
375.19	851.96
375.38	805.14
375.58	816.85
375.78	884.72
375.97	854.30
376.17	840.25
376.37	851.96
376.56	819.19
376.76	889.40
376.95	847.27
377.15	945.58
377.35	957.28
377.54	950.26
377.74	945.58
377.93	931.53
378.13	891.74
378.33	1013.45
378.52	961.96
378.72	985.37
378.91	950.26
379.11	1022.81
379.31	985.37
379.50	898.77
379.70	973.66
379.89	954.94
380.09	950.26
380.28	971.32
380.48	964.30
380.68	1025.15
380.87	1013.45
381.07	997.07
381.26	1004.09
381.46	1064.94
381.65	1078.99
381.85	1067.28
382.04	1057.92
382.24	1184.31
382.43	1093.03
382.63	1100.05
382.83	1008.77
383.02	1107.07
383.22	1142.18
383.41	987.71
383.61	1043.88
383.80	1114.10
384.00	1036.86
384.19	1135.16
384.39	1181.97
384.58	1172.61
384.78	1078.99
384.97	1125.80
385.17	1188.99
385.36	1121.12
385.56	1144.52
385.75	1174.95
385.95	1165.59
386.14	1193.67
386.34	1149.20
386.53	1210.06
386.72	1193.67
386.92	1282.61
387.11	1196.01
387.31	1233.46
387.50	1228.78
387.70	1261.55
387.89	1324.74
388.09	1238.14
388.28	1320.06
388.48	1313.04
388.67	1334.11
388.86	1294.32
389.06	1299.00
389.25	1418.36
389.45	1341.13
389.64	1294.32
389.84	1322.40
390.03	1355.17
390.22	1549.43
390.42	1399.64
390.61	1315.38
390.81	1416.02
391.00	1430.07
391.19	1462.83
391.39	1439.43
391.58	1453.47
391.78	1486.24
391.97	1439.43
392.16	1458.15
392.36	1537.73
392.55	1537.73
392.75	1561.14
392.94	1544.75
393.13	1446.45
393.33	1617.31
393.52	1659.44
393.71	1554.12
393.91	1619.65
394.10	1544.75
394.29	1577.52
394.49	1558.80
394.68	1694.55
394.88	1570.50
395.07	1654.76
395.26	1631.35
395.46	1650.08
395.65	1703.91
395.84	1713.27
396.04	1727.32
396.23	1748.38
396.42	1764.76
396.62	1802.21
396.81	1799.87
397.00	1781.15
397.19	1839.66
397.39	1790.51
397.58	1799.87
397.77	1764.76
397.97	1870.09
398.16	1879.45
398.35	1867.75
398.55	1877.11
398.74	1832.64
398.93	1987.11
399.12	1872.43
399.32	1856.04
399.51	1987.11
399.70	2031.58
399.90	1900.52
400.09	2022.22
400.28	2045.63
400.47	2062.01
400.67	2106.48
400.86	2122.87
401.05	2005.84
401.24	2052.65
401.44	2118.18
401.63	2200.10
401.82	2223.51
402.01	2071.37
402.21	2148.61
402.40	2172.02
402.59	2214.15
402.78	2242.23
402.97	2263.30
403.17	2242.23
403.36	2303.09
403.55	2310.11
403.74	2490.33
403.93	2263.30
404.13	2251.60
404.32	2298.41
404.51	2403.73
404.70	2450.54
404.89	2401.39
405.09	2448.20
405.28	2429.48
405.47	2534.80
405.66	2511.39
405.85	2509.05
406.05	2462.24
406.24	2532.46
406.43	2612.04
406.62	2530.12
406.81	2621.40
407.00	2478.63
407.20	2588.63
407.39	2658.85
407.58	2860.13
407.77	2778.22
407.96	2771.19
408.15	2665.87
408.34	2626.08
408.54	2787.58
408.73	2731.41
408.92	2759.49
409.11	2860.13
409.30	2925.67
409.49	2890.56
409.68	2918.65
409.87	2883.54
410.07	3016.95
410.26	2979.50
410.45	2918.65
410.64	2979.50
410.83	3038.02
411.02	2977.16
411.21	3192.49
411.40	3148.02
411.59	3206.53
411.78	3138.66
411.98	3197.17
412.17	3323.56
412.36	3342.28
412.55	3428.88
412.74	3428.88
412.93	3393.78
413.12	3274.41
413.31	3480.38
413.50	3407.82
413.69	3468.67
413.88	3574.00
414.07	3517.83
414.26	3627.83
414.45	3492.08
414.64	3702.73
414.83	3693.37
415.02	3789.33
415.22	3775.28
415.41	3873.59
415.60	4030.40
415.79	3796.35
415.98	4007.00
416.17	4007.00
416.36	3960.19
416.55	3976.57
416.74	4091.26
416.93	3999.98
417.12	3953.16
417.31	4079.55
417.50	4046.79
417.69	4264.46
417.88	4320.63
418.07	4189.56
418.26	4210.62
418.45	4257.43
418.64	4512.55
418.83	4341.69
419.02	4353.40
419.21	4517.23
419.39	4676.39
419.58	4524.26
419.77	4489.15
419.96	4416.59
420.15	4638.94
420.34	4613.20
420.53	4762.99
420.72	4716.18
420.91	4779.37
421.10	4678.73
421.29	4753.63
421.48	4802.78
421.67	4692.77
421.86	4765.33
422.05	4784.06
422.24	4828.53
422.43	4772.35
422.61	4947.89
422.80	4947.89
422.99	4894.06
423.18	4954.91
423.37	4947.89
423.56	4938.53
423.75	4959.60
423.94	4718.52
424.13	4491.49
424.32	4777.03
424.50	4954.91
424.69	5184.29
424.88	5076.62
425.07	4898.74
425.26	4924.49
425.45	4919.81
425.64	4929.17
425.83	4966.62
426.01	4968.96
426.20	5022.79
426.39	4936.19
426.58	5123.43
426.77	5177.26
426.96	5013.43
427.15	5025.13
427.33	5167.90
427.52	5268.55
427.71	5324.72
427.90	5413.66
428.09	5488.56
428.28	5308.34
428.46	5210.03
428.65	5327.06
428.84	5577.50
429.03	5439.40
429.22	5270.89
429.40	5439.40
429.59	5603.24
429.78	5301.31
429.97	5238.12
430.16	5465.15
430.34	5509.62
430.53	5619.63
430.72	5675.80
430.91	5369.19
431.10	5568.13
431.28	5689.84
431.47	5783.46
431.66	5760.06
431.85	5720.27
432.03	5844.32
432.22	5907.51
432.41	6008.16
432.60	5942.62
432.79	5905.17
432.97	5998.79
433.16	6038.58
433.35	6033.90
433.54	6059.65
433.72	6087.73
433.91	5912.19
434.10	5982.41
434.28	6101.78
434.47	6289.02
434.66	6249.23
434.85	6083.05
435.03	6204.76
435.22	6296.04
435.41	6359.24
435.59	6279.66
435.78	6441.15
435.97	6296.04
436.16	6368.60
436.34	6602.65
436.53	6326.47
436.72	6628.40
436.90	6382.64
437.09	6555.84
437.28	6471.58
437.46	6583.93
437.65	6691.59
437.84	6808.62
438.02	6532.44
438.21	6832.02
438.40	6665.85
438.58	6944.37
438.77	7094.16
438.96	6920.96
439.14	7101.19
439.33	7201.83
439.52	7171.40
439.70	7180.76
439.89	7199.49
440.08	7360.98
440.26	7358.64
440.45	7274.38
440.63	7522.48
440.82	7646.53
441.01	7524.82
441.19	7630.15
441.38	7676.96
441.57	7810.37
441.75	7939.10
441.94	7843.14
442.12	7943.78
442.31	7950.80
442.50	7953.14
442.68	7908.67
442.87	8086.55
443.05	8063.15
443.24	8198.90
443.43	8138.04
443.61	8128.68
443.80	8327.63
443.98	7981.23
444.17	8006.97
444.35	8222.30
444.54	8477.42
444.73	8407.20
444.91	8273.79
445.10	8353.37
445.28	8334.65
445.47	8248.05
445.65	8341.67
445.84	8374.44
446.02	8421.25
446.21	8379.12
446.39	8243.37
446.58	8444.65
446.77	8400.18
446.95	8224.64
447.14	8484.44
447.32	8779.35
447.51	8388.48
447.69	8283.16
447.88	8540.61
448.06	8542.96
448.25	8692.75
448.43	8507.85
448.62	8575.72
448.80	8573.38
448.99	8954.89
449.17	8755.94
449.36	8571.04
449.54	8690.41
449.73	8861.27
449.91	9064.89
450.10	8987.66
450.28	8872.97
450.46	8945.53
450.65	9022.77
450.83	9067.24
451.02	9163.20
451.20	9076.60
451.39	9191.28
451.57	9060.21
451.76	9008.72
451.94	9139.79
452.13	9455.76
452.31	9092.98
452.49	9184.26
452.68	9291.93
452.86	9317.67
453.05	9516.62
453.23	9542.36
453.42	9437.04
453.60	9329.38
453.78	9455.76
453.97	9287.25
454.15	9366.82
454.34	9355.12
454.52	9856.00
454.70	9734.29
454.89	9668.75
455.07	9703.86
455.26	9891.10
455.44	9933.23
455.62	9909.83
455.81	9659.39
455.99	9818.55
456.17	10043.24
456.36	10071.33
456.54	10204.74
456.73	10066.64
456.91	10532.41
457.09	10178.99
457.28	10604.97
457.46	10375.59
457.64	10480.92
457.83	10504.32
458.01	10516.03
458.19	10782.85
458.38	10565.18
458.56	10509.01
458.74	10382.62
458.93	10677.52
459.11	10789.87
459.29	10808.59
459.48	10597.95
459.66	10803.91
459.84	10766.46
460.03	10963.07
460.21	11026.26
460.39	11105.84
460.57	10792.21
460.76	11126.91
460.94	11396.07
461.12	11115.20
461.31	11087.12
461.49	11201.80
461.67	11075.42
461.85	11365.64
462.04	11052.01
462.22	11793.96
462.40	11391.39
462.59	11433.52
462.77	11679.27
462.95	11503.73
463.13	11693.32
463.32	11646.51
463.50	11674.59
463.68	11709.70
463.86	11740.13
464.05	11445.22
464.23	11648.85
464.41	11800.98
464.59	11545.86
464.78	12067.80
464.96	11854.81
465.14	11999.93
465.32	11992.90
465.50	12095.89
465.69	11932.05
465.87	12266.75
466.05	12135.68
466.23	12044.40
466.41	12208.23
466.60	12475.06
466.78	12063.12
466.96	12131.00
467.14	12180.15
467.32	12353.35
467.51	12566.34
467.69	12264.41
467.87	12535.91
468.05	12821.45
468.23	12580.38
468.41	12517.18
468.60	12601.44
468.78	12659.96
468.96	12456.33
469.14	12837.84
469.32	12851.88
469.50	12662.30
469.69	13071.89
469.87	13071.89
470.05	13004.02
470.23	13107.00
470.41	13160.83
470.59	13233.39
470.77	13018.06
470.95	13252.11
471.14	13540.00
471.32	13205.30
471.50	13378.50
471.68	13507.23
471.86	13635.96
472.04	13650.00
472.22	14040.87
472.40	13743.63
472.58	13774.05
472.77	13827.88
472.95	14125.13
473.13	14644.73
473.31	14143.86
473.49	14097.05
473.67	14207.05
473.85	14251.52
474.03	14569.83
474.21	14370.89
474.39	14530.05
474.57	14668.14
474.75	14771.12
474.93	14848.36
475.12	14707.93
475.30	15236.89
475.48	15094.11
475.66	15529.45
475.84	15272.00
476.02	15339.87
476.20	15344.55
476.38	15779.89
476.56	15840.75
476.74	15953.09
476.92	15697.97
477.10	15871.17
477.28	15948.41
477.46	16006.92
477.64	16266.72
477.82	16292.47
478.00	16882.28
478.18	16706.74
478.36	16940.80
478.54	16978.25
478.72	17186.55
478.90	17172.51
479.08	17633.60
479.26	17394.86
479.44	17909.78
479.62	17685.09
479.80	18022.12
479.98	18150.85
480.16	18434.06
480.34	18104.04
480.52	18551.09
480.70	18443.42
480.88	18326.39
481.06	18658.75
481.24	18689.18
481.41	19201.76
481.59	19276.65
481.77	19173.67
481.95	19529.43
482.13	19822.00
482.31	19758.80
482.49	20278.40
482.67	20039.67
482.85	20418.83
483.03	20589.69
483.21	20514.80
483.39	20577.99
483.57	20900.98
483.74	21064.82
483.92	21010.99
484.10	21282.49
484.28	21605.49
484.46	21865.28
484.64	22302.96
484.82	21956.57
485.00	22242.11
485.18	22726.60
485.35	22815.54
485.53	23044.91
485.71	22932.57
485.89	23271.95
486.07	23208.75
486.25	23260.24
486.43	23454.51
486.61	23906.23
486.78	24137.94
486.96	24432.85
487.14	24327.53
487.32	24716.06
487.50	24933.73
487.68	25057.78
487.85	25069.48
488.03	25635.89
488.21	25671.00
488.39	25556.31
488.57	25958.88
488.75	26331.03
488.92	26462.10
489.10	26749.98
489.28	26890.41
489.46	26988.72
489.64	27199.37
489.81	27660.45
489.99	27555.13
490.17	27674.49
490.35	28187.07
490.53	28273.67
490.70	28189.41
490.88	28051.32
491.06	28503.04
491.24	28769.86
491.41	28863.49
491.59	28907.96
491.77	29146.69
491.95	29226.27
492.13	29420.53
492.30	29729.48
492.48	29755.23
492.66	30057.16
492.84	30387.18
493.01	30749.96
493.19	30363.77
493.37	31402.97
493.54	31353.82
493.72	31243.81
493.90	31370.20
494.08	31847.67
494.25	32098.11
494.43	31821.92
494.61	32219.81
494.79	32456.21
494.96	32364.93
495.14	32463.23
495.32	33453.28
495.49	33251.99
495.67	33228.59
495.85	33724.78
496.02	33766.91
496.20	34024.37
496.38	34239.70
496.55	33769.25
496.73	34771.00
496.91	34504.18
497.09	34527.58
497.26	34899.73
497.44	34976.97
497.62	34731.21
497.79	35653.38
497.97	35489.54
498.14	36055.95
498.32	35859.35
498.50	36287.67
498.67	36804.92
498.85	36194.04
499.03	36950.04
499.20	36535.76
499.38	36800.24
499.56	36828.33
499.73	37127.92
499.91	36772.16
500.08	37727.10
500.26	37256.65
500.44	37542.19
500.61	37514.11
500.79	37893.27
500.97	38141.37
501.14	38464.36
501.32	38576.71
501.49	38405.85
501.67	38553.30
501.84	38937.15
502.02	38773.31
502.20	38572.03
502.37	39166.52
502.55	39445.05
502.72	39688.46
502.90	39515.26
503.07	39566.76
503.25	39643.99
503.43	39604.20
503.60	39948.26
503.78	40140.19
503.95	40297.00
504.13	40287.64
504.30	40840.01
504.48	40467.86
504.65	40479.57
504.83	41186.41
505.01	40928.95
505.18	41354.93
505.36	41399.40
505.53	41141.94
505.71	41352.58
505.88	41645.15
506.06	41368.97
506.23	41581.96
506.41	41710.69
506.58	42291.14
506.76	41914.31
506.93	42178.79
507.11	42574.34
507.28	42539.24
507.46	42476.04
507.63	42625.84
507.81	43098.62
507.98	42993.30
508.16	43225.01
508.33	43206.29
508.50	43440.34
508.68	43559.71
508.85	43770.36
509.03	43398.21
509.20	43920.15
509.38	44238.47
509.55	44432.73
509.73	44327.41
509.90	44437.41
510.08	44327.41
510.25	44357.83
510.42	44362.51
510.60	45059.99
510.77	45043.61
510.95	45357.24
511.12	45050.63
511.30	45104.46
511.47	45439.16
511.64	45139.57
511.82	45876.84
511.99	45027.23
512.17	45911.95
512.34	45577.25
512.51	46382.40
512.69	46349.63
512.86	46368.35
513.04	46667.94
513.21	46267.71
513.38	46747.52
513.56	46763.90
513.73	46534.53
513.90	47215.63
514.08	46855.18
514.25	47213.29
514.43	47133.71
514.60	47402.87
514.77	47435.64
514.95	47613.52
515.12	47323.29
515.29	47569.05
515.47	47622.88
515.64	47922.47
515.81	47702.46
515.99	48247.80
516.16	48168.22
516.33	48477.18
516.51	49010.82
516.68	48292.27
516.85	48385.89
517.03	48575.48
517.20	49038.90
517.37	48729.95
517.54	48910.17
517.72	48776.76
517.89	48776.76
518.06	48975.71
518.24	49251.89
518.41	49095.08
518.58	49270.62
518.75	49118.48
518.93	49389.98
519.10	49301.04
519.27	49553.82
519.45	49448.50
519.62	49979.80
519.79	49682.55
519.96	49986.82
520.14	50253.64
520.31	50169.38
520.48	50185.77
520.65	50328.54
520.83	50557.91
521.00	50667.92
521.17	50644.51
521.34	50740.47
521.52	50993.25
521.69	50864.52
521.86	51042.40
522.03	50742.81
522.20	51136.02
522.38	51353.69
522.55	51358.38
522.72	51105.60
522.89	51152.41
523.07	51672.01
523.24	51613.49
523.41	51966.91
523.58	51473.06
523.75	51723.50
523.92	51377.10
524.10	51833.50
524.27	51880.31
524.44	51892.02
524.61	51927.13
524.78	52168.20
524.96	52172.88
525.13	52088.62
525.30	52329.70
525.47	52203.31
525.64	52619.92
525.81	52650.35
525.98	52423.32
526.16	52402.25
526.33	52528.64
526.50	52781.42
526.67	52931.22
526.84	52797.80
527.01	52814.19
527.18	52973.34
527.36	52797.80
527.53	52910.15
527.70	53193.36
527.87	53558.48
528.04	52996.75
528.21	53291.66
528.38	53127.82
528.55	53483.58
528.72	53237.83
528.89	53434.43
529.07	53202.72
529.24	53366.55
529.41	53647.42
529.58	53577.20
529.75	53631.04
529.92	53888.49
530.09	53839.34
530.26	53862.75
530.43	53860.41
530.60	53525.71
530.77	53752.74
530.94	53932.96
531.11	53911.90
531.28	54340.22
531.46	53879.13
531.63	54134.25
531.80	54188.08
531.97	54305.11
532.14	54321.49
532.31	54312.13
532.48	54482.99
532.65	54628.10
532.82	54300.43
532.99	54763.85
533.16	54384.69
533.33	54798.96
533.50	54742.79
533.67	54873.86
533.84	54466.61
534.01	54801.30
534.18	54618.74
534.35	55348.99
534.52	55119.62
534.69	55128.98
534.86	55112.59
535.03	55093.87
535.20	55302.18
535.37	55206.22
535.54	55309.20
535.71	55091.53
535.88	55454.31
536.05	55405.16
536.22	55323.24
536.38	55648.58
536.55	55222.60
536.72	55480.06
536.89	55363.03
537.06	55461.33
537.23	55608.79
537.40	55498.78
537.57	55634.53
537.74	55573.68
537.91	55922.42
538.08	55735.18
538.25	55657.94
538.42	55700.07
538.59	56137.75
538.75	55870.93
538.92	56016.04
539.09	56198.60
539.26	56006.68
539.43	55999.66
539.60	56095.62
539.77	56198.60
539.94	56287.54
540.11	56383.51
540.28	56392.87
540.44	56521.60
540.61	56449.04
540.78	56259.46
540.95	56357.76
541.12	56385.85
541.29	56512.23
541.46	56442.02
541.62	56427.98
541.79	56671.39
541.96	56420.95
542.13	56484.15
542.30	56582.45
542.47	56893.74
542.63	56652.67
542.80	56863.32
542.97	57097.37
543.14	57179.29
543.31	56992.04
543.48	57345.47
543.64	57506.96
543.81	57385.25
543.98	57537.39
544.15	57144.18
544.32	57343.12
544.48	57677.82
544.65	57076.30
544.82	57467.17
544.99	57216.74
545.16	57453.13
545.32	57312.70
545.49	57764.42
545.66	57476.54
545.83	57492.92
546.00	57607.61
546.16	57551.43
546.33	57528.03
546.50	57485.90
546.67	57628.67
546.83	57434.41
547.00	57602.92
547.17	57380.57
547.34	57684.84
547.50	57865.06
547.67	57972.73
547.84	57862.72
548.00	58101.46
548.17	58117.84
548.34	57851.02
548.51	58169.33
548.67	58122.52
548.84	58049.97
549.01	58068.69
549.18	58152.95
549.34	58272.32
549.51	58113.16
549.68	58513.39
549.84	58333.17
550.01	58344.87
550.18	58370.62
550.34	58410.41
550.51	58478.28
550.68	58314.45
550.84	58024.22
551.01	58501.69
551.18	58267.64
551.34	58440.84
551.51	58370.62
551.68	58389.34
551.84	58604.67
552.01	58389.34
552.18	58614.04
552.34	58351.90
552.51	58855.11
552.68	58335.51
552.84	58628.08
553.01	58635.10
553.18	58485.31
553.34	58920.65
553.51	58766.17
553.67	58812.98
553.84	58794.26
554.01	58969.80
554.17	58801.28
554.34	59096.19
554.51	59065.76
554.67	59014.27
554.84	58922.99
555.00	58927.67
555.17	58890.22
555.33	58960.44
555.50	58745.11
555.67	59044.69
555.83	59056.40
556.00	58934.69
556.16	59185.13
556.33	59426.20
556.50	59030.65
556.66	59201.51
556.83	59187.47
556.99	59348.96
557.16	59199.17
557.32	59435.56
557.49	59547.91
557.65	59238.96
557.82	59332.58
557.98	59529.19
558.15	59395.77
558.32	59428.54
558.48	59402.80
558.65	59470.67
558.81	59306.83
558.98	59278.75
559.14	59370.03
559.31	59693.02
559.47	59489.40
559.64	59597.06
559.80	59765.58
559.97	59786.64
560.13	59664.94
560.30	59655.57
560.46	59711.75
560.63	59798.35
560.79	59660.26
560.96	59686.00
561.12	59788.98
561.29	59796.01
561.45	59868.56
561.61	59765.58
561.78	59688.34
561.94	59599.40
562.11	59803.03
562.27	59877.93
562.44	59980.91
562.60	59980.91
562.77	59955.16
562.93	59793.67
563.10	60119.00
563.26	60027.72
563.42	59817.07
563.59	59774.94
563.75	59838.14
563.92	60041.76
564.08	59955.16
564.24	60104.96
564.41	60023.04
564.57	60320.29
564.74	59868.56
564.90	60037.08
565.07	60111.98
565.23	60053.47
565.39	59934.10
565.56	60048.78
565.72	60001.97
565.88	60039.42
566.05	60051.12
566.21	60076.87
566.38	60128.36
566.54	59971.55
566.70	60236.03
566.87	60381.14
567.03	60058.15
567.19	60261.77
567.36	60163.47
567.52	60055.81
567.68	60610.51
567.85	60289.86
568.01	60273.48
568.17	60378.80
568.34	60523.91
568.50	60294.54
568.66	60278.16
568.83	60355.39
568.99	60301.56
569.15	60327.31
569.32	60477.10
569.48	60474.76
569.64	60622.22
569.81	60392.84
569.97	60278.16
570.13	60444.33
570.30	60320.29
570.46	60456.04
570.62	60535.62
570.78	60371.78
570.95	60484.12
571.11	60486.46
571.27	60514.55
571.43	60315.61
571.60	60472.42
571.76	60465.40
571.92	60706.47
572.09	60310.92
572.25	60582.43
572.41	60449.02
572.57	60432.63
572.74	60659.66
572.90	60346.03
573.06	60736.90
573.22	60713.50
573.38	60530.93
573.55	60711.16
573.71	60779.03
573.87	60809.46
574.03	60467.74
574.20	60427.95
574.36	60640.94
574.52	60608.17
574.68	60523.91
574.84	60664.35
575.01	60544.98
575.17	60580.09
575.33	60514.55
575.49	60441.99
575.65	60633.92
575.82	60715.84
575.98	60662.00
576.14	60835.20
576.30	60774.35
576.46	60818.82
576.62	60739.24
576.79	60697.11
576.95	60631.58
577.11	60699.45
577.27	60776.69
577.43	60865.63
577.59	60570.72
577.75	60629.24
577.92	60608.17
578.08	60741.58
578.24	60683.07
578.40	60992.02
578.56	60748.60
578.72	60786.05
578.88	60874.99
579.04	60872.65
579.21	60659.66
579.37	61003.72
579.53	60764.99
579.69	60816.48
579.85	60732.22
580.01	60830.52
580.17	60704.13
580.33	60786.05
580.49	61062.24
580.65	60900.74
580.82	60725.20
580.98	60647.96
581.14	60732.22
581.30	60996.70
581.46	60973.30
581.62	60910.10
581.78	60853.93
581.94	60753.29
582.10	60844.57
582.26	60727.54
582.42	60860.95
582.58	60830.52
582.74	61083.30
582.90	60821.16
583.06	60989.68
583.22	60697.11
583.38	60982.66
583.54	60776.69
583.70	61076.28
583.86	60903.08
584.02	60699.45
584.18	61003.72
584.34	60947.55
584.50	60884.36
584.66	60802.44
584.82	60669.03
584.98	61169.90
585.14	60942.87
585.30	60753.29
585.46	61013.08
585.62	60931.17
585.78	60994.36
585.94	60863.29
586.10	60992.02
586.26	60912.44
586.42	60874.99
586.58	61123.09
586.74	60949.89
586.90	60860.95
587.06	60973.30
587.22	61132.45
587.38	60704.13
587.54	61233.10
587.70	61160.54
587.86	60942.87
588.02	61043.51
588.18	61034.15
588.34	60966.27
588.49	60912.44
