SpectraSuite Data File
++++++++++++++++++++++++++++++++++++
Date: Fri Oct 25 10:43:34 EDT 2013
User: price-jones
Dark Spectrum Present: No
Reference Spectrum Present: No
Number of Sampled Component Spectra: 1
Spectrometers: USB2+H05261
Integration Time (usec): 100000 (USB2+H05261)
Spectra Averaged: 1 (USB2+H05261)
Boxcar Smoothing: 0 (USB2+H05261)
Correct for Electrical Dark: No (USB2+H05261)
Strobe/Lamp Enabled: No (USB2+H05261)
Correct for Detector Non-linearity: No (USB2+H05261)
Correct for Stray Light: No (USB2+H05261)
Number of Pixels in Processed Spectrum: 2048
>>>>>Begin Processed Spectral Data<<<<<
365.73	149.79
365.92	149.79
366.12	149.79
366.32	39.79
366.52	51.49
366.72	114.69
366.91	74.90
367.11	21.06
367.31	9.36
367.51	58.51
367.70	0.00
367.90	18.72
368.10	30.43
368.30	63.19
368.49	0.00
368.69	51.49
368.89	18.72
369.09	0.00
369.28	58.51
369.48	53.83
369.68	102.98
369.87	112.35
370.07	98.30
370.27	107.66
370.47	203.63
370.66	402.57
370.86	454.06
371.06	458.74
371.25	395.55
371.45	402.57
371.65	414.27
371.84	418.96
372.04	505.56
372.24	388.53
372.44	538.32
372.63	496.19
372.83	507.90
373.03	489.17
373.22	538.32
373.42	442.36
373.62	465.77
373.81	517.26
374.01	559.39
374.21	479.81
374.40	594.50
374.60	606.20
374.79	624.92
374.99	575.77
375.19	641.31
375.38	606.20
375.58	531.30
375.78	594.50
375.97	601.52
376.17	655.35
376.37	641.31
376.56	615.56
376.76	660.03
376.95	554.71
377.15	648.33
377.35	580.45
377.54	685.78
377.74	571.09
377.93	634.29
378.13	638.97
378.33	657.69
378.52	690.46
378.72	685.78
378.91	720.88
379.11	720.88
379.31	718.54
379.50	568.75
379.70	688.12
379.89	657.69
380.09	667.05
380.28	676.41
380.48	723.23
380.68	667.05
380.87	608.54
381.07	702.16
381.26	699.82
381.46	683.44
381.65	727.91
381.85	695.14
382.04	744.29
382.24	727.91
382.43	737.27
382.63	674.07
382.83	671.73
383.02	671.73
383.22	763.01
383.41	692.80
383.61	847.27
383.80	774.72
384.00	739.61
384.19	793.44
384.39	755.99
384.58	868.34
384.78	851.96
384.97	760.67
385.17	807.48
385.36	816.85
385.56	849.61
385.75	812.17
385.95	884.72
386.14	908.13
386.34	819.19
386.53	812.17
386.72	788.76
386.92	894.08
387.11	894.08
387.31	926.85
387.50	854.30
387.70	873.02
387.89	1004.09
388.09	849.61
388.28	936.21
388.48	936.21
388.67	889.40
388.86	915.15
389.06	1060.26
389.25	987.71
389.45	926.85
389.64	964.30
389.84	1109.41
390.03	999.41
390.22	959.62
390.42	1022.81
390.61	1001.75
390.81	1074.31
391.00	1043.88
391.19	1121.12
391.39	1039.20
391.58	1064.94
391.78	957.28
391.97	1032.18
392.16	1004.09
392.36	1027.50
392.55	1015.79
392.75	992.39
392.94	945.58
393.13	1001.75
393.33	1006.43
393.52	1097.71
393.71	1076.65
393.91	1095.37
394.10	1123.46
394.29	1093.03
394.49	1095.37
394.68	1289.64
394.88	1245.16
395.07	1221.76
395.26	1301.34
395.46	1247.51
395.65	1282.61
395.84	1167.93
396.04	1240.48
396.23	1186.65
396.42	1125.80
396.62	1139.84
396.81	1128.14
397.00	1240.48
397.19	1299.00
397.39	1291.98
397.58	1324.74
397.77	1362.19
397.97	1387.94
398.16	1444.11
398.35	1462.83
398.55	1488.58
398.74	1458.15
398.93	1624.33
399.12	1572.84
399.32	1462.83
399.51	1619.65
399.70	1582.20
399.90	1636.03
400.09	1647.74
400.28	1558.80
400.47	1689.87
400.67	1764.76
400.86	1652.42
401.05	1643.06
401.24	1699.23
401.44	1713.27
401.63	1799.87
401.82	1783.49
402.01	1748.38
402.21	1785.83
402.40	1734.34
402.59	1722.63
402.78	1823.28
402.97	1753.06
403.17	1776.47
403.36	1898.17
403.55	1919.24
403.74	1996.48
403.93	1966.05
404.13	1952.01
404.32	1909.88
404.51	1842.00
404.70	1982.43
404.89	1902.86
405.09	1956.69
405.28	2005.84
405.47	2033.93
405.66	1942.64
405.85	2029.24
406.05	1923.92
406.24	2054.99
406.43	2139.25
406.62	2094.78
406.81	2167.34
407.00	2113.50
407.20	2136.91
407.39	2087.76
407.58	2083.08
407.77	2195.42
407.96	2270.32
408.15	2326.49
408.34	2218.83
408.54	2303.09
408.73	2399.05
408.92	2246.91
409.11	2427.14
409.30	2413.09
409.49	2218.83
409.68	2333.51
409.87	2207.13
410.07	2410.75
410.26	2464.58
410.45	2401.39
410.64	2483.31
410.83	2499.69
411.02	2516.08
411.21	2689.28
411.40	2534.80
411.59	2675.23
411.78	2593.31
411.98	2583.95
412.17	2665.87
412.36	2764.17
412.55	2677.57
412.74	2951.42
412.93	2780.56
413.12	2928.01
413.31	3033.33
413.50	2930.35
413.69	2853.11
413.88	3033.33
414.07	2864.82
414.26	3007.59
414.45	3026.31
414.64	3089.51
414.83	3087.17
415.02	3030.99
415.22	3215.90
415.41	3110.57
415.60	3218.24
415.79	3304.84
415.98	3309.52
416.17	3269.73
416.36	3262.71
416.55	3337.60
416.74	3325.90
416.93	3358.67
417.12	3344.63
417.31	3407.82
417.50	3300.16
417.69	3517.83
417.88	3538.89
418.07	3482.72
418.26	3407.82
418.45	3548.25
418.64	3655.92
418.83	3705.07
419.02	3740.18
419.21	3681.66
419.39	3651.24
419.58	3595.06
419.77	3543.57
419.96	3747.20
420.15	3744.86
420.34	3623.15
420.53	3901.67
420.72	3765.92
420.91	3997.64
421.10	3854.86
421.29	3852.52
421.48	3857.20
421.67	3983.59
421.86	3852.52
422.05	3763.58
422.24	3824.44
422.43	3836.14
422.61	3908.69
422.80	3880.61
422.99	3929.76
423.18	3988.27
423.37	4081.89
423.56	3892.31
423.75	4037.42
423.94	3866.56
424.13	3758.90
424.32	3911.04
424.50	4081.89
424.69	4011.68
424.88	3978.91
425.07	3990.61
425.26	4002.32
425.45	3943.80
425.64	3929.76
425.83	3887.63
426.01	4081.89
426.20	4095.94
426.39	4140.41
426.58	4243.39
426.77	4098.28
426.96	4021.04
427.15	4086.58
427.33	4168.49
427.52	4212.96
427.71	4198.92
427.90	4142.75
428.09	4231.69
428.28	4187.22
428.46	4201.26
428.65	4212.96
428.84	4531.28
429.03	4451.70
429.22	4086.58
429.40	4177.86
429.59	4189.56
429.78	4028.06
429.97	3896.99
430.16	4065.51
430.34	4173.18
430.53	4128.70
430.72	4201.26
430.91	4306.59
431.10	4432.97
431.28	4613.20
431.47	4674.05
431.66	4688.09
431.85	4643.62
432.03	4573.41
432.22	4767.67
432.41	4578.09
432.60	4774.69
432.79	4856.61
432.97	4814.48
433.16	4688.09
433.35	4678.73
433.54	4641.28
433.72	4770.01
433.91	4737.24
434.10	4798.10
434.28	4807.46
434.47	4873.00
434.66	4947.89
434.85	5034.49
435.03	5074.28
435.22	4870.65
435.41	5074.28
435.59	5041.51
435.78	5146.84
435.97	5195.99
436.16	5247.48
436.34	5090.67
436.53	5280.25
436.72	5235.78
436.90	5165.56
437.09	5310.68
437.28	5064.92
437.46	5280.25
437.65	5118.75
437.84	5245.14
438.02	5228.76
438.21	5275.57
438.40	5289.61
438.58	5392.59
438.77	5369.19
438.96	5607.92
439.14	5458.13
439.33	5568.13
439.52	5504.94
439.70	5556.43
439.89	5750.70
440.08	5849.00
440.26	5715.59
440.45	5626.65
440.63	5867.72
440.82	6186.04
441.01	5996.45
441.19	6033.90
441.38	6183.70
441.57	6291.36
441.75	6045.60
441.94	6326.47
442.12	6267.95
442.31	6485.62
442.50	6396.68
442.68	6373.28
442.87	6139.23
443.05	6417.75
443.24	6532.44
443.43	6382.64
443.61	6544.14
443.80	6686.91
443.98	6399.02
444.17	6438.81
444.35	6604.99
444.54	6670.53
444.73	6679.89
444.91	6640.10
445.10	6663.51
445.28	6583.93
445.47	6502.01
445.65	6457.54
445.84	6670.53
446.02	6717.34
446.21	6579.25
446.39	6569.88
446.58	6778.19
446.77	6693.93
446.95	6672.87
447.14	6855.43
447.32	6773.51
447.51	6719.68
447.69	6668.19
447.88	6754.79
448.06	6913.94
448.25	6825.00
448.43	6775.85
448.62	6932.67
448.80	6794.58
448.99	7012.24
449.17	6890.54
449.36	7110.55
449.54	6993.52
449.73	7265.02
449.91	7180.76
450.10	7276.73
450.28	7138.63
450.46	7323.54
450.65	7206.51
450.83	7330.56
451.02	7389.07
451.20	7358.64
451.39	7475.67
451.57	7356.30
451.76	7290.77
451.94	7372.69
452.13	7379.71
452.31	7311.83
452.49	7192.47
452.68	7365.67
452.86	7269.70
453.05	7456.95
453.23	7473.33
453.42	7524.82
453.60	7372.69
453.78	7674.62
453.97	7344.60
454.15	7524.82
454.34	7475.67
454.52	7637.17
454.70	7679.30
454.89	7592.70
455.07	7639.51
455.26	7653.55
455.44	7896.97
455.62	7845.48
455.81	7815.05
455.99	8156.77
456.17	8098.25
456.36	7967.18
456.54	8098.25
456.73	8177.83
456.91	8229.32
457.09	8318.26
457.28	8461.04
457.46	8180.17
457.64	8114.64
457.83	8147.40
458.01	8257.41
458.19	8372.10
458.38	8332.31
458.56	8414.23
458.74	8297.20
458.93	8456.36
459.11	8470.40
459.29	8135.70
459.48	8374.44
459.66	8360.39
459.84	8449.33
460.03	8730.20
460.21	8617.85
460.39	8430.61
460.57	8772.33
460.76	8765.31
460.94	8786.37
461.12	8823.82
461.31	8699.77
461.49	8833.18
461.67	8697.43
461.85	8919.78
462.04	9006.38
462.22	9411.29
462.40	8915.10
462.59	9118.73
462.77	8802.75
462.95	9006.38
463.13	8830.84
463.32	9142.13
463.50	9104.68
463.68	9109.36
463.86	9036.81
464.05	8905.74
464.23	8849.57
464.41	8999.36
464.59	8915.10
464.78	9291.93
464.96	9153.84
465.14	8997.02
465.32	9451.08
465.50	9500.23
465.69	9327.03
465.87	9373.85
466.05	9249.80
466.23	9097.66
466.41	9404.27
466.60	9495.55
466.78	9212.35
466.96	9256.82
467.14	9214.69
467.32	9301.29
467.51	9441.72
467.69	9385.55
467.87	9469.81
468.05	9603.22
468.23	9437.04
468.41	9680.46
468.60	9666.41
468.78	9781.10
468.96	9542.36
469.14	9865.36
469.32	9942.60
469.50	9715.56
469.69	9727.27
469.87	9834.93
470.05	9937.91
470.23	9764.72
470.41	10129.84
470.59	10071.33
470.77	9989.41
470.95	10022.17
471.14	10115.80
471.32	10143.88
471.50	10279.63
471.68	10384.96
471.86	10609.65
472.04	10485.60
472.22	10672.84
472.40	10321.76
472.58	10579.22
472.77	10600.29
472.95	10485.60
473.13	10785.19
473.31	10373.25
473.49	10736.04
473.67	10761.78
473.85	10759.44
474.03	11089.46
474.21	11037.97
474.39	11274.36
474.57	11211.17
474.75	11225.21
474.93	11452.24
475.12	11129.25
475.30	11414.79
475.48	11302.45
475.66	11503.73
475.84	11267.34
476.02	11686.29
476.20	11461.60
476.38	11674.59
476.56	11981.20
476.74	11953.12
476.92	11817.36
477.10	11976.52
477.28	12166.10
477.46	12133.34
477.64	12231.64
477.82	12465.69
478.00	12716.13
478.18	12519.53
478.36	12772.30
478.54	12868.27
478.72	12985.29
478.90	13233.39
479.08	13235.73
479.26	13270.84
479.44	13224.03
479.62	13638.30
479.80	13708.52
479.98	13624.26
480.16	13806.82
480.34	13703.84
480.52	14012.79
480.70	13867.67
480.88	13834.91
481.06	14129.81
481.24	14090.02
481.41	14377.91
481.59	14485.58
481.77	14658.78
481.95	14459.83
482.13	14649.41
482.31	14806.23
482.49	15201.78
482.67	15206.46
482.85	15105.82
483.03	15356.25
483.21	15456.90
483.39	15435.83
483.57	15524.77
483.74	15606.69
483.92	15894.58
484.10	15723.72
484.28	15892.24
484.46	16365.03
484.64	16456.31
484.82	16414.18
485.00	16400.13
485.18	16566.31
485.35	16716.11
485.53	16470.35
485.71	16308.85
485.89	16683.34
486.07	16690.36
486.25	16643.55
486.43	17191.23
486.61	17254.43
486.78	17411.25
486.96	17385.50
487.14	18132.13
487.32	17914.46
487.50	18218.73
487.68	18307.67
487.85	18211.71
488.03	18892.80
488.21	18850.67
488.39	18527.68
488.57	18792.16
488.75	18965.36
488.92	19215.80
489.10	19445.17
489.28	19751.78
489.46	19885.19
489.64	19578.58
489.81	20512.46
489.99	20381.38
490.17	20566.29
490.35	20486.71
490.53	20451.60
490.70	20531.18
490.88	20695.02
491.06	20924.39
491.24	20987.58
491.41	20802.68
491.59	21083.55
491.77	20720.76
491.95	21231.00
492.13	21664.00
492.30	21912.10
492.48	21874.65
492.66	21860.60
492.84	22136.79
493.01	22302.96
493.19	22190.62
493.37	22590.85
493.54	22345.09
493.72	23021.51
493.90	22654.05
494.08	22951.29
494.25	23381.95
494.43	23498.98
494.61	23749.42
494.79	23756.44
494.96	23655.79
495.14	23875.80
495.32	23936.66
495.49	24034.96
495.67	24037.30
495.85	24301.78
496.02	24657.54
496.20	24477.32
496.38	24835.42
496.55	24641.16
496.73	25514.18
496.91	24758.19
497.09	25315.23
497.26	25223.95
497.44	25240.34
497.62	25184.16
497.79	25619.50
497.97	25127.99
498.14	25668.66
498.32	25972.92
498.50	25759.94
498.67	26199.96
498.85	26260.81
499.03	26391.88
499.20	26993.40
499.38	26569.76
499.56	26766.37
499.73	26501.89
499.91	26707.85
500.08	26775.73
500.26	26272.51
500.44	26913.82
500.61	26555.72
500.79	26426.99
500.97	26981.70
501.14	27220.43
501.32	27243.84
501.49	27384.27
501.67	27569.17
501.84	27562.15
502.02	27683.86
502.20	28074.73
502.37	28130.90
502.55	27803.22
502.72	28264.31
502.90	28173.03
503.07	28147.28
503.25	28006.85
503.43	28285.37
503.60	28444.53
503.78	28140.26
503.95	28411.76
504.13	28727.74
504.30	29261.38
504.48	28816.68
504.65	29097.54
504.83	29277.76
505.01	29319.89
505.18	29102.22
505.36	29502.45
505.53	29659.27
505.71	29699.06
505.88	29898.00
506.06	29511.81
506.23	29984.60
506.41	29914.39
506.58	29649.91
506.76	30174.19
506.93	30389.52
507.11	30412.92
507.28	30148.44
507.46	30085.25
507.63	30462.07
507.81	30651.66
507.98	30712.51
508.16	30450.37
508.33	30724.21
508.50	31094.02
508.68	30993.37
508.85	31414.67
509.03	31206.36
509.20	31068.27
509.38	31337.43
509.55	31356.16
509.73	31117.42
509.90	31817.24
510.08	31044.87
510.25	31557.44
510.42	31686.17
510.60	31669.79
510.77	32383.65
510.95	32449.19
511.12	32123.85
511.30	32236.20
511.47	32627.07
511.64	32720.69
511.82	33001.55
511.99	32364.93
512.17	32634.09
512.34	32203.43
512.51	33156.03
512.69	32762.82
512.86	32776.86
513.04	32919.63
513.21	32858.78
513.38	33165.39
513.56	33050.70
513.73	32985.17
513.90	33436.89
514.08	33542.22
514.25	33244.97
514.43	33537.54
514.60	33376.04
514.77	33544.56
514.95	33970.54
515.12	33268.37
515.29	33855.85
515.47	34384.81
515.64	34253.74
515.81	34120.33
515.99	34122.67
516.16	34281.83
516.33	33895.64
516.51	34000.96
516.68	33446.26
516.85	33633.50
517.03	33689.67
517.20	34232.68
517.37	34728.87
517.54	35037.82
517.72	34178.84
517.89	34157.78
518.06	34227.99
518.24	34469.07
518.41	34445.66
518.58	34548.65
518.75	34810.79
518.93	34930.16
519.10	35159.53
519.27	35381.88
519.45	35517.63
519.62	35395.92
519.79	35218.04
519.96	35775.09
520.14	35562.10
520.31	35374.86
520.48	35534.01
520.65	35892.12
520.83	35824.24
521.00	36187.02
521.17	35999.78
521.34	35931.90
521.52	36587.25
521.69	36524.06
521.86	36105.10
522.03	36587.25
522.20	36390.65
522.38	36533.42
522.55	36500.65
522.72	36835.35
522.89	36538.10
523.07	36701.94
523.24	36914.93
523.41	36704.28
523.58	37261.33
523.75	37591.34
523.92	37661.56
524.10	37661.56
524.27	37574.96
524.44	37422.83
524.61	37811.35
524.78	37663.90
524.96	37261.33
525.13	38007.96
525.30	37525.81
525.47	38124.99
525.64	37731.78
525.81	37816.04
525.98	37776.25
526.16	37642.84
526.33	37766.88
526.50	37872.21
526.67	37450.91
526.84	37621.77
527.01	37713.05
527.18	38323.93
527.36	38171.80
527.53	38473.73
527.70	38476.07
527.87	38644.59
528.04	38443.30
528.21	38897.36
528.38	38682.03
528.55	39218.02
528.72	39030.77
528.89	39192.27
529.07	38934.81
529.24	38834.17
529.41	39100.99
529.58	39040.14
529.75	39023.75
529.92	39332.70
530.09	39423.98
530.26	39358.45
530.43	39648.68
530.60	39482.50
530.77	39962.31
530.94	39615.91
531.11	39519.95
531.28	39323.34
531.46	39632.29
531.63	39838.26
531.80	39241.42
531.97	39725.91
532.14	40179.98
532.31	39585.48
532.48	39725.91
532.65	40187.00
532.82	39456.75
532.99	40137.85
533.16	39864.00
533.33	39882.73
533.50	40222.11
533.67	40470.20
533.84	40161.25
534.01	39920.18
534.18	40636.38
534.35	40587.23
534.52	40587.23
534.69	40495.95
534.86	40734.68
535.03	40231.47
535.20	40961.72
535.37	41078.74
535.54	41074.06
535.71	40697.24
535.88	40762.77
536.05	41099.81
536.22	41057.68
536.38	40879.80
536.55	41069.38
536.72	40807.24
536.89	40708.94
537.06	40863.41
537.23	41207.47
537.40	41165.34
537.57	41060.02
537.74	41209.81
537.91	41251.94
538.08	41813.67
538.25	41275.35
538.42	41029.59
538.59	41404.08
538.75	40954.69
538.92	41677.92
539.09	41902.61
539.26	41315.14
539.43	41397.06
539.60	41373.65
539.77	41420.46
539.94	41951.76
540.11	41464.93
540.28	41818.35
540.44	41745.80
540.61	42115.60
540.78	41464.93
540.95	41872.18
541.12	41691.96
541.29	41830.05
541.46	42265.39
541.62	42120.28
541.79	42272.42
541.96	41989.21
542.13	42466.68
542.30	41949.42
542.47	42330.93
542.63	41727.07
542.80	42300.50
542.97	42576.69
543.14	42532.22
543.31	42644.56
543.48	42897.34
543.64	43349.06
543.81	43192.25
543.98	42548.60
544.15	43012.02
544.32	42831.80
544.48	43524.60
544.65	42979.26
544.82	43122.03
544.99	42593.07
545.16	43054.15
545.32	42696.05
545.49	43641.63
545.66	43475.45
545.83	43613.54
546.00	43613.54
546.16	43400.55
546.33	43477.79
546.50	42946.49
546.67	43210.97
546.83	42958.19
547.00	43391.19
547.17	43878.02
547.34	43143.09
547.50	43342.04
547.67	43868.66
547.84	43587.80
548.00	43711.84
548.17	44053.56
548.34	43697.80
548.51	44034.84
548.67	43856.96
548.84	43892.07
549.01	44121.44
549.18	44346.13
549.34	43931.86
549.51	43999.73
549.68	44086.33
549.84	44072.29
550.01	44313.36
550.18	44065.27
550.34	44346.13
550.51	44264.21
550.68	44175.27
550.84	43665.03
551.01	44399.96
551.18	43938.88
551.34	44074.63
551.51	44399.96
551.68	44814.24
551.84	44442.09
552.01	44402.30
552.18	44685.51
552.34	44175.27
552.51	44545.08
552.68	44629.34
552.84	44957.01
553.01	45151.27
553.18	44818.92
553.34	44949.99
553.51	44577.84
553.67	44835.30
553.84	45041.27
554.01	44856.37
554.17	44865.73
554.34	45212.13
554.51	45139.57
554.67	45202.77
554.84	45074.04
555.00	44818.92
555.17	44830.62
555.33	44935.95
555.50	44919.56
555.67	44737.00
555.83	44617.63
556.00	44978.07
556.16	45174.68
556.33	44779.13
556.50	45265.96
556.66	45333.84
556.83	44893.82
556.99	44828.28
557.16	45256.60
557.32	45050.63
557.49	45287.03
557.65	45263.62
557.82	45312.77
557.98	45638.11
558.15	45333.84
558.32	45514.06
558.48	44645.72
558.65	45111.49
558.81	45380.65
558.98	45242.56
559.14	45563.21
559.31	45188.72
559.47	45418.10
559.64	45148.93
559.80	45170.00
559.97	45390.01
560.13	44966.37
560.30	45511.72
560.46	45373.63
560.63	45457.88
560.79	45462.57
560.96	45954.08
561.12	45729.39
561.29	45624.06
561.45	45579.59
561.61	45492.99
561.78	45172.34
561.94	45605.34
562.11	45441.50
562.27	45457.88
562.44	45626.40
562.60	45888.54
562.77	45387.67
562.93	45680.24
563.10	45661.51
563.26	45188.72
563.42	45521.08
563.59	45748.11
563.75	45565.55
563.92	45757.47
564.08	45668.53
564.24	46071.10
564.41	45504.70
564.57	45825.35
564.74	45453.20
564.90	45942.38
565.07	45354.90
565.23	45291.71
565.39	45544.48
565.56	45975.14
565.72	45514.06
565.88	45492.99
566.05	45565.55
566.21	45785.56
566.38	46232.60
566.54	45874.50
566.70	45727.05
566.87	46408.14
567.03	45968.12
567.19	46796.67
567.36	46314.52
567.52	45862.80
567.68	46181.11
567.85	45301.07
568.01	45329.16
568.17	45940.04
568.34	45846.41
568.50	45752.79
568.66	45752.79
568.83	46263.03
568.99	45663.85
569.15	46499.42
569.32	45851.09
569.48	45902.59
569.64	46124.94
569.81	46113.23
569.97	45764.49
570.13	45921.31
570.30	45698.96
570.46	45565.55
570.62	45710.66
570.78	45708.32
570.95	45560.87
571.11	46405.80
571.27	46047.70
571.43	45818.33
571.60	45879.18
571.76	46146.00
571.92	46305.16
572.09	46054.72
572.25	46024.29
572.41	45925.99
572.57	46148.34
572.74	46457.29
572.90	46513.47
573.06	46387.08
573.22	46052.38
573.38	45727.05
573.55	45783.22
573.71	46195.15
573.87	46522.83
574.03	46066.42
574.20	45982.16
574.36	45886.20
574.52	46340.27
574.68	46651.56
574.84	46206.86
575.01	46337.93
575.17	46103.87
575.33	45684.92
575.49	46087.49
575.65	46356.65
575.82	46473.68
575.98	46033.66
576.14	46644.54
576.30	46216.22
576.46	46174.09
576.62	46258.35
576.79	46146.00
576.95	45567.89
577.11	46478.36
577.27	46162.39
577.43	45808.96
577.59	45954.08
577.75	46146.00
577.92	45853.44
578.08	45284.68
578.24	45652.15
578.40	46019.61
578.56	46281.75
578.72	46190.47
578.88	46583.68
579.04	46265.37
579.21	46129.62
579.37	45851.09
579.53	46181.11
579.69	46148.34
579.85	46136.64
580.01	46330.90
580.17	45965.78
580.33	45846.41
580.49	46174.09
580.65	46223.24
580.82	45893.22
580.98	45937.69
581.14	45823.01
581.30	46513.47
581.46	46101.53
581.62	46082.81
581.78	46033.66
581.94	46433.89
582.10	46471.34
582.26	46330.90
582.42	46363.67
582.58	46333.24
582.74	45858.12
582.90	46586.02
583.06	46401.12
583.22	46656.24
583.38	46476.02
583.54	46263.03
583.70	46080.47
583.86	46284.09
584.02	46218.56
584.18	46199.83
584.34	46323.88
584.50	45951.74
584.66	46234.94
584.82	45949.40
584.98	46780.29
585.14	46405.80
585.30	46033.66
585.46	46024.29
585.62	45521.08
585.78	46129.62
585.94	46157.70
586.10	46497.08
586.26	46300.48
586.42	46550.91
586.58	46799.01
586.74	46417.50
586.90	46541.55
587.06	46225.58
587.22	46389.42
587.38	45851.09
587.54	46328.56
587.70	46728.80
587.86	46555.60
588.02	46644.54
588.18	46433.89
588.34	46106.21
588.49	45727.05
588.65	45640.45
588.81	45764.49
588.97	46220.90
589.13	45755.13
589.29	46106.21
589.45	45865.14
589.61	45820.67
589.77	46485.38
589.93	46267.71
