SpectraSuite Data File
++++++++++++++++++++++++++++++++++++
Date: Fri Oct 25 10:43:28 EDT 2013
User: price-jones
Dark Spectrum Present: No
Reference Spectrum Present: No
Number of Sampled Component Spectra: 1
Spectrometers: USB2+H05261
Integration Time (usec): 100000 (USB2+H05261)
Spectra Averaged: 1 (USB2+H05261)
Boxcar Smoothing: 0 (USB2+H05261)
Correct for Electrical Dark: No (USB2+H05261)
Strobe/Lamp Enabled: No (USB2+H05261)
Correct for Detector Non-linearity: No (USB2+H05261)
Correct for Stray Light: No (USB2+H05261)
Number of Pixels in Processed Spectrum: 2048
>>>>>Begin Processed Spectral Data<<<<<
365.73	110.01
365.92	110.01
366.12	110.01
366.32	35.11
366.52	46.81
366.72	95.96
366.91	0.00
367.11	42.13
367.31	2.34
367.51	0.00
367.70	18.72
367.90	39.79
368.10	0.00
368.30	95.96
368.49	0.00
368.69	44.47
368.89	0.00
369.09	25.75
369.28	56.17
369.48	49.15
369.68	44.47
369.87	86.60
370.07	142.77
370.27	152.13
370.47	168.52
370.66	337.04
370.86	416.62
371.06	451.72
371.25	449.38
371.45	498.53
371.65	526.62
371.84	463.43
372.04	402.57
372.24	528.96
372.44	491.51
372.63	456.40
372.83	496.19
373.03	489.17
373.22	498.53
373.42	554.71
373.62	470.45
373.81	486.83
374.01	543.00
374.21	610.88
374.40	589.82
374.60	519.60
374.79	514.92
374.99	610.88
375.19	603.86
375.38	554.71
375.58	599.18
375.78	653.01
375.97	585.13
376.17	622.58
376.37	638.97
376.56	676.41
376.76	660.03
376.95	622.58
377.15	603.86
377.35	535.98
377.54	645.99
377.74	657.69
377.93	660.03
378.13	648.33
378.33	627.26
378.52	643.65
378.72	622.58
378.91	650.67
379.11	655.35
379.31	601.52
379.50	547.69
379.70	683.44
379.89	734.93
380.09	699.82
380.28	690.46
380.48	641.31
380.68	653.01
380.87	734.93
381.07	713.86
381.26	643.65
381.46	760.67
381.65	709.18
381.85	758.33
382.04	676.41
382.24	732.59
382.43	667.05
382.63	713.86
382.83	697.48
383.02	732.59
383.22	660.03
383.41	692.80
383.61	744.29
383.80	751.31
384.00	770.04
384.19	737.27
384.39	833.23
384.58	795.78
384.78	814.51
384.97	755.99
385.17	835.57
385.36	774.72
385.56	791.10
385.75	798.12
385.95	779.40
386.14	873.02
386.34	814.51
386.53	837.91
386.72	816.85
386.92	826.21
387.11	882.38
387.31	856.64
387.50	849.61
387.70	819.19
387.89	868.34
388.09	807.48
388.28	873.02
388.48	882.38
388.67	952.60
388.86	929.19
389.06	873.02
389.25	891.74
389.45	952.60
389.64	964.30
389.84	1057.92
390.03	966.64
390.22	959.62
390.42	915.15
390.61	978.34
390.81	961.96
391.00	1055.58
391.19	1057.92
391.39	1153.88
391.58	1006.43
391.78	1114.10
391.97	1034.52
392.16	1029.84
392.36	1043.88
392.55	1011.11
392.75	976.00
392.94	994.73
393.13	1076.65
393.33	1004.09
393.52	1032.18
393.71	1097.71
393.91	1132.82
394.10	1123.46
394.29	1177.29
394.49	1081.33
394.68	1217.08
394.88	1212.40
395.07	1198.35
395.26	1268.57
395.46	1270.91
395.65	1205.38
395.84	1135.16
396.04	1181.97
396.23	1174.95
396.42	1064.94
396.62	1221.76
396.81	1277.93
397.00	1296.66
397.19	1291.98
397.39	1256.87
397.58	1296.66
397.77	1369.21
397.97	1406.66
398.16	1404.32
398.35	1420.71
398.55	1448.79
398.74	1495.60
398.93	1493.26
399.12	1509.65
399.32	1530.71
399.51	1486.24
399.70	1465.18
399.90	1558.80
400.09	1526.03
400.28	1556.46
400.47	1530.71
400.67	1554.12
400.86	1575.18
401.05	1607.95
401.24	1659.44
401.44	1724.97
401.63	1710.93
401.82	1788.17
402.01	1689.87
402.21	1771.79
402.40	1806.89
402.59	1813.92
402.78	1865.41
402.97	1694.55
403.17	1678.16
403.36	1774.13
403.55	1858.39
403.74	1898.17
403.93	1926.26
404.13	1884.13
404.32	1827.96
404.51	1853.70
404.70	1921.58
404.89	1858.39
405.09	2026.90
405.28	1970.73
405.47	2005.84
405.66	1860.73
405.85	1940.30
406.05	1956.69
406.24	2029.24
406.43	2129.89
406.62	1966.05
406.81	2139.25
407.00	2064.35
407.20	1970.73
407.39	2005.84
407.58	2136.91
407.77	2120.53
407.96	2216.49
408.15	2244.57
408.34	2153.29
408.54	2251.60
408.73	2244.57
408.92	2267.98
409.11	2335.85
409.30	2361.60
409.49	2333.51
409.68	2272.66
409.87	2275.00
410.07	2356.92
410.26	2410.75
410.45	2401.39
410.64	2417.77
410.83	2525.44
411.02	2579.27
411.21	2499.69
411.40	2551.18
411.59	2583.95
411.78	2551.18
411.98	2572.25
412.17	2736.09
412.36	2682.25
412.55	2708.00
412.74	2789.92
412.93	2731.41
413.12	2747.79
413.31	2785.24
413.50	2705.66
413.69	2754.81
413.88	2885.88
414.07	2857.79
414.26	3012.27
414.45	2928.01
414.64	2965.46
414.83	2974.82
415.02	3012.27
415.22	3136.32
415.41	3141.00
415.60	3157.38
415.79	3122.27
415.98	3243.98
416.17	3222.92
416.36	3185.47
416.55	3192.49
416.74	3323.56
416.93	3204.19
417.12	3281.43
417.31	3316.54
417.50	3232.28
417.69	3494.42
417.88	3414.84
418.07	3426.54
418.26	3442.93
418.45	3482.72
418.64	3602.08
418.83	3571.66
419.02	3522.51
419.21	3543.57
419.39	3700.39
419.58	3454.63
419.77	3419.52
419.96	3627.83
420.15	3691.02
420.34	3644.21
420.53	3733.15
420.72	3815.07
420.91	3950.82
421.10	3871.25
421.29	3882.95
421.48	3911.04
421.67	3878.27
421.86	3786.99
422.05	3768.26
422.24	3665.28
422.43	3744.86
422.61	3794.01
422.80	3843.16
422.99	3911.04
423.18	3955.51
423.37	3918.06
423.56	3843.16
423.75	3803.37
423.94	3866.56
424.13	3728.47
424.32	3623.15
424.50	4007.00
424.69	3988.27
424.88	3929.76
425.07	3925.08
425.26	3782.31
425.45	4021.04
425.64	3873.59
425.83	3946.14
426.01	3904.01
426.20	4063.17
426.39	3885.29
426.58	3904.01
426.77	3852.52
426.96	3873.59
427.15	3922.74
427.33	3988.27
427.52	3969.55
427.71	4121.68
427.90	4107.64
428.09	4131.05
428.28	4131.05
428.46	4049.13
428.65	3983.59
428.84	4264.46
429.03	4149.77
429.22	4248.07
429.40	4161.47
429.59	4224.67
429.78	3871.25
429.97	3894.65
430.16	4166.15
430.34	3999.98
430.53	4074.87
430.72	4182.54
430.91	4046.79
431.10	4173.18
431.28	4559.36
431.47	4503.19
431.66	4660.01
431.85	4514.89
432.03	4622.56
432.22	4608.51
432.41	4627.24
432.60	4594.47
432.79	4636.60
432.97	4564.04
433.16	4676.39
433.35	4559.36
433.54	4594.47
433.72	4784.06
433.91	4671.71
434.10	4695.11
434.28	4805.12
434.47	4887.04
434.66	4837.89
434.85	4863.63
435.03	4856.61
435.22	4880.02
435.41	5020.45
435.59	4954.91
435.78	5137.48
435.97	4985.34
436.16	5097.69
436.34	5043.85
436.53	5167.90
436.72	5275.57
436.90	4987.68
437.09	5081.30
437.28	4922.15
437.46	5128.11
437.65	5233.44
437.84	5174.92
438.02	5245.14
438.21	5109.39
438.40	5069.60
438.58	5483.88
438.77	5439.40
438.96	5392.59
439.14	5488.56
439.33	5540.05
439.52	5565.79
439.70	5544.73
439.89	5607.92
440.08	5731.97
440.26	5792.83
440.45	5776.44
440.63	5799.85
440.82	6008.16
441.01	5874.74
441.19	5949.64
441.38	6164.97
441.57	6146.25
441.75	6239.87
441.94	6244.55
442.12	6272.64
442.31	6270.30
442.50	6260.93
442.68	6225.82
442.87	6200.08
443.05	6267.95
443.24	6375.62
443.43	6263.27
443.61	6417.75
443.80	6661.16
443.98	6459.88
444.17	6232.85
444.35	6656.48
444.54	6628.40
444.73	6445.84
444.91	6478.60
445.10	6373.28
445.28	6466.90
445.47	6232.85
445.65	6494.99
445.84	6511.37
446.02	6612.01
446.21	6380.30
446.39	6494.99
446.58	6579.25
446.77	6649.46
446.95	6544.14
447.14	6834.36
447.32	6857.77
447.51	6448.18
447.69	6658.82
447.88	6743.08
448.06	6771.17
448.25	6670.53
448.43	6787.55
448.62	6642.44
448.80	6595.63
448.99	6820.32
449.17	6808.62
449.36	6782.87
449.54	7089.48
449.73	7037.99
449.91	6920.96
450.10	7068.42
450.28	7155.02
450.46	7148.00
450.65	7197.15
450.83	7246.30
451.02	7152.68
451.20	7286.09
451.39	7056.72
451.57	7019.27
451.76	7173.74
451.94	7138.63
452.13	7112.89
452.31	7070.76
452.49	7258.00
452.68	7255.66
452.86	7136.29
453.05	7110.55
453.23	7265.02
453.42	7267.36
453.60	7393.75
453.78	7316.51
453.97	7372.69
454.15	7398.43
454.34	7433.54
454.52	7452.27
454.70	7573.97
454.89	7562.27
455.07	7557.59
455.26	7569.29
455.44	7620.78
455.62	7506.10
455.81	7709.72
455.99	7918.03
456.17	7775.26
456.36	7777.60
456.54	7899.31
456.73	8025.70
456.91	8107.62
457.09	8032.72
457.28	8074.85
457.46	7873.56
457.64	8128.68
457.83	8067.83
458.01	7861.86
458.19	8255.07
458.38	7920.37
458.56	8119.32
458.74	8374.44
458.93	8032.72
459.11	8210.60
459.29	8252.73
459.48	8292.52
459.66	8287.84
459.84	8381.46
460.03	8454.02
460.21	8528.91
460.39	8585.08
460.57	8355.71
460.76	8681.05
460.94	8571.04
461.12	8592.11
461.31	8704.45
461.49	8596.79
461.67	8631.90
461.85	8791.05
462.04	8786.37
462.22	9284.91
462.40	8975.95
462.59	8812.12
462.77	8882.33
462.95	8980.64
463.13	8753.60
463.32	8931.48
463.50	8975.95
463.68	8865.95
463.86	9226.39
464.05	8931.48
464.23	8659.98
464.41	9046.17
464.59	8697.43
464.78	8917.44
464.96	9104.68
465.14	8936.17
465.32	9064.89
465.50	8994.68
465.69	9266.18
465.87	9095.32
466.05	9048.51
466.23	9013.40
466.41	9055.53
466.60	9327.03
466.78	9025.11
466.96	9305.97
467.14	9195.96
467.32	9294.27
467.51	9500.23
467.69	9139.79
467.87	9277.88
468.05	9547.05
468.23	9294.27
468.41	9366.82
468.60	9577.47
468.78	9614.92
468.96	9413.63
469.14	9647.69
469.32	9568.11
469.50	9572.79
469.69	9647.69
469.87	9816.21
470.05	9956.64
470.23	9853.66
470.41	9834.93
470.59	10019.83
470.77	9813.87
470.95	9774.08
471.14	9891.10
471.32	9989.41
471.50	10178.99
471.68	10022.17
471.86	10200.05
472.04	10303.04
472.22	10684.55
472.40	10043.24
472.58	10452.83
472.77	10576.88
472.95	10438.79
473.13	10785.19
473.31	10380.28
473.49	10415.38
473.67	10555.82
473.85	10628.37
474.03	10864.77
474.21	10909.24
474.39	10874.13
474.57	10902.22
474.75	11030.94
474.93	11150.31
475.12	11061.37
475.30	11227.55
475.48	11009.88
475.66	11117.54
475.84	11201.80
476.02	11316.49
476.20	11272.02
476.38	11477.99
476.56	11857.15
476.74	11983.54
476.92	11616.08
477.10	11871.20
477.28	11887.58
477.46	12074.82
477.64	12168.45
477.82	12645.91
478.00	12624.85
478.18	12325.26
478.36	12428.24
478.54	12620.17
478.72	12638.89
478.90	12884.65
479.08	13170.19
479.26	12863.58
479.44	13128.06
479.62	13315.31
479.80	12989.97
479.98	13160.83
480.16	13401.91
480.34	13678.09
480.52	13792.78
480.70	13771.71
480.88	13540.00
481.06	13617.24
481.24	13827.88
481.41	13881.72
481.59	14150.88
481.77	14155.56
481.95	14288.97
482.13	14700.90
482.31	14291.31
482.49	14855.38
482.67	14656.43
482.85	14717.29
483.03	15225.18
483.21	15080.07
483.39	15318.81
483.57	15161.99
483.74	15641.80
483.92	15363.28
484.10	15206.46
484.28	15648.82
484.46	15941.39
484.64	16156.72
484.82	15833.72
485.00	16011.60
485.18	16023.31
485.35	16358.00
485.53	16072.46
485.71	16046.71
485.89	16095.86
486.07	16100.55
486.25	16638.87
486.43	16854.20
486.61	16924.41
486.78	17106.98
486.96	17277.83
487.14	17680.41
487.32	17570.40
487.50	17771.69
487.68	18104.04
487.85	18178.94
488.03	18478.53
488.21	18623.64
488.39	18328.74
488.57	18310.01
488.75	18951.32
488.92	18897.49
489.10	19084.73
489.28	19424.11
489.46	19744.76
489.64	19449.85
489.81	19756.46
489.99	19639.44
490.17	20196.48
490.35	20163.72
490.53	20210.53
490.70	20601.40
490.88	20486.71
491.06	20760.55
491.24	20606.08
491.41	20374.36
491.59	20767.57
491.77	20542.88
491.95	20840.13
492.13	21083.55
492.30	21420.58
492.48	21516.54
492.66	21750.60
492.84	21432.29
493.01	21692.08
493.19	21984.65
493.37	22155.51
493.54	22167.21
493.72	22593.19
493.90	22551.06
494.08	22581.49
494.25	23101.09
494.43	22925.55
494.61	23494.30
494.79	23353.87
494.96	23285.99
495.14	23260.24
495.32	23311.74
495.49	23733.03
495.67	23714.31
495.85	23718.99
496.02	24273.70
496.20	24205.82
496.38	24491.37
496.55	24442.21
496.73	24872.87
496.91	24739.46
497.09	24725.42
497.26	24971.18
497.44	25270.76
497.62	24849.47
497.79	25085.86
497.97	24999.26
498.14	25226.29
498.32	25518.86
498.50	25715.47
498.67	25902.71
498.85	25965.90
499.03	26127.40
499.20	26164.85
499.38	26295.92
499.56	26038.46
499.73	26382.52
499.91	26387.20
500.08	26672.74
500.26	26061.87
500.44	26721.90
500.61	26548.70
500.79	26499.55
500.97	26434.01
501.14	26892.76
501.32	26890.41
501.49	27122.13
501.67	26717.22
501.84	27173.62
502.02	27152.55
502.20	27288.31
502.37	27782.16
502.55	27775.14
502.72	27768.12
502.90	27866.42
503.07	27601.94
503.25	27892.16
503.43	27690.88
503.60	27817.27
503.78	27777.48
503.95	27934.29
504.13	28121.54
504.30	28402.40
504.48	28407.08
504.65	28718.37
504.83	28416.44
505.01	29085.84
505.18	28627.09
505.36	29099.88
505.53	29106.90
505.71	29422.87
505.88	29628.84
506.06	29443.94
506.23	29457.98
506.41	29439.26
506.58	29659.27
506.76	29584.37
506.93	29919.07
507.11	29476.71
507.28	29771.61
507.46	29736.51
507.63	29738.85
507.81	29734.17
507.98	29785.66
508.16	30513.56
508.33	30235.04
508.50	30534.63
508.68	30611.87
508.85	30859.96
509.03	30649.32
509.20	30707.83
509.38	31365.52
509.55	30906.77
509.73	31332.75
509.90	31405.31
510.08	31232.11
510.25	31260.20
510.42	31339.77
510.60	31824.26
510.77	31325.73
510.95	31641.70
511.12	31655.75
511.30	31725.96
511.47	32142.58
511.64	31997.46
511.82	31997.46
511.99	32070.02
512.17	32285.35
512.34	32201.09
512.51	31950.65
512.69	32694.94
512.86	32837.72
513.04	32671.54
513.21	32378.97
513.38	32713.67
513.56	32006.83
513.73	32603.66
513.90	32767.50
514.08	32818.99
514.25	33109.22
514.43	32957.08
514.60	32938.36
514.77	33029.64
514.95	33287.10
515.12	33614.77
515.29	33088.15
515.47	33947.13
515.64	33757.55
515.81	33593.71
515.99	33521.15
516.16	33113.90
516.33	32996.87
516.51	33134.96
516.68	33195.82
516.85	33308.16
517.03	33441.57
517.20	33563.28
517.37	34230.33
517.54	34141.39
517.72	34026.71
517.89	33652.22
518.06	33729.46
518.24	33764.57
518.41	34075.86
518.58	34480.77
518.75	34473.75
518.93	34763.98
519.10	34618.86
519.27	34789.72
519.45	34974.63
519.62	34728.87
519.79	35241.45
519.96	35086.97
520.14	35009.73
520.31	34792.06
520.48	34852.92
520.65	35353.79
520.83	35613.59
521.00	35761.05
521.17	35613.59
521.34	35487.20
521.52	35896.80
521.69	35742.32
521.86	35880.41
522.03	35852.33
522.20	36023.19
522.38	36135.53
522.55	36102.76
522.72	36046.59
522.89	36091.06
523.07	36273.62
523.24	36238.51
523.41	36528.74
523.58	36109.78
523.75	36889.18
523.92	36996.85
524.10	37242.60
524.27	37148.98
524.44	36952.38
524.61	36917.27
524.78	37221.54
524.96	37132.60
525.13	37343.25
525.30	37060.04
525.47	37296.44
525.64	37476.66
525.81	36959.40
525.98	36821.31
526.16	37134.94
526.33	36982.80
526.50	37411.12
526.67	37055.36
526.84	37635.81
527.01	37537.51
527.18	37722.41
527.36	37841.78
527.53	38047.75
527.70	38073.49
527.87	38176.48
528.04	37748.16
528.21	37907.32
528.38	38323.93
528.55	38466.70
528.72	38354.36
528.89	38831.83
529.07	38377.76
529.24	38359.04
529.41	38611.82
529.58	38518.20
529.75	38555.64
529.92	39019.07
530.09	39035.45
530.26	38607.14
530.43	39126.74
530.60	38782.68
530.77	38733.53
530.94	39133.76
531.11	39108.01
531.28	39175.89
531.46	39065.88
531.63	39061.20
531.80	39173.55
531.97	39379.51
532.14	39147.80
532.31	38817.78
532.48	39318.66
532.65	39019.07
532.82	39328.02
532.99	39346.75
533.16	39508.24
533.33	39019.07
533.50	39873.37
533.67	39725.91
533.84	39627.61
534.01	39835.92
534.18	39459.09
534.35	40044.23
534.52	39796.13
534.69	40163.59
534.86	40521.69
535.03	39882.73
535.20	40584.89
535.37	40563.82
535.54	40495.95
535.71	40676.17
535.88	40348.50
536.05	40411.69
536.22	40584.89
536.38	40245.51
536.55	39894.43
536.72	40484.25
536.89	40378.92
537.06	40308.71
537.23	40928.95
537.40	41095.13
537.57	41254.28
537.74	40631.70
537.91	41399.40
538.08	41228.54
538.25	40718.30
538.42	40741.71
538.59	40959.38
538.75	40907.88
538.92	40765.11
539.09	41069.38
539.26	41184.07
539.43	41013.21
539.60	41280.03
539.77	40858.73
539.94	41200.45
540.11	41476.63
540.28	41806.65
540.44	41364.29
540.61	41368.97
540.78	40879.80
540.95	41364.29
541.12	41322.16
541.29	41322.16
541.46	41427.48
541.62	41713.03
541.79	41911.97
541.96	41500.04
542.13	41371.31
542.30	41528.13
542.47	41441.53
542.63	41551.53
542.80	41373.65
542.97	42012.62
543.14	42462.00
543.31	42349.65
543.48	42045.38
543.64	42363.70
543.81	42726.48
543.98	42614.13
544.15	42195.18
544.32	42483.06
544.48	42932.45
544.65	42897.34
544.82	42487.74
544.99	42169.43
545.16	42583.71
545.32	42230.29
545.49	43388.85
545.66	43007.34
545.83	42983.94
546.00	43014.37
546.16	42532.22
546.33	43047.13
546.50	42440.93
546.67	42946.49
546.83	42703.07
547.00	42717.12
547.17	42560.30
547.34	42682.01
547.50	43353.74
547.67	43274.16
547.84	43075.22
548.00	43372.47
548.17	43543.33
548.34	43164.16
548.51	43323.32
548.67	43512.90
548.84	43590.14
549.01	43016.71
549.18	43320.98
549.34	43386.51
549.51	43725.89
549.68	43566.73
549.84	43459.07
550.01	43721.21
550.18	43459.07
550.34	43821.85
550.51	43669.72
550.68	43903.77
550.84	43093.94
551.01	44243.15
551.18	43901.43
551.34	43515.24
551.51	43903.77
551.68	44215.06
551.84	44353.15
552.01	43765.68
552.18	43826.53
552.34	43618.22
552.51	44030.16
552.68	43868.66
552.84	44105.06
553.01	44034.84
553.18	44016.11
553.34	44388.26
553.51	44322.72
553.67	44034.84
553.84	44479.54
554.01	44252.51
554.17	44371.88
554.34	44247.83
554.51	44575.50
554.67	44699.55
554.84	44245.49
555.00	44081.65
555.17	44222.08
555.33	44744.02
555.50	44636.36
555.67	44383.58
555.83	44500.61
556.00	44502.95
556.16	44795.51
556.33	44282.94
556.50	44650.40
556.66	44966.37
556.83	44411.67
556.99	45010.84
557.16	44364.85
557.32	44486.56
557.49	44732.32
557.65	44289.96
557.82	44364.85
557.98	44201.02
558.15	44732.32
558.32	45045.95
558.48	44725.30
558.65	44353.15
558.81	44903.18
558.98	44842.32
559.14	44612.95
559.31	45067.02
559.47	44896.16
559.64	45305.75
559.80	44758.06
559.97	45062.33
560.13	44928.92
560.30	44755.72
560.46	44727.64
560.63	45191.06
560.79	45158.30
560.96	45347.88
561.12	44758.06
561.29	45371.28
561.45	44659.76
561.61	45043.61
561.78	45055.31
561.94	44877.43
562.11	44851.69
562.27	44868.07
562.44	45134.89
562.60	45230.85
562.77	45413.41
562.93	45186.38
563.10	45331.50
563.26	44884.45
563.42	45682.58
563.59	44580.18
563.75	45085.74
563.92	45603.00
564.08	44926.58
564.24	45581.93
564.41	45095.10
564.57	45097.44
564.74	44999.14
564.90	45495.33
565.07	45366.60
565.23	45127.87
565.39	44921.90
565.56	45701.30
565.72	44715.93
565.88	45277.66
566.05	45378.31
566.21	45008.50
566.38	45228.51
566.54	45382.99
566.70	45818.33
566.87	45933.01
567.03	45319.79
567.19	45710.66
567.36	45535.12
567.52	45703.64
567.68	45661.51
567.85	45284.68
568.01	45492.99
568.17	45390.01
568.34	45745.77
568.50	45490.65
568.66	45212.13
568.83	45446.18
568.99	45071.70
569.15	45425.12
569.32	45015.52
569.48	45219.15
569.64	45961.10
569.81	46040.68
569.97	45422.78
570.13	45649.81
570.30	45198.09
570.46	45668.53
570.62	45563.21
570.78	45041.27
570.95	45441.50
571.11	45158.30
571.27	45771.52
571.43	45312.77
571.60	45698.96
571.76	45277.66
571.92	45570.23
572.09	45598.32
572.25	45687.26
572.41	45811.31
572.57	46007.91
572.74	46298.14
572.90	45848.75
573.06	45996.21
573.22	45500.01
573.38	45794.92
573.55	45542.14
573.71	46071.10
573.87	45820.67
574.03	45553.85
574.20	45862.80
574.36	45336.18
574.52	45963.44
574.68	45427.46
574.84	45500.01
575.01	45497.67
575.17	45708.32
575.33	45357.24
575.49	45516.40
575.65	46134.30
575.82	45748.11
575.98	45378.31
576.14	45904.93
576.30	46197.49
576.46	45975.14
576.62	45617.04
576.79	45748.11
576.95	45453.20
577.11	46099.19
577.27	45942.38
577.43	45853.44
577.59	45567.89
577.75	45017.86
577.92	45268.30
578.08	45481.29
578.24	45535.12
578.40	45553.85
578.56	45619.38
578.72	45900.25
578.88	46230.26
579.04	45759.81
579.21	45453.20
579.37	45731.73
579.53	45862.80
579.69	45563.21
579.85	45867.48
580.01	45612.36
580.17	45759.81
580.33	45830.03
580.49	45993.87
580.65	45610.02
580.82	45947.06
580.98	45759.81
581.14	45333.84
581.30	45993.87
581.46	45713.00
581.62	45755.13
581.78	45874.50
581.94	46351.97
582.10	45972.80
582.26	45752.79
582.42	45902.59
582.58	45918.97
582.74	45762.15
582.90	45961.10
583.06	45970.46
583.22	45696.62
583.38	45801.94
583.54	46000.89
583.70	45687.26
583.86	45691.94
584.02	45567.89
584.18	45869.82
584.34	45860.46
584.50	45663.85
584.66	45581.93
584.82	45603.00
584.98	45605.34
585.14	46019.61
585.30	45593.64
585.46	45886.20
585.62	45455.54
585.78	45717.68
585.94	45610.02
586.10	45382.99
586.26	45558.53
586.42	46380.06
586.58	46141.32
586.74	45677.90
586.90	45507.04
587.06	45895.56
587.22	45638.11
587.38	46082.81
587.54	45961.10
587.70	45968.12
587.86	45792.58
588.02	45558.53
588.18	45862.80
588.34	45535.12
588.49	45560.87
588.65	45324.47
588.81	45439.16
588.97	45464.91
589.13	45352.56
589.29	45631.08
589.45	45460.23
589.61	45680.24
589.77	45776.20
589.93	45900.25
590.08	45890.88
