SpectraSuite Data File
++++++++++++++++++++++++++++++++++++
Date: Fri Oct 25 11:22:51 EDT 2013
User: price-jones
Dark Spectrum Present: No
Reference Spectrum Present: No
Number of Sampled Component Spectra: 1
Spectrometers: USB2+H05261
Integration Time (usec): 100000 (USB2+H05261)
Spectra Averaged: 1 (USB2+H05261)
Boxcar Smoothing: 0 (USB2+H05261)
Correct for Electrical Dark: No (USB2+H05261)
Strobe/Lamp Enabled: No (USB2+H05261)
Correct for Detector Non-linearity: No (USB2+H05261)
Correct for Stray Light: No (USB2+H05261)
Number of Pixels in Processed Spectrum: 2048
>>>>>Begin Processed Spectral Data<<<<<
365.73	203.63
365.92	203.63
366.12	203.63
366.32	201.29
366.52	145.11
366.72	135.75
366.91	95.96
367.11	124.05
367.31	70.22
367.51	121.71
367.70	100.64
367.90	98.30
368.10	124.05
368.30	81.92
368.49	138.09
368.69	112.35
368.89	184.90
369.09	149.79
369.28	168.52
369.48	227.03
369.68	194.26
369.87	229.37
370.07	154.48
370.27	220.01
370.47	301.93
370.66	610.88
370.86	638.97
371.06	641.31
371.25	737.27
371.45	648.33
371.65	636.63
371.84	669.39
372.04	667.05
372.24	613.22
372.44	725.57
372.63	716.20
372.83	802.80
373.03	751.31
373.22	702.16
373.42	767.70
373.62	755.99
373.81	732.59
374.01	819.19
374.21	828.55
374.40	753.65
374.60	795.78
374.79	798.12
374.99	802.80
375.19	875.36
375.38	807.48
375.58	828.55
375.78	807.48
375.97	828.55
376.17	938.55
376.37	933.87
376.56	844.93
376.76	755.99
376.95	851.96
377.15	915.15
377.35	861.32
377.54	929.19
377.74	922.17
377.93	788.76
378.13	1006.43
378.33	947.92
378.52	823.87
378.72	976.00
378.91	971.32
379.11	912.81
379.31	954.94
379.50	976.00
379.70	1025.15
379.89	968.98
380.09	957.28
380.28	968.98
380.48	1088.35
380.68	1001.75
380.87	940.90
381.07	990.05
381.26	973.66
381.46	992.39
381.65	1053.24
381.85	1107.07
382.04	1088.35
382.24	1123.46
382.43	1057.92
382.63	1006.43
382.83	1001.75
383.02	1093.03
383.22	1060.26
383.41	1188.99
383.61	1074.31
383.80	1198.35
384.00	1029.84
384.19	1107.07
384.39	1149.20
384.58	1153.88
384.78	1153.88
384.97	1170.27
385.17	1242.82
385.36	1135.16
385.56	1165.59
385.75	1125.80
385.95	1172.61
386.14	1088.35
386.34	1198.35
386.53	1245.16
386.72	1160.91
386.92	1210.06
387.11	1341.13
387.31	1291.98
387.50	1247.51
387.70	1273.25
387.89	1249.85
388.09	1308.36
388.28	1247.51
388.48	1245.16
388.67	1366.87
388.86	1301.34
389.06	1315.38
389.25	1261.55
389.45	1371.55
389.64	1373.89
389.84	1418.36
390.03	1497.94
390.22	1336.45
390.42	1392.62
390.61	1413.68
390.81	1261.55
391.00	1458.15
391.19	1432.41
391.39	1406.66
391.58	1432.41
391.78	1437.09
391.97	1474.54
392.16	1439.43
392.36	1502.62
392.55	1526.03
392.75	1579.86
392.94	1565.82
393.13	1586.88
393.33	1549.43
393.52	1497.94
393.71	1554.12
393.91	1589.22
394.10	1542.41
394.29	1528.37
394.49	1533.05
394.68	1507.30
394.88	1830.30
395.07	1715.61
395.26	1626.67
395.46	1640.72
395.65	1687.53
395.84	1678.16
396.04	1722.63
396.23	1839.66
396.42	1739.02
396.62	1771.79
396.81	1799.87
397.00	1727.32
397.19	1886.47
397.39	1778.81
397.58	1823.28
397.77	1851.36
397.97	1842.00
398.16	1919.24
398.35	1870.09
398.55	1825.62
398.74	1825.62
398.93	1914.56
399.12	1870.09
399.32	1914.56
399.51	1912.22
399.70	1942.64
399.90	2069.03
400.09	2047.97
400.28	1966.05
400.47	2003.50
400.67	2101.80
400.86	2122.87
401.05	2092.44
401.24	2101.80
401.44	2064.35
401.63	2172.02
401.82	2209.47
402.01	2064.35
402.21	2181.38
402.40	2218.83
402.59	2216.49
402.78	2202.44
402.97	2181.38
403.17	2303.09
403.36	2319.47
403.55	2317.13
403.74	2331.17
403.93	2368.62
404.13	2366.28
404.32	2361.60
404.51	2347.56
404.70	2401.39
404.89	2443.52
405.09	2506.71
405.28	2511.39
405.47	2469.27
405.66	2609.70
405.85	2452.88
406.05	2424.80
406.24	2607.36
406.43	2642.46
406.62	2640.12
406.81	2750.13
407.00	2602.68
407.20	2551.18
407.39	2640.12
407.58	2839.07
407.77	2768.85
407.96	2710.34
408.15	2773.53
408.34	2750.13
408.54	2960.78
408.73	2892.90
408.92	2740.77
409.11	2747.79
409.30	2951.42
409.49	2808.64
409.68	2869.50
409.87	2874.18
410.07	2995.89
410.26	3073.12
410.45	2897.58
410.64	3042.70
410.83	3087.17
411.02	3068.44
411.21	3220.58
411.40	3124.62
411.59	3150.36
411.78	3126.96
411.98	3311.86
412.17	3353.99
412.36	3349.31
412.55	3346.97
412.74	3513.14
412.93	3447.61
413.12	3398.46
413.31	3581.02
413.50	3426.54
413.69	3585.70
413.88	3648.90
414.07	3721.45
414.26	3545.91
414.45	3705.07
414.64	3639.53
414.83	3714.43
415.02	3852.52
415.22	3747.20
415.41	3906.35
415.60	3880.61
415.79	3992.95
415.98	3995.29
416.17	3948.48
416.36	3976.57
416.55	4028.06
416.74	4065.51
416.93	4086.58
417.12	4189.56
417.31	4140.41
417.50	4175.52
417.69	4358.08
417.88	4264.46
418.07	4248.07
418.26	4264.46
418.45	4299.56
418.64	4564.04
418.83	4561.70
419.02	4362.76
419.21	4564.04
419.39	4475.10
419.58	4461.06
419.77	4550.00
419.96	4545.32
420.15	4477.44
420.34	4676.39
420.53	4524.26
420.72	4573.41
420.91	4650.64
421.10	4748.95
421.29	4767.67
421.48	4828.53
421.67	4753.63
421.86	4809.80
422.05	4863.63
422.24	4711.50
422.43	4966.62
422.61	4910.44
422.80	5032.15
422.99	4919.81
423.18	5013.43
423.37	4994.70
423.56	5022.79
423.75	5050.88
423.94	4870.65
424.13	4610.86
424.32	4798.10
424.50	5104.71
424.69	5275.57
424.88	5139.82
425.07	4947.89
425.26	4877.68
425.45	4957.25
425.64	5022.79
425.83	5107.05
426.01	5027.47
426.20	5156.20
426.39	4985.34
426.58	5046.20
426.77	5032.15
426.96	5118.75
427.15	5188.97
427.33	5362.17
427.52	5254.50
427.71	5270.89
427.90	5238.12
428.09	5362.17
428.28	5268.55
428.46	5413.66
428.65	5310.68
428.84	5671.12
429.03	5577.50
429.22	5362.17
429.40	5575.16
429.59	5523.66
429.78	5308.34
429.97	5327.06
430.16	5521.32
430.34	5692.18
430.53	5743.67
430.72	5731.97
430.91	5734.31
431.10	5537.71
431.28	5893.47
431.47	5839.64
431.66	5902.83
431.85	5893.47
432.03	6033.90
432.22	5977.73
432.41	5921.56
432.60	6071.35
432.79	6097.10
432.97	5858.36
433.16	6139.23
433.35	6200.08
433.54	5984.75
433.72	6293.70
433.91	6136.88
434.10	6162.63
434.28	6118.16
434.47	6342.85
434.66	6200.08
434.85	6403.71
435.03	6265.61
435.22	6354.55
435.41	6565.20
435.59	6572.22
435.78	6546.48
435.97	6455.20
436.16	6473.92
436.34	6478.60
436.53	6619.04
436.72	6661.16
436.90	6452.86
437.09	6696.27
437.28	6464.56
437.46	6834.36
437.65	6586.27
437.84	6707.98
438.02	6853.09
438.21	6988.84
438.40	6829.68
438.58	7000.54
438.77	7157.36
438.96	7112.89
439.14	7054.37
439.33	7005.22
439.52	7272.04
439.70	7386.73
439.89	7438.22
440.08	7272.04
440.26	7393.75
440.45	7405.46
440.63	7473.33
440.82	7485.03
441.01	7487.37
441.19	7623.12
441.38	7831.43
441.57	7850.16
441.75	7985.91
441.94	8210.60
442.12	7913.35
442.31	8219.96
442.50	8098.25
442.68	7964.84
442.87	8088.89
443.05	8105.28
443.24	8163.79
443.43	8264.43
443.61	8344.01
443.80	8557.00
443.98	8049.10
444.17	7934.42
444.35	8257.41
444.54	8224.64
444.73	8212.94
444.91	8320.60
445.10	8587.43
445.28	8346.35
445.47	8351.03
445.65	8299.54
445.84	8442.31
446.02	8512.53
446.21	8386.14
446.39	8374.44
446.58	8582.74
446.77	8489.12
446.95	8397.84
447.14	8638.92
447.32	8472.74
447.51	8575.72
447.69	8587.43
447.88	8557.00
448.06	8542.96
448.25	8730.20
448.43	8608.49
448.62	8603.81
448.80	8634.24
448.99	8784.03
449.17	8706.79
449.36	8819.14
449.54	8917.44
449.73	8924.46
449.91	8915.10
450.10	8802.75
450.28	9067.24
450.46	9149.15
450.65	9064.89
450.83	8973.61
451.02	9032.13
451.20	9238.09
451.39	9343.42
451.57	9329.38
451.76	9041.49
451.94	9174.90
452.13	9359.80
452.31	9303.63
452.49	9128.09
452.68	9298.95
452.86	9446.40
453.05	9420.66
453.23	9556.41
453.42	9327.03
453.60	9458.10
453.78	9682.80
453.97	9591.52
454.15	9586.83
454.34	9341.08
454.52	9694.50
454.70	9905.15
454.89	9982.38
455.07	9832.59
455.26	9867.70
455.44	10038.56
455.62	9923.87
455.81	10008.13
455.99	10120.48
456.17	9944.94
456.36	10181.33
456.54	10281.97
456.73	10340.49
456.91	10656.46
457.09	10401.34
457.28	10340.49
457.46	10111.11
457.64	10548.79
457.83	10731.36
458.01	10499.64
458.19	10918.60
458.38	10483.26
458.56	10853.06
458.74	10604.97
458.93	10773.49
459.11	10775.83
459.29	10724.33
459.48	10820.30
459.66	10981.79
459.84	11070.73
460.03	11056.69
460.21	10993.50
460.39	11176.06
460.57	11094.14
460.76	11133.93
460.94	11180.74
461.12	11016.90
461.31	11040.31
461.49	11304.79
461.67	11363.30
461.85	11573.95
462.04	11428.84
462.22	11779.92
462.40	11609.06
462.59	11843.11
462.77	11562.25
462.95	11735.45
463.13	11967.16
463.32	11770.55
463.50	11756.51
463.68	11903.96
463.86	11735.45
464.05	11679.27
464.23	11878.22
464.41	12198.87
464.59	11885.24
464.78	12348.67
464.96	12018.65
465.14	11950.78
465.32	12095.89
465.50	12081.85
465.69	12365.05
465.87	12348.67
466.05	12170.79
466.23	12266.75
466.41	12435.27
466.60	12526.55
466.78	12138.02
466.96	12231.64
467.14	12594.42
467.32	12585.06
467.51	12620.17
467.69	12194.19
467.87	12585.06
468.05	12685.70
468.23	12409.52
468.41	12514.84
468.60	12753.58
468.78	12765.28
468.96	12671.66
469.14	12802.73
469.32	13102.32
469.50	12807.41
469.69	13039.12
469.87	13263.82
470.05	13018.06
470.23	13228.71
470.41	13224.03
470.59	13525.96
470.77	13345.73
470.95	13376.16
471.14	13582.13
471.32	13137.43
471.50	13528.30
471.68	13427.65
471.86	13558.72
472.04	13535.32
472.22	14115.77
472.40	13486.17
472.58	13947.25
472.77	13973.00
472.95	14312.38
473.13	14448.13
473.31	14270.25
473.49	14239.82
473.67	14078.32
473.85	14459.83
474.03	14712.61
474.21	14574.52
474.39	14934.96
474.57	14831.97
474.75	14895.17
474.93	15370.30
475.12	14995.81
475.30	15183.06
475.48	15344.55
475.66	15246.25
475.84	15126.88
476.02	15641.80
476.20	15669.89
476.38	15662.86
476.56	16009.26
476.74	15995.22
476.92	15882.88
477.10	15784.57
477.28	16067.78
477.46	16463.33
477.64	16507.80
477.82	16624.83
478.00	17013.35
478.18	17015.69
478.36	17310.60
478.54	17060.16
478.72	17130.38
478.90	17497.84
479.08	17575.08
479.26	17884.03
479.44	17977.65
479.62	17895.74
479.80	18270.22
479.98	18384.91
480.16	18829.61
480.34	18363.84
480.52	18726.63
480.70	18855.36
480.88	18656.41
481.06	18714.92
481.24	18897.49
481.41	19564.54
481.59	19499.00
481.77	19639.44
481.95	19768.16
482.13	19901.58
482.31	19803.27
482.49	20318.19
482.67	20376.70
482.85	20547.56
483.03	20790.98
483.21	20966.52
483.39	21151.42
483.57	21219.30
483.74	21097.59
483.92	21572.72
484.10	21507.18
484.28	21652.30
484.46	22398.93
484.64	22394.25
484.82	22101.68
485.00	22356.80
485.18	22752.35
485.35	23328.12
485.53	22913.84
485.71	23058.96
485.89	23569.19
486.07	23424.08
486.25	23693.24
486.43	23646.43
486.61	24020.92
486.78	24084.11
486.96	24254.97
487.14	24762.87
487.32	25046.07
487.50	25015.65
487.68	25212.25
487.85	25458.01
488.03	25792.70
488.21	26263.15
488.39	26073.57
488.57	25961.22
488.75	26462.10
488.92	26831.90
489.10	27077.66
489.28	26991.06
489.46	27257.88
489.64	27232.13
489.81	27676.83
489.99	27707.26
490.17	27791.52
490.35	28285.37
490.53	28524.11
490.70	28493.68
490.88	28582.62
491.06	29247.33
491.24	28989.88
491.41	29317.55
491.59	29659.27
491.77	29553.94
491.95	29780.98
492.13	30033.75
492.30	30359.09
492.48	30206.95
492.66	30487.82
492.84	30607.19
493.01	31075.29
493.19	31168.91
493.37	31517.65
493.54	31098.70
493.72	31658.09
493.90	31782.13
494.08	32446.85
494.25	32175.34
494.43	32058.32
494.61	33202.84
494.79	32751.12
494.96	32608.34
495.14	32865.80
495.32	33668.61
495.49	33584.35
495.67	33661.58
495.85	33881.60
496.02	33905.00
496.20	34473.75
496.38	34319.28
496.55	34274.80
496.73	35077.61
496.91	34939.52
497.09	34857.60
497.26	35384.22
497.44	34646.95
497.62	35402.94
497.79	35999.78
497.97	35889.77
498.14	36119.15
498.32	36477.25
498.50	36313.41
498.67	36912.59
498.85	36580.23
499.03	36917.27
499.20	36823.65
499.38	37048.34
499.56	37404.10
499.73	37596.03
499.91	37937.74
500.08	37858.17
500.26	37397.08
500.44	37521.13
500.61	38066.47
500.79	38253.72
500.97	38693.74
501.14	39168.87
501.32	38705.44
501.49	38852.89
501.67	39250.78
501.84	39264.83
502.02	38979.28
502.20	39227.38
502.37	39735.27
502.55	39356.11
502.72	39487.18
502.90	40039.54
503.07	39700.17
503.25	40140.19
503.43	40273.60
503.60	40240.83
503.78	40449.14
503.95	41015.55
504.13	40744.05
504.30	41015.55
504.48	40921.93
504.65	41139.60
504.83	41130.23
505.01	41750.48
505.18	41422.80
505.36	42197.52
505.53	41771.54
505.71	42064.11
505.88	42429.23
506.06	42038.36
506.23	42483.06
506.41	41708.35
506.58	42560.30
506.76	42506.47
506.93	43028.41
507.11	42529.87
507.28	42712.44
507.46	43241.40
507.63	43124.37
507.81	43407.58
507.98	42895.00
508.16	43650.99
508.33	43489.49
508.50	43796.10
508.68	43985.69
508.85	44458.48
509.03	43805.47
509.20	43863.98
509.38	44629.34
509.55	44311.02
509.73	44753.38
509.90	45017.86
510.08	44966.37
510.25	45354.90
510.42	45165.32
510.60	45244.90
510.77	45635.77
510.95	45612.36
511.12	46040.68
511.30	45570.23
511.47	45785.56
511.64	45764.49
511.82	45722.37
511.99	45958.76
512.17	46216.22
512.34	46248.99
512.51	46316.86
512.69	46607.09
512.86	46944.12
513.04	46995.62
513.21	47068.17
513.38	47199.24
513.56	47126.69
513.73	46548.57
513.90	47213.29
514.08	47096.26
514.25	47241.37
514.43	47414.57
514.60	47608.84
514.77	47709.48
514.95	47882.68
515.12	47789.06
515.29	48165.88
515.47	48348.45
515.64	48074.60
515.81	48587.18
515.99	48519.31
516.16	48755.70
516.33	48659.74
516.51	49167.63
516.68	49188.70
516.85	48624.63
517.03	49038.90
517.20	49294.02
517.37	49069.33
517.54	49448.50
517.72	49514.03
517.89	49375.94
518.06	49357.22
518.24	49294.02
518.41	49539.78
518.58	49619.36
518.75	49553.82
518.93	50061.72
519.10	49855.75
519.27	50284.07
519.45	50017.25
519.62	50150.66
519.79	49993.84
519.96	50218.53
520.14	50581.32
520.31	50370.67
520.48	50529.83
520.65	50543.87
520.83	51068.15
521.00	50817.71
521.17	50843.46
521.34	51086.87
521.52	51075.17
521.69	50993.25
521.86	51480.08
522.03	51414.55
522.20	51760.95
522.38	51449.66
522.55	51510.51
522.72	51936.49
522.89	51908.40
523.07	52170.54
523.24	51910.74
523.41	52243.10
523.58	51807.76
523.75	52413.96
523.92	52074.58
524.10	52378.85
524.27	52046.49
524.44	52514.60
524.61	52418.64
524.78	52292.25
524.96	52371.83
525.13	52491.19
525.30	52636.31
525.47	52765.04
525.64	52570.77
525.81	53020.16
525.98	52788.44
526.16	52865.68
526.33	53048.24
526.50	53155.91
526.67	53043.56
526.84	53137.18
527.01	53162.93
527.18	53160.59
527.36	53172.29
527.53	53151.23
527.70	53834.66
527.87	53551.46
528.04	53235.48
528.21	53647.42
528.38	53551.46
528.55	53612.31
528.72	53668.48
528.89	53909.56
529.07	53670.82
529.24	53890.83
529.41	53867.43
529.58	53904.88
529.75	54071.06
529.92	54085.10
530.09	53954.03
530.26	54143.61
530.43	54213.83
530.60	54199.79
530.77	54052.33
530.94	54422.14
531.11	54253.62
531.28	54513.42
531.46	54440.86
531.63	54520.44
531.80	54363.62
531.97	54485.33
532.14	54768.54
532.31	54852.80
532.48	54927.69
532.65	54745.13
532.82	54745.13
532.99	54990.89
533.16	54866.84
533.33	55138.34
533.50	55428.57
533.67	54988.55
533.84	54901.95
534.01	55007.27
534.18	55136.00
534.35	55554.96
534.52	55267.07
534.69	55360.69
534.86	55643.90
535.03	55316.22
535.20	55547.93
535.37	55285.79
535.54	55346.65
535.71	55433.25
535.88	55576.02
536.05	55772.63
536.22	55978.59
536.38	55828.80
536.55	55856.88
536.72	55880.29
536.89	55849.86
537.06	55707.09
537.23	55751.56
537.40	55833.48
537.57	55962.21
537.74	55891.99
537.91	56032.42
538.08	56002.00
538.25	55952.85
538.42	56212.65
538.59	56388.19
538.75	56128.39
538.92	56306.27
539.09	56378.82
539.26	56243.07
539.43	56250.09
539.60	56292.22
539.77	56409.25
539.94	56652.67
540.11	56521.60
540.28	56776.72
540.44	56757.99
540.61	56596.49
540.78	56467.76
540.95	56619.90
541.12	56790.76
541.29	56493.51
541.46	56554.36
541.62	56755.65
541.79	56701.82
541.96	56734.59
542.13	56694.80
542.30	56732.25
542.47	57006.09
542.63	57116.09
542.80	56940.55
542.97	57303.34
543.14	57378.23
543.31	57228.44
543.48	57418.02
543.64	57588.88
543.81	57467.17
543.98	57710.59
544.15	57488.24
544.32	57570.16
544.48	57726.97
544.65	57553.77
544.82	57581.86
544.99	57462.49
545.16	57762.08
545.32	57621.65
545.49	57968.05
545.66	57893.15
545.83	57956.35
546.00	57869.75
546.16	57944.64
546.33	57851.02
546.50	57481.22
546.67	58145.93
546.83	57661.44
547.00	57808.89
547.17	57937.62
547.34	57769.10
547.50	58073.37
547.67	58248.91
547.84	58138.91
548.00	58190.40
548.17	58438.50
548.34	58220.83
548.51	58536.80
548.67	58513.39
548.84	58410.41
549.01	58323.81
549.18	58361.26
549.34	58328.49
549.51	58482.97
549.68	58445.52
549.84	58679.57
550.01	58536.80
550.18	58466.58
550.34	58777.87
550.51	58801.28
550.68	58625.74
550.84	58504.03
551.01	58791.92
551.18	58845.75
551.34	58796.60
551.51	58979.16
551.68	58815.32
551.84	58864.47
552.01	58534.46
552.18	58726.38
552.34	58780.21
552.51	59007.25
552.68	58787.24
552.84	58810.64
553.01	59124.27
553.18	59016.61
553.34	58981.50
553.51	58763.83
553.67	59030.65
553.84	59189.81
554.01	59011.93
554.17	59337.26
554.34	59257.68
554.51	59068.10
554.67	59299.81
554.84	59192.15
555.00	59140.66
555.17	58995.54
555.33	59082.14
555.50	59075.12
555.67	59035.33
555.83	59128.95
556.00	59444.93
556.16	59554.93
556.33	59552.59
556.50	59484.72
556.66	59622.81
556.83	59231.94
556.99	59671.96
557.16	59613.44
557.32	59842.82
557.49	59903.67
557.65	59437.90
557.82	59559.61
557.98	59573.66
558.15	59571.32
558.32	59622.81
558.48	59419.18
558.65	59611.10
558.81	59704.73
558.98	59760.90
559.14	59910.69
559.31	59987.93
559.47	59936.44
559.64	59945.80
559.80	59978.57
559.97	60055.81
560.13	59746.86
560.30	59875.58
560.46	59859.20
560.63	59875.58
560.79	59861.54
560.96	59980.91
561.12	59999.63
561.29	59934.10
561.45	60104.96
561.61	60039.42
561.78	59987.93
561.94	59950.48
562.11	59973.89
562.27	60182.19
562.44	60200.92
562.60	60289.86
562.77	60261.77
562.93	59854.52
563.10	60165.81
563.26	60168.15
563.42	60278.16
563.59	60163.47
563.75	60214.96
563.92	60107.30
564.08	60130.70
564.24	60327.31
564.41	60327.31
564.57	60423.27
564.74	60324.97
564.90	60168.15
565.07	60324.97
565.23	60374.12
565.39	60423.27
565.56	60488.80
565.72	60357.74
565.88	60346.03
566.05	60254.75
566.21	60420.93
566.38	60350.71
566.54	60430.29
566.70	60474.76
566.87	60430.29
567.03	60439.65
567.19	60753.29
567.36	60418.59
567.52	60392.84
567.68	60654.98
567.85	60467.74
568.01	60601.15
568.17	60612.85
568.34	60748.60
568.50	60547.32
568.66	60537.96
568.83	60458.38
568.99	60416.25
569.15	60420.93
569.32	60598.81
569.48	60540.30
569.64	60711.16
569.81	60629.24
569.97	60411.57
570.13	60493.49
570.30	60612.85
570.46	60746.26
570.62	60708.82
570.78	60643.28
570.95	60582.43
571.11	60865.63
571.27	60617.53
571.43	60666.69
571.60	60933.51
571.76	60753.29
571.92	60729.88
572.09	60804.78
572.25	60706.47
572.41	60678.39
572.57	60762.65
572.74	61144.16
572.90	60687.75
573.06	60900.74
573.22	60830.52
573.38	60846.91
573.55	60757.97
573.71	61003.72
573.87	60715.84
574.03	60800.10
574.20	60823.50
574.36	60598.81
574.52	60750.94
574.68	60718.18
574.84	60994.36
575.01	60924.14
575.17	60849.25
575.33	60942.87
575.49	61057.56
575.65	60966.27
575.82	60977.98
575.98	60884.36
576.14	61080.96
576.30	61111.39
576.46	60865.63
576.62	60807.12
576.79	61071.60
576.95	60828.18
577.11	60931.17
577.27	60874.99
577.43	61092.66
577.59	60914.78
577.75	60987.34
577.92	61048.19
578.08	60900.74
578.24	61102.03
578.40	61256.50
578.56	61052.87
578.72	60917.12
578.88	61123.09
579.04	61109.05
579.21	60961.59
579.37	61125.43
579.53	61207.35
579.69	61024.79
579.85	60985.00
580.01	61132.45
580.17	60933.51
580.33	61106.71
580.49	61223.73
580.65	61024.79
580.82	60931.17
580.98	61078.62
581.14	60933.51
581.30	61223.73
581.46	61099.68
581.62	61099.68
581.78	61118.41
581.94	61076.28
582.10	61176.92
582.26	61038.83
582.42	61120.75
582.58	61120.75
582.74	61029.47
582.90	60980.32
583.06	60853.93
583.22	60938.19
583.38	61329.06
583.54	61123.09
583.70	60952.23
583.86	61364.17
584.02	60970.96
584.18	61190.97
584.34	61095.00
584.50	61151.18
584.66	61099.68
584.82	61132.45
584.98	61268.20
585.14	61242.46
585.30	60889.04
585.46	61242.46
585.62	61216.71
585.78	61286.93
585.94	61160.54
586.10	61242.46
586.26	61155.86
586.42	61230.75
586.58	61132.45
586.74	61216.71
586.90	61179.26
587.06	61200.33
587.22	61331.40
587.38	61303.31
587.54	61347.78
587.70	61331.40
587.86	61305.65
588.02	61331.40
588.18	61488.21
588.34	61268.20
588.49	61106.71
