SpectraSuite Data File
++++++++++++++++++++++++++++++++++++
Date: Fri Oct 25 11:22:32 EDT 2013
User: price-jones
Dark Spectrum Present: No
Reference Spectrum Present: No
Number of Sampled Component Spectra: 1
Spectrometers: USB2+H05261
Integration Time (usec): 100000 (USB2+H05261)
Spectra Averaged: 1 (USB2+H05261)
Boxcar Smoothing: 0 (USB2+H05261)
Correct for Electrical Dark: No (USB2+H05261)
Strobe/Lamp Enabled: No (USB2+H05261)
Correct for Detector Non-linearity: No (USB2+H05261)
Correct for Stray Light: No (USB2+H05261)
Number of Pixels in Processed Spectrum: 2048
>>>>>Begin Processed Spectral Data<<<<<
365.73	187.24
365.92	187.24
366.12	187.24
366.32	180.22
366.52	149.79
366.72	135.75
366.91	140.43
367.11	201.29
367.31	124.05
367.51	124.05
367.70	9.36
367.90	107.66
368.10	156.82
368.30	152.13
368.49	105.32
368.69	84.26
368.89	205.97
369.09	131.07
369.28	147.45
369.48	114.69
369.68	175.54
369.87	173.20
370.07	187.24
370.27	238.73
370.47	285.55
370.66	454.06
370.86	561.73
371.06	594.50
371.25	622.58
371.45	634.29
371.65	690.46
371.84	655.35
372.04	683.44
372.24	744.29
372.44	704.50
372.63	692.80
372.83	720.88
373.03	706.84
373.22	758.33
373.42	774.72
373.62	793.44
373.81	770.04
374.01	798.12
374.21	800.46
374.40	835.57
374.60	781.74
374.79	812.17
374.99	873.02
375.19	849.61
375.38	940.90
375.58	840.25
375.78	868.34
375.97	802.80
376.17	854.30
376.37	844.93
376.56	903.45
376.76	819.19
376.95	898.77
377.15	866.00
377.35	950.26
377.54	880.04
377.74	910.47
377.93	858.98
378.13	896.43
378.33	908.13
378.52	861.32
378.72	961.96
378.91	957.28
379.11	873.02
379.31	943.24
379.50	1011.11
379.70	1018.13
379.89	994.73
380.09	985.37
380.28	959.62
380.48	961.96
380.68	950.26
380.87	917.49
381.07	964.30
381.26	973.66
381.46	985.37
381.65	1053.24
381.85	1048.56
382.04	1095.37
382.24	983.02
382.43	1011.11
382.63	1055.58
382.83	1142.18
383.02	1121.12
383.22	1121.12
383.41	1165.59
383.61	1069.62
383.80	1207.72
384.00	1144.52
384.19	1022.81
384.39	1156.22
384.58	1153.88
384.78	1200.69
384.97	1198.35
385.17	1198.35
385.36	1170.27
385.56	1135.16
385.75	1191.33
385.95	1139.84
386.14	1193.67
386.34	1207.72
386.53	1188.99
386.72	1188.99
386.92	1256.87
387.11	1282.61
387.31	1280.27
387.50	1214.74
387.70	1214.74
387.89	1275.59
388.09	1275.59
388.28	1240.48
388.48	1409.00
388.67	1261.55
388.86	1275.59
389.06	1338.79
389.25	1338.79
389.45	1317.72
389.64	1345.81
389.84	1423.05
390.03	1273.25
390.22	1350.49
390.42	1364.53
390.61	1411.34
390.81	1392.62
391.00	1439.43
391.19	1420.71
391.39	1390.28
391.58	1509.65
391.78	1413.68
391.97	1444.11
392.16	1467.52
392.36	1516.67
392.55	1519.01
392.75	1476.88
392.94	1540.07
393.13	1575.18
393.33	1533.05
393.52	1629.01
393.71	1652.42
393.91	1645.40
394.10	1600.93
394.29	1607.95
394.49	1638.38
394.68	1668.80
394.88	1664.12
395.07	1664.12
395.26	1703.91
395.46	1664.12
395.65	1631.35
395.84	1729.66
396.04	1760.08
396.23	1699.23
396.42	1806.89
396.62	1713.27
396.81	1863.07
397.00	1771.79
397.19	1799.87
397.39	1877.11
397.58	1867.75
397.77	1853.70
397.97	1968.39
398.16	1877.11
398.35	1933.28
398.55	1905.20
398.74	1905.20
398.93	1973.07
399.12	1977.75
399.32	1933.28
399.51	1956.69
399.70	2054.99
399.90	1980.09
400.09	1996.48
400.28	2134.57
400.47	2066.69
400.67	2076.06
400.86	2092.44
401.05	2153.29
401.24	2129.89
401.44	2134.57
401.63	2232.87
401.82	2146.27
402.01	2141.59
402.21	2162.66
402.40	2038.61
402.59	2300.75
402.78	2300.75
402.97	2296.07
403.17	2396.71
403.36	2361.60
403.55	2396.71
403.74	2331.17
403.93	2401.39
404.13	2434.16
404.32	2270.32
404.51	2476.29
404.70	2448.20
404.89	2502.03
405.09	2597.99
405.28	2485.65
405.47	2399.05
405.66	2443.52
405.85	2588.63
406.05	2462.24
406.24	2605.02
406.43	2593.31
406.62	2661.19
406.81	2663.53
407.00	2665.87
407.20	2663.53
407.39	2612.04
407.58	2782.90
407.77	2719.70
407.96	2745.45
408.15	2855.45
408.34	2818.00
408.54	2806.30
408.73	2789.92
408.92	2855.45
409.11	2771.19
409.30	2899.92
409.49	2869.50
409.68	2885.88
409.87	3007.59
410.07	3000.57
410.26	3110.57
410.45	2998.23
410.64	3075.46
410.83	3023.97
411.02	3171.43
411.21	3105.89
411.40	3075.46
411.59	3227.60
411.78	3145.68
411.98	3286.11
412.17	3265.05
412.36	3337.60
412.55	3396.12
412.74	3372.71
412.93	3531.87
413.12	3440.59
413.31	3627.83
413.50	3501.44
413.69	3611.45
413.88	3728.47
414.07	3648.90
414.26	3693.37
414.45	3686.34
414.64	3761.24
414.83	3735.50
415.02	3758.90
415.22	3831.46
415.41	3885.29
415.60	3833.80
415.79	3948.48
415.98	4135.73
416.17	3925.08
416.36	4109.98
416.55	4053.81
416.74	4182.54
416.93	4175.52
417.12	4051.47
417.31	4191.90
417.50	4212.96
417.69	4500.85
417.88	4301.90
418.07	4152.11
418.26	4393.19
418.45	4561.70
418.64	4648.30
418.83	4430.63
419.02	4475.10
419.21	4571.07
419.39	4519.57
419.58	4447.02
419.77	4582.77
419.96	4643.62
420.15	4713.84
420.34	4627.24
420.53	4620.22
420.72	4767.67
420.91	4706.82
421.10	4821.50
421.29	4765.33
421.48	4704.48
421.67	4908.10
421.86	4973.64
422.05	4847.25
422.24	5050.88
422.43	5142.16
422.61	4936.19
422.80	5256.84
422.99	5144.50
423.18	5008.75
423.37	5174.92
423.56	5095.35
423.75	5048.54
423.94	4910.44
424.13	4533.62
424.32	4695.11
424.50	5184.29
424.69	5179.61
424.88	5186.63
425.07	5078.96
425.26	4919.81
425.45	4933.85
425.64	5004.07
425.83	4997.04
426.01	5146.84
426.20	5369.19
426.39	5093.01
426.58	5085.98
426.77	5102.37
426.96	5186.63
427.15	5205.35
427.33	5280.25
427.52	5284.93
427.71	5305.99
427.90	5186.63
428.09	5301.31
428.28	5359.83
428.46	5509.62
428.65	5434.72
428.84	5542.39
429.03	5509.62
429.22	5331.74
429.40	5418.34
429.59	5614.95
429.78	5355.15
429.97	5291.95
430.16	5495.58
430.34	5476.85
430.53	5547.07
430.72	5753.04
430.91	5788.14
431.10	5633.67
431.28	5774.10
431.47	5968.37
431.66	5975.39
431.85	5809.21
432.03	5891.13
432.22	5989.43
432.41	5954.32
432.60	6024.54
432.79	5987.09
432.97	5902.83
433.16	6120.50
433.35	6047.94
433.54	6122.84
433.72	6274.98
433.91	6225.82
434.10	6183.70
434.28	6108.80
434.47	6396.68
434.66	6244.55
434.85	6422.43
435.03	6478.60
435.22	6370.94
435.41	6326.47
435.59	6555.84
435.78	6635.42
435.97	6490.31
436.16	6368.60
436.34	6511.37
436.53	6719.68
436.72	6682.23
436.90	6494.99
437.09	6778.19
437.28	6684.57
437.46	6665.85
437.65	6841.39
437.84	6839.05
438.02	6747.76
438.21	6913.94
438.40	6670.53
438.58	7007.56
438.77	7258.00
438.96	7082.46
439.14	7283.75
439.33	7337.58
439.52	7173.74
439.70	7442.90
439.89	7428.86
440.08	7447.58
440.26	7627.81
440.45	7452.27
440.63	7550.57
440.82	7646.53
441.01	7545.89
441.19	7613.76
441.38	7798.66
441.57	7798.66
441.75	7896.97
441.94	7955.48
442.12	7913.35
442.31	7948.46
442.50	8046.76
442.68	8098.25
442.87	8077.19
443.05	8269.11
443.24	8264.43
443.43	8175.49
443.61	8234.00
443.80	8692.75
443.98	8184.85
444.17	7740.15
444.35	8266.77
444.54	8402.52
444.73	8248.05
444.91	8388.48
445.10	8442.31
445.28	8540.61
445.47	8557.00
445.65	8503.17
445.84	8580.40
446.02	8444.65
446.21	8564.02
446.39	8456.36
446.58	8475.08
446.77	8430.61
446.95	8306.56
447.14	8503.17
447.32	8727.86
447.51	8599.13
447.69	8482.10
447.88	8596.79
448.06	8531.25
448.25	8505.51
448.43	8699.77
448.62	8678.71
448.80	8524.23
448.99	8786.37
449.17	8884.67
449.36	8800.41
449.54	9076.60
449.73	8940.85
449.91	9191.28
450.10	9149.15
450.28	9249.80
450.46	9109.36
450.65	8940.85
450.83	9254.48
451.02	9109.36
451.20	9366.82
451.39	9177.24
451.57	9217.03
451.76	9350.44
451.94	9308.31
452.13	9387.89
452.31	9298.95
452.49	9327.03
452.68	9415.98
452.86	9579.81
453.05	9488.53
453.23	9685.14
453.42	9533.00
453.60	9551.73
453.78	9612.58
453.97	9530.66
454.15	9647.69
454.34	9547.05
454.52	9919.19
454.70	9628.96
454.89	9958.98
455.07	10141.54
455.26	9905.15
455.44	10162.61
455.62	9996.43
455.81	10141.54
455.99	10118.14
456.17	10125.16
456.36	10066.64
456.54	10396.66
456.73	10391.98
456.91	10525.39
457.09	10619.01
457.28	10738.38
457.46	10258.57
457.64	10707.95
457.83	10679.86
458.01	10729.02
458.19	10803.91
458.38	10551.14
458.56	10799.23
458.74	10750.08
458.93	10747.74
459.11	10920.94
459.29	10803.91
459.48	11021.58
459.66	10972.43
459.84	11068.39
460.03	11218.19
460.21	11054.35
460.39	10988.82
460.57	11307.13
460.76	11197.12
460.94	11302.45
461.12	11286.06
461.31	11342.24
461.49	11269.68
461.67	11456.92
461.85	11466.28
462.04	11543.52
462.22	12074.82
462.40	11875.88
462.59	11754.17
462.77	11506.07
462.95	11520.12
463.13	11616.08
463.32	11744.81
463.50	11901.62
463.68	12079.50
463.86	12079.50
464.05	11910.99
464.23	11737.79
464.41	12114.61
464.59	11686.29
464.78	12123.98
464.96	12013.97
465.14	11978.86
465.32	12147.38
465.50	12442.29
465.69	12351.01
465.87	12182.49
466.05	12177.81
466.23	12372.07
466.41	12561.66
466.60	12744.22
466.78	12299.52
466.96	12367.39
467.14	12594.42
467.32	12601.44
467.51	12858.90
467.69	12098.23
467.87	12634.21
468.05	13053.17
468.23	12776.98
468.41	12566.34
468.60	12987.63
468.78	12889.33
468.96	12788.69
469.14	13099.98
469.32	13099.98
469.50	12723.15
469.69	13324.67
469.87	13310.63
470.05	13256.79
470.23	13582.13
470.41	13296.58
470.59	13287.22
470.77	13392.55
470.95	13476.80
471.14	13621.92
471.32	13518.93
471.50	13638.30
471.68	13689.79
471.86	14078.32
472.04	13872.36
472.22	14361.53
472.40	14052.58
472.58	14122.79
472.77	14143.86
472.95	14476.21
473.13	14881.13
473.31	14244.50
473.49	14345.14
473.67	14537.07
473.85	14539.41
474.03	14691.54
474.21	14696.22
474.39	14904.53
474.57	15030.92
474.75	15108.16
474.93	15091.77
475.12	15192.42
475.30	15131.56
475.48	15222.84
475.66	15475.62
475.84	15243.91
476.02	15442.85
476.20	15449.88
476.38	15985.86
476.56	16278.43
476.74	16016.29
476.92	16180.12
477.10	15852.45
477.28	16294.81
477.46	16219.91
477.64	16573.33
477.82	16664.61
478.00	17160.81
478.18	17083.57
478.36	17170.17
478.54	17156.13
478.72	17486.14
478.90	17596.15
479.08	17795.09
479.26	17851.27
479.44	17865.31
479.62	18148.51
479.80	18181.28
479.98	18396.61
480.16	18897.49
480.34	18572.15
480.52	19166.65
480.70	18857.70
480.88	18824.93
481.06	18958.34
481.24	19328.14
481.41	19311.76
481.59	19398.36
481.77	19871.15
481.95	20049.03
482.13	20236.27
482.31	19894.55
482.49	20982.90
482.67	20695.02
482.85	20463.30
483.03	21090.57
483.21	21090.57
483.39	21123.33
483.57	21256.75
483.74	21362.07
483.92	21710.81
484.10	21631.23
484.28	22127.42
484.46	22291.26
484.64	22703.20
484.82	22249.13
485.00	22494.89
485.18	22649.36
485.35	23297.69
485.53	23122.15
485.71	23557.49
485.89	23531.75
486.07	23718.99
486.25	23920.28
486.43	23718.99
486.61	24491.37
486.78	24517.11
486.96	24283.06
487.14	24978.20
487.32	24987.56
487.50	25280.13
487.68	25427.58
487.85	25813.77
488.03	26045.48
488.21	26251.45
488.39	25991.65
488.57	26415.29
488.75	26672.74
488.92	26831.90
489.10	26874.03
489.28	27112.77
489.46	27850.03
489.64	27520.02
489.81	27889.82
489.99	27782.16
490.17	27915.57
490.35	28456.23
490.53	28484.32
490.70	28978.17
490.88	28322.82
491.06	29432.24
491.24	29453.30
491.41	29207.55
491.59	29816.08
491.77	29853.53
491.95	29769.27
492.13	30050.14
492.30	30235.04
492.48	30419.94
492.66	30721.87
492.84	30705.49
493.01	31299.98
493.19	31044.87
493.37	31669.79
493.54	31309.35
493.72	32011.51
493.90	31824.26
494.08	32208.11
494.25	32393.01
494.43	32706.65
494.61	32608.34
494.79	32435.14
494.96	33050.70
495.14	33029.64
495.32	33605.41
495.49	33834.78
495.67	33905.00
495.85	34106.29
496.02	33872.23
496.20	34330.98
496.38	34712.49
496.55	34686.74
496.73	35019.10
496.91	35000.37
497.09	35569.12
497.26	35246.13
497.44	35583.16
497.62	36212.77
497.79	36130.85
497.97	35908.50
498.14	37057.70
498.32	36715.98
498.50	36540.44
498.67	37331.54
498.85	36900.89
499.03	37076.43
499.20	37134.94
499.38	37422.83
499.56	37598.37
499.73	37965.83
499.91	38094.56
500.08	38106.26
500.26	37745.82
500.44	38473.73
500.61	38431.60
500.79	38462.02
500.97	38522.88
501.14	39168.87
501.32	39372.49
501.49	39005.03
501.67	39728.25
501.84	39608.89
502.02	39590.16
502.20	39473.13
502.37	39641.65
502.55	39721.23
502.72	39957.63
502.90	39873.37
503.07	39892.09
503.25	40409.35
503.43	40399.99
503.60	40442.12
503.78	40879.80
503.95	40552.12
504.13	41064.70
504.30	41277.69
504.48	40907.88
504.65	41483.66
504.83	41743.45
505.01	41691.96
505.18	41640.47
505.36	42075.81
505.53	41736.43
505.71	42768.61
505.88	42286.46
506.06	42103.90
506.23	42841.17
506.41	42464.34
506.58	43000.32
506.76	42567.32
506.93	42990.96
507.11	42911.38
507.28	43246.08
507.46	43262.46
507.63	43421.62
507.81	43744.61
507.98	43227.35
508.16	43941.22
508.33	44217.40
508.50	43805.47
508.68	44325.07
508.85	44519.33
509.03	44570.82
509.20	44449.11
509.38	45352.56
509.55	44830.62
509.73	45020.20
509.90	45034.25
510.08	45198.09
510.25	45296.39
510.42	45546.82
510.60	45406.39
510.77	45923.65
510.95	45801.94
511.12	45776.20
511.30	45865.14
511.47	46419.84
511.64	46251.33
511.82	46312.18
511.99	46204.52
512.17	46508.79
512.34	46485.38
512.51	46763.90
512.69	46871.57
512.86	46873.91
513.04	47180.52
513.21	46958.17
513.38	47278.82
513.56	47646.29
513.73	47547.98
513.90	47835.87
514.08	47503.51
514.25	48009.07
514.43	47971.62
514.60	48095.67
514.77	47999.71
514.95	48137.80
515.12	47749.27
515.29	48168.22
515.47	48531.01
515.64	48645.69
515.81	48844.64
515.99	48744.00
516.16	48961.67
516.33	48797.83
516.51	49352.54
516.68	48807.19
516.85	49109.12
517.03	49205.08
517.20	49563.18
517.37	49481.27
517.54	49373.60
517.72	49773.83
517.89	49546.80
518.06	49455.52
518.24	49525.74
518.41	49806.60
518.58	49591.27
518.75	49645.10
518.93	49776.17
519.10	49687.23
519.27	50309.82
519.45	50185.77
519.62	50361.31
519.79	50501.74
519.96	50564.93
520.14	50525.14
520.31	50665.58
520.48	51054.11
520.65	50866.86
520.83	51220.28
521.00	51454.34
521.17	51150.07
521.34	50808.35
521.52	50979.21
521.69	51672.01
521.86	51693.07
522.03	51327.95
522.20	51964.57
522.38	51744.56
522.55	52095.64
522.72	51847.55
522.89	51679.03
523.07	52156.50
523.24	51962.23
523.41	52205.65
523.58	51810.10
523.75	52402.25
523.92	52320.34
524.10	52083.94
524.27	52533.32
524.44	52603.54
524.61	52502.90
524.78	52837.59
524.96	52753.33
525.13	52673.76
525.30	52760.36
525.47	53020.16
525.64	53169.95
525.81	52963.98
525.98	52952.28
526.16	53141.86
526.33	53336.13
526.50	53389.96
526.67	53181.65
526.84	53188.67
527.01	53277.61
527.18	53427.41
527.36	53656.78
527.53	53595.93
527.70	53834.66
527.87	53717.64
528.04	53298.68
528.21	53710.61
528.38	53595.93
528.55	53958.71
528.72	53677.85
528.89	54045.31
529.07	53881.47
529.24	53820.62
529.41	54307.45
529.58	53818.28
529.75	53958.71
529.92	54237.23
530.09	54232.55
530.26	54396.39
530.43	54508.74
530.60	53975.09
530.77	54246.60
530.94	54679.60
531.11	54412.77
531.28	54513.42
531.46	54724.07
531.63	54703.00
531.80	54450.22
531.97	54944.08
532.14	54852.80
532.31	55063.44
532.48	55150.04
532.65	55016.63
532.82	54986.21
532.99	55091.53
533.16	55033.02
533.33	55398.14
533.50	55405.16
533.67	55400.48
533.84	54983.86
534.01	55276.43
534.18	55491.76
534.35	55643.90
534.52	55379.42
534.69	55594.74
534.86	55756.24
535.03	55253.03
535.20	55477.72
535.37	55814.76
535.54	55695.39
535.71	55580.70
535.88	55920.08
536.05	55849.86
536.22	55779.65
536.38	55922.42
536.55	55999.66
536.72	55983.27
536.89	55859.23
537.06	56411.59
537.23	56299.25
537.40	56175.20
537.57	55966.89
537.74	56264.14
537.91	56465.42
538.08	56186.90
538.25	56130.73
538.42	56016.04
538.59	56676.07
538.75	56498.19
538.92	56271.16
539.09	56346.06
539.26	56659.69
539.43	56460.74
539.60	56685.43
539.77	56573.09
539.94	56673.73
540.11	56926.51
540.28	56973.32
540.44	56928.85
540.61	56856.29
540.78	56465.42
540.95	56521.60
541.12	56790.76
541.29	56762.67
541.46	56905.44
541.62	56868.00
541.79	57111.41
541.96	56683.09
542.13	56996.73
542.30	57123.11
542.47	57045.88
542.63	57052.90
542.80	57242.48
542.97	57408.66
543.14	57518.67
543.31	57663.78
543.48	57469.51
543.64	57673.14
543.81	57724.63
543.98	57659.10
544.15	57778.46
544.32	57689.52
544.48	57895.49
544.65	57698.89
544.82	57705.91
544.99	57396.96
545.16	57682.50
545.32	57691.86
545.49	58061.67
545.66	58038.26
545.83	57921.24
546.00	58094.44
546.16	57902.51
546.33	57956.35
546.50	57748.04
546.67	58216.14
546.83	57991.45
547.00	58101.46
547.17	58082.73
547.34	58017.20
547.50	58333.17
547.67	58588.29
547.84	58522.76
548.00	58333.17
548.17	58454.88
548.34	58403.39
548.51	58749.79
548.67	58417.43
548.84	58412.75
549.01	58379.98
549.18	58632.76
549.34	58609.35
549.51	58777.87
549.68	58667.87
549.84	58660.85
550.01	58625.74
550.18	58677.23
550.34	58756.81
550.51	58890.22
550.68	58820.00
550.84	58791.92
551.01	59035.33
551.18	58866.81
551.34	58871.49
551.51	58904.26
551.68	58930.01
551.84	58787.24
552.01	58829.37
552.18	58981.50
552.34	58649.14
552.51	59351.30
552.68	58962.78
552.84	58962.78
553.01	59236.62
553.18	59257.68
553.34	59168.74
553.51	59056.40
553.67	59257.68
553.84	59196.83
554.01	59267.05
554.17	59175.76
554.34	59260.02
554.51	59245.98
554.67	59393.43
554.84	59274.07
555.00	59185.13
555.17	59196.83
555.33	59496.42
555.50	59199.17
555.67	59484.72
555.83	59325.56
556.00	59313.86
556.16	59772.60
556.33	59594.72
556.50	59709.41
556.66	59657.91
556.83	59409.82
556.99	59770.26
557.16	59992.61
557.32	59693.02
557.49	59875.58
557.65	59695.36
557.82	59592.38
557.98	59636.85
558.15	59826.43
558.32	59880.27
558.48	59758.56
558.65	59543.23
558.81	59884.95
558.98	59887.29
559.14	60027.72
559.31	59969.21
559.47	60231.35
559.64	59959.84
559.80	59945.80
559.97	60184.54
560.13	60025.38
560.30	60037.08
560.46	59842.82
560.63	59936.44
560.79	60147.09
560.96	60191.56
561.12	60135.38
561.29	60268.79
561.45	60177.51
561.61	60020.70
561.78	60121.34
561.94	59971.55
562.11	60292.20
562.27	60289.86
562.44	60191.56
562.60	60266.45
562.77	60280.50
562.93	60116.66
563.10	60505.19
563.26	60102.62
563.42	60491.15
563.59	60378.80
563.75	60491.15
563.92	60523.91
564.08	60413.91
564.24	60615.19
564.41	60399.86
564.57	60708.82
564.74	60605.83
564.90	60547.32
565.07	60486.46
565.23	60458.38
565.39	60526.25
565.56	60278.16
565.72	60427.95
565.88	60449.02
566.05	60584.77
566.21	60514.55
566.38	60493.49
566.54	60516.89
566.70	60654.98
566.87	60605.83
567.03	60439.65
567.19	60860.95
567.36	60647.96
567.52	60533.28
567.68	60736.90
567.85	60750.94
568.01	60685.41
568.17	60647.96
568.34	60626.90
568.50	60516.89
568.66	60781.37
568.83	60559.02
568.99	60535.62
569.15	60654.98
569.32	60694.77
569.48	60591.79
569.64	60982.66
569.81	60713.50
569.97	60800.10
570.13	60767.33
570.30	60626.90
570.46	60877.33
570.62	60849.25
570.78	60898.40
570.95	60764.99
571.11	61146.50
571.27	60994.36
571.43	60896.06
571.60	61041.17
571.76	60870.31
571.92	60762.65
572.09	60926.49
572.25	60917.12
572.41	60807.12
572.57	60746.26
572.74	61097.34
572.90	60830.52
573.06	61076.28
573.22	60788.39
573.38	60935.85
573.55	60842.23
573.71	61123.09
573.87	60945.21
574.03	60823.50
574.20	60973.30
574.36	60989.68
574.52	60992.02
574.68	60954.57
574.84	61162.88
575.01	61029.47
575.17	61022.45
575.33	60999.04
575.49	61160.54
575.65	61048.19
575.82	61155.86
575.98	61066.92
576.14	61139.47
576.30	61186.28
576.46	60907.76
576.62	61102.03
576.79	61102.03
576.95	60900.74
577.11	61137.13
577.27	61242.46
577.43	61230.75
577.59	61141.81
577.75	61130.11
577.92	60830.52
578.08	61130.11
578.24	61361.82
578.40	61310.33
578.56	61373.53
578.72	61207.35
578.88	61144.16
579.04	61209.69
579.21	61172.24
579.37	61120.75
579.53	61338.42
579.69	61172.24
579.85	61216.71
580.01	61254.16
580.17	61118.41
580.33	61364.17
580.49	61389.91
580.65	61392.25
580.82	60945.21
580.98	61258.84
581.14	61090.32
581.30	61382.89
581.46	61202.67
581.62	61345.44
581.78	61123.09
581.94	61296.29
582.10	61249.48
582.26	61172.24
582.42	61200.33
582.58	61319.70
582.74	61080.96
582.90	61329.06
583.06	61160.54
583.22	61146.50
583.38	61422.68
583.54	61373.53
583.70	61183.94
583.86	61216.71
584.02	61120.75
584.18	61483.53
584.34	61289.27
584.50	61221.39
584.66	61258.84
584.82	61212.03
584.98	61293.95
585.14	61270.54
585.30	61167.56
585.46	61373.53
585.62	61305.65
585.78	61343.10
585.94	61230.75
586.10	61460.13
586.26	61275.22
586.42	61371.19
586.58	61478.85
586.74	61146.50
586.90	61312.67
587.06	61303.31
587.22	61483.53
587.38	61265.86
587.54	61520.98
587.70	61504.60
587.86	61425.02
588.02	61380.55
588.18	61460.13
588.34	61317.35
588.49	61331.40
