SpectraSuite Data File
++++++++++++++++++++++++++++++++++++
Date: Fri Oct 25 11:25:42 EDT 2013
User: price-jones
Dark Spectrum Present: No
Reference Spectrum Present: No
Number of Sampled Component Spectra: 1
Spectrometers: USB2+H05261
Integration Time (usec): 100000 (USB2+H05261)
Spectra Averaged: 1 (USB2+H05261)
Boxcar Smoothing: 0 (USB2+H05261)
Correct for Electrical Dark: No (USB2+H05261)
Strobe/Lamp Enabled: No (USB2+H05261)
Correct for Detector Non-linearity: No (USB2+H05261)
Correct for Stray Light: No (USB2+H05261)
Number of Pixels in Processed Spectrum: 2048
>>>>>Begin Processed Spectral Data<<<<<
365.73	196.60
365.92	196.60
366.12	196.60
366.32	163.84
366.52	126.39
366.72	191.92
366.91	138.09
367.11	154.48
367.31	173.20
367.51	114.69
367.70	84.26
367.90	93.62
368.10	152.13
368.30	180.22
368.49	114.69
368.69	198.95
368.89	124.05
369.09	156.82
369.28	215.33
369.48	140.43
369.68	161.50
369.87	119.37
370.07	145.11
370.27	264.48
370.47	306.61
370.66	559.39
370.86	643.65
371.06	627.26
371.25	692.80
371.45	688.12
371.65	723.23
371.84	655.35
372.04	580.45
372.24	718.54
372.44	781.74
372.63	774.72
372.83	683.44
373.03	723.23
373.22	802.80
373.42	734.93
373.62	767.70
373.81	760.67
374.01	772.38
374.21	781.74
374.40	734.93
374.60	767.70
374.79	779.40
374.99	800.46
375.19	823.87
375.38	821.53
375.58	830.89
375.78	821.53
375.97	873.02
376.17	903.45
376.37	929.19
376.56	849.61
376.76	833.23
376.95	884.72
377.15	866.00
377.35	866.00
377.54	924.51
377.74	877.70
377.93	856.64
378.13	919.83
378.33	954.94
378.52	933.87
378.72	933.87
378.91	978.34
379.11	957.28
379.31	912.81
379.50	1006.43
379.70	957.28
379.89	945.58
380.09	891.74
380.28	1013.45
380.48	1020.47
380.68	1018.13
380.87	971.32
381.07	985.37
381.26	994.73
381.46	1041.54
381.65	973.66
381.85	990.05
382.04	1095.37
382.24	919.83
382.43	1069.62
382.63	1083.67
382.83	1043.88
383.02	1086.01
383.22	1060.26
383.41	1043.88
383.61	1102.39
383.80	1109.41
384.00	1090.69
384.19	1088.35
384.39	1095.37
384.58	1128.14
384.78	1102.39
384.97	1191.33
385.17	1160.91
385.36	1263.89
385.56	1198.35
385.75	1203.04
385.95	1158.57
386.14	1198.35
386.34	1228.78
386.53	1268.57
386.72	1193.67
386.92	1205.38
387.11	1186.65
387.31	1303.68
387.50	1273.25
387.70	1273.25
387.89	1336.45
388.09	1231.12
388.28	1256.87
388.48	1329.42
388.67	1355.17
388.86	1301.34
389.06	1296.66
389.25	1355.17
389.45	1266.23
389.64	1401.98
389.84	1413.68
390.03	1413.68
390.22	1329.42
390.42	1418.36
390.61	1334.11
390.81	1334.11
391.00	1607.95
391.19	1390.28
391.39	1467.52
391.58	1343.47
391.78	1547.09
391.97	1490.92
392.16	1540.07
392.36	1652.42
392.55	1577.52
392.75	1554.12
392.94	1551.78
393.13	1404.32
393.33	1455.81
393.52	1523.69
393.71	1631.35
393.91	1682.85
394.10	1582.20
394.29	1544.75
394.49	1699.23
394.68	1643.06
394.88	1652.42
395.07	1689.87
395.26	1659.44
395.46	1612.63
395.65	1706.25
395.84	1717.95
396.04	1834.98
396.23	1652.42
396.42	1713.27
396.62	1741.36
396.81	1804.55
397.00	1706.25
397.19	1799.87
397.39	1776.47
397.58	1734.34
397.77	1806.89
397.97	1858.39
398.16	1799.87
398.35	1921.58
398.55	1893.49
398.74	1905.20
398.93	2022.22
399.12	1956.69
399.32	1930.94
399.51	1919.24
399.70	1970.73
399.90	1989.46
400.09	1891.15
400.28	2069.03
400.47	2015.20
400.67	2078.40
400.86	2022.22
401.05	2101.80
401.24	2069.03
401.44	2169.68
401.63	2129.89
401.82	2169.68
402.01	2176.70
402.21	2090.10
402.40	2186.06
402.59	2106.48
402.78	2237.55
402.97	2169.68
403.17	2340.54
403.36	2263.30
403.55	2263.30
403.74	2331.17
403.93	2333.51
404.13	2408.41
404.32	2338.20
404.51	2275.00
404.70	2363.94
404.89	2389.69
405.09	2539.48
405.28	2399.05
405.47	2445.86
405.66	2551.18
405.85	2483.31
406.05	2523.10
406.24	2616.72
406.43	2665.87
406.62	2534.80
406.81	2768.85
407.00	2562.89
407.20	2485.65
407.39	2630.76
407.58	2644.81
407.77	2712.68
407.96	2672.89
408.15	2546.50
408.34	2789.92
408.54	2829.71
408.73	2895.24
408.92	2820.35
409.11	2836.73
409.30	2846.09
409.49	2813.32
409.68	2855.45
409.87	2935.03
410.07	2818.00
410.26	2995.89
410.45	3045.04
410.64	3103.55
410.83	3038.02
411.02	3098.87
411.21	3253.34
411.40	3045.04
411.59	3171.43
411.78	3141.00
411.98	3173.77
412.17	3283.77
412.36	3410.16
412.55	3426.54
412.74	3421.86
412.93	3272.07
413.12	3372.71
413.31	3510.80
413.50	3449.95
413.69	3435.91
413.88	3665.28
414.07	3529.53
414.26	3616.13
414.45	3662.94
414.64	3648.90
414.83	3714.43
415.02	3641.87
415.22	3810.39
415.41	3824.44
415.60	3845.50
415.79	3803.37
415.98	4011.68
416.17	3976.57
416.36	3962.53
416.55	3941.46
416.74	4060.83
416.93	4128.70
417.12	4128.70
417.31	4070.19
417.50	4196.58
417.69	4273.82
417.88	4210.62
418.07	4121.68
418.26	4222.33
418.45	4299.56
418.64	4430.63
418.83	4365.10
419.02	4379.14
419.21	4341.69
419.39	4451.70
419.58	4479.79
419.77	4425.95
419.96	4496.17
420.15	4589.79
420.34	4697.46
420.53	4559.36
420.72	4755.97
420.91	4669.37
421.10	4774.69
421.29	4741.93
421.48	4573.41
421.67	4603.83
421.86	4802.78
422.05	4861.29
422.24	4770.01
422.43	4929.17
422.61	4741.93
422.80	4964.28
422.99	4938.53
423.18	4826.18
423.37	5130.45
423.56	5011.09
423.75	4840.23
423.94	4791.08
424.13	4648.30
424.32	4737.24
424.50	4966.62
424.69	5102.37
424.88	5039.17
425.07	4915.12
425.26	4840.23
425.45	4903.42
425.64	5116.41
425.83	4968.96
426.01	5132.79
426.20	4978.32
426.39	5184.29
426.58	5001.72
426.77	5041.51
426.96	5078.96
427.15	5167.90
427.33	5121.09
427.52	5207.69
427.71	5308.34
427.90	5158.54
428.09	5275.57
428.28	5486.22
428.46	5394.93
428.65	5315.36
428.84	5434.72
429.03	5526.00
429.22	5366.85
429.40	5472.17
429.59	5561.11
429.78	5355.15
429.97	5282.59
430.16	5530.69
430.34	5598.56
430.53	5628.99
430.72	5586.86
430.91	5607.92
431.10	5526.00
431.28	5851.34
431.47	5841.98
431.66	5713.25
431.85	5610.26
432.03	5888.79
432.22	5930.92
432.41	5832.62
432.60	5802.19
432.79	5919.21
432.97	5954.32
433.16	5921.56
433.35	5916.87
433.54	6061.99
433.72	6139.23
433.91	6127.52
434.10	6239.87
434.28	6108.80
434.47	6085.39
434.66	6265.61
434.85	6347.53
435.03	6314.77
435.22	6260.93
435.41	6469.24
435.59	6406.05
435.78	6424.77
435.97	6319.45
436.16	6436.47
436.34	6504.35
436.53	6401.37
436.72	6719.68
436.90	6438.81
437.09	6494.99
437.28	6464.56
437.46	6602.65
437.65	6726.70
437.84	6817.98
438.02	6799.26
438.21	6689.25
438.40	6642.44
438.58	7133.95
438.77	6920.96
438.96	6977.14
439.14	7112.89
439.33	7005.22
439.52	7105.87
439.70	7239.28
439.89	7375.03
440.08	7414.82
440.26	7213.53
440.45	7400.77
440.63	7386.73
440.82	7510.78
441.01	7309.49
441.19	7559.93
441.38	7698.02
441.57	7742.49
441.75	7784.62
441.94	7782.28
442.12	7894.63
442.31	7990.59
442.50	7971.86
442.68	7866.54
442.87	7866.54
443.05	7999.95
443.24	8243.37
443.43	8152.09
443.61	8219.96
443.80	8329.97
443.98	8049.10
444.17	7623.12
444.35	8318.26
444.54	8194.22
444.73	8383.80
444.91	8180.17
445.10	8353.37
445.28	8205.92
445.47	8435.29
445.65	8236.35
445.84	8234.00
446.02	8318.26
446.21	8470.40
446.39	8397.84
446.58	8482.10
446.77	8446.99
446.95	8301.88
447.14	8503.17
447.32	8432.95
447.51	8397.84
447.69	8444.65
447.88	8484.44
448.06	8624.87
448.25	8482.10
448.43	8713.81
448.62	8575.72
448.80	8657.64
448.99	8322.94
449.17	8709.13
449.36	8617.85
449.54	8954.89
449.73	8978.30
449.91	9139.79
450.10	8833.18
450.28	9078.94
450.46	8975.95
450.65	9046.17
450.83	9224.05
451.02	9205.33
451.20	9460.45
451.39	8987.66
451.57	9097.66
451.76	9048.51
451.94	9280.22
452.13	9280.22
452.31	9263.84
452.49	9165.54
452.68	9439.38
452.86	9284.91
453.05	9394.91
453.23	9430.02
453.42	9315.33
453.60	9291.93
453.78	9535.34
453.97	9387.89
454.15	9500.23
454.34	9537.68
454.52	9715.56
454.70	9678.12
454.89	9673.43
455.07	9830.25
455.26	9806.84
455.44	9963.66
455.62	9851.31
455.81	9762.37
455.99	9863.02
456.17	10253.89
456.36	10068.98
456.54	10033.88
456.73	10272.61
456.91	10286.65
457.09	10403.68
457.28	10476.24
457.46	10410.70
457.64	10345.17
457.83	10354.53
458.01	10249.21
458.19	10787.53
458.38	10331.12
458.56	10789.87
458.74	10885.83
458.93	10551.14
459.11	10548.79
459.29	10583.90
459.48	10876.47
459.66	10766.46
459.84	10867.11
460.03	11159.67
460.21	11257.98
460.39	11040.31
460.57	10965.41
460.76	11187.76
460.94	11227.55
461.12	11159.67
461.31	11300.11
461.49	11164.36
461.67	11070.73
461.85	11363.30
462.04	11206.48
462.22	11744.81
462.40	11311.81
462.59	11445.22
462.77	11475.65
462.95	11279.04
463.13	11595.01
463.32	11625.44
463.50	11639.48
463.68	11817.36
463.86	11779.92
464.05	11454.58
464.23	11513.10
464.41	11950.78
464.59	11632.46
464.78	11906.31
464.96	11782.26
465.14	11992.90
465.32	11908.65
465.50	12084.19
465.69	12037.38
465.87	12248.02
466.05	11950.78
466.23	12058.44
466.41	12039.72
466.60	12634.21
466.78	12187.17
466.96	12023.33
467.14	12191.85
467.32	12280.79
467.51	12594.42
467.69	12210.57
467.87	12395.48
468.05	12580.38
468.23	12332.28
468.41	12519.53
468.60	12571.02
468.78	12798.05
468.96	12592.08
469.14	12730.17
469.32	12905.71
469.50	12505.48
469.69	12933.80
469.87	13071.89
470.05	13111.68
470.23	13053.17
470.41	13144.45
470.59	13338.71
470.77	13209.98
470.95	13167.85
471.14	13226.37
471.32	13219.35
471.50	13703.84
471.68	13565.74
471.86	13685.11
472.04	13668.73
472.22	14040.87
472.40	13631.28
472.58	13832.57
472.77	13755.33
472.95	14052.58
473.13	14530.05
473.31	13991.72
473.49	14066.62
473.67	13846.61
473.85	14267.91
474.03	14626.01
474.21	14621.33
474.39	14572.18
474.57	14771.12
474.75	14684.52
474.93	14918.57
475.12	14668.14
475.30	14951.34
475.48	14981.77
475.66	15136.24
475.84	15133.90
476.02	15386.68
476.20	15220.50
476.38	15620.74
476.56	15850.11
476.74	15697.97
476.92	15880.53
477.10	16002.24
477.28	15988.20
477.46	16135.65
477.64	16329.92
477.82	16439.92
478.00	16650.57
478.18	16666.95
478.36	17003.99
478.54	17001.65
478.72	17146.76
478.90	17055.48
479.08	17582.10
479.26	17642.96
479.44	17500.19
479.62	17853.61
479.80	17610.19
479.98	18183.62
480.16	18331.08
480.34	18277.24
480.52	18569.81
480.70	18424.70
480.88	18312.35
481.06	18569.81
481.24	18979.40
481.41	18874.08
481.59	19215.80
481.77	19325.80
481.95	19639.44
482.13	19716.67
482.31	19501.34
482.49	19807.95
482.67	20189.46
482.85	20411.81
483.03	20788.64
483.21	20636.50
483.39	20676.29
483.57	20709.06
483.74	21116.31
483.92	21432.29
484.10	21319.94
484.28	21425.26
484.46	22022.10
484.64	22239.77
484.82	21998.70
485.00	22401.27
485.18	22827.24
485.35	22927.89
485.53	22480.85
485.71	22946.61
485.89	23555.15
486.07	23262.58
486.25	23323.44
486.43	23346.84
486.61	23431.10
486.78	23941.34
486.96	23915.59
487.14	24353.27
487.32	24460.94
487.50	24753.51
487.68	24643.50
487.85	25287.15
488.03	25364.39
488.21	25394.81
488.39	25717.81
488.57	25788.02
488.75	25961.22
488.92	26286.56
489.10	26462.10
489.28	26366.13
489.46	27012.12
489.64	26845.94
489.81	27470.87
489.99	27740.03
490.17	27101.06
490.35	27857.06
490.53	28334.53
490.70	28198.77
490.88	28154.30
491.06	28364.95
491.24	28496.02
491.41	29015.62
491.59	29104.56
491.77	29200.52
491.95	29181.80
492.13	29703.74
492.30	29907.37
492.48	29495.43
492.66	29935.45
492.84	30267.81
493.01	30635.27
493.19	30162.48
493.37	30976.99
493.54	31075.29
493.72	31122.10
493.90	30937.20
494.08	31817.24
494.25	32027.89
494.43	31854.69
494.61	32496.00
494.79	32334.50
494.96	32411.74
495.14	32917.29
495.32	33331.57
495.49	32837.72
495.67	32945.38
495.85	33675.63
496.02	34012.66
496.20	33914.36
496.38	33867.55
496.55	33886.28
496.73	34572.05
496.91	34583.76
497.09	34487.79
497.26	34583.76
497.44	34771.00
497.62	35276.55
497.79	35978.72
497.97	35494.22
498.14	35955.31
498.32	35791.47
498.50	35842.96
498.67	36140.21
498.85	36500.65
499.03	35924.88
499.20	36540.44
499.38	36746.41
499.56	36802.58
499.73	36940.68
499.91	37280.05
500.08	37862.85
500.26	37062.38
500.44	37893.27
500.61	38066.47
500.79	37460.27
500.97	37928.38
501.14	38487.77
501.32	38466.70
501.49	38391.81
501.67	38635.22
501.84	38962.90
502.02	38880.98
502.20	38789.70
502.37	39292.91
502.55	39044.82
502.72	39566.76
502.90	39569.10
503.07	39339.72
503.25	39737.62
503.43	39501.22
503.60	39688.46
503.78	39983.37
503.95	40362.54
504.13	39945.92
504.30	40793.20
504.48	40243.17
504.65	40421.05
504.83	40971.08
505.01	41326.84
505.18	41067.04
505.36	41347.90
505.53	40996.82
505.71	41397.06
505.88	41593.66
506.06	41174.70
506.23	41701.32
506.41	41493.02
506.58	41635.79
506.76	41865.16
506.93	42244.33
507.11	42632.86
507.28	42553.28
507.46	42246.67
507.63	42536.90
507.81	43290.55
507.98	42946.49
508.16	43328.00
508.33	43536.30
508.50	43716.53
508.68	43721.21
508.85	43672.06
509.03	43543.33
509.20	43922.49
509.38	44093.35
509.55	43931.86
509.73	44404.64
509.90	44486.56
510.08	44268.89
510.25	44781.47
510.42	45045.95
510.60	44842.32
510.77	44788.49
510.95	45368.94
511.12	45322.13
511.30	45258.94
511.47	45329.16
511.64	45408.73
511.82	45766.84
511.99	45322.13
512.17	45940.04
512.34	45691.94
512.51	45982.16
512.69	46117.92
512.86	46415.16
513.04	46763.90
513.21	46520.49
513.38	46850.50
513.56	46962.85
513.73	46745.18
513.90	46995.62
514.08	46710.07
514.25	47065.83
514.43	47206.26
514.60	47180.52
514.77	47452.02
514.95	47639.26
515.12	47267.12
515.29	47133.71
515.47	47927.15
515.64	47496.49
515.81	48041.84
515.99	48163.54
516.16	48311.00
516.33	48016.09
516.51	48179.93
516.68	48112.05
516.85	48275.89
517.03	48727.61
517.20	48680.80
517.37	48624.63
517.54	48727.61
517.72	48704.21
517.89	49148.91
518.06	49144.23
518.24	49045.93
518.41	49237.85
518.58	49186.36
518.75	49155.93
518.93	49490.63
519.10	49446.16
519.27	49565.52
519.45	49904.90
519.62	49801.92
519.79	49834.69
519.96	49741.06
520.14	50000.86
520.31	49958.73
520.48	50473.65
520.65	49984.48
520.83	50733.45
521.00	50288.75
521.17	50326.20
521.34	50663.24
521.52	50855.16
521.69	50808.35
521.86	50745.15
522.03	51042.40
522.20	51124.32
522.38	51496.47
522.55	51295.18
522.72	51159.43
522.89	51330.29
523.07	51452.00
523.24	51248.37
523.41	51681.37
523.58	51264.75
523.75	51746.90
523.92	51447.32
524.10	51962.23
524.27	51835.84
524.44	51721.16
524.61	51943.51
524.78	51903.72
524.96	52121.39
525.13	51877.97
525.30	52402.25
525.47	52222.03
525.64	52500.56
525.81	52224.37
525.98	52552.05
526.16	52229.05
526.33	52573.11
526.50	52758.02
526.67	52568.43
526.84	52940.58
527.01	52903.13
527.18	52699.50
527.36	53006.11
527.53	53097.39
527.70	53078.67
527.87	53312.72
528.04	52987.39
528.21	53324.43
528.38	53425.07
528.55	53352.51
528.72	53291.66
528.89	53088.03
529.07	53315.06
529.24	53298.68
529.41	53696.57
529.58	53455.50
529.75	53518.69
529.92	53614.65
530.09	53563.16
530.26	53612.31
530.43	53876.79
530.60	53616.99
530.77	53443.79
530.94	54120.21
531.11	53951.69
531.28	54162.34
531.46	54150.63
531.63	54129.57
531.80	54206.81
531.97	54270.00
532.14	54431.50
532.31	54267.66
532.48	54424.48
532.65	54625.76
532.82	54333.20
532.99	54499.37
533.16	54504.06
533.33	54611.72
533.50	54784.92
533.67	54735.77
533.84	54618.74
534.01	54805.98
534.18	54651.51
534.35	54845.77
534.52	54906.63
534.69	55213.24
534.86	55096.21
535.03	55255.37
535.20	55302.18
535.37	54925.35
535.54	55175.79
535.71	55274.09
535.88	55473.04
536.05	55421.55
536.22	55426.23
536.38	55283.45
536.55	55295.16
536.72	55316.22
536.89	55334.95
537.06	55512.83
537.23	55540.91
537.40	55276.43
537.57	55625.17
537.74	55622.83
537.91	55707.09
538.08	55650.92
538.25	55557.30
538.42	55847.52
538.59	55955.19
538.75	55576.02
538.92	55686.03
539.09	56119.02
539.26	56044.13
539.43	56095.62
539.60	56055.83
539.77	56116.68
539.94	56177.54
540.11	56212.65
540.28	56261.80
540.44	56212.65
540.61	56392.87
540.78	56289.88
540.95	56119.02
541.12	56219.67
541.29	56315.63
541.46	56589.47
541.62	56402.23
541.79	56563.73
541.96	56399.89
542.13	56601.18
542.30	56603.52
542.47	56650.33
542.63	56809.48
542.80	56884.38
542.97	57006.09
543.14	57249.50
543.31	57167.58
543.48	57052.90
543.64	57359.51
543.81	57347.81
543.98	57354.83
544.15	57200.35
544.32	57331.42
544.48	57425.04
544.65	57357.17
544.82	57467.17
544.99	57102.05
545.16	57338.44
545.32	57380.57
545.49	57799.53
545.66	57497.60
545.83	57591.22
546.00	57876.77
546.16	57396.96
546.33	57668.46
546.50	57488.24
546.67	57687.18
546.83	57406.32
547.00	57759.74
547.17	57689.52
547.34	57886.13
547.50	58021.88
547.67	58038.26
547.84	58005.50
548.00	57855.70
548.17	58148.27
548.34	58031.24
548.51	58220.83
548.67	58244.23
548.84	57834.64
549.01	57928.26
549.18	57881.45
549.34	58014.86
549.51	58225.51
549.68	58269.98
549.84	58218.49
550.01	58225.51
550.18	58157.63
550.34	58265.30
550.51	58475.94
550.68	58305.09
550.84	58052.31
551.01	58447.86
551.18	58384.66
551.34	58511.05
551.51	58319.13
551.68	58480.63
551.84	58473.60
552.01	58326.15
552.18	58670.21
552.34	58274.66
552.51	58665.53
552.68	58440.84
552.84	58644.46
553.01	58880.86
553.18	58644.46
553.34	58754.47
553.51	58649.14
553.67	58775.53
553.84	58705.32
554.01	58777.87
554.17	59107.89
554.34	58927.67
554.51	59063.42
554.67	58791.92
554.84	58922.99
555.00	59082.14
555.17	58974.48
555.33	58670.21
555.50	59093.85
555.67	58747.45
555.83	58969.80
556.00	58906.60
556.16	59241.30
556.33	59253.00
556.50	59028.31
556.66	59238.96
556.83	59009.59
556.99	59215.55
557.16	59484.72
557.32	59426.20
557.49	59533.87
557.65	59332.58
557.82	59185.13
557.98	59220.23
558.15	59374.71
558.32	59363.01
558.48	59215.55
558.65	59444.93
558.81	59583.02
558.98	59470.67
559.14	59480.03
559.31	59629.83
559.47	59489.40
559.64	59676.64
559.80	59573.66
559.97	59718.77
560.13	59496.42
560.30	59496.42
560.46	59531.53
560.63	59564.29
560.79	59798.35
560.96	59611.10
561.12	59674.30
561.29	59725.79
561.45	59568.97
561.61	59828.77
561.78	59838.14
561.94	59613.44
562.11	59650.89
562.27	59739.83
562.44	60011.34
562.60	59948.14
562.77	59744.51
562.93	59962.18
563.10	59788.98
563.26	59854.52
563.42	60123.68
563.59	59915.37
563.75	59866.22
563.92	59964.52
564.08	59781.96
564.24	59997.29
564.41	60252.41
564.57	59997.29
564.74	59812.39
564.90	60126.02
565.07	59999.63
565.23	60020.70
565.39	59980.91
565.56	60076.87
565.72	60231.35
565.88	60236.03
566.05	59849.84
566.21	60114.32
566.38	60259.43
566.54	60322.63
566.70	60287.52
566.87	60313.26
567.03	60041.76
567.19	60362.42
567.36	60224.32
567.52	60200.92
567.68	60451.36
567.85	60130.70
568.01	60299.22
568.17	60133.04
568.34	60259.43
568.50	60149.43
568.66	60346.03
568.83	60200.92
568.99	60177.51
569.15	60268.79
569.32	60369.44
569.48	60207.94
569.64	60540.30
569.81	60507.53
569.97	60221.98
570.13	60409.23
570.30	60341.35
570.46	60430.29
570.62	60444.33
570.78	60556.68
570.95	60243.05
571.11	60500.51
571.27	60523.91
571.43	60334.33
571.60	60498.17
571.76	60306.24
571.92	60299.22
572.09	60425.61
572.25	60434.97
572.41	60465.40
572.57	60542.64
572.74	60713.50
572.90	60336.67
573.06	60617.53
573.22	60603.49
573.38	60523.91
573.55	60526.25
573.71	60631.58
573.87	60458.38
574.03	60603.49
574.20	60540.30
574.36	60463.06
574.52	60729.88
574.68	60636.26
574.84	60636.26
575.01	60736.90
575.17	60523.91
575.33	60542.64
575.49	60498.17
575.65	60811.80
575.82	60767.33
575.98	60647.96
576.14	60893.72
576.30	60718.18
576.46	60563.70
576.62	60851.59
576.79	60519.23
576.95	60472.42
577.11	60673.71
577.27	60781.37
577.43	60547.32
577.59	60772.01
577.75	60610.51
577.92	60678.39
578.08	60409.23
578.24	60882.02
578.40	60898.40
578.56	60966.27
578.72	60870.31
578.88	60884.36
579.04	60903.08
579.21	60907.76
579.37	60797.76
579.53	60914.78
579.69	60594.13
579.85	60615.19
580.01	60683.07
580.17	60772.01
580.33	60750.94
580.49	60926.49
580.65	60830.52
580.82	60669.03
580.98	60697.11
581.14	60739.24
581.30	60907.76
581.46	60779.03
581.62	60851.59
581.78	60870.31
581.94	60767.33
582.10	60767.33
582.26	60942.87
582.42	60931.17
582.58	60692.43
582.74	60713.50
582.90	60905.42
583.06	60889.04
583.22	60748.60
583.38	61006.06
583.54	60804.78
583.70	60903.08
583.86	60879.67
584.02	60800.10
584.18	61085.64
584.34	60874.99
584.50	60800.10
584.66	60910.10
584.82	60603.49
584.98	61034.15
585.14	60867.97
585.30	60713.50
585.46	60917.12
585.62	60926.49
585.78	61055.21
585.94	60727.54
586.10	60994.36
586.26	60956.91
586.42	61001.38
586.58	60938.19
586.74	60877.33
586.90	60994.36
587.06	60910.10
587.22	60992.02
587.38	60996.70
587.54	61036.49
587.70	61315.01
587.86	60999.04
588.02	61006.06
588.18	61153.52
588.34	60814.14
588.49	60874.99
