SpectraSuite Data File
++++++++++++++++++++++++++++++++++++
Date: Fri Oct 25 10:44:26 EDT 2013
User: price-jones
Dark Spectrum Present: No
Reference Spectrum Present: No
Number of Sampled Component Spectra: 1
Spectrometers: USB2+H05261
Integration Time (usec): 100000 (USB2+H05261)
Spectra Averaged: 1 (USB2+H05261)
Boxcar Smoothing: 0 (USB2+H05261)
Correct for Electrical Dark: No (USB2+H05261)
Strobe/Lamp Enabled: No (USB2+H05261)
Correct for Detector Non-linearity: No (USB2+H05261)
Correct for Stray Light: No (USB2+H05261)
Number of Pixels in Processed Spectrum: 2048
>>>>>Begin Processed Spectral Data<<<<<
365.73	93.62
365.92	93.62
366.12	93.62
366.32	30.43
366.52	16.38
366.72	25.75
366.91	0.00
367.11	63.19
367.31	0.00
367.51	2.34
367.70	0.00
367.90	16.38
368.10	0.00
368.30	16.38
368.49	2.34
368.69	74.90
368.89	28.09
369.09	11.70
369.28	30.43
369.48	49.15
369.68	53.83
369.87	65.54
370.07	112.35
370.27	154.48
370.47	168.52
370.66	402.57
370.86	444.70
371.06	479.81
371.25	526.62
371.45	507.90
371.65	550.03
371.84	477.47
372.04	505.56
372.24	423.64
372.44	507.90
372.63	512.58
372.83	528.96
373.03	512.58
373.22	507.90
373.42	564.07
373.62	528.96
373.81	575.77
374.01	543.00
374.21	505.56
374.40	545.34
374.60	624.92
374.79	589.82
374.99	578.11
375.19	540.66
375.38	603.86
375.58	634.29
375.78	660.03
375.97	615.56
376.17	681.10
376.37	678.76
376.56	657.69
376.76	599.18
376.95	613.22
377.15	554.71
377.35	716.20
377.54	674.07
377.74	634.29
377.93	650.67
378.13	709.18
378.33	678.76
378.52	667.05
378.72	608.54
378.91	620.24
379.11	636.63
379.31	678.76
379.50	631.94
379.70	648.33
379.89	685.78
380.09	732.59
380.28	638.97
380.48	636.63
380.68	706.84
380.87	727.91
381.07	802.80
381.26	823.87
381.46	751.31
381.65	763.01
381.85	716.20
382.04	734.93
382.24	748.97
382.43	655.35
382.63	702.16
382.83	704.50
383.02	793.44
383.22	791.10
383.41	861.32
383.61	739.61
383.80	798.12
384.00	786.42
384.19	781.74
384.39	795.78
384.58	833.23
384.78	854.30
384.97	849.61
385.17	725.57
385.36	788.76
385.56	830.89
385.75	774.72
385.95	826.21
386.14	856.64
386.34	830.89
386.53	835.57
386.72	835.57
386.92	945.58
387.11	898.77
387.31	882.38
387.50	978.34
387.70	863.66
387.89	926.85
388.09	868.34
388.28	870.68
388.48	922.17
388.67	983.02
388.86	952.60
389.06	896.43
389.25	1048.56
389.45	947.92
389.64	999.41
389.84	1020.47
390.03	999.41
390.22	1090.69
390.42	1036.86
390.61	1053.24
390.81	1036.86
391.00	1083.67
391.19	1137.50
391.39	1025.15
391.58	1130.48
391.78	1029.84
391.97	1186.65
392.16	1102.39
392.36	1100.05
392.55	1078.99
392.75	1057.92
392.94	1008.77
393.13	1067.28
393.33	1032.18
393.52	1078.99
393.71	1121.12
393.91	1139.84
394.10	1165.59
394.29	1224.10
394.49	1109.41
394.68	1284.95
394.88	1235.80
395.07	1341.13
395.26	1270.91
395.46	1376.24
395.65	1238.14
395.84	1231.12
396.04	1291.98
396.23	1153.88
396.42	1071.97
396.62	1200.69
396.81	1268.57
397.00	1203.04
397.19	1373.89
397.39	1444.11
397.58	1446.45
397.77	1458.15
397.97	1479.22
398.16	1453.47
398.35	1448.79
398.55	1570.50
398.74	1575.18
398.93	1621.99
399.12	1540.07
399.32	1526.03
399.51	1537.73
399.70	1600.93
399.90	1645.40
400.09	1605.61
400.28	1624.33
400.47	1696.89
400.67	1748.38
400.86	1748.38
401.05	1713.27
401.24	1743.70
401.44	1849.02
401.63	1797.53
401.82	1813.92
402.01	1708.59
402.21	1809.23
402.40	1778.81
402.59	1746.04
402.78	1858.39
402.97	1825.62
403.17	1755.40
403.36	1849.02
403.55	1952.01
403.74	1870.09
403.93	1975.41
404.13	1914.56
404.32	1907.54
404.51	1998.82
404.70	1975.41
404.89	1949.67
405.09	2094.78
405.28	2031.58
405.47	2073.71
405.66	2190.74
405.85	2078.40
406.05	2080.74
406.24	2064.35
406.43	1996.48
406.62	2080.74
406.81	2195.42
407.00	2029.24
407.20	2174.36
407.39	2122.87
407.58	2296.07
407.77	2218.83
407.96	2221.17
408.15	2197.76
408.34	2174.36
408.54	2326.49
408.73	2392.03
408.92	2312.45
409.11	2354.58
409.30	2427.14
409.49	2345.22
409.68	2282.02
409.87	2333.51
410.07	2401.39
410.26	2471.61
410.45	2546.50
410.64	2483.31
410.83	2495.01
411.02	2626.08
411.21	2724.38
411.40	2677.57
411.59	2738.43
411.78	2787.58
411.98	2626.08
412.17	2764.17
412.36	2724.38
412.55	2745.45
412.74	2867.16
412.93	2881.20
413.12	2869.50
413.31	2827.37
413.50	3110.57
413.69	3026.31
413.88	3038.02
414.07	3009.93
414.26	3028.65
414.45	3098.87
414.64	3152.70
414.83	3070.78
415.02	3119.93
415.22	3176.11
415.41	3173.77
415.60	3180.79
415.79	3290.79
415.98	3304.84
416.17	3344.63
416.36	3318.88
416.55	3391.44
416.74	3428.88
416.93	3363.35
417.12	3337.60
417.31	3407.82
417.50	3496.76
417.69	3571.66
417.88	3524.85
418.07	3421.86
418.26	3496.76
418.45	3555.27
418.64	3817.41
418.83	3707.41
419.02	3707.41
419.21	3737.84
419.39	3679.32
419.58	3644.21
419.77	3765.92
419.96	3588.04
420.15	3913.38
420.34	3779.97
420.53	3875.93
420.72	4021.04
420.91	4051.47
421.10	4002.32
421.29	3983.59
421.48	3918.06
421.67	3988.27
421.86	3948.48
422.05	3925.08
422.24	3950.82
422.43	4067.85
422.61	4011.68
422.80	4077.21
422.99	3939.12
423.18	4105.30
423.37	4039.76
423.56	4037.42
423.75	4007.00
423.94	4056.15
424.13	3801.03
424.32	3941.46
424.50	4161.47
424.69	4205.94
424.88	4028.06
425.07	4011.68
425.26	4011.68
425.45	4112.32
425.64	4077.21
425.83	4320.63
426.01	4074.87
426.20	4107.64
426.39	4212.96
426.58	4072.53
426.77	3985.93
426.96	4112.32
427.15	4081.89
427.33	4198.92
427.52	4252.75
427.71	4166.15
427.90	4191.90
428.09	4250.41
428.28	4329.99
428.46	4177.86
428.65	4315.95
428.84	4329.99
429.03	4435.32
429.22	4248.07
429.40	4322.97
429.59	4159.13
429.78	4051.47
429.97	3896.99
430.16	4264.46
430.34	4070.19
430.53	4245.73
430.72	4360.42
430.91	4229.35
431.10	4313.61
431.28	4650.64
431.47	4657.67
431.66	4835.55
431.85	4753.63
432.03	4819.16
432.22	4875.34
432.41	4770.01
432.60	4837.89
432.79	4774.69
432.97	4903.42
433.16	4873.00
433.35	4847.25
433.54	4814.48
433.72	4889.38
433.91	4875.34
434.10	4933.85
434.28	4849.59
434.47	5102.37
434.66	5039.17
434.85	5076.62
435.03	5039.17
435.22	5179.61
435.41	5135.14
435.59	5231.10
435.78	5121.09
435.97	5320.04
436.16	5186.63
436.34	5282.59
436.53	5341.10
436.72	5350.46
436.90	5301.31
437.09	5366.85
437.28	5247.48
437.46	5268.55
437.65	5205.35
437.84	5210.03
438.02	5242.80
438.21	5348.12
438.40	5327.06
438.58	5528.35
438.77	5549.41
438.96	5703.89
439.14	5724.95
439.33	5638.35
439.52	5919.21
439.70	5645.37
439.89	5907.51
440.08	6076.03
440.26	5867.72
440.45	5804.53
440.63	6033.90
440.82	6017.52
441.01	6118.16
441.19	6143.91
441.38	6141.57
441.57	6282.00
441.75	6317.11
441.94	6518.39
442.12	6602.65
442.31	6597.97
442.50	6476.26
442.68	6389.66
442.87	6532.44
443.05	6415.41
443.24	6715.00
443.43	6537.12
443.61	6590.95
443.80	6789.89
443.98	6551.16
444.17	6420.09
444.35	6794.58
444.54	6815.64
444.73	6698.61
444.91	6665.85
445.10	6590.95
445.28	6668.19
445.47	6539.46
445.65	6588.61
445.84	6829.68
446.02	6689.25
446.21	6715.00
446.39	6614.35
446.58	6972.46
446.77	6820.32
446.95	6623.72
447.14	6862.45
447.32	6977.14
447.51	7033.31
447.69	6808.62
447.88	6911.60
448.06	6937.35
448.25	6869.47
448.43	7035.65
448.62	6977.14
448.80	6885.86
448.99	7091.82
449.17	7143.32
449.36	7213.53
449.54	7274.38
449.73	7393.75
449.91	7421.84
450.10	7522.48
450.28	7323.54
450.46	7517.80
450.65	7265.02
450.83	7569.29
451.02	7400.77
451.20	7396.09
451.39	7447.58
451.57	7494.40
451.76	7618.44
451.94	7379.71
452.13	7473.33
452.31	7424.18
452.49	7323.54
452.68	7363.33
452.86	7232.26
453.05	7501.42
453.23	7557.59
453.42	7585.68
453.60	7515.46
453.78	7588.02
453.97	7508.44
454.15	7709.72
454.34	7611.42
454.52	7714.41
454.70	7569.29
454.89	7665.25
455.07	7925.05
455.26	7887.61
455.44	7950.80
455.62	7936.76
455.81	7819.73
455.99	8070.17
456.17	7957.82
456.36	7887.61
456.54	8238.69
456.73	8278.47
456.91	8269.11
457.09	8329.97
457.28	8517.21
457.46	8241.03
457.64	8367.42
457.83	8479.76
458.01	8243.37
458.19	8620.19
458.38	8315.92
458.56	8477.42
458.74	8369.76
458.93	8531.25
459.11	8645.94
459.29	8355.71
459.48	8575.72
459.66	8528.91
459.84	8468.06
460.03	8592.11
460.21	8692.75
460.39	8659.98
460.57	8734.88
460.76	8903.40
460.94	8882.33
461.12	8973.61
461.31	9081.28
461.49	8884.67
461.67	8915.10
461.85	9226.39
462.04	9184.26
462.22	9137.45
462.40	9083.62
462.59	8997.02
462.77	9015.74
462.95	9261.50
463.13	9128.09
463.32	9202.99
463.50	9312.99
463.68	9238.09
463.86	9254.48
464.05	9125.75
464.23	9259.16
464.41	9331.72
464.59	9118.73
464.78	9455.76
464.96	9308.31
465.14	9441.72
465.32	9624.28
465.50	9514.28
465.69	9472.15
465.87	9563.43
466.05	9509.60
466.23	9329.38
466.41	9296.61
466.60	9703.86
466.78	9427.68
466.96	9500.23
467.14	9371.50
467.32	9661.73
467.51	9745.99
467.69	9816.21
467.87	9944.94
468.05	9696.84
468.23	9514.28
468.41	9741.31
468.60	9643.01
468.78	9708.54
468.96	9673.43
469.14	9928.55
469.32	10064.30
469.50	9525.98
469.69	10211.76
469.87	10087.71
470.05	10022.17
470.23	10010.47
470.41	10008.13
470.59	10382.62
470.77	10146.22
470.95	10518.37
471.14	10396.66
471.32	10366.23
471.50	10415.38
471.68	10349.85
471.86	10504.32
472.04	10665.82
472.22	11075.42
472.40	10721.99
472.58	10714.97
472.77	10860.09
472.95	10817.96
473.13	11129.25
473.31	10714.97
473.49	10864.77
473.67	10843.70
473.85	11173.72
474.03	11363.30
474.21	10925.62
474.39	11241.59
474.57	11234.57
474.75	11391.39
474.93	11709.70
475.12	11756.51
475.30	11375.00
475.48	11356.28
475.66	11658.21
475.84	11543.52
476.02	11655.87
476.20	11698.00
476.38	11782.26
476.56	12161.42
476.74	12112.27
476.92	11976.52
477.10	12016.31
477.28	12571.02
477.46	12517.18
477.64	12500.80
477.82	12748.90
478.00	12868.27
478.18	12695.07
478.36	12823.80
478.54	12926.78
478.72	12985.29
478.90	13284.88
479.08	13549.36
479.26	13399.57
479.44	13359.78
479.62	13647.66
479.80	13710.86
479.98	13788.10
480.16	14036.19
480.34	13905.12
480.52	13980.02
480.70	14239.82
480.88	13973.00
481.06	14263.22
481.24	14368.55
481.41	14546.43
481.59	14794.53
481.77	14883.47
481.95	14700.90
482.13	14862.40
482.31	14717.29
482.49	15421.79
482.67	15274.34
482.85	15456.90
483.03	15513.07
483.21	15896.92
483.39	15864.15
483.57	15901.60
483.74	15948.41
483.92	15896.92
484.10	16056.08
484.28	16215.23
484.46	16336.94
484.64	16622.48
484.82	16374.39
485.00	16762.92
485.18	16718.45
485.35	16599.08
485.53	16638.87
485.71	16411.84
485.89	16596.74
486.07	16683.34
486.25	16961.86
486.43	17319.96
486.61	17518.91
486.78	17525.93
486.96	17834.88
487.14	18249.16
487.32	18192.98
487.50	18408.31
487.68	18740.67
487.85	18963.02
488.03	18953.66
488.21	19007.49
488.39	18733.65
488.57	19061.32
488.75	19316.44
488.92	19573.90
489.10	19814.98
489.28	20135.63
489.46	20390.75
489.64	20355.64
489.81	20580.33
489.99	20767.57
490.17	20657.57
490.35	20896.30
490.53	20915.03
490.70	20996.95
490.88	20952.48
491.06	21238.02
491.24	21270.79
491.41	21214.62
491.59	21518.89
491.77	21474.42
491.95	21706.13
492.13	21912.10
492.30	21986.99
492.48	22031.46
492.66	22347.44
492.84	22265.52
493.01	22794.48
493.19	22911.50
493.37	22576.81
493.54	22761.71
493.72	23278.97
493.90	23145.56
494.08	23391.31
494.25	23807.93
494.43	23545.79
494.61	24070.07
494.79	24116.88
494.96	24065.39
495.14	23983.47
495.32	24095.82
495.49	24137.94
495.67	24634.14
495.85	24694.99
496.02	24858.83
496.20	25376.09
496.38	24856.49
496.55	25188.85
496.73	25755.26
496.91	25535.24
497.09	25532.90
497.26	25544.61
497.44	25972.92
497.62	25778.66
497.79	26092.29
497.97	26089.95
498.14	25876.96
498.32	26169.53
498.50	26501.89
498.67	26520.61
498.85	26600.19
499.03	26855.31
499.20	26668.06
499.38	27180.64
499.56	26962.97
499.73	26904.46
499.91	27178.30
500.08	27381.93
500.26	27007.44
500.44	27332.78
500.61	27253.20
500.79	27264.90
500.97	27271.92
501.14	27805.56
501.32	27784.50
501.49	27828.97
501.67	27735.35
501.84	28149.62
502.02	28105.15
502.20	28334.53
502.37	28271.33
502.55	28514.75
502.72	28648.16
502.90	29022.64
503.07	28664.54
503.25	28900.94
503.43	28563.90
503.60	28692.63
503.78	28664.54
503.95	28914.98
504.13	29429.90
504.30	29535.22
504.48	29322.23
504.65	29457.98
504.83	29930.77
505.01	29844.17
505.18	29982.26
505.36	30679.74
505.53	30347.39
505.71	30281.85
505.88	30497.18
506.06	29635.86
506.23	30682.08
506.41	30284.19
506.58	30387.18
506.76	30190.57
506.93	30651.66
507.11	30630.59
507.28	30895.07
507.46	30904.43
507.63	30686.76
507.81	30810.81
507.98	30876.35
508.16	31222.75
508.33	31459.14
508.50	31316.37
508.68	31548.08
508.85	31955.33
509.03	31566.81
509.20	32212.79
509.38	31828.95
509.55	31894.48
509.73	32058.32
509.90	31676.81
510.08	32048.96
510.25	32095.77
510.42	32222.16
510.60	32371.95
510.77	32456.21
510.95	32800.27
511.12	32837.72
511.30	32952.40
511.47	33111.56
511.64	32964.10
511.82	32957.08
511.99	32652.81
512.17	32910.27
512.34	32973.47
512.51	33694.35
512.69	33654.56
512.86	33394.76
513.04	33724.78
513.21	33869.89
513.38	33766.91
513.56	33589.03
513.73	33507.11
513.90	33897.98
514.08	33312.84
514.25	33935.43
514.43	34043.09
514.60	34057.14
514.77	33834.78
514.95	34206.93
515.12	34536.94
515.29	34520.56
515.47	34675.04
515.64	34913.77
515.81	34459.71
515.99	35009.73
516.16	34426.94
516.33	34183.52
516.51	34141.39
516.68	33982.24
516.85	33907.34
517.03	33996.28
517.20	34719.51
517.37	34869.30
517.54	35049.52
517.72	34911.43
517.89	34782.70
518.06	34721.85
518.24	34595.46
518.41	35108.04
518.58	35164.21
518.75	35014.41
518.93	35667.42
519.10	35290.60
519.27	35756.36
519.45	35742.32
519.62	36084.04
519.79	35852.33
519.96	36130.85
520.14	36601.30
520.31	36016.16
520.48	36304.05
520.65	36694.92
520.83	36610.66
521.00	36849.39
521.17	36601.30
521.34	36666.83
521.52	37151.32
521.69	37038.98
521.86	36837.69
522.03	37177.07
522.20	37172.39
522.38	37003.87
522.55	37228.56
522.72	37003.87
522.89	37273.03
523.07	37319.84
523.24	37258.99
523.41	37773.91
523.58	37488.36
523.75	37883.91
523.92	38295.85
524.10	37968.17
524.27	38108.60
524.44	38305.21
524.61	38249.03
524.78	38560.33
524.96	38541.60
525.13	38352.02
525.30	38691.40
525.47	38597.77
525.64	38735.87
525.81	38450.32
525.98	38440.96
526.16	37916.68
526.33	38211.59
526.50	38326.27
526.67	37699.01
526.84	37844.12
527.01	37839.44
527.18	38419.89
527.36	38951.20
527.53	39086.95
527.70	39232.06
527.87	39393.56
528.04	38878.64
528.21	39531.65
528.38	39213.34
528.55	39746.98
528.72	39569.10
528.89	39959.97
529.07	39777.40
529.24	39487.18
529.41	39468.45
529.58	39398.24
529.75	39440.37
529.92	39966.99
530.09	39711.87
530.26	39957.63
530.43	40282.96
530.60	39866.34
530.77	40079.33
530.94	40182.32
531.11	40486.59
531.28	39950.60
531.46	40172.96
531.63	40142.53
531.80	40013.80
531.97	40030.18
532.14	40130.83
532.31	40371.90
532.48	39976.35
532.65	40470.20
532.82	40514.67
532.99	40350.84
533.16	40549.78
533.33	40868.09
533.50	41170.02
533.67	40924.27
533.84	40467.86
534.01	41123.21
534.18	40744.05
534.35	40795.54
534.52	41050.66
534.69	41099.81
534.86	40877.46
535.03	40989.80
535.20	41570.25
535.37	41633.45
535.54	41471.95
535.71	41528.13
535.88	41811.33
536.05	41020.23
536.22	41511.74
536.38	41329.18
536.55	41457.91
536.72	41200.45
536.89	41263.64
537.06	41792.61
537.23	41918.99
537.40	41998.57
537.57	41867.50
537.74	41907.29
537.91	42099.22
538.08	42043.04
538.25	41944.74
538.42	42162.41
538.59	42010.28
538.75	41930.70
538.92	42117.94
539.09	42150.71
539.26	41731.75
539.43	41989.21
539.60	42157.73
539.77	42024.32
539.94	42263.05
540.11	41668.56
540.28	42557.96
540.44	42328.59
540.61	42082.83
540.78	42171.77
540.95	41982.19
541.12	42157.73
541.29	42794.36
541.46	42513.49
541.62	42506.47
541.79	42838.83
541.96	42490.09
542.13	42630.52
542.30	42492.43
542.47	42733.50
542.63	43187.56
542.80	43103.31
542.97	43302.25
543.14	43068.20
543.31	43138.41
543.48	43508.22
543.64	43758.66
543.81	43861.64
543.98	43407.58
544.15	43423.96
544.32	43580.78
544.48	44032.50
544.65	43800.79
544.82	43889.73
544.99	43152.46
545.16	44126.12
545.32	43461.41
545.49	44062.93
545.66	43943.56
545.83	44325.07
546.00	43973.98
546.16	44229.10
546.33	43662.69
546.50	43714.19
546.67	44170.59
546.83	43529.28
547.00	43578.43
547.17	44009.09
547.34	43995.05
547.50	44292.30
547.67	44329.75
547.84	44203.36
548.00	44708.91
548.17	44456.14
548.34	44512.31
548.51	44442.09
548.67	44514.65
548.84	44545.08
549.01	44280.60
549.18	44397.62
549.34	44608.27
549.51	44832.96
549.68	44708.91
549.84	44542.74
550.01	44978.07
550.18	44884.45
550.34	44626.99
550.51	44818.92
550.68	44336.77
550.84	44467.84
551.01	44790.83
551.18	45043.61
551.34	44666.78
551.51	44931.26
551.68	44739.34
551.84	44863.39
552.01	44884.45
552.18	44781.47
552.34	44807.22
552.51	45127.87
552.68	45041.27
552.84	45254.26
553.01	45387.67
553.18	45394.69
553.34	45095.10
553.51	45071.70
553.67	45450.86
553.84	45844.07
554.01	45230.85
554.17	45474.27
554.34	45233.19
554.51	45689.60
554.67	45961.10
554.84	45600.66
555.00	45563.21
555.17	45296.39
555.33	45331.50
555.50	45134.89
555.67	45549.17
555.83	45272.98
556.00	45834.71
556.16	45705.98
556.33	45544.48
556.50	45427.46
556.66	45771.52
556.83	45457.88
556.99	45773.86
557.16	46024.29
557.32	45738.75
557.49	45916.63
557.65	45588.95
557.82	46115.58
557.98	45720.02
558.15	45797.26
558.32	45827.69
558.48	45989.19
558.65	45762.15
558.81	45698.96
558.98	45731.73
559.14	45193.40
559.31	45771.52
559.47	45893.22
559.64	45991.53
559.80	46061.74
559.97	45867.48
560.13	46045.36
560.30	46197.49
560.46	46047.70
560.63	46508.79
560.79	46279.41
560.96	46153.02
561.12	46019.61
561.29	46143.66
561.45	46057.06
561.61	46167.07
561.78	46185.79
561.94	45902.59
562.11	46387.08
562.27	45911.95
562.44	46099.19
562.60	46307.50
562.77	46209.20
562.93	46295.80
563.10	46424.53
563.26	45687.26
563.42	46354.31
563.59	45867.48
563.75	45832.37
563.92	46700.71
564.08	46174.09
564.24	46045.36
564.41	46651.56
564.57	46581.34
564.74	46244.30
564.90	46384.74
565.07	46635.17
565.23	45956.42
565.39	46487.72
565.56	46665.60
565.72	46366.01
565.88	46429.21
566.05	46419.84
566.21	46759.22
566.38	46644.54
566.54	46799.01
566.70	46426.87
566.87	47232.01
567.03	46188.13
567.19	47173.50
567.36	46909.02
567.52	46593.04
567.68	46916.04
567.85	46155.36
568.01	46450.27
568.17	46932.42
568.34	46630.49
568.50	46562.62
568.66	46548.57
568.83	46623.47
568.99	46616.45
569.15	46447.93
569.32	46672.62
569.48	46611.77
569.64	46756.88
569.81	46562.62
569.97	46607.09
570.13	46396.44
570.30	46632.83
570.46	46295.80
570.62	45914.29
570.78	46153.02
570.95	46443.25
571.11	46555.60
571.27	46241.96
571.43	46438.57
571.60	46323.88
571.76	46691.35
571.92	46452.61
572.09	46663.26
572.25	47112.64
572.41	46548.57
572.57	47030.72
572.74	47262.44
572.90	46937.10
573.06	46602.41
573.22	46415.16
573.38	46796.67
573.55	46513.47
573.71	46670.28
573.87	46731.14
574.03	46412.82
574.20	46897.31
574.36	46508.79
574.52	46597.73
574.68	46590.70
574.84	46574.32
575.01	46426.87
575.17	46415.16
575.33	46295.80
575.49	46508.79
575.65	46621.13
575.82	46630.49
575.98	46478.36
576.14	47012.00
576.30	46838.80
576.46	46590.70
576.62	46890.29
576.79	46806.03
576.95	46440.91
577.11	46632.83
577.27	46501.76
577.43	46227.92
577.59	46714.75
577.75	46452.61
577.92	46028.98
578.08	46171.75
578.24	46691.35
578.40	46366.01
578.56	46536.87
578.72	46941.78
578.88	46913.70
579.04	47463.72
579.21	47012.00
579.37	46836.46
579.53	46756.88
579.69	46756.88
579.85	46562.62
580.01	46967.53
580.17	46464.32
580.33	46866.89
580.49	46721.77
580.65	47002.64
580.82	46997.96
580.98	46717.09
581.14	46852.84
581.30	46869.23
581.46	46962.85
581.62	46625.81
581.78	46887.95
581.94	47063.49
582.10	47037.75
582.26	46902.00
582.42	46916.04
582.58	47014.34
582.74	46799.01
582.90	46857.52
583.06	46789.65
583.22	47323.29
583.38	47267.12
583.54	46995.62
583.70	47040.09
583.86	46941.78
584.02	46506.44
584.18	47241.37
584.34	47215.63
584.50	46644.54
584.66	46873.91
584.82	46803.69
584.98	47007.32
585.14	47065.83
585.30	46590.70
585.46	46969.87
585.62	46749.86
585.78	47096.26
585.94	46813.05
586.10	46419.84
586.26	47063.49
586.42	47117.32
586.58	46398.78
586.74	47423.93
586.90	46733.48
587.06	46639.86
587.22	46894.97
587.38	46438.57
587.54	46684.33
587.70	46628.15
587.86	47096.26
588.02	46894.97
588.18	47323.29
588.34	46677.30
588.49	46529.85
588.65	46162.39
588.81	46021.95
588.97	46258.35
589.13	46569.64
589.29	46497.08
589.45	46426.87
589.61	46588.36
589.77	46239.62
589.93	46684.33
