SpectraSuite Data File
++++++++++++++++++++++++++++++++++++
Date: Fri Oct 25 11:24:00 EDT 2013
User: price-jones
Dark Spectrum Present: No
Reference Spectrum Present: No
Number of Sampled Component Spectra: 1
Spectrometers: USB2+H05261
Integration Time (usec): 100000 (USB2+H05261)
Spectra Averaged: 1 (USB2+H05261)
Boxcar Smoothing: 0 (USB2+H05261)
Correct for Electrical Dark: No (USB2+H05261)
Strobe/Lamp Enabled: No (USB2+H05261)
Correct for Detector Non-linearity: No (USB2+H05261)
Correct for Stray Light: No (USB2+H05261)
Number of Pixels in Processed Spectrum: 2048
>>>>>Begin Processed Spectral Data<<<<<
365.73	154.48
365.92	154.48
366.12	154.48
366.32	191.92
366.52	196.60
366.72	124.05
366.91	65.54
367.11	168.52
367.31	79.58
367.51	60.85
367.70	77.24
367.90	128.73
368.10	117.03
368.30	210.65
368.49	126.39
368.69	135.75
368.89	184.90
369.09	166.18
369.28	180.22
369.48	124.05
369.68	177.88
369.87	241.08
370.07	170.86
370.27	308.95
370.47	306.61
370.66	573.43
370.86	615.56
371.06	711.52
371.25	648.33
371.45	690.46
371.65	681.10
371.84	718.54
372.04	660.03
372.24	758.33
372.44	732.59
372.63	734.93
372.83	772.38
373.03	727.91
373.22	779.40
373.42	793.44
373.62	746.63
373.81	786.42
374.01	870.68
374.21	858.98
374.40	798.12
374.60	880.04
374.79	807.48
374.99	777.06
375.19	898.77
375.38	826.21
375.58	814.51
375.78	898.77
375.97	868.34
376.17	884.72
376.37	851.96
376.56	795.78
376.76	840.25
376.95	807.48
377.15	847.27
377.35	891.74
377.54	903.45
377.74	854.30
377.93	910.47
378.13	919.83
378.33	945.58
378.52	926.85
378.72	889.40
378.91	898.77
379.11	957.28
379.31	971.32
379.50	997.07
379.70	1039.20
379.89	971.32
380.09	924.51
380.28	994.73
380.48	983.02
380.68	964.30
380.87	964.30
381.07	976.00
381.26	1062.60
381.46	1034.52
381.65	1025.15
381.85	985.37
382.04	1029.84
382.24	1170.27
382.43	1093.03
382.63	1053.24
382.83	1095.37
383.02	1149.20
383.22	1062.60
383.41	1132.82
383.61	1125.80
383.80	1015.79
384.00	1118.78
384.19	1116.44
384.39	1121.12
384.58	1207.72
384.78	1228.78
384.97	1100.05
385.17	1160.91
385.36	1181.97
385.56	1139.84
385.75	1163.25
385.95	1200.69
386.14	1268.57
386.34	1111.75
386.53	1266.23
386.72	1177.29
386.92	1231.12
387.11	1289.64
387.31	1263.89
387.50	1238.14
387.70	1238.14
387.89	1313.04
388.09	1275.59
388.28	1277.93
388.48	1277.93
388.67	1336.45
388.86	1306.02
389.06	1343.47
389.25	1310.70
389.45	1348.15
389.64	1357.51
389.84	1390.28
390.03	1413.68
390.22	1437.09
390.42	1462.83
390.61	1409.00
390.81	1537.73
391.00	1434.75
391.19	1425.39
391.39	1467.52
391.58	1533.05
391.78	1519.01
391.97	1542.41
392.16	1434.75
392.36	1497.94
392.55	1432.41
392.75	1554.12
392.94	1453.47
393.13	1493.26
393.33	1469.86
393.52	1551.78
393.71	1577.52
393.91	1568.16
394.10	1582.20
394.29	1699.23
394.49	1654.76
394.68	1535.39
394.88	1678.16
395.07	1596.25
395.26	1668.80
395.46	1739.02
395.65	1706.25
395.84	1687.53
396.04	1706.25
396.23	1760.08
396.42	1802.21
396.62	1790.51
396.81	1839.66
397.00	1827.96
397.19	1837.32
397.39	1762.42
397.58	1909.88
397.77	1909.88
397.97	1846.68
398.16	1879.45
398.35	1935.62
398.55	1830.30
398.74	1905.20
398.93	1874.77
399.12	1881.79
399.32	1900.52
399.51	1827.96
399.70	1916.90
399.90	1987.11
400.09	2085.42
400.28	2038.61
400.47	2038.61
400.67	2143.93
400.86	2125.21
401.05	2104.14
401.24	2036.27
401.44	2155.63
401.63	2183.72
401.82	2263.30
402.01	2076.06
402.21	2143.93
402.40	2214.15
402.59	2209.47
402.78	2300.75
402.97	2263.30
403.17	2356.92
403.36	2326.49
403.55	2289.04
403.74	2408.41
403.93	2319.47
404.13	2345.22
404.32	2277.34
404.51	2324.15
404.70	2462.24
404.89	2375.64
405.09	2457.56
405.28	2504.37
405.47	2548.84
405.66	2502.03
405.85	2553.52
406.05	2614.38
406.24	2586.29
406.43	2576.93
406.62	2558.21
406.81	2773.53
407.00	2626.08
407.20	2523.10
407.39	2651.83
407.58	2698.64
407.77	2754.81
407.96	2759.49
408.15	2846.09
408.34	2726.72
408.54	2661.19
408.73	2862.48
408.92	2771.19
409.11	2729.06
409.30	2855.45
409.49	2930.35
409.68	2843.75
409.87	2991.20
410.07	3084.83
410.26	2951.42
410.45	2988.86
410.64	3012.27
410.83	3038.02
411.02	3098.87
411.21	3316.54
411.40	3108.23
411.59	3239.30
411.78	3297.81
411.98	3330.58
412.17	3372.71
412.36	3276.75
412.55	3337.60
412.74	3459.31
412.93	3365.69
413.12	3428.88
413.31	3599.74
413.50	3592.72
413.69	3487.40
413.88	3672.30
414.07	3686.34
414.26	3676.98
414.45	3681.66
414.64	3653.58
414.83	3829.12
415.02	3623.15
415.22	3868.91
415.41	3906.35
415.60	3929.76
415.79	3934.44
415.98	3941.46
416.17	4117.00
416.36	3932.10
416.55	3885.29
416.74	4156.79
416.93	4004.66
417.12	4018.70
417.31	4205.94
417.50	4109.98
417.69	4327.65
417.88	4346.37
418.07	4021.04
418.26	4250.41
418.45	4402.55
418.64	4430.63
418.83	4486.81
419.02	4360.42
419.21	4582.77
419.39	4535.96
419.58	4568.73
419.77	4552.34
419.96	4451.70
420.15	4692.77
420.34	4624.90
420.53	4608.51
420.72	4720.86
420.91	4709.16
421.10	4678.73
421.29	4814.48
421.48	4903.42
421.67	4863.63
421.86	4830.87
422.05	4896.40
422.24	4863.63
422.43	4781.71
422.61	4830.87
422.80	5008.75
422.99	5043.85
423.18	5015.77
423.37	5090.67
423.56	4908.10
423.75	4875.34
423.94	4870.65
424.13	4620.22
424.32	4795.76
424.50	5118.75
424.69	5151.52
424.88	5032.15
425.07	5020.45
425.26	4863.63
425.45	4933.85
425.64	4943.21
425.83	5046.20
426.01	4973.64
426.20	5032.15
426.39	5064.92
426.58	5076.62
426.77	5198.33
426.96	5132.79
427.15	5076.62
427.33	5217.05
427.52	5163.22
427.71	5291.95
427.90	5205.35
428.09	5376.21
428.28	5533.03
428.46	5352.81
428.65	5336.42
428.84	5530.69
429.03	5500.26
429.22	5378.55
429.40	5467.49
429.59	5500.26
429.78	5399.62
429.97	5275.57
430.16	5563.45
430.34	5643.03
430.53	5621.97
430.72	5614.95
430.91	5589.20
431.10	5640.69
431.28	5722.61
431.47	5914.53
431.66	5975.39
431.85	5764.74
432.03	6043.26
432.22	6157.95
432.41	5909.85
432.60	6090.07
432.79	5863.04
432.97	6129.86
433.16	6005.81
433.35	6120.50
433.54	6118.16
433.72	6282.00
433.91	6244.55
434.10	6092.41
434.28	6050.28
434.47	6366.26
434.66	6286.68
434.85	6251.57
435.03	6197.74
435.22	6274.98
435.41	6441.15
435.59	6555.84
435.78	6473.92
435.97	6408.39
436.16	6293.70
436.34	6530.09
436.53	6597.97
436.72	6588.61
436.90	6422.43
437.09	6665.85
437.28	6600.31
437.46	6712.66
437.65	6679.89
437.84	6808.62
438.02	6904.58
438.21	6834.36
438.40	6768.83
438.58	7052.03
438.77	7190.13
438.96	6942.03
439.14	7152.68
439.33	7227.57
439.52	7250.98
439.70	7166.72
439.89	7346.94
440.08	7356.30
440.26	7489.71
440.45	7424.18
440.63	7510.78
440.82	7559.93
441.01	7669.94
441.19	7660.57
441.38	7698.02
441.57	7681.64
441.75	7962.50
441.94	8065.49
442.12	8056.12
442.31	7838.45
442.50	7920.37
442.68	8128.68
442.87	8060.80
443.05	8004.63
443.24	8264.43
443.43	8152.09
443.61	8177.83
443.80	8468.06
443.98	8154.43
444.17	7899.31
444.35	8065.49
444.54	8482.10
444.73	8306.56
444.91	8266.77
445.10	8243.37
445.28	8430.61
445.47	8414.23
445.65	8346.35
445.84	8332.31
446.02	8517.21
446.21	8461.04
446.39	8463.38
446.58	8465.72
446.77	8503.17
446.95	8259.75
447.14	8355.71
447.32	8730.20
447.51	8636.58
447.69	8416.57
447.88	8449.33
448.06	8561.68
448.25	8561.68
448.43	8695.09
448.62	8695.09
448.80	8652.96
448.99	8828.50
449.17	8898.72
449.36	8685.73
449.54	8807.44
449.73	9128.09
449.91	9139.79
450.10	9090.64
450.28	8968.93
450.46	8875.31
450.65	8779.35
450.83	9198.31
451.02	9104.68
451.20	9277.88
451.39	9465.13
451.57	9200.65
451.76	9284.91
451.94	9263.84
452.13	9247.46
452.31	9322.35
452.49	9289.59
452.68	9312.99
452.86	9530.66
453.05	9427.68
453.23	9535.34
453.42	9593.86
453.60	9380.87
453.78	9418.32
453.97	9610.24
454.15	9469.81
454.34	9394.91
454.52	9856.00
454.70	9722.59
454.89	9767.06
455.07	9769.40
455.26	9933.23
455.44	10101.75
455.62	9874.72
455.81	9998.77
455.99	10115.80
456.17	10038.56
456.36	10106.43
456.54	10183.67
456.73	10305.38
456.91	10611.99
457.09	10452.83
457.28	10569.86
457.46	10396.66
457.64	10644.76
457.83	10361.55
458.01	10583.90
458.19	10916.26
458.38	10560.50
458.56	10590.92
458.74	10614.33
458.93	10932.64
459.11	10789.87
459.29	10789.87
459.48	10934.98
459.66	10787.53
459.84	10888.17
460.03	10970.09
460.21	11197.12
460.39	11431.18
460.57	11187.76
460.76	11030.94
460.94	11335.21
461.12	11321.17
461.31	11274.36
461.49	11367.98
461.67	11468.62
461.85	11616.08
462.04	11393.73
462.22	11400.75
462.40	11735.45
462.59	11646.51
462.77	11440.54
462.95	11712.04
463.13	11716.72
463.32	11665.23
463.50	11896.94
463.68	11868.86
463.86	11826.73
464.05	11466.28
464.23	12065.46
464.41	12119.29
464.59	11817.36
464.78	12271.43
464.96	12079.50
465.14	11707.36
465.32	12004.61
465.50	12283.13
465.69	12133.34
465.87	12020.99
466.05	12098.23
466.23	12400.16
466.41	12322.92
466.60	12566.34
466.78	12325.26
466.96	12580.38
467.14	12496.12
467.32	12603.78
467.51	12535.91
467.69	12346.33
467.87	12695.07
468.05	12512.50
468.23	12643.57
468.41	12444.63
468.60	12744.22
468.78	12861.24
468.96	13013.38
469.14	12699.75
469.32	12865.92
469.50	12650.60
469.69	12891.67
469.87	13259.13
470.05	13252.11
470.23	13324.67
470.41	13291.90
470.59	13434.68
470.77	13034.44
470.95	13116.36
471.14	13736.60
471.32	13170.19
471.50	13685.11
471.68	13605.53
471.86	13605.53
472.04	13830.23
472.22	13942.57
472.40	13657.03
472.58	14099.39
472.77	14150.88
472.95	14436.42
473.13	14745.38
473.31	14293.65
473.49	14441.11
473.67	14263.22
473.85	14359.19
474.03	14618.99
474.21	14635.37
474.39	14846.02
474.57	14885.81
474.75	14995.81
474.93	15281.36
475.12	15019.22
475.30	15145.61
475.48	15133.90
475.66	15204.12
475.84	15328.17
476.02	15494.35
476.20	15487.32
476.38	15616.05
476.56	16018.63
476.74	16182.46
476.92	15768.19
477.10	15946.07
477.28	16226.93
477.46	16388.43
477.64	16589.72
477.82	16727.81
478.00	17076.55
478.18	17174.85
478.36	16652.91
478.54	17413.59
478.72	17378.48
478.90	17628.92
479.08	17717.86
479.26	17556.36
479.44	17736.58
479.62	17893.40
479.80	18066.60
479.98	18579.17
480.16	18778.12
480.34	18139.15
480.52	18743.01
480.70	18750.03
480.88	18609.60
481.06	18984.09
481.24	18944.30
481.41	19293.04
481.59	19328.14
481.77	19613.69
481.95	19578.58
482.13	19974.13
482.31	19721.35
482.49	20372.02
482.67	20402.45
482.85	20372.02
483.03	20676.29
483.21	20617.78
483.39	21235.68
483.57	21018.01
483.74	21443.99
483.92	21420.58
484.10	21223.98
484.28	21755.28
484.46	22101.68
484.64	22478.50
484.82	21956.57
485.00	22480.85
485.18	22815.54
485.35	23255.56
485.53	23101.09
485.71	23433.44
485.89	23810.27
486.07	23508.34
486.25	23786.86
486.43	24238.59
486.61	24093.47
486.78	24226.89
486.96	24135.60
487.14	24851.81
487.32	24673.93
487.50	25113.95
487.68	25170.12
487.85	25748.23
488.03	25277.79
488.21	25993.99
488.39	25816.11
488.57	26129.74
488.75	26441.03
488.92	26464.44
489.10	27061.27
489.28	26948.93
489.46	27264.90
489.64	27204.05
489.81	27749.39
489.99	27803.22
490.17	27969.40
490.35	28217.50
490.53	28584.96
490.70	28446.87
490.88	28374.31
491.06	29050.73
491.24	29123.29
491.41	29263.72
491.59	29244.99
491.77	29713.10
491.95	30071.20
492.13	30036.09
492.30	30071.20
492.48	29979.92
492.66	30796.77
492.84	30672.72
493.01	30628.25
493.19	30939.54
493.37	31201.68
493.54	31171.25
493.72	31323.39
493.90	31683.83
494.08	31800.86
494.25	31950.65
494.43	32063.00
494.61	32425.78
494.79	32327.48
494.96	32727.71
495.14	32978.15
495.32	33209.86
495.49	33380.72
495.67	33284.76
495.85	33523.49
496.02	34235.02
496.20	33741.16
496.38	34305.23
496.55	33907.34
496.73	34845.90
496.91	34668.02
497.09	35381.88
497.26	35283.58
497.44	35426.35
497.62	35257.83
497.79	36016.16
497.97	35686.15
498.14	35927.22
498.32	36577.89
498.50	36486.61
498.67	37177.07
498.85	36917.27
499.03	36865.78
499.20	37041.32
499.38	37156.00
499.56	37525.81
499.73	37612.41
499.91	37570.28
500.08	37642.84
500.26	37687.31
500.44	37944.76
500.61	37937.74
500.79	38302.87
500.97	38277.12
501.14	38813.10
501.32	38895.02
501.49	38410.53
501.67	39482.50
501.84	39281.21
502.02	39189.93
502.20	39260.15
502.37	39725.91
502.55	39543.35
502.72	40112.10
502.90	39852.30
503.07	39697.83
503.25	39688.46
503.43	39908.47
503.60	40287.64
503.78	40130.83
503.95	40882.14
504.13	40598.93
504.30	41132.57
504.48	40610.64
504.65	41371.31
504.83	41457.91
505.01	41532.81
505.18	41619.41
505.36	41900.27
505.53	41354.93
505.71	41839.42
505.88	41902.61
506.06	41834.74
506.23	42251.35
506.41	41799.63
506.58	42375.40
506.76	42707.76
506.93	42532.22
507.11	42677.33
507.28	42813.08
507.46	43281.19
507.63	43508.22
507.81	43253.10
507.98	42848.19
508.16	43732.91
508.33	43838.23
508.50	43679.08
508.68	43700.14
508.85	44444.43
509.03	44027.82
509.20	44591.89
509.38	44507.63
509.55	44772.11
509.73	44657.42
509.90	45097.44
510.08	44435.07
510.25	45038.93
510.42	44844.66
510.60	45581.93
510.77	45626.40
510.95	45956.42
511.12	45174.68
511.30	45303.41
511.47	45670.87
511.64	46045.36
511.82	46356.65
511.99	46141.32
512.17	46185.79
512.34	46220.90
512.51	46499.42
512.69	46300.48
512.86	46501.76
513.04	46887.95
513.21	46693.69
513.38	46710.07
513.56	47342.02
513.73	47131.37
513.90	47419.25
514.08	47356.06
514.25	47833.53
514.43	47543.30
514.60	47702.46
514.77	47859.27
514.95	48037.16
515.12	47718.84
515.29	47805.44
515.47	48432.71
515.64	48343.77
515.81	48095.67
515.99	48378.87
516.16	48917.20
516.33	48470.15
516.51	49139.55
516.68	48839.96
516.85	48376.53
517.03	49127.84
517.20	49581.91
517.37	48690.16
517.54	48685.48
517.72	49350.20
517.89	49251.89
518.06	49256.57
518.24	49626.38
518.41	49537.44
518.58	50314.50
518.75	49698.94
518.93	50129.59
519.10	49811.28
519.27	49935.33
519.45	49813.62
519.62	50153.00
519.79	50452.59
519.96	50169.38
520.14	50541.53
520.31	50274.71
520.48	50574.30
520.65	50337.90
520.83	51007.29
521.00	51035.38
521.17	51026.02
521.34	50796.65
521.52	51044.74
521.69	51004.95
521.86	51086.87
522.03	51262.41
522.20	51597.11
522.38	51447.32
522.55	51583.07
522.72	51540.94
522.89	51517.53
523.07	51889.68
523.24	51892.02
523.41	51870.95
523.58	51728.18
523.75	52210.33
523.92	52224.37
524.10	52254.80
524.27	52027.77
524.44	52271.18
524.61	52189.27
524.78	52549.71
524.96	52498.22
525.13	52521.62
525.30	52425.66
525.47	52992.07
525.64	52755.68
525.81	53013.13
525.98	52807.17
526.16	52734.61
526.33	52762.70
526.50	53052.92
526.67	52748.65
526.84	53092.71
527.01	52910.15
527.18	53357.19
527.36	52954.62
527.53	53317.40
527.70	53593.59
527.87	53434.43
528.04	53169.95
528.21	53743.38
528.38	53682.53
528.55	53741.04
528.72	53237.83
528.89	53764.45
529.07	53621.67
529.24	53556.14
529.41	53991.48
529.58	53984.46
529.75	54185.74
529.92	54078.08
530.09	53984.46
530.26	54171.70
530.43	54089.78
530.60	53822.96
530.77	53741.04
530.94	54358.94
531.11	54312.13
531.28	54513.42
531.46	54447.88
531.63	54485.33
531.80	54485.33
531.97	54698.32
532.14	54777.90
532.31	54782.58
532.48	54848.11
532.65	55044.72
532.82	54649.17
532.99	54890.24
533.16	54677.25
533.33	55075.15
533.50	55187.49
533.67	55285.79
533.84	54845.77
534.01	55271.75
534.18	55203.88
534.35	55386.44
534.52	55304.52
534.69	55236.64
534.86	55299.84
535.03	55224.94
535.20	55126.64
535.37	55756.24
535.54	55599.43
535.71	55152.38
535.88	55798.37
536.05	55634.53
536.22	55784.33
536.38	55648.58
536.55	55884.97
536.72	55962.21
536.89	55894.33
537.06	55964.55
537.23	55894.33
537.40	55777.31
537.57	55756.24
537.74	55784.33
537.91	56203.28
538.08	56189.24
538.25	55767.94
538.42	56104.98
538.59	56135.41
538.75	55959.87
538.92	56416.27
539.09	56322.65
539.26	56030.08
539.43	56254.78
539.60	56437.34
539.77	56542.66
539.94	56612.88
540.11	56633.94
540.28	56858.63
540.44	56378.82
540.61	56594.15
540.78	56589.47
540.95	56645.65
541.12	56605.86
541.29	56760.33
541.46	56664.37
541.62	56783.74
541.79	56762.67
541.96	56542.66
542.13	56718.20
542.30	57062.26
542.47	56949.92
542.63	56912.47
542.80	56886.72
542.97	57296.31
543.14	57104.39
543.31	57506.96
543.48	57392.28
543.64	57450.79
543.81	57467.17
543.98	57340.78
544.15	57551.43
544.32	57628.67
544.48	57593.56
544.65	57535.05
544.82	57523.35
544.99	57429.72
545.16	57659.10
545.32	57673.14
545.49	57827.62
545.66	58045.29
545.83	57544.41
546.00	57635.69
546.16	57949.32
546.33	57907.19
546.50	57640.37
546.67	57914.22
546.83	57504.62
547.00	57820.59
547.17	57879.11
547.34	58150.61
547.50	58094.44
547.67	58157.63
547.84	58295.72
548.00	58305.09
548.17	58592.97
548.34	58209.12
548.51	58492.33
548.67	58487.65
548.84	58202.10
549.01	58255.93
549.18	58342.53
549.34	58506.37
549.51	58246.57
549.68	58309.77
549.84	58506.37
550.01	58403.39
550.18	58429.13
550.34	58607.01
550.51	58841.07
550.68	58651.48
550.84	58541.48
551.01	58679.57
551.18	58473.60
551.34	58831.71
551.51	58585.95
551.68	58574.25
551.84	58599.99
552.01	58695.95
552.18	58887.88
552.34	58642.12
552.51	58995.54
552.68	58796.60
552.84	58855.11
553.01	58960.44
553.18	58841.07
553.34	58988.52
553.51	58983.84
553.67	58946.39
553.84	59367.69
554.01	59056.40
554.17	59152.36
554.34	59182.79
554.51	59135.98
554.67	59309.18
554.84	59374.71
555.00	59054.06
555.17	59100.87
555.33	59260.02
555.50	59159.38
555.67	59178.10
555.83	59138.32
556.00	59203.85
556.16	59643.87
556.33	59374.71
556.50	59348.96
556.66	59278.75
556.83	59311.52
556.99	59405.14
557.16	59618.13
557.32	59339.60
557.49	59700.04
557.65	59281.09
557.82	59470.67
557.98	59540.89
558.15	59545.57
558.32	59489.40
558.48	59447.27
558.65	59749.20
558.81	59711.75
558.98	59739.83
559.14	59725.79
559.31	59896.65
559.47	59831.11
559.64	59707.07
559.80	59887.29
559.97	59906.01
560.13	59887.29
560.30	59924.74
560.46	59798.35
560.63	59962.18
560.79	59948.14
560.96	59917.71
561.12	60177.51
561.29	60039.42
561.45	59817.07
561.61	59952.82
561.78	59976.23
561.94	59938.78
562.11	59957.50
562.27	59934.10
562.44	60093.25
562.60	60182.19
562.77	60097.94
562.93	59943.46
563.10	60107.30
563.26	59990.27
563.42	60367.10
563.59	60193.90
563.75	60135.38
563.92	60076.87
564.08	60177.51
564.24	60317.95
564.41	60341.35
564.57	60303.90
564.74	60367.10
564.90	60343.69
565.07	60268.79
565.23	60126.02
565.39	60355.39
565.56	60622.22
565.72	60315.61
565.88	60390.50
566.05	60207.94
566.21	60348.37
566.38	60416.25
566.54	60427.95
566.70	60575.40
566.87	60378.80
567.03	60336.67
567.19	60612.85
567.36	60505.19
567.52	60402.21
567.68	60629.24
567.85	60690.09
568.01	60570.72
568.17	60582.43
568.34	60666.69
568.50	60474.76
568.66	60685.41
568.83	60514.55
568.99	60573.06
569.15	60654.98
569.32	60362.42
569.48	60516.89
569.64	60697.11
569.81	60521.57
569.97	60439.65
570.13	60486.46
570.30	60584.77
570.46	60596.47
570.62	60662.00
570.78	60694.77
570.95	60566.04
571.11	60968.61
571.27	60591.79
571.43	60587.11
571.60	60767.33
571.76	60680.73
571.92	60783.71
572.09	60669.03
572.25	60701.79
572.41	60633.92
572.57	60591.79
572.74	61095.00
572.90	60764.99
573.06	60961.59
573.22	60853.93
573.38	60849.25
573.55	60825.84
573.71	60851.59
573.87	60633.92
574.03	60652.64
574.20	61036.49
574.36	60828.18
574.52	60753.29
574.68	60860.95
574.84	60954.57
575.01	61031.81
575.17	60713.50
575.33	60795.42
575.49	60849.25
575.65	60884.36
575.82	60985.00
575.98	60870.31
576.14	61062.24
576.30	60816.48
576.46	60804.78
576.62	60816.48
576.79	60757.97
576.95	60907.76
577.11	60961.59
577.27	61013.08
577.43	61151.18
577.59	60903.08
577.75	60884.36
577.92	60973.30
578.08	60870.31
578.24	60968.61
578.40	61216.71
578.56	61195.65
578.72	61034.15
578.88	61104.37
579.04	61095.00
579.21	61102.03
579.37	61015.43
579.53	61024.79
579.69	60870.31
579.85	60999.04
580.01	61120.75
580.17	61102.03
580.33	60846.91
580.49	61118.41
580.65	61006.06
580.82	61162.88
580.98	60905.42
581.14	60992.02
581.30	61160.54
581.46	61085.64
581.62	61160.54
581.78	61123.09
581.94	61111.39
582.10	61176.92
582.26	60956.91
582.42	61162.88
582.58	60949.89
582.74	60914.78
582.90	61120.75
583.06	61078.62
583.22	61001.38
583.38	61289.27
583.54	60999.04
583.70	61141.81
583.86	61286.93
584.02	61125.43
584.18	61251.82
584.34	61095.00
584.50	61219.05
584.66	61160.54
584.82	60952.23
584.98	61340.76
585.14	61034.15
585.30	61144.16
585.46	61048.19
585.62	61244.80
585.78	61174.58
585.94	61059.90
586.10	61097.34
586.26	61270.54
586.42	61324.38
586.58	61221.39
586.74	61190.97
586.90	61146.50
587.06	61144.16
587.22	61413.32
587.38	61305.65
587.54	61291.61
587.70	61406.30
587.86	61340.76
588.02	61120.75
588.18	61340.76
588.34	61219.05
588.49	61148.84
