SpectraSuite Data File
++++++++++++++++++++++++++++++++++++
Date: Fri Oct 25 11:26:10 EDT 2013
User: price-jones
Dark Spectrum Present: No
Reference Spectrum Present: No
Number of Sampled Component Spectra: 1
Spectrometers: USB2+H05261
Integration Time (usec): 100000 (USB2+H05261)
Spectra Averaged: 1 (USB2+H05261)
Boxcar Smoothing: 0 (USB2+H05261)
Correct for Electrical Dark: No (USB2+H05261)
Strobe/Lamp Enabled: No (USB2+H05261)
Correct for Detector Non-linearity: No (USB2+H05261)
Correct for Stray Light: No (USB2+H05261)
Number of Pixels in Processed Spectrum: 2048
>>>>>Begin Processed Spectral Data<<<<<
365.73	224.69
365.92	224.69
366.12	224.69
366.32	105.32
366.52	63.19
366.72	142.77
366.91	117.03
367.11	191.92
367.31	161.50
367.51	131.07
367.70	154.48
367.90	168.52
368.10	114.69
368.30	154.48
368.49	107.66
368.69	147.45
368.89	203.63
369.09	215.33
369.28	269.16
369.48	189.58
369.68	140.43
369.87	131.07
370.07	269.16
370.27	205.97
370.47	322.99
370.66	531.30
370.86	648.33
371.06	664.71
371.25	660.03
371.45	662.37
371.65	699.82
371.84	699.82
372.04	678.76
372.24	704.50
372.44	826.21
372.63	725.57
372.83	746.63
373.03	816.85
373.22	737.27
373.42	828.55
373.62	727.91
373.81	842.59
374.01	828.55
374.21	739.61
374.40	753.65
374.60	880.04
374.79	819.19
374.99	870.68
375.19	795.78
375.38	812.17
375.58	894.08
375.78	929.19
375.97	994.73
376.17	917.49
376.37	873.02
376.56	908.13
376.76	781.74
376.95	938.55
377.15	821.53
377.35	917.49
377.54	945.58
377.74	880.04
377.93	912.81
378.13	952.60
378.33	945.58
378.52	887.06
378.72	901.11
378.91	889.40
379.11	983.02
379.31	1013.45
379.50	882.38
379.70	985.37
379.89	1013.45
380.09	997.07
380.28	980.68
380.48	943.24
380.68	1046.22
380.87	990.05
381.07	1069.62
381.26	966.64
381.46	1093.03
381.65	1048.56
381.85	1050.90
382.04	1008.77
382.24	1139.84
382.43	1107.07
382.63	1064.94
382.83	1090.69
383.02	1055.58
383.22	1116.44
383.41	1158.57
383.61	1050.90
383.80	1128.14
384.00	1095.37
384.19	1097.71
384.39	1142.18
384.58	1090.69
384.78	1167.93
384.97	1158.57
385.17	1256.87
385.36	1104.73
385.56	1163.25
385.75	1100.05
385.95	1137.50
386.14	1186.65
386.34	1200.69
386.53	1170.27
386.72	1240.48
386.92	1226.44
387.11	1228.78
387.31	1139.84
387.50	1273.25
387.70	1210.06
387.89	1270.91
388.09	1301.34
388.28	1289.64
388.48	1181.97
388.67	1291.98
388.86	1317.72
389.06	1301.34
389.25	1390.28
389.45	1434.75
389.64	1357.51
389.84	1385.60
390.03	1373.89
390.22	1394.96
390.42	1357.51
390.61	1387.94
390.81	1350.49
391.00	1406.66
391.19	1390.28
391.39	1467.52
391.58	1434.75
391.78	1416.02
391.97	1420.71
392.16	1437.09
392.36	1577.52
392.55	1502.62
392.75	1451.13
392.94	1521.35
393.13	1551.78
393.33	1547.09
393.52	1570.50
393.71	1645.40
393.91	1516.67
394.10	1554.12
394.29	1516.67
394.49	1556.46
394.68	1607.95
394.88	1558.80
395.07	1673.48
395.26	1722.63
395.46	1743.70
395.65	1736.68
395.84	1703.91
396.04	1799.87
396.23	1762.42
396.42	1741.36
396.62	1799.87
396.81	1750.72
397.00	1790.51
397.19	1797.53
397.39	1797.53
397.58	1764.76
397.77	1774.13
397.97	1863.07
398.16	1839.66
398.35	1912.22
398.55	1867.75
398.74	1970.73
398.93	2026.90
399.12	1928.60
399.32	1944.99
399.51	2010.52
399.70	2003.50
399.90	1949.67
400.09	1984.77
400.28	2033.93
400.47	2026.90
400.67	2045.63
400.86	2026.90
401.05	1961.37
401.24	2085.42
401.44	2125.21
401.63	2153.29
401.82	2169.68
402.01	2122.87
402.21	2087.76
402.40	2183.72
402.59	2204.78
402.78	2169.68
402.97	2214.15
403.17	2370.96
403.36	2284.36
403.55	2165.00
403.74	2431.82
403.93	2450.54
404.13	2356.92
404.32	2282.02
404.51	2399.05
404.70	2431.82
404.89	2340.54
405.09	2555.86
405.28	2431.82
405.47	2558.21
405.66	2399.05
405.85	2619.06
406.05	2399.05
406.24	2661.19
406.43	2558.21
406.62	2565.23
406.81	2780.56
407.00	2579.27
407.20	2623.74
407.39	2665.87
407.58	2820.35
407.77	2651.83
407.96	2616.72
408.15	2846.09
408.34	2731.41
408.54	2789.92
408.73	2729.06
408.92	2773.53
409.11	2878.86
409.30	2935.03
409.49	2988.86
409.68	2867.16
409.87	2785.24
410.07	2995.89
410.26	3061.42
410.45	3005.25
410.64	2953.76
410.83	3059.08
411.02	3105.89
411.21	3105.89
411.40	3133.98
411.59	3246.32
411.78	3129.30
411.98	3192.49
412.17	3220.58
412.36	3337.60
412.55	3447.61
412.74	3286.11
412.93	3503.78
413.12	3398.46
413.31	3487.40
413.50	3637.19
413.69	3517.83
413.88	3454.63
414.07	3644.21
414.26	3566.98
414.45	3695.71
414.64	3669.96
414.83	3676.98
415.02	3829.12
415.22	3850.18
415.41	3749.54
415.60	3798.69
415.79	3894.65
415.98	3960.19
416.17	4032.74
416.36	4002.32
416.55	3969.55
416.74	4114.66
416.93	4095.94
417.12	4126.36
417.31	4074.87
417.50	4177.86
417.69	4196.58
417.88	4292.54
418.07	4355.74
418.26	4276.16
418.45	4400.21
418.64	4332.33
418.83	4498.51
419.02	4365.10
419.21	4479.79
419.39	4561.70
419.58	4528.94
419.77	4376.80
419.96	4585.11
420.15	4491.49
420.34	4603.83
420.53	4589.79
420.72	4601.49
420.91	4641.28
421.10	4781.71
421.29	4858.95
421.48	4521.92
421.67	4727.88
421.86	4833.21
422.05	4615.54
422.24	4929.17
422.43	4938.53
422.61	4798.10
422.80	4917.47
422.99	4931.51
423.18	5008.75
423.37	5046.20
423.56	4915.12
423.75	4891.72
423.94	5029.81
424.13	4664.69
424.32	4746.61
424.50	4868.31
424.69	5004.07
424.88	4994.70
425.07	4952.57
425.26	4957.25
425.45	4964.28
425.64	4985.34
425.83	5025.13
426.01	5151.52
426.20	4931.51
426.39	5135.14
426.58	4835.55
426.77	5111.73
426.96	5139.82
427.15	5132.79
427.33	5226.42
427.52	5107.05
427.71	5184.29
427.90	5219.39
428.09	5252.16
428.28	5273.23
428.46	5308.34
428.65	5308.34
428.84	5348.12
429.03	5523.66
429.22	5334.08
429.40	5401.96
429.59	5378.55
429.78	5320.04
429.97	5224.08
430.16	5523.66
430.34	5624.31
430.53	5673.46
430.72	5558.77
430.91	5537.71
431.10	5671.12
431.28	5809.21
431.47	5757.72
431.66	5687.50
431.85	5832.62
432.03	5858.36
432.22	5905.17
432.41	5809.21
432.60	5806.87
432.79	5872.40
432.97	5919.21
433.16	6052.63
433.35	5865.38
433.54	6038.58
433.72	6052.63
433.91	6045.60
434.10	6260.93
434.28	6024.54
434.47	6214.12
434.66	6244.55
434.85	6310.08
435.03	6237.53
435.22	6399.02
435.41	6424.77
435.59	6420.09
435.78	6375.62
435.97	6499.67
436.16	6319.45
436.34	6487.96
436.53	6424.77
436.72	6672.87
436.90	6420.09
437.09	6656.48
437.28	6434.13
437.46	6597.97
437.65	6534.78
437.84	6878.83
438.02	6717.34
438.21	6773.51
438.40	6642.44
438.58	6857.77
438.77	6951.39
438.96	6883.52
439.14	7145.66
439.33	7213.53
439.52	7119.91
439.70	7082.46
439.89	7311.83
440.08	7297.79
440.26	7293.11
440.45	7515.46
440.63	7321.20
440.82	7672.28
441.01	7513.12
441.19	7648.87
441.38	7714.41
441.57	7763.56
441.75	7676.96
441.94	7967.18
442.12	7969.52
442.31	8042.08
442.50	8140.38
442.68	7786.96
442.87	8018.68
443.05	8149.75
443.24	8070.17
443.43	8074.85
443.61	8194.22
443.80	8152.09
443.98	7932.08
444.17	7798.66
444.35	8231.66
444.54	8234.00
444.73	8388.48
444.91	8276.13
445.10	8241.03
445.28	8336.99
445.47	8124.00
445.65	8329.97
445.84	8334.65
446.02	8374.44
446.21	8318.26
446.39	8336.99
446.58	8512.53
446.77	8606.15
446.95	8219.96
447.14	8215.28
447.32	8393.16
447.51	8482.10
447.69	8294.86
447.88	8463.38
448.06	8514.87
448.25	8512.53
448.43	8575.72
448.62	8793.39
448.80	8571.04
448.99	8702.11
449.17	8800.41
449.36	8465.72
449.54	8748.92
449.73	8908.08
449.91	8957.23
450.10	8987.66
450.28	9067.24
450.46	9048.51
450.65	8884.67
450.83	9001.70
451.02	8957.23
451.20	9095.32
451.39	9114.05
451.57	9062.55
451.76	9146.81
451.94	9289.59
452.13	9415.98
452.31	9165.54
452.49	9083.62
452.68	9303.63
452.86	9317.67
453.05	9366.82
453.23	9598.54
453.42	9305.97
453.60	9404.27
453.78	9516.62
453.97	9448.74
454.15	9502.58
454.34	9432.36
454.52	9523.64
454.70	9753.01
454.89	9652.37
455.07	9572.79
455.26	9757.69
455.44	9816.21
455.62	9671.09
455.81	10038.56
455.99	9982.38
456.17	10043.24
456.36	10097.07
456.54	10143.88
456.73	10267.93
456.91	10384.96
457.09	10211.76
457.28	10630.71
457.46	10078.35
457.64	10239.84
457.83	10450.49
458.01	10319.42
458.19	10689.23
458.38	10562.84
458.56	10710.29
458.74	10773.49
458.93	10633.05
459.11	10724.33
459.29	10565.18
459.48	10803.91
459.66	10892.85
459.84	10766.46
460.03	11110.52
460.21	11105.84
460.39	10932.64
460.57	11164.36
460.76	11066.05
460.94	11169.04
461.12	11274.36
461.31	11162.01
461.49	11143.29
461.67	11103.50
461.85	11403.09
462.04	11265.00
462.22	11756.51
462.40	11758.85
462.59	11375.00
462.77	11487.35
462.95	11723.74
463.13	11522.46
463.32	11751.83
463.50	11562.25
463.68	11730.76
463.86	11943.75
464.05	11744.81
464.23	11770.55
464.41	11744.81
464.59	11686.29
464.78	11943.75
464.96	12177.81
465.14	12135.68
465.32	11995.25
465.50	12161.42
465.69	12149.72
465.87	12395.48
466.05	12081.85
466.23	12114.61
466.41	12114.61
466.60	12566.34
466.78	12105.25
466.96	12196.53
467.14	12198.87
467.32	12432.93
467.51	12589.74
467.69	12159.08
467.87	12521.87
468.05	12552.29
468.23	12299.52
468.41	12545.27
468.60	12528.89
468.78	12760.60
468.96	12540.59
469.14	12772.30
469.32	12896.35
469.50	12613.15
469.69	12982.95
469.87	13249.77
470.05	13074.23
470.23	13198.28
470.41	13350.42
470.59	13212.32
470.77	13144.45
470.95	13184.24
471.14	13305.95
471.32	13076.57
471.50	13401.91
471.68	13628.94
471.86	13614.90
472.04	13898.10
472.22	13790.44
472.40	13745.97
472.58	13811.50
472.77	14134.50
472.95	14188.33
473.13	14544.09
473.31	13921.51
473.49	13991.72
473.67	14094.71
473.85	13965.98
474.03	14724.31
474.21	14583.88
474.39	14508.98
474.57	14736.01
474.75	14841.34
474.93	15054.33
475.12	14689.20
475.30	15194.76
475.48	15094.11
475.66	15061.35
475.84	15049.64
476.02	15438.17
476.20	15321.15
476.38	15660.52
476.56	15716.70
476.74	16049.05
476.92	15723.72
477.10	15747.12
477.28	16168.42
477.46	16027.99
477.64	16224.59
477.82	16559.29
478.00	16994.63
478.18	16779.30
478.36	16886.97
478.54	17027.40
478.72	17128.04
478.90	17205.28
479.08	17598.49
479.26	17474.44
479.44	17528.27
479.62	17947.23
479.80	17848.93
479.98	17888.71
480.16	18555.77
480.34	18401.29
480.52	18738.33
480.70	18637.69
480.88	18530.02
481.06	18494.91
481.24	18633.00
481.41	19030.90
481.59	19494.32
481.77	19414.74
481.95	19288.35
482.13	19960.09
482.31	19578.58
482.49	20402.45
482.67	20257.34
482.85	20622.46
483.03	20531.18
483.21	20842.47
483.39	20954.82
483.57	20685.65
483.74	21081.21
483.92	21123.33
484.10	21247.38
484.28	21816.13
484.46	21965.93
484.64	22368.50
484.82	21799.75
485.00	22171.89
485.18	22658.73
485.35	22965.34
485.53	22918.53
485.71	23063.64
485.89	23477.91
486.07	23309.40
486.25	23281.31
486.43	23374.93
486.61	23779.84
486.78	24201.14
486.96	24266.67
487.14	24919.68
487.32	24886.92
487.50	24751.17
487.68	25097.56
487.85	25062.46
488.03	25563.33
488.21	26059.52
488.39	25649.93
488.57	26148.46
488.75	26153.15
488.92	26583.80
489.10	26377.84
489.28	26684.45
489.46	27346.82
489.64	27241.50
489.81	27534.06
489.99	27730.67
490.17	27456.82
490.35	28191.75
490.53	28058.34
490.70	28093.45
490.88	28189.41
491.06	28716.03
491.24	28671.56
491.41	29149.03
491.59	29202.86
491.77	29488.41
491.95	29331.59
492.13	29675.65
492.30	29518.84
492.48	30209.29
492.66	30005.67
492.84	30508.88
493.01	30593.14
493.19	30686.76
493.37	30939.54
493.54	30998.06
493.72	31204.02
493.90	31421.69
494.08	31466.16
494.25	32055.98
494.43	32070.02
494.61	32100.45
494.79	32383.65
494.96	32662.18
495.14	32692.60
495.32	32840.06
495.49	33237.95
495.67	33064.75
495.85	33439.23
496.02	33771.59
496.20	33876.91
496.38	33900.32
496.55	33968.19
496.73	34810.79
496.91	34277.15
497.09	34625.89
497.26	35049.52
497.44	34714.83
497.62	35110.38
497.79	35873.39
497.97	35522.31
498.14	35962.33
498.32	36058.29
498.50	36102.76
498.67	36458.52
498.85	36243.20
499.03	36655.13
499.20	36449.16
499.38	36467.89
499.56	36896.20
499.73	37280.05
499.91	37116.22
500.08	37642.84
500.26	36751.09
500.44	37385.38
500.61	37638.15
500.79	37457.93
500.97	38043.07
501.14	38291.16
501.32	38553.30
501.49	38562.67
501.67	38326.27
501.84	38665.65
502.02	39433.35
502.20	39349.09
502.37	39306.96
502.55	39056.52
502.72	39435.69
502.90	39454.41
503.07	39639.31
503.25	39732.93
503.43	39686.12
503.60	40018.48
503.78	39849.96
503.95	40388.28
504.13	40659.79
504.30	40556.80
504.48	40306.37
504.65	40311.05
504.83	40847.03
505.01	41095.13
505.18	41022.57
505.36	41261.30
505.53	41308.11
505.71	41429.82
505.88	41820.69
506.06	41329.18
506.23	42094.53
506.41	41799.63
506.58	42012.62
506.76	41944.74
506.93	42057.09
507.11	42370.72
507.28	42483.06
507.46	42850.53
507.63	43000.32
507.81	43124.37
507.98	42932.45
508.16	43278.85
508.33	43400.55
508.50	43323.32
508.68	42880.95
508.85	43756.32
509.03	43452.05
509.20	44079.31
509.38	44329.75
509.55	44439.75
509.73	44715.93
509.90	44453.79
510.08	44404.64
510.25	44320.38
510.42	44797.85
510.60	44889.13
510.77	45212.13
510.95	45467.25
511.12	45036.59
511.30	45090.42
511.47	45165.32
511.64	45099.78
511.82	46094.51
511.99	45914.29
512.17	45949.40
512.34	45481.29
512.51	46354.31
512.69	46358.99
512.86	45731.73
513.04	46600.07
513.21	46321.54
513.38	46843.48
513.56	46625.81
513.73	46803.69
513.90	46909.02
514.08	47119.66
514.25	47007.32
514.43	46925.40
514.60	47206.26
514.77	47178.18
514.95	47576.07
515.12	47250.74
515.29	47222.65
515.47	47814.80
515.64	47952.90
515.81	47854.59
515.99	47620.54
516.16	48226.74
516.33	47992.68
516.51	48629.31
516.68	48151.84
516.85	48093.33
517.03	48739.32
517.20	48753.36
517.37	48542.71
517.54	48830.60
517.72	48767.40
517.89	48594.20
518.06	48835.28
518.24	49228.49
518.41	49174.66
518.58	48854.00
518.75	49310.41
518.93	49591.27
519.10	49481.27
519.27	49757.45
519.45	49375.94
519.62	49825.32
519.79	49954.05
519.96	49932.99
520.14	49954.05
520.31	49822.98
520.48	50485.36
520.65	50473.65
520.83	50286.41
521.00	50557.91
521.17	50396.42
521.34	50583.66
521.52	50796.65
521.69	50873.88
521.86	50838.78
522.03	50979.21
522.20	51217.94
522.38	51210.92
522.55	51320.93
522.72	51313.90
522.89	51274.12
523.07	51730.52
523.24	51246.03
523.41	51592.43
523.58	51112.62
523.75	51606.47
523.92	51503.49
524.10	51899.04
524.27	51847.55
524.44	51880.31
524.61	52121.39
524.78	52243.10
524.96	52182.24
525.13	52048.83
525.30	52479.49
525.47	52601.20
525.64	52449.06
525.81	52081.60
525.98	52671.42
526.16	52552.05
526.33	52383.53
526.50	53090.37
526.67	52643.33
526.84	52961.64
527.01	52633.97
527.18	52500.56
527.36	52729.93
527.53	52926.53
527.70	53382.94
527.87	53123.14
528.04	53144.20
528.21	53242.51
528.38	53258.89
528.55	53324.43
528.72	53216.76
528.89	53130.16
529.07	53518.69
529.24	53162.93
529.41	53574.86
529.58	53635.72
529.75	53631.04
529.92	53881.47
530.09	53673.16
530.26	53666.14
530.43	53949.35
530.60	53490.60
530.77	53778.49
530.94	54129.57
531.11	54026.59
531.28	53975.09
531.46	54052.33
531.63	54049.99
531.80	54197.44
531.97	54387.03
532.14	54220.85
532.31	54190.42
532.48	54471.29
532.65	54637.47
532.82	54518.10
532.99	54307.45
533.16	54630.44
533.33	54585.97
533.50	54983.86
533.67	54974.50
533.84	54333.20
534.01	54635.13
534.18	54787.26
534.35	54885.56
534.52	54948.76
534.69	54990.89
534.86	55136.00
535.03	54829.39
535.20	54939.39
535.37	55339.63
535.54	55402.82
535.71	55285.79
535.88	55276.43
536.05	55213.24
536.22	55419.20
536.38	55423.89
536.55	55604.11
536.72	55400.48
536.89	55356.01
537.06	55866.25
537.23	55489.42
537.40	55711.77
537.57	55613.47
537.74	55796.03
537.91	55826.46
538.08	55957.53
538.25	55442.61
538.42	55913.06
538.59	55877.95
538.75	55533.89
538.92	55985.61
539.09	55999.66
539.26	56055.83
539.43	56165.84
539.60	56189.24
539.77	56196.26
539.94	56582.45
540.11	56273.50
540.28	56364.78
540.44	56399.89
540.61	56243.07
540.78	56280.52
540.95	56376.48
541.12	56247.75
541.29	56388.19
541.46	56563.73
541.62	56573.09
541.79	56591.81
541.96	56193.92
542.13	56427.98
542.30	56530.96
542.47	56790.76
542.63	56765.01
542.80	56676.07
542.97	57041.20
543.14	57226.10
543.31	57034.17
543.48	56905.44
543.64	57176.95
543.81	57516.32
543.98	57345.47
544.15	57244.82
544.32	57406.32
544.48	57490.58
544.65	57134.82
544.82	57443.77
544.99	57219.08
545.16	57343.12
545.32	57392.28
545.49	57633.35
545.66	57682.50
545.83	57504.62
546.00	57586.54
546.16	57556.11
546.33	57701.23
546.50	57366.53
546.67	57614.63
546.83	57268.23
547.00	57689.52
547.17	57558.45
547.34	57762.08
547.50	58038.26
547.67	58103.80
547.84	57895.49
548.00	57886.13
548.17	58045.29
548.34	58087.42
548.51	58190.40
548.67	58080.39
548.84	58281.68
549.01	57972.73
549.18	57939.96
549.34	58190.40
549.51	58183.38
549.68	58384.66
549.84	58258.27
550.01	58190.40
550.18	58239.55
550.34	58293.38
550.51	58450.20
550.68	58520.41
550.84	58152.95
551.01	58457.22
551.18	58557.86
551.34	58478.28
551.51	58555.52
551.68	58585.95
551.84	58504.03
552.01	58321.47
552.18	58717.02
552.34	58351.90
552.51	58557.86
552.68	58321.47
552.84	58417.43
553.01	58810.64
553.18	58585.95
553.34	58667.87
553.51	58820.00
553.67	58880.86
553.84	58972.14
554.01	58836.39
554.17	58965.12
554.34	58906.60
554.51	58983.84
554.67	59002.56
554.84	58937.03
555.00	58756.81
555.17	58731.06
555.33	58958.09
555.50	58829.37
555.67	58836.39
555.83	58993.20
556.00	59030.65
556.16	59299.81
556.33	59253.00
556.50	59161.72
556.66	59035.33
556.83	59121.93
556.99	59185.13
557.16	59341.94
557.32	59412.16
557.49	59545.57
557.65	59199.17
557.82	59384.07
557.98	59274.07
558.15	59461.31
558.32	59580.68
558.48	59245.98
558.65	59391.09
558.81	59444.93
558.98	59458.97
559.14	59505.78
559.31	59449.61
559.47	59646.21
559.64	59447.27
559.80	59772.60
559.97	59550.25
560.13	59536.21
560.30	59543.23
560.46	59718.77
560.63	59620.47
560.79	59641.53
560.96	59866.22
561.12	59721.11
561.29	59709.41
561.45	59594.72
561.61	59812.39
561.78	59688.34
561.94	59601.74
562.11	59770.26
562.27	59653.23
562.44	59955.16
562.60	60062.83
562.77	59966.87
562.93	59643.87
563.10	60062.83
563.26	59796.01
563.42	60083.89
563.59	60156.45
563.75	59908.35
563.92	59943.46
564.08	59903.67
564.24	59924.74
564.41	60107.30
564.57	60044.10
564.74	60025.38
564.90	60018.36
565.07	59845.16
565.23	60062.83
565.39	60172.83
565.56	60051.12
565.72	60102.62
565.88	59990.27
566.05	60013.68
566.21	60048.78
566.38	60144.75
566.54	60334.33
566.70	60296.88
566.87	60336.67
567.03	60126.02
567.19	60507.53
567.36	60388.16
567.52	60158.79
567.68	60350.71
567.85	60186.88
568.01	60360.08
568.17	60182.19
568.34	60399.86
568.50	60327.31
568.66	60250.07
568.83	60449.02
568.99	60261.77
569.15	60327.31
569.32	60364.76
569.48	60217.30
569.64	60460.72
569.81	60570.72
569.97	60266.45
570.13	60556.68
570.30	60303.90
570.46	60437.31
570.62	60388.16
570.78	60376.46
570.95	60505.19
571.11	60523.91
571.27	60446.68
571.43	60542.64
571.60	60671.37
571.76	60406.89
571.92	60540.30
572.09	60413.91
572.25	60678.39
572.41	60516.89
572.57	60430.29
572.74	60697.11
572.90	60378.80
573.06	60582.43
573.22	60491.15
573.38	60608.17
573.55	60603.49
573.71	60699.45
573.87	60772.01
574.03	60441.99
574.20	60699.45
574.36	60502.85
574.52	60729.88
574.68	60748.60
574.84	60734.56
575.01	60521.57
575.17	60699.45
575.33	60636.26
575.49	60491.15
575.65	60830.52
575.82	60825.84
575.98	60931.17
576.14	60762.65
576.30	60804.78
576.46	60722.86
576.62	60617.53
576.79	60722.86
576.95	60505.19
577.11	60708.82
577.27	60809.46
577.43	60732.22
577.59	60750.94
577.75	60669.03
577.92	60584.77
578.08	60743.92
578.24	60814.14
578.40	61141.81
578.56	60910.10
578.72	60779.03
578.88	60846.91
579.04	60837.54
579.21	60746.26
579.37	60912.44
579.53	60949.89
579.69	60596.47
579.85	60533.28
580.01	60720.52
580.17	60622.22
580.33	60739.24
580.49	60940.53
580.65	60832.86
580.82	60839.89
580.98	60807.12
581.14	60601.15
581.30	60912.44
581.46	60640.94
581.62	60818.82
581.78	60523.91
581.94	60945.21
582.10	60706.47
582.26	60694.77
582.42	60809.46
582.58	60807.12
582.74	61017.77
582.90	60945.21
583.06	60786.05
583.22	60809.46
583.38	61059.90
583.54	60956.91
583.70	60942.87
583.86	60935.85
584.02	60795.42
584.18	60982.66
584.34	60734.56
584.50	60970.96
584.66	60654.98
584.82	60793.07
584.98	61003.72
585.14	60949.89
585.30	60870.31
585.46	60851.59
585.62	60982.66
585.78	61195.65
585.94	60706.47
586.10	61045.85
586.26	60989.68
586.42	60926.49
586.58	60999.04
586.74	60886.70
586.90	60926.49
587.06	61059.90
587.22	61109.05
587.38	60832.86
587.54	60928.83
587.70	61214.37
587.86	61015.43
588.02	61134.79
588.18	61052.87
588.34	60989.68
588.49	60874.99
