SpectraSuite Data File
++++++++++++++++++++++++++++++++++++
Date: Fri Oct 25 11:22:57 EDT 2013
User: price-jones
Dark Spectrum Present: No
Reference Spectrum Present: No
Number of Sampled Component Spectra: 1
Spectrometers: USB2+H05261
Integration Time (usec): 100000 (USB2+H05261)
Spectra Averaged: 1 (USB2+H05261)
Boxcar Smoothing: 0 (USB2+H05261)
Correct for Electrical Dark: No (USB2+H05261)
Strobe/Lamp Enabled: No (USB2+H05261)
Correct for Detector Non-linearity: No (USB2+H05261)
Correct for Stray Light: No (USB2+H05261)
Number of Pixels in Processed Spectrum: 2048
>>>>>Begin Processed Spectral Data<<<<<
365.73	215.33
365.92	215.33
366.12	215.33
366.32	168.52
366.52	112.35
366.72	117.03
366.91	145.11
367.11	196.60
367.31	142.77
367.51	86.60
367.70	70.22
367.90	208.31
368.10	177.88
368.30	145.11
368.49	114.69
368.69	72.56
368.89	173.20
369.09	154.48
369.28	124.05
369.48	152.13
369.68	159.16
369.87	220.01
370.07	198.95
370.27	191.92
370.47	388.53
370.66	561.73
370.86	587.47
371.06	676.41
371.25	732.59
371.45	629.60
371.65	627.26
371.84	760.67
372.04	711.52
372.24	638.97
372.44	678.76
372.63	781.74
372.83	741.95
373.03	763.01
373.22	709.18
373.42	706.84
373.62	793.44
373.81	779.40
374.01	837.91
374.21	826.21
374.40	826.21
374.60	786.42
374.79	807.48
374.99	830.89
375.19	807.48
375.38	798.12
375.58	875.36
375.78	807.48
375.97	861.32
376.17	877.70
376.37	866.00
376.56	802.80
376.76	821.53
376.95	847.27
377.15	868.34
377.35	938.55
377.54	882.38
377.74	952.60
377.93	861.32
378.13	910.47
378.33	1018.13
378.52	840.25
378.72	973.66
378.91	980.68
379.11	957.28
379.31	873.02
379.50	840.25
379.70	957.28
379.89	896.43
380.09	985.37
380.28	943.24
380.48	971.32
380.68	929.19
380.87	1006.43
381.07	973.66
381.26	1074.31
381.46	943.24
381.65	1139.84
381.85	1013.45
382.04	1078.99
382.24	966.64
382.43	1053.24
382.63	1102.39
382.83	1184.31
383.02	1029.84
383.22	1062.60
383.41	1043.88
383.61	1081.33
383.80	1097.71
384.00	1057.92
384.19	1181.97
384.39	1074.31
384.58	1158.57
384.78	1196.01
384.97	1156.22
385.17	1172.61
385.36	1181.97
385.56	1167.93
385.75	1149.20
385.95	1167.93
386.14	1184.31
386.34	1210.06
386.53	1137.50
386.72	1170.27
386.92	1193.67
387.11	1170.27
387.31	1238.14
387.50	1238.14
387.70	1270.91
387.89	1249.85
388.09	1263.89
388.28	1261.55
388.48	1299.00
388.67	1348.15
388.86	1266.23
389.06	1317.72
389.25	1301.34
389.45	1287.29
389.64	1282.61
389.84	1362.19
390.03	1308.36
390.22	1528.37
390.42	1378.58
390.61	1404.32
390.81	1371.55
391.00	1308.36
391.19	1444.11
391.39	1413.68
391.58	1397.30
391.78	1434.75
391.97	1437.09
392.16	1467.52
392.36	1629.01
392.55	1577.52
392.75	1530.71
392.94	1547.09
393.13	1584.54
393.33	1558.80
393.52	1603.27
393.71	1544.75
393.91	1612.63
394.10	1549.43
394.29	1675.82
394.49	1579.86
394.68	1696.89
394.88	1586.88
395.07	1675.82
395.26	1771.79
395.46	1661.78
395.65	1739.02
395.84	1675.82
396.04	1755.40
396.23	1795.19
396.42	1736.68
396.62	1799.87
396.81	1846.68
397.00	1743.70
397.19	1851.36
397.39	1809.23
397.58	1849.02
397.77	1736.68
397.97	1935.62
398.16	1872.43
398.35	1877.11
398.55	1898.17
398.74	1902.86
398.93	1975.41
399.12	1916.90
399.32	1933.28
399.51	1916.90
399.70	1940.30
399.90	1961.37
400.09	2078.40
400.28	2078.40
400.47	2015.20
400.67	2125.21
400.86	2087.76
401.05	2033.93
401.24	2101.80
401.44	2087.76
401.63	2059.67
401.82	2160.31
402.01	2155.63
402.21	2242.23
402.40	2221.17
402.59	2179.04
402.78	2237.55
402.97	2211.81
403.17	2291.38
403.36	2230.53
403.55	2321.81
403.74	2410.75
403.93	2312.45
404.13	2392.03
404.32	2265.64
404.51	2389.69
404.70	2317.13
404.89	2387.35
405.09	2450.54
405.28	2469.27
405.47	2516.08
405.66	2483.31
405.85	2504.37
406.05	2525.44
406.24	2511.39
406.43	2605.02
406.62	2705.66
406.81	2649.49
407.00	2647.15
407.20	2665.87
407.39	2679.91
407.58	2775.88
407.77	2808.64
407.96	2672.89
408.15	2775.88
408.34	2757.15
408.54	2935.03
408.73	2829.71
408.92	2789.92
409.11	2937.37
409.30	2883.54
409.49	2892.90
409.68	2967.80
409.87	2953.76
410.07	2944.39
410.26	3021.63
410.45	3007.59
410.64	2953.76
410.83	3056.74
411.02	3129.30
411.21	3138.66
411.40	3176.11
411.59	3279.09
411.78	3248.66
411.98	3246.32
412.17	3300.16
412.36	3321.22
412.55	3363.35
412.74	3445.27
412.93	3531.87
413.12	3393.78
413.31	3543.57
413.50	3431.23
413.69	3456.97
413.88	3581.02
414.07	3588.04
414.26	3641.87
414.45	3712.09
414.64	3637.19
414.83	3808.05
415.02	3733.15
415.22	3789.33
415.41	3885.29
415.60	3911.04
415.79	3941.46
415.98	4044.45
416.17	4007.00
416.36	4004.66
416.55	4051.47
416.74	4067.85
416.93	4053.81
417.12	4175.52
417.31	4224.67
417.50	4194.24
417.69	4325.31
417.88	4348.72
418.07	4306.59
418.26	4234.03
418.45	4325.31
418.64	4489.15
418.83	4519.57
419.02	4458.72
419.21	4578.09
419.39	4531.28
419.58	4486.81
419.77	4418.93
419.96	4505.53
420.15	4622.56
420.34	4606.17
420.53	4641.28
420.72	4734.90
420.91	4807.46
421.10	4772.35
421.29	4697.46
421.48	4737.24
421.67	4833.21
421.86	4903.42
422.05	4903.42
422.24	4779.37
422.43	5043.85
422.61	4868.31
422.80	5029.81
422.99	5102.37
423.18	5011.09
423.37	5020.45
423.56	5018.11
423.75	4880.02
423.94	4828.53
424.13	4617.88
424.32	4732.56
424.50	5062.58
424.69	4873.00
424.88	5069.60
425.07	4905.76
425.26	4983.00
425.45	5043.85
425.64	4961.94
425.83	5093.01
426.01	5114.07
426.20	5256.84
426.39	5174.92
426.58	5111.73
426.77	5039.17
426.96	5263.86
427.15	5231.10
427.33	5266.21
427.52	5235.78
427.71	5446.43
427.90	5170.24
428.09	5404.30
428.28	5277.91
428.46	5423.02
428.65	5322.38
428.84	5605.58
429.03	5626.65
429.22	5434.72
429.40	5528.35
429.59	5551.75
429.78	5296.63
429.97	5287.27
430.16	5516.64
430.34	5675.80
430.53	5706.23
430.72	5671.12
430.91	5666.44
431.10	5554.09
431.28	5867.72
431.47	5652.39
431.66	5856.02
431.85	5753.04
432.03	5970.71
432.22	6136.88
432.41	5841.98
432.60	5989.43
432.79	5973.05
432.97	6031.56
433.16	6099.44
433.35	5872.40
433.54	6122.84
433.72	6356.90
433.91	6087.73
434.10	6223.48
434.28	6052.63
434.47	6207.10
434.66	6377.96
434.85	6221.14
435.03	6307.74
435.22	6363.92
435.41	6483.28
435.59	6321.79
435.78	6560.52
435.97	6532.44
436.16	6478.60
436.34	6436.47
436.53	6565.20
436.72	6658.82
436.90	6520.73
437.09	6696.27
437.28	6588.61
437.46	6677.55
437.65	6647.12
437.84	6825.00
438.02	6717.34
438.21	6862.45
438.40	6913.94
438.58	6988.84
438.77	7115.23
438.96	7138.63
439.14	7173.74
439.33	7225.23
439.52	7297.79
439.70	7318.86
439.89	7365.67
440.08	7480.35
440.26	7459.29
440.45	7424.18
440.63	7548.23
440.82	7674.62
441.01	7716.75
441.19	7672.28
441.38	7709.72
441.57	7793.98
441.75	7885.26
441.94	7988.25
442.12	8156.77
442.31	8093.57
442.50	8102.93
442.68	8013.99
442.87	8334.65
443.05	8116.98
443.24	8292.52
443.43	8308.90
443.61	8458.70
443.80	8276.13
443.98	8091.23
444.17	7943.78
444.35	8238.69
444.54	8564.02
444.73	8278.47
444.91	8318.26
445.10	8404.86
445.28	8322.94
445.47	8332.31
445.65	8503.17
445.84	8585.08
446.02	8613.17
446.21	8636.58
446.39	8435.29
446.58	8564.02
446.77	8561.68
446.95	8341.67
447.14	8362.73
447.32	8505.51
447.51	8479.76
447.69	8624.87
447.88	8781.69
448.06	8519.55
448.25	8500.83
448.43	8711.47
448.62	8547.64
448.80	8758.28
448.99	8795.73
449.17	8767.65
449.36	8713.81
449.54	8805.10
449.73	8952.55
449.91	9212.35
450.10	8959.57
450.28	9259.16
450.46	9043.83
450.65	9114.05
450.83	8952.55
451.02	9181.92
451.20	9242.78
451.39	9359.80
451.57	9188.94
451.76	9275.54
451.94	9411.29
452.13	9420.66
452.31	9373.85
452.49	9170.22
452.68	9525.98
452.86	9226.39
453.05	9673.43
453.23	9612.58
453.42	9378.53
453.60	9331.72
453.78	9385.55
453.97	9591.52
454.15	9628.96
454.34	9556.41
454.52	9769.40
454.70	9635.99
454.89	9715.56
455.07	9879.40
455.26	9848.97
455.44	10150.90
455.62	10015.15
455.81	9968.34
455.99	10286.65
456.17	10211.76
456.36	10193.03
456.54	10321.76
456.73	10286.65
456.91	10335.81
457.09	10466.88
457.28	10548.79
457.46	10354.53
457.64	10670.50
457.83	10466.88
458.01	10511.35
458.19	10644.76
458.38	10647.10
458.56	10642.42
458.74	10803.91
458.93	10862.43
459.11	10696.25
459.29	10878.81
459.48	11075.42
459.66	10902.22
459.84	10843.70
460.03	11009.88
460.21	11265.00
460.39	11164.36
460.57	11126.91
460.76	11239.25
460.94	11152.65
461.12	11206.48
461.31	11253.30
461.49	11276.70
461.67	11435.86
461.85	11433.52
462.04	11545.86
462.22	11543.52
462.40	11693.32
462.59	11637.14
462.77	11531.82
462.95	11983.54
463.13	11557.57
463.32	11653.53
463.50	11857.15
463.68	11910.99
463.86	12095.89
464.05	11592.67
464.23	11906.31
464.41	12077.16
464.59	11824.39
464.78	12224.62
464.96	12271.43
465.14	11903.96
465.32	12032.69
465.50	12306.54
465.69	12404.84
465.87	12472.71
466.05	12402.50
466.23	12208.23
466.41	12381.43
466.60	12407.18
466.78	12304.20
466.96	12329.94
467.14	12386.12
467.32	12465.69
467.51	12479.74
467.69	12306.54
467.87	12475.06
468.05	12571.02
468.23	12538.25
468.41	12475.06
468.60	12561.66
468.78	12748.90
468.96	12762.94
469.14	12996.99
469.32	13041.46
469.50	12655.28
469.69	13114.02
469.87	13198.28
470.05	13214.66
470.23	13504.89
470.41	13107.00
470.59	13261.48
470.77	13294.24
470.95	13394.89
471.14	13795.12
471.32	13233.39
471.50	13671.07
471.68	13914.48
471.86	13720.22
472.04	13640.64
472.22	14078.32
472.40	13837.25
472.58	13954.27
472.77	14115.77
472.95	14118.11
473.13	14794.53
473.31	14340.46
473.49	14193.01
473.67	13825.54
473.85	14286.63
474.03	14530.05
474.21	14555.79
474.39	14801.55
474.57	14855.38
474.75	14890.49
474.93	15023.90
475.12	15164.33
475.30	15297.74
475.48	15054.33
475.66	15609.03
475.84	15473.28
476.02	15609.03
476.20	15583.29
476.38	15976.50
476.56	15983.52
476.74	16231.62
476.92	16081.82
477.10	15953.09
477.28	16259.70
477.46	16673.98
477.64	16685.68
477.82	16664.61
478.00	17006.33
478.18	16992.29
478.36	17109.32
478.54	17259.11
478.72	17310.60
478.90	17458.06
479.08	17750.62
479.26	17989.36
479.44	18017.44
479.62	18153.20
479.80	18347.46
479.98	18431.72
480.16	18956.00
480.34	18469.17
480.52	18862.38
480.70	18693.86
480.88	18429.38
481.06	18738.33
481.24	19159.63
481.41	19218.14
481.59	19756.46
481.77	19555.18
481.95	19601.99
482.13	20009.24
482.31	20126.27
482.49	20606.08
482.67	20329.89
482.85	20519.48
483.03	20709.06
483.21	20863.54
483.39	21418.24
483.57	21137.38
483.74	21312.92
483.92	21699.11
484.10	21425.26
484.28	22031.46
484.46	21982.31
484.64	22651.70
484.82	22136.79
485.00	22340.41
485.18	22878.74
485.35	23047.26
485.53	23199.39
485.71	23236.84
485.89	23517.70
486.07	23508.34
486.25	23503.66
486.43	24308.80
486.61	24072.41
486.78	24011.56
486.96	24322.85
487.14	24982.88
487.32	24882.24
487.50	25120.97
487.68	25046.07
487.85	25736.53
488.03	25757.60
488.21	26162.51
488.39	26031.44
488.57	26066.55
488.75	26611.89
488.92	26604.87
489.10	27138.51
489.28	27065.96
489.46	27356.18
489.64	27250.86
489.81	27924.93
489.99	28240.90
490.17	28194.09
490.35	28500.70
490.53	28470.28
490.70	28467.94
490.88	28650.50
491.06	29134.99
491.24	29057.75
491.41	29296.49
491.59	29326.91
491.77	29439.26
491.95	29823.11
492.13	30242.06
492.30	30148.44
492.48	30148.44
492.66	30862.30
492.84	30841.24
493.01	31243.81
493.19	30869.33
493.37	31496.59
493.54	31594.89
493.72	31723.62
493.90	31646.38
494.08	32123.85
494.25	32521.74
494.43	32233.86
494.61	32627.07
494.79	32765.16
494.96	32762.82
495.14	33024.96
495.32	33275.40
495.49	33968.19
495.67	33310.50
495.85	33617.11
496.02	34169.48
496.20	34054.79
496.38	34064.16
496.55	34040.75
496.73	35005.05
496.91	34689.08
497.09	34932.50
497.26	35012.07
497.44	35278.89
497.62	35618.27
497.79	36046.59
497.97	35782.11
498.14	36875.14
498.32	36549.81
498.50	36624.70
498.67	36940.68
498.85	36577.89
499.03	37132.60
499.20	37095.15
499.38	37315.16
499.56	37184.09
499.73	37750.50
499.91	37195.79
500.08	37996.26
500.26	37481.34
500.44	38396.49
500.61	38089.88
500.79	38043.07
500.97	38464.36
501.14	38883.32
501.32	39000.35
501.49	38653.95
501.67	38843.53
501.84	39419.30
502.02	39402.92
502.20	39409.94
502.37	39798.47
502.55	39545.69
502.72	39463.77
502.90	39917.84
503.07	39693.15
503.25	39999.76
503.43	40226.79
503.60	40322.75
503.78	40198.70
503.95	40594.25
504.13	41095.13
504.30	41048.32
504.48	41284.71
504.65	41230.88
504.83	41542.17
505.01	41724.73
505.18	41584.30
505.36	41748.14
505.53	41675.58
505.71	41778.56
505.88	41956.44
506.06	41825.37
506.23	42595.41
506.41	42199.86
506.58	42506.47
506.76	42478.38
506.93	43126.71
507.11	42412.85
507.28	43065.86
507.46	43047.13
507.63	43107.99
507.81	43545.67
507.98	43304.59
508.16	43641.63
508.33	43817.17
508.50	43775.04
508.68	43976.33
508.85	44023.14
509.03	44013.77
509.20	44374.22
509.38	45216.81
509.55	44608.27
509.73	44978.07
509.90	44924.24
510.08	44617.63
510.25	45347.88
510.42	45214.47
510.60	45584.27
510.77	45521.08
510.95	45736.41
511.12	45605.34
511.30	45631.08
511.47	45567.89
511.64	46066.42
511.82	46281.75
511.99	45750.45
512.17	46131.96
512.34	46314.52
512.51	46518.15
512.69	46883.27
512.86	46705.39
513.04	47276.48
513.21	46890.29
513.38	46866.89
513.56	47117.32
513.73	47014.34
513.90	47311.59
514.08	47222.65
514.25	47522.24
514.43	47512.88
514.60	48058.22
514.77	47526.92
514.95	48149.50
515.12	48058.22
515.29	47650.97
515.47	48346.11
515.64	48790.81
515.81	48285.25
515.99	48645.69
516.16	48671.44
516.33	49006.14
516.51	48996.77
516.68	48975.71
516.85	48823.58
517.03	49090.40
517.20	49471.90
517.37	49415.73
517.54	49563.18
517.72	49244.87
517.89	49717.66
518.06	49539.78
518.24	49731.70
518.41	49490.63
518.58	49633.40
518.75	49666.17
518.93	49947.03
519.10	49846.39
519.27	49902.56
519.45	50574.30
519.62	50349.60
519.79	50347.26
519.96	50504.08
520.14	50550.89
520.31	50422.16
520.48	50663.24
520.65	50431.52
520.83	50894.95
521.00	50965.17
521.17	50927.72
521.34	50717.07
521.52	50890.27
521.69	51285.82
521.86	51709.46
522.03	51421.57
522.20	51894.36
522.38	51887.34
522.55	51922.44
522.72	51995.00
522.89	51564.34
523.07	52055.85
523.24	51653.28
523.41	52243.10
523.58	51880.31
523.75	52362.46
523.92	52175.22
524.10	52296.93
524.27	52205.65
524.44	52402.25
524.61	52530.98
524.78	52238.42
524.96	52444.38
525.13	52285.23
525.30	52755.68
525.47	52912.49
525.64	52765.04
525.81	52872.70
525.98	53139.52
526.16	52825.89
526.33	53003.77
526.50	53291.66
526.67	53125.48
526.84	53418.05
527.01	53013.13
527.18	53050.58
527.36	53310.38
527.53	53385.28
527.70	53558.48
527.87	53537.41
528.04	53446.13
528.21	53455.50
528.38	53675.51
528.55	53865.09
528.72	53577.20
528.89	53656.78
529.07	53825.30
529.24	53471.88
529.41	54251.28
529.58	53780.83
529.75	53670.82
529.92	53886.15
530.09	54293.41
530.26	54255.96
530.43	54260.64
530.60	54042.97
530.77	54160.00
530.94	54326.17
531.11	54511.08
531.28	54302.77
531.46	54337.88
531.63	54593.00
531.80	54593.00
531.97	54864.50
532.14	54801.30
532.31	54752.15
532.48	54946.42
532.65	54939.39
532.82	54869.18
532.99	55044.72
533.16	54838.75
533.33	55121.96
533.50	55393.46
533.67	54979.18
533.84	55124.30
534.01	55100.89
534.18	54974.50
534.35	55742.20
534.52	55192.17
534.69	55288.13
534.86	55484.74
535.03	55468.36
535.20	55426.23
535.37	55414.52
535.54	55688.37
535.71	55391.12
535.88	55636.87
536.05	55739.86
536.22	55789.01
536.38	55990.30
536.55	55873.27
536.72	55718.79
536.89	55875.61
537.06	55716.45
537.23	55803.05
537.40	55777.31
537.57	55976.25
537.74	55978.59
537.91	56086.26
538.08	56062.85
538.25	55952.85
538.42	56090.94
538.59	56479.47
538.75	55931.78
538.92	56449.04
539.09	56573.09
539.26	56432.66
539.43	56367.12
539.60	56451.38
539.77	56509.89
539.94	56732.25
540.11	56741.61
540.28	56750.97
540.44	56706.50
540.61	56781.40
540.78	56746.29
540.95	56552.02
541.12	56741.61
541.29	56868.00
541.46	56690.12
541.62	56928.85
541.79	56921.83
541.96	56832.89
542.13	56692.46
542.30	56910.13
542.47	57092.69
542.63	57198.01
542.80	57219.08
542.97	57375.89
543.14	57441.43
543.31	57406.32
543.48	57464.83
543.64	57851.02
543.81	57558.45
543.98	57439.09
544.15	57471.85
544.32	57567.82
544.48	57565.48
544.65	57464.83
544.82	57766.76
544.99	57694.21
545.16	57717.61
545.32	57633.35
545.49	57757.40
545.66	58078.05
545.83	57998.48
546.00	57897.83
546.16	57820.59
546.33	57862.72
546.50	57691.86
546.67	58014.86
546.83	57769.10
547.00	58150.61
547.17	58134.23
547.34	57851.02
547.50	58251.25
547.67	58106.14
547.84	58272.32
548.00	58583.61
548.17	58319.13
548.34	58113.16
548.51	58457.22
548.67	58436.16
548.84	58206.78
549.01	58529.78
549.18	58424.45
549.34	58621.06
549.51	58518.07
549.68	58567.23
549.84	58684.25
550.01	58649.14
550.18	58302.74
550.34	58550.84
550.51	58871.49
550.68	58639.78
550.84	58464.24
551.01	58628.08
551.18	58848.09
551.34	58719.36
551.51	58581.27
551.68	58674.89
551.84	58850.43
552.01	58717.02
552.18	59075.12
552.34	58773.19
552.51	58679.57
552.68	59004.91
552.84	58794.26
553.01	59086.82
553.18	59037.67
553.34	59030.65
553.51	58932.35
553.67	59040.01
553.84	59400.46
554.01	58976.82
554.17	59150.02
554.34	59131.29
554.51	59220.23
554.67	59210.87
554.84	59110.23
555.00	59370.03
555.17	59068.10
555.33	59243.64
555.50	59161.72
555.67	59245.98
555.83	59150.02
556.00	59309.18
556.16	59578.34
556.33	59587.70
556.50	59400.46
556.66	59578.34
556.83	59430.88
556.99	59657.91
557.16	59660.26
557.32	59622.81
557.49	59721.11
557.65	59592.38
557.82	59536.21
557.98	59487.06
558.15	59475.35
558.32	59697.70
558.48	59405.14
558.65	59835.80
558.81	59711.75
558.98	59751.54
559.14	59835.80
559.31	59889.63
559.47	59898.99
559.64	59992.61
559.80	59990.27
559.97	59955.16
560.13	59725.79
560.30	60179.85
560.46	59901.33
560.63	60156.45
560.79	60030.06
560.96	60156.45
561.12	59884.95
561.29	60053.47
561.45	60079.21
561.61	59945.80
561.78	59924.74
561.94	60217.30
562.11	60191.56
562.27	59992.61
562.44	60154.11
562.60	60364.76
562.77	60236.03
562.93	59924.74
563.10	60189.22
563.26	60243.05
563.42	60369.44
563.59	60137.72
563.75	60261.77
563.92	60193.90
564.08	60186.88
564.24	60374.12
564.41	60240.71
564.57	60275.82
564.74	60343.69
564.90	60299.22
565.07	60231.35
565.23	60207.94
565.39	60287.52
565.56	60343.69
565.72	60266.45
565.88	60390.50
566.05	60390.50
566.21	60214.96
566.38	60467.74
566.54	60533.28
566.70	60619.88
566.87	60631.58
567.03	60322.63
567.19	60666.69
567.36	60514.55
567.52	60612.85
567.68	60591.79
567.85	60701.79
568.01	60664.35
568.17	60669.03
568.34	60687.75
568.50	60727.54
568.66	60472.42
568.83	60474.76
568.99	60439.65
569.15	60685.41
569.32	60566.04
569.48	60416.25
569.64	60694.77
569.81	60591.79
569.97	60622.22
570.13	60671.37
570.30	60720.52
570.46	60956.91
570.62	60795.42
570.78	60795.42
570.95	60582.43
571.11	60828.18
571.27	60610.51
571.43	60832.86
571.60	60926.49
571.76	60624.56
571.92	60701.79
572.09	60926.49
572.25	60891.38
572.41	60825.84
572.57	60959.25
572.74	61057.56
572.90	60533.28
573.06	60811.80
573.22	60654.98
573.38	60952.23
573.55	60769.67
573.71	61080.96
573.87	60617.53
574.03	60839.89
574.20	60896.06
574.36	60905.42
574.52	60996.70
574.68	61034.15
574.84	61029.47
575.01	61045.85
575.17	60903.08
575.33	61029.47
575.49	61013.08
575.65	61097.34
575.82	61113.73
575.98	61010.74
576.14	61333.74
576.30	60945.21
576.46	61045.85
576.62	60835.20
576.79	61078.62
576.95	60914.78
577.11	60992.02
577.27	61022.45
577.43	61043.51
577.59	60851.59
577.75	60896.06
577.92	60743.92
578.08	60956.91
578.24	60952.23
578.40	61153.52
578.56	61289.27
578.72	61071.60
578.88	61092.66
579.04	61345.44
579.21	61148.84
579.37	61300.97
579.53	61197.99
579.69	60952.23
579.85	61050.53
580.01	60938.19
580.17	61116.07
580.33	61291.61
580.49	61385.23
580.65	61048.19
580.82	60891.38
580.98	61127.77
581.14	60985.00
581.30	61256.50
581.46	61048.19
581.62	61137.13
581.78	61190.97
581.94	61233.10
582.10	61141.81
582.26	61195.65
582.42	61190.97
582.58	61038.83
582.74	61197.99
582.90	61073.94
583.06	61125.43
583.22	60966.27
583.38	61329.06
583.54	61359.48
583.70	61172.24
583.86	61300.97
584.02	61027.13
584.18	61179.26
584.34	61364.17
584.50	61324.38
584.66	61141.81
584.82	61022.45
584.98	61368.85
585.14	61240.12
585.30	61090.32
585.46	61181.60
585.62	61179.26
585.78	61406.30
585.94	60942.87
586.10	61144.16
586.26	61141.81
586.42	61120.75
586.58	61268.20
586.74	61083.30
586.90	61214.37
587.06	61359.48
587.22	61396.93
587.38	61446.08
587.54	61546.73
587.70	61403.95
587.86	61326.72
588.02	61160.54
588.18	61570.13
588.34	61347.78
588.49	61279.91
