SpectraSuite Data File
++++++++++++++++++++++++++++++++++++
Date: Fri Oct 25 10:44:24 EDT 2013
User: price-jones
Dark Spectrum Present: No
Reference Spectrum Present: No
Number of Sampled Component Spectra: 1
Spectrometers: USB2+H05261
Integration Time (usec): 100000 (USB2+H05261)
Spectra Averaged: 1 (USB2+H05261)
Boxcar Smoothing: 0 (USB2+H05261)
Correct for Electrical Dark: No (USB2+H05261)
Strobe/Lamp Enabled: No (USB2+H05261)
Correct for Detector Non-linearity: No (USB2+H05261)
Correct for Stray Light: No (USB2+H05261)
Number of Pixels in Processed Spectrum: 2048
>>>>>Begin Processed Spectral Data<<<<<
365.73	121.71
365.92	121.71
366.12	121.71
366.32	37.45
366.52	21.06
366.72	63.19
366.91	0.00
367.11	0.00
367.31	16.38
367.51	2.34
367.70	0.00
367.90	74.90
368.10	84.26
368.30	107.66
368.49	56.17
368.69	51.49
368.89	58.51
369.09	0.00
369.28	37.45
369.48	37.45
369.68	37.45
369.87	56.17
370.07	65.54
370.27	224.69
370.47	189.58
370.66	428.32
370.86	468.11
371.06	411.93
371.25	437.68
371.45	421.30
371.65	547.69
371.84	456.40
372.04	449.38
372.24	458.74
372.44	507.90
372.63	510.24
372.83	528.96
373.03	554.71
373.22	524.28
373.42	594.50
373.62	554.71
373.81	451.72
374.01	552.37
374.21	589.82
374.40	538.32
374.60	571.09
374.79	624.92
374.99	608.54
375.19	655.35
375.38	575.77
375.58	613.22
375.78	543.00
375.97	622.58
376.17	594.50
376.37	603.86
376.56	526.62
376.76	734.93
376.95	650.67
377.15	660.03
377.35	606.20
377.54	624.92
377.74	667.05
377.93	648.33
378.13	601.52
378.33	650.67
378.52	695.14
378.72	669.39
378.91	620.24
379.11	622.58
379.31	594.50
379.50	683.44
379.70	627.26
379.89	720.88
380.09	650.67
380.28	695.14
380.48	683.44
380.68	713.86
380.87	702.16
381.07	681.10
381.26	770.04
381.46	725.57
381.65	718.54
381.85	734.93
382.04	627.26
382.24	643.65
382.43	784.08
382.63	716.20
382.83	791.10
383.02	788.76
383.22	753.65
383.41	725.57
383.61	774.72
383.80	732.59
384.00	704.50
384.19	877.70
384.39	858.98
384.58	812.17
384.78	877.70
384.97	877.70
385.17	898.77
385.36	798.12
385.56	884.72
385.75	896.43
385.95	819.19
386.14	854.30
386.34	863.66
386.53	847.27
386.72	873.02
386.92	882.38
387.11	884.72
387.31	896.43
387.50	971.32
387.70	861.32
387.89	912.81
388.09	873.02
388.28	896.43
388.48	943.24
388.67	971.32
388.86	936.21
389.06	980.68
389.25	1060.26
389.45	1100.05
389.64	966.64
389.84	1022.81
390.03	1004.09
390.22	1121.12
390.42	1013.45
390.61	1081.33
390.81	1149.20
391.00	1060.26
391.19	1018.13
391.39	1172.61
391.58	1097.71
391.78	985.37
391.97	1121.12
392.16	1076.65
392.36	1121.12
392.55	1132.82
392.75	1071.97
392.94	1027.50
393.13	980.68
393.33	1011.11
393.52	1039.20
393.71	1078.99
393.91	1128.14
394.10	1158.57
394.29	1207.72
394.49	1327.08
394.68	1287.29
394.88	1324.74
395.07	1268.57
395.26	1282.61
395.46	1252.19
395.65	1238.14
395.84	1238.14
396.04	1341.13
396.23	1217.08
396.42	1160.91
396.62	1172.61
396.81	1256.87
397.00	1296.66
397.19	1495.60
397.39	1369.21
397.58	1322.40
397.77	1509.65
397.97	1565.82
398.16	1472.20
398.35	1483.90
398.55	1455.81
398.74	1500.28
398.93	1591.56
399.12	1614.97
399.32	1528.37
399.51	1519.01
399.70	1640.72
399.90	1563.48
400.09	1675.82
400.28	1685.19
400.47	1605.61
400.67	1626.67
400.86	1636.03
401.05	1675.82
401.24	1743.70
401.44	1638.38
401.63	1685.19
401.82	1830.30
402.01	1687.53
402.21	1799.87
402.40	1900.52
402.59	1741.36
402.78	1844.34
402.97	1842.00
403.17	1785.83
403.36	1870.09
403.55	1912.22
403.74	1968.39
403.93	1987.11
404.13	1872.43
404.32	1879.45
404.51	1928.60
404.70	1987.11
404.89	1959.03
405.09	2097.12
405.28	2118.18
405.47	2071.37
405.66	1984.77
405.85	2057.33
406.05	2003.50
406.24	2022.22
406.43	2050.31
406.62	2143.93
406.81	2225.85
407.00	2108.82
407.20	2106.48
407.39	2155.63
407.58	2186.06
407.77	2211.81
407.96	2342.88
408.15	2263.30
408.34	2263.30
408.54	2394.37
408.73	2399.05
408.92	2333.51
409.11	2349.90
409.30	2356.92
409.49	2340.54
409.68	2270.32
409.87	2326.49
410.07	2445.86
410.26	2403.73
410.45	2516.08
410.64	2502.03
410.83	2590.97
411.02	2518.42
411.21	2708.00
411.40	2590.97
411.59	2677.57
411.78	2731.41
411.98	2691.62
412.17	2813.32
412.36	2724.38
412.55	2766.51
412.74	2785.24
412.93	2731.41
413.12	2843.75
413.31	2981.84
413.50	2953.76
413.69	2977.16
413.88	3066.10
414.07	2995.89
414.26	3021.63
414.45	3035.67
414.64	3082.49
414.83	3042.70
415.02	3119.93
415.22	3215.90
415.41	3143.34
415.60	3164.40
415.79	3248.66
415.98	3349.31
416.17	3384.41
416.36	3398.46
416.55	3276.75
416.74	3405.48
416.93	3447.61
417.12	3456.97
417.31	3466.33
417.50	3407.82
417.69	3634.85
417.88	3592.72
418.07	3550.59
418.26	3613.79
418.45	3597.40
418.64	3686.34
418.83	3529.53
419.02	3747.20
419.21	3623.15
419.39	3616.13
419.58	3625.49
419.77	3679.32
419.96	3756.56
420.15	3833.80
420.34	3798.69
420.53	3887.63
420.72	3847.84
420.91	3974.23
421.10	4004.66
421.29	3927.42
421.48	3943.80
421.67	4002.32
421.86	3852.52
422.05	3981.25
422.24	3875.93
422.43	3873.59
422.61	4014.02
422.80	4014.02
422.99	4093.60
423.18	4166.15
423.37	4168.49
423.56	4004.66
423.75	4229.35
423.94	3955.51
424.13	3829.12
424.32	3918.06
424.50	3981.25
424.69	4067.85
424.88	4198.92
425.07	3929.76
425.26	4046.79
425.45	4095.94
425.64	4093.60
425.83	3990.61
426.01	4198.92
426.20	4173.18
426.39	4107.64
426.58	4117.00
426.77	3932.10
426.96	4088.92
427.15	4140.41
427.33	4236.37
427.52	4100.62
427.71	4245.73
427.90	4262.12
428.09	4402.55
428.28	4353.40
428.46	4334.67
428.65	4271.48
428.84	4381.48
429.03	4435.32
429.22	4215.30
429.40	4423.61
429.59	4217.65
429.78	4152.11
429.97	4023.38
430.16	4163.81
430.34	4173.18
430.53	4390.84
430.72	4285.52
430.91	4229.35
431.10	4454.04
431.28	4559.36
431.47	4685.75
431.66	4652.98
431.85	4755.97
432.03	4681.07
432.22	4681.07
432.41	4819.16
432.60	4772.35
432.79	4702.14
432.97	4758.31
433.16	4875.34
433.35	4812.14
433.54	4816.82
433.72	4781.71
433.91	4753.63
434.10	4784.06
434.28	4861.29
434.47	4975.98
434.66	5004.07
434.85	5200.67
435.03	5128.11
435.22	5144.50
435.41	5394.93
435.59	5310.68
435.78	5313.02
435.97	5240.46
436.16	5327.06
436.34	5317.70
436.53	5282.59
436.72	5533.03
436.90	5144.50
437.09	5179.61
437.28	5224.08
437.46	5322.38
437.65	5142.16
437.84	5233.44
438.02	5130.45
438.21	5268.55
438.40	5378.55
438.58	5371.53
438.77	5626.65
438.96	5411.32
439.14	5715.59
439.33	5701.54
439.52	5898.15
439.70	5792.83
439.89	5907.51
440.08	5771.76
440.26	5888.79
440.45	5944.96
440.63	5982.41
440.82	6230.51
441.01	6087.73
441.19	6183.70
441.38	6347.53
441.57	6141.57
441.75	6494.99
441.94	6366.26
442.12	6342.85
442.31	6572.22
442.50	6480.94
442.68	6628.40
442.87	6417.75
443.05	6593.29
443.24	6654.14
443.43	6593.29
443.61	6504.35
443.80	6958.41
443.98	6494.99
444.17	6445.84
444.35	6679.89
444.54	6792.23
444.73	6654.14
444.91	6633.08
445.10	6551.16
445.28	6665.85
445.47	6651.80
445.65	6595.63
445.84	6747.76
446.02	6855.43
446.21	6441.15
446.39	6733.72
446.58	6869.47
446.77	7047.35
446.95	6654.14
447.14	6799.26
447.32	6986.50
447.51	6846.07
447.69	6747.76
447.88	6801.60
448.06	7005.22
448.25	6935.01
448.43	6939.69
448.62	6991.18
448.80	6944.37
448.99	7077.78
449.17	7096.50
449.36	7082.46
449.54	7131.61
449.73	7185.44
449.91	7300.13
450.10	7269.70
450.28	7494.40
450.46	7332.90
450.65	7478.01
450.83	7672.28
451.02	7375.03
451.20	7473.33
451.39	7536.52
451.57	7524.82
451.76	7286.09
451.94	7447.58
452.13	7503.76
452.31	7459.29
452.49	7302.47
452.68	7456.95
452.86	7236.94
453.05	7529.50
453.23	7634.83
453.42	7506.10
453.60	7527.16
453.78	7714.41
453.97	7723.77
454.15	7632.49
454.34	7426.52
454.52	7824.41
454.70	7723.77
454.89	7815.05
455.07	7754.19
455.26	7903.99
455.44	7911.01
455.62	7960.16
455.81	7859.52
455.99	7990.59
456.17	8100.59
456.36	8049.10
456.54	8184.85
456.73	8196.56
456.91	8313.58
457.09	8250.39
457.28	8489.12
457.46	8276.13
457.64	8414.23
457.83	8341.67
458.01	8243.37
458.19	8507.85
458.38	8313.58
458.56	8557.00
458.74	8578.06
458.93	8435.29
459.11	8596.79
459.29	8564.02
459.48	8664.66
459.66	8514.87
459.84	8634.24
460.03	8720.84
460.21	8571.04
460.39	8650.62
460.57	8730.20
460.76	9001.70
460.94	8779.35
461.12	8861.27
461.31	9067.24
461.49	9022.77
461.67	8840.20
461.85	9135.11
462.04	9032.13
462.22	9331.72
462.40	9104.68
462.59	9245.12
462.77	8940.85
462.95	9195.96
463.13	9121.07
463.32	9142.13
463.50	9334.06
463.68	9341.08
463.86	9259.16
464.05	9249.80
464.23	9217.03
464.41	9301.29
464.59	9097.66
464.78	9315.33
464.96	9390.23
465.14	9301.29
465.32	9348.10
465.50	9570.45
465.69	9600.88
465.87	9483.85
466.05	9540.02
466.23	9434.70
466.41	9413.63
466.60	9607.90
466.78	9259.16
466.96	9322.35
467.14	9584.49
467.32	9666.41
467.51	9689.82
467.69	9277.88
467.87	9638.33
468.05	9858.34
468.23	9671.09
468.41	9753.01
468.60	9853.66
468.78	9816.21
468.96	9837.27
469.14	9921.53
469.32	9935.57
469.50	9696.84
469.69	9961.32
469.87	10157.92
470.05	10073.67
470.23	10120.48
470.41	10022.17
470.59	10183.67
470.77	9942.60
470.95	10317.08
471.14	10274.95
471.32	10155.58
471.50	10494.96
471.68	10342.83
471.86	10619.01
472.04	10644.76
472.22	11000.52
472.40	10504.32
472.58	10623.69
472.77	10834.34
472.95	10864.77
473.13	10953.71
473.31	10782.85
473.49	10813.28
473.67	10897.53
473.85	10937.32
474.03	11115.20
474.21	11351.60
474.39	11513.10
474.57	11475.65
474.75	11461.60
474.93	11583.31
475.12	11272.02
475.30	11623.10
475.48	11527.14
475.66	11630.12
475.84	11620.76
476.02	11854.81
476.20	11817.36
476.38	11768.21
476.56	12252.70
476.74	12170.79
476.92	12152.06
477.10	12271.43
477.28	12580.38
477.46	12271.43
477.64	12662.30
477.82	12861.24
478.00	12952.52
478.18	12847.20
478.36	12765.28
478.54	12879.97
478.72	12898.69
478.90	13296.58
479.08	13530.64
479.26	13551.70
479.44	13458.08
479.62	13556.38
479.80	13755.33
479.98	14045.55
480.16	13963.64
480.34	14052.58
480.52	14204.71
480.70	14349.82
480.88	14075.98
481.06	14300.67
481.24	14436.42
481.41	14670.48
481.59	14670.48
481.77	14981.77
481.95	14782.82
482.13	15037.94
482.31	14991.13
482.49	15487.32
482.67	15330.51
482.85	15389.02
483.03	15527.11
483.21	15815.00
483.39	16226.93
483.57	15779.89
483.74	15756.49
483.92	16208.21
484.10	15857.13
484.28	16240.98
484.46	16681.00
484.64	17046.12
484.82	16376.73
485.00	16643.55
485.18	16739.51
485.35	16835.47
485.53	16503.12
485.71	16486.73
485.89	16889.31
486.07	16786.32
486.25	17219.32
486.43	17177.19
486.61	17509.55
486.78	17701.47
486.96	17956.59
487.14	18150.85
487.32	18242.14
487.50	18576.83
487.68	18567.47
487.85	19012.17
488.03	18965.36
488.21	19143.24
488.39	18836.63
488.57	19070.68
488.75	19669.86
488.92	19367.93
489.10	19772.85
489.28	19932.00
489.46	20208.19
489.64	20278.40
489.81	20835.45
489.99	20706.72
490.17	20816.72
490.35	21099.93
490.53	20783.96
490.70	21081.21
490.88	21046.10
491.06	21539.95
491.24	21174.83
491.41	21413.56
491.59	21268.45
491.77	21476.76
491.95	21717.83
492.13	21909.75
492.30	22307.65
492.48	22309.99
492.66	22522.98
492.84	22312.33
493.01	22553.40
493.19	22429.35
493.37	22810.86
493.54	22831.93
493.72	23283.65
493.90	23227.48
494.08	23278.97
494.25	23637.07
494.43	23866.44
494.61	23868.78
494.79	24046.66
494.96	23838.36
495.14	24381.36
495.32	24065.39
495.49	24528.81
495.67	24702.01
495.85	24793.29
496.02	24716.06
496.20	25097.56
496.38	25146.72
496.55	25369.07
496.73	25769.30
496.91	25612.48
497.09	25940.16
497.26	25891.01
497.44	25678.02
497.62	25748.23
497.79	25851.22
497.97	25809.09
498.14	26040.80
498.32	26232.72
498.50	26487.84
498.67	26621.25
498.85	26815.52
499.03	27087.02
499.20	27051.91
499.38	26878.71
499.56	27005.10
499.73	27012.12
499.91	27014.46
500.08	27513.00
500.26	27070.64
500.44	27194.68
500.61	27702.58
500.79	27655.77
500.97	27494.27
501.14	27747.05
501.32	27812.59
501.49	27786.84
501.67	28044.30
501.84	28187.07
502.02	28194.09
502.20	28229.20
502.37	28727.74
502.55	28526.45
502.72	28596.67
502.90	28610.71
503.07	28697.31
503.25	28744.12
503.43	28498.36
503.60	28709.01
503.78	28697.31
503.95	28849.44
504.13	29518.84
504.30	29083.50
504.48	29575.01
504.65	29518.84
504.83	30197.59
505.01	29773.95
505.18	29567.99
505.36	29928.43
505.53	30675.06
505.71	30522.93
505.88	30635.27
506.06	30398.88
506.23	30321.64
506.41	30078.22
506.58	30630.59
506.76	30457.39
506.93	30848.26
507.11	30387.18
507.28	30609.53
507.46	30394.20
507.63	30623.57
507.81	31098.70
507.98	30981.67
508.16	31040.18
508.33	31119.76
508.50	31332.75
508.68	31613.62
508.85	32002.14
509.03	31431.05
509.20	31882.78
509.38	32107.47
509.55	32093.43
509.73	31971.72
509.90	32292.37
510.08	32070.02
510.25	32091.09
510.42	32486.64
510.60	32503.02
510.77	32758.14
510.95	32947.72
511.12	32563.87
511.30	32891.55
511.47	33158.37
511.64	33291.78
511.82	33596.05
511.99	33081.13
512.17	33277.74
512.34	32985.17
512.51	33338.59
512.69	33039.00
512.86	33406.47
513.04	33579.67
513.21	33816.06
513.38	33701.37
513.56	33242.63
513.73	33324.55
513.90	33743.50
514.08	33897.98
514.25	33827.76
514.43	34092.24
514.60	34232.68
514.77	34117.99
514.95	34499.50
515.12	34059.48
515.29	34628.23
515.47	34740.57
515.64	35058.88
515.81	34597.80
515.99	34342.68
516.16	34752.27
516.33	34319.28
516.51	34230.33
516.68	34085.22
516.85	33839.47
517.03	34298.21
517.20	34574.39
517.37	35037.82
517.54	35075.27
517.72	35072.93
517.89	35030.80
518.06	34579.07
518.24	34955.90
518.41	35056.54
518.58	35185.27
518.75	35424.01
518.93	36088.72
519.10	35398.26
519.27	35889.77
519.45	35768.07
519.62	35566.78
519.79	36163.62
519.96	36051.27
520.14	36769.82
520.31	35779.77
520.48	36327.45
520.65	36652.79
520.83	36919.61
521.00	36903.23
521.17	36605.98
521.34	36620.02
521.52	36774.50
521.69	36849.39
521.86	37422.83
522.03	37500.06
522.20	37017.91
522.38	37048.34
522.55	37081.11
522.72	36861.10
522.89	37221.54
523.07	37207.50
523.24	37333.89
523.41	37511.77
523.58	37495.38
523.75	38178.82
523.92	38403.51
524.10	38007.96
524.27	38333.29
524.44	38246.69
524.61	38536.92
524.78	38326.27
524.96	38047.75
525.13	38476.07
525.30	38651.61
525.47	38969.92
525.64	38497.13
525.81	38405.85
525.98	38022.00
526.16	38022.00
526.33	37926.04
526.50	38178.82
526.67	38010.30
526.84	38326.27
527.01	37972.85
527.18	38794.38
527.36	38955.88
527.53	38815.44
527.70	39194.61
527.87	39330.36
528.04	38883.32
528.21	39503.56
528.38	39541.01
528.55	39470.79
528.72	39693.15
528.89	40165.93
529.07	39674.42
529.24	38876.30
529.41	39821.87
529.58	39356.11
529.75	39297.59
529.92	40074.65
530.09	39952.94
530.26	39763.36
530.43	39789.11
530.60	40114.44
530.77	40226.79
530.94	40774.47
531.11	40243.17
531.28	40161.25
531.46	40615.32
531.63	40081.67
531.80	40179.98
531.97	40399.99
532.14	40577.87
532.31	39873.37
532.48	40289.98
532.65	40596.59
532.82	40685.53
532.99	40245.51
533.16	40505.31
533.33	40753.41
533.50	40884.48
533.67	40987.46
533.84	40421.05
534.01	40706.60
534.18	40605.95
534.35	41125.55
534.52	41041.29
534.69	41460.25
534.86	41631.11
535.03	41067.04
535.20	41797.29
535.37	41322.16
535.54	41834.74
535.71	41855.80
535.88	41111.51
536.05	41106.83
536.22	41429.82
536.38	41394.71
536.55	41535.15
536.72	41464.93
536.89	41256.62
537.06	41799.63
537.23	41469.61
537.40	41698.98
537.57	41888.57
537.74	42029.00
537.91	42302.84
538.08	41834.74
538.25	41610.04
538.42	42153.05
538.59	42635.20
538.75	42075.81
538.92	42117.94
539.09	42052.41
539.26	42080.49
539.43	42321.57
539.60	42148.37
539.77	41893.25
539.94	42391.78
540.11	42064.11
540.28	42087.51
540.44	42445.62
540.61	42244.33
540.78	42019.64
540.95	42536.90
541.12	42775.63
541.29	42443.27
541.46	42038.36
541.62	42258.37
541.79	43381.83
541.96	42590.73
542.13	42852.87
542.30	43351.40
542.47	42850.53
542.63	42845.85
542.80	43040.11
542.97	43257.78
543.14	43433.32
543.31	43292.89
543.48	43213.31
543.64	43873.34
543.81	43885.04
543.98	43606.52
544.15	43718.87
544.32	43852.28
544.48	44102.71
544.65	43973.98
544.82	43917.81
544.99	43363.11
545.16	43732.91
545.32	43330.34
545.49	44666.78
545.66	44065.27
545.83	43824.19
546.00	44399.96
546.16	43622.90
546.33	43950.58
546.50	44203.36
546.67	43910.79
546.83	43379.49
547.00	43885.04
547.17	44037.18
547.34	43622.90
547.50	43849.94
547.67	44369.54
547.84	44194.00
548.00	44690.19
548.17	44573.16
548.34	44381.24
548.51	44807.22
548.67	45172.34
548.84	44636.36
549.01	44701.89
549.18	44179.95
549.34	44879.77
549.51	44062.93
549.68	44903.18
549.84	44755.72
550.01	44772.11
550.18	44514.65
550.34	44526.35
550.51	44945.31
550.68	44865.73
550.84	44121.44
551.01	45020.20
551.18	44652.74
551.34	44954.67
551.51	45368.94
551.68	45027.23
551.84	45221.49
552.01	44907.86
552.18	45296.39
552.34	44669.12
552.51	45167.66
552.68	44825.94
552.84	45371.28
553.01	45464.91
553.18	45373.63
553.34	45413.41
553.51	45268.30
553.67	45654.49
553.84	45586.61
554.01	45322.13
554.17	45649.81
554.34	45504.70
554.51	45427.46
554.67	45925.99
554.84	45507.04
555.00	45530.44
555.17	45303.41
555.33	45954.08
555.50	45741.09
555.67	45270.64
555.83	45333.84
556.00	45628.74
556.16	45933.01
556.33	45661.51
556.50	45638.11
556.66	45827.69
556.83	45560.87
556.99	46251.33
557.16	46279.41
557.32	46017.27
557.49	45897.91
557.65	45528.10
557.82	45895.56
557.98	45851.09
558.15	45612.36
558.32	45624.06
558.48	45633.42
558.65	46024.29
558.81	45469.59
558.98	45603.00
559.14	46010.25
559.31	45797.26
559.47	46281.75
559.64	46052.38
559.80	46206.86
559.97	45895.56
560.13	46031.32
560.30	45951.74
560.46	46021.95
560.63	46396.44
560.79	46401.12
560.96	46225.58
561.12	46024.29
561.29	46012.59
561.45	46115.58
561.61	46127.28
561.78	46471.34
561.94	46279.41
562.11	46321.54
562.27	45968.12
562.44	46113.23
562.60	46698.37
562.77	46368.35
562.93	46368.35
563.10	46646.88
563.26	45942.38
563.42	46361.33
563.59	46120.26
563.75	46101.53
563.92	46398.78
564.08	46433.89
564.24	46471.34
564.41	46548.57
564.57	46209.20
564.74	46358.99
564.90	46366.01
565.07	46504.10
565.23	46377.72
565.39	46188.13
565.56	46426.87
565.72	46209.20
565.88	46277.07
566.05	46501.76
566.21	46326.22
566.38	46377.72
566.54	46557.94
566.70	46703.05
566.87	46756.88
567.03	46791.99
567.19	47077.54
567.36	46775.61
567.52	46653.90
567.68	46876.25
567.85	46567.30
568.01	46602.41
568.17	46553.26
568.34	46740.50
568.50	46335.59
568.66	46195.15
568.83	46452.61
568.99	46358.99
569.15	46068.76
569.32	46216.22
569.48	45991.53
569.64	46604.75
569.81	46824.76
569.97	46508.79
570.13	46501.76
570.30	46335.59
570.46	46220.90
570.62	46284.09
570.78	46178.77
570.95	46131.96
571.11	46803.69
571.27	46518.15
571.43	46490.06
571.60	46539.21
571.76	46768.58
571.92	46674.96
572.09	46539.21
572.25	46892.63
572.41	46698.37
572.57	46363.67
572.74	47426.28
572.90	46541.55
573.06	46801.35
573.22	46813.05
573.38	46431.55
573.55	46649.22
573.71	46995.62
573.87	46953.49
574.03	46611.77
574.20	46726.46
574.36	46642.20
574.52	46731.14
574.68	46525.17
574.84	46340.27
575.01	46843.48
575.17	46656.24
575.33	46511.13
575.49	46160.05
575.65	46681.98
575.82	46829.44
575.98	46850.50
576.14	47199.24
576.30	46993.28
576.46	46602.41
576.62	46897.31
576.79	47007.32
576.95	46408.14
577.11	46724.11
577.27	46763.90
577.43	47037.75
577.59	46667.94
577.75	46562.62
577.92	46148.34
578.08	46216.22
578.24	46340.27
578.40	46574.32
578.56	46473.68
578.72	46717.09
578.88	46843.48
579.04	46899.65
579.21	46780.29
579.37	46883.27
579.53	46869.23
579.69	46712.41
579.85	46794.33
580.01	47283.50
580.17	46609.43
580.33	47164.14
580.49	46726.46
580.65	46892.63
580.82	47110.30
580.98	46871.57
581.14	46876.25
581.30	47538.62
581.46	47007.32
581.62	46827.10
581.78	46916.04
581.94	47206.26
582.10	46845.82
582.26	46770.93
582.42	46588.36
582.58	47000.30
582.74	46955.83
582.90	46829.44
583.06	47395.85
583.22	46597.73
583.38	46909.02
583.54	47063.49
583.70	47138.39
583.86	47061.15
584.02	46962.85
584.18	47143.07
584.34	46756.88
584.50	46916.04
584.66	47152.43
584.82	47000.30
584.98	47004.98
585.14	46920.72
585.30	46637.51
585.46	46775.61
585.62	46801.35
585.78	46852.84
585.94	46712.41
586.10	46852.84
586.26	46670.28
586.42	46883.27
586.58	47117.32
586.74	47089.24
586.90	47178.18
587.06	46703.05
587.22	46855.18
587.38	46335.59
587.54	47269.46
587.70	46887.95
587.86	47110.30
588.02	47320.95
588.18	47388.83
588.34	46862.21
588.49	46532.19
588.65	46033.66
588.81	46471.34
588.97	46611.77
589.13	46710.07
589.29	46581.34
589.45	46663.26
589.61	46745.18
589.77	47070.51
589.93	47023.70
