SpectraSuite Data File
++++++++++++++++++++++++++++++++++++
Date: Fri Oct 25 11:26:00 EDT 2013
User: price-jones
Dark Spectrum Present: No
Reference Spectrum Present: No
Number of Sampled Component Spectra: 1
Spectrometers: USB2+H05261
Integration Time (usec): 100000 (USB2+H05261)
Spectra Averaged: 1 (USB2+H05261)
Boxcar Smoothing: 0 (USB2+H05261)
Correct for Electrical Dark: No (USB2+H05261)
Strobe/Lamp Enabled: No (USB2+H05261)
Correct for Detector Non-linearity: No (USB2+H05261)
Correct for Stray Light: No (USB2+H05261)
Number of Pixels in Processed Spectrum: 2048
>>>>>Begin Processed Spectral Data<<<<<
365.73	245.76
365.92	245.76
366.12	245.76
366.32	152.13
366.52	98.30
366.72	107.66
366.91	112.35
367.11	98.30
367.31	67.88
367.51	100.64
367.70	210.65
367.90	163.84
368.10	149.79
368.30	126.39
368.49	74.90
368.69	93.62
368.89	177.88
369.09	217.67
369.28	210.65
369.48	227.03
369.68	201.29
369.87	189.58
370.07	217.67
370.27	201.29
370.47	311.29
370.66	599.18
370.86	667.05
371.06	725.57
371.25	697.48
371.45	690.46
371.65	699.82
371.84	685.78
372.04	624.92
372.24	739.61
372.44	711.52
372.63	732.59
372.83	791.10
373.03	732.59
373.22	748.97
373.42	697.48
373.62	812.17
373.81	812.17
374.01	847.27
374.21	786.42
374.40	858.98
374.60	889.40
374.79	828.55
374.99	826.21
375.19	826.21
375.38	884.72
375.58	821.53
375.78	884.72
375.97	819.19
376.17	887.06
376.37	866.00
376.56	931.53
376.76	908.13
376.95	908.13
377.15	894.08
377.35	858.98
377.54	926.85
377.74	823.87
377.93	858.98
378.13	1022.81
378.33	1008.77
378.52	929.19
378.72	966.64
378.91	968.98
379.11	964.30
379.31	1008.77
379.50	868.34
379.70	1008.77
379.89	1004.09
380.09	976.00
380.28	1008.77
380.48	945.58
380.68	950.26
380.87	954.94
381.07	987.71
381.26	961.96
381.46	999.41
381.65	1032.18
381.85	1060.26
382.04	983.02
382.24	1083.67
382.43	1125.80
382.63	1022.81
382.83	1104.73
383.02	1172.61
383.22	1114.10
383.41	1074.31
383.61	1060.26
383.80	1069.62
384.00	1118.78
384.19	1153.88
384.39	1060.26
384.58	1107.07
384.78	1165.59
384.97	1200.69
385.17	1109.41
385.36	1069.62
385.56	1205.38
385.75	1172.61
385.95	1132.82
386.14	1217.08
386.34	1205.38
386.53	1252.19
386.72	1177.29
386.92	1273.25
387.11	1306.02
387.31	1301.34
387.50	1210.06
387.70	1233.46
387.89	1282.61
388.09	1334.11
388.28	1301.34
388.48	1249.85
388.67	1350.49
388.86	1268.57
389.06	1284.95
389.25	1350.49
389.45	1315.38
389.64	1303.68
389.84	1476.88
390.03	1369.21
390.22	1387.94
390.42	1427.73
390.61	1378.58
390.81	1362.19
391.00	1469.86
391.19	1444.11
391.39	1514.33
391.58	1425.39
391.78	1423.05
391.97	1472.20
392.16	1577.52
392.36	1479.22
392.55	1423.05
392.75	1586.88
392.94	1511.99
393.13	1558.80
393.33	1502.62
393.52	1528.37
393.71	1631.35
393.91	1540.07
394.10	1502.62
394.29	1526.03
394.49	1582.20
394.68	1671.14
394.88	1664.12
395.07	1629.01
395.26	1621.99
395.46	1664.12
395.65	1659.44
395.84	1603.27
396.04	1792.85
396.23	1750.72
396.42	1753.06
396.62	1720.29
396.81	1870.09
397.00	1689.87
397.19	1797.53
397.39	1767.10
397.58	1872.43
397.77	1863.07
397.97	1818.60
398.16	1823.28
398.35	1909.88
398.55	1909.88
398.74	1881.79
398.93	1909.88
399.12	1914.56
399.32	1973.07
399.51	1989.46
399.70	1998.82
399.90	1980.09
400.09	2076.06
400.28	1980.09
400.47	1994.14
400.67	2104.14
400.86	2003.50
401.05	2139.25
401.24	2047.97
401.44	2040.95
401.63	2076.06
401.82	2132.23
402.01	2073.71
402.21	2197.76
402.40	2111.16
402.59	2214.15
402.78	2183.72
402.97	2209.47
403.17	2188.40
403.36	2197.76
403.55	2333.51
403.74	2434.16
403.93	2375.64
404.13	2244.57
404.32	2385.01
404.51	2377.98
404.70	2445.86
404.89	2310.11
405.09	2413.09
405.28	2427.14
405.47	2452.88
405.66	2480.97
405.85	2567.57
406.05	2558.21
406.24	2544.16
406.43	2572.25
406.62	2588.63
406.81	2635.44
407.00	2546.50
407.20	2553.52
407.39	2644.81
407.58	2743.11
407.77	2775.88
407.96	2789.92
408.15	2775.88
408.34	2679.91
408.54	2726.72
408.73	2799.28
408.92	2813.32
409.11	2853.11
409.30	2832.05
409.49	2818.00
409.68	2963.12
409.87	2883.54
410.07	2981.84
410.26	3038.02
410.45	2995.89
410.64	3021.63
410.83	3056.74
411.02	3173.77
411.21	3199.51
411.40	3061.42
411.59	3173.77
411.78	3241.64
411.98	3164.40
412.17	3283.77
412.36	3272.07
412.55	3431.23
412.74	3323.56
412.93	3466.33
413.12	3297.81
413.31	3543.57
413.50	3318.88
413.69	3463.99
413.88	3599.74
414.07	3597.40
414.26	3609.11
414.45	3674.64
414.64	3709.75
414.83	3648.90
415.02	3688.68
415.22	3641.87
415.41	4037.42
415.60	3974.23
415.79	3817.41
415.98	3906.35
416.17	3889.97
416.36	4049.13
416.55	4014.02
416.74	4109.98
416.93	3922.74
417.12	4086.58
417.31	4145.09
417.50	4053.81
417.69	4234.03
417.88	4255.09
418.07	4203.60
418.26	4208.28
418.45	4276.16
418.64	4451.70
418.83	4285.52
419.02	4369.78
419.21	4629.58
419.39	4449.36
419.58	4678.73
419.77	4388.50
419.96	4456.38
420.15	4592.13
420.34	4468.08
420.53	4550.00
420.72	4615.54
420.91	4744.27
421.10	4695.11
421.29	4816.82
421.48	4762.99
421.67	4760.65
421.86	4720.86
422.05	4891.72
422.24	4770.01
422.43	4695.11
422.61	4861.29
422.80	4873.00
422.99	4926.83
423.18	4994.70
423.37	5151.52
423.56	5032.15
423.75	4807.46
423.94	4812.14
424.13	4660.01
424.32	4652.98
424.50	5006.41
424.69	5097.69
424.88	5053.22
425.07	4910.44
425.26	4938.53
425.45	4924.49
425.64	4861.29
425.83	4917.47
426.01	4945.55
426.20	4943.21
426.39	4954.91
426.58	5102.37
426.77	4908.10
426.96	5111.73
427.15	5263.86
427.33	5135.14
427.52	5128.11
427.71	5280.25
427.90	5172.58
428.09	5261.52
428.28	5401.96
428.46	5385.57
428.65	5301.31
428.84	5446.43
429.03	5518.98
429.22	5212.37
429.40	5458.13
429.59	5502.60
429.78	5369.19
429.97	5348.12
430.16	5617.29
430.34	5647.71
430.53	5610.26
430.72	5727.29
430.91	5626.65
431.10	5762.40
431.28	5736.65
431.47	5617.29
431.66	5748.36
431.85	5699.20
432.03	5860.70
432.22	5998.79
432.41	5956.66
432.60	5912.19
432.79	5884.11
432.97	6017.52
433.16	5849.00
433.35	5937.94
433.54	5942.62
433.72	6263.27
433.91	6064.33
434.10	6129.86
434.28	6188.38
434.47	6179.01
434.66	6167.31
434.85	6392.00
435.03	6394.34
435.22	6242.21
435.41	6476.26
435.59	6410.73
435.78	6445.84
435.97	6326.47
436.16	6497.33
436.34	6511.37
436.53	6520.73
436.72	6616.69
436.90	6466.90
437.09	6724.36
437.28	6284.34
437.46	6621.38
437.65	6733.72
437.84	6731.38
438.02	6719.68
438.21	6719.68
438.40	6672.87
438.58	6911.60
438.77	6888.20
438.96	7227.57
439.14	7124.59
439.33	7321.20
439.52	7288.43
439.70	7220.55
439.89	7363.33
440.08	7377.37
440.26	7421.84
440.45	7225.23
440.63	7391.41
440.82	7679.30
441.01	7672.28
441.19	7590.36
441.38	7637.17
441.57	7763.56
441.75	7899.31
441.94	7836.11
442.12	7808.03
442.31	8018.68
442.50	8063.15
442.68	7990.59
442.87	7889.95
443.05	8056.12
443.24	8311.24
443.43	8205.92
443.61	8163.79
443.80	8308.90
443.98	8154.43
444.17	7960.16
444.35	8161.45
444.54	8290.18
444.73	8290.18
444.91	8138.04
445.10	8163.79
445.28	8145.06
445.47	8252.73
445.65	8264.43
445.84	8383.80
446.02	8292.52
446.21	8463.38
446.39	8287.84
446.58	8421.25
446.77	8212.94
446.95	8297.20
447.14	8430.61
447.32	8463.38
447.51	8418.91
447.69	8397.84
447.88	8631.90
448.06	8606.15
448.25	8435.29
448.43	8610.83
448.62	8720.84
448.80	8491.46
448.99	8711.47
449.17	8875.31
449.36	8482.10
449.54	8922.12
449.73	8903.40
449.91	9156.18
450.10	8987.66
450.28	9034.47
450.46	8978.30
450.65	8968.93
450.83	8952.55
451.02	8919.78
451.20	9205.33
451.39	9165.54
451.57	9455.76
451.76	9041.49
451.94	9217.03
452.13	9291.93
452.31	9198.31
452.49	9291.93
452.68	9198.31
452.86	9273.20
453.05	9547.05
453.23	9228.73
453.42	9446.40
453.60	9474.49
453.78	9563.43
453.97	9357.46
454.15	9432.36
454.34	9472.15
454.52	9788.12
454.70	9617.26
454.89	9776.42
455.07	9603.22
455.26	9738.97
455.44	9863.02
455.62	10087.71
455.81	9785.78
455.99	9841.95
456.17	10090.05
456.36	10059.62
456.54	10214.10
456.73	10321.76
456.91	10375.59
457.09	10408.36
457.28	10569.86
457.46	10162.61
457.64	10541.77
457.83	10501.98
458.01	10693.91
458.19	10457.51
458.38	10494.96
458.56	10586.24
458.74	10663.48
458.93	10609.65
459.11	10647.10
459.29	10665.82
459.48	10801.57
459.66	10658.80
459.84	10848.38
460.03	11033.29
460.21	10986.47
460.39	10832.00
460.57	11052.01
460.76	11073.07
460.94	11316.49
461.12	11159.67
461.31	11295.43
461.49	11276.70
461.67	11012.22
461.85	11382.03
462.04	11180.74
462.22	11702.68
462.40	11705.02
462.59	11742.47
462.77	11316.49
462.95	11672.25
463.13	11756.51
463.32	11618.42
463.50	11707.36
463.68	11721.40
463.86	11793.96
464.05	11662.89
464.23	11660.55
464.41	11929.71
464.59	11393.73
464.78	12025.67
464.96	12133.34
465.14	11730.76
465.32	12025.67
465.50	12180.15
465.69	12231.64
465.87	12140.36
466.05	11946.09
466.23	12215.26
466.41	12336.96
466.60	12486.76
466.78	12161.42
466.96	12294.83
467.14	11969.50
467.32	12252.70
467.51	12432.93
467.69	12273.77
467.87	12442.29
468.05	12582.72
468.23	12589.74
468.41	12437.61
468.60	12566.34
468.78	12695.07
468.96	12383.77
469.14	12589.74
469.32	12879.97
469.50	12746.56
469.69	13118.70
469.87	13261.48
470.05	13090.62
470.23	13144.45
470.41	12961.89
470.59	13247.43
470.77	13144.45
470.95	13273.18
471.14	13507.23
471.32	13109.34
471.50	13542.34
471.68	13600.85
471.86	13540.00
472.04	13689.79
472.22	13987.04
472.40	13469.78
472.58	13816.18
472.77	13757.67
472.95	13998.74
473.13	14281.95
473.31	14160.24
473.49	14185.99
473.67	14022.15
473.85	14148.54
474.03	14480.89
474.21	14724.31
474.39	14490.26
474.57	14658.78
474.75	14857.72
474.93	14759.42
475.12	14878.79
475.30	14869.42
475.48	15115.18
475.66	15049.64
475.84	15061.35
476.02	15389.02
476.20	15272.00
476.38	15655.84
476.56	15992.88
476.74	15939.05
476.92	15815.00
477.10	15859.47
477.28	16229.27
477.46	16035.01
477.64	16360.34
477.82	16355.66
478.00	16863.56
478.18	16966.54
478.36	17104.64
478.54	17231.02
478.72	17329.33
478.90	17511.89
479.08	17511.89
479.26	17647.64
479.44	17891.06
479.62	17654.66
479.80	18120.43
479.98	18239.79
480.16	18689.18
480.34	18136.81
480.52	18553.43
480.70	18726.63
480.88	18562.79
481.06	18960.68
481.24	18834.29
481.41	18963.02
481.59	19496.66
481.77	19510.71
481.95	19550.49
482.13	19618.37
482.31	19824.34
482.49	20219.89
482.67	20121.59
482.85	20236.27
483.03	20664.59
483.21	20800.34
483.39	20922.05
483.57	20680.97
483.74	21221.64
483.92	21231.00
484.10	20980.56
484.28	21671.02
484.46	21881.67
484.64	22501.91
484.82	21809.11
485.00	21991.67
485.18	22677.45
485.35	22668.09
485.53	22623.62
485.71	23229.82
485.89	23637.07
486.07	23379.61
486.25	23178.33
486.43	23501.32
486.61	23985.81
486.78	23915.59
486.96	24240.93
487.14	24332.21
487.32	24613.07
487.50	24989.90
487.68	24748.82
487.85	25198.21
488.03	25577.37
488.21	26001.01
488.39	25933.14
488.57	25879.30
488.75	26075.91
488.92	26270.17
489.10	26480.82
489.28	26815.52
489.46	26782.75
489.64	26972.33
489.81	27735.35
489.99	27456.82
490.17	27688.54
490.35	28215.16
490.53	28276.01
490.70	28395.38
490.88	28390.70
491.06	28840.08
491.24	28929.02
491.41	29125.63
491.59	29024.98
491.77	29275.42
491.95	29610.12
492.13	29661.61
492.30	29752.89
492.48	30038.44
492.66	30335.68
492.84	30190.57
493.01	30576.76
493.19	30539.31
493.37	31054.23
493.54	31009.76
493.72	31456.80
493.90	31255.51
494.08	31789.16
494.25	32301.73
494.43	32194.07
494.61	32135.56
494.79	32346.20
494.96	32313.44
495.14	32975.81
495.32	32961.76
495.49	33631.16
495.67	33270.72
495.85	33493.07
496.02	33832.44
496.20	34033.73
496.38	33736.48
496.55	34155.44
496.73	34883.34
496.91	34368.43
497.09	34848.24
497.26	34731.21
497.44	34939.52
497.62	34707.80
497.79	35742.32
497.97	35367.84
498.14	36030.21
498.32	36067.66
498.50	36250.22
498.67	36587.25
498.85	36425.76
499.03	36624.70
499.20	36292.35
499.38	37106.85
499.56	36943.02
499.73	37242.60
499.91	37354.95
500.08	37514.11
500.26	37158.34
500.44	37525.81
500.61	37450.91
500.79	37476.66
500.97	38082.86
501.14	38904.38
501.32	38464.36
501.49	38609.48
501.67	38665.65
501.84	38899.70
502.02	38651.61
502.20	39105.67
502.37	39058.86
502.55	39271.85
502.72	39384.19
502.90	39407.60
503.07	39302.28
503.25	39648.68
503.43	39728.25
503.60	39854.64
503.78	40191.68
503.95	40624.68
504.13	40390.62
504.30	40570.85
504.48	40318.07
504.65	40376.58
504.83	40959.38
505.01	41057.68
505.18	41294.07
505.36	41408.76
505.53	41310.46
505.71	41645.15
505.88	41813.67
506.06	41312.80
506.23	41883.89
506.41	41743.45
506.58	42087.51
506.76	41790.27
506.93	41832.39
507.11	42033.68
507.28	42401.14
507.46	42911.38
507.63	43129.05
507.81	42974.58
507.98	42827.12
508.16	43119.69
508.33	43318.64
508.50	43379.49
508.68	43536.30
508.85	44119.10
509.03	43496.52
509.20	43674.40
509.38	44205.70
509.55	44430.39
509.73	44287.62
509.90	44273.57
510.08	44835.30
510.25	44720.62
510.42	44910.20
510.60	44601.25
510.77	45125.53
510.95	45579.59
511.12	44839.98
511.30	44971.05
511.47	45588.95
511.64	45560.87
511.82	45691.94
511.99	45343.20
512.17	45507.04
512.34	45797.26
512.51	46410.48
512.69	46499.42
512.86	46064.08
513.04	46394.10
513.21	46354.31
513.38	47147.75
513.56	47051.79
513.73	46674.96
513.90	46745.18
514.08	46679.64
514.25	47159.45
514.43	47007.32
514.60	47236.69
514.77	47131.37
514.95	47887.36
515.12	47220.31
515.29	47653.31
515.47	48051.20
515.64	48318.02
515.81	47657.99
515.99	48184.61
516.16	48477.18
516.33	48079.28
516.51	48502.92
516.68	48650.38
516.85	48879.75
517.03	48582.50
517.20	48648.03
517.37	48966.35
517.54	48809.53
517.72	48739.32
517.89	49057.63
518.06	49205.08
518.24	49223.81
518.41	49230.83
518.58	49315.09
518.75	48666.76
518.93	49338.49
519.10	49303.38
519.27	49928.31
519.45	49928.31
519.62	49581.91
519.79	49925.97
519.96	49879.16
520.14	50705.37
520.31	50246.62
520.48	50293.43
520.65	50080.44
520.83	50541.53
521.00	50630.47
521.17	50377.69
521.34	50670.26
521.52	50714.73
521.69	50721.75
521.86	51253.05
522.03	50759.20
522.20	50993.25
522.38	51309.22
522.55	50777.92
522.72	51569.02
522.89	51065.81
523.07	51772.65
523.24	51356.03
523.41	51639.24
523.58	51452.00
523.75	51636.90
523.92	51442.63
524.10	51779.67
524.27	51894.36
524.44	51632.22
524.61	51828.82
524.78	52296.93
524.96	52186.92
525.13	52280.55
525.30	52322.68
525.47	52603.54
525.64	52514.60
525.81	52790.78
525.98	52640.99
526.16	52512.26
526.33	52547.37
526.50	53251.87
526.67	52711.20
526.84	52624.60
527.01	52615.24
527.18	52999.09
527.36	52954.62
527.53	52851.64
527.70	52942.92
527.87	53499.97
528.04	53015.47
528.21	53198.04
528.38	53291.66
528.55	53528.05
528.72	53338.47
528.89	53205.06
529.07	53202.72
529.24	53441.45
529.41	53731.68
529.58	53448.47
529.75	53553.80
529.92	53380.60
530.09	53647.42
530.26	54082.76
530.43	53853.39
530.60	53624.01
530.77	53858.07
530.94	54052.33
531.11	53860.41
531.28	54302.77
531.46	54094.46
531.63	54520.44
531.80	54288.73
531.97	54169.36
532.14	54354.26
532.31	54405.75
532.48	54372.99
532.65	54518.10
532.82	54267.66
532.99	54688.96
533.16	54621.08
533.33	54635.13
533.50	54789.60
533.67	54941.74
533.84	54707.68
534.01	54824.71
534.18	55023.65
534.35	55367.71
534.52	54925.35
534.69	55311.54
534.86	54843.43
535.03	55157.06
535.20	55189.83
535.37	55171.11
535.54	55311.54
535.71	55192.17
535.88	55473.04
536.05	55238.98
536.22	55323.24
536.38	55419.20
536.55	55531.55
536.72	55145.36
536.89	55475.38
537.06	55494.10
537.23	55716.45
537.40	55327.92
537.57	55863.91
537.74	55896.67
537.91	56023.06
538.08	55760.92
538.25	55749.22
538.42	55629.85
538.59	56172.86
538.75	55814.76
538.92	55922.42
539.09	56247.75
539.26	56212.65
539.43	56170.52
539.60	56100.30
539.77	56226.69
539.94	56280.52
540.11	56320.31
540.28	56427.98
540.44	56395.21
540.61	56287.54
540.78	56362.44
540.95	56580.11
541.12	56280.52
541.29	56479.47
541.46	56563.73
541.62	56477.13
541.79	56711.18
541.96	56411.59
542.13	56622.24
542.30	56439.68
542.47	56624.58
542.63	56882.04
542.80	56837.57
542.97	56898.42
543.14	57066.94
543.31	57286.95
543.48	57013.11
543.64	57270.57
543.81	57324.40
543.98	57392.28
544.15	57151.20
544.32	57256.53
544.48	57544.41
544.65	57338.44
544.82	57511.64
544.99	57144.18
545.16	57516.32
545.32	57373.55
545.49	57684.84
545.66	57897.83
545.83	57649.74
546.00	57553.77
546.16	57647.39
546.33	57787.83
546.50	57591.22
546.67	57701.23
546.83	57415.68
547.00	57553.77
547.17	57748.04
547.34	57684.84
547.50	58127.20
547.67	57766.76
547.84	57879.11
548.00	57827.62
548.17	58230.19
548.34	58078.05
548.51	58080.39
548.67	58148.27
548.84	57991.45
549.01	58117.84
549.18	57977.41
549.34	58251.25
549.51	58197.42
549.68	58129.54
549.84	58466.58
550.01	58377.64
550.18	58071.03
550.34	58344.87
550.51	58337.85
550.68	58431.47
550.84	58211.46
551.01	58436.16
551.18	58473.60
551.34	58377.64
551.51	58592.97
551.68	58738.08
551.84	58567.23
552.01	58478.28
552.18	58707.66
552.34	58635.10
552.51	58618.72
552.68	58295.72
552.84	58604.67
553.01	58815.32
553.18	58754.47
553.34	58869.15
553.51	58930.01
553.67	58890.22
553.84	59185.13
554.01	58941.71
554.17	58745.11
554.34	58876.18
554.51	58946.39
554.67	59042.35
554.84	58824.68
555.00	58906.60
555.17	58855.11
555.33	59103.21
555.50	58733.40
555.67	58876.18
555.83	59107.89
556.00	59173.42
556.16	59236.62
556.33	59075.12
556.50	59217.89
556.66	59363.01
556.83	58972.14
556.99	59309.18
557.16	59325.56
557.32	59491.74
557.49	59470.67
557.65	59248.32
557.82	59512.80
557.98	59264.70
558.15	59302.15
558.32	59437.90
558.48	59412.16
558.65	59395.77
558.81	59395.77
558.98	59468.33
559.14	59554.93
559.31	59774.94
559.47	59597.06
559.64	59405.14
559.80	59526.84
559.97	59477.69
560.13	59419.18
560.30	59613.44
560.46	59662.60
560.63	59690.68
560.79	59554.93
560.96	59667.28
561.12	59875.58
561.29	59767.92
561.45	59880.27
561.61	59625.15
561.78	59721.11
561.94	59709.41
562.11	59849.84
562.27	59861.54
562.44	59950.48
562.60	59980.91
562.77	59957.50
562.93	59695.36
563.10	59934.10
563.26	59990.27
563.42	60058.15
563.59	59704.73
563.75	60053.47
563.92	60074.53
564.08	59880.27
564.24	60172.83
564.41	59943.46
564.57	60060.49
564.74	59854.52
564.90	59952.82
565.07	59877.93
565.23	59990.27
565.39	60308.58
565.56	60168.15
565.72	59835.80
565.88	60221.98
566.05	60154.11
566.21	60198.58
566.38	60156.45
566.54	60168.15
566.70	60493.49
566.87	60434.97
567.03	60067.51
567.19	60331.99
567.36	60175.17
567.52	60203.26
567.68	60430.29
567.85	60317.95
568.01	60261.77
568.17	60205.60
568.34	60250.07
568.50	60369.44
568.66	60299.22
568.83	60484.12
568.99	60100.28
569.15	60395.18
569.32	60425.61
569.48	60402.21
569.64	60472.42
569.81	60673.71
569.97	60310.92
570.13	60409.23
570.30	60247.73
570.46	60411.57
570.62	60481.78
570.78	60495.83
570.95	60418.59
571.11	60657.32
571.27	60537.96
571.43	60575.40
571.60	60605.83
571.76	60500.51
571.92	60514.55
572.09	60654.98
572.25	60495.83
572.41	60467.74
572.57	60657.32
572.74	60683.07
572.90	60439.65
573.06	60498.17
573.22	60633.92
573.38	60388.16
573.55	60535.62
573.71	60786.05
573.87	60526.25
574.03	60582.43
574.20	60486.46
574.36	60580.09
574.52	60729.88
574.68	60547.32
574.84	60603.49
575.01	60821.16
575.17	60645.62
575.33	60470.08
575.49	60683.07
575.65	60701.79
575.82	60884.36
575.98	60530.93
576.14	61045.85
576.30	60860.95
576.46	60530.93
576.62	60706.47
576.79	60589.45
576.95	60582.43
577.11	60739.24
577.27	60671.37
577.43	60631.58
577.59	60690.09
577.75	60636.26
577.92	60570.72
578.08	60582.43
578.24	60772.01
578.40	61078.62
578.56	60764.99
578.72	60802.44
578.88	60973.30
579.04	60949.89
579.21	60914.78
579.37	61038.83
579.53	60910.10
579.69	60570.72
579.85	60828.18
580.01	60732.22
580.17	60706.47
580.33	60835.20
580.49	61008.40
580.65	60910.10
580.82	60896.06
580.98	60701.79
581.14	60739.24
581.30	60863.29
581.46	60851.59
581.62	61064.58
581.78	60750.94
581.94	60830.52
582.10	60809.46
582.26	60832.86
582.42	60779.03
582.58	60858.61
582.74	60886.70
582.90	60685.41
583.06	60900.74
583.22	60617.53
583.38	60807.12
583.54	60924.14
583.70	60797.76
583.86	61111.39
584.02	60720.52
584.18	61059.90
584.34	61015.43
584.50	60924.14
584.66	60891.38
584.82	60732.22
584.98	60977.98
585.14	60959.25
585.30	60907.76
585.46	60949.89
585.62	60975.64
585.78	60935.85
585.94	60629.24
586.10	60900.74
586.26	61132.45
586.42	60879.67
586.58	61127.77
586.74	60783.71
586.90	60903.08
587.06	60863.29
587.22	61270.54
587.38	61003.72
587.54	61153.52
587.70	61193.31
587.86	61090.32
588.02	61080.96
588.18	61078.62
588.34	61038.83
588.49	61038.83
