SpectraSuite Data File
++++++++++++++++++++++++++++++++++++
Date: Fri Oct 25 11:34:43 EDT 2013
User: price-jones
Dark Spectrum Present: No
Reference Spectrum Present: No
Number of Sampled Component Spectra: 1
Spectrometers: USB2+H05261
Integration Time (usec): 100000 (USB2+H05261)
Spectra Averaged: 1 (USB2+H05261)
Boxcar Smoothing: 0 (USB2+H05261)
Correct for Electrical Dark: No (USB2+H05261)
Strobe/Lamp Enabled: No (USB2+H05261)
Correct for Detector Non-linearity: No (USB2+H05261)
Correct for Stray Light: No (USB2+H05261)
Number of Pixels in Processed Spectrum: 2048
>>>>>Begin Processed Spectral Data<<<<<
365.73	292.57
365.92	292.57
366.12	292.57
366.32	203.63
366.52	131.07
366.72	166.18
366.91	138.09
367.11	149.79
367.31	149.79
367.51	196.60
367.70	208.31
367.90	119.37
368.10	191.92
368.30	201.29
368.49	149.79
368.69	234.05
368.89	149.79
369.09	180.22
369.28	182.56
369.48	217.67
369.68	210.65
369.87	266.82
370.07	252.78
370.27	269.16
370.47	367.46
370.66	496.19
370.86	470.45
371.06	587.47
371.25	599.18
371.45	498.53
371.65	568.75
371.84	596.84
372.04	538.32
372.24	622.58
372.44	505.56
372.63	622.58
372.83	561.73
373.03	566.41
373.22	582.79
373.42	566.41
373.62	514.92
373.81	645.99
374.01	620.24
374.21	603.86
374.40	674.07
374.60	671.73
374.79	631.94
374.99	638.97
375.19	599.18
375.38	601.52
375.58	622.58
375.78	648.33
375.97	650.67
376.17	718.54
376.37	704.50
376.56	688.12
376.76	667.05
376.95	664.71
377.15	638.97
377.35	688.12
377.54	704.50
377.74	664.71
377.93	695.14
378.13	702.16
378.33	653.01
378.52	643.65
378.72	713.86
378.91	681.10
379.11	730.25
379.31	720.88
379.50	648.33
379.70	629.60
379.89	774.72
380.09	653.01
380.28	648.33
380.48	660.03
380.68	662.37
380.87	627.26
381.07	697.48
381.26	711.52
381.46	770.04
381.65	777.06
381.85	755.99
382.04	660.03
382.24	805.14
382.43	802.80
382.63	784.08
382.83	802.80
383.02	753.65
383.22	828.55
383.41	802.80
383.61	840.25
383.80	732.59
384.00	809.83
384.19	695.14
384.39	842.59
384.58	746.63
384.78	732.59
384.97	805.14
385.17	833.23
385.36	823.87
385.56	802.80
385.75	772.38
385.95	823.87
386.14	816.85
386.34	837.91
386.53	835.57
386.72	842.59
386.92	821.53
387.11	849.61
387.31	863.66
387.50	884.72
387.70	847.27
387.89	887.06
388.09	826.21
388.28	861.32
388.48	880.04
388.67	959.62
388.86	908.13
389.06	851.96
389.25	964.30
389.45	919.83
389.64	873.02
389.84	842.59
390.03	950.26
390.22	889.40
390.42	978.34
390.61	844.93
390.81	940.90
391.00	929.19
391.19	978.34
391.39	940.90
391.58	931.53
391.78	957.28
391.97	950.26
392.16	1015.79
392.36	1008.77
392.55	983.02
392.75	936.21
392.94	1006.43
393.13	994.73
393.33	1008.77
393.52	1053.24
393.71	1074.31
393.91	985.37
394.10	1034.52
394.29	1060.26
394.49	1062.60
394.68	1043.88
394.88	1060.26
395.07	1111.75
395.26	1076.65
395.46	1097.71
395.65	1153.88
395.84	1203.04
396.04	1144.52
396.23	1193.67
396.42	1144.52
396.62	1109.41
396.81	1219.42
397.00	1226.44
397.19	1245.16
397.39	1217.08
397.58	1114.10
397.77	1156.22
397.97	1240.48
398.16	1207.72
398.35	1268.57
398.55	1109.41
398.74	1259.21
398.93	1247.51
399.12	1153.88
399.32	1214.74
399.51	1277.93
399.70	1289.64
399.90	1296.66
400.09	1313.04
400.28	1334.11
400.47	1359.85
400.67	1336.45
400.86	1355.17
401.05	1399.64
401.24	1460.49
401.44	1317.72
401.63	1409.00
401.82	1350.49
402.01	1329.42
402.21	1397.30
402.40	1430.07
402.59	1451.13
402.78	1516.67
402.97	1551.78
403.17	1481.56
403.36	1483.90
403.55	1474.54
403.74	1488.58
403.93	1551.78
404.13	1511.99
404.32	1575.18
404.51	1500.28
404.70	1570.50
404.89	1596.25
405.09	1619.65
405.28	1647.74
405.47	1603.27
405.66	1732.00
405.85	1563.48
406.05	1600.93
406.24	1664.12
406.43	1659.44
406.62	1675.82
406.81	1652.42
407.00	1680.50
407.20	1762.42
407.39	1631.35
407.58	1783.49
407.77	1757.74
407.96	1792.85
408.15	1792.85
408.34	1776.47
408.54	1804.55
408.73	1891.15
408.92	1884.13
409.11	1926.26
409.30	1900.52
409.49	1863.07
409.68	1907.54
409.87	1959.03
410.07	1947.33
410.26	1914.56
410.45	1902.86
410.64	1947.33
410.83	2118.18
411.02	2129.89
411.21	2069.03
411.40	2087.76
411.59	2113.50
411.78	2052.65
411.98	2033.93
412.17	2111.16
412.36	2118.18
412.55	2132.23
412.74	2059.67
412.93	2150.95
413.12	2139.25
413.31	2436.50
413.50	2289.04
413.69	2256.28
413.88	2438.84
414.07	2349.90
414.26	2424.80
414.45	2377.98
414.64	2495.01
414.83	2441.18
415.02	2424.80
415.22	2420.11
415.41	2555.86
415.60	2485.65
415.79	2544.16
415.98	2530.12
416.17	2567.57
416.36	2551.18
416.55	2593.31
416.74	2689.28
416.93	2696.30
417.12	2665.87
417.31	2679.91
417.50	2670.55
417.69	2698.64
417.88	2801.62
418.07	2860.13
418.26	2825.03
418.45	2832.05
418.64	3038.02
418.83	2719.70
419.02	2942.05
419.21	2965.46
419.39	2918.65
419.58	2939.71
419.77	2984.18
419.96	2939.71
420.15	3045.04
420.34	3087.17
420.53	3070.78
420.72	3070.78
420.91	3103.55
421.10	3131.64
421.29	3248.66
421.48	3141.00
421.67	3110.57
421.86	3155.04
422.05	3190.15
422.24	3133.98
422.43	3098.87
422.61	3148.02
422.80	3248.66
422.99	3253.34
423.18	3286.11
423.37	3105.89
423.56	3213.56
423.75	3190.15
423.94	3129.30
424.13	3103.55
424.32	3014.61
424.50	3260.37
424.69	3375.05
424.88	3356.33
425.07	3185.47
425.26	3258.03
425.45	3344.63
425.64	3159.72
425.83	3183.13
426.01	3283.77
426.20	3173.77
426.39	3318.88
426.58	3239.30
426.77	3304.84
426.96	3361.01
427.15	3384.41
427.33	3330.58
427.52	3449.95
427.71	3372.71
427.90	3496.76
428.09	3384.41
428.28	3503.78
428.46	3616.13
428.65	3510.80
428.84	3569.32
429.03	3515.48
429.22	3424.20
429.40	3604.42
429.59	3550.59
429.78	3538.89
429.97	3386.76
430.16	3672.30
430.34	3616.13
430.53	3616.13
430.72	3660.60
430.91	3632.51
431.10	3609.11
431.28	3728.47
431.47	3850.18
431.66	3904.01
431.85	3880.61
432.03	3957.85
432.22	3845.50
432.41	3801.03
432.60	3819.75
432.79	3939.12
432.97	3899.33
433.16	3906.35
433.35	3985.93
433.54	3941.46
433.72	4023.38
433.91	4098.28
434.10	3847.84
434.28	3962.53
434.47	3990.61
434.66	3934.44
434.85	3943.80
435.03	4159.13
435.22	4117.00
435.41	4322.97
435.59	4009.34
435.78	4234.03
435.97	4161.47
436.16	4212.96
436.34	4098.28
436.53	4212.96
436.72	4234.03
436.90	4217.65
437.09	4367.44
437.28	4219.99
437.46	4320.63
437.65	4351.06
437.84	4325.31
438.02	4222.33
438.21	4491.49
438.40	4276.16
438.58	4662.35
438.77	4554.68
438.96	4456.38
439.14	4610.86
439.33	4657.67
439.52	4704.48
439.70	4641.28
439.89	4791.08
440.08	4641.28
440.26	4802.78
440.45	4676.39
440.63	4990.02
440.82	4882.36
441.01	4905.76
441.19	4922.15
441.38	4931.51
441.57	4983.00
441.75	4898.74
441.94	5083.64
442.12	5233.44
442.31	5076.62
442.50	5245.14
442.68	5191.31
442.87	5167.90
443.05	5268.55
443.24	5245.14
443.43	5231.10
443.61	5317.70
443.80	5357.49
443.98	5282.59
444.17	4910.44
444.35	5093.01
444.54	5366.85
444.73	5268.55
444.91	5390.25
445.10	5277.91
445.28	5331.74
445.47	5359.83
445.65	5341.10
445.84	5345.78
446.02	5378.55
446.21	5460.47
446.39	5493.24
446.58	5451.11
446.77	5434.72
446.95	5149.18
447.14	5427.70
447.32	5446.43
447.51	5453.45
447.69	5420.68
447.88	5481.53
448.06	5317.70
448.25	5500.26
448.43	5521.32
448.62	5455.79
448.80	5476.85
448.99	5380.89
449.17	5589.20
449.36	5528.35
449.54	5710.91
449.73	5645.37
449.91	5809.21
450.10	5764.74
450.28	5760.06
450.46	5841.98
450.65	5673.46
450.83	5877.09
451.02	5678.14
451.20	5898.15
451.39	5905.17
451.57	5830.27
451.76	5790.49
451.94	5853.68
452.13	5973.05
452.31	6073.69
452.49	6069.01
452.68	5951.98
452.86	5881.77
453.05	6003.47
453.23	6003.47
453.42	6026.88
453.60	6047.94
453.78	6125.18
453.97	6015.18
454.15	5919.21
454.34	6171.99
454.52	6305.40
454.70	6258.59
454.89	6162.63
455.07	6127.52
455.26	6246.89
455.44	6289.02
455.62	6523.07
455.81	6420.09
455.99	6459.88
456.17	6408.39
456.36	6422.43
456.54	6483.28
456.73	6539.46
456.91	6621.38
457.09	6693.93
457.28	6757.13
457.46	6595.63
457.64	6565.20
457.83	6738.40
458.01	6663.51
458.19	6757.13
458.38	6789.89
458.56	6796.92
458.74	6871.81
458.93	6761.81
459.11	6839.05
459.29	6930.33
459.48	7000.54
459.66	6825.00
459.84	6939.69
460.03	6981.82
460.21	7169.06
460.39	7059.06
460.57	7136.29
460.76	7045.01
460.94	6956.07
461.12	7187.79
461.31	7176.08
461.49	7002.88
461.67	7045.01
461.85	7517.80
462.04	7267.36
462.22	7372.69
462.40	7372.69
462.59	7267.36
462.77	7414.82
462.95	7295.45
463.13	7360.98
463.32	7419.50
463.50	7531.84
463.68	7524.82
463.86	7503.76
464.05	7295.45
464.23	7391.41
464.41	7405.46
464.59	7351.62
464.78	7555.25
464.96	7639.51
465.14	7555.25
465.32	7590.36
465.50	7555.25
465.69	7632.49
465.87	7595.04
466.05	7728.45
466.23	7770.58
466.41	7660.57
466.60	7880.58
466.78	7599.72
466.96	7772.92
467.14	7789.30
467.32	8093.57
467.51	7892.29
467.69	7749.51
467.87	8018.68
468.05	7770.58
468.23	7953.14
468.41	7894.63
468.60	7922.71
468.78	7875.90
468.96	7918.03
469.14	8081.87
469.32	8198.90
469.50	8234.00
469.69	8355.71
469.87	8084.21
470.05	8482.10
470.23	8360.39
470.41	8175.49
470.59	8482.10
470.77	8376.78
470.95	8479.76
471.14	8528.91
471.32	8325.29
471.50	8526.57
471.68	8685.73
471.86	8582.74
472.04	8777.01
472.22	8755.94
472.40	8526.57
472.58	8851.91
472.77	8849.57
472.95	8821.48
473.13	8917.44
473.31	8943.19
473.49	8997.02
473.67	9020.42
473.85	8954.89
474.03	9212.35
474.21	9228.73
474.39	9247.46
474.57	9399.59
474.75	9490.87
474.93	9107.02
475.12	9338.74
475.30	9476.83
475.48	9415.98
475.66	9451.08
475.84	9408.95
476.02	9448.74
476.20	9556.41
476.38	9717.90
476.56	9834.93
476.74	10010.47
476.92	9998.77
477.10	9923.87
477.28	9956.64
477.46	9987.07
477.64	10188.35
477.82	10265.59
478.00	10567.52
478.18	10431.77
478.36	10473.90
478.54	10663.48
478.72	10815.62
478.90	10848.38
479.08	11002.86
479.26	11056.69
479.44	10981.79
479.62	10988.82
479.80	11143.29
479.98	11239.25
480.16	11613.74
480.34	11410.11
480.52	11571.61
480.70	11665.23
480.88	11557.57
481.06	11573.95
481.24	11681.61
481.41	11999.93
481.59	12011.63
481.77	12210.57
481.95	12044.40
482.13	12152.06
482.31	12107.59
482.49	12386.12
482.67	12528.89
482.85	12622.51
483.03	12910.40
483.21	13053.17
483.39	13018.06
483.57	12933.80
483.74	13296.58
483.92	13067.21
484.10	13099.98
484.28	13617.24
484.46	13760.01
484.64	13675.75
484.82	13659.37
485.00	13785.76
485.18	14031.51
485.35	14136.84
485.53	14228.12
485.71	14139.18
485.89	14497.28
486.07	14511.32
486.25	14380.25
486.43	14429.40
486.61	14937.30
486.78	14991.13
486.96	14747.72
487.14	15147.95
487.32	15147.95
487.50	15152.63
487.68	15250.93
487.85	15480.30
488.03	15707.34
488.21	16250.34
488.39	16027.99
488.57	16290.13
488.75	16002.24
488.92	16226.93
489.10	16430.56
489.28	16498.44
489.46	16716.11
489.64	16578.01
489.81	17380.82
489.99	17027.40
490.17	16971.22
490.35	17387.84
490.53	17514.23
490.70	17710.83
490.88	17455.72
491.06	18071.28
491.24	17998.72
491.41	18052.55
491.59	18125.11
491.77	18010.42
491.95	18263.20
492.13	18263.20
492.30	18595.56
492.48	18485.55
492.66	18735.99
492.84	18801.52
493.01	18820.25
493.19	18948.98
493.37	18967.70
493.54	19094.09
493.72	19454.53
493.90	19639.44
494.08	19590.28
494.25	19566.88
494.43	19800.93
494.61	19906.26
494.79	20016.26
494.96	19875.83
495.14	20112.22
495.32	20524.16
495.49	20407.13
495.67	20482.03
495.85	20573.31
496.02	20793.32
496.20	21071.84
496.38	21298.88
496.55	21172.49
496.73	21544.63
496.91	21575.06
497.09	21682.72
497.26	21617.19
497.44	21605.49
497.62	21848.90
497.79	22082.95
497.97	21956.57
498.14	22104.02
498.32	22525.32
498.50	22211.68
498.67	22827.24
498.85	22469.14
499.03	22712.56
499.20	22565.10
499.38	22644.68
499.56	23061.30
499.73	22794.48
499.91	23381.95
500.08	23278.97
500.26	23300.03
500.44	23154.92
500.61	22787.46
500.79	23601.96
500.97	23356.21
501.14	24023.26
501.32	23929.64
501.49	23859.42
501.67	24332.21
501.84	24215.18
502.02	23964.75
502.20	24170.71
502.37	24486.68
502.55	24081.77
502.72	24060.71
502.90	24636.48
503.07	24638.82
503.25	24886.92
503.43	24678.61
503.60	24840.11
503.78	24833.08
503.95	24592.01
504.13	25240.34
504.30	25055.43
504.48	25296.51
504.65	25308.21
504.83	25823.13
505.01	25352.68
505.18	25692.06
505.36	26204.64
505.53	25813.77
505.71	25883.98
505.88	25694.40
506.06	25675.68
506.23	26080.59
506.41	25907.39
506.58	26321.66
506.76	26391.88
506.93	26242.09
507.11	26293.58
507.28	26607.21
507.46	26595.51
507.63	26618.91
507.81	27080.00
507.98	26693.81
508.16	27140.85
508.33	27021.48
508.50	27168.94
508.68	26864.67
508.85	27065.96
509.03	27236.81
509.20	27417.04
509.38	27740.03
509.55	27770.46
509.73	27522.36
509.90	27601.94
510.08	27997.49
510.25	27927.27
510.42	27852.38
510.60	27976.42
510.77	28151.96
510.95	28411.76
511.12	28229.20
511.30	28657.52
511.47	28318.14
511.64	27971.74
511.82	28615.39
511.99	28283.03
512.17	28465.60
512.34	28713.69
512.51	29207.55
512.69	28898.59
512.86	29167.76
513.04	29165.42
513.21	29263.72
513.38	29146.69
513.56	29462.66
513.73	29273.08
513.90	29605.44
514.08	29542.24
514.25	29802.04
514.43	30136.74
514.60	29968.22
514.77	30092.27
514.95	29788.00
515.12	30047.80
515.29	29563.31
515.47	30185.89
515.64	30340.36
515.81	30176.53
515.99	30314.62
516.16	30527.61
516.33	30609.53
516.51	30927.84
516.68	30590.80
516.85	30597.82
517.03	31051.89
517.20	31094.02
517.37	30806.13
517.54	30728.89
517.72	31079.97
517.89	31138.49
518.06	31248.49
518.24	31299.98
518.41	30984.01
518.58	31054.23
518.75	31019.12
518.93	31571.49
519.10	31351.48
519.27	31604.25
519.45	31637.02
519.62	31578.51
519.79	32158.96
519.96	31545.74
520.14	32086.40
520.31	31552.76
520.48	32252.58
520.65	32144.92
520.83	32582.60
521.00	32378.97
521.17	32355.57
521.34	32079.38
521.52	32563.87
521.69	32479.61
521.86	32510.04
522.03	32884.53
522.20	32884.53
522.38	32961.76
522.55	33141.99
522.72	32999.21
522.89	32816.65
523.07	33259.01
523.24	33263.69
523.41	33237.95
523.58	33125.60
523.75	33394.76
523.92	33362.00
524.10	33413.49
524.27	33703.71
524.44	33600.73
524.61	34071.18
524.78	33766.91
524.96	34033.73
525.13	33795.00
525.30	34007.98
525.47	33933.09
525.64	33970.54
525.81	34169.48
525.98	34209.27
526.16	34045.43
526.33	34251.40
526.50	34375.45
526.67	34356.72
526.84	34398.85
527.01	34298.21
527.18	34593.12
527.36	35166.55
527.53	34609.50
527.70	35021.44
527.87	35164.21
528.04	34721.85
528.21	34899.73
528.38	34864.62
528.55	35187.61
528.72	35267.19
528.89	35344.43
529.07	34953.56
529.24	34888.03
529.41	35093.99
529.58	35302.30
529.75	35489.54
529.92	35637.00
530.09	35335.07
530.26	35604.23
530.43	35641.68
530.60	35342.09
530.77	35711.89
530.94	35555.08
531.11	35543.38
531.28	35611.25
531.46	35758.70
531.63	35859.35
531.80	35938.93
531.97	36299.37
532.14	36196.38
532.31	36280.64
532.48	36664.49
532.65	36371.92
532.82	35892.12
532.99	36404.69
533.16	36385.97
533.33	36627.04
533.50	36376.61
533.67	36528.74
533.84	36280.64
534.01	36769.82
534.18	36142.55
534.35	36884.50
534.52	36818.97
534.69	36816.63
534.86	37053.02
535.03	37020.25
535.20	37008.55
535.37	37228.56
535.54	37448.57
535.71	37163.03
535.88	36931.31
536.05	37268.35
536.22	37303.46
536.38	37394.74
536.55	37457.93
536.72	37350.27
536.89	37158.34
537.06	37820.72
537.23	37717.73
537.40	37270.69
537.57	37642.84
537.74	37654.54
537.91	38265.42
538.08	37617.09
538.25	37511.77
538.42	37635.81
538.59	38260.74
538.75	37818.38
538.92	37982.21
539.09	38323.93
539.26	38064.13
539.43	38478.41
539.60	37825.40
539.77	38094.56
539.94	38443.30
540.11	38726.50
540.28	38703.10
540.44	38731.18
540.61	38164.78
540.78	38288.82
540.95	38693.74
541.12	38574.37
541.29	38756.93
541.46	38686.71
541.62	38745.23
541.79	39189.93
541.96	38696.08
542.13	38429.26
542.30	38471.39
542.47	39185.25
542.63	39501.22
542.80	39550.37
542.97	39615.91
543.14	39782.09
543.31	39028.43
543.48	39239.08
543.64	39821.87
543.81	39725.91
543.98	39461.43
544.15	39620.59
544.32	39695.49
544.48	40472.54
544.65	40128.48
544.82	39908.47
544.99	39997.41
545.16	40102.74
545.32	39971.67
545.49	40414.03
545.66	40877.46
545.83	40308.71
546.00	40531.06
546.16	40453.82
546.33	40105.08
546.50	40091.04
546.67	40423.39
546.83	39704.85
547.00	40259.55
547.17	39328.02
547.34	40032.52
547.50	40570.85
547.67	40683.19
547.84	40390.62
548.00	40156.57
548.17	41053.00
548.34	40636.38
548.51	40935.97
548.67	40781.49
548.84	40446.80
549.01	40442.12
549.18	40849.37
549.34	41514.08
549.51	41303.43
549.68	40835.33
549.84	40966.40
550.01	41031.93
550.18	41223.86
550.34	41006.19
550.51	41294.07
550.68	41359.61
550.84	41188.75
551.01	41132.57
551.18	41163.00
551.34	41106.83
551.51	41617.07
551.68	40996.82
551.84	41130.23
552.01	41179.39
552.18	41436.84
552.34	41097.47
552.51	41523.44
552.68	41380.67
552.84	41567.91
553.01	41542.17
553.18	41443.87
553.34	41727.07
553.51	41315.14
553.67	42122.62
553.84	41701.32
554.01	42089.85
554.17	41942.40
554.34	42389.44
554.51	41911.97
554.67	42494.77
554.84	42286.46
555.00	42244.33
555.17	41827.71
555.33	42396.46
555.50	42539.24
555.67	42185.82
555.83	42019.64
556.00	42192.84
556.16	42532.22
556.33	42579.03
556.50	42445.62
556.66	42543.92
556.83	41972.83
556.99	42553.28
557.16	42394.12
557.32	42808.40
557.49	42934.79
557.65	42405.83
557.82	42532.22
557.98	42408.17
558.15	42768.61
558.32	42600.09
558.48	42330.93
558.65	42653.92
558.81	42836.48
558.98	43206.29
559.14	42841.17
559.31	42735.84
559.47	42848.19
559.64	42986.28
559.80	42738.18
559.97	43002.66
560.13	42939.47
560.30	43058.84
560.46	42930.11
560.63	43164.16
560.79	43206.29
560.96	42850.53
561.12	42700.73
561.29	43323.32
561.45	42939.47
561.61	43370.13
561.78	42974.58
561.94	43145.44
562.11	43206.29
562.27	43501.20
562.44	43442.68
562.60	43353.74
562.77	43557.37
562.93	43232.04
563.10	43405.23
563.26	43299.91
563.42	43650.99
563.59	43250.76
563.75	43470.77
563.92	43522.26
564.08	42902.02
564.24	43496.52
564.41	43842.92
564.57	43189.91
564.74	43538.65
564.90	43800.79
565.07	43739.93
565.23	43526.94
565.39	43906.11
565.56	43679.08
565.72	43463.75
565.88	43962.28
566.05	43840.57
566.21	43728.23
566.38	43753.97
566.54	44100.37
566.70	44184.63
566.87	43784.40
567.03	43430.98
567.19	43878.02
567.36	43548.01
567.52	43679.08
567.68	44025.48
567.85	43810.15
568.01	44189.31
568.17	43686.10
568.34	44299.32
568.50	44126.12
568.66	43966.96
568.83	43868.66
568.99	44102.71
569.15	43882.70
569.32	43725.89
569.48	43697.80
569.64	44612.95
569.81	43871.00
569.97	44285.28
570.13	44156.55
570.30	43669.72
570.46	43959.94
570.62	44516.99
570.78	43929.51
570.95	44233.78
571.11	44414.01
571.27	43976.33
571.43	44126.12
571.60	44301.66
571.76	43786.74
571.92	44018.46
572.09	43634.61
572.25	43971.64
572.41	44271.23
572.57	44158.89
572.74	44863.39
572.90	44549.76
573.06	44683.17
573.22	44516.99
573.38	44353.15
573.55	44128.46
573.71	44835.30
573.87	44252.51
574.03	44315.70
574.20	44318.04
574.36	44149.53
574.52	44570.82
574.68	44301.66
574.84	44493.58
575.01	44528.69
575.17	44811.90
575.33	44949.99
575.49	44418.69
575.65	44294.64
575.82	44828.28
575.98	44364.85
576.14	44500.61
576.30	44727.64
576.46	44392.94
576.62	44348.47
576.79	44414.01
576.95	44509.97
577.11	44266.55
577.27	44591.89
577.43	44502.95
577.59	44498.26
577.75	44659.76
577.92	43899.09
578.08	44509.97
578.24	44451.45
578.40	44636.36
578.56	44987.44
578.72	44418.69
578.88	44753.38
579.04	44252.51
579.21	44856.37
579.37	44439.75
579.53	44828.28
579.69	44313.36
579.85	44458.48
580.01	44526.35
580.17	44397.62
580.33	44765.09
580.49	44594.23
580.65	44910.20
580.82	44554.44
580.98	44348.47
581.14	44460.82
581.30	44502.95
581.46	44622.31
581.62	44322.72
581.78	44605.93
581.94	44664.44
582.10	44172.93
582.26	45193.40
582.42	44858.71
582.58	44924.24
582.74	44863.39
582.90	44776.79
583.06	44645.72
583.22	44889.13
583.38	44811.90
583.54	44624.65
583.70	44994.46
583.86	45102.12
584.02	44540.39
584.18	45109.14
584.34	45118.51
584.50	44851.69
584.66	45048.29
584.82	44772.11
584.98	45455.54
585.14	45036.59
585.30	45071.70
585.46	44905.52
585.62	44854.03
585.78	44947.65
585.94	44481.88
586.10	44648.06
586.26	44456.14
586.42	44999.14
586.58	44467.84
586.74	44839.98
586.90	44655.08
587.06	44694.87
587.22	45287.03
587.38	44739.34
587.54	45008.50
587.70	45198.09
587.86	45048.29
588.02	45296.39
588.18	45092.76
588.34	45139.57
588.49	44863.39
588.65	44966.37
588.81	44964.03
588.97	44971.05
589.13	44575.50
589.29	45275.32
589.45	44701.89
589.61	45132.55
589.77	45055.31
589.93	45158.30
590.08	45769.18
590.24	45305.75
