SpectraSuite Data File
++++++++++++++++++++++++++++++++++++
Date: Fri Oct 25 10:47:46 EDT 2013
User: price-jones
Dark Spectrum Present: No
Reference Spectrum Present: No
Number of Sampled Component Spectra: 1
Spectrometers: USB2+H05261
Integration Time (usec): 100000 (USB2+H05261)
Spectra Averaged: 1 (USB2+H05261)
Boxcar Smoothing: 0 (USB2+H05261)
Correct for Electrical Dark: No (USB2+H05261)
Strobe/Lamp Enabled: No (USB2+H05261)
Correct for Detector Non-linearity: No (USB2+H05261)
Correct for Stray Light: No (USB2+H05261)
Number of Pixels in Processed Spectrum: 2048
>>>>>Begin Processed Spectral Data<<<<<
365.73	140.43
365.92	140.43
366.12	140.43
366.32	81.92
366.52	4.68
366.72	95.96
366.91	56.17
367.11	0.00
367.31	21.06
367.51	4.68
367.70	51.49
367.90	84.26
368.10	16.38
368.30	39.79
368.49	140.43
368.69	65.54
368.89	74.90
369.09	0.00
369.28	46.81
369.48	37.45
369.68	65.54
369.87	65.54
370.07	53.83
370.27	126.39
370.47	241.08
370.66	395.55
370.86	418.96
371.06	526.62
371.25	472.79
371.45	421.30
371.65	468.11
371.84	482.15
372.04	444.70
372.24	454.06
372.44	421.30
372.63	475.13
372.83	503.22
373.03	517.26
373.22	510.24
373.42	493.85
373.62	510.24
373.81	524.28
374.01	531.30
374.21	564.07
374.40	521.94
374.60	617.90
374.79	540.66
374.99	587.47
375.19	524.28
375.38	620.24
375.58	596.84
375.78	608.54
375.97	585.13
376.17	599.18
376.37	657.69
376.56	627.26
376.76	533.64
376.95	596.84
377.15	636.63
377.35	660.03
377.54	629.60
377.74	580.45
377.93	704.50
378.13	674.07
378.33	657.69
378.52	657.69
378.72	671.73
378.91	627.26
379.11	664.71
379.31	671.73
379.50	596.84
379.70	695.14
379.89	608.54
380.09	688.12
380.28	624.92
380.48	676.41
380.68	692.80
380.87	739.61
381.07	730.25
381.26	690.46
381.46	653.01
381.65	685.78
381.85	657.69
382.04	655.35
382.24	674.07
382.43	634.29
382.63	688.12
382.83	678.76
383.02	704.50
383.22	648.33
383.41	706.84
383.61	667.05
383.80	791.10
384.00	706.84
384.19	753.65
384.39	730.25
384.58	781.74
384.78	681.10
384.97	678.76
385.17	732.59
385.36	725.57
385.56	737.27
385.75	772.38
385.95	788.76
386.14	772.38
386.34	713.86
386.53	809.83
386.72	713.86
386.92	781.74
387.11	805.14
387.31	800.46
387.50	816.85
387.70	800.46
387.89	802.80
388.09	844.93
388.28	823.87
388.48	819.19
388.67	894.08
388.86	887.06
389.06	1032.18
389.25	936.21
389.45	877.70
389.64	887.06
389.84	966.64
390.03	910.47
390.22	901.11
390.42	833.23
390.61	910.47
390.81	994.73
391.00	1018.13
391.19	980.68
391.39	978.34
391.58	978.34
391.78	994.73
391.97	917.49
392.16	964.30
392.36	980.68
392.55	929.19
392.75	994.73
392.94	1011.11
393.13	1006.43
393.33	877.70
393.52	994.73
393.71	1020.47
393.91	1062.60
394.10	994.73
394.29	1088.35
394.49	936.21
394.68	1078.99
394.88	1123.46
395.07	1114.10
395.26	1055.58
395.46	1238.14
395.65	1135.16
395.84	1144.52
396.04	1193.67
396.23	1165.59
396.42	1118.78
396.62	1121.12
396.81	1111.75
397.00	1043.88
397.19	1198.35
397.39	1203.04
397.58	1210.06
397.77	1228.78
397.97	1308.36
398.16	1203.04
398.35	1277.93
398.55	1362.19
398.74	1322.40
398.93	1383.26
399.12	1320.06
399.32	1242.82
399.51	1324.74
399.70	1355.17
399.90	1373.89
400.09	1434.75
400.28	1369.21
400.47	1399.64
400.67	1474.54
400.86	1394.96
401.05	1416.02
401.24	1519.01
401.44	1434.75
401.63	1434.75
401.82	1530.71
402.01	1371.55
402.21	1558.80
402.40	1528.37
402.59	1575.18
402.78	1467.52
402.97	1607.95
403.17	1605.61
403.36	1610.29
403.55	1607.95
403.74	1715.61
403.93	1734.34
404.13	1549.43
404.32	1621.99
404.51	1657.10
404.70	1659.44
404.89	1568.16
405.09	1666.46
405.28	1750.72
405.47	1739.02
405.66	1717.95
405.85	1813.92
406.05	1818.60
406.24	1849.02
406.43	1717.95
406.62	1851.36
406.81	1881.79
407.00	1713.27
407.20	1715.61
407.39	1804.55
407.58	1849.02
407.77	1977.75
407.96	1987.11
408.15	2045.63
408.34	1879.45
408.54	2003.50
408.73	2038.61
408.92	1966.05
409.11	2087.76
409.30	2040.95
409.49	1963.71
409.68	2033.93
409.87	2029.24
410.07	2165.00
410.26	2017.54
410.45	2165.00
410.64	2134.57
410.83	2216.49
411.02	2195.42
411.21	2333.51
411.40	2190.74
411.59	2260.96
411.78	2235.21
411.98	2165.00
412.17	2310.11
412.36	2368.62
412.55	2338.20
412.74	2427.14
412.93	2466.92
413.12	2335.85
413.31	2492.67
413.50	2525.44
413.69	2602.68
413.88	2569.91
414.07	2525.44
414.26	2548.84
414.45	2588.63
414.64	2609.70
414.83	2745.45
415.02	2602.68
415.22	2726.72
415.41	2684.59
415.60	2731.41
415.79	2686.94
415.98	2850.77
416.17	2874.18
416.36	2794.60
416.55	2925.67
416.74	2949.08
416.93	2778.22
417.12	2911.63
417.31	3005.25
417.50	3019.29
417.69	3119.93
417.88	3063.76
418.07	3061.42
418.26	3028.65
418.45	3171.43
418.64	3155.04
418.83	3098.87
419.02	3141.00
419.21	3222.92
419.39	3131.64
419.58	3229.94
419.77	3152.70
419.96	3351.65
420.15	3267.39
420.34	3241.64
420.53	3253.34
420.72	3398.46
420.91	3328.24
421.10	3393.78
421.29	3386.76
421.48	3304.84
421.67	3499.10
421.86	3468.67
422.05	3300.16
422.24	3323.56
422.43	3426.54
422.61	3393.78
422.80	3515.48
422.99	3569.32
423.18	3527.19
423.37	3466.33
423.56	3571.66
423.75	3417.18
423.94	3499.10
424.13	3276.75
424.32	3368.03
424.50	3552.93
424.69	3714.43
424.88	3644.21
425.07	3506.12
425.26	3541.23
425.45	3557.61
425.64	3524.85
425.83	3588.04
426.01	3527.19
426.20	3501.44
426.39	3669.96
426.58	3606.77
426.77	3641.87
426.96	3590.38
427.15	3536.55
427.33	3641.87
427.52	3527.19
427.71	3581.02
427.90	3733.15
428.09	3742.52
428.28	3658.26
428.46	3726.13
428.65	3761.24
428.84	3777.62
429.03	3798.69
429.22	3782.31
429.40	3892.31
429.59	3786.99
429.78	3503.78
429.97	3559.95
430.16	3646.55
430.34	3801.03
430.53	3918.06
430.72	3920.40
430.91	3866.56
431.10	3904.01
431.28	4074.87
431.47	4191.90
431.66	4271.48
431.85	4030.40
432.03	4194.24
432.22	4273.82
432.41	4313.61
432.60	4081.89
432.79	4131.05
432.97	4252.75
433.16	4447.02
433.35	4126.36
433.54	4217.65
433.72	4222.33
433.91	4320.63
434.10	4283.18
434.28	4142.75
434.47	4341.69
434.66	4425.95
434.85	4315.95
435.03	4524.26
435.22	4400.21
435.41	4512.55
435.59	4493.83
435.78	4589.79
435.97	4519.57
436.16	4463.40
436.34	4468.08
436.53	4578.09
436.72	4620.22
436.90	4606.17
437.09	4788.74
437.28	4650.64
437.46	4526.60
437.65	4718.52
437.84	4746.61
438.02	4737.24
438.21	4905.76
438.40	4755.97
438.58	4835.55
438.77	4681.07
438.96	4922.15
439.14	5027.47
439.33	5069.60
439.52	5097.69
439.70	5011.09
439.89	4985.34
440.08	5048.54
440.26	5081.30
440.45	5200.67
440.63	5149.18
440.82	5350.46
441.01	5266.21
441.19	5287.27
441.38	5425.36
441.57	5481.53
441.75	5551.75
441.94	5441.75
442.12	5633.67
442.31	5577.50
442.50	5757.72
442.68	5624.31
442.87	5755.38
443.05	5849.00
443.24	5764.74
443.43	5680.48
443.61	5680.48
443.80	5982.41
443.98	5785.80
444.17	5621.97
444.35	5776.44
444.54	6033.90
444.73	5755.38
444.91	5795.17
445.10	5743.67
445.28	5788.14
445.47	5724.95
445.65	5769.42
445.84	5900.49
446.02	5942.62
446.21	6031.56
446.39	5820.91
446.58	5973.05
446.77	5832.62
446.95	5715.59
447.14	5811.55
447.32	6071.35
447.51	5930.92
447.69	5930.92
447.88	6057.31
448.06	6069.01
448.25	6073.69
448.43	6078.37
448.62	5987.09
448.80	6024.54
448.99	5930.92
449.17	6338.17
449.36	6136.88
449.54	6272.64
449.73	6204.76
449.91	6256.25
450.10	6291.36
450.28	6239.87
450.46	6345.19
450.65	6347.53
450.83	6525.41
451.02	6312.42
451.20	6401.37
451.39	6499.67
451.57	6305.40
451.76	6251.57
451.94	6579.25
452.13	6651.80
452.31	6590.95
452.49	6469.24
452.68	6511.37
452.86	6392.00
453.05	6572.22
453.23	6431.79
453.42	6567.54
453.60	6506.69
453.78	6654.14
453.97	6534.78
454.15	6579.25
454.34	6626.06
454.52	6787.55
454.70	6836.70
454.89	6544.14
455.07	6803.94
455.26	6806.28
455.44	6871.81
455.62	6916.28
455.81	6960.75
455.99	7056.72
456.17	7101.19
456.36	6806.28
456.54	7096.50
456.73	7124.59
456.91	7192.47
457.09	7115.23
457.28	7281.41
457.46	7218.21
457.64	7239.28
457.83	7286.09
458.01	7286.09
458.19	7517.80
458.38	7337.58
458.56	7403.11
458.74	7545.89
458.93	7344.60
459.11	7358.64
459.29	7360.98
459.48	7492.05
459.66	7353.96
459.84	7463.97
460.03	7782.28
460.21	7623.12
460.39	7562.27
460.57	7662.91
460.76	7569.29
460.94	7686.32
461.12	7653.55
461.31	7812.71
461.49	7744.83
461.67	7691.00
461.85	7882.92
462.04	7978.89
462.22	8461.04
462.40	8006.97
462.59	7889.95
462.77	7969.52
462.95	7950.80
463.13	7943.78
463.32	8128.68
463.50	8053.78
463.68	7934.42
463.86	8173.15
464.05	7913.35
464.23	8009.31
464.41	8290.18
464.59	8222.30
464.78	8416.57
464.96	8250.39
465.14	8081.87
465.32	8248.05
465.50	8285.50
465.69	8301.88
465.87	8456.36
466.05	8315.92
466.23	8226.98
466.41	8234.00
466.60	8566.36
466.78	8245.71
466.96	8449.33
467.14	8531.25
467.32	8573.38
467.51	8414.23
467.69	8271.45
467.87	8360.39
468.05	8699.77
468.23	8561.68
468.41	8503.17
468.60	8360.39
468.78	8613.17
468.96	8592.11
469.14	8664.66
469.32	8737.22
469.50	8561.68
469.69	8723.18
469.87	8926.80
470.05	8997.02
470.23	9104.68
470.41	8992.34
470.59	9149.15
470.77	8964.25
470.95	9060.21
471.14	9092.98
471.32	8833.18
471.50	9355.12
471.68	9268.52
471.86	9355.12
472.04	9224.05
472.22	9493.21
472.40	9261.50
472.58	9481.51
472.77	9621.94
472.95	9500.23
473.13	9923.87
473.31	9584.49
473.49	9570.45
473.67	9521.30
473.85	9694.50
474.03	9930.89
474.21	9886.42
474.39	10153.24
474.57	10054.94
474.75	10120.48
474.93	10169.63
475.12	9886.42
475.30	10317.08
475.48	10207.08
475.66	10352.19
475.84	10134.52
476.02	10239.84
476.20	10459.85
476.38	10548.79
476.56	10752.42
476.74	10518.37
476.92	10785.19
477.10	10743.06
477.28	10974.77
477.46	10843.70
477.64	10963.07
477.82	11089.46
478.00	11375.00
478.18	11375.00
478.36	11487.35
478.54	11534.16
478.72	11609.06
478.90	11761.19
479.08	11789.28
479.26	11896.94
479.44	12053.76
479.62	12028.01
479.80	11908.65
479.98	12255.04
480.16	12430.59
480.34	12428.24
480.52	12533.57
480.70	12538.25
480.88	12437.61
481.06	12463.35
481.24	12725.49
481.41	12776.98
481.59	12842.52
481.77	13151.47
481.95	12987.63
482.13	13554.04
482.31	12999.34
482.49	13394.89
482.67	13621.92
482.85	13617.24
483.03	13907.46
483.21	13844.27
483.39	14029.17
483.57	13781.07
483.74	13961.30
483.92	14298.33
484.10	14057.26
484.28	14427.06
484.46	14654.09
484.64	14913.89
484.82	14677.50
485.00	14607.28
485.18	14946.66
485.35	15260.29
485.53	15122.20
485.71	14956.02
485.89	15435.83
486.07	15360.94
486.25	15372.64
486.43	15496.69
486.61	15674.57
486.78	16098.20
486.96	16128.63
487.14	16042.03
487.32	16341.62
487.50	16589.72
487.68	16556.95
487.85	16814.41
488.03	16826.11
488.21	17013.35
488.39	17245.07
488.57	17067.19
488.75	17338.69
488.92	17563.38
489.10	17678.07
489.28	17652.32
489.46	17855.95
489.64	18066.60
489.81	18317.03
489.99	18427.04
490.17	18548.75
490.35	18525.34
490.53	18335.76
490.70	18658.75
490.88	18520.66
491.06	19243.88
491.24	19014.51
491.41	19271.97
491.59	19503.68
491.77	19075.37
491.95	19321.12
492.13	19658.16
492.30	19735.40
492.48	19805.61
492.66	20322.87
492.84	19796.25
493.01	20208.19
493.19	20210.53
493.37	20339.26
493.54	20627.14
493.72	20383.73
493.90	20713.74
494.08	21008.65
494.25	21139.72
494.43	21144.40
494.61	21383.13
494.79	21446.33
494.96	21425.26
495.14	21511.86
495.32	21895.71
495.49	21495.48
495.67	21586.76
495.85	22342.75
496.02	22586.17
496.20	22525.32
496.38	22272.54
496.55	22553.40
496.73	22773.41
496.91	22834.27
497.09	22663.41
497.26	22766.39
497.44	22913.84
497.62	23145.56
497.79	23398.34
497.97	23061.30
498.14	23590.26
498.32	23510.68
498.50	23501.32
498.67	24294.76
498.85	24093.47
499.03	24292.42
499.20	24500.73
499.38	23967.09
499.56	24264.33
499.73	24320.51
499.91	24362.64
500.08	24716.06
500.26	24276.04
500.44	24517.11
500.61	24355.61
500.79	24474.98
500.97	24882.24
501.14	24933.73
501.32	24830.74
501.49	25369.07
501.67	25432.26
501.84	25579.71
502.02	25387.79
502.20	25418.22
502.37	25984.63
502.55	25724.83
502.72	25713.13
502.90	25881.64
503.07	26171.87
503.25	26178.89
503.43	26209.32
503.60	26380.18
503.78	26103.99
503.95	26127.40
504.13	26455.08
504.30	26382.52
504.48	26452.73
504.65	26597.85
504.83	26738.28
505.01	27084.68
505.18	27063.61
505.36	27571.51
505.53	27147.87
505.71	27503.64
505.88	27660.45
506.06	27115.11
506.23	27318.73
506.41	27566.83
506.58	27302.35
506.76	27817.27
506.93	28060.68
507.11	27555.13
507.28	27655.77
507.46	27800.88
507.63	27873.44
507.81	28016.21
507.98	27683.86
508.16	28493.68
508.33	28320.48
508.50	28423.47
508.68	28311.12
508.85	28545.17
509.03	28446.87
509.20	28858.81
509.38	29347.98
509.55	29397.13
509.73	29174.78
509.90	29376.06
510.08	28980.51
510.25	29172.44
510.42	29333.93
510.60	29598.41
510.77	29439.26
510.95	29944.81
511.12	29741.19
511.30	29818.42
511.47	29818.42
511.64	30047.80
511.82	30263.13
511.99	29832.47
512.17	29991.62
512.34	30218.66
512.51	30314.62
512.69	30565.06
512.86	30822.51
513.04	30431.65
513.21	30433.99
513.38	30438.67
513.56	30377.81
513.73	30749.96
513.90	31101.04
514.08	30815.49
514.25	31229.77
514.43	30682.08
514.60	30829.54
514.77	31206.36
514.95	31374.88
515.12	31323.39
515.29	31543.40
515.47	31463.82
515.64	31786.82
515.81	31613.62
515.99	31594.89
516.16	31344.45
516.33	31709.58
516.51	31503.61
516.68	31147.85
516.85	31136.15
517.03	31552.76
517.20	32236.20
517.37	32072.36
517.54	32151.94
517.72	32390.67
517.89	32233.86
518.06	32039.59
518.24	32341.52
518.41	32065.34
518.58	32638.77
518.75	32088.74
518.93	33221.56
519.10	32706.65
519.27	32952.40
519.45	32999.21
519.62	33432.21
519.79	33207.52
519.96	33102.20
520.14	33544.56
520.31	33064.75
520.48	33317.53
520.65	33460.30
520.83	33415.83
521.00	33607.75
521.17	33750.52
521.34	33553.92
521.52	33703.71
521.69	34188.21
521.86	34190.55
522.03	33921.38
522.20	33816.06
522.38	33818.40
522.55	34387.15
522.72	34143.74
522.89	34487.79
523.07	34419.92
523.24	34087.56
523.41	34253.74
523.58	34012.66
523.75	35105.70
523.92	34955.90
524.10	34782.70
524.27	34391.83
524.44	35098.67
524.61	35447.41
524.78	35412.31
524.96	35215.70
525.13	35218.04
525.30	35358.47
525.47	35335.07
525.64	35714.23
525.81	35480.18
525.98	35597.21
526.16	34913.77
526.33	35220.38
526.50	35842.96
526.67	35545.72
526.84	35372.52
527.01	35185.27
527.18	35934.24
527.36	35821.90
527.53	35751.68
527.70	36350.86
527.87	36397.67
528.04	35995.10
528.21	36046.59
528.38	35824.24
528.55	35955.31
528.72	36275.96
528.89	36957.06
529.07	36350.86
529.24	36233.83
529.41	36732.37
529.58	36500.65
529.75	36790.88
529.92	36914.93
530.09	36996.85
530.26	36463.21
530.43	36938.33
530.60	36708.96
530.77	36950.04
530.94	37422.83
531.11	37130.26
531.28	36903.23
531.46	37251.97
531.63	37514.11
531.80	37631.13
531.97	37031.96
532.14	37530.49
532.31	37523.47
532.48	37544.53
532.65	37659.22
532.82	37483.68
532.99	37687.31
533.16	37699.01
533.33	37165.37
533.50	38038.39
533.67	37979.87
533.84	37317.50
534.01	38188.18
534.18	37764.54
534.35	38232.65
534.52	38045.41
534.69	38223.29
534.86	38337.98
535.03	38146.05
535.20	37897.95
535.37	38817.78
535.54	38527.56
535.71	38422.23
535.88	38281.80
536.05	38082.86
536.22	38904.38
536.38	38504.15
536.55	38550.96
536.72	38871.62
536.89	38103.92
537.06	38576.71
537.23	38803.74
537.40	38686.71
537.57	38817.78
537.74	38328.61
537.91	39061.20
538.08	39304.62
538.25	38614.16
538.42	39035.45
538.59	38944.17
538.75	38644.59
538.92	39276.53
539.09	39519.95
539.26	39466.11
539.43	39798.47
539.60	39590.16
539.77	39257.81
539.94	39321.00
540.11	39234.40
540.28	39171.21
540.44	39447.39
540.61	39119.71
540.78	39225.04
540.95	39452.07
541.12	39136.10
541.29	39449.73
541.46	39470.79
541.62	40292.32
541.79	40123.80
541.96	39751.66
542.13	40032.52
542.30	39856.98
542.47	39758.68
542.63	40182.32
542.80	40472.54
542.97	40699.58
543.14	40610.64
543.31	40872.78
543.48	40399.99
543.64	41013.21
543.81	41106.83
543.98	40385.94
544.15	40486.59
544.32	40697.24
544.48	41184.07
544.65	40776.81
544.82	40783.83
544.99	40079.33
545.16	41083.42
545.32	40535.74
545.49	41249.60
545.66	41116.19
545.83	40596.59
546.00	40884.48
546.16	41076.40
546.33	41062.36
546.50	40870.43
546.67	41490.68
546.83	40612.98
547.00	41137.26
547.17	41155.98
547.34	41200.45
547.50	41069.38
547.67	41921.34
547.84	41422.80
548.00	41846.44
548.17	41902.61
548.34	41600.68
548.51	41343.22
548.67	41549.19
548.84	41621.75
549.01	41661.54
549.18	41237.90
549.34	42176.45
549.51	41745.80
549.68	41996.23
549.84	42148.37
550.01	42314.55
550.18	42164.75
550.34	41734.09
550.51	41823.03
550.68	41825.37
550.84	41361.95
551.01	42099.22
551.18	42007.94
551.34	42026.66
551.51	42183.48
551.68	42277.10
551.84	42384.76
552.01	42223.26
552.18	42309.86
552.34	42366.04
552.51	42298.16
552.68	42096.88
552.84	42319.23
553.01	42637.54
553.18	42520.51
553.34	42249.01
553.51	42085.17
553.67	42564.98
553.84	42693.71
554.01	42958.19
554.17	42857.55
554.34	43014.37
554.51	43171.18
554.67	43255.44
554.84	42546.26
555.00	42639.88
555.17	42693.71
555.33	42511.15
555.50	43042.45
555.67	42960.53
555.83	43213.31
556.00	42691.37
556.16	43285.87
556.33	43150.12
556.50	42941.81
556.66	43391.19
556.83	42639.88
556.99	43540.99
557.16	43363.11
557.32	42843.51
557.49	43370.13
557.65	42576.69
557.82	42834.14
557.98	43164.16
558.15	42824.78
558.32	43278.85
558.48	43328.00
558.65	43597.16
558.81	43100.97
558.98	43365.45
559.14	43068.20
559.31	43281.19
559.47	43599.50
559.64	43559.71
559.80	43421.62
559.97	43835.89
560.13	43627.59
560.30	43119.69
560.46	43344.38
560.63	43515.24
560.79	43758.66
560.96	44135.48
561.12	43931.86
561.29	43332.68
561.45	44013.77
561.61	43267.14
561.78	43145.44
561.94	43131.39
562.11	43580.78
562.27	43732.91
562.44	43753.97
562.60	43283.53
562.77	43768.02
562.93	43807.81
563.10	44098.03
563.26	43681.42
563.42	43615.88
563.59	43515.24
563.75	43892.07
563.92	44142.50
564.08	43910.79
564.24	44238.47
564.41	44299.32
564.57	44261.87
564.74	43716.53
564.90	43964.62
565.07	44072.29
565.23	44083.99
565.39	43749.29
565.56	43838.23
565.72	43559.71
565.88	43969.30
566.05	43672.06
566.21	44149.53
566.38	43871.00
566.54	44034.84
566.70	44472.52
566.87	44231.44
567.03	44091.01
567.19	44570.82
567.36	44311.02
567.52	44055.90
567.68	44524.01
567.85	44212.72
568.01	44687.85
568.17	43992.71
568.34	44659.76
568.50	44376.56
568.66	43973.98
568.83	43938.88
568.99	44201.02
569.15	44088.67
569.32	43613.54
569.48	44346.13
569.64	44638.70
569.81	44493.58
569.97	44025.48
570.13	43915.47
570.30	44201.02
570.46	44076.97
570.62	44126.12
570.78	43903.77
570.95	43992.71
571.11	44676.15
571.27	44229.10
571.43	44610.61
571.60	44666.78
571.76	44435.07
571.92	44486.56
572.09	44612.95
572.25	44381.24
572.41	44231.44
572.57	44851.69
572.74	44996.80
572.90	44540.39
573.06	44479.54
573.22	44587.21
573.38	44856.37
573.55	44257.19
573.71	45038.93
573.87	44126.12
574.03	44088.67
574.20	44039.52
574.36	44360.17
574.52	44643.38
574.68	44643.38
574.84	44428.05
575.01	44610.61
575.17	44877.43
575.33	44208.04
575.49	44360.17
575.65	44486.56
575.82	44617.63
575.98	44847.00
576.14	44856.37
576.30	44531.03
576.46	44048.88
576.62	44271.23
576.79	44797.85
576.95	43948.24
577.11	44615.29
577.27	44385.92
577.43	44626.99
577.59	44502.95
577.75	44491.24
577.92	44463.16
578.08	44179.95
578.24	44273.57
578.40	44549.76
578.56	44701.89
578.72	44348.47
578.88	44818.92
579.04	44486.56
579.21	44477.20
579.37	44308.68
579.53	44648.06
579.69	44222.08
579.85	44226.76
580.01	44746.36
580.17	44999.14
580.33	44947.65
580.49	44921.90
580.65	44666.78
580.82	44666.78
580.98	44563.80
581.14	44378.90
581.30	45031.91
581.46	44935.95
581.62	44818.92
581.78	44657.42
581.94	44732.32
582.10	44402.30
582.26	44868.07
582.42	44722.96
582.58	44533.37
582.74	44561.46
582.90	44636.36
583.06	44907.86
583.22	44921.90
583.38	44818.92
583.54	44591.89
583.70	44512.31
583.86	44161.23
584.02	44446.77
584.18	44809.56
584.34	44692.53
584.50	45008.50
584.66	44638.70
584.82	44446.77
584.98	44992.12
585.14	44886.79
585.30	44928.92
585.46	44797.85
585.62	44346.13
585.78	45052.97
585.94	44435.07
586.10	44383.58
586.26	44669.12
586.42	44847.00
586.58	45043.61
586.74	45186.38
586.90	44570.82
587.06	44821.26
587.22	44825.94
587.38	44769.77
587.54	44832.96
587.70	44879.77
587.86	44758.06
588.02	44711.25
588.18	44875.09
588.34	44779.13
588.49	44322.72
588.65	44673.81
588.81	44304.00
588.97	44479.54
589.13	44861.05
589.29	44804.88
589.45	44781.47
589.61	45195.74
589.77	45134.89
589.93	44931.26
590.08	44741.68
590.24	45008.50
