SpectraSuite Data File
++++++++++++++++++++++++++++++++++++
Date: Fri Oct 25 11:23:59 EDT 2013
User: price-jones
Dark Spectrum Present: No
Reference Spectrum Present: No
Number of Sampled Component Spectra: 1
Spectrometers: USB2+H05261
Integration Time (usec): 100000 (USB2+H05261)
Spectra Averaged: 1 (USB2+H05261)
Boxcar Smoothing: 0 (USB2+H05261)
Correct for Electrical Dark: No (USB2+H05261)
Strobe/Lamp Enabled: No (USB2+H05261)
Correct for Detector Non-linearity: No (USB2+H05261)
Correct for Stray Light: No (USB2+H05261)
Number of Pixels in Processed Spectrum: 2048
>>>>>Begin Processed Spectral Data<<<<<
365.73	271.50
365.92	271.50
366.12	271.50
366.32	163.84
366.52	93.62
366.72	105.32
366.91	117.03
367.11	93.62
367.31	194.26
367.51	203.63
367.70	203.63
367.90	170.86
368.10	131.07
368.30	196.60
368.49	142.77
368.69	138.09
368.89	159.16
369.09	135.75
369.28	135.75
369.48	145.11
369.68	175.54
369.87	114.69
370.07	196.60
370.27	224.69
370.47	273.84
370.66	608.54
370.86	592.16
371.06	617.90
371.25	716.20
371.45	650.67
371.65	699.82
371.84	702.16
372.04	720.88
372.24	681.10
372.44	692.80
372.63	641.31
372.83	746.63
373.03	835.57
373.22	767.70
373.42	753.65
373.62	774.72
373.81	840.25
374.01	798.12
374.21	840.25
374.40	779.40
374.60	800.46
374.79	772.38
374.99	791.10
375.19	873.02
375.38	833.23
375.58	908.13
375.78	856.64
375.97	833.23
376.17	936.21
376.37	851.96
376.56	880.04
376.76	800.46
376.95	847.27
377.15	891.74
377.35	922.17
377.54	919.83
377.74	943.24
377.93	837.91
378.13	926.85
378.33	929.19
378.52	968.98
378.72	922.17
378.91	933.87
379.11	940.90
379.31	917.49
379.50	931.53
379.70	999.41
379.89	910.47
380.09	933.87
380.28	1032.18
380.48	987.71
380.68	947.92
380.87	976.00
381.07	994.73
381.26	1074.31
381.46	961.96
381.65	997.07
381.85	1001.75
382.04	1130.48
382.24	1032.18
382.43	990.05
382.63	978.34
382.83	1118.78
383.02	1111.75
383.22	1179.63
383.41	1102.39
383.61	1071.97
383.80	1125.80
384.00	1114.10
384.19	1111.75
384.39	1170.27
384.58	1226.44
384.78	1146.86
384.97	1144.52
385.17	1172.61
385.36	1116.44
385.56	1123.46
385.75	1170.27
385.95	1224.10
386.14	1210.06
386.34	1191.33
386.53	1294.32
386.72	1224.10
386.92	1336.45
387.11	1235.80
387.31	1275.59
387.50	1200.69
387.70	1198.35
387.89	1228.78
388.09	1280.27
388.28	1334.11
388.48	1263.89
388.67	1303.68
388.86	1359.85
389.06	1364.53
389.25	1310.70
389.45	1359.85
389.64	1313.04
389.84	1380.92
390.03	1371.55
390.22	1397.30
390.42	1357.51
390.61	1427.73
390.81	1483.90
391.00	1275.59
391.19	1441.77
391.39	1488.58
391.58	1530.71
391.78	1406.66
391.97	1465.18
392.16	1476.88
392.36	1600.93
392.55	1497.94
392.75	1598.59
392.94	1612.63
393.13	1516.67
393.33	1547.09
393.52	1554.12
393.71	1563.48
393.91	1565.82
394.10	1549.43
394.29	1612.63
394.49	1696.89
394.68	1605.61
394.88	1610.29
395.07	1753.06
395.26	1603.27
395.46	1713.27
395.65	1729.66
395.84	1729.66
396.04	1827.96
396.23	1750.72
396.42	1753.06
396.62	1710.93
396.81	1748.38
397.00	1785.83
397.19	1813.92
397.39	1755.40
397.58	1809.23
397.77	1916.90
397.97	1809.23
398.16	1947.33
398.35	1858.39
398.55	1907.54
398.74	2012.86
398.93	1881.79
399.12	1916.90
399.32	1937.96
399.51	1947.33
399.70	2078.40
399.90	1968.39
400.09	2101.80
400.28	2076.06
400.47	1996.48
400.67	2139.25
400.86	2080.74
401.05	2120.53
401.24	2153.29
401.44	2104.14
401.63	2176.70
401.82	2188.40
402.01	2092.44
402.21	2040.95
402.40	2195.42
402.59	2289.04
402.78	2256.28
402.97	2267.98
403.17	2312.45
403.36	2331.17
403.55	2424.80
403.74	2349.90
403.93	2499.69
404.13	2380.32
404.32	2448.20
404.51	2443.52
404.70	2377.98
404.89	2499.69
405.09	2464.58
405.28	2406.07
405.47	2548.84
405.66	2586.29
405.85	2574.59
406.05	2466.92
406.24	2546.50
406.43	2572.25
406.62	2651.83
406.81	2668.21
407.00	2614.38
407.20	2562.89
407.39	2668.21
407.58	2743.11
407.77	2738.43
407.96	2691.62
408.15	2668.21
408.34	2658.85
408.54	2740.77
408.73	2754.81
408.92	2761.83
409.11	2909.29
409.30	2860.13
409.49	2848.43
409.68	3030.99
409.87	2953.76
410.07	3012.27
410.26	3080.14
410.45	3005.25
410.64	3028.65
410.83	3061.42
411.02	3124.62
411.21	3059.08
411.40	3126.96
411.59	3082.49
411.78	3115.25
411.98	3194.83
412.17	3272.07
412.36	3377.39
412.55	3353.99
412.74	3431.23
412.93	3412.50
413.12	3337.60
413.31	3499.10
413.50	3555.27
413.69	3616.13
413.88	3669.96
414.07	3695.71
414.26	3538.89
414.45	3747.20
414.64	3665.28
414.83	3763.58
415.02	3892.31
415.22	3852.52
415.41	3847.84
415.60	3929.76
415.79	3882.95
415.98	3962.53
416.17	4060.83
416.36	4074.87
416.55	3889.97
416.74	4009.34
416.93	4091.26
417.12	4098.28
417.31	4245.73
417.50	4212.96
417.69	4397.87
417.88	4416.59
418.07	4269.14
418.26	4205.94
418.45	4339.35
418.64	4526.60
418.83	4386.16
419.02	4437.66
419.21	4594.47
419.39	4484.47
419.58	4388.50
419.77	4498.51
419.96	4571.07
420.15	4674.05
420.34	4315.95
420.53	4657.67
420.72	4751.29
420.91	4627.24
421.10	4697.46
421.29	4685.75
421.48	4753.63
421.67	4770.01
421.86	4760.65
422.05	4854.27
422.24	4758.31
422.43	4877.68
422.61	4889.38
422.80	5034.49
422.99	4903.42
423.18	4912.78
423.37	5027.47
423.56	4983.00
423.75	5004.07
423.94	4793.42
424.13	4634.26
424.32	4805.12
424.50	4863.63
424.69	5247.48
424.88	5036.83
425.07	5043.85
425.26	4957.25
425.45	5121.09
425.64	5006.41
425.83	4961.94
426.01	5090.67
426.20	5224.08
426.39	4938.53
426.58	5057.90
426.77	4985.34
426.96	5130.45
427.15	5046.20
427.33	5401.96
427.52	5160.88
427.71	5298.97
427.90	5203.01
428.09	5348.12
428.28	5296.63
428.46	5291.95
428.65	5341.10
428.84	5523.66
429.03	5507.28
429.22	5345.78
429.40	5535.37
429.59	5603.24
429.78	5296.63
429.97	5284.93
430.16	5540.05
430.34	5495.58
430.53	5671.12
430.72	5561.11
430.91	5668.78
431.10	5593.88
431.28	5722.61
431.47	5776.44
431.66	5905.17
431.85	5675.80
432.03	5949.64
432.22	6094.76
432.41	5961.34
432.60	6052.63
432.79	6143.91
432.97	6071.35
433.16	5940.28
433.35	5961.34
433.54	6031.56
433.72	6160.29
433.91	6272.64
434.10	6125.18
434.28	5977.73
434.47	6209.44
434.66	6197.74
434.85	6265.61
435.03	6384.98
435.22	6349.87
435.41	6530.09
435.59	6396.68
435.78	6520.73
435.97	6581.59
436.16	6450.52
436.34	6422.43
436.53	6595.63
436.72	6740.74
436.90	6406.05
437.09	6796.92
437.28	6502.01
437.46	6595.63
437.65	6614.35
437.84	6874.15
438.02	6768.83
438.21	6801.60
438.40	6689.25
438.58	7159.70
438.77	7096.50
438.96	6890.54
439.14	7274.38
439.33	7307.15
439.52	7227.57
439.70	7171.40
439.89	7480.35
440.08	7396.09
440.26	7332.90
440.45	7248.64
440.63	7454.61
440.82	7557.59
441.01	7396.09
441.19	7583.34
441.38	7801.01
441.57	7826.75
441.75	7836.11
441.94	7960.16
442.12	8074.85
442.31	8098.25
442.50	8065.49
442.68	7974.21
442.87	8021.02
443.05	8187.19
443.24	8107.62
443.43	8184.85
443.61	8278.47
443.80	8390.82
443.98	7943.78
444.17	8091.23
444.35	8285.50
444.54	8451.67
444.73	8175.49
444.91	8318.26
445.10	8463.38
445.28	8346.35
445.47	8311.24
445.65	8297.20
445.84	8416.57
446.02	8535.93
446.21	8325.29
446.39	8498.49
446.58	8472.74
446.77	8575.72
446.95	8297.20
447.14	8585.08
447.32	8533.59
447.51	8734.88
447.69	8657.64
447.88	8566.36
448.06	8592.11
448.25	8718.50
448.43	8624.87
448.62	8669.34
448.80	8519.55
448.99	8835.52
449.17	8931.48
449.36	8681.05
449.54	8781.69
449.73	9055.53
449.91	8982.98
450.10	8936.17
450.28	8917.44
450.46	9172.56
450.65	8919.78
450.83	9104.68
451.02	9071.92
451.20	9521.30
451.39	8990.00
451.57	9132.77
451.76	9188.94
451.94	9231.07
452.13	9406.61
452.31	9423.00
452.49	9142.13
452.68	9455.76
452.86	9509.60
453.05	9383.21
453.23	9549.39
453.42	9446.40
453.60	9383.21
453.78	9617.26
453.97	9497.89
454.15	9479.17
454.34	9479.17
454.52	9696.84
454.70	9757.69
454.89	9841.95
455.07	9935.57
455.26	9795.14
455.44	10015.15
455.62	10050.26
455.81	10059.62
455.99	10083.03
456.17	10167.29
456.36	10026.86
456.54	10200.05
456.73	10239.84
456.91	10324.10
457.09	10281.97
457.28	10499.64
457.46	10583.90
457.64	10878.81
457.83	10539.43
458.01	10647.10
458.19	10576.88
458.38	10691.57
458.56	10663.48
458.74	10752.42
458.93	10731.36
459.11	10876.47
459.29	10843.70
459.48	10911.58
459.66	10890.51
459.84	10998.18
460.03	11272.02
460.21	11112.86
460.39	10876.47
460.57	11037.97
460.76	11201.80
460.94	11140.95
461.12	11037.97
461.31	11194.78
461.49	11098.82
461.67	11243.93
461.85	11653.53
462.04	11194.78
462.22	11576.29
462.40	11487.35
462.59	11349.26
462.77	11295.43
462.95	11587.99
463.13	11578.63
463.32	11805.66
463.50	11592.67
463.68	11665.23
463.86	11903.96
464.05	11674.59
464.23	11620.76
464.41	12116.95
464.59	11623.10
464.78	12252.70
464.96	12121.63
465.14	11995.25
465.32	11910.99
465.50	12259.73
465.69	12058.44
465.87	12376.75
466.05	12262.07
466.23	12168.45
466.41	12374.41
466.60	12547.61
466.78	12173.13
466.96	12198.87
467.14	12451.65
467.32	12475.06
467.51	12765.28
467.69	12241.00
467.87	12365.05
468.05	12776.98
468.23	12582.72
468.41	12552.29
468.60	12849.54
468.78	12674.00
468.96	12711.45
469.14	12856.56
469.32	13006.36
469.50	12732.51
469.69	13043.81
469.87	13118.70
470.05	13240.41
470.23	13142.11
470.41	13149.13
470.59	13364.46
470.77	13357.44
470.95	13121.04
471.14	13516.59
471.32	13392.55
471.50	13383.18
471.68	13858.31
471.86	13685.11
472.04	13778.73
472.22	14143.86
472.40	13724.90
472.58	14167.26
472.77	13980.02
472.95	14218.75
473.13	14794.53
473.31	14090.02
473.49	14443.45
473.67	14108.75
473.85	14281.95
474.03	14665.80
474.21	14618.99
474.39	14881.13
474.57	14583.88
474.75	14885.81
474.93	14977.09
475.12	15042.62
475.30	15192.42
475.48	15304.76
475.66	15232.21
475.84	15215.82
476.02	15559.88
476.20	15527.11
476.38	15704.99
476.56	16201.19
476.74	16030.33
476.92	15871.17
477.10	15634.78
477.28	16285.45
477.46	16542.91
477.64	16383.75
477.82	16631.85
478.00	17020.38
478.18	17114.00
478.36	16905.69
478.54	17242.73
478.72	17221.66
478.90	17589.13
479.08	17799.77
479.26	17720.20
479.44	17518.91
479.62	17954.25
479.80	18284.26
479.98	18532.36
480.16	18778.12
480.34	18450.44
480.52	18724.29
480.70	18843.65
480.88	18501.93
481.06	18888.12
481.24	19323.46
481.41	19316.44
481.59	19393.68
481.77	19428.79
481.95	19557.52
482.13	20037.33
482.31	19803.27
482.49	20334.57
482.67	20372.02
482.85	20678.63
483.03	20767.57
483.21	20826.09
483.39	21083.55
483.57	21296.53
483.74	21380.79
483.92	21451.01
484.10	21516.54
484.28	21898.05
484.46	22225.73
484.64	22471.48
484.82	22160.19
485.00	22647.02
485.18	22890.44
485.35	23372.59
485.53	22441.06
485.71	23192.37
485.89	23627.71
486.07	23433.44
486.25	23428.76
486.43	23843.04
486.61	23812.61
486.78	23995.17
486.96	24432.85
487.14	24844.79
487.32	24961.81
487.50	25174.80
487.68	24989.90
487.85	25406.52
488.03	25736.53
488.21	26008.03
488.39	26204.64
488.57	26504.23
488.75	26223.36
488.92	26888.07
489.10	26946.59
489.28	27239.15
489.46	27232.13
489.64	27126.81
489.81	27615.98
489.99	27744.71
490.17	28088.77
490.35	28428.15
490.53	28453.89
490.70	28622.41
490.88	28369.63
491.06	29024.98
491.24	28549.85
491.41	29127.97
491.59	29443.94
491.77	29455.64
491.95	29673.31
492.13	29986.94
492.30	29907.37
492.48	30366.11
492.66	30286.53
492.84	30441.01
493.01	30857.62
493.19	30925.50
493.37	31417.01
493.54	31503.61
493.72	31590.21
493.90	31644.04
494.08	32254.92
494.25	32203.43
494.43	32341.52
494.61	32425.78
494.79	33118.58
494.96	32547.49
495.14	33436.89
495.32	33752.87
495.49	33336.25
495.67	33284.76
495.85	33762.23
496.02	34085.22
496.20	34249.06
496.38	34373.11
496.55	34410.56
496.73	34747.59
496.91	34873.98
497.09	35119.74
497.26	35189.95
497.44	35157.19
497.62	35545.72
497.79	36020.84
497.97	35779.77
498.14	35791.47
498.32	36315.75
498.50	36320.43
498.67	37067.06
498.85	36664.49
499.03	36531.08
499.20	37109.19
499.38	37329.20
499.56	37682.62
499.73	37261.33
499.91	37755.18
500.08	37579.64
500.26	37614.75
500.44	37996.26
500.61	38026.68
500.79	37809.01
500.97	38691.40
501.14	38761.61
501.32	38822.47
501.49	38752.25
501.67	38770.97
501.84	38873.96
502.02	38857.57
502.20	39337.38
502.37	39676.76
502.55	39622.93
502.72	39765.70
502.90	39789.11
503.07	39585.48
503.25	40348.50
503.43	39943.58
503.60	40261.90
503.78	40610.64
503.95	40587.23
504.13	40755.75
504.30	40776.81
504.48	40809.58
504.65	40545.10
504.83	41420.46
505.01	41521.10
505.18	41553.87
505.36	41628.77
505.53	41329.18
505.71	41855.80
505.88	41691.96
506.06	41392.37
506.23	42082.83
506.41	41776.22
506.58	42108.58
506.76	42422.21
506.93	42824.78
507.11	43016.71
507.28	42794.36
507.46	42616.47
507.63	43126.71
507.81	42983.94
507.98	43552.69
508.16	43454.39
508.33	43819.51
508.50	43915.47
508.68	43859.30
508.85	44315.70
509.03	43889.73
509.20	44264.21
509.38	44610.61
509.55	44456.14
509.73	44580.18
509.90	44568.48
510.08	44460.82
510.25	45371.28
510.42	44811.90
510.60	45539.80
510.77	45439.16
510.95	45565.55
511.12	44942.97
511.30	45523.42
511.47	45867.48
511.64	45848.75
511.82	45977.48
511.99	45928.33
512.17	46216.22
512.34	45825.35
512.51	46983.91
512.69	46628.15
512.86	46492.40
513.04	46600.07
513.21	46546.23
513.38	46951.15
513.56	47215.63
513.73	47049.45
513.90	46965.19
514.08	46972.21
514.25	47555.00
514.43	47695.44
514.60	47585.43
514.77	47948.21
514.95	48004.39
515.12	47454.36
515.29	47964.60
515.47	48231.42
515.64	48446.75
515.81	48250.14
515.99	48193.97
516.16	48779.10
516.33	48854.00
516.51	48844.64
516.68	49111.46
516.85	48540.37
517.03	49247.21
517.20	49116.14
517.37	48814.21
517.54	49027.20
517.72	49076.35
517.89	49598.29
518.06	49111.46
518.24	49759.79
518.41	49481.27
518.58	49324.45
518.75	49368.92
518.93	50014.91
519.10	49673.19
519.27	49691.91
519.45	49675.53
519.62	50050.02
519.79	49986.82
519.96	49897.88
520.14	50394.07
520.31	50145.98
520.48	50363.65
520.65	50684.30
520.83	50459.61
521.00	50698.34
521.17	50789.62
521.34	50981.55
521.52	50993.25
521.69	50925.38
521.86	51325.61
522.03	51339.65
522.20	51480.08
522.38	51653.28
522.55	51543.28
522.72	51515.19
522.89	51744.56
523.07	51835.84
523.24	51828.82
523.41	51887.34
523.58	51845.21
523.75	52147.14
523.92	52095.64
524.10	52205.65
524.27	52360.12
524.44	52409.28
524.61	52219.69
524.78	52411.62
524.96	52395.23
525.13	52399.91
525.30	52673.76
525.47	52563.75
525.64	52587.16
525.81	52692.48
525.98	52931.22
526.16	52858.66
526.33	52973.34
526.50	52828.23
526.67	52825.89
526.84	53380.60
527.01	52673.76
527.18	53193.36
527.36	53275.27
527.53	53242.51
527.70	53544.44
527.87	53380.60
528.04	53338.47
528.21	53441.45
528.38	53387.62
528.55	53631.04
528.72	53614.65
528.89	53565.50
529.07	53628.69
529.24	53682.53
529.41	54176.38
529.58	53516.35
529.75	53659.12
529.92	53808.92
530.09	54162.34
530.26	54174.04
530.43	54202.13
530.60	54082.76
530.77	54211.49
530.94	54412.77
531.11	54082.76
531.28	54401.07
531.46	54270.00
531.63	54457.24
531.80	54681.94
531.97	54480.65
532.14	54695.98
532.31	54658.53
532.48	54646.83
532.65	54951.10
532.82	54578.95
532.99	54571.93
533.16	54600.02
533.33	54960.46
533.50	54939.39
533.67	54822.37
533.84	54880.88
534.01	54932.37
534.18	54997.91
534.35	55561.98
534.52	55208.56
534.69	55234.30
534.86	55604.11
535.03	55648.58
535.20	55360.69
535.37	55290.48
535.54	55449.63
535.71	55264.73
535.88	55360.69
536.05	55880.29
536.22	55765.60
536.38	55903.70
536.55	55601.77
536.72	55547.93
536.89	55800.71
537.06	55739.86
537.23	55896.67
537.40	55601.77
537.57	55884.97
537.74	56074.55
537.91	56280.52
538.08	55798.37
538.25	56079.24
538.42	56069.87
538.59	56114.34
538.75	56231.37
538.92	56219.67
539.09	56411.59
539.26	56203.28
539.43	56280.52
539.60	56406.91
539.77	56521.60
539.94	56498.19
540.11	56427.98
540.28	56776.72
540.44	56498.19
540.61	56610.54
540.78	56453.72
540.95	56631.60
541.12	56521.60
541.29	56652.67
541.46	56837.57
541.62	56645.65
541.79	57162.90
541.96	56491.17
542.13	56680.75
542.30	56870.34
542.47	56898.42
542.63	56994.39
542.80	57270.57
542.97	57006.09
543.14	57144.18
543.31	57003.75
543.48	57308.02
543.64	57579.52
543.81	57897.83
543.98	57577.18
544.15	57490.58
544.32	57593.56
544.48	57607.61
544.65	57495.26
544.82	57656.76
544.99	57439.09
545.16	57649.74
545.32	57635.69
545.49	57780.81
545.66	57855.70
545.83	57659.10
546.00	57829.96
546.16	57879.11
546.33	57787.83
546.50	57691.86
546.67	57825.28
546.83	57778.46
547.00	57827.62
547.17	57785.49
547.34	58038.26
547.50	58064.01
547.67	58281.68
547.84	58185.72
548.00	58431.47
548.17	58478.28
548.34	58049.97
548.51	58501.69
548.67	58604.67
548.84	58284.02
549.01	58323.81
549.18	58237.21
549.34	58309.77
549.51	58457.22
549.68	58489.99
549.84	58522.76
550.01	58501.69
550.18	58480.63
550.34	58424.45
550.51	58717.02
550.68	58518.07
550.84	58260.62
551.01	58843.41
551.18	58604.67
551.34	58695.95
551.51	58791.92
551.68	58714.68
551.84	58770.85
552.01	58705.32
552.18	58955.75
552.34	58698.30
552.51	59082.14
552.68	58642.12
552.84	58714.68
553.01	59152.36
553.18	58990.86
553.34	58953.41
553.51	58777.87
553.67	59018.95
553.84	59096.19
554.01	59143.00
554.17	59199.17
554.34	59173.42
554.51	59056.40
554.67	59124.27
554.84	59000.22
555.00	59042.35
555.17	59086.82
555.33	59114.91
555.50	59016.61
555.67	59025.97
555.83	59086.82
556.00	59082.14
556.16	59503.44
556.33	59552.59
556.50	59510.46
556.66	59395.77
556.83	59257.68
556.99	59512.80
557.16	59475.35
557.32	59564.29
557.49	59627.49
557.65	59412.16
557.82	59601.74
557.98	59477.69
558.15	59358.33
558.32	59821.75
558.48	59339.60
558.65	59693.02
558.81	59494.08
558.98	59559.61
559.14	59667.28
559.31	59847.50
559.47	59812.39
559.64	59927.08
559.80	59854.52
559.97	60046.44
560.13	59728.13
560.30	59550.25
560.46	59915.37
560.63	59791.33
560.79	59976.23
560.96	60055.81
561.12	60163.47
561.29	60046.44
561.45	60013.68
561.61	59824.09
561.78	60055.81
561.94	59931.76
562.11	59877.93
562.27	59910.69
562.44	60004.31
562.60	60214.96
562.77	60158.79
562.93	59838.14
563.10	60135.38
563.26	60006.65
563.42	60144.75
563.59	60039.42
563.75	60086.23
563.92	60236.03
564.08	60219.64
564.24	60357.74
564.41	60310.92
564.57	60280.50
564.74	60088.57
564.90	60324.97
565.07	60247.73
565.23	60282.84
565.39	60268.79
565.56	60324.97
565.72	60247.73
565.88	60055.81
566.05	60205.60
566.21	60193.90
566.38	60257.09
566.54	60385.82
566.70	60404.55
566.87	60512.21
567.03	60327.31
567.19	60561.36
567.36	60612.85
567.52	60453.70
567.68	60566.04
567.85	60505.19
568.01	60502.85
568.17	60327.31
568.34	60594.13
568.50	60360.08
568.66	60465.40
568.83	60591.79
568.99	60488.80
569.15	60456.04
569.32	60580.09
569.48	60470.08
569.64	60596.47
569.81	60519.23
569.97	60460.72
570.13	60636.26
570.30	60523.91
570.46	60456.04
570.62	60704.13
570.78	60678.39
570.95	60690.09
571.11	60774.35
571.27	60741.58
571.43	60673.71
571.60	60837.54
571.76	60671.37
571.92	60814.14
572.09	60903.08
572.25	60755.63
572.41	60786.05
572.57	60774.35
572.74	60931.17
572.90	60832.86
573.06	60694.77
573.22	60825.84
573.38	60685.41
573.55	60860.95
573.71	60999.04
573.87	60919.46
574.03	60767.33
574.20	60935.85
574.36	60568.38
574.52	60961.59
574.68	60657.32
574.84	60870.31
575.01	60889.04
575.17	60762.65
575.33	60736.90
575.49	60769.67
575.65	61237.78
575.82	60907.76
575.98	60856.27
576.14	61064.58
576.30	60879.67
576.46	60795.42
576.62	60846.91
576.79	60669.03
576.95	60748.60
577.11	60898.40
577.27	61078.62
577.43	60816.48
577.59	60889.04
577.75	60919.46
577.92	60762.65
578.08	60809.46
578.24	60849.25
578.40	61006.06
578.56	61146.50
578.72	60985.00
578.88	61017.77
579.04	61179.26
579.21	60942.87
579.37	61181.60
579.53	61003.72
579.69	60825.84
579.85	60816.48
580.01	60729.88
580.17	60762.65
580.33	61078.62
580.49	61090.32
580.65	60977.98
580.82	60779.03
580.98	61080.96
581.14	61085.64
581.30	61087.98
581.46	61038.83
581.62	61095.00
581.78	61120.75
581.94	61120.75
582.10	61062.24
582.26	60985.00
582.42	61027.13
582.58	60949.89
582.74	60853.93
582.90	60928.83
583.06	61076.28
583.22	60793.07
583.38	61043.51
583.54	61029.47
583.70	61134.79
583.86	61200.33
584.02	60919.46
584.18	61174.58
584.34	61123.09
584.50	61207.35
584.66	61062.24
584.82	61134.79
584.98	61322.04
585.14	61013.08
585.30	61078.62
585.46	61385.23
585.62	61080.96
585.78	61158.20
585.94	61008.40
586.10	61275.22
586.26	61062.24
586.42	61116.07
586.58	61415.66
586.74	61223.73
586.90	61057.56
587.06	61069.26
587.22	61120.75
587.38	61024.79
587.54	61261.18
587.70	61317.35
587.86	61134.79
588.02	61324.38
588.18	61455.45
588.34	61141.81
588.49	60982.66
