SpectraSuite Data File
++++++++++++++++++++++++++++++++++++
Date: Fri Oct 25 10:44:01 EDT 2013
User: price-jones
Dark Spectrum Present: No
Reference Spectrum Present: No
Number of Sampled Component Spectra: 1
Spectrometers: USB2+H05261
Integration Time (usec): 100000 (USB2+H05261)
Spectra Averaged: 1 (USB2+H05261)
Boxcar Smoothing: 0 (USB2+H05261)
Correct for Electrical Dark: No (USB2+H05261)
Strobe/Lamp Enabled: No (USB2+H05261)
Correct for Detector Non-linearity: No (USB2+H05261)
Correct for Stray Light: No (USB2+H05261)
Number of Pixels in Processed Spectrum: 2048
>>>>>Begin Processed Spectral Data<<<<<
365.73	93.62
365.92	93.62
366.12	93.62
366.32	35.11
366.52	9.36
366.72	0.00
366.91	23.41
367.11	63.19
367.31	25.75
367.51	0.00
367.70	77.24
367.90	21.06
368.10	77.24
368.30	0.00
368.49	0.00
368.69	9.36
368.89	56.17
369.09	11.70
369.28	105.32
369.48	14.04
369.68	21.06
369.87	58.51
370.07	168.52
370.27	51.49
370.47	180.22
370.66	482.15
370.86	379.17
371.06	440.02
371.25	498.53
371.45	423.64
371.65	507.90
371.84	557.05
372.04	482.15
372.24	498.53
372.44	468.11
372.63	535.98
372.83	468.11
373.03	465.77
373.22	475.13
373.42	477.47
373.62	482.15
373.81	531.30
374.01	463.43
374.21	524.28
374.40	482.15
374.60	622.58
374.79	552.37
374.99	517.26
375.19	615.56
375.38	535.98
375.58	559.39
375.78	587.47
375.97	608.54
376.17	615.56
376.37	620.24
376.56	669.39
376.76	561.73
376.95	601.52
377.15	648.33
377.35	610.88
377.54	634.29
377.74	678.76
377.93	660.03
378.13	627.26
378.33	648.33
378.52	650.67
378.72	650.67
378.91	617.90
379.11	702.16
379.31	716.20
379.50	653.01
379.70	739.61
379.89	660.03
380.09	793.44
380.28	730.25
380.48	648.33
380.68	688.12
380.87	720.88
381.07	788.76
381.26	676.41
381.46	734.93
381.65	720.88
381.85	713.86
382.04	798.12
382.24	702.16
382.43	791.10
382.63	697.48
382.83	692.80
383.02	779.40
383.22	772.38
383.41	720.88
383.61	812.17
383.80	821.53
384.00	753.65
384.19	812.17
384.39	842.59
384.58	819.19
384.78	854.30
384.97	922.17
385.17	842.59
385.36	770.04
385.56	758.33
385.75	788.76
385.95	809.83
386.14	936.21
386.34	870.68
386.53	896.43
386.72	863.66
386.92	863.66
387.11	894.08
387.31	866.00
387.50	807.48
387.70	798.12
387.89	873.02
388.09	868.34
388.28	894.08
388.48	964.30
388.67	943.24
388.86	952.60
389.06	1050.90
389.25	1067.28
389.45	1011.11
389.64	987.71
389.84	1116.44
390.03	1015.79
390.22	1032.18
390.42	1032.18
390.61	1069.62
390.81	1048.56
391.00	1114.10
391.19	1158.57
391.39	1123.46
391.58	1093.03
391.78	1053.24
391.97	987.71
392.16	1053.24
392.36	1057.92
392.55	1139.84
392.75	999.41
392.94	1041.54
393.13	987.71
393.33	1013.45
393.52	1064.94
393.71	1121.12
393.91	1158.57
394.10	1078.99
394.29	1121.12
394.49	1203.04
394.68	1219.42
394.88	1273.25
395.07	1219.42
395.26	1228.78
395.46	1249.85
395.65	1196.01
395.84	1247.51
396.04	1341.13
396.23	1235.80
396.42	1144.52
396.62	1186.65
396.81	1252.19
397.00	1352.83
397.19	1350.49
397.39	1320.06
397.58	1404.32
397.77	1507.30
397.97	1462.83
398.16	1507.30
398.35	1453.47
398.55	1467.52
398.74	1610.29
398.93	1643.06
399.12	1533.05
399.32	1476.88
399.51	1626.67
399.70	1626.67
399.90	1582.20
400.09	1582.20
400.28	1696.89
400.47	1652.42
400.67	1834.98
400.86	1617.31
401.05	1818.60
401.24	1680.50
401.44	1685.19
401.63	1762.42
401.82	1830.30
402.01	1774.13
402.21	1795.19
402.40	1799.87
402.59	1816.26
402.78	1811.57
402.97	1811.57
403.17	1856.04
403.36	1919.24
403.55	1914.56
403.74	1994.14
403.93	1982.43
404.13	1893.49
404.32	1937.96
404.51	1966.05
404.70	2045.63
404.89	2015.20
405.09	1984.77
405.28	1921.58
405.47	2054.99
405.66	2085.42
405.85	2122.87
406.05	2022.22
406.24	2183.72
406.43	2092.44
406.62	2092.44
406.81	2146.27
407.00	2092.44
407.20	2101.80
407.39	2118.18
407.58	2200.10
407.77	2172.02
407.96	2340.54
408.15	2221.17
408.34	2333.51
408.54	2298.41
408.73	2293.72
408.92	2361.60
409.11	2544.16
409.30	2356.92
409.49	2223.51
409.68	2326.49
409.87	2354.58
410.07	2434.16
410.26	2483.31
410.45	2415.43
410.64	2509.05
410.83	2485.65
411.02	2602.68
411.21	2696.30
411.40	2541.82
411.59	2663.53
411.78	2654.17
411.98	2609.70
412.17	2691.62
412.36	2715.02
412.55	2761.83
412.74	2745.45
412.93	2792.26
413.12	2792.26
413.31	2981.84
413.50	2965.46
413.69	2937.37
413.88	2911.63
414.07	2965.46
414.26	2935.03
414.45	3009.93
414.64	3068.44
414.83	3087.17
415.02	3225.26
415.22	3253.34
415.41	3218.24
415.60	3323.56
415.79	3248.66
415.98	3410.16
416.17	3304.84
416.36	3302.50
416.55	3267.39
416.74	3344.63
416.93	3211.22
417.12	3485.06
417.31	3510.80
417.50	3459.31
417.69	3639.53
417.88	3534.21
418.07	3475.70
418.26	3513.14
418.45	3566.98
418.64	3761.24
418.83	3686.34
419.02	3728.47
419.21	3665.28
419.39	3681.66
419.58	3707.41
419.77	3634.85
419.96	3803.37
420.15	3775.28
420.34	3784.65
420.53	3904.01
420.72	3913.38
420.91	3962.53
421.10	4065.51
421.29	3999.98
421.48	3819.75
421.67	3948.48
421.86	3976.57
422.05	3894.65
422.24	3929.76
422.43	3871.25
422.61	4011.68
422.80	4086.58
422.99	4023.38
423.18	3971.89
423.37	4133.39
423.56	4044.45
423.75	3920.40
423.94	4025.72
424.13	3894.65
424.32	3852.52
424.50	4128.70
424.69	4264.46
424.88	4189.56
425.07	4077.21
425.26	4077.21
425.45	4114.66
425.64	4112.32
425.83	3943.80
426.01	4203.60
426.20	4114.66
426.39	4112.32
426.58	4016.36
426.77	4154.45
426.96	4058.49
427.15	3974.23
427.33	4114.66
427.52	4187.22
427.71	4208.28
427.90	4329.99
428.09	4461.06
428.28	4126.36
428.46	4285.52
428.65	4308.93
428.84	4341.69
429.03	4393.19
429.22	4234.03
429.40	4266.80
429.59	4222.33
429.78	4035.08
429.97	3969.55
430.16	4180.20
430.34	4142.75
430.53	4271.48
430.72	4234.03
430.91	4329.99
431.10	4358.08
431.28	4547.66
431.47	4676.39
431.66	4730.22
431.85	4711.50
432.03	4662.35
432.22	4861.29
432.41	4856.61
432.60	4809.80
432.79	4844.91
432.97	4915.12
433.16	4980.66
433.35	4767.67
433.54	4610.86
433.72	4896.40
433.91	4741.93
434.10	4908.10
434.28	4922.15
434.47	4784.06
434.66	4926.83
434.85	5188.97
435.03	4980.66
435.22	5121.09
435.41	5146.84
435.59	5214.71
435.78	5146.84
435.97	5210.03
436.16	5240.46
436.34	5301.31
436.53	5254.50
436.72	5369.19
436.90	5191.31
437.09	5270.89
437.28	5296.63
437.46	5420.68
437.65	5394.93
437.84	5420.68
438.02	5416.00
438.21	5289.61
438.40	5184.29
438.58	5423.02
438.77	5507.28
438.96	5568.13
439.14	5589.20
439.33	5844.32
439.52	5870.06
439.70	5832.62
439.89	6033.90
440.08	5858.36
440.26	5832.62
440.45	6003.47
440.63	5977.73
440.82	6134.54
441.01	6209.44
441.19	6040.92
441.38	6235.19
441.57	6263.27
441.75	6342.85
441.94	6642.44
442.12	6331.15
442.31	6305.40
442.50	6466.90
442.68	6525.41
442.87	6518.39
443.05	6476.26
443.24	6619.04
443.43	6511.37
443.61	6635.42
443.80	6843.73
443.98	6635.42
444.17	6476.26
444.35	6773.51
444.54	6764.15
444.73	6647.12
444.91	6672.87
445.10	6621.38
445.28	6754.79
445.47	6551.16
445.65	6724.36
445.84	6787.55
446.02	6740.74
446.21	6693.93
446.39	6754.79
446.58	7047.35
446.77	6832.02
446.95	6808.62
447.14	6855.43
447.32	6988.84
447.51	6937.35
447.69	6883.52
447.88	6871.81
448.06	6932.67
448.25	6829.68
448.43	6832.02
448.62	6817.98
448.80	6920.96
448.99	7049.69
449.17	7007.56
449.36	7026.29
449.54	7265.02
449.73	7267.36
449.91	7318.86
450.10	7304.81
450.28	7379.71
450.46	7576.31
450.65	7353.96
450.83	7499.08
451.02	7349.28
451.20	7660.57
451.39	7494.40
451.57	7499.08
451.76	7229.91
451.94	7375.03
452.13	7440.56
452.31	7283.75
452.49	7323.54
452.68	7288.43
452.86	7414.82
453.05	7391.41
453.23	7522.48
453.42	7599.72
453.60	7688.66
453.78	7585.68
453.97	7618.44
454.15	7698.02
454.34	7648.87
454.52	7772.92
454.70	7964.84
454.89	7768.24
455.07	7852.50
455.26	7798.66
455.44	7852.50
455.62	8018.68
455.81	7974.21
455.99	8095.91
456.17	8037.40
456.36	8006.97
456.54	8173.15
456.73	8173.15
456.91	8402.52
457.09	8372.10
457.28	8475.08
457.46	8271.45
457.64	8212.94
457.83	8304.22
458.01	8276.13
458.19	8329.97
458.38	8234.00
458.56	8535.93
458.74	8341.67
458.93	8493.80
459.11	8425.93
459.29	8500.83
459.48	8798.07
459.66	8571.04
459.84	8629.56
460.03	8779.35
460.21	8648.28
460.39	8655.30
460.57	8943.19
460.76	8706.79
460.94	8898.72
461.12	8741.90
461.31	8889.35
461.49	8725.52
461.67	8849.57
461.85	9177.24
462.04	9013.40
462.22	9397.25
462.40	9233.41
462.59	9139.79
462.77	9231.07
462.95	9425.34
463.13	9032.13
463.32	9254.48
463.50	9533.00
463.68	9252.14
463.86	9160.86
464.05	9128.09
464.23	9062.55
464.41	9102.34
464.59	9170.22
464.78	9551.73
464.96	9568.11
465.14	9256.82
465.32	9441.72
465.50	9659.39
465.69	9385.55
465.87	9664.07
466.05	9385.55
466.23	9324.69
466.41	9535.34
466.60	9575.13
466.78	9376.19
466.96	9544.70
467.14	9647.69
467.32	9633.64
467.51	9650.03
467.69	9572.79
467.87	9437.04
468.05	9767.06
468.23	9745.99
468.41	9736.63
468.60	9701.52
468.78	9755.35
468.96	9881.74
469.14	9858.34
469.32	10090.05
469.50	9865.36
469.69	9734.29
469.87	9802.16
470.05	10113.45
470.23	10076.01
470.41	10148.56
470.59	10272.61
470.77	9994.09
470.95	10281.97
471.14	10438.79
471.32	10228.14
471.50	10729.02
471.68	10593.26
471.86	10658.80
472.04	10619.01
472.22	10677.52
472.40	10565.18
472.58	10675.18
472.77	10810.93
472.95	10836.68
473.13	11052.01
473.31	11016.90
473.49	10913.92
473.67	10808.59
473.85	10888.17
474.03	11185.42
474.21	11400.75
474.39	11208.83
474.57	11417.13
474.75	11344.58
474.93	11405.43
475.12	11370.32
475.30	11583.31
475.48	11466.28
475.66	11733.11
475.84	11590.33
476.02	11775.24
476.20	11875.88
476.38	12018.65
476.56	12049.08
476.74	12142.70
476.92	12278.45
477.10	11964.82
477.28	12479.74
477.46	12409.52
477.64	12549.95
477.82	12795.71
478.00	12882.31
478.18	12549.95
478.36	12865.92
478.54	13067.21
478.72	13165.51
478.90	13362.12
479.08	13444.04
479.26	13516.59
479.44	13589.15
479.62	13743.63
479.80	13432.33
479.98	13760.01
480.16	14214.07
480.34	14047.90
480.52	14040.87
480.70	14310.04
480.88	14092.37
481.06	14328.76
481.24	14263.22
481.41	14611.96
481.59	14642.39
481.77	14878.79
481.95	15094.11
482.13	15061.35
482.31	15229.87
482.49	15283.70
482.67	15433.49
482.85	15377.32
483.03	15309.44
483.21	15648.82
483.39	15571.58
483.57	15723.72
483.74	15796.28
483.92	16128.63
484.10	15805.64
484.28	16252.68
484.46	16521.84
484.64	16964.20
484.82	16655.25
485.00	16510.14
485.18	16753.55
485.35	16795.68
485.53	16404.81
485.71	16325.24
485.89	16865.90
486.07	16840.15
486.25	16849.52
486.43	17200.60
486.61	17376.14
486.78	17736.58
486.96	17860.63
487.14	18097.02
487.32	18398.95
487.50	18764.07
487.68	18616.62
487.85	18782.80
488.03	19058.98
488.21	19171.33
488.39	19002.81
488.57	19332.82
488.75	19070.68
488.92	19475.60
489.10	19960.09
489.28	20032.65
489.46	19906.26
489.64	19700.29
489.81	20650.55
489.99	20795.66
490.17	20842.47
490.35	20615.44
490.53	20936.09
490.70	21071.84
490.88	20973.54
491.06	21472.07
491.24	21277.81
491.41	21113.97
491.59	21074.18
491.77	21282.49
491.95	21174.83
492.13	21860.60
492.30	22148.49
492.48	21942.52
492.66	22235.09
492.84	22148.49
493.01	22616.60
493.19	22532.34
493.37	22822.56
493.54	22892.78
493.72	23370.25
493.90	23248.54
494.08	23765.80
494.25	23936.66
494.43	23887.51
494.61	24041.98
494.79	24079.43
494.96	24205.82
495.14	24182.42
495.32	24746.48
495.49	24414.13
495.67	24599.03
495.85	24559.24
496.02	24727.76
496.20	24964.15
496.38	25113.95
496.55	25069.48
496.73	25579.71
496.91	25420.56
497.09	25923.77
497.26	26050.16
497.44	25420.56
497.62	25951.86
497.79	26218.68
497.97	25661.63
498.14	26192.94
498.32	26279.54
498.50	26204.64
498.67	26658.70
498.85	26630.62
499.03	26925.52
499.20	27168.94
499.38	26897.44
499.56	27098.72
499.73	27257.88
499.91	27665.13
500.08	27398.31
500.26	26595.51
500.44	27332.78
500.61	27042.55
500.79	27187.66
500.97	27529.38
501.14	27543.42
501.32	27449.80
501.49	27709.60
501.67	27988.13
501.84	27831.31
502.02	28020.89
502.20	27934.29
502.37	28587.30
502.55	28217.50
502.72	28554.54
502.90	28793.27
503.07	28725.39
503.25	28877.53
503.43	28608.37
503.60	28898.59
503.78	28718.37
503.95	28952.43
504.13	29324.57
504.30	29261.38
504.48	29549.26
504.65	29813.74
504.83	29788.00
505.01	29699.06
505.18	29589.05
505.36	30228.02
505.53	29944.81
505.71	30476.12
505.88	30941.88
506.06	30082.91
506.23	30707.83
506.41	30216.32
506.58	30455.05
506.76	30085.25
506.93	30764.00
507.11	30448.03
507.28	30646.97
507.46	30401.22
507.63	30972.31
507.81	31012.10
507.98	30588.46
508.16	30799.11
508.33	31318.71
508.50	31220.41
508.68	31548.08
508.85	32002.14
509.03	31805.54
509.20	32140.24
509.38	32065.34
509.55	31716.60
509.73	31779.79
509.90	32271.31
510.08	31997.46
510.25	32011.51
510.42	31985.76
510.60	32283.01
510.77	32484.30
510.95	32477.27
511.12	32453.87
511.30	32842.40
511.47	33102.20
511.64	33106.88
511.82	33120.92
511.99	32657.49
512.17	32999.21
512.34	33046.02
512.51	33689.67
512.69	33715.42
512.86	33277.74
513.04	33631.16
513.21	33408.81
513.38	33638.18
513.56	33284.76
513.73	33504.77
513.90	33589.03
514.08	33855.85
514.25	33797.34
514.43	33930.75
514.60	33813.72
514.77	34153.10
514.95	34415.24
515.12	34204.59
515.29	34356.72
515.47	35248.47
515.64	35047.18
515.81	34541.63
515.99	34487.79
516.16	34476.09
516.33	34181.18
516.51	34480.77
516.68	33846.49
516.85	33750.52
517.03	34213.95
517.20	34536.94
517.37	35285.92
517.54	34682.06
517.72	34885.68
517.89	34375.45
518.06	34897.39
518.24	34536.94
518.41	35084.63
518.58	35306.98
518.75	35330.39
518.93	35377.20
519.10	35253.15
519.27	35613.59
519.45	35742.32
519.62	36470.23
519.79	36264.26
519.96	36217.45
520.14	36453.84
520.31	35398.26
520.48	36175.32
520.65	35660.40
520.83	36603.64
521.00	36479.59
521.17	36528.74
521.34	36615.34
521.52	36856.42
521.69	36774.50
521.86	37214.52
522.03	36886.84
522.20	37298.78
522.38	37053.02
522.55	37031.96
522.72	37214.52
522.89	37060.04
523.07	37659.22
523.24	36999.19
523.41	37804.33
523.58	38024.34
523.75	38174.14
523.92	37979.87
524.10	38045.41
524.27	38120.31
524.44	38148.39
524.61	38237.33
524.78	38153.07
524.96	38403.51
525.13	38415.21
525.30	38543.94
525.47	38403.51
525.64	38178.82
525.81	38085.20
525.98	38239.67
526.16	38139.03
526.33	37766.88
526.50	38094.56
526.67	37951.79
526.84	38087.54
527.01	38321.59
527.18	38906.73
527.36	39129.08
527.53	38965.24
527.70	39182.91
527.87	39215.68
528.04	39002.69
528.21	39168.87
528.38	39559.73
528.55	39653.36
528.72	39346.75
528.89	39555.05
529.07	39438.03
529.24	39512.92
529.41	39641.65
529.58	39419.30
529.75	39536.33
529.92	39730.59
530.09	39641.65
530.26	39805.49
530.43	39885.07
530.60	39629.95
530.77	39988.05
530.94	40418.71
531.11	39955.29
531.28	40175.30
531.46	40208.06
531.63	40123.80
531.80	40102.74
531.97	40205.72
532.14	40046.57
532.31	40006.78
532.48	40432.75
532.65	40236.15
532.82	40172.96
532.99	40191.68
533.16	40491.27
533.33	40683.19
533.50	40959.38
533.67	40858.73
533.84	40662.13
534.01	40753.41
534.18	40517.01
534.35	41158.32
534.52	40769.79
534.69	40884.48
534.86	40957.03
535.03	41436.84
535.20	41464.93
535.37	41675.58
535.54	42319.23
535.71	41448.55
535.88	41345.56
536.05	41659.20
536.22	41364.29
536.38	41399.40
536.55	41336.20
536.72	41083.42
536.89	40905.54
537.06	41493.02
537.23	41418.12
537.40	41703.67
537.57	41682.60
537.74	41890.91
537.91	42328.59
538.08	41979.85
538.25	42171.77
538.42	42012.62
538.59	42356.67
538.75	41844.10
538.92	42199.86
539.09	41691.96
539.26	42075.81
539.43	41918.99
539.60	41853.46
539.77	42061.77
539.94	42089.85
540.11	42305.18
540.28	41794.95
540.44	42092.19
540.61	42197.52
540.78	42054.75
540.95	42251.35
541.12	42398.80
541.29	42588.39
541.46	42703.07
541.62	42955.85
541.79	42768.61
541.96	42241.99
542.13	42515.83
542.30	42609.45
542.47	42742.86
542.63	43143.09
542.80	42756.91
542.97	43093.94
543.14	43007.34
543.31	43491.83
543.48	43494.18
543.64	43775.04
543.81	43845.26
543.98	43817.17
544.15	43131.39
544.32	43945.90
544.48	44130.80
544.65	43552.69
544.82	43629.93
544.99	43658.01
545.16	44219.74
545.32	43140.75
545.49	43906.11
545.66	44327.41
545.83	43847.60
546.00	44081.65
546.16	44142.50
546.33	44037.18
546.50	43519.92
546.67	43707.16
546.83	43650.99
547.00	43800.79
547.17	43924.83
547.34	43812.49
547.50	43964.62
547.67	44016.11
547.84	44121.44
548.00	44306.34
548.17	44350.81
548.34	44100.37
548.51	44542.74
548.67	44811.90
548.84	44467.84
549.01	44334.43
549.18	44421.03
549.34	44839.98
549.51	45050.63
549.68	44720.62
549.84	44655.08
550.01	44755.72
550.18	44591.89
550.34	44722.96
550.51	44566.14
550.68	44655.08
550.84	44390.60
551.01	44575.50
551.18	44678.49
551.34	44835.30
551.51	44980.42
551.68	45443.84
551.84	45141.91
552.01	44779.13
552.18	45223.83
552.34	44847.00
552.51	45261.28
552.68	44928.92
552.84	44802.53
553.01	45188.72
553.18	44842.32
553.34	44779.13
553.51	45055.31
553.67	45476.61
553.84	45759.81
554.01	45640.45
554.17	45668.53
554.34	45514.06
554.51	45773.86
554.67	45427.46
554.84	45523.42
555.00	45338.52
555.17	45146.59
555.33	45434.48
555.50	45673.21
555.67	45202.77
555.83	45397.03
556.00	45717.68
556.16	45490.65
556.33	45595.98
556.50	45563.21
556.66	45605.34
556.83	45572.57
556.99	46061.74
557.16	45825.35
557.32	45830.03
557.49	45923.65
557.65	45886.20
557.82	45455.54
557.98	45933.01
558.15	45808.96
558.32	45893.22
558.48	45600.66
558.65	45827.69
558.81	45680.24
558.98	45984.51
559.14	45567.89
559.31	45815.99
559.47	45935.35
559.64	46061.74
559.80	46190.47
559.97	45998.55
560.13	45647.47
560.30	45640.45
560.46	46096.85
560.63	45991.53
560.79	46183.45
560.96	46391.76
561.12	45881.52
561.29	45970.46
561.45	46319.20
561.61	46117.92
561.78	46036.00
561.94	46117.92
562.11	45858.12
562.27	46014.93
562.44	46181.11
562.60	46347.29
562.77	46307.50
562.93	46136.64
563.10	46248.99
563.26	46241.96
563.42	46433.89
563.59	46270.05
563.75	46344.95
563.92	46344.95
564.08	46256.01
564.24	46721.77
564.41	46595.38
564.57	45713.00
564.74	46356.65
564.90	46452.61
565.07	45731.73
565.23	46347.29
565.39	46557.94
565.56	46263.03
565.72	45743.43
565.88	46417.50
566.05	46178.77
566.21	45872.16
566.38	46010.25
566.54	46190.47
566.70	46639.86
566.87	46754.54
567.03	46302.82
567.19	46993.28
567.36	46742.84
567.52	46279.41
567.68	46740.50
567.85	46628.15
568.01	46642.20
568.17	46183.45
568.34	46700.71
568.50	46454.95
568.66	46731.14
568.83	46298.14
568.99	46059.40
569.15	46263.03
569.32	46457.29
569.48	45961.10
569.64	47103.28
569.81	46731.14
569.97	46256.01
570.13	46548.57
570.30	46167.07
570.46	46199.83
570.62	45982.16
570.78	46274.73
570.95	46483.04
571.11	46663.26
571.27	46412.82
571.43	46403.46
571.60	46284.09
571.76	46747.52
571.92	46557.94
572.09	46604.75
572.25	46515.81
572.41	46621.13
572.57	46880.93
572.74	46946.47
572.90	46492.40
573.06	46808.37
573.22	46541.55
573.38	46363.67
573.55	46394.10
573.71	46876.25
573.87	46894.97
574.03	46560.28
574.20	46581.34
574.36	46791.99
574.52	46368.35
574.68	46689.01
574.84	46808.37
575.01	46230.26
575.17	46480.70
575.33	46504.10
575.49	46501.76
575.65	46670.28
575.82	46902.00
575.98	46230.26
576.14	47297.55
576.30	46892.63
576.46	46649.22
576.62	47028.38
576.79	46791.99
576.95	46167.07
577.11	46478.36
577.27	47044.77
577.43	46436.23
577.59	46639.86
577.75	46396.44
577.92	46693.69
578.08	46555.60
578.24	46326.22
578.40	46782.63
578.56	47136.05
578.72	46424.53
578.88	46913.70
579.04	46773.27
579.21	46595.38
579.37	46763.90
579.53	46705.39
579.69	46773.27
579.85	47042.43
580.01	46483.04
580.17	46712.41
580.33	46363.67
580.49	46934.76
580.65	47007.32
580.82	46815.40
580.98	46178.77
581.14	46726.46
581.30	46672.62
581.46	46880.93
581.62	46761.56
581.78	46628.15
581.94	46824.76
582.10	46646.88
582.26	46824.76
582.42	46710.07
582.58	46925.40
582.74	46316.86
582.90	46653.90
583.06	47494.15
583.22	47185.20
583.38	47096.26
583.54	46838.80
583.70	46897.31
583.86	46930.08
584.02	46300.48
584.18	46789.65
584.34	46918.38
584.50	46689.01
584.66	46892.63
584.82	46639.86
584.98	47040.09
585.14	47009.66
585.30	46880.93
585.46	46836.46
585.62	46401.12
585.78	46590.70
585.94	46461.97
586.10	46911.36
586.26	46770.93
586.42	47103.28
586.58	46876.25
586.74	46852.84
586.90	47004.98
587.06	46871.57
587.22	46937.10
587.38	46497.08
587.54	47089.24
587.70	46934.76
587.86	47063.49
588.02	46827.10
588.18	47079.88
588.34	46497.08
588.49	46396.44
588.65	46380.06
588.81	46237.28
588.97	46113.23
589.13	46160.05
589.29	46548.57
589.45	46689.01
589.61	46845.82
589.77	46965.19
589.93	46665.60
