SpectraSuite Data File
++++++++++++++++++++++++++++++++++++
Date: Fri Oct 25 11:25:12 EDT 2013
User: price-jones
Dark Spectrum Present: No
Reference Spectrum Present: No
Number of Sampled Component Spectra: 1
Spectrometers: USB2+H05261
Integration Time (usec): 100000 (USB2+H05261)
Spectra Averaged: 1 (USB2+H05261)
Boxcar Smoothing: 0 (USB2+H05261)
Correct for Electrical Dark: No (USB2+H05261)
Strobe/Lamp Enabled: No (USB2+H05261)
Correct for Detector Non-linearity: No (USB2+H05261)
Correct for Stray Light: No (USB2+H05261)
Number of Pixels in Processed Spectrum: 2048
>>>>>Begin Processed Spectral Data<<<<<
365.73	227.03
365.92	227.03
366.12	227.03
366.32	154.48
366.52	180.22
366.72	107.66
366.91	128.73
367.11	117.03
367.31	142.77
367.51	107.66
367.70	88.94
367.90	86.60
368.10	126.39
368.30	133.41
368.49	142.77
368.69	175.54
368.89	133.41
369.09	180.22
369.28	128.73
369.48	156.82
369.68	168.52
369.87	224.69
370.07	201.29
370.27	215.33
370.47	306.61
370.66	575.77
370.86	589.82
371.06	699.82
371.25	746.63
371.45	622.58
371.65	674.07
371.84	683.44
372.04	699.82
372.24	688.12
372.44	718.54
372.63	833.23
372.83	793.44
373.03	732.59
373.22	767.70
373.42	732.59
373.62	807.48
373.81	732.59
374.01	805.14
374.21	868.34
374.40	737.27
374.60	779.40
374.79	758.33
374.99	826.21
375.19	765.36
375.38	791.10
375.58	795.78
375.78	842.59
375.97	896.43
376.17	929.19
376.37	863.66
376.56	837.91
376.76	851.96
376.95	863.66
377.15	887.06
377.35	844.93
377.54	868.34
377.74	833.23
377.93	891.74
378.13	856.64
378.33	896.43
378.52	917.49
378.72	940.90
378.91	971.32
379.11	985.37
379.31	891.74
379.50	894.08
379.70	908.13
379.89	933.87
380.09	943.24
380.28	957.28
380.48	973.66
380.68	964.30
380.87	922.17
381.07	1064.94
381.26	978.34
381.46	1006.43
381.65	1055.58
381.85	971.32
382.04	1057.92
382.24	1046.22
382.43	1060.26
382.63	1083.67
382.83	1151.54
383.02	1130.48
383.22	1095.37
383.41	1053.24
383.61	1043.88
383.80	1167.93
384.00	1132.82
384.19	1109.41
384.39	1167.93
384.58	1083.67
384.78	1130.48
384.97	1123.46
385.17	1210.06
385.36	1186.65
385.56	1205.38
385.75	1078.99
385.95	1151.54
386.14	1217.08
386.34	1226.44
386.53	1172.61
386.72	1172.61
386.92	1203.04
387.11	1203.04
387.31	1231.12
387.50	1242.82
387.70	1235.80
387.89	1273.25
388.09	1221.76
388.28	1228.78
388.48	1268.57
388.67	1301.34
388.86	1427.73
389.06	1338.79
389.25	1362.19
389.45	1306.02
389.64	1268.57
389.84	1315.38
390.03	1357.51
390.22	1390.28
390.42	1327.08
390.61	1373.89
390.81	1394.96
391.00	1413.68
391.19	1350.49
391.39	1434.75
391.58	1479.22
391.78	1401.98
391.97	1563.48
392.16	1394.96
392.36	1528.37
392.55	1537.73
392.75	1481.56
392.94	1481.56
393.13	1476.88
393.33	1511.99
393.52	1540.07
393.71	1528.37
393.91	1554.12
394.10	1570.50
394.29	1561.14
394.49	1619.65
394.68	1537.73
394.88	1636.03
395.07	1586.88
395.26	1645.40
395.46	1612.63
395.65	1727.32
395.84	1750.72
396.04	1706.25
396.23	1732.00
396.42	1729.66
396.62	1776.47
396.81	1795.19
397.00	1703.91
397.19	1797.53
397.39	1818.60
397.58	1825.62
397.77	1729.66
397.97	1872.43
398.16	1764.76
398.35	1942.64
398.55	1968.39
398.74	1849.02
398.93	1912.22
399.12	1860.73
399.32	1816.26
399.51	2026.90
399.70	2022.22
399.90	1975.41
400.09	1872.43
400.28	2005.84
400.47	2029.24
400.67	1984.77
400.86	2043.29
401.05	1989.46
401.24	2120.53
401.44	2143.93
401.63	2083.08
401.82	2214.15
402.01	2071.37
402.21	2010.52
402.40	2172.02
402.59	2150.95
402.78	2235.21
402.97	2176.70
403.17	2253.94
403.36	2153.29
403.55	2223.51
403.74	2375.64
403.93	2249.25
404.13	2342.88
404.32	2349.90
404.51	2277.34
404.70	2415.43
404.89	2466.92
405.09	2368.62
405.28	2356.92
405.47	2450.54
405.66	2459.90
405.85	2609.70
406.05	2532.46
406.24	2551.18
406.43	2490.33
406.62	2537.14
406.81	2644.81
407.00	2506.71
407.20	2583.95
407.39	2661.19
407.58	2729.06
407.77	2789.92
407.96	2691.62
408.15	2736.09
408.34	2644.81
408.54	2743.11
408.73	2754.81
408.92	2740.77
409.11	2888.22
409.30	2827.37
409.49	2965.46
409.68	2977.16
409.87	2878.86
410.07	2977.16
410.26	2942.05
410.45	2906.95
410.64	3000.57
410.83	3000.57
411.02	3166.74
411.21	3129.30
411.40	3056.74
411.59	3112.91
411.78	3290.79
411.98	3201.85
412.17	3215.90
412.36	3208.87
412.55	3272.07
412.74	3391.44
412.93	3346.97
413.12	3330.58
413.31	3459.31
413.50	3379.73
413.69	3454.63
413.88	3522.51
414.07	3506.12
414.26	3637.19
414.45	3653.58
414.64	3695.71
414.83	3847.84
415.02	3613.79
415.22	3768.26
415.41	3918.06
415.60	3859.54
415.79	3885.29
415.98	3864.22
416.17	3913.38
416.36	3974.23
416.55	3941.46
416.74	4032.74
416.93	4014.02
417.12	3899.33
417.31	4051.47
417.50	4030.40
417.69	4269.14
417.88	4344.03
418.07	4189.56
418.26	4177.86
418.45	4184.88
418.64	4472.76
418.83	4437.66
419.02	4294.88
419.21	4423.61
419.39	4456.38
419.58	4482.13
419.77	4550.00
419.96	4449.36
420.15	4622.56
420.34	4587.45
420.53	4489.15
420.72	4608.51
420.91	4713.84
421.10	4697.46
421.29	4662.35
421.48	4557.02
421.67	4699.80
421.86	4667.03
422.05	4821.50
422.24	4610.86
422.43	4940.87
422.61	4973.64
422.80	4882.36
422.99	4924.49
423.18	4926.83
423.37	4990.02
423.56	4924.49
423.75	4908.10
423.94	4936.19
424.13	4470.42
424.32	4741.93
424.50	5022.79
424.69	5071.94
424.88	5064.92
425.07	4837.89
425.26	4891.72
425.45	4795.76
425.64	4844.91
425.83	5022.79
426.01	5048.54
426.20	4938.53
426.39	4957.25
426.58	4999.38
426.77	4924.49
426.96	5102.37
427.15	5022.79
427.33	5165.56
427.52	5184.29
427.71	5284.93
427.90	5327.06
428.09	5282.59
428.28	5357.49
428.46	5217.05
428.65	5294.29
428.84	5507.28
429.03	5460.47
429.22	5418.34
429.40	5355.15
429.59	5476.85
429.78	5210.03
429.97	5296.63
430.16	5467.49
430.34	5437.06
430.53	5549.41
430.72	5610.26
430.91	5678.14
431.10	5593.88
431.28	5692.18
431.47	5830.27
431.66	5762.40
431.85	5755.38
432.03	5874.74
432.22	5975.39
432.41	5806.87
432.60	5909.85
432.79	5994.11
432.97	5987.09
433.16	5834.96
433.35	6017.52
433.54	6085.39
433.72	6207.10
433.91	5947.30
434.10	5966.03
434.28	6118.16
434.47	6176.67
434.66	6214.12
434.85	6256.25
435.03	6230.51
435.22	6071.35
435.41	6494.99
435.59	6296.04
435.78	6377.96
435.97	6455.20
436.16	6406.05
436.34	6267.95
436.53	6413.07
436.72	6530.09
436.90	6303.06
437.09	6431.79
437.28	6551.16
437.46	6626.06
437.65	6644.78
437.84	6633.08
438.02	6604.99
438.21	6787.55
438.40	6614.35
438.58	6771.17
438.77	6792.23
438.96	6927.99
439.14	7012.24
439.33	7229.91
439.52	7258.00
439.70	7159.70
439.89	7375.03
440.08	7037.99
440.26	7307.15
440.45	7169.06
440.63	7215.87
440.82	7454.61
441.01	7545.89
441.19	7440.56
441.38	7538.87
441.57	7606.74
441.75	7817.39
441.94	7932.08
442.12	8002.29
442.31	7878.24
442.50	8203.58
442.68	8006.97
442.87	7859.52
443.05	8170.81
443.24	8224.64
443.43	8070.17
443.61	8095.91
443.80	8498.49
443.98	8091.23
444.17	7779.94
444.35	8116.98
444.54	8262.09
444.73	8173.15
444.91	8280.82
445.10	8236.35
445.28	8241.03
445.47	8278.47
445.65	8124.00
445.84	8477.42
446.02	8531.25
446.21	8397.84
446.39	8271.45
446.58	8489.12
446.77	8390.82
446.95	8355.71
447.14	8351.03
447.32	8451.67
447.51	8519.55
447.69	8210.60
447.88	8351.03
448.06	8514.87
448.25	8334.65
448.43	8315.92
448.62	8533.59
448.80	8505.51
448.99	8531.25
449.17	8587.43
449.36	8688.07
449.54	8805.10
449.73	8802.75
449.91	9188.94
450.10	8912.76
450.28	9111.71
450.46	8964.25
450.65	8959.57
450.83	9011.06
451.02	9029.79
451.20	9287.25
451.39	9139.79
451.57	8957.23
451.76	8931.48
451.94	9177.24
452.13	9224.05
452.31	9301.29
452.49	8879.99
452.68	9249.80
452.86	9188.94
453.05	9336.40
453.23	9570.45
453.42	9170.22
453.60	9303.63
453.78	9511.94
453.97	9334.06
454.15	9415.98
454.34	9495.55
454.52	9607.90
454.70	9659.39
454.89	9689.82
455.07	9610.24
455.26	9743.65
455.44	9994.09
455.62	9760.03
455.81	9930.89
455.99	10066.64
456.17	9980.04
456.36	9966.00
456.54	9909.83
456.73	10073.67
456.91	10281.97
457.09	10310.06
457.28	10452.83
457.46	10186.01
457.64	10621.35
457.83	10534.75
458.01	10429.43
458.19	10698.59
458.38	10331.12
458.56	10689.23
458.74	10633.05
458.93	10567.52
459.11	10621.35
459.29	10668.16
459.48	10429.43
459.66	10787.53
459.84	10740.72
460.03	10813.28
460.21	10862.43
460.39	10895.19
460.57	10721.99
460.76	10892.85
460.94	11101.16
461.12	11126.91
461.31	11073.07
461.49	11276.70
461.67	11171.38
461.85	11419.47
462.04	11129.25
462.22	11740.13
462.40	11576.29
462.59	11414.79
462.77	11400.75
462.95	11698.00
463.13	11466.28
463.32	11510.75
463.50	11808.00
463.68	11489.69
463.86	11791.62
464.05	11534.16
464.23	11616.08
464.41	11449.90
464.59	11550.54
464.78	11843.11
464.96	11803.32
465.14	11536.50
465.32	12102.91
465.50	12070.14
465.69	12262.07
465.87	12175.47
466.05	11985.88
466.23	12077.16
466.41	12058.44
466.60	12365.05
466.78	12135.68
466.96	11976.52
467.14	12273.77
467.32	12390.80
467.51	12507.82
467.69	11936.73
467.87	12388.46
468.05	12503.14
468.23	12437.61
468.41	12299.52
468.60	12512.50
468.78	12439.95
468.96	12442.29
469.14	12688.04
469.32	13181.90
469.50	12465.69
469.69	12711.45
469.87	12959.55
470.05	12996.99
470.23	13036.78
470.41	13366.80
470.59	13186.58
470.77	13195.94
470.95	13135.09
471.14	13308.29
471.32	13081.25
471.50	13462.76
471.68	13458.08
471.86	13472.12
472.04	13596.17
472.22	13837.25
472.40	13476.80
472.58	13614.90
472.77	13813.84
472.95	13905.12
473.13	14413.02
473.31	13961.30
473.49	14218.75
473.67	13942.57
473.85	14249.18
474.03	14553.45
474.21	14413.02
474.39	14635.37
474.57	14511.32
474.75	14602.60
474.93	14644.73
475.12	14768.78
475.30	15068.37
475.48	14827.29
475.66	15019.22
475.84	14916.23
476.02	15140.93
476.20	15204.12
476.38	15590.31
476.56	15728.40
476.74	15737.76
476.92	15704.99
477.10	15585.63
477.28	15822.02
477.46	15908.62
477.64	16287.79
477.82	16554.61
478.00	16943.14
478.18	16367.37
478.36	16912.71
478.54	17034.42
478.72	17137.40
478.90	17057.82
479.08	17415.93
479.26	17781.05
479.44	17521.25
479.62	17699.13
479.80	17769.35
479.98	17994.04
480.16	18483.21
480.34	17987.02
480.52	18417.68
480.70	18394.27
480.88	18396.61
481.06	18686.84
481.24	18740.67
481.41	18743.01
481.59	19318.78
481.77	19309.42
481.95	19426.45
482.13	19520.07
482.31	19325.80
482.49	20196.48
482.67	19887.53
482.85	19887.53
483.03	20610.76
483.21	20540.54
483.39	20910.35
483.57	20615.44
483.74	20898.64
483.92	20851.83
484.10	20802.68
484.28	21472.07
484.46	21640.59
484.64	21977.63
484.82	21535.27
485.00	22129.77
485.18	22073.59
485.35	22881.08
485.53	22728.94
485.71	22419.99
485.89	23227.48
486.07	22967.68
486.25	23145.56
486.43	23374.93
486.61	23510.68
486.78	24009.22
486.96	23641.75
487.14	24198.80
487.32	24505.41
487.50	24432.85
487.68	25069.48
487.85	24889.26
488.03	25467.37
488.21	25392.47
488.39	25671.00
488.57	25825.47
488.75	25991.65
488.92	26295.92
489.10	26579.12
489.28	26757.00
489.46	26529.97
489.64	26752.32
489.81	27234.47
489.99	27300.01
490.17	27695.56
490.35	27854.72
490.53	27964.72
490.70	28271.33
490.88	27775.14
491.06	28620.07
491.24	28524.11
491.41	28699.65
491.59	28886.89
491.77	29158.39
491.95	29411.17
492.13	29277.76
492.30	29645.23
492.48	29766.93
492.66	29661.61
492.84	30012.69
493.01	30244.40
493.19	30377.81
493.37	30733.57
493.54	31075.29
493.72	30955.93
493.90	31332.75
494.08	31417.01
494.25	31709.58
494.43	31702.56
494.61	32079.38
494.79	32198.75
494.96	31915.54
495.14	32357.91
495.32	32645.79
495.49	32678.56
495.67	33118.58
495.85	33041.34
496.02	33371.36
496.20	33755.21
496.38	34022.03
496.55	33823.08
496.73	34349.70
496.91	34471.41
497.09	34326.30
497.26	34562.69
497.44	34623.54
497.62	34993.35
497.79	35428.69
497.97	35201.66
498.14	35854.67
498.32	36037.23
498.50	35927.22
498.67	36182.34
498.85	36072.34
499.03	36788.54
499.20	36458.52
499.38	36659.81
499.56	36645.77
499.73	36755.77
499.91	37151.32
500.08	36973.44
500.26	36711.30
500.44	37474.32
500.61	37579.64
500.79	37223.88
500.97	37965.83
501.14	38272.44
501.32	38539.26
501.49	37933.06
501.67	38312.23
501.84	38644.59
502.02	38539.26
502.20	38382.45
502.37	38976.94
502.55	38960.56
502.72	38857.57
502.90	39082.27
503.07	39014.39
503.25	39187.59
503.43	39370.15
503.60	39849.96
503.78	39936.56
503.95	39887.41
504.13	40116.78
504.30	40715.96
504.48	40491.27
504.65	40507.65
504.83	40318.07
505.01	41184.07
505.18	40568.51
505.36	40832.99
505.53	41230.88
505.71	41031.93
505.88	41137.26
506.06	41326.84
506.23	41661.54
506.41	41640.47
506.58	41706.01
506.76	41942.40
506.93	42256.03
507.11	42300.50
507.28	42288.80
507.46	42195.18
507.63	42244.33
507.81	42572.00
507.98	42532.22
508.16	42646.90
508.33	43271.82
508.50	43297.57
508.68	43391.19
508.85	43297.57
509.03	43391.19
509.20	43791.42
509.38	43791.42
509.55	44245.49
509.73	44268.89
509.90	44154.21
510.08	44243.15
510.25	44306.34
510.42	44304.00
510.60	44683.17
510.77	44861.05
510.95	44727.64
511.12	44729.98
511.30	44751.04
511.47	45045.95
511.64	45139.57
511.82	45773.86
511.99	45649.81
512.17	45879.18
512.34	45610.02
512.51	45879.18
512.69	45853.44
512.86	46101.53
513.04	46443.25
513.21	46218.56
513.38	46497.08
513.56	46382.40
513.73	46213.88
513.90	46611.77
514.08	46557.94
514.25	46974.55
514.43	47019.02
514.60	47042.43
514.77	47107.96
514.95	47370.10
515.12	47227.33
515.29	47430.96
515.47	47105.62
515.64	47585.43
515.81	47402.87
515.99	47742.25
516.16	48259.51
516.33	47735.23
516.51	48350.79
516.68	48301.64
516.85	48130.78
517.03	49015.50
517.20	48793.15
517.37	48664.42
517.54	48275.89
517.72	48615.27
517.89	48928.90
518.06	48608.25
518.24	48790.81
518.41	48924.22
518.58	48985.07
518.75	49074.01
518.93	49059.97
519.10	48945.28
519.27	49666.17
519.45	49331.47
519.62	49694.25
519.79	49621.70
519.96	49677.87
520.14	49633.40
520.31	49769.15
520.48	49881.50
520.65	49705.96
520.83	50211.51
521.00	50829.41
521.17	50216.19
521.34	50710.05
521.52	50543.87
521.69	50684.30
521.86	50852.82
522.03	50696.00
522.20	51030.70
522.38	51152.41
522.55	51044.74
522.72	51260.07
522.89	50997.93
523.07	51611.15
523.24	51100.92
523.41	51346.67
523.58	51231.99
523.75	51625.20
523.92	51304.54
524.10	52072.24
524.27	51655.62
524.44	51910.74
524.61	51814.78
524.78	51842.87
524.96	51889.68
525.13	52020.75
525.30	52011.38
525.47	52030.11
525.64	51786.69
525.81	52715.89
525.98	52512.26
526.16	52100.32
526.33	52411.62
526.50	52781.42
526.67	52505.24
526.84	52722.91
527.01	52486.51
527.18	52589.50
527.36	52622.26
527.53	52687.80
527.70	53092.71
527.87	53055.26
528.04	52982.71
528.21	53099.73
528.38	53160.59
528.55	53324.43
528.72	53085.69
528.89	53284.64
529.07	53268.25
529.24	53139.52
529.41	53677.85
529.58	53558.48
529.75	53034.20
529.92	53607.63
530.09	53495.28
530.26	53368.90
530.43	53647.42
530.60	53432.09
530.77	53514.01
530.94	53860.41
531.11	53811.26
531.28	54089.78
531.46	54017.22
531.63	54300.43
531.80	54087.44
531.97	54117.87
532.14	54230.21
532.31	54234.89
532.48	54272.34
532.65	54372.99
532.82	54251.28
532.99	54426.82
533.16	54482.99
533.33	54475.97
533.50	54635.13
533.67	54780.24
533.84	54597.68
534.01	54894.92
534.18	54885.56
534.35	54958.12
534.52	54504.06
534.69	54953.44
534.86	54719.38
535.03	54915.99
535.20	54997.91
535.37	55070.46
535.54	55018.97
535.71	54993.23
535.88	55068.12
536.05	55318.56
536.22	55217.92
536.38	55253.03
536.55	55173.45
536.72	55091.53
536.89	55185.15
537.06	55264.73
537.23	55707.09
537.40	55231.96
537.57	55264.73
537.74	55456.65
537.91	55789.01
538.08	55501.12
538.25	55627.51
538.42	55826.46
538.59	55985.61
538.75	55840.50
538.92	55777.31
539.09	56104.98
539.26	55922.42
539.43	55557.30
539.60	55742.20
539.77	56039.45
539.94	56472.45
540.11	56079.24
540.28	56060.51
540.44	56313.29
540.61	56058.17
540.78	56147.11
540.95	56308.61
541.12	56287.54
541.29	56278.18
541.46	56079.24
541.62	56233.71
541.79	56397.55
541.96	56016.04
542.13	56460.74
542.30	56568.41
542.47	56530.96
542.63	56521.60
542.80	56657.35
542.97	56877.36
543.14	57027.15
543.31	57024.81
543.48	57015.45
543.64	57078.64
543.81	57205.03
543.98	57158.22
544.15	57013.11
544.32	57111.41
544.48	57301.00
544.65	57123.11
544.82	57247.16
544.99	57020.13
545.16	57558.45
545.32	57092.69
545.49	57457.81
545.66	57656.76
545.83	57427.38
546.00	57537.39
546.16	57481.22
546.33	57329.08
546.50	57441.43
546.67	57483.56
546.83	57134.82
547.00	57537.39
547.17	57446.11
547.34	57733.99
547.50	57619.31
547.67	57982.09
547.84	57797.19
548.00	57958.69
548.17	57794.85
548.34	58026.56
548.51	58127.20
548.67	58003.16
548.84	57930.60
549.01	57811.23
549.18	58014.86
549.34	58045.29
549.51	58082.73
549.68	58141.25
549.84	58042.95
550.01	58312.11
550.18	58138.91
550.34	58344.87
550.51	58206.78
550.68	58211.46
550.84	58138.91
551.01	58333.17
551.18	58202.10
551.34	58007.84
551.51	58085.07
551.68	58269.98
551.84	58391.68
552.01	58342.53
552.18	58379.98
552.34	58417.43
552.51	58534.46
552.68	58335.51
552.84	58321.47
553.01	58766.17
553.18	58429.13
553.34	58780.21
553.51	58646.80
553.67	58497.01
553.84	58485.31
554.01	58482.97
554.17	58754.47
554.34	58986.18
554.51	58731.06
554.67	58614.04
554.84	58644.46
555.00	58925.33
555.17	58829.37
555.33	58721.70
555.50	58812.98
555.67	58944.05
555.83	58614.04
556.00	58822.34
556.16	58972.14
556.33	59215.55
556.50	58808.30
556.66	59011.93
556.83	59002.56
556.99	59042.35
557.16	59299.81
557.32	59519.82
557.49	59236.62
557.65	59175.76
557.82	59138.32
557.98	59117.25
558.15	59147.68
558.32	59131.29
558.48	59016.61
558.65	59238.96
558.81	59121.93
558.98	59208.53
559.14	59320.88
559.31	59730.47
559.47	59526.84
559.64	59470.67
559.80	59524.50
559.97	59632.17
560.13	59463.65
560.30	59613.44
560.46	59559.61
560.63	59618.13
560.79	59430.88
560.96	59678.98
561.12	59601.74
561.29	59655.57
561.45	59583.02
561.61	59744.51
561.78	59746.86
561.94	59618.13
562.11	59660.26
562.27	59751.54
562.44	59847.50
562.60	59821.75
562.77	59650.89
562.93	59538.55
563.10	59517.48
563.26	59763.24
563.42	60032.40
563.59	59774.94
563.75	59774.94
563.92	59812.39
564.08	59711.75
564.24	59936.44
564.41	59992.61
564.57	60081.55
564.74	60097.94
564.90	59955.16
565.07	59805.37
565.23	59840.48
565.39	60020.70
565.56	60205.60
565.72	59920.05
565.88	59796.01
566.05	59863.88
566.21	59964.52
566.38	60058.15
566.54	59985.59
566.70	60048.78
566.87	60032.40
567.03	59987.93
567.19	60079.21
567.36	60212.62
567.52	59859.20
567.68	60390.50
567.85	60130.70
568.01	60334.33
568.17	60020.70
568.34	60193.90
568.50	60179.85
568.66	60261.77
568.83	60322.63
568.99	59971.55
569.15	60135.38
569.32	60210.28
569.48	60189.22
569.64	60444.33
569.81	60205.60
569.97	60121.34
570.13	60418.59
570.30	60156.45
570.46	60336.67
570.62	60226.66
570.78	60390.50
570.95	60229.01
571.11	60364.76
571.27	60479.44
571.43	60327.31
571.60	60388.16
571.76	60369.44
571.92	60292.20
572.09	60210.28
572.25	60399.86
572.41	60287.52
572.57	60327.31
572.74	60690.09
572.90	60348.37
573.06	60463.06
573.22	60399.86
573.38	60465.40
573.55	60535.62
573.71	60598.81
573.87	60561.36
574.03	60151.77
574.20	60467.74
574.36	60498.17
574.52	60544.98
574.68	60736.90
574.84	60640.94
575.01	60432.63
575.17	60437.31
575.33	60420.93
575.49	60460.72
575.65	60542.64
575.82	60718.18
575.98	60748.60
576.14	60669.03
576.30	60757.97
576.46	60690.09
576.62	60622.22
576.79	60561.36
576.95	60416.25
577.11	60673.71
577.27	60519.23
577.43	60451.36
577.59	60591.79
577.75	60341.35
577.92	60516.89
578.08	60591.79
578.24	60755.63
578.40	60746.26
578.56	60769.67
578.72	60701.79
578.88	60776.69
579.04	60643.28
579.21	60736.90
579.37	60762.65
579.53	60694.77
579.69	60638.60
579.85	60357.74
580.01	60549.66
580.17	60533.28
580.33	60657.32
580.49	60755.63
580.65	60498.17
580.82	60846.91
580.98	60512.21
581.14	60666.69
581.30	60757.97
581.46	60568.38
581.62	60650.30
581.78	60643.28
581.94	60741.58
582.10	60757.97
582.26	60683.07
582.42	60741.58
582.58	60666.69
582.74	60458.38
582.90	60776.69
583.06	60654.98
583.22	60573.06
583.38	60718.18
583.54	60669.03
583.70	60664.35
583.86	60647.96
584.02	60769.67
584.18	60666.69
584.34	60755.63
584.50	60818.82
584.66	60516.89
584.82	60552.00
584.98	60985.00
585.14	60882.02
585.30	60963.93
585.46	60802.44
585.62	60877.33
585.78	60877.33
585.94	60650.30
586.10	60907.76
586.26	60949.89
586.42	60853.93
586.58	60790.73
586.74	60846.91
586.90	60926.49
587.06	60877.33
587.22	60996.70
587.38	60739.24
587.54	60919.46
587.70	61048.19
587.86	60865.63
588.02	60844.57
588.18	60945.21
588.34	60781.37
588.49	60835.20
