SpectraSuite Data File
++++++++++++++++++++++++++++++++++++
Date: Fri Oct 25 10:46:55 EDT 2013
User: price-jones
Dark Spectrum Present: No
Reference Spectrum Present: No
Number of Sampled Component Spectra: 1
Spectrometers: USB2+H05261
Integration Time (usec): 100000 (USB2+H05261)
Spectra Averaged: 1 (USB2+H05261)
Boxcar Smoothing: 0 (USB2+H05261)
Correct for Electrical Dark: No (USB2+H05261)
Strobe/Lamp Enabled: No (USB2+H05261)
Correct for Detector Non-linearity: No (USB2+H05261)
Correct for Stray Light: No (USB2+H05261)
Number of Pixels in Processed Spectrum: 2048
>>>>>Begin Processed Spectral Data<<<<<
365.73	131.07
365.92	131.07
366.12	131.07
366.32	18.72
366.52	4.68
366.72	42.13
366.91	107.66
367.11	25.75
367.31	49.15
367.51	9.36
367.70	46.81
367.90	21.06
368.10	53.83
368.30	9.36
368.49	74.90
368.69	107.66
368.89	44.47
369.09	74.90
369.28	46.81
369.48	114.69
369.68	4.68
369.87	112.35
370.07	102.98
370.27	142.77
370.47	208.31
370.66	458.74
370.86	449.38
371.06	425.98
371.25	575.77
371.45	550.03
371.65	428.32
371.84	524.28
372.04	496.19
372.24	585.13
372.44	587.47
372.63	505.56
372.83	493.85
373.03	573.43
373.22	547.69
373.42	535.98
373.62	559.39
373.81	517.26
374.01	526.62
374.21	585.13
374.40	643.65
374.60	566.41
374.79	594.50
374.99	575.77
375.19	592.16
375.38	564.07
375.58	566.41
375.78	578.11
375.97	582.79
376.17	753.65
376.37	674.07
376.56	657.69
376.76	631.94
376.95	573.43
377.15	622.58
377.35	716.20
377.54	681.10
377.74	648.33
377.93	730.25
378.13	636.63
378.33	678.76
378.52	699.82
378.72	655.35
378.91	709.18
379.11	678.76
379.31	702.16
379.50	683.44
379.70	662.37
379.89	676.41
380.09	709.18
380.28	669.39
380.48	676.41
380.68	645.99
380.87	692.80
381.07	716.20
381.26	777.06
381.46	631.94
381.65	674.07
381.85	667.05
382.04	730.25
382.24	763.01
382.43	725.57
382.63	755.99
382.83	779.40
383.02	751.31
383.22	772.38
383.41	802.80
383.61	758.33
383.80	774.72
384.00	765.36
384.19	819.19
384.39	833.23
384.58	755.99
384.78	856.64
384.97	786.42
385.17	772.38
385.36	821.53
385.56	854.30
385.75	800.46
385.95	755.99
386.14	844.93
386.34	837.91
386.53	844.93
386.72	894.08
386.92	847.27
387.11	774.72
387.31	894.08
387.50	812.17
387.70	919.83
387.89	896.43
388.09	868.34
388.28	870.68
388.48	908.13
388.67	954.94
388.86	1048.56
389.06	837.91
389.25	840.25
389.45	933.87
389.64	875.36
389.84	1053.24
390.03	1050.90
390.22	994.73
390.42	1050.90
390.61	1060.26
390.81	1006.43
391.00	1048.56
391.19	1064.94
391.39	1076.65
391.58	1097.71
391.78	1027.50
391.97	1151.54
392.16	1032.18
392.36	1008.77
392.55	1020.47
392.75	1015.79
392.94	1057.92
393.13	1041.54
393.33	1114.10
393.52	1102.39
393.71	1109.41
393.91	1137.50
394.10	1142.18
394.29	1149.20
394.49	1184.31
394.68	1165.59
394.88	1149.20
395.07	1296.66
395.26	1184.31
395.46	1107.07
395.65	1224.10
395.84	1196.01
396.04	1324.74
396.23	1151.54
396.42	1142.18
396.62	1291.98
396.81	1184.31
397.00	1245.16
397.19	1299.00
397.39	1331.76
397.58	1369.21
397.77	1350.49
397.97	1357.51
398.16	1387.94
398.35	1441.77
398.55	1427.73
398.74	1467.52
398.93	1500.28
399.12	1448.79
399.32	1472.20
399.51	1521.35
399.70	1579.86
399.90	1521.35
400.09	1530.71
400.28	1675.82
400.47	1612.63
400.67	1624.33
400.86	1619.65
401.05	1699.23
401.24	1701.57
401.44	1703.91
401.63	1682.85
401.82	1706.25
402.01	1652.42
402.21	1699.23
402.40	1809.23
402.59	1774.13
402.78	1750.72
402.97	1757.74
403.17	1696.89
403.36	1856.04
403.55	1802.21
403.74	1921.58
403.93	1834.98
404.13	1858.39
404.32	1799.87
404.51	1834.98
404.70	1933.28
404.89	1799.87
405.09	2047.97
405.28	1977.75
405.47	1977.75
405.66	1893.49
405.85	1987.11
406.05	2017.54
406.24	1996.48
406.43	1952.01
406.62	1994.14
406.81	2113.50
407.00	2106.48
407.20	2008.18
407.39	2108.82
407.58	2132.23
407.77	2097.12
407.96	2246.91
408.15	2235.21
408.34	2237.55
408.54	2272.66
408.73	2298.41
408.92	2277.34
409.11	2291.38
409.30	2258.62
409.49	2242.23
409.68	2260.96
409.87	2186.06
410.07	2298.41
410.26	2258.62
410.45	2450.54
410.64	2335.85
410.83	2455.22
411.02	2408.41
411.21	2628.42
411.40	2523.10
411.59	2565.23
411.78	2656.51
411.98	2518.42
412.17	2668.21
412.36	2605.02
412.55	2719.70
412.74	2799.28
412.93	2747.79
413.12	2572.25
413.31	2759.49
413.50	2782.90
413.69	2792.26
413.88	2815.66
414.07	2853.11
414.26	2888.22
414.45	2965.46
414.64	2916.31
414.83	2981.84
415.02	2839.07
415.22	3035.67
415.41	3131.64
415.60	3129.30
415.79	3204.19
415.98	3213.56
416.17	3164.40
416.36	3155.04
416.55	3218.24
416.74	3323.56
416.93	3148.02
417.12	3192.49
417.31	3323.56
417.50	3166.74
417.69	3510.80
417.88	3456.97
418.07	3295.47
418.26	3468.67
418.45	3323.56
418.64	3545.91
418.83	3515.48
419.02	3496.76
419.21	3653.58
419.39	3482.72
419.58	3646.55
419.77	3440.59
419.96	3559.95
420.15	3658.26
420.34	3627.83
420.53	3730.81
420.72	3616.13
420.91	3777.62
421.10	3819.75
421.29	3775.28
421.48	3728.47
421.67	3908.69
421.86	3808.05
422.05	3831.46
422.24	3777.62
422.43	3660.60
422.61	3824.44
422.80	3922.74
422.99	3742.52
423.18	3934.44
423.37	3765.92
423.56	3836.14
423.75	3981.25
423.94	3913.38
424.13	3569.32
424.32	3742.52
424.50	3962.53
424.69	3988.27
424.88	4107.64
425.07	3889.97
425.26	3740.18
425.45	3948.48
425.64	3875.93
425.83	3983.59
426.01	4060.83
426.20	3960.19
426.39	4159.13
426.58	3983.59
426.77	3934.44
426.96	3896.99
427.15	3990.61
427.33	4063.17
427.52	3941.46
427.71	4077.21
427.90	4056.15
428.09	4081.89
428.28	4072.53
428.46	4077.21
428.65	4196.58
428.84	4250.41
429.03	4416.59
429.22	4135.73
429.40	4133.39
429.59	4159.13
429.78	3838.48
429.97	3904.01
430.16	4002.32
430.34	4187.22
430.53	4250.41
430.72	4189.56
430.91	4128.70
431.10	4231.69
431.28	4397.87
431.47	4638.94
431.66	4683.41
431.85	4386.16
432.03	4550.00
432.22	4582.77
432.41	4524.26
432.60	4554.68
432.79	4741.93
432.97	4753.63
433.16	4777.03
433.35	4664.69
433.54	4484.47
433.72	4578.09
433.91	4800.44
434.10	4786.40
434.28	4791.08
434.47	4737.24
434.66	4894.06
434.85	4994.70
435.03	4964.28
435.22	4837.89
435.41	4917.47
435.59	4983.00
435.78	4954.91
435.97	5029.81
436.16	5071.94
436.34	5104.71
436.53	5198.33
436.72	5177.26
436.90	5018.11
437.09	5301.31
437.28	5128.11
437.46	5165.56
437.65	5167.90
437.84	5111.73
438.02	5125.77
438.21	5179.61
438.40	5132.79
438.58	5128.11
438.77	5509.62
438.96	5528.35
439.14	5600.90
439.33	5554.09
439.52	5645.37
439.70	5565.79
439.89	5621.97
440.08	5540.05
440.26	5621.97
440.45	5746.02
440.63	5771.76
440.82	5935.60
441.01	5973.05
441.19	5977.73
441.38	6047.94
441.57	6298.38
441.75	6209.44
441.94	6207.10
442.12	6218.80
442.31	6125.18
442.50	6272.64
442.68	6181.35
442.87	6319.45
443.05	6331.15
443.24	6644.78
443.43	6338.17
443.61	6406.05
443.80	6569.88
443.98	6480.94
444.17	6036.24
444.35	6286.68
444.54	6621.38
444.73	6511.37
444.91	6434.13
445.10	6539.46
445.28	6384.98
445.47	6431.79
445.65	6326.47
445.84	6562.86
446.02	6665.85
446.21	6581.59
446.39	6310.08
446.58	6600.31
446.77	6780.53
446.95	6544.14
447.14	6696.27
447.32	6707.98
447.51	6555.84
447.69	6434.13
447.88	6595.63
448.06	6635.42
448.25	6525.41
448.43	6476.26
448.62	6654.14
448.80	6736.06
448.99	6628.40
449.17	6740.74
449.36	6661.16
449.54	6817.98
449.73	6977.14
449.91	6808.62
450.10	6925.65
450.28	7260.34
450.46	7166.72
450.65	7063.74
450.83	6960.75
451.02	6974.80
451.20	7190.13
451.39	7084.80
451.57	7157.36
451.76	7096.50
451.94	7126.93
452.13	7208.85
452.31	7162.04
452.49	7061.40
452.68	7133.95
452.86	7194.81
453.05	7197.15
453.23	7302.47
453.42	7335.24
453.60	7286.09
453.78	7499.08
453.97	7190.13
454.15	7358.64
454.34	7187.79
454.52	7440.56
454.70	7620.78
454.89	7616.10
455.07	7625.47
455.26	7698.02
455.44	7709.72
455.62	7585.68
455.81	7791.64
455.99	7592.70
456.17	7929.74
456.36	7676.96
456.54	7733.13
456.73	7990.59
456.91	7967.18
457.09	8152.09
457.28	8259.75
457.46	8152.09
457.64	8177.83
457.83	7953.14
458.01	7845.48
458.19	8238.69
458.38	7990.59
458.56	8198.90
458.74	8226.98
458.93	7943.78
459.11	8299.54
459.29	8264.43
459.48	8257.41
459.66	8126.34
459.84	8299.54
460.03	8383.80
460.21	8557.00
460.39	8231.66
460.57	8500.83
460.76	8332.31
460.94	8547.64
461.12	8468.06
461.31	8557.00
461.49	8538.27
461.67	8573.38
461.85	8842.54
462.04	8652.96
462.22	9378.53
462.40	8917.44
462.59	8781.69
462.77	8840.20
462.95	8875.31
463.13	8762.97
463.32	8915.10
463.50	8837.86
463.68	8943.19
463.86	9107.02
464.05	8842.54
464.23	8912.76
464.41	8924.46
464.59	8678.71
464.78	9224.05
464.96	9027.45
465.14	9027.45
465.32	9139.79
465.50	9317.67
465.69	9263.84
465.87	9202.99
466.05	9050.85
466.23	9139.79
466.41	9092.98
466.60	9238.09
466.78	9242.78
466.96	9088.30
467.14	9221.71
467.32	9210.01
467.51	9465.13
467.69	9128.09
467.87	9191.28
468.05	9533.00
468.23	9404.27
468.41	9392.57
468.60	9392.57
468.78	9584.49
468.96	9270.86
469.14	9785.78
469.32	9514.28
469.50	9210.01
469.69	9612.58
469.87	9811.53
470.05	9689.82
470.23	9654.71
470.41	9717.90
470.59	9839.61
470.77	9771.74
470.95	9994.09
471.14	10040.90
471.32	9706.20
471.50	10146.22
471.68	10335.81
471.86	10321.76
472.04	10389.64
472.22	10244.52
472.40	10291.34
472.58	10300.70
472.77	10230.48
472.95	10480.92
473.13	10773.49
473.31	10459.85
473.49	10452.83
473.67	10553.48
473.85	10565.18
474.03	10824.98
474.21	10972.43
474.39	11122.23
474.57	11061.37
474.75	11066.05
474.93	11042.65
475.12	11183.08
475.30	10967.75
475.48	11110.52
475.66	11185.42
475.84	11295.43
476.02	11288.40
476.20	11391.39
476.38	11644.17
476.56	11709.70
476.74	11676.93
476.92	11604.38
477.10	11648.85
477.28	12161.42
477.46	12013.97
477.64	12131.00
477.82	12224.62
478.00	12386.12
478.18	12531.23
478.36	12554.63
478.54	12451.65
478.72	12629.53
478.90	12664.64
479.08	13004.02
479.26	12868.27
479.44	13200.62
479.62	13099.98
479.80	13247.43
479.98	13029.76
480.16	13668.73
480.34	13483.83
480.52	13579.79
480.70	13895.76
480.88	13518.93
481.06	13722.56
481.24	13745.97
481.41	13809.16
481.59	14174.28
481.77	14415.36
481.95	14263.22
482.13	14459.83
482.31	14626.01
482.49	14810.91
482.67	14644.73
482.85	14897.51
483.03	15070.71
483.21	15220.50
483.39	15307.10
483.57	15227.53
483.74	15059.01
483.92	15634.78
484.10	15262.63
484.28	15812.66
484.46	15810.32
484.64	16449.28
484.82	15927.35
485.00	16107.57
485.18	16109.91
485.35	16348.64
485.53	16100.55
485.71	16442.26
485.89	16418.86
486.07	16369.71
486.25	16460.99
486.43	17109.32
486.61	17099.95
486.78	17172.51
486.96	17387.84
487.14	17518.91
487.32	17666.36
487.50	17884.03
487.68	17926.16
487.85	18335.76
488.03	18298.31
488.21	18270.22
488.39	18546.40
488.57	18658.75
488.75	18775.78
488.92	18714.92
489.10	19255.59
489.28	19206.44
489.46	19398.36
489.64	19716.67
489.81	20243.29
489.99	19798.59
490.17	19927.32
490.35	20348.62
490.53	20292.44
490.70	20482.03
490.88	20210.53
491.06	21135.04
491.24	20844.81
491.41	20467.98
491.59	20622.46
491.77	20809.70
491.95	21266.11
492.13	21565.70
492.30	21043.76
492.48	21703.79
492.66	21792.73
492.84	21638.25
493.01	21778.68
493.19	21935.50
493.37	22169.55
493.54	22324.03
493.72	22434.03
493.90	22424.67
494.08	22881.08
494.25	23094.07
494.43	23044.91
494.61	23260.24
494.79	23164.28
494.96	23611.32
495.14	23250.88
495.32	23302.37
495.49	23587.92
495.67	23536.43
495.85	23971.77
496.02	24098.16
496.20	23974.11
496.38	24437.53
496.55	24325.19
496.73	24505.41
496.91	24507.75
497.09	24526.47
497.26	25106.93
497.44	25242.68
497.62	25343.32
497.79	25291.83
497.97	25226.29
498.14	25249.70
498.32	25654.61
498.50	25521.20
498.67	25860.58
498.85	25778.66
499.03	26005.69
499.20	26066.55
499.38	26324.01
499.56	26347.41
499.73	26448.05
499.91	26604.87
500.08	26614.23
500.26	26387.20
500.44	26712.53
500.61	26742.96
500.79	26548.70
500.97	26836.58
501.14	27494.27
501.32	26944.25
501.49	27173.62
501.67	26984.04
501.84	27571.51
502.02	27365.54
502.20	27810.25
502.37	27501.29
502.55	27924.93
502.72	27716.62
502.90	28283.03
503.07	27878.12
503.25	28081.75
503.43	28032.60
503.60	28343.89
503.78	28283.03
503.95	28177.71
504.13	28439.85
504.30	28837.74
504.48	28407.08
504.65	28790.93
504.83	29060.09
505.01	28978.17
505.18	29156.05
505.36	29626.50
505.53	29369.04
505.71	29689.70
505.88	29816.08
506.06	29418.19
506.23	29486.07
506.41	29340.96
506.58	29797.36
506.76	29844.17
506.93	29778.64
507.11	30103.97
507.28	30103.97
507.46	29813.74
507.63	30026.73
507.81	30338.02
507.98	30368.45
508.16	30270.15
508.33	30555.69
508.50	30848.26
508.68	30904.43
508.85	30831.88
509.03	30759.32
509.20	31012.10
509.38	31328.07
509.55	31395.95
509.73	31147.85
509.90	31580.85
510.08	31379.56
510.25	31398.29
510.42	31651.06
510.60	31630.00
510.77	32116.83
510.95	31667.45
511.12	32140.24
511.30	31714.26
511.47	32217.47
511.64	32617.71
511.82	32503.02
511.99	32051.30
512.17	32283.01
512.34	32067.68
512.51	32318.12
512.69	32545.15
512.86	32488.98
513.04	32870.48
513.21	32638.77
513.38	32730.05
513.56	32898.57
513.73	32734.73
513.90	32884.53
514.08	32861.12
514.25	33097.52
514.43	33600.73
514.60	33216.88
514.77	33167.73
514.95	33813.72
515.12	33319.87
515.29	33401.79
515.47	34068.84
515.64	34038.41
515.81	33820.74
515.99	33638.18
516.16	33823.08
516.33	33500.09
516.51	33926.07
516.68	33621.80
516.85	33439.23
517.03	34017.35
517.20	33907.34
517.37	34293.53
517.54	34242.04
517.72	34249.06
517.89	34129.69
518.06	34068.84
518.24	33905.00
518.41	34520.56
518.58	34642.27
518.75	34494.82
518.93	35234.42
519.10	34745.25
519.27	35140.80
519.45	35297.62
519.62	35250.81
519.79	35557.42
519.96	35674.45
520.14	35571.46
520.31	35262.51
520.48	35615.93
520.65	35578.48
520.83	35756.36
521.00	36009.14
521.17	36112.13
521.34	36343.84
521.52	35941.27
521.69	36423.42
521.86	36051.27
522.03	36512.36
522.20	36346.18
522.38	36594.28
522.55	36402.35
522.72	36339.16
522.89	36400.01
523.07	36863.44
523.24	36580.23
523.41	36652.79
523.58	36297.03
523.75	37415.80
523.92	37457.93
524.10	37221.54
524.27	37502.40
524.44	37041.32
524.61	37450.91
524.78	37603.05
524.96	37523.47
525.13	37912.00
525.30	38188.18
525.47	37474.32
525.64	37659.22
525.81	37818.38
525.98	37387.72
526.16	37841.78
526.33	36987.49
526.50	37752.84
526.67	37766.88
526.84	37663.90
527.01	37479.00
527.18	37755.18
527.36	38003.28
527.53	38270.10
527.70	38426.92
527.87	38602.46
528.04	38328.61
528.21	38609.48
528.38	38590.75
528.55	38576.71
528.72	38602.46
528.89	38787.36
529.07	39166.52
529.24	38403.51
529.41	39112.69
529.58	38618.84
529.75	38806.08
529.92	38981.62
530.09	39000.35
530.26	39414.62
530.43	39840.60
530.60	38920.77
530.77	38990.98
530.94	39856.98
531.11	39475.48
531.28	39576.12
531.46	39878.05
531.63	39590.16
531.80	39651.02
531.97	39288.23
532.14	39555.05
532.31	39215.68
532.48	39379.51
532.65	40271.26
532.82	39681.44
532.99	39943.58
533.16	39566.76
533.33	39828.90
533.50	40074.65
533.67	40425.73
533.84	39723.57
534.01	40032.52
534.18	40048.91
534.35	40488.93
534.52	40130.83
534.69	40385.94
534.86	40261.90
535.03	40229.13
535.20	40615.32
535.37	40999.16
535.54	41031.93
535.71	40950.01
535.88	40722.98
536.05	40514.67
536.22	40917.25
536.38	40746.39
536.55	40517.01
536.72	41200.45
536.89	40601.27
537.06	40912.56
537.23	40938.31
537.40	41170.02
537.57	41001.50
537.74	41385.35
537.91	41881.55
538.08	41324.50
538.25	41130.23
538.42	41048.32
538.59	41593.66
538.75	41270.67
538.92	41244.92
539.09	41521.10
539.26	41373.65
539.43	41621.75
539.60	41535.15
539.77	41322.16
539.94	41565.57
540.11	41490.68
540.28	41305.77
540.44	41570.25
540.61	41790.27
540.78	41837.08
540.95	41940.06
541.12	41680.26
541.29	41750.48
541.46	41963.46
541.62	42309.86
541.79	42405.83
541.96	41792.61
542.13	41710.69
542.30	42047.72
542.47	42094.53
542.63	42295.82
542.80	42150.71
542.97	42518.17
543.14	42892.66
543.31	42679.67
543.48	43037.77
543.64	43318.64
543.81	43154.80
543.98	43051.81
544.15	42689.03
544.32	43131.39
544.48	43100.97
544.65	43297.57
544.82	43225.01
544.99	42841.17
545.16	42934.79
545.32	43201.61
545.49	43178.20
545.66	43611.20
545.83	43208.63
546.00	43634.61
546.16	43267.14
546.33	43143.09
546.50	42885.64
546.67	43650.99
546.83	42932.45
547.00	43391.19
547.17	43398.21
547.34	43540.99
547.50	43571.41
547.67	43962.28
547.84	43360.76
548.00	44067.61
548.17	43849.94
548.34	44121.44
548.51	43906.11
548.67	43803.13
548.84	43950.58
549.01	43761.00
549.18	43805.47
549.34	43840.57
549.51	44100.37
549.68	44023.14
549.84	44364.85
550.01	44395.28
550.18	44069.95
550.34	44301.66
550.51	43695.46
550.68	44133.14
550.84	43828.87
551.01	44112.08
551.18	43847.60
551.34	43952.92
551.51	44697.21
551.68	44170.59
551.84	44650.40
552.01	44278.25
552.18	44435.07
552.34	44013.77
552.51	44718.28
552.68	44376.56
552.84	44708.91
553.01	45354.90
553.18	44383.58
553.34	44786.15
553.51	44481.88
553.67	44334.43
553.84	45139.57
554.01	44797.85
554.17	45050.63
554.34	44907.86
554.51	44563.80
554.67	45064.67
554.84	44528.69
555.00	45340.86
555.17	44765.09
555.33	45088.08
555.50	44814.24
555.67	45193.40
555.83	45373.63
556.00	45205.11
556.16	45251.92
556.33	45172.34
556.50	44903.18
556.66	45031.91
556.83	44882.11
556.99	45595.98
557.16	45605.34
557.32	45242.56
557.49	45237.87
557.65	45017.86
557.82	45287.03
557.98	45628.74
558.15	45352.56
558.32	45549.17
558.48	44935.95
558.65	45294.05
558.81	45165.32
558.98	45240.21
559.14	45331.50
559.31	45382.99
559.47	45216.81
559.64	45797.26
559.80	45698.96
559.97	45743.43
560.13	45415.76
560.30	45483.63
560.46	45734.07
560.63	45776.20
560.79	45827.69
560.96	46138.98
561.12	45713.00
561.29	45818.33
561.45	45471.93
561.61	45258.94
561.78	45387.67
561.94	45219.15
562.11	45720.02
562.27	45420.44
562.44	45991.53
562.60	45944.72
562.77	45900.25
562.93	45656.83
563.10	46263.03
563.26	45546.82
563.42	45904.93
563.59	45778.54
563.75	45911.95
563.92	46003.23
564.08	45855.78
564.24	46021.95
564.41	45518.74
564.57	45848.75
564.74	45832.37
564.90	45937.69
565.07	46188.13
565.23	45820.67
565.39	46050.04
565.56	46094.51
565.72	45635.77
565.88	45996.21
566.05	45911.95
566.21	45684.92
566.38	46277.07
566.54	45872.16
566.70	46068.76
566.87	46646.88
567.03	46412.82
567.19	46674.96
567.36	46241.96
567.52	45830.03
567.68	46302.82
567.85	46410.48
568.01	45846.41
568.17	46031.32
568.34	46155.36
568.50	46019.61
568.66	46117.92
568.83	46234.94
568.99	45670.87
569.15	45928.33
569.32	46012.59
569.48	45748.11
569.64	46497.08
569.81	46529.85
569.97	46485.38
570.13	46356.65
570.30	45918.97
570.46	46230.26
570.62	45663.85
570.78	46028.98
570.95	45787.90
571.11	46202.18
571.27	46260.69
571.43	46279.41
571.60	46260.69
571.76	46220.90
571.92	46358.99
572.09	46010.25
572.25	46223.24
572.41	46157.70
572.57	46181.11
572.74	46574.32
572.90	46469.00
573.06	46321.54
573.22	46256.01
573.38	46171.75
573.55	46007.91
573.71	46586.02
573.87	46604.75
574.03	46108.55
574.20	46351.97
574.36	46122.60
574.52	46426.87
574.68	46461.97
574.84	46244.30
575.01	46499.42
575.17	46188.13
575.33	46246.65
575.49	45872.16
575.65	46646.88
575.82	46656.24
575.98	46199.83
576.14	46911.36
576.30	46426.87
576.46	46251.33
576.62	46197.49
576.79	46361.33
576.95	46340.27
577.11	46473.68
577.27	46190.47
577.43	46326.22
577.59	46155.36
577.75	46373.03
577.92	46003.23
578.08	45888.54
578.24	46017.27
578.40	46543.89
578.56	46284.09
578.72	46490.06
578.88	46684.33
579.04	46756.88
579.21	45918.97
579.37	46424.53
579.53	46972.21
579.69	46447.93
579.85	46763.90
580.01	46529.85
580.17	46586.02
580.33	46562.62
580.49	46368.35
580.65	46267.71
580.82	46422.19
580.98	46494.74
581.14	46410.48
581.30	46635.17
581.46	46667.94
581.62	46380.06
581.78	46593.04
581.94	46756.88
582.10	46326.22
582.26	46738.16
582.42	46728.80
582.58	46382.40
582.74	46244.30
582.90	46670.28
583.06	46696.03
583.22	46579.00
583.38	46866.89
583.54	47206.26
583.70	46663.26
583.86	46735.82
584.02	46513.47
584.18	46639.86
584.34	46408.14
584.50	46478.36
584.66	46494.74
584.82	46403.46
584.98	46955.83
585.14	46644.54
585.30	46265.37
585.46	46649.22
585.62	46080.47
585.78	46506.44
585.94	46319.20
586.10	46024.29
586.26	46380.06
586.42	46742.84
586.58	46761.56
586.74	46934.76
586.90	46363.67
587.06	46239.62
587.22	46852.84
587.38	46108.55
587.54	46845.82
587.70	46670.28
587.86	46679.64
588.02	46384.74
588.18	46906.68
588.34	46513.47
588.49	46071.10
588.65	46169.41
588.81	46244.30
588.97	45961.10
589.13	46199.83
589.29	46366.01
589.45	46377.72
589.61	46384.74
589.77	46796.67
589.93	46677.30
