SpectraSuite Data File
++++++++++++++++++++++++++++++++++++
Date: Fri Oct 25 11:34:17 EDT 2013
User: price-jones
Dark Spectrum Present: No
Reference Spectrum Present: No
Number of Sampled Component Spectra: 1
Spectrometers: USB2+H05261
Integration Time (usec): 100000 (USB2+H05261)
Spectra Averaged: 1 (USB2+H05261)
Boxcar Smoothing: 0 (USB2+H05261)
Correct for Electrical Dark: No (USB2+H05261)
Strobe/Lamp Enabled: No (USB2+H05261)
Correct for Detector Non-linearity: No (USB2+H05261)
Correct for Stray Light: No (USB2+H05261)
Number of Pixels in Processed Spectrum: 2048
>>>>>Begin Processed Spectral Data<<<<<
365.73	313.63
365.92	313.63
366.12	313.63
366.32	187.24
366.52	224.69
366.72	182.56
366.91	189.58
367.11	159.16
367.31	198.95
367.51	168.52
367.70	163.84
367.90	220.01
368.10	170.86
368.30	201.29
368.49	177.88
368.69	227.03
368.89	198.95
369.09	198.95
369.28	217.67
369.48	184.90
369.68	290.23
369.87	337.04
370.07	227.03
370.27	262.14
370.47	374.49
370.66	503.22
370.86	533.64
371.06	519.60
371.25	580.45
371.45	514.92
371.65	552.37
371.84	484.49
372.04	603.86
372.24	627.26
372.44	517.26
372.63	601.52
372.83	575.77
373.03	587.47
373.22	498.53
373.42	608.54
373.62	615.56
373.81	610.88
374.01	650.67
374.21	627.26
374.40	645.99
374.60	638.97
374.79	704.50
374.99	706.84
375.19	606.20
375.38	615.56
375.58	653.01
375.78	737.27
375.97	678.76
376.17	699.82
376.37	615.56
376.56	608.54
376.76	657.69
376.95	603.86
377.15	631.94
377.35	711.52
377.54	629.60
377.74	746.63
377.93	645.99
378.13	688.12
378.33	695.14
378.52	655.35
378.72	690.46
378.91	669.39
379.11	711.52
379.31	702.16
379.50	732.59
379.70	739.61
379.89	734.93
380.09	688.12
380.28	763.01
380.48	702.16
380.68	765.36
380.87	692.80
381.07	730.25
381.26	669.39
381.46	702.16
381.65	835.57
381.85	767.70
382.04	802.80
382.24	772.38
382.43	793.44
382.63	770.04
382.83	814.51
383.02	793.44
383.22	814.51
383.41	734.93
383.61	802.80
383.80	819.19
384.00	767.70
384.19	798.12
384.39	821.53
384.58	760.67
384.78	784.08
384.97	814.51
385.17	767.70
385.36	819.19
385.56	826.21
385.75	760.67
385.95	795.78
386.14	863.66
386.34	828.55
386.53	837.91
386.72	826.21
386.92	903.45
387.11	847.27
387.31	868.34
387.50	830.89
387.70	842.59
387.89	933.87
388.09	884.72
388.28	851.96
388.48	915.15
388.67	844.93
388.86	922.17
389.06	903.45
389.25	950.26
389.45	851.96
389.64	983.02
389.84	926.85
390.03	915.15
390.22	966.64
390.42	884.72
390.61	968.98
390.81	882.38
391.00	1025.15
391.19	950.26
391.39	950.26
391.58	936.21
391.78	992.39
391.97	1018.13
392.16	971.32
392.36	1043.88
392.55	1043.88
392.75	1057.92
392.94	1029.84
393.13	1050.90
393.33	1048.56
393.52	1057.92
393.71	1036.86
393.91	1128.14
394.10	1095.37
394.29	1078.99
394.49	1100.05
394.68	1186.65
394.88	1121.12
395.07	1090.69
395.26	1125.80
395.46	1102.39
395.65	1214.74
395.84	1149.20
396.04	1210.06
396.23	1123.46
396.42	1188.99
396.62	1226.44
396.81	1205.38
397.00	1233.46
397.19	1275.59
397.39	1139.84
397.58	1242.82
397.77	1139.84
397.97	1184.31
398.16	1203.04
398.35	1198.35
398.55	1179.63
398.74	1200.69
398.93	1315.38
399.12	1242.82
399.32	1245.16
399.51	1259.21
399.70	1390.28
399.90	1268.57
400.09	1280.27
400.28	1366.87
400.47	1357.51
400.67	1352.83
400.86	1373.89
401.05	1399.64
401.24	1401.98
401.44	1348.15
401.63	1425.39
401.82	1413.68
402.01	1387.94
402.21	1399.64
402.40	1399.64
402.59	1488.58
402.78	1556.46
402.97	1514.33
403.17	1490.92
403.36	1362.19
403.55	1526.03
403.74	1614.97
403.93	1607.95
404.13	1554.12
404.32	1558.80
404.51	1593.90
404.70	1619.65
404.89	1654.76
405.09	1643.06
405.28	1607.95
405.47	1659.44
405.66	1692.21
405.85	1778.81
406.05	1603.27
406.24	1717.95
406.43	1600.93
406.62	1699.23
406.81	1741.36
407.00	1703.91
407.20	1657.10
407.39	1739.02
407.58	1813.92
407.77	1739.02
407.96	1809.23
408.15	1858.39
408.34	1825.62
408.54	1809.23
408.73	1788.17
408.92	1823.28
409.11	1900.52
409.30	1942.64
409.49	1921.58
409.68	1921.58
409.87	1930.94
410.07	1937.96
410.26	2087.76
410.45	1907.54
410.64	1928.60
410.83	2026.90
411.02	2183.72
411.21	2169.68
411.40	2017.54
411.59	2106.48
411.78	2186.06
411.98	2120.53
412.17	2223.51
412.36	2120.53
412.55	2298.41
412.74	2347.56
412.93	2246.91
413.12	2251.60
413.31	2420.11
413.50	2246.91
413.69	2317.13
413.88	2462.24
414.07	2333.51
414.26	2375.64
414.45	2385.01
414.64	2534.80
414.83	2534.80
415.02	2495.01
415.22	2525.44
415.41	2602.68
415.60	2525.44
415.79	2583.95
415.98	2665.87
416.17	2689.28
416.36	2745.45
416.55	2750.13
416.74	2775.88
416.93	2808.64
417.12	2839.07
417.31	2853.11
417.50	2801.62
417.69	2839.07
417.88	2848.43
418.07	2757.15
418.26	2916.31
418.45	2782.90
418.64	2888.22
418.83	2794.60
419.02	2789.92
419.21	2935.03
419.39	2892.90
419.58	2958.44
419.77	2972.48
419.96	3012.27
420.15	3155.04
420.34	3068.44
420.53	3077.80
420.72	3171.43
420.91	3084.83
421.10	3042.70
421.29	3304.84
421.48	3213.56
421.67	3141.00
421.86	3199.51
422.05	3166.74
422.24	3260.37
422.43	3248.66
422.61	3328.24
422.80	3164.40
422.99	3419.52
423.18	3307.18
423.37	3311.86
423.56	3389.10
423.75	3215.90
423.94	3197.17
424.13	3129.30
424.32	3241.64
424.50	3323.56
424.69	3379.73
424.88	3335.26
425.07	3370.37
425.26	3272.07
425.45	3267.39
425.64	3337.60
425.83	3243.98
426.01	3405.48
426.20	3344.63
426.39	3328.24
426.58	3407.82
426.77	3328.24
426.96	3438.25
427.15	3438.25
427.33	3487.40
427.52	3353.99
427.71	3452.29
427.90	3456.97
428.09	3543.57
428.28	3592.72
428.46	3562.30
428.65	3482.72
428.84	3676.98
429.03	3702.73
429.22	3686.34
429.40	3686.34
429.59	3543.57
429.78	3501.44
429.97	3571.66
430.16	3566.98
430.34	3740.18
430.53	3695.71
430.72	3796.35
430.91	3684.00
431.10	3648.90
431.28	3953.16
431.47	3882.95
431.66	3857.20
431.85	3768.26
432.03	3953.16
432.22	3922.74
432.41	3925.08
432.60	4042.11
432.79	3913.38
432.97	3964.87
433.16	3920.40
433.35	4032.74
433.54	3997.64
433.72	4159.13
433.91	3995.29
434.10	4149.77
434.28	4114.66
434.47	4149.77
434.66	4189.56
434.85	4210.62
435.03	4315.95
435.22	4121.68
435.41	4191.90
435.59	4264.46
435.78	4257.43
435.97	4290.20
436.16	4259.78
436.34	4337.01
436.53	4351.06
436.72	4374.46
436.90	4257.43
437.09	4257.43
437.28	4329.99
437.46	4322.97
437.65	4428.29
437.84	4372.12
438.02	4528.94
438.21	4482.13
438.40	4351.06
438.58	4519.57
438.77	4655.33
438.96	4641.28
439.14	4744.27
439.33	4760.65
439.52	4751.29
439.70	4873.00
439.89	4880.02
440.08	4816.82
440.26	4973.64
440.45	4997.04
440.63	5001.72
440.82	5132.79
441.01	4875.34
441.19	4997.04
441.38	4983.00
441.57	5097.69
441.75	5046.20
441.94	5137.48
442.12	5130.45
442.31	5207.69
442.50	5235.78
442.68	5142.16
442.87	5317.70
443.05	5455.79
443.24	5455.79
443.43	5301.31
443.61	5425.36
443.80	5528.35
443.98	5366.85
444.17	5060.24
444.35	5327.06
444.54	5493.24
444.73	5528.35
444.91	5327.06
445.10	5502.60
445.28	5413.66
445.47	5331.74
445.65	5392.59
445.84	5420.68
446.02	5401.96
446.21	5493.24
446.39	5521.32
446.58	5621.97
446.77	5645.37
446.95	5448.77
447.14	5528.35
447.32	5626.65
447.51	5575.16
447.69	5626.65
447.88	5504.94
448.06	5647.71
448.25	5556.43
448.43	5706.23
448.62	5570.48
448.80	5500.26
448.99	5617.29
449.17	5778.78
449.36	5685.16
449.54	5783.46
449.73	5893.47
449.91	5839.64
450.10	5760.06
450.28	5891.13
450.46	5863.04
450.65	5951.98
450.83	5853.68
451.02	5921.56
451.20	5902.83
451.39	6153.27
451.57	6029.22
451.76	6059.65
451.94	6010.50
452.13	6209.44
452.31	6115.82
452.49	5912.19
452.68	6073.69
452.86	6024.54
453.05	6197.74
453.23	6015.18
453.42	6087.73
453.60	6179.01
453.78	6209.44
453.97	6106.46
454.15	6272.64
454.34	6003.47
454.52	6317.11
454.70	6291.36
454.89	6434.13
455.07	6387.32
455.26	6466.90
455.44	6539.46
455.62	6487.96
455.81	6455.20
455.99	6619.04
456.17	6644.78
456.36	6539.46
456.54	6612.01
456.73	6623.72
456.91	6693.93
457.09	6981.82
457.28	6792.23
457.46	6782.87
457.64	6836.70
457.83	6953.73
458.01	6787.55
458.19	7012.24
458.38	6862.45
458.56	7012.24
458.74	6911.60
458.93	6953.73
459.11	6817.98
459.29	7040.33
459.48	7101.19
459.66	7030.97
459.84	6967.77
460.03	7260.34
460.21	7140.97
460.39	7335.24
460.57	7155.02
460.76	7353.96
460.94	7342.26
461.12	7384.39
461.31	7316.51
461.49	7332.90
461.67	7250.98
461.85	7391.41
462.04	7370.35
462.22	7737.81
462.40	7372.69
462.59	7396.09
462.77	7573.97
462.95	7489.71
463.13	7342.26
463.32	7585.68
463.50	7585.68
463.68	7590.36
463.86	7742.49
464.05	7566.95
464.23	7714.41
464.41	7590.36
464.59	7714.41
464.78	7885.26
464.96	7793.98
465.14	7754.19
465.32	7920.37
465.50	7906.33
465.69	7929.74
465.87	7903.99
466.05	7817.39
466.23	7976.55
466.41	7960.16
466.60	8163.79
466.78	7770.58
466.96	8032.72
467.14	7967.18
467.32	8018.68
467.51	8196.56
467.69	8053.78
467.87	8011.65
468.05	8124.00
468.23	8044.42
468.41	7866.54
468.60	8095.91
468.78	8191.88
468.96	8191.88
469.14	8360.39
469.32	8308.90
469.50	8112.30
469.69	8315.92
469.87	8449.33
470.05	8306.56
470.23	8383.80
470.41	8353.37
470.59	8549.98
470.77	8549.98
470.95	8606.15
471.14	8849.57
471.32	8585.08
471.50	8936.17
471.68	8585.08
471.86	8847.22
472.04	8762.97
472.22	8898.72
472.40	8692.75
472.58	8940.85
472.77	8830.84
472.95	9156.18
473.13	9430.02
473.31	9081.28
473.49	9200.65
473.67	8931.48
473.85	9160.86
474.03	9425.34
474.21	9263.84
474.39	9535.34
474.57	9420.66
474.75	9493.21
474.93	9626.62
475.12	9668.75
475.30	9745.99
475.48	9570.45
475.66	9591.52
475.84	9753.01
476.02	9891.10
476.20	9874.72
476.38	10076.01
476.56	10211.76
476.74	10216.44
476.92	10190.69
477.10	10094.73
477.28	10375.59
477.46	10319.42
477.64	10544.11
477.82	10647.10
478.00	10682.20
478.18	10874.13
478.36	10906.90
478.54	10956.05
478.72	11047.33
478.90	11229.89
479.08	11365.64
479.26	11176.06
479.44	11265.00
479.62	11290.74
479.80	11421.81
479.98	11363.30
480.16	12065.46
480.34	11810.34
480.52	11819.71
480.70	11779.92
480.88	11740.13
481.06	11852.47
481.24	11992.90
481.41	12131.00
481.59	12425.90
481.77	12388.46
481.95	12248.02
482.13	12840.18
482.31	12564.00
482.49	12849.54
482.67	12793.37
482.85	13142.11
483.03	12947.84
483.21	13270.84
483.39	13022.74
483.57	13142.11
483.74	13525.96
483.92	13771.71
484.10	13537.66
484.28	13650.00
484.46	14244.50
484.64	14167.26
484.82	14071.30
485.00	14253.86
485.18	14326.42
485.35	14668.14
485.53	14455.15
485.71	14738.35
485.89	14817.93
486.07	14745.38
486.25	14614.30
486.43	14839.00
486.61	15206.46
486.78	15262.63
486.96	15536.48
487.14	15819.68
487.32	15552.86
487.50	15925.00
487.68	15946.07
487.85	15831.38
488.03	16037.35
488.21	16233.96
488.39	16381.41
488.57	16269.06
488.75	16575.67
488.92	16655.25
489.10	16645.89
489.28	17048.46
489.46	17123.36
489.64	17137.40
489.81	17401.88
489.99	17352.73
490.17	17441.67
490.35	17788.07
490.53	17874.67
490.70	18237.45
490.88	17869.99
491.06	18249.16
491.24	18017.44
491.41	18443.42
491.59	18452.78
491.77	18511.30
491.95	18862.38
492.13	18761.73
492.30	19222.82
492.48	18991.11
492.66	19033.24
492.84	19419.42
493.01	19407.72
493.19	19576.24
493.37	19592.62
493.54	19786.89
493.72	20020.94
493.90	19763.48
494.08	20175.42
494.25	20414.15
494.43	20276.06
494.61	20669.27
494.79	20814.38
494.96	20725.44
495.14	20741.83
495.32	20624.80
495.49	21069.50
495.67	21003.97
495.85	21453.35
496.02	21469.73
496.20	21605.49
496.38	21912.10
496.55	21310.58
496.73	22183.60
496.91	21818.47
497.09	22075.93
497.26	22061.89
497.44	22066.57
497.62	22178.92
497.79	22483.19
497.97	22583.83
498.14	22693.83
498.32	22766.39
498.50	22986.40
498.67	23159.60
498.85	23152.58
499.03	23229.82
499.20	23030.87
499.38	23342.16
499.56	23300.03
499.73	23681.54
499.91	23950.70
500.08	23702.61
500.26	23826.65
500.44	23936.66
500.61	23927.30
500.79	23709.63
500.97	24432.85
501.14	24372.00
501.32	24116.88
501.49	24575.62
501.67	24367.32
501.84	24517.11
502.02	24666.91
502.20	24620.10
502.37	25092.88
502.55	24531.15
502.72	25003.94
502.90	24893.94
503.07	25120.97
503.25	25041.39
503.43	25261.40
503.60	25340.98
503.78	25511.84
503.95	25907.39
504.13	25612.48
504.30	25781.00
504.48	25783.34
504.65	26127.40
504.83	25923.77
505.01	26085.27
505.18	26178.89
505.36	26249.11
505.53	26206.98
505.71	26331.03
505.88	26757.00
506.06	26532.31
506.23	26775.73
506.41	26658.70
506.58	27012.12
506.76	26654.02
506.93	27178.30
507.11	26714.87
507.28	27229.79
507.46	27091.70
507.63	27365.54
507.81	27323.41
507.98	27398.31
508.16	27431.08
508.33	27768.12
508.50	27557.47
508.68	27527.04
508.85	27742.37
509.03	27714.28
509.20	27557.47
509.38	28294.74
509.55	28224.52
509.73	28711.35
509.90	28325.16
510.08	28472.62
510.25	28341.55
510.42	28718.37
510.60	28814.34
510.77	28659.86
510.95	29202.86
511.12	29109.24
511.30	28807.31
511.47	29027.32
511.64	29170.10
511.82	29355.00
511.99	29340.96
512.17	29558.63
512.34	29680.33
512.51	29947.15
512.69	29806.72
512.86	29743.53
513.04	29961.20
513.21	30024.39
513.38	30094.61
513.56	30431.65
513.73	30036.09
513.90	30244.40
514.08	30225.68
514.25	30160.14
514.43	30611.87
514.60	30572.08
514.77	30377.81
514.95	30778.04
515.12	30595.48
515.29	30962.95
515.47	30782.73
515.64	30803.79
515.81	30866.98
515.99	30909.11
516.16	31384.24
516.33	30941.88
516.51	31138.49
516.68	31297.64
516.85	31482.55
517.03	31426.37
517.20	31498.93
517.37	31510.63
517.54	31538.72
517.72	31922.57
517.89	31742.35
518.06	32048.96
518.24	31915.54
518.41	31688.51
518.58	31763.41
518.75	32102.79
518.93	32364.93
519.10	31997.46
519.27	32055.98
519.45	32449.19
519.62	32170.66
519.79	32662.18
519.96	32493.66
520.14	32818.99
520.31	32659.84
520.48	32914.95
520.65	32975.81
520.83	33029.64
521.00	32896.23
521.17	32701.96
521.34	33022.62
521.52	33322.21
521.69	33387.74
521.86	33535.20
522.03	33333.91
522.20	33717.76
522.38	34033.73
522.55	33912.02
522.72	33834.78
522.89	33727.12
523.07	33975.22
523.24	34136.71
523.41	33897.98
523.58	34019.69
523.75	34274.80
523.92	33923.72
524.10	34015.01
524.27	34422.26
524.44	34602.48
524.61	34565.03
524.78	34763.98
524.96	34946.54
525.13	34539.29
525.30	34857.60
525.47	35115.06
525.64	35098.67
525.81	35285.92
525.98	35124.42
526.16	34991.01
526.33	34852.92
526.50	35569.12
526.67	35147.82
526.84	35122.08
527.01	35391.24
527.18	35218.04
527.36	35412.31
527.53	35913.18
527.70	35988.08
527.87	35541.03
528.04	35798.49
528.21	35573.80
528.38	35976.37
528.55	35950.63
528.72	35992.76
528.89	36250.22
529.07	36275.96
529.24	35747.00
529.41	36065.31
529.58	36119.15
529.75	36016.16
529.92	36245.54
530.09	36807.26
530.26	36718.32
530.43	36423.42
530.60	35934.24
530.77	36371.92
530.94	36868.12
531.11	36128.51
531.28	36238.51
531.46	36533.42
531.63	36603.64
531.80	36730.03
531.97	37029.62
532.14	36814.29
532.31	37020.25
532.48	37193.45
532.65	37481.34
532.82	36989.83
532.99	37593.68
533.16	37207.50
533.33	37280.05
533.50	37734.12
533.67	37755.18
533.84	37436.87
534.01	37273.03
534.18	37659.22
534.35	37743.48
534.52	37741.14
534.69	38141.37
534.86	38127.33
535.03	37949.45
535.20	38305.21
535.37	38419.89
535.54	38387.13
535.71	37937.74
535.88	38314.57
536.05	38263.08
536.22	38653.95
536.38	38457.34
536.55	37991.58
536.72	38433.94
536.89	38600.12
537.06	38670.33
537.23	38455.00
537.40	38340.32
537.57	38918.43
537.74	38522.88
537.91	39278.87
538.08	38424.57
538.25	38295.85
538.42	38944.17
538.59	38880.98
538.75	39143.12
538.92	38923.11
539.09	39061.20
539.26	39089.29
539.43	39063.54
539.60	39133.76
539.77	39182.91
539.94	39344.41
540.11	39339.72
540.28	39604.20
540.44	39269.51
540.61	39367.81
540.78	38813.10
540.95	39288.23
541.12	39206.31
541.29	39447.39
541.46	39620.59
541.62	39487.18
541.79	39917.84
541.96	39620.59
542.13	39543.35
542.30	39679.10
542.47	39878.05
542.63	39962.31
542.80	40329.77
542.97	40514.67
543.14	40268.92
543.31	40561.48
543.48	40039.54
543.64	40996.82
543.81	40556.80
543.98	40084.01
544.15	40652.76
544.32	40643.40
544.48	41165.34
544.65	40980.44
544.82	40594.25
544.99	40320.41
545.16	40673.83
545.32	40727.66
545.49	41036.61
545.66	40844.69
545.83	41523.44
546.00	41567.91
546.16	41092.79
546.33	40706.60
546.50	41104.49
546.67	41221.52
546.83	40975.76
547.00	41258.96
547.17	41020.23
547.34	41237.90
547.50	41322.16
547.67	41696.64
547.84	40950.01
548.00	41331.52
548.17	41167.68
548.34	41682.60
548.51	41918.99
548.67	41874.52
548.84	41584.30
549.01	41706.01
549.18	41525.78
549.34	42000.91
549.51	42485.40
549.68	42330.93
549.84	42508.81
550.01	42024.32
550.18	41460.25
550.34	42234.97
550.51	42309.86
550.68	42237.31
550.84	42361.36
551.01	42239.65
551.18	41745.80
551.34	41965.81
551.51	42588.39
551.68	42213.90
551.84	42314.55
552.01	42438.59
552.18	42651.58
552.34	42579.03
552.51	42459.66
552.68	42129.64
552.84	42735.84
553.01	42480.72
553.18	42660.94
553.34	42789.67
553.51	42728.82
553.67	42265.39
553.84	43159.48
554.01	42983.94
554.17	42972.24
554.34	43423.96
554.51	43187.56
554.67	43005.00
554.84	43056.50
555.00	43222.67
555.17	43129.05
555.33	43255.44
555.50	42972.24
555.67	43285.87
555.83	42946.49
556.00	43498.86
556.16	43442.68
556.33	43320.98
556.50	43416.94
556.66	43040.11
556.83	43358.42
556.99	43426.30
557.16	43660.35
557.32	43573.75
557.49	43606.52
557.65	43428.64
557.82	43576.09
557.98	43496.52
558.15	43674.40
558.32	43704.82
558.48	43878.02
558.65	43842.92
558.81	43604.18
558.98	43517.58
559.14	43695.46
559.31	43971.64
559.47	43349.06
559.64	43833.55
559.80	44126.12
559.97	44278.25
560.13	43861.64
560.30	44165.91
560.46	44584.86
560.63	43852.28
560.79	44250.17
560.96	44608.27
561.12	44093.35
561.29	44327.41
561.45	44332.09
561.61	44163.57
561.78	44247.83
561.94	44086.33
562.11	44371.88
562.27	44381.24
562.44	44343.79
562.60	44570.82
562.77	44491.24
562.93	44243.15
563.10	44844.66
563.26	44652.74
563.42	44582.52
563.59	44680.83
563.75	44430.39
563.92	44343.79
564.08	44528.69
564.24	44659.76
564.41	44472.52
564.57	44669.12
564.74	44715.93
564.90	44493.58
565.07	44430.39
565.23	44516.99
565.39	44687.85
565.56	44935.95
565.72	44795.51
565.88	44725.30
566.05	44711.25
566.21	44685.51
566.38	44884.45
566.54	45263.62
566.70	45116.17
566.87	44608.27
567.03	44912.54
567.19	45179.36
567.36	44935.95
567.52	44753.38
567.68	44952.33
567.85	45172.34
568.01	45139.57
568.17	44804.88
568.34	45095.10
568.50	45195.74
568.66	45017.86
568.83	45081.06
568.99	44648.06
569.15	45052.97
569.32	45132.55
569.48	45364.26
569.64	45345.54
569.81	45485.97
569.97	45228.51
570.13	45305.75
570.30	45074.04
570.46	44900.84
570.62	45579.59
570.78	45062.33
570.95	45106.80
571.11	45242.56
571.27	45141.91
571.43	45207.45
571.60	45488.31
571.76	45085.74
571.92	45088.08
572.09	45111.49
572.25	44769.77
572.41	44966.37
572.57	45481.29
572.74	45834.71
572.90	45008.50
573.06	45284.68
573.22	45057.65
573.38	45345.54
573.55	45549.17
573.71	45876.84
573.87	45614.70
574.03	45270.64
574.20	46171.75
574.36	45310.43
574.52	45406.39
574.68	45799.60
574.84	45830.03
575.01	45680.24
575.17	45631.08
575.33	45560.87
575.49	45055.31
575.65	45443.84
575.82	45579.59
575.98	45471.93
576.14	46066.42
576.30	45858.12
576.46	45436.82
576.62	45574.91
576.79	45659.17
576.95	45272.98
577.11	45731.73
577.27	45518.74
577.43	45333.84
577.59	45394.69
577.75	45366.60
577.92	45680.24
578.08	45790.24
578.24	45731.73
578.40	45804.28
578.56	45846.41
578.72	46368.35
578.88	45865.14
579.04	45495.33
579.21	45518.74
579.37	45539.80
579.53	45425.12
579.69	45380.65
579.85	45766.84
580.01	45507.04
580.17	45450.86
580.33	45986.85
580.49	45748.11
580.65	45876.84
580.82	45474.27
580.98	45741.09
581.14	45469.59
581.30	45928.33
581.46	45659.17
581.62	45853.44
581.78	45347.88
581.94	45975.14
582.10	45675.55
582.26	46525.17
582.42	45413.41
582.58	45722.37
582.74	46164.73
582.90	46141.32
583.06	46178.77
583.22	45581.93
583.38	45799.60
583.54	46033.66
583.70	45930.67
583.86	46244.30
584.02	45972.80
584.18	46096.85
584.34	45759.81
584.50	45914.29
584.66	46096.85
584.82	46033.66
584.98	46267.71
585.14	45860.46
585.30	45759.81
585.46	46260.69
585.62	45670.87
585.78	46366.01
585.94	45827.69
586.10	45738.75
586.26	45902.59
586.42	45869.82
586.58	45991.53
586.74	45862.80
586.90	45811.31
587.06	46031.32
587.22	46314.52
587.38	46209.20
587.54	46611.77
587.70	46745.18
587.86	46211.54
588.02	45984.51
588.18	45916.63
588.34	45904.93
588.49	45998.55
588.65	45771.52
588.81	45991.53
588.97	46057.06
589.13	45923.65
589.29	46141.32
589.45	46263.03
589.61	46309.84
589.77	46373.03
589.93	46019.61
590.08	46071.10
