SpectraSuite Data File
++++++++++++++++++++++++++++++++++++
Date: Fri Oct 25 11:23:28 EDT 2013
User: price-jones
Dark Spectrum Present: No
Reference Spectrum Present: No
Number of Sampled Component Spectra: 1
Spectrometers: USB2+H05261
Integration Time (usec): 100000 (USB2+H05261)
Spectra Averaged: 1 (USB2+H05261)
Boxcar Smoothing: 0 (USB2+H05261)
Correct for Electrical Dark: No (USB2+H05261)
Strobe/Lamp Enabled: No (USB2+H05261)
Correct for Detector Non-linearity: No (USB2+H05261)
Correct for Stray Light: No (USB2+H05261)
Number of Pixels in Processed Spectrum: 2048
>>>>>Begin Processed Spectral Data<<<<<
365.73	292.57
365.92	292.57
366.12	292.57
366.32	147.45
366.52	142.77
366.72	126.39
366.91	95.96
367.11	133.41
367.31	79.58
367.51	128.73
367.70	168.52
367.90	182.56
368.10	163.84
368.30	102.98
368.49	84.26
368.69	98.30
368.89	177.88
369.09	182.56
369.28	110.01
369.48	95.96
369.68	145.11
369.87	189.58
370.07	168.52
370.27	245.76
370.47	245.76
370.66	571.09
370.86	610.88
371.06	720.88
371.25	681.10
371.45	610.88
371.65	636.63
371.84	648.33
372.04	699.82
372.24	695.14
372.44	587.47
372.63	734.93
372.83	751.31
373.03	706.84
373.22	812.17
373.42	758.33
373.62	786.42
373.81	770.04
374.01	788.76
374.21	898.77
374.40	800.46
374.60	875.36
374.79	844.93
374.99	863.66
375.19	837.91
375.38	847.27
375.58	849.61
375.78	905.79
375.97	798.12
376.17	938.55
376.37	896.43
376.56	894.08
376.76	866.00
376.95	830.89
377.15	919.83
377.35	863.66
377.54	924.51
377.74	917.49
377.93	861.32
378.13	940.90
378.33	919.83
378.52	866.00
378.72	912.81
378.91	910.47
379.11	933.87
379.31	858.98
379.50	896.43
379.70	938.55
379.89	1011.11
380.09	976.00
380.28	994.73
380.48	952.60
380.68	1001.75
380.87	1006.43
381.07	1048.56
381.26	1053.24
381.46	1004.09
381.65	1022.81
381.85	1053.24
382.04	1107.07
382.24	994.73
382.43	1048.56
382.63	1025.15
382.83	1048.56
383.02	1062.60
383.22	1111.75
383.41	1041.54
383.61	1095.37
383.80	1107.07
384.00	1095.37
384.19	1095.37
384.39	1151.54
384.58	1130.48
384.78	1167.93
384.97	1179.63
385.17	1109.41
385.36	1086.01
385.56	1193.67
385.75	1116.44
385.95	1261.55
386.14	1181.97
386.34	1242.82
386.53	1184.31
386.72	1242.82
386.92	1207.72
387.11	1132.82
387.31	1224.10
387.50	1207.72
387.70	1238.14
387.89	1268.57
388.09	1275.59
388.28	1291.98
388.48	1294.32
388.67	1366.87
388.86	1306.02
389.06	1289.64
389.25	1448.79
389.45	1310.70
389.64	1289.64
389.84	1380.92
390.03	1406.66
390.22	1277.93
390.42	1289.64
390.61	1401.98
390.81	1448.79
391.00	1420.71
391.19	1488.58
391.39	1448.79
391.58	1472.20
391.78	1448.79
391.97	1467.52
392.16	1504.96
392.36	1621.99
392.55	1479.22
392.75	1425.39
392.94	1565.82
393.13	1572.84
393.33	1591.56
393.52	1549.43
393.71	1706.25
393.91	1605.61
394.10	1533.05
394.29	1607.95
394.49	1675.82
394.68	1685.19
394.88	1612.63
395.07	1750.72
395.26	1750.72
395.46	1614.97
395.65	1820.94
395.84	1638.38
396.04	1844.34
396.23	1736.68
396.42	1706.25
396.62	1804.55
396.81	1729.66
397.00	1877.11
397.19	1720.29
397.39	1600.93
397.58	1830.30
397.77	1895.83
397.97	1816.26
398.16	1734.34
398.35	1888.81
398.55	1816.26
398.74	1949.67
398.93	1884.13
399.12	1881.79
399.32	1923.92
399.51	2015.20
399.70	2008.18
399.90	1900.52
400.09	2033.93
400.28	2050.31
400.47	1952.01
400.67	2097.12
400.86	2071.37
401.05	2078.40
401.24	1994.14
401.44	2120.53
401.63	2230.53
401.82	2265.64
402.01	2104.14
402.21	2202.44
402.40	2216.49
402.59	2120.53
402.78	2148.61
402.97	2186.06
403.17	2300.75
403.36	2251.60
403.55	2286.70
403.74	2349.90
403.93	2265.64
404.13	2331.17
404.32	2342.88
404.51	2366.28
404.70	2406.07
404.89	2312.45
405.09	2382.67
405.28	2429.48
405.47	2546.50
405.66	2516.08
405.85	2476.29
406.05	2478.63
406.24	2499.69
406.43	2576.93
406.62	2574.59
406.81	2672.89
407.00	2565.23
407.20	2525.44
407.39	2677.57
407.58	2595.65
407.77	2738.43
407.96	2752.47
408.15	2703.32
408.34	2733.75
408.54	2827.37
408.73	2796.94
408.92	2813.32
409.11	2862.48
409.30	2862.48
409.49	2853.11
409.68	2944.39
409.87	3005.25
410.07	2864.82
410.26	3089.51
410.45	3054.40
410.64	3059.08
410.83	3129.30
411.02	3145.68
411.21	3269.73
411.40	3098.87
411.59	3077.80
411.78	3227.60
411.98	3194.83
412.17	3234.62
412.36	3241.64
412.55	3375.05
412.74	3375.05
412.93	3421.86
413.12	3346.97
413.31	3445.27
413.50	3403.14
413.69	3471.01
413.88	3501.44
414.07	3583.36
414.26	3681.66
414.45	3655.92
414.64	3789.33
414.83	3763.58
415.02	3840.82
415.22	3866.56
415.41	3836.14
415.60	3901.67
415.79	3901.67
415.98	3985.93
416.17	3887.63
416.36	4011.68
416.55	3995.29
416.74	4065.51
416.93	4114.66
417.12	4060.83
417.31	4079.55
417.50	4266.80
417.69	4351.06
417.88	4276.16
418.07	4219.99
418.26	4339.35
418.45	4306.59
418.64	4561.70
418.83	4496.17
419.02	4535.96
419.21	4557.02
419.39	4636.60
419.58	4587.45
419.77	4374.46
419.96	4540.64
420.15	4713.84
420.34	4587.45
420.53	4760.65
420.72	4711.50
420.91	4716.18
421.10	4889.38
421.29	4779.37
421.48	4589.79
421.67	4805.12
421.86	4744.27
422.05	4844.91
422.24	4819.16
422.43	4826.18
422.61	4919.81
422.80	4917.47
422.99	4868.31
423.18	4896.40
423.37	5238.12
423.56	4875.34
423.75	4884.70
423.94	4767.67
424.13	4582.77
424.32	4690.43
424.50	4959.60
424.69	5090.67
424.88	5067.26
425.07	5116.41
425.26	4901.08
425.45	4861.29
425.64	4898.74
425.83	4926.83
426.01	5104.71
426.20	5041.51
426.39	5130.45
426.58	5022.79
426.77	5008.75
426.96	5144.50
427.15	5111.73
427.33	5406.64
427.52	5142.16
427.71	5181.95
427.90	5221.74
428.09	5294.29
428.28	5345.78
428.46	5411.32
428.65	5657.07
428.84	5549.41
429.03	5551.75
429.22	5327.06
429.40	5413.66
429.59	5511.96
429.78	5345.78
429.97	5413.66
430.16	5488.56
430.34	5565.79
430.53	5610.26
430.72	5612.60
430.91	5657.07
431.10	5563.45
431.28	5685.16
431.47	5764.74
431.66	5898.15
431.85	5872.40
432.03	6064.33
432.22	5973.05
432.41	5818.57
432.60	5856.02
432.79	6076.03
432.97	5942.62
433.16	6207.10
433.35	5998.79
433.54	6113.48
433.72	6211.78
433.91	6211.78
434.10	6265.61
434.28	5919.21
434.47	6303.06
434.66	6258.59
434.85	6223.48
435.03	6310.08
435.22	6356.90
435.41	6602.65
435.59	6389.66
435.78	6413.07
435.97	6506.69
436.16	6314.77
436.34	6420.09
436.53	6588.61
436.72	6700.95
436.90	6361.58
437.09	6640.10
437.28	6429.45
437.46	6661.16
437.65	6649.46
437.84	6782.87
438.02	6986.50
438.21	6874.15
438.40	6558.18
438.58	6890.54
438.77	6988.84
438.96	7080.12
439.14	7091.82
439.33	7201.83
439.52	7248.64
439.70	7145.66
439.89	7489.71
440.08	7414.82
440.26	7489.71
440.45	7573.97
440.63	7538.87
440.82	7693.34
441.01	7616.10
441.19	7588.02
441.38	7618.44
441.57	7918.03
441.75	7861.86
441.94	7824.41
442.12	8070.17
442.31	8065.49
442.50	7934.42
442.68	7974.21
442.87	7992.93
443.05	8236.35
443.24	8358.05
443.43	8175.49
443.61	8292.52
443.80	8510.19
443.98	7934.42
444.17	7899.31
444.35	8116.98
444.54	8442.31
444.73	8053.78
444.91	8346.35
445.10	8603.81
445.28	8397.84
445.47	8397.84
445.65	8234.00
445.84	8409.54
446.02	8573.38
446.21	8631.90
446.39	8236.35
446.58	8617.85
446.77	8475.08
446.95	8259.75
447.14	8512.53
447.32	8397.84
447.51	8407.20
447.69	8479.76
447.88	8573.38
448.06	8568.70
448.25	8376.78
448.43	8496.14
448.62	8498.49
448.80	8650.62
448.99	8685.73
449.17	8819.14
449.36	8571.04
449.54	8802.75
449.73	9102.34
449.91	9004.04
450.10	8966.59
450.28	9102.34
450.46	9036.81
450.65	9123.41
450.83	8992.34
451.02	8868.29
451.20	9296.61
451.39	9022.77
451.57	9029.79
451.76	8952.55
451.94	9193.62
452.13	9584.49
452.31	9502.58
452.49	9263.84
452.68	9160.86
452.86	9394.91
453.05	9511.94
453.23	9453.42
453.42	9376.19
453.60	9329.38
453.78	9614.92
453.97	9490.87
454.15	9516.62
454.34	9582.15
454.52	9596.20
454.70	9444.06
454.89	9654.71
455.07	9949.62
455.26	9825.57
455.44	9970.68
455.62	9921.53
455.81	10008.13
455.99	10003.45
456.17	9996.43
456.36	10143.88
456.54	10113.45
456.73	10450.49
456.91	10562.84
457.09	10382.62
457.28	10565.18
457.46	10415.38
457.64	10635.39
457.83	10530.07
458.01	10441.13
458.19	10787.53
458.38	10567.52
458.56	10771.15
458.74	10714.97
458.93	10553.48
459.11	10611.99
459.29	10579.22
459.48	10986.47
459.66	10981.79
459.84	10710.29
460.03	11178.40
460.21	11131.59
460.39	11190.10
460.57	11026.26
460.76	10904.56
460.94	11286.06
461.12	10946.69
461.31	11098.82
461.49	11332.87
461.67	11328.19
461.85	11527.14
462.04	11412.45
462.22	11768.21
462.40	11531.82
462.59	11300.11
462.77	11513.10
462.95	11707.36
463.13	11569.27
463.32	11805.66
463.50	11552.88
463.68	11885.24
463.86	11859.49
464.05	11548.20
464.23	11784.60
464.41	12025.67
464.59	11646.51
464.78	12203.55
464.96	12191.85
465.14	11843.11
465.32	12285.47
465.50	12219.94
465.69	12198.87
465.87	12196.53
466.05	12379.09
466.23	12102.91
466.41	12222.28
466.60	12641.23
466.78	11915.67
466.96	12156.74
467.14	12273.77
467.32	12479.74
467.51	12358.03
467.69	12229.30
467.87	12402.50
468.05	12685.70
468.23	12535.91
468.41	12526.55
468.60	12655.28
468.78	12753.58
468.96	12496.12
469.14	12706.77
469.32	12915.08
469.50	12627.19
469.69	13053.17
469.87	12989.97
470.05	13200.62
470.23	13149.13
470.41	13217.01
470.59	13582.13
470.77	13060.19
470.95	13245.09
471.14	13516.59
471.32	13387.86
471.50	13607.87
471.68	13551.70
471.86	13640.64
472.04	13881.72
472.22	14043.21
472.40	13642.98
472.58	13965.98
472.77	14202.37
472.95	14174.28
473.13	14661.12
473.31	14195.35
473.49	14148.54
473.67	14040.87
473.85	14466.85
474.03	14740.69
474.21	14663.46
474.39	14803.89
474.57	14876.44
474.75	15002.83
474.93	14817.93
475.12	15009.86
475.30	15300.08
475.48	14979.43
475.66	15534.14
475.84	15246.25
476.02	15564.56
476.20	15398.38
476.38	15749.46
476.56	16215.23
476.74	16133.31
476.92	15922.66
477.10	16130.97
477.28	16098.20
477.46	16196.51
477.64	16416.52
477.82	16659.93
478.00	17118.68
478.18	16783.98
478.36	16657.59
478.54	17043.78
478.72	17263.79
478.90	17458.06
479.08	17584.44
479.26	17748.28
479.44	17767.01
479.62	18024.47
479.80	18118.09
479.98	18525.34
480.16	18508.96
480.34	18120.43
480.52	18551.09
480.70	18478.53
480.88	18005.74
481.06	18785.14
481.24	18895.14
481.41	19330.48
481.59	19007.49
481.77	19681.56
481.95	19477.94
482.13	19992.86
482.31	19606.67
482.49	20332.23
482.67	19995.20
482.85	20528.84
483.03	20535.86
483.21	20535.86
483.39	20847.15
483.57	21055.46
483.74	21486.12
483.92	21422.92
484.10	21472.07
484.28	21661.66
484.46	21970.61
484.64	22668.09
484.82	22129.77
485.00	22618.94
485.18	22941.93
485.35	23197.05
485.53	22757.03
485.71	23213.43
485.89	23639.41
486.07	23152.58
486.25	23377.27
486.43	23534.09
486.61	24009.22
486.78	24306.46
486.96	24236.25
487.14	24711.38
487.32	24889.26
487.50	24865.85
487.68	24929.05
487.85	25202.89
488.03	25404.17
488.21	25766.96
488.39	25666.31
488.57	26071.23
488.75	26389.54
488.92	26581.46
489.10	26789.77
489.28	27016.80
489.46	27229.79
489.64	27484.91
489.81	27967.06
489.99	27875.78
490.17	27931.95
490.35	28205.80
490.53	28053.66
490.70	28622.41
490.88	28276.01
491.06	28811.99
491.24	28844.76
491.41	29050.73
491.59	29521.18
491.77	29462.66
491.95	30235.04
492.13	29912.05
492.30	30342.70
492.48	29944.81
492.66	30305.26
492.84	30462.07
493.01	30515.90
493.19	30529.95
493.37	31267.22
493.54	31096.36
493.72	31922.57
493.90	31950.65
494.08	31824.26
494.25	31983.42
494.43	32041.93
494.61	32512.38
494.79	32201.09
494.96	32545.15
495.14	32830.69
495.32	33237.95
495.49	33099.86
495.67	32910.27
495.85	33626.48
496.02	34218.63
496.20	34022.03
496.38	34270.12
496.55	33916.70
496.73	34962.92
496.91	35281.24
497.09	35171.23
497.26	35344.43
497.44	34864.62
497.62	35421.67
497.79	35761.05
497.97	35615.93
498.14	36402.35
498.32	36135.53
498.50	36369.58
498.67	36587.25
498.85	36598.96
499.03	37095.15
499.20	36912.59
499.38	37076.43
499.56	37186.43
499.73	37214.52
499.91	37701.35
500.08	37743.48
500.26	37399.42
500.44	37357.29
500.61	38162.43
500.79	38106.26
500.97	38132.01
501.14	38686.71
501.32	38759.27
501.49	38686.71
501.67	38848.21
501.84	38883.32
502.02	38831.83
502.20	39328.02
502.37	39260.15
502.55	39538.67
502.72	38859.91
502.90	39770.38
503.07	39784.43
503.25	40034.86
503.43	39636.97
503.60	40163.59
503.78	40219.77
503.95	40444.46
504.13	40706.60
504.30	40708.94
504.48	40348.50
504.65	41216.83
504.83	41392.37
505.01	41102.15
505.18	41132.57
505.36	41687.28
505.53	41486.00
505.71	41881.55
505.88	41647.49
506.06	41528.13
506.23	42103.90
506.41	41928.36
506.58	42447.96
506.76	42532.22
506.93	42752.23
507.11	42696.05
507.28	42829.46
507.46	42993.30
507.63	43236.72
507.81	43093.94
507.98	42990.96
508.16	43297.57
508.33	43564.39
508.50	44170.59
508.68	43894.41
508.85	43718.87
509.03	43915.47
509.20	44037.18
509.38	44385.92
509.55	44769.77
509.73	44622.31
509.90	44589.55
510.08	44968.71
510.25	44664.44
510.42	44610.61
510.60	45312.77
510.77	45179.36
510.95	45560.87
511.12	45713.00
511.30	45298.73
511.47	45296.39
511.64	45860.46
511.82	46019.61
511.99	46129.62
512.17	45911.95
512.34	45993.87
512.51	46452.61
512.69	46691.35
512.86	46541.55
513.04	47019.02
513.21	46518.15
513.38	47419.25
513.56	47285.84
513.73	46981.57
513.90	47199.24
514.08	46864.55
514.25	47288.18
514.43	47033.07
514.60	47709.48
514.77	47384.15
514.95	47606.50
515.12	47976.30
515.29	47763.31
515.47	48009.07
515.64	48442.07
515.81	48350.79
515.99	48652.72
516.16	48507.60
516.33	48769.74
516.51	48898.47
516.68	48729.95
516.85	48886.77
517.03	49109.12
517.20	48992.09
517.37	48671.44
517.54	49146.57
517.72	49179.34
517.89	49090.40
518.06	49673.19
518.24	49179.34
518.41	49095.08
518.58	49502.33
518.75	49401.69
518.93	49846.39
519.10	49244.87
519.27	49982.14
519.45	50012.57
519.62	50389.39
519.79	49979.80
519.96	50110.87
520.14	50209.17
520.31	50382.37
520.48	50450.25
520.65	50323.86
520.83	50759.20
521.00	51026.02
521.17	50576.64
521.34	50894.95
521.52	50848.14
521.69	51047.08
521.86	51107.94
522.03	51318.59
522.20	51304.54
522.38	51299.86
522.55	51491.79
522.72	51370.08
522.89	51414.55
523.07	51896.70
523.24	51711.80
523.41	51896.70
523.58	51571.36
523.75	51875.63
523.92	52002.02
524.10	52105.01
524.27	52264.16
524.44	52411.62
524.61	52030.11
524.78	52383.53
524.96	52350.76
525.13	52545.03
525.30	52530.98
525.47	52280.55
525.64	52542.69
525.81	52851.64
525.98	52884.40
526.16	52788.44
526.33	52622.26
526.50	53158.25
526.67	52882.06
526.84	52987.39
527.01	53176.97
527.18	52994.41
527.36	53354.85
527.53	53062.29
527.70	53411.02
527.87	53628.69
528.04	53469.54
528.21	53659.12
528.38	53240.17
528.55	53771.47
528.72	53736.36
528.89	53247.19
529.07	53769.13
529.24	53558.48
529.41	53773.81
529.58	54115.53
529.75	53841.68
529.92	53942.33
530.09	53844.02
530.26	54258.30
530.43	54204.47
530.60	54026.59
530.77	53691.89
530.94	54237.23
531.11	54307.45
531.28	54422.14
531.46	54447.88
531.63	54578.95
531.80	54321.49
531.97	54466.61
532.14	54501.71
532.31	54349.58
532.48	54609.38
532.65	54700.66
532.82	54628.10
532.99	54852.80
533.16	54923.01
533.33	54976.84
533.50	54918.33
533.67	54780.24
533.84	54791.94
534.01	54721.72
534.18	55070.46
534.35	55220.26
534.52	55112.59
534.69	55299.84
534.86	55178.13
535.03	55194.51
535.20	55330.26
535.37	55458.99
535.54	55669.64
535.71	55423.89
535.88	55634.53
536.05	55423.89
536.22	55798.37
536.38	55522.19
536.55	56011.36
536.72	55821.78
536.89	55807.73
537.06	55751.56
537.23	56086.26
537.40	55643.90
537.57	55805.39
537.74	55763.26
537.91	56123.71
538.08	56067.53
538.25	55688.37
538.42	55952.85
538.59	56222.01
538.75	56025.40
538.92	55899.01
539.09	56158.81
539.26	56273.50
539.43	56287.54
539.60	56521.60
539.77	56114.34
539.94	56402.23
540.11	56746.29
540.28	56591.81
540.44	56619.90
540.61	56519.26
540.78	56797.78
540.95	56493.51
541.12	56542.66
541.29	56449.04
541.46	56657.35
541.62	56645.65
541.79	56736.93
541.96	56348.40
542.13	56582.45
542.30	56802.46
542.47	56809.48
542.63	57080.98
542.80	57146.52
542.97	57148.86
543.14	57202.69
543.31	57336.10
543.48	57495.26
543.64	57584.20
543.81	57605.26
543.98	57432.07
544.15	57401.64
544.32	57799.53
544.48	57593.56
544.65	57525.69
544.82	57764.42
544.99	57443.77
545.16	57762.08
545.32	57640.37
545.49	57766.76
545.66	57968.05
545.83	57570.16
546.00	57907.19
546.16	57607.61
546.33	57621.65
546.50	57785.49
546.67	57923.58
546.83	57635.69
547.00	57900.17
547.17	57869.75
547.34	58064.01
547.50	57844.00
547.67	58192.74
547.84	58225.51
548.00	58068.69
548.17	58461.90
548.34	58279.34
548.51	58347.21
548.67	58372.96
548.84	58216.14
549.01	58159.97
549.18	58298.06
549.34	58368.28
549.51	58379.98
549.68	58356.58
549.84	58740.42
550.01	58431.47
550.18	58382.32
550.34	58543.82
550.51	58618.72
550.68	58672.55
550.84	58141.25
551.01	58749.79
551.18	58651.48
551.34	58766.17
551.51	59049.38
551.68	58632.76
551.84	58630.42
552.01	58602.33
552.18	58653.82
552.34	58714.68
552.51	59105.55
552.68	58562.54
552.84	58693.61
553.01	59002.56
553.18	59030.65
553.34	58948.73
553.51	58866.81
553.67	58925.33
553.84	58906.60
554.01	59068.10
554.17	59131.29
554.34	59089.16
554.51	59119.59
554.67	59346.62
554.84	59075.12
555.00	58937.03
555.17	59119.59
555.33	59128.95
555.50	59021.29
555.67	59159.38
555.83	59105.55
556.00	59400.46
556.16	59468.33
556.33	59437.90
556.50	59374.71
556.66	59606.42
556.83	59229.60
556.99	59529.19
557.16	59437.90
557.32	59732.81
557.49	59566.63
557.65	59374.71
557.82	59510.46
557.98	59465.99
558.15	59625.15
558.32	59566.63
558.48	59428.54
558.65	59618.13
558.81	59810.05
558.98	59826.43
559.14	59765.58
559.31	59660.26
559.47	59990.27
559.64	60011.34
559.80	59702.38
559.97	59772.60
560.13	59847.50
560.30	59763.24
560.46	59817.07
560.63	59880.27
560.79	59868.56
560.96	59934.10
561.12	59868.56
561.29	59821.75
561.45	59922.40
561.61	59906.01
561.78	59739.83
561.94	60044.10
562.11	60048.78
562.27	60006.65
562.44	60121.34
562.60	60172.83
562.77	59994.95
562.93	59884.95
563.10	60207.94
563.26	60062.83
563.42	60294.54
563.59	60137.72
563.75	60088.57
563.92	60095.60
564.08	59999.63
564.24	60273.48
564.41	60086.23
564.57	60385.82
564.74	60221.98
564.90	60308.58
565.07	60060.49
565.23	60275.82
565.39	60086.23
565.56	60266.45
565.72	60233.69
565.88	60299.22
566.05	60210.28
566.21	60191.56
566.38	60217.30
566.54	60317.95
566.70	60353.05
566.87	60296.88
567.03	60205.60
567.19	60577.75
567.36	60362.42
567.52	60397.52
567.68	60584.77
567.85	60519.23
568.01	60441.99
568.17	60409.23
568.34	60598.81
568.50	60594.13
568.66	60484.12
568.83	60416.25
568.99	60278.16
569.15	60346.03
569.32	60434.97
569.48	60463.06
569.64	60734.56
569.81	60493.49
569.97	60474.76
570.13	60535.62
570.30	60378.80
570.46	60559.02
570.62	60832.86
570.78	60608.17
570.95	60495.83
571.11	60762.65
571.27	60498.17
571.43	60552.00
571.60	60933.51
571.76	60865.63
571.92	60584.77
572.09	60669.03
572.25	60720.52
572.41	60683.07
572.57	60598.81
572.74	60907.76
572.90	60821.16
573.06	60570.72
573.22	60645.62
573.38	60605.83
573.55	60673.71
573.71	60924.14
573.87	60874.99
574.03	60638.60
574.20	60570.72
574.36	60757.97
574.52	60837.54
574.68	60886.70
574.84	61048.19
575.01	60928.83
575.17	60956.91
575.33	60804.78
575.49	60874.99
575.65	61034.15
575.82	60912.44
575.98	60889.04
576.14	60954.57
576.30	60823.50
576.46	60942.87
576.62	60666.69
576.79	60996.70
576.95	60889.04
577.11	60825.84
577.27	60921.80
577.43	60863.29
577.59	60865.63
577.75	60839.89
577.92	60786.05
578.08	60999.04
578.24	60968.61
578.40	61104.37
578.56	60938.19
578.72	60928.83
578.88	60931.17
579.04	61233.10
579.21	61059.90
579.37	61099.68
579.53	61195.65
579.69	60795.42
579.85	60900.74
580.01	60935.85
580.17	60987.34
580.33	61183.94
580.49	60945.21
580.65	61071.60
580.82	60980.32
580.98	60874.99
581.14	60968.61
581.30	60954.57
581.46	61031.81
581.62	60999.04
581.78	60917.12
581.94	61197.99
582.10	60931.17
582.26	60945.21
582.42	60977.98
582.58	61263.52
582.74	61059.90
582.90	61097.34
583.06	61008.40
583.22	60832.86
583.38	61052.87
583.54	60893.72
583.70	61001.38
583.86	61235.44
584.02	61109.05
584.18	61066.92
584.34	61052.87
584.50	60910.10
584.66	61006.06
584.82	61120.75
584.98	61312.67
585.14	61165.22
585.30	60774.35
585.46	61097.34
585.62	61006.06
585.78	61024.79
585.94	61172.24
586.10	61216.71
586.26	60874.99
586.42	61212.03
586.58	61102.03
586.74	60989.68
586.90	60924.14
587.06	60966.27
587.22	61197.99
587.38	61013.08
587.54	61197.99
587.70	61380.55
587.86	61155.86
588.02	61197.99
588.18	61221.39
588.34	60893.72
588.49	61303.31
