SpectraSuite Data File
++++++++++++++++++++++++++++++++++++
Date: Fri Oct 25 10:44:54 EDT 2013
User: price-jones
Dark Spectrum Present: No
Reference Spectrum Present: No
Number of Sampled Component Spectra: 1
Spectrometers: USB2+H05261
Integration Time (usec): 100000 (USB2+H05261)
Spectra Averaged: 1 (USB2+H05261)
Boxcar Smoothing: 0 (USB2+H05261)
Correct for Electrical Dark: No (USB2+H05261)
Strobe/Lamp Enabled: No (USB2+H05261)
Correct for Detector Non-linearity: No (USB2+H05261)
Correct for Stray Light: No (USB2+H05261)
Number of Pixels in Processed Spectrum: 2048
>>>>>Begin Processed Spectral Data<<<<<
365.73	133.41
365.92	133.41
366.12	133.41
366.32	25.75
366.52	2.34
366.72	117.03
366.91	49.15
367.11	84.26
367.31	46.81
367.51	0.00
367.70	14.04
367.90	138.09
368.10	39.79
368.30	0.00
368.49	23.41
368.69	0.00
368.89	105.32
369.09	110.01
369.28	70.22
369.48	42.13
369.68	98.30
369.87	107.66
370.07	65.54
370.27	126.39
370.47	238.73
370.66	231.71
370.86	358.10
371.06	440.02
371.25	421.30
371.45	421.30
371.65	388.53
371.84	379.17
372.04	454.06
372.24	383.85
372.44	451.72
372.63	500.87
372.83	477.47
373.03	507.90
373.22	423.64
373.42	491.51
373.62	521.94
373.81	505.56
374.01	528.96
374.21	589.82
374.40	465.77
374.60	547.69
374.79	557.05
374.99	528.96
375.19	535.98
375.38	507.90
375.58	594.50
375.78	571.09
375.97	648.33
376.17	599.18
376.37	561.73
376.56	601.52
376.76	545.34
376.95	594.50
377.15	514.92
377.35	557.05
377.54	660.03
377.74	545.34
377.93	606.20
378.13	617.90
378.33	606.20
378.52	596.84
378.72	608.54
378.91	634.29
379.11	645.99
379.31	571.09
379.50	622.58
379.70	690.46
379.89	603.86
380.09	620.24
380.28	695.14
380.48	580.45
380.68	641.31
380.87	603.86
381.07	678.76
381.26	713.86
381.46	683.44
381.65	667.05
381.85	653.01
382.04	720.88
382.24	723.23
382.43	706.84
382.63	723.23
382.83	601.52
383.02	653.01
383.22	741.95
383.41	610.88
383.61	643.65
383.80	737.27
384.00	657.69
384.19	631.94
384.39	779.40
384.58	660.03
384.78	784.08
384.97	748.97
385.17	699.82
385.36	763.01
385.56	772.38
385.75	798.12
385.95	737.27
386.14	784.08
386.34	821.53
386.53	814.51
386.72	664.71
386.92	760.67
387.11	753.65
387.31	842.59
387.50	807.48
387.70	823.87
387.89	802.80
388.09	795.78
388.28	774.72
388.48	842.59
388.67	884.72
388.86	814.51
389.06	823.87
389.25	901.11
389.45	908.13
389.64	826.21
389.84	868.34
390.03	945.58
390.22	837.91
390.42	901.11
390.61	924.51
390.81	901.11
391.00	1001.75
391.19	997.07
391.39	903.45
391.58	952.60
391.78	940.90
391.97	966.64
392.16	882.38
392.36	915.15
392.55	1011.11
392.75	891.74
392.94	891.74
393.13	898.77
393.33	976.00
393.52	947.92
393.71	1048.56
393.91	990.05
394.10	1025.15
394.29	1060.26
394.49	1020.47
394.68	1081.33
394.88	1114.10
395.07	1008.77
395.26	1107.07
395.46	1062.60
395.65	1151.54
395.84	1135.16
396.04	1088.35
396.23	1097.71
396.42	1083.67
396.62	1210.06
396.81	1191.33
397.00	1170.27
397.19	1198.35
397.39	1123.46
397.58	1193.67
397.77	1205.38
397.97	1231.12
398.16	1268.57
398.35	1369.21
398.55	1303.68
398.74	1336.45
398.93	1313.04
399.12	1345.81
399.32	1387.94
399.51	1341.13
399.70	1306.02
399.90	1322.40
400.09	1390.28
400.28	1427.73
400.47	1420.71
400.67	1406.66
400.86	1411.34
401.05	1479.22
401.24	1497.94
401.44	1483.90
401.63	1479.22
401.82	1544.75
402.01	1448.79
402.21	1600.93
402.40	1558.80
402.59	1528.37
402.78	1521.35
402.97	1523.69
403.17	1612.63
403.36	1605.61
403.55	1753.06
403.74	1652.42
403.93	1579.86
404.13	1619.65
404.32	1664.12
404.51	1619.65
404.70	1645.40
404.89	1547.09
405.09	1799.87
405.28	1708.59
405.47	1696.89
405.66	1736.68
405.85	1708.59
406.05	1739.02
406.24	1739.02
406.43	1881.79
406.62	1757.74
406.81	1846.68
407.00	1717.95
407.20	1893.49
407.39	1736.68
407.58	1830.30
407.77	1886.47
407.96	1916.90
408.15	1893.49
408.34	1809.23
408.54	2085.42
408.73	1982.43
408.92	2062.01
409.11	2118.18
409.30	2033.93
409.49	1966.05
409.68	1973.07
409.87	2033.93
410.07	2104.14
410.26	2033.93
410.45	2071.37
410.64	2153.29
410.83	2211.81
411.02	2275.00
411.21	2202.44
411.40	2282.02
411.59	2328.83
411.78	2319.47
411.98	2249.25
412.17	2387.35
412.36	2338.20
412.55	2410.75
412.74	2347.56
412.93	2469.27
413.12	2326.49
413.31	2548.84
413.50	2382.67
413.69	2476.29
413.88	2455.22
414.07	2640.12
414.26	2642.46
414.45	2635.44
414.64	2534.80
414.83	2668.21
415.02	2684.59
415.22	2717.36
415.41	2806.30
415.60	2785.24
415.79	2855.45
415.98	2892.90
416.17	2829.71
416.36	2923.33
416.55	2869.50
416.74	2883.54
416.93	2923.33
417.12	2878.86
417.31	2988.86
417.50	2939.71
417.69	3080.14
417.88	3141.00
418.07	3169.09
418.26	3103.55
418.45	3159.72
418.64	3187.81
418.83	3227.60
419.02	3155.04
419.21	3157.38
419.39	3115.25
419.58	3145.68
419.77	3229.94
419.96	3208.87
420.15	3255.69
420.34	3356.33
420.53	3314.20
420.72	3447.61
420.91	3297.81
421.10	3482.72
421.29	3478.04
421.48	3407.82
421.67	3475.70
421.86	3424.20
422.05	3421.86
422.24	3499.10
422.43	3363.35
422.61	3438.25
422.80	3473.36
422.99	3552.93
423.18	3454.63
423.37	3588.04
423.56	3478.04
423.75	3548.25
423.94	3489.74
424.13	3445.27
424.32	3389.10
424.50	3536.55
424.69	3651.24
424.88	3618.47
425.07	3634.85
425.26	3421.86
425.45	3541.23
425.64	3435.91
425.83	3550.59
426.01	3651.24
426.20	3599.74
426.39	3583.36
426.58	3595.06
426.77	3632.51
426.96	3503.78
427.15	3726.13
427.33	3651.24
427.52	3688.68
427.71	3712.09
427.90	3758.90
428.09	3716.77
428.28	3777.62
428.46	3850.18
428.65	3749.54
428.84	3868.91
429.03	3889.97
429.22	3770.60
429.40	3829.12
429.59	3798.69
429.78	3630.17
429.97	3609.11
430.16	3646.55
430.34	3744.86
430.53	3786.99
430.72	3836.14
430.91	3857.20
431.10	3974.23
431.28	4100.62
431.47	4175.52
431.66	4238.71
431.85	3955.51
432.03	4196.58
432.22	4191.90
432.41	4224.67
432.60	4074.87
432.79	4196.58
432.97	4329.99
433.16	4152.11
433.35	4088.92
433.54	4133.39
433.72	4351.06
433.91	4287.86
434.10	4297.22
434.28	4191.90
434.47	4320.63
434.66	4407.23
434.85	4346.37
435.03	4496.17
435.22	4472.76
435.41	4596.81
435.59	4526.60
435.78	4557.02
435.97	4554.68
436.16	4594.47
436.34	4559.36
436.53	4547.66
436.72	4674.05
436.90	4470.42
437.09	4627.24
437.28	4507.87
437.46	4760.65
437.65	4554.68
437.84	4690.43
438.02	4737.24
438.21	4692.77
438.40	4779.37
438.58	4819.16
438.77	4795.76
438.96	4809.80
439.14	4999.38
439.33	5027.47
439.52	5050.88
439.70	4975.98
439.89	5114.07
440.08	5090.67
440.26	5125.77
440.45	5205.35
440.63	5210.03
440.82	5315.36
441.01	5233.44
441.19	5275.57
441.38	5441.75
441.57	5593.88
441.75	5542.39
441.94	5717.93
442.12	5643.03
442.31	5603.24
442.50	5628.99
442.68	5736.65
442.87	5619.63
443.05	5591.54
443.24	5753.04
443.43	5724.95
443.61	5846.66
443.80	5902.83
443.98	5614.95
444.17	5720.27
444.35	5778.78
444.54	5900.49
444.73	5891.13
444.91	5837.30
445.10	5724.95
445.28	5771.76
445.47	5614.95
445.65	5720.27
445.84	5806.87
446.02	5834.96
446.21	5951.98
446.39	5916.87
446.58	6015.18
446.77	6059.65
446.95	5893.47
447.14	5956.66
447.32	5884.11
447.51	5839.64
447.69	5886.45
447.88	5933.26
448.06	6094.76
448.25	5956.66
448.43	5905.17
448.62	6064.33
448.80	5895.81
448.99	6061.99
449.17	6099.44
449.36	6092.41
449.54	6263.27
449.73	6420.09
449.91	6321.79
450.10	6464.56
450.28	6448.18
450.46	6424.77
450.65	6321.79
450.83	6431.79
451.02	6380.30
451.20	6459.88
451.39	6532.44
451.57	6190.72
451.76	6502.01
451.94	6427.11
452.13	6597.97
452.31	6413.07
452.49	6331.15
452.68	6513.71
452.86	6600.31
453.05	6607.33
453.23	6600.31
453.42	6537.12
453.60	6530.09
453.78	6668.19
453.97	6607.33
454.15	6574.56
454.34	6597.97
454.52	6932.67
454.70	6825.00
454.89	6775.85
455.07	6867.13
455.26	6874.15
455.44	6986.50
455.62	7066.08
455.81	6932.67
455.99	6920.96
456.17	6918.62
456.36	7000.54
456.54	6993.52
456.73	7061.40
456.91	7332.90
457.09	7281.41
457.28	7260.34
457.46	7187.79
457.64	7403.11
457.83	7246.30
458.01	7300.13
458.19	7445.24
458.38	7358.64
458.56	7272.04
458.74	7468.65
458.93	7248.64
459.11	7459.29
459.29	7480.35
459.48	7541.21
459.66	7377.37
459.84	7527.16
460.03	7779.94
460.21	7693.34
460.39	7520.14
460.57	7545.89
460.76	7520.14
460.94	7866.54
461.12	7616.10
461.31	7707.38
461.49	7637.17
461.67	7611.42
461.85	7985.91
462.04	7861.86
462.22	8102.93
462.40	8135.70
462.59	7906.33
462.77	7988.25
462.95	8095.91
463.13	7885.26
463.32	7955.48
463.50	8088.89
463.68	8138.04
463.86	8100.59
464.05	8196.56
464.23	8147.40
464.41	8119.32
464.59	7995.27
464.78	8411.89
464.96	8409.54
465.14	8002.29
465.32	8320.60
465.50	8308.90
465.69	8472.74
465.87	8191.88
466.05	8198.90
466.23	8252.73
466.41	8304.22
466.60	8601.47
466.78	8365.07
466.96	8386.14
467.14	8512.53
467.32	8351.03
467.51	8622.53
467.69	8369.76
467.87	8442.31
468.05	8704.45
468.23	8561.68
468.41	8587.43
468.60	8624.87
468.78	8641.26
468.96	8498.49
469.14	8774.67
469.32	8774.67
469.50	8575.72
469.69	9081.28
469.87	9048.51
470.05	8910.42
470.23	8844.88
470.41	8910.42
470.59	9130.43
470.77	8863.61
470.95	9275.54
471.14	9163.20
471.32	8894.04
471.50	9303.63
471.68	9210.01
471.86	9413.63
472.04	9331.72
472.22	9516.62
472.40	9355.12
472.58	9423.00
472.77	9369.16
472.95	9558.75
473.13	9804.50
473.31	9645.35
473.49	9767.06
473.67	9521.30
473.85	9937.91
474.03	9984.73
474.21	10132.18
474.39	9928.55
474.57	10120.48
474.75	10094.73
474.93	10113.45
475.12	9961.32
475.30	10214.10
475.48	10415.38
475.66	10312.40
475.84	10040.90
476.02	10289.00
476.20	10415.38
476.38	10757.10
476.56	10839.02
476.74	10827.32
476.92	10773.49
477.10	10644.76
477.28	10993.50
477.46	10846.04
477.64	10932.64
477.82	11080.10
478.00	11517.78
478.18	11372.66
478.36	11318.83
478.54	11688.64
478.72	11637.14
478.90	11737.79
479.08	11686.29
479.26	11957.80
479.44	11910.99
479.62	11932.05
479.80	11985.88
479.98	12245.68
480.16	12299.52
480.34	12650.60
480.52	12376.75
480.70	12545.27
480.88	12306.54
481.06	12599.10
481.24	12746.56
481.41	12950.18
481.59	13158.49
481.77	12894.01
481.95	12931.46
482.13	13408.93
482.31	12996.99
482.49	13518.93
482.67	13362.12
482.85	13621.92
483.03	14101.73
483.21	14059.60
483.39	14085.34
483.57	13905.12
483.74	14108.75
483.92	14108.75
484.10	14141.52
484.28	14319.40
484.46	14642.39
484.64	14876.44
484.82	14810.91
485.00	14881.13
485.18	14752.40
485.35	15094.11
485.53	15115.18
485.71	15101.14
485.89	15222.84
486.07	15030.92
486.25	15445.20
486.43	15573.92
486.61	15688.61
486.78	16025.65
486.96	15761.17
487.14	16159.06
487.32	16283.11
487.50	16360.34
487.68	16180.12
487.85	16945.48
488.03	16886.97
488.21	16812.07
488.39	17109.32
488.57	17188.89
488.75	17132.72
488.92	17750.62
489.10	17635.94
489.28	18036.17
489.46	17813.82
489.64	17963.61
489.81	18249.16
489.99	18148.51
490.17	18663.43
490.35	18604.92
490.53	18499.59
490.70	18581.51
490.88	18841.31
491.06	19300.06
491.24	18981.74
491.41	19255.59
491.59	19012.17
491.77	19152.60
491.95	19571.56
492.13	19749.44
492.30	19957.75
492.48	19866.47
492.66	19623.05
492.84	20009.24
493.01	20109.88
493.19	20496.07
493.37	20276.06
493.54	20643.52
493.72	20741.83
493.90	20844.81
494.08	21048.44
494.25	21254.40
494.43	21181.85
494.61	21404.20
494.79	21233.34
494.96	21331.64
495.14	21273.13
495.32	21729.53
495.49	21745.92
495.67	22132.11
495.85	21956.57
496.02	22045.51
496.20	22520.63
496.38	22197.64
496.55	22405.95
496.73	23065.98
496.91	22843.63
497.09	22773.41
497.26	22991.08
497.44	22867.03
497.62	23283.65
497.79	23349.18
497.97	23243.86
498.14	23351.52
498.32	23660.48
498.50	23777.50
498.67	24098.16
498.85	23721.33
499.03	23995.17
499.20	24144.97
499.38	24283.06
499.56	24233.91
499.73	24154.33
499.91	24311.14
500.08	24388.38
500.26	24355.61
500.44	24613.07
500.61	24362.64
500.79	24493.71
500.97	25142.03
501.14	25179.48
501.32	25263.74
501.49	24875.21
501.67	25219.27
501.84	25369.07
502.02	25352.68
502.20	25493.12
502.37	25675.68
502.55	25568.01
502.72	25947.18
502.90	25680.36
503.07	25755.26
503.25	25893.35
503.43	25757.60
503.60	26148.46
503.78	26005.69
503.95	25982.29
504.13	26274.85
504.30	26518.27
504.48	26263.15
504.65	26426.99
504.83	26647.00
505.01	26714.87
505.18	26693.81
505.36	27218.09
505.53	26960.63
505.71	27171.28
505.88	27225.11
506.06	27248.52
506.23	27484.91
506.41	27538.74
506.58	27541.08
506.76	27637.05
506.93	27634.71
507.11	27810.25
507.28	27779.82
507.46	28098.13
507.63	27983.44
507.81	28084.09
507.98	27672.15
508.16	28065.36
508.33	28313.46
508.50	28526.45
508.68	28425.81
508.85	28821.36
509.03	28599.01
509.20	29032.00
509.38	28795.61
509.55	28865.83
509.73	29259.04
509.90	28797.95
510.08	29139.67
510.25	29043.71
510.42	29553.94
510.60	29043.71
510.77	29495.43
510.95	29577.35
511.12	29387.77
511.30	29605.44
511.47	30096.95
511.64	29900.34
511.82	30253.76
511.99	30092.27
512.17	29942.47
512.34	30003.33
512.51	30389.52
512.69	30279.51
512.86	30333.34
513.04	30771.02
513.21	30120.35
513.38	30635.27
513.56	30462.07
513.73	30513.56
513.90	30628.25
514.08	30635.27
514.25	30696.13
514.43	30747.62
514.60	30979.33
514.77	31229.77
514.95	31271.90
515.12	31459.14
515.29	31119.76
515.47	31838.31
515.64	31459.14
515.81	31063.59
515.99	31573.83
516.16	31770.43
516.33	31505.95
516.51	31826.60
516.68	31316.37
516.85	31644.04
517.03	31552.76
517.20	31709.58
517.37	32048.96
517.54	32091.09
517.72	32088.74
517.89	32140.24
518.06	31964.70
518.24	32039.59
518.41	32301.73
518.58	32187.05
518.75	32355.57
518.93	32467.91
519.10	32638.77
519.27	32613.02
519.45	32341.52
519.62	32929.00
519.79	33064.75
519.96	33254.33
520.14	33043.68
520.31	33113.90
520.48	33240.29
520.65	33261.35
520.83	33394.76
521.00	33806.70
521.17	33780.95
521.34	33638.18
521.52	33897.98
521.69	34113.31
521.86	34242.04
522.03	33406.47
522.20	33982.24
522.38	34232.68
522.55	33937.77
522.72	34356.72
522.89	34347.36
523.07	34462.05
523.24	34616.52
523.41	34756.96
523.58	34398.85
523.75	34831.85
523.92	34724.19
524.10	34445.66
524.27	35098.67
524.44	34829.51
524.61	35344.43
524.78	35330.39
524.96	35339.75
525.13	35070.59
525.30	35424.01
525.47	35508.27
525.64	35159.53
525.81	35622.95
525.98	35147.82
526.16	35086.97
526.33	34815.47
526.50	35000.37
526.67	35388.90
526.84	34761.64
527.01	35349.11
527.18	35807.86
527.36	35952.97
527.53	36077.02
527.70	35992.76
527.87	36528.74
528.04	35644.02
528.21	35978.72
528.38	36514.70
528.55	36334.48
528.72	36463.21
528.89	36664.49
529.07	36280.64
529.24	36116.81
529.41	37031.96
529.58	36439.80
529.75	36648.11
529.92	36802.58
530.09	36545.12
530.26	36823.65
530.43	36650.45
530.60	36926.63
530.77	37113.87
530.94	37432.19
531.11	36947.70
531.28	37331.54
531.46	37060.04
531.63	36931.31
531.80	37132.60
531.97	37368.99
532.14	36872.80
532.31	36800.24
532.48	37371.33
532.65	37565.60
532.82	37294.10
532.99	37500.06
533.16	37361.97
533.33	37701.35
533.50	37897.95
533.67	37579.64
533.84	37780.93
534.01	37816.04
534.18	37645.18
534.35	38036.05
534.52	37855.82
534.69	38108.60
534.86	38405.85
535.03	37839.44
535.20	38478.41
535.37	38281.80
535.54	38675.01
535.71	38103.92
535.88	38417.55
536.05	38101.58
536.22	38593.09
536.38	38504.15
536.55	37907.32
536.72	38464.36
536.89	38745.23
537.06	38499.47
537.23	38686.71
537.40	38555.64
537.57	39086.95
537.74	39152.48
537.91	38937.15
538.08	38902.04
538.25	38476.07
538.42	39157.16
538.59	39182.91
538.75	38536.92
538.92	38644.59
539.09	38988.64
539.26	38799.06
539.43	39196.95
539.60	39328.02
539.77	38817.78
539.94	39152.48
540.11	39154.82
540.28	39229.72
540.44	39449.73
540.61	39501.22
540.78	39346.75
540.95	39503.56
541.12	39077.58
541.29	39295.25
541.46	39641.65
541.62	39917.84
541.79	39814.85
541.96	39367.81
542.13	39370.15
542.30	39796.13
542.47	39688.46
542.63	39566.76
542.80	40039.54
542.97	40554.46
543.14	40250.19
543.31	40437.44
543.48	40252.53
543.64	40957.03
543.81	41139.60
543.98	40737.02
544.15	40444.46
544.32	40685.53
544.48	40446.80
544.65	40397.65
544.82	40868.09
544.99	40753.41
545.16	40858.73
545.32	40535.74
545.49	41020.23
545.66	41001.50
545.83	40573.19
546.00	41167.68
546.16	41081.08
546.33	40898.52
546.50	40772.13
546.67	41219.17
546.83	41090.44
547.00	40870.43
547.17	41008.53
547.34	41092.79
547.50	41209.81
547.67	41385.35
547.84	41668.56
548.00	41141.94
548.17	41457.91
548.34	41570.25
548.51	42337.95
548.67	42007.94
548.84	41586.64
549.01	41514.08
549.18	41511.74
549.34	41841.76
549.51	41968.15
549.68	41874.52
549.84	41930.70
550.01	41804.31
550.18	41588.98
550.34	41956.44
550.51	41680.26
550.68	42071.13
550.84	41656.85
551.01	42361.36
551.18	41596.00
551.34	41591.32
551.51	41970.49
551.68	42185.82
551.84	42464.34
552.01	42146.03
552.18	42370.72
552.34	42139.00
552.51	42029.00
552.68	42096.88
552.84	42630.52
553.01	42550.94
553.18	42639.88
553.34	42309.86
553.51	42129.64
553.67	42279.44
553.84	42066.45
554.01	42768.61
554.17	42859.89
554.34	42607.11
554.51	42569.66
554.67	42682.01
554.84	42834.14
555.00	42220.92
555.17	42412.85
555.33	42450.30
555.50	42845.85
555.67	42440.93
555.83	42527.53
556.00	43005.00
556.16	43105.65
556.33	43035.43
556.50	42625.84
556.66	42895.00
556.83	42344.97
556.99	43194.59
557.16	43241.40
557.32	42768.61
557.49	42801.38
557.65	42925.42
557.82	42810.74
557.98	43086.92
558.15	43283.53
558.32	43122.03
558.48	43248.42
558.65	43049.47
558.81	43161.82
558.98	42974.58
559.14	43217.99
559.31	43065.86
559.47	43463.75
559.64	43433.32
559.80	43828.87
559.97	43564.39
560.13	43030.75
560.30	43051.81
560.46	43267.14
560.63	43302.25
560.79	43592.48
560.96	43796.10
561.12	43887.39
561.29	43744.61
561.45	43449.70
561.61	43220.33
561.78	43023.73
561.94	43330.34
562.11	43545.67
562.27	43414.60
562.44	43288.21
562.60	43290.55
562.77	44004.41
562.93	43449.70
563.10	43934.20
563.26	43304.59
563.42	43889.73
563.59	43796.10
563.75	43622.90
563.92	43931.86
564.08	43503.54
564.24	43847.60
564.41	43594.82
564.57	43519.92
564.74	43667.37
564.90	43482.47
565.07	43887.39
565.23	43580.78
565.39	43821.85
565.56	43875.68
565.72	43442.68
565.88	43899.09
566.05	43721.21
566.21	43735.25
566.38	43976.33
566.54	43606.52
566.70	44329.75
566.87	44219.74
567.03	43852.28
567.19	44048.88
567.36	43878.02
567.52	43950.58
567.68	43896.75
567.85	43908.45
568.01	43861.64
568.17	44048.88
568.34	44051.22
568.50	44086.33
568.66	43746.95
568.83	44355.49
568.99	43761.00
569.15	44161.23
569.32	44093.35
569.48	43681.42
569.64	44414.01
569.81	44247.83
569.97	44477.20
570.13	43887.39
570.30	43381.83
570.46	43313.95
570.62	44172.93
570.78	43718.87
570.95	43906.11
571.11	44074.63
571.27	43948.24
571.43	44076.97
571.60	43995.05
571.76	44208.04
571.92	43730.57
572.09	43908.45
572.25	44334.43
572.41	44634.02
572.57	44435.07
572.74	44514.65
572.90	44144.84
573.06	44100.37
573.22	44589.55
573.38	44250.17
573.55	44144.84
573.71	44444.43
573.87	44076.97
574.03	43981.01
574.20	44076.97
574.36	44575.50
574.52	44210.38
574.68	44734.66
574.84	44514.65
575.01	44423.37
575.17	44172.93
575.33	44105.06
575.49	44524.01
575.65	44341.45
575.82	44802.53
575.98	44273.57
576.14	44734.66
576.30	44451.45
576.46	44318.04
576.62	44278.25
576.79	44079.31
576.95	44062.93
577.11	44411.67
577.27	44198.68
577.43	44421.03
577.59	44540.39
577.75	44107.40
577.92	44172.93
578.08	44009.09
578.24	44446.77
578.40	43856.96
578.56	44603.59
578.72	43985.69
578.88	44673.81
579.04	44451.45
579.21	44800.19
579.37	44280.60
579.53	44341.45
579.69	44285.28
579.85	44147.18
580.01	44374.22
580.17	44598.91
580.33	44615.29
580.49	44306.34
580.65	44832.96
580.82	44168.25
580.98	44556.78
581.14	44484.22
581.30	44364.85
581.46	44814.24
581.62	44851.69
581.78	44439.75
581.94	44648.06
582.10	44121.44
582.26	44601.25
582.42	44493.58
582.58	44612.95
582.74	44296.98
582.90	44692.53
583.06	44666.78
583.22	44509.97
583.38	45064.67
583.54	44790.83
583.70	44470.18
583.86	44982.76
584.02	44154.21
584.18	44388.26
584.34	44245.49
584.50	44346.13
584.66	44561.46
584.82	44030.16
584.98	44507.63
585.14	45113.83
585.30	44329.75
585.46	44847.00
585.62	44142.50
585.78	44594.23
585.94	44381.24
586.10	44006.75
586.26	44715.93
586.42	44650.40
586.58	44624.65
586.74	44336.77
586.90	44320.38
587.06	44311.02
587.22	44648.06
587.38	44488.90
587.54	44706.57
587.70	44945.31
587.86	44727.64
588.02	44715.93
588.18	44830.62
588.34	44275.91
588.49	44081.65
588.65	43791.42
588.81	44634.02
588.97	45162.98
589.13	44229.10
589.29	44580.18
589.45	44577.84
589.61	44704.23
589.77	44912.54
589.93	44662.10
590.08	44837.64
590.24	44910.20
