SpectraSuite Data File
++++++++++++++++++++++++++++++++++++
Date: Fri Oct 25 10:43:56 EDT 2013
User: price-jones
Dark Spectrum Present: No
Reference Spectrum Present: No
Number of Sampled Component Spectra: 1
Spectrometers: USB2+H05261
Integration Time (usec): 100000 (USB2+H05261)
Spectra Averaged: 1 (USB2+H05261)
Boxcar Smoothing: 0 (USB2+H05261)
Correct for Electrical Dark: No (USB2+H05261)
Strobe/Lamp Enabled: No (USB2+H05261)
Correct for Detector Non-linearity: No (USB2+H05261)
Correct for Stray Light: No (USB2+H05261)
Number of Pixels in Processed Spectrum: 2048
>>>>>Begin Processed Spectral Data<<<<<
365.73	110.01
365.92	110.01
366.12	110.01
366.32	0.00
366.52	14.04
366.72	67.88
366.91	2.34
367.11	4.68
367.31	0.00
367.51	11.70
367.70	30.43
367.90	56.17
368.10	0.00
368.30	79.58
368.49	0.00
368.69	65.54
368.89	35.11
369.09	42.13
369.28	32.77
369.48	84.26
369.68	58.51
369.87	88.94
370.07	84.26
370.27	102.98
370.47	198.95
370.66	402.57
370.86	447.04
371.06	535.98
371.25	477.47
371.45	461.09
371.65	440.02
371.84	461.09
372.04	418.96
372.24	440.02
372.44	519.60
372.63	552.37
372.83	507.90
373.03	475.13
373.22	550.03
373.42	458.74
373.62	535.98
373.81	594.50
374.01	566.41
374.21	578.11
374.40	526.62
374.60	564.07
374.79	559.39
374.99	627.26
375.19	568.75
375.38	505.56
375.58	498.53
375.78	573.43
375.97	648.33
376.17	580.45
376.37	512.58
376.56	627.26
376.76	629.60
376.95	631.94
377.15	671.73
377.35	725.57
377.54	732.59
377.74	681.10
377.93	641.31
378.13	664.71
378.33	596.84
378.52	645.99
378.72	674.07
378.91	645.99
379.11	713.86
379.31	674.07
379.50	648.33
379.70	685.78
379.89	683.44
380.09	730.25
380.28	751.31
380.48	732.59
380.68	634.29
380.87	737.27
381.07	713.86
381.26	840.25
381.46	774.72
381.65	727.91
381.85	758.33
382.04	716.20
382.24	660.03
382.43	681.10
382.63	718.54
382.83	809.83
383.02	812.17
383.22	763.01
383.41	770.04
383.61	830.89
383.80	788.76
384.00	697.48
384.19	854.30
384.39	851.96
384.58	755.99
384.78	823.87
384.97	870.68
385.17	807.48
385.36	833.23
385.56	842.59
385.75	830.89
385.95	828.55
386.14	910.47
386.34	924.51
386.53	779.40
386.72	901.11
386.92	896.43
387.11	950.26
387.31	917.49
387.50	943.24
387.70	889.40
387.89	926.85
388.09	877.70
388.28	903.45
388.48	983.02
388.67	924.51
388.86	954.94
389.06	936.21
389.25	994.73
389.45	978.34
389.64	966.64
389.84	1076.65
390.03	1111.75
390.22	1046.22
390.42	1060.26
390.61	952.60
390.81	1046.22
391.00	1069.62
391.19	1111.75
391.39	1060.26
391.58	1123.46
391.78	1071.97
391.97	1088.35
392.16	1041.54
392.36	1067.28
392.55	1093.03
392.75	1076.65
392.94	1032.18
393.13	1020.47
393.33	1036.86
393.52	1025.15
393.71	1221.76
393.91	1196.01
394.10	1135.16
394.29	1196.01
394.49	1158.57
394.68	1273.25
394.88	1320.06
395.07	1273.25
395.26	1256.87
395.46	1270.91
395.65	1294.32
395.84	1352.83
396.04	1282.61
396.23	1163.25
396.42	1090.69
396.62	1242.82
396.81	1224.10
397.00	1228.78
397.19	1317.72
397.39	1376.24
397.58	1451.13
397.77	1444.11
397.97	1446.45
398.16	1497.94
398.35	1530.71
398.55	1479.22
398.74	1610.29
398.93	1586.88
399.12	1474.54
399.32	1502.62
399.51	1570.50
399.70	1643.06
399.90	1657.10
400.09	1694.55
400.28	1680.50
400.47	1729.66
400.67	1643.06
400.86	1717.95
401.05	1680.50
401.24	1715.61
401.44	1706.25
401.63	1870.09
401.82	1729.66
402.01	1741.36
402.21	1781.15
402.40	1776.47
402.59	1720.29
402.78	1753.06
402.97	1809.23
403.17	1823.28
403.36	1907.54
403.55	1968.39
403.74	1867.75
403.93	1900.52
404.13	1963.71
404.32	2024.56
404.51	1956.69
404.70	1935.62
404.89	1973.07
405.09	1980.09
405.28	1966.05
405.47	2047.97
405.66	1998.82
405.85	2167.34
406.05	2043.29
406.24	2129.89
406.43	2085.42
406.62	2188.40
406.81	2235.21
407.00	2092.44
407.20	2113.50
407.39	2207.13
407.58	2265.64
407.77	2267.98
407.96	2244.57
408.15	2277.34
408.34	2258.62
408.54	2427.14
408.73	2324.15
408.92	2448.20
409.11	2399.05
409.30	2394.37
409.49	2387.35
409.68	2497.35
409.87	2246.91
410.07	2455.22
410.26	2478.63
410.45	2401.39
410.64	2539.48
410.83	2527.78
411.02	2558.21
411.21	2698.64
411.40	2593.31
411.59	2691.62
411.78	2761.83
411.98	2633.10
412.17	2775.88
412.36	2778.22
412.55	2850.77
412.74	2857.79
412.93	2855.45
413.12	2862.48
413.31	3028.65
413.50	2867.16
413.69	2867.16
413.88	3038.02
414.07	2970.14
414.26	3119.93
414.45	3038.02
414.64	2979.50
414.83	3126.96
415.02	3194.83
415.22	3185.47
415.41	3267.39
415.60	3199.51
415.79	3382.07
415.98	3293.13
416.17	3281.43
416.36	3475.70
416.55	3431.23
416.74	3365.69
416.93	3323.56
417.12	3344.63
417.31	3330.58
417.50	3379.73
417.69	3564.64
417.88	3492.08
418.07	3576.34
418.26	3623.15
418.45	3463.99
418.64	3693.37
418.83	3763.58
419.02	3599.74
419.21	3779.97
419.39	3604.42
419.58	3655.92
419.77	3709.75
419.96	3791.67
420.15	3796.35
420.34	3691.02
420.53	3894.65
420.72	3983.59
420.91	3871.25
421.10	3873.59
421.29	4049.13
421.48	3875.93
421.67	3955.51
421.86	3822.09
422.05	3911.04
422.24	3817.41
422.43	3957.85
422.61	3969.55
422.80	3969.55
422.99	4039.76
423.18	4044.45
423.37	4135.73
423.56	3971.89
423.75	4105.30
423.94	4028.06
424.13	3808.05
424.32	3817.41
424.50	4021.04
424.69	4098.28
424.88	4159.13
425.07	4004.66
425.26	4037.42
425.45	4093.60
425.64	4166.15
425.83	4161.47
426.01	4067.85
426.20	4028.06
426.39	4154.45
426.58	4035.08
426.77	4028.06
426.96	4102.96
427.15	4161.47
427.33	4234.03
427.52	4187.22
427.71	4327.65
427.90	4290.20
428.09	4339.35
428.28	4329.99
428.46	4252.75
428.65	4285.52
428.84	4449.36
429.03	4395.53
429.22	4241.05
429.40	4273.82
429.59	4276.16
429.78	3962.53
429.97	4016.36
430.16	4074.87
430.34	4107.64
430.53	4308.93
430.72	4334.67
430.91	4400.21
431.10	4397.87
431.28	4870.65
431.47	4901.08
431.66	4880.02
431.85	4751.29
432.03	4823.84
432.22	4716.18
432.41	4826.18
432.60	4805.12
432.79	5011.09
432.97	4919.81
433.16	4798.10
433.35	4910.44
433.54	4917.47
433.72	4926.83
433.91	4891.72
434.10	4828.53
434.28	4882.36
434.47	4926.83
434.66	5132.79
434.85	5048.54
435.03	5041.51
435.22	5144.50
435.41	5224.08
435.59	5163.22
435.78	5392.59
435.97	5430.04
436.16	5348.12
436.34	5348.12
436.53	5294.29
436.72	5425.36
436.90	5296.63
437.09	5345.78
437.28	5289.61
437.46	5406.64
437.65	5364.51
437.84	5317.70
438.02	5273.23
438.21	5486.22
438.40	5352.81
438.58	5371.53
438.77	5678.14
438.96	5596.22
439.14	5731.97
439.33	5792.83
439.52	5738.99
439.70	5834.96
439.89	5724.95
440.08	5818.57
440.26	5916.87
440.45	6017.52
440.63	6148.59
440.82	6160.29
441.01	6050.28
441.19	6207.10
441.38	6335.83
441.57	6417.75
441.75	6230.51
441.94	6499.67
442.12	6483.28
442.31	6546.48
442.50	6572.22
442.68	6497.33
442.87	6434.13
443.05	6609.67
443.24	6703.29
443.43	6630.74
443.61	6733.72
443.80	6909.26
443.98	6626.06
444.17	6628.40
444.35	6703.29
444.54	6904.58
444.73	6789.89
444.91	6820.32
445.10	6579.25
445.28	6665.85
445.47	6642.44
445.65	6745.42
445.84	6740.74
446.02	6906.92
446.21	6757.13
446.39	6691.59
446.58	6782.87
446.77	6960.75
446.95	6705.63
447.14	6918.62
447.32	7002.88
447.51	6857.77
447.69	6834.36
447.88	6951.39
448.06	6991.18
448.25	6869.47
448.43	7075.44
448.62	6995.86
448.80	6848.41
448.99	6878.83
449.17	7119.91
449.36	7059.06
449.54	7098.84
449.73	7253.32
449.91	7382.05
450.10	7445.24
450.28	7368.01
450.46	7393.75
450.65	7456.95
450.83	7510.78
451.02	7541.21
451.20	7456.95
451.39	7426.52
451.57	7478.01
451.76	7297.79
451.94	7473.33
452.13	7485.03
452.31	7583.34
452.49	7232.26
452.68	7410.14
452.86	7447.58
453.05	7676.96
453.23	7454.61
453.42	7627.81
453.60	7545.89
453.78	7751.85
453.97	7616.10
454.15	7660.57
454.34	7620.78
454.52	7801.01
454.70	7660.57
454.89	7791.64
455.07	7763.56
455.26	7887.61
455.44	7988.25
455.62	7941.44
455.81	7901.65
455.99	7892.29
456.17	8011.65
456.36	8021.02
456.54	8346.35
456.73	8358.05
456.91	8484.44
457.09	8358.05
457.28	8603.81
457.46	8362.73
457.64	8341.67
457.83	8297.20
458.01	8154.43
458.19	8524.23
458.38	8322.94
458.56	8657.64
458.74	8751.26
458.93	8662.32
459.11	8610.83
459.29	8713.81
459.48	8624.87
459.66	8608.49
459.84	8648.28
460.03	8985.32
460.21	8798.07
460.39	8847.22
460.57	8784.03
460.76	8856.59
460.94	8875.31
461.12	8819.14
461.31	8875.31
461.49	8891.70
461.67	8971.27
461.85	9228.73
462.04	8786.37
462.22	9172.56
462.40	9413.63
462.59	9085.96
462.77	9207.67
462.95	9254.48
463.13	9207.67
463.32	9057.87
463.50	9301.29
463.68	9048.51
463.86	9179.58
464.05	9177.24
464.23	9174.90
464.41	9418.32
464.59	9018.08
464.78	9525.98
464.96	9479.17
465.14	9317.67
465.32	9650.03
465.50	9643.01
465.69	9582.15
465.87	9680.46
466.05	9287.25
466.23	9563.43
466.41	9399.59
466.60	9479.17
466.78	9390.23
466.96	9584.49
467.14	9514.28
467.32	9654.71
467.51	9736.63
467.69	9535.34
467.87	9556.41
468.05	9900.47
468.23	9778.76
468.41	9593.86
468.60	9635.99
468.78	9980.04
468.96	9785.78
469.14	9888.76
469.32	10148.56
469.50	9734.29
469.69	9940.26
469.87	10031.54
470.05	9973.02
470.23	10204.74
470.41	10024.51
470.59	10125.16
470.77	10291.34
470.95	10235.16
471.14	10387.30
471.32	10328.78
471.50	10621.35
471.68	10684.55
471.86	10602.63
472.04	10693.91
472.22	10846.04
472.40	10661.14
472.58	10670.50
472.77	10764.12
472.95	10953.71
473.13	11206.48
473.31	10808.59
473.49	10810.93
473.67	11096.48
473.85	10988.82
474.03	11311.81
474.21	11225.21
474.39	11419.47
474.57	11580.97
474.75	11311.81
474.93	11531.82
475.12	11431.18
475.30	11693.32
475.48	11543.52
475.66	11779.92
475.84	11651.19
476.02	11653.53
476.20	11559.91
476.38	12121.63
476.56	12123.98
476.74	11983.54
476.92	12320.58
477.10	12248.02
477.28	12297.17
477.46	12210.57
477.64	12442.29
477.82	12683.36
478.00	13053.17
478.18	12879.97
478.36	13125.72
478.54	12896.35
478.72	13018.06
478.90	13327.01
479.08	13422.97
479.26	13341.05
479.44	13483.83
479.62	13741.29
479.80	13710.86
479.98	13858.31
480.16	14148.54
480.34	14038.53
480.52	14071.30
480.70	14099.39
480.88	14183.65
481.06	14221.10
481.24	14377.91
481.41	14633.03
481.59	14796.87
481.77	14850.70
481.95	14796.87
482.13	15122.20
482.31	14958.36
482.49	15286.04
482.67	15215.82
482.85	15506.05
483.03	15571.58
483.21	15908.62
483.39	15690.95
483.57	15662.86
483.74	15974.16
483.92	16149.70
484.10	16205.87
484.28	16531.20
484.46	16400.13
484.64	16688.02
484.82	16194.17
485.00	16664.61
485.18	16872.92
485.35	16985.27
485.53	16788.66
485.71	16659.93
485.89	16816.75
486.07	16802.71
486.25	17041.44
486.43	17228.68
486.61	17610.19
486.78	18015.10
486.96	17743.60
487.14	18174.26
487.32	18181.28
487.50	18628.32
487.68	18490.23
487.85	18665.77
488.03	19332.82
488.21	19157.28
488.39	19236.86
488.57	19089.41
488.75	19105.79
488.92	19541.13
489.10	19646.46
489.28	19674.54
489.46	20285.42
489.64	20084.14
489.81	20554.58
489.99	20840.13
490.17	20664.59
490.35	20793.32
490.53	20762.89
490.70	21034.39
490.88	21135.04
491.06	21315.26
491.24	21404.20
491.41	21153.76
491.59	21188.87
491.77	21113.97
491.95	21715.49
492.13	21982.31
492.30	22113.38
492.48	22038.48
492.66	22284.24
492.84	22628.30
493.01	22824.90
493.19	22473.82
493.37	22717.24
493.54	22967.68
493.72	23110.45
493.90	23377.27
494.08	23655.79
494.25	23618.35
494.43	23828.99
494.61	24009.22
494.79	23934.32
494.96	23889.85
495.14	24201.14
495.32	24463.28
495.49	24357.96
495.67	24739.46
495.85	25029.69
496.02	25010.96
496.20	24809.68
496.38	25167.78
496.55	25069.48
496.73	25326.94
496.91	25965.90
497.09	25818.45
497.26	25715.47
497.44	25596.10
497.62	26057.18
497.79	26059.52
497.97	25661.63
498.14	26092.29
498.32	25982.29
498.50	26064.21
498.67	26916.16
498.85	26845.94
499.03	26707.85
499.20	26881.05
499.38	26862.33
499.56	26955.95
499.73	27040.21
499.91	27295.33
500.08	27482.57
500.26	26806.16
500.44	27236.81
500.61	27477.89
500.79	27091.70
500.97	27157.24
501.14	27775.14
501.32	27634.71
501.49	27695.56
501.67	27730.67
501.84	28371.97
502.02	27955.36
502.20	28926.68
502.37	28697.31
502.55	28451.55
502.72	28840.08
502.90	28676.24
503.07	28678.58
503.25	28877.53
503.43	28957.11
503.60	29024.98
503.78	28837.74
503.95	28856.46
504.13	29083.50
504.30	29387.77
504.48	29439.26
504.65	29724.80
504.83	29649.91
505.01	29701.40
505.18	29886.30
505.36	30345.05
505.53	30391.86
505.71	30478.46
505.88	30368.45
506.06	30108.65
506.23	30274.83
506.41	30368.45
506.58	30756.98
506.76	30361.43
506.93	30808.47
507.11	30539.31
507.28	30902.09
507.46	30991.03
507.63	30630.59
507.81	30976.99
507.98	30595.48
508.16	30904.43
508.33	31452.12
508.50	31510.63
508.68	31522.34
508.85	31620.64
509.03	31714.26
509.20	31824.26
509.38	32004.49
509.55	31983.42
509.73	31821.92
509.90	32280.67
510.08	32006.83
510.25	31915.54
510.42	32219.81
510.60	32519.40
510.77	32620.05
510.95	32685.58
511.12	32886.87
511.30	32739.41
511.47	33167.73
511.64	32987.51
511.82	33062.41
511.99	32664.52
512.17	32879.85
512.34	32828.35
512.51	33259.01
512.69	33214.54
512.86	33453.28
513.04	34019.69
513.21	33652.22
513.38	33261.35
513.56	33778.61
513.73	33848.83
513.90	33727.12
514.08	33593.71
514.25	33750.52
514.43	33897.98
514.60	34256.08
514.77	34686.74
514.95	34071.18
515.12	34309.91
515.29	34511.20
515.47	34370.77
515.64	34934.84
515.81	34473.75
515.99	35103.35
516.16	34553.33
516.33	34223.31
516.51	34279.49
516.68	34375.45
516.85	34007.98
517.03	33902.66
517.20	34768.66
517.37	35086.97
517.54	34848.24
517.72	35140.80
517.89	34352.04
518.06	34792.06
518.24	34752.27
518.41	34911.43
518.58	35271.87
518.75	35314.00
518.93	35566.78
519.10	35709.55
519.27	35651.04
519.45	36051.27
519.62	36105.10
519.79	35995.10
519.96	36196.38
520.14	36175.32
520.31	35637.00
520.48	36123.83
520.65	36102.76
520.83	36891.52
521.00	36694.92
521.17	36847.05
521.34	36898.55
521.52	37092.81
521.69	36662.15
521.86	36987.49
522.03	37174.73
522.20	36994.51
522.38	37109.19
522.55	37034.30
522.72	37266.01
522.89	37062.38
523.07	37593.68
523.24	37263.67
523.41	37867.53
523.58	37640.50
523.75	38085.20
523.92	38291.16
524.10	37851.14
524.27	38162.43
524.44	37780.93
524.61	38181.16
524.78	38288.82
524.96	38099.24
525.13	38426.92
525.30	38717.14
525.47	38721.82
525.64	38057.11
525.81	38370.74
525.98	37935.40
526.16	38082.86
526.33	37961.15
526.50	38302.87
526.67	37968.17
526.84	37928.38
527.01	38504.15
527.18	38527.56
527.36	38785.02
527.53	39002.69
527.70	39161.84
527.87	39391.22
528.04	38923.11
528.21	39065.88
528.38	39248.44
528.55	39882.73
528.72	39878.05
528.89	39613.57
529.07	39997.41
529.24	39700.17
529.41	39519.95
529.58	39133.76
529.75	39470.79
529.92	39526.97
530.09	39995.07
530.26	40020.82
530.43	39723.57
530.60	39786.77
530.77	39840.60
530.94	40416.37
531.11	40046.57
531.28	40212.74
531.46	40456.16
531.63	40495.95
531.80	40566.16
531.97	40500.63
532.14	39988.05
532.31	40107.42
532.48	39894.43
532.65	40421.05
532.82	40289.98
532.99	40428.07
533.16	40369.56
533.33	40847.03
533.50	41062.36
533.67	41015.55
533.84	40559.14
534.01	40680.85
534.18	40788.52
534.35	41132.57
534.52	41256.62
534.69	41696.64
534.86	41696.64
535.03	41160.66
535.20	41736.43
535.37	42106.24
535.54	41645.15
535.71	41600.68
535.88	41846.44
536.05	41413.44
536.22	41673.24
536.38	41904.95
536.55	41301.09
536.72	41574.94
536.89	41516.42
537.06	41647.49
537.23	41977.51
537.40	41937.72
537.57	41488.34
537.74	42164.75
537.91	42073.47
538.08	41904.95
538.25	41708.35
538.42	42017.30
538.59	42710.10
538.75	41661.54
538.92	42057.09
539.09	42361.36
539.26	41989.21
539.43	42050.06
539.60	41902.61
539.77	42131.98
539.94	42359.02
540.11	42019.64
540.28	42373.06
540.44	42157.73
540.61	42410.51
540.78	42148.37
540.95	42330.93
541.12	42209.22
541.29	42464.34
541.46	42478.38
541.62	42672.65
541.79	43023.73
541.96	42361.36
542.13	43110.33
542.30	42553.28
542.47	42913.72
542.63	42574.34
542.80	43360.76
542.97	43271.82
543.14	43533.96
543.31	43625.25
543.48	43126.71
543.64	43770.36
543.81	43557.37
543.98	43985.69
544.15	43599.50
544.32	43529.28
544.48	43955.26
544.65	43917.81
544.82	43955.26
544.99	43606.52
545.16	43880.36
545.32	43892.07
545.49	44151.87
545.66	43999.73
545.83	44009.09
546.00	43906.11
546.16	43995.05
546.33	44102.71
546.50	43564.39
546.67	43601.84
546.83	43737.59
547.00	43966.96
547.17	44032.50
547.34	43629.93
547.50	43929.51
547.67	44355.49
547.84	44074.63
548.00	44774.45
548.17	44669.12
548.34	44718.28
548.51	44755.72
548.67	44758.06
548.84	44210.38
549.01	44406.98
549.18	44713.59
549.34	44575.50
549.51	44676.15
549.68	44664.44
549.84	44622.31
550.01	45125.53
550.18	44538.05
550.34	44289.96
550.51	44554.44
550.68	44783.81
550.84	44605.93
551.01	44910.20
551.18	44863.39
551.34	45008.50
551.51	44994.46
551.68	45106.80
551.84	45088.08
552.01	45216.81
552.18	45212.13
552.34	44769.77
552.51	44687.85
552.68	45214.47
552.84	45303.41
553.01	45277.66
553.18	44772.11
553.34	45390.01
553.51	44741.68
553.67	45139.57
553.84	45570.23
554.01	45418.10
554.17	45675.55
554.34	45890.88
554.51	45303.41
554.67	45450.86
554.84	45504.70
555.00	45584.27
555.17	45123.19
555.33	45408.73
555.50	45801.94
555.67	45392.35
555.83	45720.02
556.00	45350.22
556.16	45755.13
556.33	45317.45
556.50	45684.92
556.66	45689.60
556.83	45612.36
556.99	45811.31
557.16	46204.52
557.32	45968.12
557.49	45975.14
557.65	45605.34
557.82	45661.51
557.98	45727.05
558.15	45858.12
558.32	45614.70
558.48	45635.77
558.65	45614.70
558.81	45771.52
558.98	45851.09
559.14	45638.11
559.31	45832.37
559.47	45830.03
559.64	46061.74
559.80	45982.16
559.97	45965.78
560.13	45343.20
560.30	45925.99
560.46	45890.88
560.63	46281.75
560.79	46234.94
560.96	46167.07
561.12	45916.63
561.29	45612.36
561.45	46258.35
561.61	45928.33
561.78	45918.97
561.94	45633.42
562.11	45902.59
562.27	45752.79
562.44	45949.40
562.60	46344.95
562.77	46176.43
562.93	46113.23
563.10	46527.51
563.26	46248.99
563.42	46300.48
563.59	46384.74
563.75	46024.29
563.92	46267.71
564.08	46061.74
564.24	46209.20
564.41	46146.00
564.57	46323.88
564.74	46192.81
564.90	46466.66
565.07	46295.80
565.23	46653.90
565.39	46265.37
565.56	46473.68
565.72	45832.37
565.88	46344.95
566.05	46181.11
566.21	46080.47
566.38	45827.69
566.54	46288.77
566.70	46288.77
566.87	46827.10
567.03	46665.60
567.19	47086.90
567.36	46796.67
567.52	46478.36
567.68	46700.71
567.85	46181.11
568.01	46094.51
568.17	46394.10
568.34	46630.49
568.50	46389.42
568.66	46181.11
568.83	46384.74
568.99	46061.74
569.15	46174.09
569.32	46806.03
569.48	45965.78
569.64	46904.34
569.81	46522.83
569.97	46696.03
570.13	46312.18
570.30	46731.14
570.46	46199.83
570.62	46021.95
570.78	46270.05
570.95	46239.62
571.11	46630.49
571.27	46199.83
571.43	46480.70
571.60	46443.25
571.76	46466.66
571.92	46958.17
572.09	46150.68
572.25	46593.04
572.41	46705.39
572.57	46775.61
572.74	47009.66
572.90	46239.62
573.06	46433.89
573.22	46990.94
573.38	46777.95
573.55	46831.78
573.71	46719.43
573.87	46981.57
574.03	47023.70
574.20	46766.24
574.36	46623.47
574.52	46541.55
574.68	46808.37
574.84	46866.89
575.01	46527.51
575.17	46806.03
575.33	46136.64
575.49	46513.47
575.65	46904.34
575.82	46754.54
575.98	46473.68
576.14	46663.26
576.30	46990.94
576.46	46763.90
576.62	46272.39
576.79	46363.67
576.95	46616.45
577.11	46869.23
577.27	47077.54
577.43	46555.60
577.59	46368.35
577.75	46543.89
577.92	46307.50
578.08	46010.25
578.24	46536.87
578.40	46883.27
578.56	46745.18
578.72	46836.46
578.88	46958.17
579.04	46707.73
579.21	46522.83
579.37	46337.93
579.53	46588.36
579.69	46220.90
579.85	46326.22
580.01	46883.27
580.17	46405.80
580.33	46635.17
580.49	46494.74
580.65	46817.74
580.82	46546.23
580.98	46583.68
581.14	46382.40
581.30	46960.51
581.46	46628.15
581.62	46714.75
581.78	46780.29
581.94	46693.69
582.10	46653.90
582.26	46787.31
582.42	47288.18
582.58	47297.55
582.74	46787.31
582.90	46897.31
583.06	46714.75
583.22	46986.25
583.38	46997.96
583.54	46967.53
583.70	47056.47
583.86	46628.15
584.02	46429.21
584.18	46916.04
584.34	46899.65
584.50	46686.67
584.66	46796.67
584.82	46499.42
584.98	46953.49
585.14	46625.81
585.30	46611.77
585.46	46630.49
585.62	46244.30
585.78	46637.51
585.94	46068.76
586.10	47021.36
586.26	46450.27
586.42	46979.23
586.58	47117.32
586.74	47037.75
586.90	46260.69
587.06	46689.01
587.22	46681.98
587.38	46614.11
587.54	47187.54
587.70	46775.61
587.86	46401.12
588.02	46820.08
588.18	46841.14
588.34	46557.94
588.49	45930.67
588.65	46176.43
588.81	46176.43
588.97	46246.65
589.13	46064.08
589.29	46433.89
589.45	46609.43
589.61	46440.91
589.77	46745.18
589.93	47168.82
