SpectraSuite Data File
++++++++++++++++++++++++++++++++++++
Date: Fri Oct 25 11:33:11 EDT 2013
User: price-jones
Dark Spectrum Present: No
Reference Spectrum Present: No
Number of Sampled Component Spectra: 1
Spectrometers: USB2+H05261
Integration Time (usec): 100000 (USB2+H05261)
Spectra Averaged: 1 (USB2+H05261)
Boxcar Smoothing: 0 (USB2+H05261)
Correct for Electrical Dark: No (USB2+H05261)
Strobe/Lamp Enabled: No (USB2+H05261)
Correct for Detector Non-linearity: No (USB2+H05261)
Correct for Stray Light: No (USB2+H05261)
Number of Pixels in Processed Spectrum: 2048
>>>>>Begin Processed Spectral Data<<<<<
365.73	243.42
365.92	243.42
366.12	243.42
366.32	205.97
366.52	173.20
366.72	180.22
366.91	212.99
367.11	189.58
367.31	201.29
367.51	196.60
367.70	135.75
367.90	180.22
368.10	177.88
368.30	177.88
368.49	170.86
368.69	201.29
368.89	175.54
369.09	138.09
369.28	241.08
369.48	194.26
369.68	224.69
369.87	227.03
370.07	283.20
370.27	322.99
370.47	318.31
370.66	433.00
370.86	477.47
371.06	526.62
371.25	538.32
371.45	594.50
371.65	592.16
371.84	617.90
372.04	496.19
372.24	510.24
372.44	486.83
372.63	610.88
372.83	678.76
373.03	608.54
373.22	645.99
373.42	631.94
373.62	575.77
373.81	631.94
374.01	578.11
374.21	613.22
374.40	613.22
374.60	629.60
374.79	589.82
374.99	615.56
375.19	716.20
375.38	671.73
375.58	685.78
375.78	685.78
375.97	753.65
376.17	622.58
376.37	594.50
376.56	629.60
376.76	678.76
376.95	641.31
377.15	734.93
377.35	676.41
377.54	688.12
377.74	643.65
377.93	685.78
378.13	716.20
378.33	791.10
378.52	716.20
378.72	676.41
378.91	706.84
379.11	784.08
379.31	753.65
379.50	704.50
379.70	767.70
379.89	753.65
380.09	655.35
380.28	706.84
380.48	748.97
380.68	781.74
380.87	727.91
381.07	753.65
381.26	746.63
381.46	744.29
381.65	800.46
381.85	699.82
382.04	774.72
382.24	795.78
382.43	840.25
382.63	667.05
382.83	746.63
383.02	823.87
383.22	814.51
383.41	842.59
383.61	821.53
383.80	720.88
384.00	784.08
384.19	800.46
384.39	844.93
384.58	833.23
384.78	805.14
384.97	819.19
385.17	844.93
385.36	917.49
385.56	849.61
385.75	760.67
385.95	823.87
386.14	990.05
386.34	849.61
386.53	910.47
386.72	945.58
386.92	933.87
387.11	870.68
387.31	917.49
387.50	849.61
387.70	870.68
387.89	870.68
388.09	924.51
388.28	891.74
388.48	992.39
388.67	966.64
388.86	978.34
389.06	908.13
389.25	968.98
389.45	973.66
389.64	961.96
389.84	931.53
390.03	926.85
390.22	1067.28
390.42	976.00
390.61	915.15
390.81	1041.54
391.00	999.41
391.19	987.71
391.39	968.98
391.58	1029.84
391.78	1008.77
391.97	994.73
392.16	997.07
392.36	1163.25
392.55	1067.28
392.75	1093.03
392.94	1083.67
393.13	1062.60
393.33	1046.22
393.52	1086.01
393.71	1036.86
393.91	1146.86
394.10	1104.73
394.29	1074.31
394.49	1146.86
394.68	1109.41
394.88	1097.71
395.07	1151.54
395.26	1090.69
395.46	1104.73
395.65	1170.27
395.84	1249.85
396.04	1179.63
396.23	1137.50
396.42	1203.04
396.62	1254.53
396.81	1231.12
397.00	1177.29
397.19	1263.89
397.39	1322.40
397.58	1291.98
397.77	1277.93
397.97	1287.29
398.16	1235.80
398.35	1270.91
398.55	1303.68
398.74	1275.59
398.93	1284.95
399.12	1261.55
399.32	1338.79
399.51	1329.42
399.70	1413.68
399.90	1409.00
400.09	1355.17
400.28	1416.02
400.47	1341.13
400.67	1401.98
400.86	1394.96
401.05	1404.32
401.24	1441.77
401.44	1425.39
401.63	1399.64
401.82	1425.39
402.01	1462.83
402.21	1561.14
402.40	1544.75
402.59	1577.52
402.78	1481.56
402.97	1460.49
403.17	1530.71
403.36	1432.41
403.55	1565.82
403.74	1638.38
403.93	1607.95
404.13	1664.12
404.32	1631.35
404.51	1568.16
404.70	1664.12
404.89	1643.06
405.09	1671.14
405.28	1666.46
405.47	1671.14
405.66	1694.55
405.85	1778.81
406.05	1739.02
406.24	1764.76
406.43	1694.55
406.62	1811.57
406.81	1825.62
407.00	1762.42
407.20	1797.53
407.39	1755.40
407.58	1788.17
407.77	1872.43
407.96	1823.28
408.15	1867.75
408.34	1856.04
408.54	1921.58
408.73	1968.39
408.92	1961.37
409.11	1980.09
409.30	1998.82
409.49	1942.64
409.68	2059.67
409.87	2057.33
410.07	2043.29
410.26	2108.82
410.45	2064.35
410.64	2162.66
410.83	2111.16
411.02	2155.63
411.21	2237.55
411.40	2172.02
411.59	2228.19
411.78	2143.93
411.98	2272.66
412.17	2230.53
412.36	2349.90
412.55	2249.25
412.74	2413.09
412.93	2427.14
413.12	2462.24
413.31	2403.73
413.50	2464.58
413.69	2354.58
413.88	2420.11
414.07	2476.29
414.26	2576.93
414.45	2565.23
414.64	2605.02
414.83	2621.40
415.02	2565.23
415.22	2672.89
415.41	2626.08
415.60	2736.09
415.79	2684.59
415.98	2682.25
416.17	2808.64
416.36	2825.03
416.55	2818.00
416.74	2663.53
416.93	2848.43
417.12	2836.73
417.31	2963.12
417.50	2956.10
417.69	2916.31
417.88	2923.33
418.07	2965.46
418.26	3073.12
418.45	3033.33
418.64	2963.12
418.83	3026.31
419.02	2991.20
419.21	3148.02
419.39	3208.87
419.58	3117.59
419.77	3023.97
419.96	3199.51
420.15	3194.83
420.34	3087.17
420.53	3248.66
420.72	3311.86
420.91	3293.13
421.10	3201.85
421.29	3318.88
421.48	3159.72
421.67	3332.92
421.86	3279.09
422.05	3166.74
422.24	3272.07
422.43	3461.65
422.61	3447.61
422.80	3482.72
422.99	3452.29
423.18	3449.95
423.37	3438.25
423.56	3323.56
423.75	3386.76
423.94	3332.92
424.13	3126.96
424.32	3222.92
424.50	3557.61
424.69	3604.42
424.88	3503.78
425.07	3426.54
425.26	3445.27
425.45	3361.01
425.64	3496.76
425.83	3351.65
426.01	3513.14
426.20	3616.13
426.39	3543.57
426.58	3499.10
426.77	3391.44
426.96	3686.34
427.15	3531.87
427.33	3625.49
427.52	3676.98
427.71	3733.15
427.90	3625.49
428.09	3606.77
428.28	3613.79
428.46	3700.39
428.65	3679.32
428.84	3831.46
429.03	3829.12
429.22	3719.11
429.40	3859.54
429.59	3756.56
429.78	3660.60
429.97	3728.47
430.16	3782.31
430.34	3925.08
430.53	3990.61
430.72	3908.69
430.91	3936.78
431.10	3985.93
431.28	4025.72
431.47	4053.81
431.66	4128.70
431.85	4007.00
432.03	4182.54
432.22	4051.47
432.41	3983.59
432.60	4180.20
432.79	4102.96
432.97	4030.40
433.16	4051.47
433.35	4196.58
433.54	4231.69
433.72	4332.33
433.91	4245.73
434.10	4184.88
434.28	4166.15
434.47	4259.78
434.66	4367.44
434.85	4278.50
435.03	4271.48
435.22	4273.82
435.41	4491.49
435.59	4339.35
435.78	4397.87
435.97	4355.74
436.16	4397.87
436.34	4547.66
436.53	4517.23
436.72	4608.51
436.90	4435.32
437.09	4557.02
437.28	4458.72
437.46	4470.42
437.65	4503.19
437.84	4622.56
438.02	4685.75
438.21	4753.63
438.40	4552.34
438.58	4788.74
438.77	4910.44
438.96	4718.52
439.14	4887.04
439.33	4889.38
439.52	4919.81
439.70	4973.64
439.89	5011.09
440.08	5018.11
440.26	5088.32
440.45	4973.64
440.63	5121.09
440.82	5331.74
441.01	5071.94
441.19	5221.74
441.38	5467.49
441.57	5212.37
441.75	5348.12
441.94	5479.19
442.12	5540.05
442.31	5444.09
442.50	5418.34
442.68	5411.32
442.87	5619.63
443.05	5621.97
443.24	5600.90
443.43	5631.33
443.61	5703.89
443.80	5760.06
443.98	5488.56
444.17	5458.13
444.35	5664.10
444.54	5767.08
444.73	5727.29
444.91	5811.55
445.10	5703.89
445.28	5558.77
445.47	5540.05
445.65	5776.44
445.84	5696.86
446.02	5734.31
446.21	5675.80
446.39	5678.14
446.58	5727.29
446.77	5881.77
446.95	5593.88
447.14	5858.36
447.32	5820.91
447.51	5743.67
447.69	5729.63
447.88	5727.29
448.06	5757.72
448.25	5696.86
448.43	5856.02
448.62	5909.85
448.80	5930.92
448.99	5799.85
449.17	6019.86
449.36	6047.94
449.54	6193.06
449.73	6076.03
449.91	6106.46
450.10	6003.47
450.28	6387.32
450.46	6263.27
450.65	6153.27
450.83	6118.16
451.02	6164.97
451.20	6221.14
451.39	6218.80
451.57	6225.82
451.76	6092.41
451.94	6186.04
452.13	6392.00
452.31	6565.20
452.49	6277.32
452.68	6356.90
452.86	6392.00
453.05	6581.59
453.23	6392.00
453.42	6389.66
453.60	6326.47
453.78	6499.67
453.97	6333.49
454.15	6389.66
454.34	6410.73
454.52	6593.29
454.70	6712.66
454.89	6640.10
455.07	6612.01
455.26	6677.55
455.44	6787.55
455.62	6665.85
455.81	6729.04
455.99	6867.13
456.17	6857.77
456.36	6794.58
456.54	6944.37
456.73	6909.26
456.91	7185.44
457.09	7030.97
457.28	7218.21
457.46	7183.10
457.64	7185.44
457.83	7087.14
458.01	6991.18
458.19	7276.73
458.38	7150.34
458.56	7272.04
458.74	7243.96
458.93	7190.13
459.11	7300.13
459.29	7337.58
459.48	7445.24
459.66	7382.05
459.84	7475.67
460.03	7290.77
460.21	7541.21
460.39	7625.47
460.57	7581.00
460.76	7672.28
460.94	7630.15
461.12	7496.74
461.31	7693.34
461.49	7475.67
461.67	7597.38
461.85	7679.30
462.04	7609.08
462.22	7971.86
462.40	7698.02
462.59	8072.51
462.77	7761.22
462.95	7857.18
463.13	7838.45
463.32	7974.21
463.50	8004.63
463.68	8105.28
463.86	8046.76
464.05	7826.75
464.23	7992.93
464.41	7922.71
464.59	7784.62
464.78	8152.09
464.96	8163.79
465.14	7946.12
465.32	8088.89
465.50	8138.04
465.69	8308.90
465.87	8180.17
466.05	8201.24
466.23	8128.68
466.41	8142.72
466.60	8428.27
466.78	8119.32
466.96	8201.24
467.14	8503.17
467.32	8315.92
467.51	8411.89
467.69	8318.26
467.87	8428.27
468.05	8454.02
468.23	8428.27
468.41	8355.71
468.60	8435.29
468.78	8439.97
468.96	8468.06
469.14	8524.23
469.32	8713.81
469.50	8496.14
469.69	8697.43
469.87	8849.57
470.05	8844.88
470.23	8985.32
470.41	8795.73
470.59	8908.08
470.77	8753.60
470.95	8807.44
471.14	9116.39
471.32	8936.17
471.50	9088.30
471.68	9217.03
471.86	9214.69
472.04	9076.60
472.22	9275.54
472.40	9259.16
472.58	9280.22
472.77	9348.10
472.95	9423.00
473.13	9645.35
473.31	9497.89
473.49	9437.04
473.67	9563.43
473.85	9544.70
474.03	9806.84
474.21	9802.16
474.39	10047.92
474.57	9956.64
474.75	9909.83
474.93	9951.96
475.12	10080.69
475.30	10150.90
475.48	10244.52
475.66	10153.24
475.84	10244.52
476.02	10349.85
476.20	10406.02
476.38	10406.02
476.56	10665.82
476.74	10675.18
476.92	10572.20
477.10	10553.48
477.28	10958.39
477.46	11094.14
477.64	10874.13
477.82	11152.65
478.00	11424.15
478.18	10984.13
478.36	11265.00
478.54	11307.13
478.72	11609.06
478.90	11709.70
479.08	11714.38
479.26	11667.57
479.44	11833.75
479.62	11845.45
479.80	12191.85
479.98	12095.89
480.16	12285.47
480.34	12259.73
480.52	12418.88
480.70	12428.24
480.88	12362.71
481.06	12463.35
481.24	12514.84
481.41	12711.45
481.59	12868.27
481.77	12889.33
481.95	12952.52
482.13	13153.81
482.31	13018.06
482.49	13570.43
482.67	13532.98
482.85	13481.49
483.03	13652.34
483.21	13610.22
483.39	13919.17
483.57	13797.46
483.74	14312.38
483.92	14333.44
484.10	14295.99
484.28	14469.19
484.46	14501.96
484.64	14895.17
484.82	14941.98
485.00	14754.74
485.18	15096.46
485.35	15389.02
485.53	15253.27
485.71	15082.41
485.89	15695.63
486.07	15550.52
486.25	15695.63
486.43	15761.17
486.61	15791.59
486.78	15873.51
486.96	15791.59
487.14	16315.87
487.32	16421.20
487.50	16472.69
487.68	16545.25
487.85	16659.93
488.03	16924.41
488.21	17226.34
488.39	17128.04
488.57	17142.08
488.75	17406.56
488.92	17577.42
489.10	17659.34
489.28	17825.52
489.46	17738.92
489.64	17940.21
489.81	18284.26
489.99	18284.26
490.17	18558.11
490.35	18333.42
490.53	18831.95
490.70	18874.08
490.88	18562.79
491.06	18937.27
491.24	19253.25
491.41	19211.12
491.59	19389.00
491.77	19243.88
491.95	19632.41
492.13	19419.42
492.30	19761.14
492.48	19719.01
492.66	19981.15
492.84	20081.80
493.01	20194.14
493.19	20320.53
493.37	20453.94
493.54	20252.66
493.72	20753.53
493.90	21010.99
494.08	20884.60
494.25	21324.62
494.43	21362.07
494.61	21479.10
494.79	21710.81
494.96	21542.29
495.14	21661.66
495.32	21909.75
495.49	21923.80
495.67	21858.26
495.85	21935.50
496.02	22382.54
496.20	22415.31
496.38	22412.97
496.55	22478.50
496.73	23215.77
496.91	22934.91
497.09	23278.97
497.26	23021.51
497.44	23239.18
497.62	23058.96
497.79	23831.33
497.97	23693.24
498.14	23798.57
498.32	23960.06
498.50	23695.58
498.67	24063.05
498.85	23824.31
499.03	24322.85
499.20	24489.03
499.38	24283.06
499.56	24582.65
499.73	24797.98
499.91	25020.33
500.08	24896.28
500.26	24980.54
500.44	25135.01
500.61	25167.78
500.79	24929.05
500.97	25366.73
501.14	25511.84
501.32	25565.67
501.49	25792.70
501.67	25603.12
501.84	25558.65
502.02	26075.91
502.20	26361.45
502.37	25933.14
502.55	25898.03
502.72	26272.51
502.90	26059.52
503.07	26663.38
503.25	26419.97
503.43	26464.44
503.60	26773.39
503.78	26639.98
503.95	26270.17
504.13	26944.25
504.30	26738.28
504.48	26871.69
504.65	27323.41
504.83	27253.20
505.01	27632.36
505.18	27555.13
505.36	27800.88
505.53	27594.92
505.71	27505.98
505.88	27976.42
506.06	27236.81
506.23	28203.46
506.41	27676.83
506.58	27957.70
506.76	28121.54
506.93	28203.46
507.11	28411.76
507.28	28496.02
507.46	28570.92
507.63	28481.98
507.81	28774.55
507.98	28704.33
508.16	28807.31
508.33	28856.46
508.50	28968.81
508.68	29174.78
508.85	29371.38
509.03	29118.60
509.20	29525.86
509.38	29827.79
509.55	29804.38
509.73	29722.46
509.90	30005.67
510.08	29778.64
510.25	29635.86
510.42	29841.83
510.60	30443.35
510.77	30197.59
510.95	30593.14
511.12	30452.71
511.30	30359.09
511.47	30335.68
511.64	30071.20
511.82	30424.62
511.99	30822.51
512.17	30979.33
512.34	30934.86
512.51	31035.50
512.69	31133.81
512.86	30974.65
513.04	30838.90
513.21	31405.31
513.38	31243.81
513.56	31267.22
513.73	31229.77
513.90	31487.23
514.08	31679.15
514.25	31901.50
514.43	31978.74
514.60	31957.67
514.77	31950.65
514.95	32208.11
515.12	31604.25
515.29	31878.10
515.47	32180.03
515.64	32381.31
515.81	32376.63
515.99	32458.55
516.16	32341.52
516.33	32306.41
516.51	32856.44
516.68	32786.22
516.85	32811.97
517.03	33141.99
517.20	33137.30
517.37	32921.98
517.54	33137.30
517.72	33085.81
517.89	33305.82
518.06	32856.44
518.24	33390.08
518.41	33153.69
518.58	33322.21
518.75	33345.61
518.93	33500.09
519.10	33731.80
519.27	33542.22
519.45	34167.14
519.62	33965.85
519.79	34342.68
519.96	34433.96
520.14	34440.98
520.31	33935.43
520.48	34080.54
520.65	34567.37
520.83	34660.99
521.00	34597.80
521.17	34712.49
521.34	34525.24
521.52	35047.18
521.69	34876.32
521.86	34911.43
522.03	35484.86
522.20	35063.57
522.38	35328.05
522.55	35164.21
522.72	35318.68
522.89	35747.00
523.07	36093.40
523.24	35559.76
523.41	35665.08
523.58	35655.72
523.75	36002.12
523.92	35845.30
524.10	36259.58
524.27	36177.66
524.44	36180.00
524.61	36259.58
524.78	36222.13
524.96	36613.00
525.13	36107.44
525.30	36627.04
525.47	36723.01
525.64	36348.52
525.81	36472.57
525.98	36608.32
526.16	36762.79
526.33	36570.87
526.50	37092.81
526.67	36467.89
526.84	36854.08
527.01	37263.67
527.18	37165.37
527.36	37275.37
527.53	36863.44
527.70	37493.04
527.87	37626.45
528.04	37296.44
528.21	37530.49
528.38	37439.21
528.55	37792.63
528.72	37359.63
528.89	37708.37
529.07	37331.54
529.24	37467.30
529.41	37998.60
529.58	38050.09
529.75	37745.82
529.92	38277.12
530.09	37596.03
530.26	37713.05
530.43	38394.15
530.60	37881.57
530.77	37879.23
530.94	38459.68
531.11	38176.48
531.28	38223.29
531.46	38499.47
531.63	38897.36
531.80	37900.29
531.97	38794.38
532.14	38593.09
532.31	38951.20
532.48	38913.75
532.65	38878.64
532.82	38705.44
532.99	39129.08
533.16	39061.20
533.33	39119.71
533.50	39505.90
533.67	39299.94
533.84	38628.20
534.01	39299.94
534.18	39360.79
534.35	39840.60
534.52	39313.98
534.69	39962.31
534.86	39772.72
535.03	39632.29
535.20	39431.01
535.37	39922.52
535.54	40098.06
535.71	39772.72
535.88	39824.22
536.05	39913.16
536.22	40081.67
536.38	40133.17
536.55	40212.74
536.72	39835.92
536.89	40088.70
537.06	40657.45
537.23	40498.29
537.40	40362.54
537.57	40367.22
537.74	40177.64
537.91	40701.92
538.08	40327.43
538.25	40158.91
538.42	40187.00
538.59	41008.53
538.75	40229.13
538.92	40865.75
539.09	40767.45
539.26	40837.67
539.43	41247.26
539.60	41174.70
539.77	41654.51
539.94	41212.15
540.11	40914.90
540.28	41048.32
540.44	41062.36
540.61	41022.57
540.78	40886.82
540.95	40985.12
541.12	41322.16
541.29	41223.86
541.46	41125.55
541.62	41860.48
541.79	41748.14
541.96	41038.95
542.13	41240.24
542.30	41677.92
542.47	41731.75
542.63	41647.49
542.80	41890.91
542.97	42146.03
543.14	42422.21
543.31	41956.44
543.48	42139.00
543.64	42445.62
543.81	42733.50
543.98	42480.72
544.15	42129.64
544.32	42595.41
544.48	42684.35
544.65	42728.82
544.82	42902.02
544.99	42387.10
545.16	42452.64
545.32	42717.12
545.49	43051.81
545.66	43257.78
545.83	43068.20
546.00	42965.21
546.16	43082.24
546.33	42859.89
546.50	42782.65
546.67	43070.54
546.83	42532.22
547.00	42710.10
547.17	43447.36
547.34	43105.65
547.50	43550.35
547.67	43564.39
547.84	43445.02
548.00	43555.03
548.17	43590.14
548.34	43894.41
548.51	43957.60
548.67	43538.65
548.84	44060.58
549.01	43302.25
549.18	44023.14
549.34	43662.69
549.51	43978.67
549.68	44011.43
549.84	43936.54
550.01	44161.23
550.18	43917.81
550.34	44271.23
550.51	44161.23
550.68	43690.78
550.84	43828.87
551.01	44311.02
551.18	43948.24
551.34	44189.31
551.51	44505.29
551.68	44053.56
551.84	44079.31
552.01	44474.86
552.18	44205.70
552.34	44259.53
552.51	44329.75
552.68	44224.42
552.84	44383.58
553.01	44362.51
553.18	44711.25
553.34	44645.72
553.51	44217.40
553.67	44395.28
553.84	45165.32
554.01	44816.58
554.17	44477.20
554.34	44910.20
554.51	45064.67
554.67	45406.39
554.84	44875.09
555.00	44875.09
555.17	45043.61
555.33	44973.39
555.50	45045.95
555.67	44985.10
555.83	44744.02
556.00	45375.97
556.16	45523.42
556.33	45528.10
556.50	45277.66
556.66	45256.60
556.83	45134.89
556.99	45830.03
557.16	45736.41
557.32	45565.55
557.49	45490.65
557.65	45497.67
557.82	45078.72
557.98	45385.33
558.15	45296.39
558.32	45336.18
558.48	45322.13
558.65	45574.91
558.81	45474.27
558.98	45523.42
559.14	45942.38
559.31	45364.26
559.47	45755.13
559.64	45923.65
559.80	46082.81
559.97	46040.68
560.13	45450.86
560.30	45851.09
560.46	46471.34
560.63	46080.47
560.79	46012.59
560.96	46515.81
561.12	46204.52
561.29	46101.53
561.45	46024.29
561.61	45890.88
561.78	45954.08
561.94	46185.79
562.11	45514.06
562.27	46366.01
562.44	45909.61
562.60	46267.71
562.77	45734.07
562.93	45914.29
563.10	46450.27
563.26	46265.37
563.42	46244.30
563.59	46356.65
563.75	46319.20
563.92	46344.95
564.08	46351.97
564.24	46309.84
564.41	46618.79
564.57	47070.51
564.74	46639.86
564.90	46557.94
565.07	46344.95
565.23	46614.11
565.39	46911.36
565.56	46696.03
565.72	46394.10
565.88	46473.68
566.05	46670.28
566.21	46494.74
566.38	46525.17
566.54	46499.42
566.70	46686.67
566.87	46841.14
567.03	46639.86
567.19	47253.08
567.36	46902.00
567.52	46335.59
567.68	47019.02
567.85	46773.27
568.01	46953.49
568.17	46808.37
568.34	47103.28
568.50	47096.26
568.66	46178.77
568.83	46766.24
568.99	46934.76
569.15	47152.43
569.32	46775.61
569.48	47236.69
569.64	47337.33
569.81	46590.70
569.97	47114.98
570.13	47026.04
570.30	46829.44
570.46	46586.02
570.62	46787.31
570.78	46707.73
570.95	46932.42
571.11	47388.83
571.27	47119.66
571.43	46981.57
571.60	47210.95
571.76	47262.44
571.92	46911.36
572.09	47004.98
572.25	46902.00
572.41	47021.36
572.57	46953.49
572.74	47636.92
572.90	47257.76
573.06	47295.21
573.22	47208.61
573.38	47473.09
573.55	47367.76
573.71	47459.04
573.87	47229.67
574.03	46852.84
574.20	47510.53
574.36	47402.87
574.52	47716.50
574.68	47192.22
574.84	47372.44
575.01	47363.08
575.17	47599.47
575.33	47199.24
575.49	47358.40
575.65	47533.94
575.82	47657.99
575.98	47519.90
576.14	47735.23
576.30	47571.39
576.46	47374.78
576.62	47552.66
576.79	47243.71
576.95	46986.25
577.11	47409.89
577.27	47082.22
577.43	47601.82
577.59	47379.46
577.75	47274.14
577.92	47021.36
578.08	47466.06
578.24	47538.62
578.40	47849.91
578.56	47861.61
578.72	47110.30
578.88	47845.23
579.04	47847.57
579.21	47124.35
579.37	47297.55
579.53	47594.79
579.69	47590.11
579.85	47065.83
580.01	47533.94
580.17	47372.44
580.33	47753.95
580.49	48102.69
580.65	47924.81
580.82	47540.96
580.98	47622.88
581.14	47657.99
581.30	47573.73
581.46	47332.65
581.62	47498.83
581.78	47430.96
581.94	47665.01
582.10	47601.82
582.26	47777.36
582.42	47690.76
582.58	47945.87
582.74	47924.81
582.90	47414.57
583.06	48067.58
583.22	47562.03
583.38	47622.88
583.54	47391.17
583.70	47892.04
583.86	47728.20
584.02	47817.14
584.18	48172.91
584.34	47576.07
584.50	47653.31
584.66	47941.19
584.82	48175.25
584.98	47917.79
585.14	47660.33
585.30	47531.60
585.46	47655.65
585.62	47852.25
585.78	47866.30
585.94	47398.19
586.10	47477.77
586.26	47800.76
586.42	47398.19
586.58	48217.38
586.74	47653.31
586.90	47870.98
587.06	48020.77
587.22	48397.60
587.38	47800.76
587.54	48282.91
587.70	48079.28
587.86	47505.85
588.02	47714.16
588.18	47702.46
588.34	47892.04
588.49	47870.98
588.65	47807.78
588.81	47779.70
588.97	48135.46
589.13	47777.36
589.29	48027.79
589.45	48292.27
589.61	48140.14
589.77	48556.75
589.93	47842.89
