SpectraSuite Data File
++++++++++++++++++++++++++++++++++++
Date: Fri Oct 25 10:47:11 EDT 2013
User: price-jones
Dark Spectrum Present: No
Reference Spectrum Present: No
Number of Sampled Component Spectra: 1
Spectrometers: USB2+H05261
Integration Time (usec): 100000 (USB2+H05261)
Spectra Averaged: 1 (USB2+H05261)
Boxcar Smoothing: 0 (USB2+H05261)
Correct for Electrical Dark: No (USB2+H05261)
Strobe/Lamp Enabled: No (USB2+H05261)
Correct for Detector Non-linearity: No (USB2+H05261)
Correct for Stray Light: No (USB2+H05261)
Number of Pixels in Processed Spectrum: 2048
>>>>>Begin Processed Spectral Data<<<<<
365.73	128.73
365.92	128.73
366.12	128.73
366.32	39.79
366.52	46.81
366.72	77.24
366.91	100.64
367.11	39.79
367.31	28.09
367.51	2.34
367.70	77.24
367.90	65.54
368.10	37.45
368.30	0.00
368.49	65.54
368.69	39.79
368.89	95.96
369.09	25.75
369.28	95.96
369.48	56.17
369.68	7.02
369.87	114.69
370.07	58.51
370.27	53.83
370.47	194.26
370.66	407.25
370.86	409.59
371.06	498.53
371.25	425.98
371.45	447.04
371.65	428.32
371.84	447.04
372.04	416.62
372.24	489.17
372.44	416.62
372.63	486.83
372.83	557.05
373.03	484.49
373.22	624.92
373.42	641.31
373.62	505.56
373.81	517.26
374.01	538.32
374.21	547.69
374.40	629.60
374.60	510.24
374.79	507.90
374.99	531.30
375.19	535.98
375.38	496.19
375.58	627.26
375.78	580.45
375.97	517.26
376.17	681.10
376.37	599.18
376.56	554.71
376.76	545.34
376.95	503.22
377.15	573.43
377.35	514.92
377.54	638.97
377.74	650.67
377.93	627.26
378.13	603.86
378.33	578.11
378.52	655.35
378.72	636.63
378.91	571.09
379.11	547.69
379.31	606.20
379.50	585.13
379.70	641.31
379.89	624.92
380.09	695.14
380.28	653.01
380.48	744.29
380.68	739.61
380.87	657.69
381.07	631.94
381.26	695.14
381.46	575.77
381.65	711.52
381.85	690.46
382.04	636.63
382.24	706.84
382.43	655.35
382.63	704.50
382.83	643.65
383.02	725.57
383.22	657.69
383.41	725.57
383.61	702.16
383.80	748.97
384.00	786.42
384.19	763.01
384.39	779.40
384.58	695.14
384.78	748.97
384.97	788.76
385.17	753.65
385.36	709.18
385.56	683.44
385.75	725.57
385.95	793.44
386.14	751.31
386.34	688.12
386.53	770.04
386.72	774.72
386.92	837.91
387.11	931.53
387.31	826.21
387.50	802.80
387.70	770.04
387.89	793.44
388.09	896.43
388.28	755.99
388.48	779.40
388.67	896.43
388.86	861.32
389.06	880.04
389.25	926.85
389.45	812.17
389.64	788.76
389.84	887.06
390.03	887.06
390.22	896.43
390.42	896.43
390.61	863.66
390.81	840.25
391.00	919.83
391.19	999.41
391.39	936.21
391.58	964.30
391.78	1001.75
391.97	933.87
392.16	936.21
392.36	985.37
392.55	880.04
392.75	964.30
392.94	856.64
393.13	959.62
393.33	950.26
393.52	978.34
393.71	1036.86
393.91	938.55
394.10	1006.43
394.29	987.71
394.49	1088.35
394.68	990.05
394.88	1069.62
395.07	1095.37
395.26	1111.75
395.46	1034.52
395.65	1100.05
395.84	1078.99
396.04	1177.29
396.23	1036.86
396.42	1050.90
396.62	1015.79
396.81	1132.82
397.00	1053.24
397.19	1128.14
397.39	1249.85
397.58	1219.42
397.77	1235.80
397.97	1240.48
398.16	1200.69
398.35	1263.89
398.55	1324.74
398.74	1275.59
398.93	1378.58
399.12	1315.38
399.32	1233.46
399.51	1210.06
399.70	1364.53
399.90	1303.68
400.09	1289.64
400.28	1310.70
400.47	1303.68
400.67	1378.58
400.86	1416.02
401.05	1441.77
401.24	1409.00
401.44	1446.45
401.63	1441.77
401.82	1476.88
402.01	1460.49
402.21	1530.71
402.40	1427.73
402.59	1495.60
402.78	1519.01
402.97	1481.56
403.17	1516.67
403.36	1603.27
403.55	1563.48
403.74	1671.14
403.93	1713.27
404.13	1685.19
404.32	1540.07
404.51	1526.03
404.70	1575.18
404.89	1664.12
405.09	1776.47
405.28	1703.91
405.47	1605.61
405.66	1689.87
405.85	1764.76
406.05	1710.93
406.24	1706.25
406.43	1764.76
406.62	1729.66
406.81	1849.02
407.00	1809.23
407.20	1877.11
407.39	1839.66
407.58	1895.83
407.77	1837.32
407.96	1816.26
408.15	1998.82
408.34	1891.15
408.54	1839.66
408.73	1912.22
408.92	1905.20
409.11	2080.74
409.30	1975.41
409.49	1940.30
409.68	1984.77
409.87	1944.99
410.07	1970.73
410.26	2054.99
410.45	2059.67
410.64	2033.93
410.83	2092.44
411.02	2167.34
411.21	2225.85
411.40	2160.31
411.59	2251.60
411.78	2176.70
411.98	2174.36
412.17	2377.98
412.36	2368.62
412.55	2176.70
412.74	2361.60
412.93	2469.27
413.12	2415.43
413.31	2441.18
413.50	2342.88
413.69	2487.99
413.88	2487.99
414.07	2373.30
414.26	2656.51
414.45	2583.95
414.64	2593.31
414.83	2628.42
415.02	2726.72
415.22	2717.36
415.41	2668.21
415.60	2745.45
415.79	2813.32
415.98	2841.41
416.17	2726.72
416.36	2874.18
416.55	2759.49
416.74	2892.90
416.93	2832.05
417.12	2871.84
417.31	2984.18
417.50	2916.31
417.69	2995.89
417.88	3077.80
418.07	2930.35
418.26	2972.48
418.45	3038.02
418.64	3159.72
418.83	3155.04
419.02	3117.59
419.21	3122.27
419.39	3040.36
419.58	3129.30
419.77	3148.02
419.96	3000.57
420.15	3187.81
420.34	3267.39
420.53	3145.68
420.72	3325.90
420.91	3342.28
421.10	3372.71
421.29	3485.06
421.48	3349.31
421.67	3456.97
421.86	3410.16
422.05	3323.56
422.24	3456.97
422.43	3520.17
422.61	3377.39
422.80	3442.93
422.99	3379.73
423.18	3377.39
423.37	3428.88
423.56	3433.57
423.75	3428.88
423.94	3309.52
424.13	3236.96
424.32	3236.96
424.50	3501.44
424.69	3536.55
424.88	3442.93
425.07	3468.67
425.26	3365.69
425.45	3442.93
425.64	3424.20
425.83	3564.64
426.01	3616.13
426.20	3370.37
426.39	3461.65
426.58	3531.87
426.77	3529.53
426.96	3606.77
427.15	3499.10
427.33	3688.68
427.52	3564.64
427.71	3674.64
427.90	3531.87
428.09	3716.77
428.28	3688.68
428.46	3691.02
428.65	3772.94
428.84	3749.54
429.03	3864.22
429.22	3655.92
429.40	3763.58
429.59	3763.58
429.78	3536.55
429.97	3595.06
430.16	3733.15
430.34	3674.64
430.53	3709.75
430.72	3843.16
430.91	3747.20
431.10	3889.97
431.28	3934.44
431.47	3918.06
431.66	4102.96
431.85	3904.01
432.03	3992.95
432.22	4044.45
432.41	3988.27
432.60	4065.51
432.79	4159.13
432.97	4227.01
433.16	4063.17
433.35	4194.24
433.54	4308.93
433.72	4236.37
433.91	4147.43
434.10	4283.18
434.28	4152.11
434.47	4287.86
434.66	4311.27
434.85	4329.99
435.03	4409.57
435.22	4381.48
435.41	4589.79
435.59	4550.00
435.78	4395.53
435.97	4526.60
436.16	4486.81
436.34	4407.23
436.53	4383.82
436.72	4545.32
436.90	4442.34
437.09	4620.22
437.28	4489.15
437.46	4622.56
437.65	4594.47
437.84	4603.83
438.02	4638.94
438.21	4592.13
438.40	4615.54
438.58	4798.10
438.77	4762.99
438.96	4887.04
439.14	4980.66
439.33	4933.85
439.52	4861.29
439.70	5057.90
439.89	4990.02
440.08	4950.23
440.26	4952.57
440.45	4959.60
440.63	5146.84
440.82	5345.78
441.01	5387.91
441.19	5242.80
441.38	5268.55
441.57	5308.34
441.75	5366.85
441.94	5500.26
442.12	5441.75
442.31	5760.06
442.50	5446.43
442.68	5420.68
442.87	5631.33
443.05	5743.67
443.24	5603.24
443.43	5617.29
443.61	5516.64
443.80	5792.83
443.98	5586.86
444.17	5628.99
444.35	5692.18
444.54	5809.21
444.73	5734.31
444.91	5863.04
445.10	5804.53
445.28	5713.25
445.47	5818.57
445.65	5643.03
445.84	5671.12
446.02	5657.07
446.21	5769.42
446.39	5724.95
446.58	5884.11
446.77	5856.02
446.95	5717.93
447.14	5846.66
447.32	6083.05
447.51	5858.36
447.69	5846.66
447.88	5987.09
448.06	5916.87
448.25	5813.89
448.43	5947.30
448.62	6059.65
448.80	5888.79
448.99	6019.86
449.17	6040.92
449.36	6059.65
449.54	6146.25
449.73	6054.97
449.91	6113.48
450.10	6136.88
450.28	6237.53
450.46	6246.89
450.65	6359.24
450.83	6179.01
451.02	6328.81
451.20	6251.57
451.39	6394.34
451.57	6399.02
451.76	6157.95
451.94	6310.08
452.13	6382.64
452.31	6319.45
452.49	6183.70
452.68	6476.26
452.86	6333.49
453.05	6237.53
453.23	6520.73
453.42	6413.07
453.60	6403.71
453.78	6361.58
453.97	6607.33
454.15	6516.05
454.34	6312.42
454.52	6698.61
454.70	6750.10
454.89	6670.53
455.07	6595.63
455.26	6740.74
455.44	6834.36
455.62	6984.16
455.81	6675.21
455.99	6799.26
456.17	6808.62
456.36	6895.22
456.54	6916.28
456.73	7098.84
456.91	7155.02
457.09	7197.15
457.28	7267.36
457.46	7028.63
457.64	7232.26
457.83	7328.22
458.01	7035.65
458.19	7199.49
458.38	7218.21
458.56	7239.28
458.74	7185.44
458.93	7243.96
459.11	7370.35
459.29	7328.22
459.48	7485.03
459.66	7335.24
459.84	7475.67
460.03	7492.05
460.21	7318.86
460.39	7461.63
460.57	7506.10
460.76	7702.70
460.94	7648.87
461.12	7480.35
461.31	7513.12
461.49	7714.41
461.67	7672.28
461.85	7714.41
462.04	7719.09
462.22	8084.21
462.40	7831.43
462.59	7744.83
462.77	7829.09
462.95	7698.02
463.13	7887.61
463.32	7850.16
463.50	8044.42
463.68	7838.45
463.86	8044.42
464.05	7861.86
464.23	8053.78
464.41	7990.59
464.59	7964.84
464.78	8173.15
464.96	8173.15
465.14	8016.33
465.32	8046.76
465.50	8138.04
465.69	8049.10
465.87	8152.09
466.05	8194.22
466.23	8159.11
466.41	8344.01
466.60	8243.37
466.78	8124.00
466.96	8156.77
467.14	8128.68
467.32	8140.38
467.51	8390.82
467.69	7974.21
467.87	8418.91
468.05	8498.49
468.23	8304.22
468.41	8510.19
468.60	8400.18
468.78	8517.21
468.96	8554.66
469.14	8486.78
469.32	8746.58
469.50	8444.65
469.69	8585.08
469.87	8674.03
470.05	8716.16
470.23	8727.86
470.41	8910.42
470.59	8898.72
470.77	8823.82
470.95	8945.53
471.14	8966.59
471.32	8798.07
471.50	9221.71
471.68	9160.86
471.86	9275.54
472.04	9217.03
472.22	9462.79
472.40	9188.94
472.58	9135.11
472.77	9277.88
472.95	9362.14
473.13	9605.56
473.31	9497.89
473.49	9369.16
473.67	9451.08
473.85	9708.54
474.03	10111.11
474.21	9930.89
474.39	10012.81
474.57	9764.72
474.75	9806.84
474.93	10038.56
475.12	10008.13
475.30	10150.90
475.48	9984.73
475.66	10057.28
475.84	9987.07
476.02	10345.17
476.20	10207.08
476.38	10399.00
476.56	10530.07
476.74	10560.50
476.92	10471.56
477.10	10497.30
477.28	10881.15
477.46	10710.29
477.64	10951.37
477.82	11094.14
478.00	11215.85
478.18	11218.19
478.36	11281.38
478.54	11250.96
478.72	11468.62
478.90	11346.92
479.08	11646.51
479.26	11786.94
479.44	11765.87
479.62	11796.30
479.80	11763.53
479.98	12035.03
480.16	12442.29
480.34	11997.59
480.52	12231.64
480.70	12198.87
480.88	12149.72
481.06	12198.87
481.24	12645.91
481.41	12910.40
481.59	12568.68
481.77	12922.10
481.95	12519.53
482.13	12854.22
482.31	13055.51
482.49	13224.03
482.67	13060.19
482.85	13605.53
483.03	13444.04
483.21	13685.11
483.39	13771.71
483.57	13680.43
483.74	13715.54
483.92	13905.12
484.10	13998.74
484.28	14281.95
484.46	14340.46
484.64	14480.89
484.82	14314.72
485.00	14471.53
485.18	15152.63
485.35	14953.68
485.53	14848.36
485.71	14906.87
485.89	15346.89
486.07	15281.36
486.25	15147.95
486.43	15578.61
486.61	15405.41
486.78	15765.85
486.96	15709.68
487.14	15981.18
487.32	16133.31
487.50	16063.10
487.68	16299.49
487.85	16533.54
488.03	16620.14
488.21	17011.01
488.39	16610.78
488.57	16882.28
488.75	17341.03
488.92	17142.08
489.10	17256.77
489.28	17074.21
489.46	17584.44
489.64	17497.84
489.81	18310.01
489.99	18368.52
490.17	18162.56
490.35	18569.81
490.53	18457.46
490.70	17958.93
490.88	18434.06
491.06	18930.25
491.24	18640.03
491.41	18951.32
491.59	19035.58
491.77	19075.37
491.95	19089.41
492.13	19323.46
492.30	19658.16
492.48	19534.11
492.66	19751.78
492.84	19950.73
493.01	20140.31
493.19	19934.34
493.37	20341.60
493.54	20152.01
493.72	20589.69
493.90	20592.03
494.08	20486.71
494.25	21013.33
494.43	21088.23
494.61	21067.16
494.79	20954.82
494.96	21191.21
495.14	20819.07
495.32	21343.35
495.49	21795.07
495.67	21909.75
495.85	21869.97
496.02	21944.86
496.20	22178.92
496.38	21820.81
496.55	22225.73
496.73	22707.88
496.91	22499.57
497.09	22546.38
497.26	22691.49
497.44	22349.78
497.62	23098.75
497.79	23145.56
497.97	23091.73
498.14	23101.09
498.32	23248.54
498.50	23288.33
498.67	23733.03
498.85	23960.06
499.03	23913.25
499.20	23761.12
499.38	23660.48
499.56	23864.10
499.73	24245.61
499.91	23981.13
500.08	24313.48
500.26	24084.11
500.44	24634.14
500.61	24573.28
500.79	24271.36
500.97	24446.90
501.14	25020.33
501.32	24875.21
501.49	25003.94
501.67	25113.95
501.84	25109.27
502.02	25076.50
502.20	25142.03
502.37	25467.37
502.55	25680.36
502.72	25474.39
502.90	25511.84
503.07	25261.40
503.25	25891.01
503.43	25802.07
503.60	25961.22
503.78	25734.19
503.95	25722.49
504.13	25905.05
504.30	26153.15
504.48	25855.90
504.65	26403.58
504.83	26672.74
505.01	26806.16
505.18	26764.03
505.36	26953.61
505.53	26789.77
505.71	27295.33
505.88	26937.23
506.06	27103.40
506.23	27297.67
506.41	27136.17
506.58	27433.42
506.76	27300.01
506.93	27562.15
507.11	27412.35
507.28	27351.50
507.46	27545.76
507.63	27826.63
507.81	27828.97
507.98	27716.62
508.16	28030.26
508.33	27950.68
508.50	28156.64
508.68	28224.52
508.85	28371.97
509.03	28252.61
509.20	28620.07
509.38	28655.18
509.55	28680.92
509.73	28467.94
509.90	29228.61
510.08	28393.04
510.25	28872.85
510.42	28903.28
510.60	29207.55
510.77	28989.88
510.95	29532.88
511.12	29418.19
511.30	29247.33
511.47	29802.04
511.64	30190.57
511.82	29736.51
511.99	29881.62
512.17	29558.63
512.34	30291.21
512.51	29951.84
512.69	30352.07
512.86	30256.11
513.04	30836.56
513.21	30164.82
513.38	30429.30
513.56	30223.34
513.73	30274.83
513.90	30822.51
514.08	30366.11
514.25	30710.17
514.43	30520.59
514.60	30604.84
514.77	30534.63
514.95	30752.30
515.12	31115.08
515.29	31098.70
515.47	31487.23
515.64	31000.40
515.81	31620.64
515.99	31349.14
516.16	31744.69
516.33	31292.96
516.51	31571.49
516.68	31047.21
516.85	31079.97
517.03	31435.74
517.20	31892.14
517.37	31896.82
517.54	32088.74
517.72	31917.89
517.89	31784.48
518.06	31866.39
518.24	31789.16
518.41	31875.76
518.58	32107.47
518.75	32261.94
518.93	32327.48
519.10	32432.80
519.27	32685.58
519.45	32196.41
519.62	32575.58
519.79	32634.09
519.96	32950.06
520.14	33116.24
520.31	32933.68
520.48	32889.21
520.65	33296.46
520.83	32936.02
521.00	33762.23
521.17	33249.65
521.34	33219.22
521.52	33593.71
521.69	33525.83
521.86	33476.68
522.03	33780.95
522.20	33809.04
522.38	33762.23
522.55	34043.09
522.72	34019.69
522.89	33912.02
523.07	34162.46
523.24	34080.54
523.41	34338.00
523.58	34127.35
523.75	34597.80
523.92	34543.97
524.10	34632.91
524.27	34843.56
524.44	34422.26
524.61	34838.87
524.78	34712.49
524.96	34658.65
525.13	34663.33
525.30	35339.75
525.47	35091.65
525.64	35330.39
525.81	34946.54
525.98	34955.90
526.16	35075.27
526.33	34944.20
526.50	35269.53
526.67	34820.15
526.84	35089.31
527.01	35164.21
527.18	35440.39
527.36	35637.00
527.53	35515.29
527.70	36016.16
527.87	35639.34
528.04	35948.29
528.21	36060.63
528.38	35931.90
528.55	35754.02
528.72	36013.82
528.89	36233.83
529.07	36142.55
529.24	36177.66
529.41	36507.68
529.58	35929.56
529.75	36367.24
529.92	36823.65
530.09	36151.91
530.26	36397.67
530.43	36245.54
530.60	36135.53
530.77	36275.96
530.94	37251.97
531.11	36563.85
531.28	36795.56
531.46	37102.17
531.63	37228.56
531.80	36449.16
531.97	37258.99
532.14	37202.82
532.31	36893.86
532.48	37242.60
532.65	37429.85
532.82	37031.96
532.99	36959.40
533.16	37031.96
533.33	37343.25
533.50	37596.03
533.67	37184.09
533.84	37589.00
534.01	37794.97
534.18	37277.71
534.35	37811.35
534.52	37509.43
534.69	37633.47
534.86	38007.96
535.03	37523.47
535.20	37860.51
535.37	38169.46
535.54	38295.85
535.71	38003.28
535.88	38272.44
536.05	38141.37
536.22	38284.14
536.38	38565.01
536.55	38256.06
536.72	38387.13
536.89	38295.85
537.06	38260.74
537.23	38106.26
537.40	38066.47
537.57	38342.66
537.74	38525.22
537.91	38967.58
538.08	38981.62
538.25	38366.06
538.42	38288.82
538.59	39019.07
538.75	38754.59
538.92	39098.65
539.09	38555.64
539.26	39030.77
539.43	39115.03
539.60	39124.40
539.77	38820.13
539.94	38939.49
540.11	38836.51
540.28	38820.13
540.44	39372.49
540.61	39112.69
540.78	39112.69
540.95	39185.25
541.12	39105.67
541.29	39388.88
541.46	39133.76
541.62	39658.04
541.79	39569.10
541.96	39330.36
542.13	39494.20
542.30	39653.36
542.47	39889.75
542.63	39636.97
542.80	39952.94
542.97	39831.24
543.14	40676.17
543.31	39915.50
543.48	40325.09
543.64	40730.00
543.81	40135.51
543.98	40542.76
544.15	40533.40
544.32	40495.95
544.48	40673.83
544.65	40542.76
544.82	40531.06
544.99	40334.45
545.16	40753.41
545.32	40610.64
545.49	41045.97
545.66	40563.82
545.83	41226.20
546.00	41141.94
546.16	41024.91
546.33	40514.67
546.50	40404.67
546.67	41071.72
546.83	40320.41
547.00	40870.43
547.17	40950.01
547.34	40671.49
547.50	40671.49
547.67	41273.01
547.84	40966.40
548.00	41223.86
548.17	41394.71
548.34	41373.65
548.51	41174.70
548.67	41434.50
548.84	41621.75
549.01	41464.93
549.18	41116.19
549.34	41560.89
549.51	41329.18
549.68	41504.72
549.84	41530.47
550.01	42031.34
550.18	41371.31
550.34	41736.43
550.51	41673.24
550.68	41177.04
550.84	41015.55
551.01	41549.19
551.18	41280.03
551.34	41546.85
551.51	41984.53
551.68	41811.33
551.84	41991.55
552.01	41846.44
552.18	42209.22
552.34	41687.28
552.51	42160.07
552.68	42164.75
552.84	42012.62
553.01	42169.43
553.18	42361.36
553.34	42520.51
553.51	41926.02
553.67	41956.44
553.84	42153.05
554.01	42202.20
554.17	42396.46
554.34	42536.90
554.51	42490.09
554.67	42773.29
554.84	42309.86
555.00	42689.03
555.17	42246.67
555.33	42719.46
555.50	42267.73
555.67	42536.90
555.83	42679.67
556.00	42377.74
556.16	42759.25
556.33	42873.93
556.50	42604.77
556.66	43161.82
556.83	42705.41
556.99	43054.15
557.16	42883.30
557.32	43234.38
557.49	43168.84
557.65	42780.31
557.82	42852.87
557.98	42841.17
558.15	42930.11
558.32	43009.68
558.48	43054.15
558.65	43072.88
558.81	43154.80
558.98	43227.35
559.14	43236.72
559.31	42967.55
559.47	42979.26
559.64	43269.48
559.80	43372.47
559.97	43372.47
560.13	42918.40
560.30	42955.85
560.46	43079.90
560.63	43339.70
560.79	43215.65
560.96	43721.21
561.12	43012.02
561.29	44098.03
561.45	43297.57
561.61	42780.31
561.78	43863.98
561.94	43185.22
562.11	43360.76
562.27	42934.79
562.44	43175.86
562.60	43730.57
562.77	43679.08
562.93	43318.64
563.10	43576.09
563.26	43395.87
563.42	43732.91
563.59	43243.74
563.75	43374.81
563.92	43746.95
564.08	43372.47
564.24	43737.59
564.41	43555.03
564.57	43283.53
564.74	43896.75
564.90	43945.90
565.07	44149.53
565.23	43786.74
565.39	43847.60
565.56	44002.07
565.72	43391.19
565.88	43533.96
566.05	43803.13
566.21	43782.06
566.38	43709.50
566.54	43896.75
566.70	44114.42
566.87	44161.23
567.03	44051.22
567.19	44006.75
567.36	44238.47
567.52	44076.97
567.68	44091.01
567.85	43662.69
568.01	43941.22
568.17	43641.63
568.34	44229.10
568.50	44062.93
568.66	44119.10
568.83	44175.27
568.99	43686.10
569.15	43711.84
569.32	43908.45
569.48	43655.67
569.64	44346.13
569.81	44114.42
569.97	44098.03
570.13	43866.32
570.30	43646.31
570.46	43269.48
570.62	43686.10
570.78	43959.94
570.95	43658.01
571.11	44179.95
571.27	44009.09
571.43	43924.83
571.60	44339.11
571.76	43962.28
571.92	44119.10
572.09	44215.06
572.25	44140.16
572.41	44215.06
572.57	43966.96
572.74	44502.95
572.90	44318.04
573.06	44215.06
573.22	43749.29
573.38	43973.98
573.55	43845.26
573.71	44584.86
573.87	44484.22
574.03	43775.04
574.20	44362.51
574.36	44123.78
574.52	44186.97
574.68	44261.87
574.84	44470.18
575.01	44516.99
575.17	44229.10
575.33	43931.86
575.49	44477.20
575.65	44463.16
575.82	44835.30
575.98	44055.90
576.14	44254.85
576.30	44406.98
576.46	44194.00
576.62	44002.07
576.79	44236.12
576.95	44257.19
577.11	44652.74
577.27	44032.50
577.43	44465.50
577.59	44191.65
577.75	44495.92
577.92	43910.79
578.08	43924.83
578.24	44360.17
578.40	44435.07
578.56	44399.96
578.72	43955.26
578.88	44772.11
579.04	44648.06
579.21	44252.51
579.37	44133.14
579.53	44395.28
579.69	44486.56
579.85	44566.14
580.01	43988.03
580.17	44364.85
580.33	44388.26
580.49	44687.85
580.65	44360.17
580.82	44467.84
580.98	44313.36
581.14	44261.87
581.30	44341.45
581.46	44418.69
581.62	44392.94
581.78	44163.57
581.94	44519.33
582.10	44545.08
582.26	44835.30
582.42	44154.21
582.58	44236.12
582.74	44350.81
582.90	44287.62
583.06	44605.93
583.22	44381.24
583.38	44795.51
583.54	44734.66
583.70	44130.80
583.86	44491.24
584.02	43971.64
584.18	44385.92
584.34	44500.61
584.50	44533.37
584.66	44268.89
584.82	44563.80
584.98	44746.36
585.14	44737.00
585.30	44357.83
585.46	44215.06
585.62	44135.48
585.78	44554.44
585.94	44186.97
586.10	44591.89
586.26	44285.28
586.42	44519.33
586.58	44844.66
586.74	44350.81
586.90	44474.86
587.06	44215.06
587.22	44619.97
587.38	44236.12
587.54	44512.31
587.70	44676.15
587.86	44556.78
588.02	44966.37
588.18	44748.70
588.34	44453.79
588.49	44072.29
588.65	44402.30
588.81	44175.27
588.97	44198.68
589.13	43950.58
589.29	44196.34
589.45	44783.81
589.61	44809.56
589.77	44985.10
589.93	44587.21
590.08	45050.63
590.24	44978.07
590.40	44938.29
