SpectraSuite Data File
++++++++++++++++++++++++++++++++++++
Date: Fri Oct 25 11:26:05 EDT 2013
User: price-jones
Dark Spectrum Present: No
Reference Spectrum Present: No
Number of Sampled Component Spectra: 1
Spectrometers: USB2+H05261
Integration Time (usec): 100000 (USB2+H05261)
Spectra Averaged: 1 (USB2+H05261)
Boxcar Smoothing: 0 (USB2+H05261)
Correct for Electrical Dark: No (USB2+H05261)
Strobe/Lamp Enabled: No (USB2+H05261)
Correct for Detector Non-linearity: No (USB2+H05261)
Correct for Stray Light: No (USB2+H05261)
Number of Pixels in Processed Spectrum: 2048
>>>>>Begin Processed Spectral Data<<<<<
365.73	205.97
365.92	205.97
366.12	205.97
366.32	126.39
366.52	138.09
366.72	156.82
366.91	168.52
367.11	131.07
367.31	72.56
367.51	173.20
367.70	114.69
367.90	255.12
368.10	177.88
368.30	173.20
368.49	159.16
368.69	168.52
368.89	170.86
369.09	168.52
369.28	140.43
369.48	220.01
369.68	145.11
369.87	196.60
370.07	205.97
370.27	222.35
370.47	372.15
370.66	613.22
370.86	634.29
371.06	725.57
371.25	784.08
371.45	669.39
371.65	660.03
371.84	655.35
372.04	653.01
372.24	706.84
372.44	770.04
372.63	784.08
372.83	760.67
373.03	758.33
373.22	730.25
373.42	828.55
373.62	732.59
373.81	774.72
374.01	816.85
374.21	870.68
374.40	821.53
374.60	833.23
374.79	868.34
374.99	823.87
375.19	805.14
375.38	880.04
375.58	887.06
375.78	936.21
375.97	816.85
376.17	929.19
376.37	873.02
376.56	814.51
376.76	854.30
376.95	912.81
377.15	875.36
377.35	959.62
377.54	973.66
377.74	915.15
377.93	917.49
378.13	933.87
378.33	926.85
378.52	931.53
378.72	999.41
378.91	1011.11
379.11	905.79
379.31	842.59
379.50	940.90
379.70	917.49
379.89	1018.13
380.09	980.68
380.28	1006.43
380.48	931.53
380.68	877.70
380.87	1008.77
381.07	992.39
381.26	1057.92
381.46	1032.18
381.65	1006.43
381.85	1046.22
382.04	1029.84
382.24	1053.24
382.43	985.37
382.63	1055.58
382.83	1071.97
383.02	1125.80
383.22	1184.31
383.41	1130.48
383.61	1050.90
383.80	1093.03
384.00	1118.78
384.19	1123.46
384.39	1107.07
384.58	1188.99
384.78	1053.24
384.97	1233.46
385.17	1198.35
385.36	1090.69
385.56	1125.80
385.75	1123.46
385.95	1118.78
386.14	1174.95
386.34	1198.35
386.53	1266.23
386.72	1198.35
386.92	1212.40
387.11	1254.53
387.31	1261.55
387.50	1242.82
387.70	1273.25
387.89	1334.11
388.09	1280.27
388.28	1287.29
388.48	1266.23
388.67	1409.00
388.86	1231.12
389.06	1320.06
389.25	1378.58
389.45	1366.87
389.64	1350.49
389.84	1366.87
390.03	1385.60
390.22	1364.53
390.42	1378.58
390.61	1413.68
390.81	1413.68
391.00	1476.88
391.19	1380.92
391.39	1364.53
391.58	1451.13
391.78	1394.96
391.97	1469.86
392.16	1432.41
392.36	1542.41
392.55	1497.94
392.75	1497.94
392.94	1451.13
393.13	1465.18
393.33	1533.05
393.52	1563.48
393.71	1458.15
393.91	1652.42
394.10	1591.56
394.29	1589.22
394.49	1502.62
394.68	1652.42
394.88	1626.67
395.07	1694.55
395.26	1673.48
395.46	1603.27
395.65	1717.95
395.84	1715.61
396.04	1804.55
396.23	1774.13
396.42	1746.04
396.62	1811.57
396.81	1757.74
397.00	1806.89
397.19	1724.97
397.39	1811.57
397.58	1778.81
397.77	1750.72
397.97	1877.11
398.16	1891.15
398.35	1781.15
398.55	1851.36
398.74	1825.62
398.93	1942.64
399.12	1856.04
399.32	1886.47
399.51	1863.07
399.70	1984.77
399.90	1930.94
400.09	1952.01
400.28	2040.95
400.47	2090.10
400.67	2064.35
400.86	2069.03
401.05	2076.06
401.24	2090.10
401.44	2024.56
401.63	2118.18
401.82	2195.42
402.01	2078.40
402.21	2155.63
402.40	2066.69
402.59	2181.38
402.78	2108.82
402.97	2169.68
403.17	2345.22
403.36	2298.41
403.55	2319.47
403.74	2385.01
403.93	2345.22
404.13	2389.69
404.32	2335.85
404.51	2345.22
404.70	2373.30
404.89	2300.75
405.09	2455.22
405.28	2415.43
405.47	2569.91
405.66	2471.61
405.85	2583.95
406.05	2553.52
406.24	2614.38
406.43	2537.14
406.62	2516.08
406.81	2700.98
407.00	2600.34
407.20	2569.91
407.39	2616.72
407.58	2628.42
407.77	2602.68
407.96	2668.21
408.15	2766.51
408.34	2743.11
408.54	2789.92
408.73	2801.62
408.92	2818.00
409.11	2920.99
409.30	2757.15
409.49	2956.10
409.68	2923.33
409.87	2958.44
410.07	2988.86
410.26	3005.25
410.45	3056.74
410.64	2972.48
410.83	3126.96
411.02	3112.91
411.21	3052.06
411.40	3110.57
411.59	3145.68
411.78	3267.39
411.98	3131.64
412.17	3307.18
412.36	3283.77
412.55	3342.28
412.74	3309.52
412.93	3342.28
413.12	3229.94
413.31	3609.11
413.50	3461.65
413.69	3412.50
413.88	3555.27
414.07	3618.47
414.26	3543.57
414.45	3618.47
414.64	3707.41
414.83	3730.81
415.02	3681.66
415.22	3740.18
415.41	3955.51
415.60	3798.69
415.79	3892.31
415.98	3885.29
416.17	3922.74
416.36	3850.18
416.55	3892.31
416.74	3845.50
416.93	3922.74
417.12	4035.08
417.31	4269.14
417.50	4236.37
417.69	4423.61
417.88	4257.43
418.07	4210.62
418.26	4299.56
418.45	4332.33
418.64	4454.04
418.83	4409.57
419.02	4489.15
419.21	4451.70
419.39	4418.93
419.58	4315.95
419.77	4510.21
419.96	4564.04
420.15	4610.86
420.34	4575.75
420.53	4573.41
420.72	4713.84
420.91	4657.67
421.10	4585.11
421.29	4678.73
421.48	4580.43
421.67	4678.73
421.86	4762.99
422.05	4755.97
422.24	4741.93
422.43	4816.82
422.61	4842.57
422.80	5104.71
422.99	4774.69
423.18	4940.87
423.37	5193.65
423.56	5027.47
423.75	4826.18
423.94	4730.22
424.13	4503.19
424.32	4795.76
424.50	4901.08
424.69	5135.14
424.88	5214.71
425.07	4938.53
425.26	4938.53
425.45	4870.65
425.64	4880.02
425.83	4882.36
426.01	5071.94
426.20	4910.44
426.39	4973.64
426.58	5111.73
426.77	5053.22
426.96	5093.01
427.15	5174.92
427.33	5207.69
427.52	5064.92
427.71	5163.22
427.90	5235.78
428.09	5170.24
428.28	5392.59
428.46	5320.04
428.65	5245.14
428.84	5533.03
429.03	5446.43
429.22	5231.10
429.40	5467.49
429.59	5411.32
429.78	5181.95
429.97	5313.02
430.16	5380.89
430.34	5640.69
430.53	5657.07
430.72	5699.20
430.91	5568.13
431.10	5528.35
431.28	5760.06
431.47	5734.31
431.66	5963.68
431.85	5654.73
432.03	5886.45
432.22	5881.77
432.41	5930.92
432.60	5825.59
432.79	5867.72
432.97	5898.15
433.16	5944.96
433.35	6132.20
433.54	6057.31
433.72	5980.07
433.91	6029.22
434.10	6171.99
434.28	6113.48
434.47	6221.14
434.66	6169.65
434.85	6242.21
435.03	6218.80
435.22	6370.94
435.41	6401.37
435.59	6513.71
435.78	6476.26
435.97	6345.19
436.16	6263.27
436.34	6370.94
436.53	6368.60
436.72	6693.93
436.90	6401.37
437.09	6637.76
437.28	6342.85
437.46	6548.82
437.65	6588.61
437.84	6925.65
438.02	6619.04
438.21	6750.10
438.40	6583.93
438.58	6832.02
438.77	6956.07
438.96	6881.18
439.14	7187.79
439.33	6988.84
439.52	7138.63
439.70	7225.23
439.89	7318.86
440.08	7360.98
440.26	7391.41
440.45	7176.08
440.63	7358.64
440.82	7573.97
441.01	7370.35
441.19	7611.42
441.38	7653.55
441.57	7613.76
441.75	7651.21
441.94	7854.84
442.12	7817.39
442.31	8051.44
442.50	7889.95
442.68	7896.97
442.87	8009.31
443.05	8035.06
443.24	8035.06
443.43	8065.49
443.61	7932.08
443.80	8514.87
443.98	8037.40
444.17	7936.76
444.35	8159.11
444.54	8215.28
444.73	8191.88
444.91	8231.66
445.10	8276.13
445.28	8329.97
445.47	8257.41
445.65	8248.05
445.84	8418.91
446.02	8374.44
446.21	8397.84
446.39	8425.93
446.58	8512.53
446.77	8566.36
446.95	8397.84
447.14	8479.76
447.32	8533.59
447.51	8215.28
447.69	8320.60
447.88	8617.85
448.06	8390.82
448.25	8381.46
448.43	8416.57
448.62	8844.88
448.80	8292.52
448.99	8540.61
449.17	8545.30
449.36	8533.59
449.54	8702.11
449.73	8765.31
449.91	8865.95
450.10	8875.31
450.28	8978.30
450.46	9071.92
450.65	9074.26
450.83	8926.80
451.02	9043.83
451.20	9029.79
451.39	9025.11
451.57	8849.57
451.76	9013.40
451.94	9156.18
452.13	9338.74
452.31	9195.96
452.49	8982.98
452.68	9214.69
452.86	9228.73
453.05	9327.03
453.23	9383.21
453.42	9205.33
453.60	9205.33
453.78	9472.15
453.97	9570.45
454.15	9373.85
454.34	9504.92
454.52	9713.22
454.70	9432.36
454.89	9713.22
455.07	9645.35
455.26	9919.19
455.44	9802.16
455.62	9832.59
455.81	9722.59
455.99	9912.17
456.17	10083.03
456.36	10188.35
456.54	10197.71
456.73	10127.50
456.91	10492.62
457.09	10684.55
457.28	10497.30
457.46	10562.84
457.64	10457.51
457.83	10394.32
458.01	10499.64
458.19	10668.16
458.38	10572.20
458.56	10609.65
458.74	10860.09
458.93	10637.73
459.11	10817.96
459.29	10752.42
459.48	10642.42
459.66	10846.04
459.84	10906.90
460.03	11012.22
460.21	10963.07
460.39	10705.61
460.57	10911.58
460.76	11213.51
460.94	11206.48
461.12	11096.48
461.31	11089.46
461.49	11117.54
461.67	11234.57
461.85	11234.57
462.04	11185.42
462.22	11831.41
462.40	11552.88
462.59	11557.57
462.77	11187.76
462.95	11534.16
463.13	11599.70
463.32	11674.59
463.50	11761.19
463.68	11637.14
463.86	11679.27
464.05	11875.88
464.23	11789.28
464.41	11744.81
464.59	11566.93
464.78	12142.70
464.96	11995.25
465.14	11866.52
465.32	11906.31
465.50	12065.46
465.69	11918.01
465.87	11939.07
466.05	12255.04
466.23	12292.49
466.41	12152.06
466.60	12484.42
466.78	12063.12
466.96	11908.65
467.14	12336.96
467.32	12196.53
467.51	12386.12
467.69	11946.09
467.87	12458.67
468.05	12631.87
468.23	12468.03
468.41	12175.47
468.60	12531.23
468.78	12814.43
468.96	12538.25
469.14	12716.13
469.32	12940.82
469.50	12491.44
469.69	12840.18
469.87	13130.41
470.05	12982.95
470.23	12996.99
470.41	13083.59
470.59	13008.70
470.77	13219.35
470.95	13048.49
471.14	13451.06
471.32	13116.36
471.50	13554.04
471.68	13462.76
471.86	13827.88
472.04	13458.08
472.22	13865.33
472.40	13729.58
472.58	13858.31
472.77	13902.78
472.95	13949.59
473.13	14516.00
473.31	14064.28
473.49	14026.83
473.67	14312.38
473.85	13940.23
474.03	14647.07
474.21	14597.92
474.39	14616.65
474.57	14668.14
474.75	14586.22
474.93	15002.83
475.12	14890.49
475.30	15037.94
475.48	14824.95
475.66	14993.47
475.84	15206.46
476.02	15269.66
476.20	15314.13
476.38	15513.07
476.56	16119.27
476.74	15770.53
476.92	15885.22
477.10	15517.75
477.28	16102.89
477.46	16224.59
477.64	16196.51
477.82	16603.76
478.00	16854.20
478.18	16760.58
478.36	16877.60
478.54	17308.26
478.72	17142.08
478.90	17359.75
479.08	17165.49
479.26	17474.44
479.44	17940.21
479.62	17530.61
479.80	18134.47
479.98	18005.74
480.16	18574.49
480.34	18333.42
480.52	18441.08
480.70	18429.38
480.88	18207.03
481.06	18635.35
481.24	18441.08
481.41	18810.89
481.59	19339.85
481.77	19328.14
481.95	19419.42
482.13	19772.85
482.31	19349.21
482.49	20390.75
482.67	20002.22
482.85	20549.90
483.03	20568.63
483.21	20704.38
483.39	21158.44
483.57	20566.29
483.74	21167.80
483.92	21282.49
484.10	21064.82
484.28	21345.69
484.46	21731.87
484.64	22295.94
484.82	21666.34
485.00	21930.82
485.18	22742.99
485.35	22567.45
485.53	22750.01
485.71	23058.96
485.89	23384.29
486.07	23608.98
486.25	23634.73
486.43	23578.56
486.61	23672.18
486.78	23765.80
486.96	24107.52
487.14	24549.88
487.32	24355.61
487.50	24828.40
487.68	24702.01
487.85	25036.71
488.03	25291.83
488.21	25483.75
488.39	25626.53
488.57	26038.46
488.75	26033.78
488.92	26621.25
489.10	26436.35
489.28	26501.89
489.46	27007.44
489.64	26759.34
489.81	27517.68
489.99	27571.51
490.17	27772.80
490.35	27988.13
490.53	27665.13
490.70	28442.19
490.88	27983.44
491.06	28533.47
491.24	28320.48
491.41	28809.65
491.59	29104.56
491.77	29050.73
491.95	29619.48
492.13	29694.38
492.30	29769.27
492.48	29736.51
492.66	30061.84
492.84	30176.53
493.01	30649.32
493.19	30197.59
493.37	31101.04
493.54	31215.72
493.72	31349.14
493.90	31152.53
494.08	31730.64
494.25	31835.97
494.43	31821.92
494.61	32006.83
494.79	32383.65
494.96	32378.97
495.14	32486.64
495.32	32821.33
495.49	32919.63
495.67	33039.00
495.85	33542.22
496.02	33771.59
496.20	33441.57
496.38	33797.34
496.55	34162.46
496.73	34780.36
496.91	34279.49
497.09	34946.54
497.26	34962.92
497.44	34583.76
497.62	34958.24
497.79	35442.73
497.97	35173.57
498.14	35791.47
498.32	36053.61
498.50	35817.22
498.67	36488.95
498.85	35934.24
499.03	36545.12
499.20	36477.25
499.38	36725.35
499.56	36926.63
499.73	37326.86
499.91	37434.53
500.08	37165.37
500.26	37284.73
500.44	37310.48
500.61	37797.31
500.79	37811.35
500.97	37919.02
501.14	38272.44
501.32	38422.23
501.49	38356.70
501.67	38625.86
501.84	38829.49
502.02	38740.55
502.20	38541.60
502.37	38604.80
502.55	39222.70
502.72	39388.88
502.90	38834.17
503.07	39402.92
503.25	39655.70
503.43	39524.63
503.60	39751.66
503.78	40184.66
503.95	40226.79
504.13	40371.90
504.30	40385.94
504.48	40016.14
504.65	40369.56
504.83	40861.07
505.01	41165.34
505.18	40954.69
505.36	41205.13
505.53	40737.02
505.71	41626.43
505.88	41598.34
506.06	41163.00
506.23	41663.88
506.41	41855.80
506.58	41493.02
506.76	41937.72
506.93	42000.91
507.11	41972.83
507.28	42277.10
507.46	42419.87
507.63	42548.60
507.81	43342.04
507.98	42522.85
508.16	43033.09
508.33	43012.02
508.50	43335.02
508.68	43828.87
508.85	43297.57
509.03	43150.12
509.20	43641.63
509.38	44179.95
509.55	43938.88
509.73	44210.38
509.90	44261.87
510.08	44350.81
510.25	44395.28
510.42	44559.12
510.60	44940.63
510.77	44856.37
510.95	45013.18
511.12	45345.54
511.30	45258.94
511.47	45481.29
511.64	45139.57
511.82	45628.74
511.99	45600.66
512.17	45720.02
512.34	45909.61
512.51	46181.11
512.69	46099.19
512.86	46490.06
513.04	46270.05
513.21	47110.30
513.38	46515.81
513.56	46492.40
513.73	46646.88
513.90	46777.95
514.08	47058.81
514.25	47175.84
514.43	47269.46
514.60	47159.45
514.77	47173.50
514.95	47292.86
515.12	47229.67
515.29	47199.24
515.47	47480.11
515.64	48009.07
515.81	47508.19
515.99	47894.38
516.16	48123.75
516.33	48137.80
516.51	48418.66
516.68	48226.74
516.85	48362.49
517.03	48594.20
517.20	48449.09
517.37	48758.04
517.54	48458.45
517.72	48502.92
517.89	48739.32
518.06	48666.76
518.24	48704.21
518.41	49401.69
518.58	48940.60
518.75	49160.61
518.93	48949.96
519.10	49242.53
519.27	49708.30
519.45	49244.87
519.62	49691.91
519.79	49652.12
519.96	49865.11
520.14	49911.92
520.31	50078.10
520.48	50387.05
520.65	50335.56
520.83	50349.60
521.00	50527.48
521.17	50380.03
521.34	50504.08
521.52	50576.64
521.69	50859.84
521.86	50728.77
522.03	51103.26
522.20	51033.04
522.38	51210.92
522.55	51344.33
522.72	50885.59
522.89	51337.31
523.07	51737.54
523.24	51339.65
523.41	51325.61
523.58	51459.02
523.75	51866.27
523.92	51772.65
524.10	51449.66
524.27	51730.52
524.44	52114.37
524.61	51833.50
524.78	51824.14
524.96	51882.66
525.13	52289.91
525.30	52177.56
525.47	52212.67
525.64	52409.28
525.81	52495.88
525.98	52371.83
526.16	52336.72
526.33	52603.54
526.50	52435.02
526.67	52624.60
526.84	52762.70
527.01	52554.39
527.18	52753.33
527.36	53020.16
527.53	52961.64
527.70	53123.14
527.87	53200.38
528.04	52903.13
528.21	53198.04
528.38	53570.18
528.55	53268.25
528.72	53113.78
528.89	53359.53
529.07	53272.93
529.24	53099.73
529.41	53420.39
529.58	53457.84
529.75	53579.54
529.92	53518.69
530.09	53832.32
530.26	53741.04
530.43	53883.81
530.60	53661.46
530.77	53588.91
530.94	53759.76
531.11	54078.08
531.28	53921.26
531.46	54260.64
531.63	53972.75
531.80	54218.51
531.97	54162.34
532.14	54333.20
532.31	54131.91
532.48	54382.35
532.65	54525.12
532.82	54035.95
532.99	54588.31
533.16	54349.58
533.33	54590.66
533.50	54752.15
533.67	54452.56
533.84	54457.24
534.01	54864.50
534.18	54770.88
534.35	55018.97
534.52	54780.24
534.69	54805.98
534.86	55171.11
535.03	54803.64
535.20	55002.59
535.37	55330.26
535.54	55402.82
535.71	55000.25
535.88	55370.05
536.05	55264.73
536.22	55440.27
536.38	55419.20
536.55	55325.58
536.72	55433.25
536.89	55337.29
537.06	55419.20
537.23	55552.62
537.40	55604.11
537.57	55735.18
537.74	55753.90
537.91	55777.31
538.08	55636.87
538.25	55580.70
538.42	55613.47
538.59	55803.05
538.75	55826.46
538.92	55966.89
539.09	56065.19
539.26	56191.58
539.43	56044.13
539.60	55976.25
539.77	56179.88
539.94	56261.80
540.11	56168.18
540.28	56041.79
540.44	56250.09
540.61	56147.11
540.78	56200.94
540.95	56287.54
541.12	56114.34
541.29	56317.97
541.46	56495.85
541.62	56493.51
541.79	56694.80
541.96	56336.69
542.13	56364.78
542.30	56608.20
542.47	56762.67
542.63	56605.86
542.80	56619.90
542.97	56949.92
543.14	56875.02
543.31	56837.57
543.48	57183.97
543.64	57441.43
543.81	57343.12
543.98	57083.33
544.15	57188.65
544.32	57155.88
544.48	57291.63
544.65	57228.44
544.82	57296.31
544.99	57064.60
545.16	57453.13
545.32	57223.76
545.49	57645.05
545.66	57832.30
545.83	57687.18
546.00	57516.32
546.16	57413.34
546.33	57420.36
546.50	57228.44
546.67	57432.07
546.83	57441.43
547.00	57680.16
547.17	57572.50
547.34	57492.92
547.50	57780.81
547.67	57986.77
547.84	57858.04
548.00	57911.88
548.17	58120.18
548.34	57932.94
548.51	58138.91
548.67	58082.73
548.84	57963.37
549.01	57841.66
549.18	58056.99
549.34	58052.31
549.51	58071.03
549.68	58288.70
549.84	58155.29
550.01	58419.77
550.18	58078.05
550.34	58178.70
550.51	58192.74
550.68	58328.49
550.84	58054.65
551.01	58272.32
551.18	58356.58
551.34	58335.51
551.51	58560.20
551.68	58475.94
551.84	58604.67
552.01	58401.05
552.18	58599.99
552.34	58489.99
552.51	58635.10
552.68	58375.30
552.84	58742.77
553.01	58880.86
553.18	58513.39
553.34	58820.00
553.51	58656.17
553.67	58735.74
553.84	58660.85
554.01	58915.96
554.17	58944.05
554.34	58983.84
554.51	59079.80
554.67	58988.52
554.84	59042.35
555.00	58850.43
555.17	58817.66
555.33	58981.50
555.50	58700.64
555.67	58960.44
555.83	58726.38
556.00	59161.72
556.16	59133.63
556.33	59110.23
556.50	59016.61
556.66	59276.41
556.83	59185.13
556.99	59203.85
557.16	59222.58
557.32	59339.60
557.49	59615.79
557.65	59166.40
557.82	59281.09
557.98	59203.85
558.15	59442.59
558.32	59379.39
558.48	59175.76
558.65	59496.42
558.81	59358.33
558.98	59437.90
559.14	59367.69
559.31	59590.04
559.47	59412.16
559.64	59634.51
559.80	59742.17
559.97	59643.87
560.13	59414.50
560.30	59391.09
560.46	59533.87
560.63	59681.32
560.79	59760.90
560.96	59777.28
561.12	59767.92
561.29	59711.75
561.45	59784.30
561.61	59529.19
561.78	59714.09
561.94	59714.09
562.11	59723.45
562.27	59508.12
562.44	59791.33
562.60	60072.19
562.77	59971.55
562.93	59798.35
563.10	60186.88
563.26	59852.18
563.42	60126.02
563.59	59774.94
563.75	60051.12
563.92	59980.91
564.08	59831.11
564.24	60133.04
564.41	60009.00
564.57	59908.35
564.74	60083.89
564.90	59901.33
565.07	59913.03
565.23	59866.22
565.39	60065.17
565.56	60179.85
565.72	59931.76
565.88	60060.49
566.05	59805.37
566.21	59807.71
566.38	60062.83
566.54	60196.24
566.70	60348.37
566.87	60191.56
567.03	60041.76
567.19	60310.92
567.36	60140.07
567.52	60161.13
567.68	60123.68
567.85	60203.26
568.01	60193.90
568.17	60093.25
568.34	60463.06
568.50	60081.55
568.66	60402.21
568.83	60390.50
568.99	60149.43
569.15	60362.42
569.32	60186.88
569.48	60236.03
569.64	60420.93
569.81	60390.50
569.97	60273.48
570.13	60296.88
570.30	60100.28
570.46	60158.79
570.62	60362.42
570.78	60210.28
570.95	60353.05
571.11	60549.66
571.27	60441.99
571.43	60378.80
571.60	60430.29
571.76	60324.97
571.92	60521.57
572.09	60430.29
572.25	60484.12
572.41	60535.62
572.57	60395.18
572.74	60587.11
572.90	60397.52
573.06	60676.05
573.22	60390.50
573.38	60622.22
573.55	60477.10
573.71	60741.58
573.87	60669.03
574.03	60383.48
574.20	60697.11
574.36	60479.44
574.52	60521.57
574.68	60622.22
574.84	60636.26
575.01	60734.56
575.17	60544.98
575.33	60516.89
575.49	60556.68
575.65	60633.92
575.82	60769.67
575.98	60650.30
576.14	60917.12
576.30	60804.78
576.46	60647.96
576.62	60418.59
576.79	60720.52
576.95	60357.74
577.11	60664.35
577.27	60757.97
577.43	60669.03
577.59	60743.92
577.75	60849.25
577.92	60779.03
578.08	60711.16
578.24	60800.10
578.40	61006.06
578.56	60725.20
578.72	60793.07
578.88	60783.71
579.04	60898.40
579.21	60769.67
579.37	60781.37
579.53	61001.38
579.69	60715.84
579.85	60701.79
580.01	60779.03
580.17	60481.78
580.33	60832.86
580.49	60804.78
580.65	60823.50
580.82	60912.44
580.98	60622.22
581.14	60788.39
581.30	60945.21
581.46	60874.99
581.62	60626.90
581.78	60652.64
581.94	60853.93
582.10	60643.28
582.26	60842.23
582.42	60680.73
582.58	60956.91
582.74	60860.95
582.90	60605.83
583.06	60626.90
583.22	60708.82
583.38	60800.10
583.54	60942.87
583.70	60882.02
583.86	60945.21
584.02	60704.13
584.18	61160.54
584.34	60788.39
584.50	60781.37
584.66	60786.05
584.82	60809.46
584.98	60938.19
585.14	61048.19
585.30	60832.86
585.46	60783.71
585.62	61006.06
585.78	61076.28
585.94	60734.56
586.10	60963.93
586.26	61087.98
586.42	60903.08
586.58	61188.63
586.74	61123.09
586.90	61031.81
587.06	60975.64
587.22	61205.01
587.38	60989.68
587.54	61038.83
587.70	61116.07
587.86	60999.04
588.02	60884.36
588.18	60996.70
588.34	60947.55
588.49	61151.18
