SpectraSuite Data File
++++++++++++++++++++++++++++++++++++
Date: Fri Oct 25 10:44:17 EDT 2013
User: price-jones
Dark Spectrum Present: No
Reference Spectrum Present: No
Number of Sampled Component Spectra: 1
Spectrometers: USB2+H05261
Integration Time (usec): 100000 (USB2+H05261)
Spectra Averaged: 1 (USB2+H05261)
Boxcar Smoothing: 0 (USB2+H05261)
Correct for Electrical Dark: No (USB2+H05261)
Strobe/Lamp Enabled: No (USB2+H05261)
Correct for Detector Non-linearity: No (USB2+H05261)
Correct for Stray Light: No (USB2+H05261)
Number of Pixels in Processed Spectrum: 2048
>>>>>Begin Processed Spectral Data<<<<<
365.73	163.84
365.92	163.84
366.12	163.84
366.32	65.54
366.52	23.41
366.72	44.47
366.91	0.00
367.11	58.51
367.31	30.43
367.51	16.38
367.70	16.38
367.90	44.47
368.10	67.88
368.30	0.00
368.49	0.00
368.69	86.60
368.89	25.75
369.09	11.70
369.28	42.13
369.48	42.13
369.68	60.85
369.87	140.43
370.07	126.39
370.27	180.22
370.47	163.84
370.66	407.25
370.86	433.00
371.06	482.15
371.25	482.15
371.45	369.80
371.65	435.34
371.84	507.90
372.04	475.13
372.24	447.04
372.44	470.45
372.63	533.64
372.83	491.51
373.03	547.69
373.22	521.94
373.42	489.17
373.62	596.84
373.81	587.47
374.01	552.37
374.21	617.90
374.40	550.03
374.60	608.54
374.79	533.64
374.99	629.60
375.19	594.50
375.38	622.58
375.58	664.71
375.78	585.13
375.97	648.33
376.17	678.76
376.37	578.11
376.56	543.00
376.76	641.31
376.95	547.69
377.15	641.31
377.35	657.69
377.54	727.91
377.74	606.20
377.93	627.26
378.13	599.18
378.33	620.24
378.52	685.78
378.72	669.39
378.91	678.76
379.11	557.05
379.31	638.97
379.50	601.52
379.70	683.44
379.89	702.16
380.09	678.76
380.28	667.05
380.48	676.41
380.68	751.31
380.87	774.72
381.07	653.01
381.26	711.52
381.46	674.07
381.65	746.63
381.85	706.84
382.04	685.78
382.24	784.08
382.43	617.90
382.63	767.70
382.83	748.97
383.02	734.93
383.22	706.84
383.41	767.70
383.61	727.91
383.80	837.91
384.00	751.31
384.19	823.87
384.39	809.83
384.58	835.57
384.78	802.80
384.97	819.19
385.17	741.95
385.36	748.97
385.56	840.25
385.75	732.59
385.95	819.19
386.14	835.57
386.34	798.12
386.53	851.96
386.72	861.32
386.92	830.89
387.11	887.06
387.31	933.87
387.50	882.38
387.70	889.40
387.89	940.90
388.09	802.80
388.28	917.49
388.48	931.53
388.67	873.02
388.86	954.94
389.06	1011.11
389.25	987.71
389.45	943.24
389.64	961.96
389.84	945.58
390.03	1029.84
390.22	1022.81
390.42	1001.75
390.61	1057.92
390.81	954.94
391.00	1128.14
391.19	1109.41
391.39	1025.15
391.58	1064.94
391.78	1008.77
391.97	1081.33
392.16	1074.31
392.36	1118.78
392.55	1008.77
392.75	959.62
392.94	1004.09
393.13	929.19
393.33	1048.56
393.52	1067.28
393.71	1116.44
393.91	1057.92
394.10	1095.37
394.29	1013.45
394.49	1137.50
394.68	1217.08
394.88	1240.48
395.07	1289.64
395.26	1301.34
395.46	1289.64
395.65	1254.53
395.84	1266.23
396.04	1291.98
396.23	1203.04
396.42	1233.46
396.62	1151.54
396.81	1177.29
397.00	1226.44
397.19	1231.12
397.39	1284.95
397.58	1383.26
397.77	1338.79
397.97	1380.92
398.16	1369.21
398.35	1401.98
398.55	1390.28
398.74	1483.90
398.93	1481.56
399.12	1462.83
399.32	1425.39
399.51	1476.88
399.70	1626.67
399.90	1544.75
400.09	1603.27
400.28	1614.97
400.47	1671.14
400.67	1617.31
400.86	1636.03
401.05	1631.35
401.24	1645.40
401.44	1708.59
401.63	1640.72
401.82	1799.87
402.01	1720.29
402.21	1659.44
402.40	1713.27
402.59	1743.70
402.78	1694.55
402.97	1687.53
403.17	1774.13
403.36	1757.74
403.55	1816.26
403.74	1914.56
403.93	1863.07
404.13	1888.81
404.32	1834.98
404.51	1844.34
404.70	1909.88
404.89	1872.43
405.09	1961.37
405.28	1954.35
405.47	2031.58
405.66	1994.14
405.85	1963.71
406.05	1879.45
406.24	2085.42
406.43	1966.05
406.62	2073.71
406.81	2155.63
407.00	2122.87
407.20	2064.35
407.39	2059.67
407.58	2181.38
407.77	2183.72
407.96	2160.31
408.15	2223.51
408.34	2148.61
408.54	2312.45
408.73	2300.75
408.92	2289.04
409.11	2310.11
409.30	2272.66
409.49	2209.47
409.68	2303.09
409.87	2272.66
410.07	2427.14
410.26	2417.77
410.45	2464.58
410.64	2436.50
410.83	2539.48
411.02	2523.10
411.21	2544.16
411.40	2525.44
411.59	2616.72
411.78	2670.55
411.98	2642.46
412.17	2686.94
412.36	2651.83
412.55	2750.13
412.74	2689.28
412.93	2860.13
413.12	2665.87
413.31	2970.14
413.50	2820.35
413.69	2792.26
413.88	2883.54
414.07	2942.05
414.26	2951.42
414.45	3115.25
414.64	3000.57
414.83	3117.59
415.02	3047.38
415.22	3122.27
415.41	3124.62
415.60	3215.90
415.79	3201.85
415.98	3255.69
416.17	3192.49
416.36	3276.75
416.55	3124.62
416.74	3363.35
416.93	3330.58
417.12	3339.94
417.31	3353.99
417.50	3269.73
417.69	3534.21
417.88	3442.93
418.07	3384.41
418.26	3382.07
418.45	3538.89
418.64	3534.21
418.83	3508.46
419.02	3564.64
419.21	3653.58
419.39	3566.98
419.58	3375.05
419.77	3459.31
419.96	3658.26
420.15	3735.50
420.34	3665.28
420.53	3836.14
420.72	3740.18
420.91	3822.09
421.10	3733.15
421.29	3782.31
421.48	3784.65
421.67	3861.88
421.86	3786.99
422.05	3840.82
422.24	3772.94
422.43	3744.86
422.61	3852.52
422.80	3852.52
422.99	3859.54
423.18	3981.25
423.37	4044.45
423.56	3831.46
423.75	4032.74
423.94	3920.40
424.13	3772.94
424.32	3625.49
424.50	3824.44
424.69	3964.87
424.88	4074.87
425.07	3892.31
425.26	4035.08
425.45	3873.59
425.64	4042.11
425.83	3955.51
426.01	4100.62
426.20	4035.08
426.39	3892.31
426.58	4016.36
426.77	3969.55
426.96	3985.93
427.15	3971.89
427.33	4140.41
427.52	4081.89
427.71	4187.22
427.90	4114.66
428.09	4161.47
428.28	4117.00
428.46	4210.62
428.65	4119.34
428.84	4339.35
429.03	4348.72
429.22	4159.13
429.40	4229.35
429.59	4147.43
429.78	3974.23
429.97	3913.38
430.16	3978.91
430.34	4121.68
430.53	4222.33
430.72	4234.03
430.91	4346.37
431.10	4306.59
431.28	4514.89
431.47	4528.94
431.66	4617.88
431.85	4554.68
432.03	4589.79
432.22	4643.62
432.41	4704.48
432.60	4877.68
432.79	4779.37
432.97	4751.29
433.16	4774.69
433.35	4631.92
433.54	4755.97
433.72	4688.09
433.91	4585.11
434.10	4695.11
434.28	4760.65
434.47	4957.25
434.66	4828.53
434.85	5123.43
435.03	4889.38
435.22	4966.62
435.41	5074.28
435.59	5249.82
435.78	5195.99
435.97	5212.37
436.16	5069.60
436.34	5144.50
436.53	5116.41
436.72	5320.04
436.90	5057.90
437.09	5015.77
437.28	5247.48
437.46	5144.50
437.65	5200.67
437.84	5233.44
438.02	5266.21
438.21	5259.18
438.40	5280.25
438.58	5423.02
438.77	5497.92
438.96	5467.49
439.14	5474.51
439.33	5680.48
439.52	5762.40
439.70	5701.54
439.89	5755.38
440.08	5671.12
440.26	5659.42
440.45	5813.89
440.63	5820.91
440.82	5860.70
441.01	5888.79
441.19	5947.30
441.38	6134.54
441.57	6092.41
441.75	6384.98
441.94	6197.74
442.12	6186.04
442.31	6349.87
442.50	6317.11
442.68	6359.24
442.87	6284.34
443.05	6392.00
443.24	6392.00
443.43	6516.05
443.61	6525.41
443.80	6457.54
443.98	6251.57
444.17	6321.79
444.35	6413.07
444.54	6630.74
444.73	6354.55
444.91	6686.91
445.10	6494.99
445.28	6497.33
445.47	6677.55
445.65	6558.18
445.84	6553.50
446.02	6677.55
446.21	6513.71
446.39	6546.48
446.58	6562.86
446.77	6569.88
446.95	6637.76
447.14	6612.01
447.32	6810.96
447.51	6715.00
447.69	6679.89
447.88	6637.76
448.06	6551.16
448.25	6785.21
448.43	6911.60
448.62	6707.98
448.80	6785.21
448.99	6750.10
449.17	6874.15
449.36	6864.79
449.54	6993.52
449.73	7068.42
449.91	7119.91
450.10	7302.47
450.28	7222.89
450.46	7332.90
450.65	7227.57
450.83	7185.44
451.02	7283.75
451.20	7274.38
451.39	7227.57
451.57	7220.55
451.76	7157.36
451.94	7241.62
452.13	7353.96
452.31	7297.79
452.49	7171.40
452.68	7253.32
452.86	7300.13
453.05	7192.47
453.23	7339.92
453.42	7178.42
453.60	7328.22
453.78	7456.95
453.97	7288.43
454.15	7480.35
454.34	7417.16
454.52	7576.31
454.70	7517.80
454.89	7564.61
455.07	7618.44
455.26	7644.19
455.44	7683.98
455.62	7786.96
455.81	7815.05
455.99	7782.28
456.17	7871.22
456.36	7747.17
456.54	7770.58
456.73	7939.10
456.91	8182.51
457.09	8056.12
457.28	8292.52
457.46	8091.23
457.64	8205.92
457.83	8063.15
458.01	7901.65
458.19	8365.07
458.38	7957.82
458.56	8262.09
458.74	8236.35
458.93	8313.58
459.11	8346.35
459.29	8194.22
459.48	8397.84
459.66	8374.44
459.84	8533.59
460.03	8561.68
460.21	8545.30
460.39	8741.90
460.57	8659.98
460.76	8706.79
460.94	8718.50
461.12	8669.34
461.31	8610.83
461.49	8552.32
461.67	8723.18
461.85	8961.91
462.04	8702.11
462.22	8854.25
462.40	9092.98
462.59	8910.42
462.77	8837.86
462.95	8901.06
463.13	8936.17
463.32	8849.57
463.50	8884.67
463.68	9004.04
463.86	9125.75
464.05	8837.86
464.23	9057.87
464.41	9006.38
464.59	8912.76
464.78	9345.76
464.96	9266.18
465.14	9074.26
465.32	9270.86
465.50	9411.29
465.69	9518.96
465.87	9277.88
466.05	9238.09
466.23	9165.54
466.41	9294.27
466.60	9500.23
466.78	9195.96
466.96	9359.80
467.14	9104.68
467.32	9500.23
467.51	9451.08
467.69	9179.58
467.87	9521.30
468.05	9696.84
468.23	9460.45
468.41	9525.98
468.60	9343.42
468.78	9530.66
468.96	9413.63
469.14	9834.93
469.32	9809.19
469.50	9453.42
469.69	9886.42
469.87	9781.10
470.05	9598.54
470.23	9785.78
470.41	9713.22
470.59	9865.36
470.77	9937.91
470.95	10045.58
471.14	10160.27
471.32	9933.23
471.50	10403.68
471.68	10363.89
471.86	10349.85
472.04	10303.04
472.22	10696.25
472.40	10207.08
472.58	10338.15
472.77	10523.05
472.95	10747.74
473.13	10942.00
473.31	10712.63
473.49	10499.64
473.67	10520.71
473.85	10567.52
474.03	11138.61
474.21	11138.61
474.39	11059.03
474.57	11119.89
474.75	11171.38
474.93	11389.05
475.12	11194.78
475.30	11321.17
475.48	11332.87
475.66	11477.99
475.84	11517.78
476.02	11431.18
476.20	11407.77
476.38	11700.34
476.56	11974.18
476.74	11726.08
476.92	11735.45
477.10	11613.74
477.28	12063.12
477.46	12095.89
477.64	12252.70
477.82	12491.44
478.00	12512.50
478.18	12348.67
478.36	12564.00
478.54	12627.19
478.72	12793.37
478.90	13078.91
479.08	12996.99
479.26	13198.28
479.44	12870.61
479.62	13249.77
479.80	13104.66
479.98	13310.63
480.16	13785.76
480.34	13596.17
480.52	13858.31
480.70	13912.14
480.88	13701.50
481.06	13734.26
481.24	14146.20
481.41	14029.17
481.59	14359.19
481.77	14401.32
481.95	14490.26
482.13	14455.15
482.31	14534.73
482.49	14932.62
482.67	14857.72
482.85	15152.63
483.03	15169.01
483.21	15353.91
483.39	15499.03
483.57	15452.22
483.74	15712.02
483.92	15648.82
484.10	15831.38
484.28	15868.83
484.46	15995.22
484.64	16266.72
484.82	16098.20
485.00	16123.95
485.18	16390.77
485.35	16624.83
485.53	16322.90
485.71	16341.62
485.89	16444.60
486.07	16407.16
486.25	16781.64
486.43	16739.51
486.61	17179.53
486.78	17341.03
486.96	17528.27
487.14	17694.45
487.32	17659.34
487.50	18167.24
487.68	18218.73
487.85	18293.63
488.03	18506.62
488.21	18457.46
488.39	18838.97
488.57	18991.11
488.75	18836.63
488.92	18895.14
489.10	19613.69
489.28	19557.52
489.46	19693.27
489.64	19711.99
489.81	19913.28
489.99	20322.87
490.17	20184.78
490.35	20285.42
490.53	20587.35
490.70	20692.68
490.88	20538.20
491.06	20919.71
491.24	20688.00
491.41	20807.36
491.59	20964.18
491.77	20807.36
491.95	21472.07
492.13	21303.56
492.30	21610.17
492.48	22082.95
492.66	21713.15
492.84	21975.29
493.01	22024.44
493.19	22026.78
493.37	21991.67
493.54	22663.41
493.72	22745.33
493.90	22511.27
494.08	23267.27
494.25	23295.35
494.43	23314.08
494.61	23393.65
494.79	23592.60
494.96	23573.88
495.14	23220.45
495.32	24018.58
495.49	23672.18
495.67	23915.59
495.85	24374.34
496.02	24496.05
496.20	24655.20
496.38	24357.96
496.55	24587.33
496.73	25170.12
496.91	24849.47
497.09	24945.43
497.26	25209.91
497.44	25055.43
497.62	24926.71
497.79	25427.58
497.97	25266.08
498.14	25535.24
498.32	25872.28
498.50	25654.61
498.67	25937.82
498.85	25638.23
499.03	26286.56
499.20	26199.96
499.38	26534.65
499.56	26536.99
499.73	26747.64
499.91	26806.16
500.08	26726.58
500.26	26300.60
500.44	27192.34
500.61	26735.94
500.79	26977.01
500.97	27124.47
501.14	27087.02
501.32	27288.31
501.49	27285.97
501.67	27236.81
501.84	27831.31
502.02	27534.06
502.20	27803.22
502.37	27742.37
502.55	27637.05
502.72	27910.89
502.90	28276.01
503.07	28070.04
503.25	28369.63
503.43	28173.03
503.60	28568.58
503.78	28133.24
503.95	28219.84
504.13	28514.75
504.30	28666.88
504.48	28634.11
504.65	28811.99
504.83	28910.30
505.01	28875.19
505.18	29298.83
505.36	29624.16
505.53	29567.99
505.71	29668.63
505.88	29397.13
506.06	29394.79
506.23	29769.27
506.41	29860.55
506.58	29776.30
506.76	30115.67
506.93	29872.26
507.11	29860.55
507.28	29862.90
507.46	30370.79
507.63	30260.79
507.81	30490.16
507.98	30333.34
508.16	30298.23
508.33	31007.42
508.50	30892.73
508.68	31250.83
508.85	31299.98
509.03	31255.51
509.20	31278.92
509.38	31328.07
509.55	31234.45
509.73	31269.56
509.90	31468.50
510.08	31576.17
510.25	31297.64
510.42	31594.89
510.60	31899.16
510.77	32191.73
510.95	32142.58
511.12	31630.00
511.30	32315.78
511.47	32402.38
511.64	32404.72
511.82	32573.24
511.99	32219.81
512.17	32318.12
512.34	32561.53
512.51	32875.16
512.69	32606.00
512.86	32774.52
513.04	33261.35
513.21	32994.53
513.38	33015.60
513.56	33310.50
513.73	33261.35
513.90	32896.23
514.08	33118.58
514.25	33663.93
514.43	33123.26
514.60	33357.32
514.77	33427.53
514.95	33785.63
515.12	33411.15
515.29	33462.64
515.47	33684.99
515.64	33996.28
515.81	33680.31
515.99	33748.18
516.16	33975.22
516.33	33799.68
516.51	33729.46
516.68	33689.67
516.85	33420.51
517.03	33647.54
517.20	34033.73
517.37	33888.62
517.54	34487.79
517.72	34724.19
517.89	34242.04
518.06	34153.10
518.24	34342.68
518.41	34660.99
518.58	34361.40
518.75	34586.10
518.93	34703.12
519.10	35129.10
519.27	35124.42
519.45	35108.04
519.62	35037.82
519.79	35311.66
519.96	35847.64
520.14	35758.70
520.31	35522.31
520.48	35487.20
520.65	35590.19
520.83	36161.28
521.00	35625.29
521.17	36086.38
521.34	36245.54
521.52	36037.23
521.69	36591.94
521.86	36697.26
522.03	36552.15
522.20	36074.68
522.38	36203.41
522.55	37074.09
522.72	36755.77
522.89	36367.24
523.07	36694.92
523.24	37055.36
523.41	37137.28
523.58	36842.37
523.75	37130.26
523.92	37378.36
524.10	37425.17
524.27	37397.08
524.44	37572.62
524.61	37177.07
524.78	37862.85
524.96	37528.15
525.13	37284.73
525.30	38108.60
525.47	37869.87
525.64	37558.58
525.81	37722.41
525.98	37436.87
526.16	37612.41
526.33	37277.71
526.50	37605.39
526.67	37563.26
526.84	37691.99
527.01	37481.34
527.18	37794.97
527.36	37993.92
527.53	38143.71
527.70	39152.48
527.87	38539.26
528.04	38473.73
528.21	38473.73
528.38	38391.81
528.55	38972.26
528.72	38646.93
528.89	39423.98
529.07	38810.76
529.24	38752.25
529.41	38866.94
529.58	38632.88
529.75	39166.52
529.92	39056.52
530.09	39522.29
530.26	39557.39
530.43	39325.68
530.60	39208.65
530.77	39299.94
530.94	39157.16
531.11	39604.20
531.28	39452.07
531.46	39927.20
531.63	39597.18
531.80	39842.94
531.97	39288.23
532.14	39180.57
532.31	39428.66
532.48	40072.31
532.65	39470.79
532.82	39723.57
532.99	40076.99
533.16	39447.39
533.33	39669.74
533.50	40353.18
533.67	39737.62
533.84	39749.32
534.01	40231.47
534.18	40397.65
534.35	40479.57
534.52	40627.02
534.69	40678.51
534.86	40577.87
535.03	40634.04
535.20	40989.80
535.37	41071.72
535.54	40966.40
535.71	40891.50
535.88	40629.36
536.05	40835.33
536.22	40931.29
536.38	41045.97
536.55	40807.24
536.72	41116.19
536.89	40594.25
537.06	40509.99
537.23	41500.04
537.40	40809.58
537.57	41308.11
537.74	41326.84
537.91	41640.47
538.08	41226.20
538.25	41448.55
538.42	41598.34
538.59	41624.09
538.75	40996.82
538.92	41493.02
539.09	41633.45
539.26	41455.57
539.43	41287.05
539.60	41418.12
539.77	41537.49
539.94	41827.71
540.11	41268.33
540.28	41563.23
540.44	41813.67
540.61	41886.23
540.78	41738.77
540.95	41766.86
541.12	41722.39
541.29	41799.63
541.46	42131.98
541.62	41841.76
541.79	42260.71
541.96	41361.95
542.13	42389.44
542.30	41727.07
542.47	42499.45
542.63	42160.07
542.80	42344.97
542.97	42621.16
543.14	42923.08
543.31	42398.80
543.48	42445.62
543.64	43164.16
543.81	42939.47
543.98	43180.54
544.15	42700.73
544.32	43292.89
544.48	42960.53
544.65	42906.70
544.82	43232.04
544.99	42787.33
545.16	43480.13
545.32	42981.60
545.49	43342.04
545.66	43222.67
545.83	43618.22
546.00	43548.01
546.16	43498.86
546.33	43173.52
546.50	42958.19
546.67	43365.45
546.83	43110.33
547.00	43555.03
547.17	43477.79
547.34	43288.21
547.50	43871.00
547.67	43786.74
547.84	43503.54
548.00	43835.89
548.17	44098.03
548.34	43896.75
548.51	44074.63
548.67	44397.62
548.84	44278.25
549.01	43639.29
549.18	43643.97
549.34	44165.91
549.51	44102.71
549.68	44112.08
549.84	44208.04
550.01	44308.68
550.18	44037.18
550.34	44006.75
550.51	43964.62
550.68	44250.17
550.84	43800.79
551.01	44016.11
551.18	44182.29
551.34	44390.60
551.51	44170.59
551.68	44495.92
551.84	44608.27
552.01	44364.85
552.18	44676.15
552.34	44250.17
552.51	44383.58
552.68	44280.60
552.84	44715.93
553.01	44802.53
553.18	44495.92
553.34	44589.55
553.51	44722.96
553.67	44629.34
553.84	44683.17
554.01	44968.71
554.17	45181.70
554.34	45020.20
554.51	45069.36
554.67	45015.52
554.84	45200.43
555.00	44720.62
555.17	45088.08
555.33	44744.02
555.50	44582.52
555.67	45132.55
555.83	44999.14
556.00	45038.93
556.16	45380.65
556.33	45017.86
556.50	45064.67
556.66	45067.02
556.83	44734.66
556.99	45441.50
557.16	45261.28
557.32	45256.60
557.49	45720.02
557.65	45106.80
557.82	45109.14
557.98	45462.57
558.15	45392.35
558.32	45649.81
558.48	45373.63
558.65	45481.29
558.81	45048.29
558.98	44865.73
559.14	45418.10
559.31	45216.81
559.47	45720.02
559.64	45467.25
559.80	45556.19
559.97	45450.86
560.13	45429.80
560.30	45382.99
560.46	45694.28
560.63	45488.31
560.79	45937.69
560.96	45546.82
561.12	45617.04
561.29	45537.46
561.45	45741.09
561.61	45614.70
561.78	45413.41
561.94	45338.52
562.11	45638.11
562.27	45469.59
562.44	45682.58
562.60	45986.85
562.77	45909.61
562.93	45680.24
563.10	45759.81
563.26	45595.98
563.42	45949.40
563.59	45614.70
563.75	45247.24
563.92	45944.72
564.08	45614.70
564.24	45858.12
564.41	46024.29
564.57	46150.68
564.74	45937.69
564.90	46019.61
565.07	45670.87
565.23	45607.68
565.39	45736.41
565.56	45778.54
565.72	45872.16
565.88	45968.12
566.05	45883.86
566.21	46033.66
566.38	46021.95
566.54	46295.80
566.70	45907.27
566.87	46103.87
567.03	46040.68
567.19	46244.30
567.36	46040.68
567.52	45663.85
567.68	46024.29
567.85	45918.97
568.01	46181.11
568.17	45947.06
568.34	45888.54
568.50	46003.23
568.66	45937.69
568.83	45848.75
568.99	45888.54
569.15	45907.27
569.32	46057.06
569.48	45727.05
569.64	45769.18
569.81	46061.74
569.97	46045.36
570.13	46129.62
570.30	45813.65
570.46	45832.37
570.62	46033.66
570.78	46438.57
570.95	45989.19
571.11	46059.40
571.27	45701.30
571.43	45888.54
571.60	46295.80
571.76	46525.17
571.92	46487.72
572.09	46068.76
572.25	45897.91
572.41	46019.61
572.57	46459.63
572.74	46511.13
572.90	45986.85
573.06	46422.19
573.22	46136.64
573.38	46548.57
573.55	46387.08
573.71	46267.71
573.87	46326.22
574.03	46419.84
574.20	46258.35
574.36	45935.35
574.52	46110.89
574.68	46265.37
574.84	46185.79
575.01	46038.34
575.17	46162.39
575.33	46440.91
575.49	46092.17
575.65	46223.24
575.82	46382.40
575.98	46036.00
576.14	46571.98
576.30	46323.88
576.46	46555.60
576.62	46295.80
576.79	46199.83
576.95	46286.43
577.11	46469.00
577.27	45998.55
577.43	46422.19
577.59	45947.06
577.75	46424.53
577.92	45647.47
578.08	45759.81
578.24	46422.19
578.40	45745.77
578.56	46267.71
578.72	46164.73
578.88	46117.92
579.04	46440.91
579.21	46000.89
579.37	46000.89
579.53	46260.69
579.69	45837.05
579.85	46363.67
580.01	46354.31
580.17	46101.53
580.33	46569.64
580.49	46326.22
580.65	46429.21
580.82	46518.15
580.98	46274.73
581.14	46543.89
581.30	46504.10
581.46	46375.37
581.62	46469.00
581.78	46213.88
581.94	46459.63
582.10	46466.66
582.26	46405.80
582.42	46686.67
582.58	46286.43
582.74	46134.30
582.90	46213.88
583.06	46705.39
583.22	46248.99
583.38	46623.47
583.54	46618.79
583.70	46550.91
583.86	46061.74
584.02	46003.23
584.18	46677.30
584.34	46281.75
584.50	46604.75
584.66	46246.65
584.82	45909.61
584.98	46534.53
585.14	46354.31
585.30	46749.86
585.46	46326.22
585.62	45989.19
585.78	46321.54
585.94	45989.19
586.10	46337.93
586.26	45794.92
586.42	46649.22
586.58	46469.00
586.74	46597.73
586.90	45998.55
587.06	46227.92
587.22	46518.15
587.38	45851.09
587.54	46426.87
587.70	46314.52
587.86	46522.83
588.02	46927.74
588.18	46417.50
588.34	46146.00
588.49	45750.45
588.65	45471.93
588.81	46302.82
588.97	46209.20
589.13	45542.14
589.29	46036.00
589.45	46216.22
589.61	46176.43
589.77	46543.89
589.93	46059.40
