SpectraSuite Data File
++++++++++++++++++++++++++++++++++++
Date: Fri Oct 25 11:34:39 EDT 2013
User: price-jones
Dark Spectrum Present: No
Reference Spectrum Present: No
Number of Sampled Component Spectra: 1
Spectrometers: USB2+H05261
Integration Time (usec): 100000 (USB2+H05261)
Spectra Averaged: 1 (USB2+H05261)
Boxcar Smoothing: 0 (USB2+H05261)
Correct for Electrical Dark: No (USB2+H05261)
Strobe/Lamp Enabled: No (USB2+H05261)
Correct for Detector Non-linearity: No (USB2+H05261)
Correct for Stray Light: No (USB2+H05261)
Number of Pixels in Processed Spectrum: 2048
>>>>>Begin Processed Spectral Data<<<<<
365.73	306.61
365.92	306.61
366.12	306.61
366.32	105.32
366.52	168.52
366.72	215.33
366.91	205.97
367.11	145.11
367.31	182.56
367.51	187.24
367.70	196.60
367.90	245.76
368.10	222.35
368.30	194.26
368.49	117.03
368.69	248.10
368.89	166.18
369.09	187.24
369.28	187.24
369.48	297.25
369.68	222.35
369.87	248.10
370.07	208.31
370.27	196.60
370.47	294.91
370.66	468.11
370.86	573.43
371.06	521.94
371.25	552.37
371.45	540.66
371.65	561.73
371.84	538.32
372.04	587.47
372.24	578.11
372.44	533.64
372.63	564.07
372.83	648.33
373.03	634.29
373.22	566.41
373.42	641.31
373.62	552.37
373.81	674.07
374.01	660.03
374.21	664.71
374.40	624.92
374.60	629.60
374.79	585.13
374.99	643.65
375.19	709.18
375.38	660.03
375.58	643.65
375.78	692.80
375.97	599.18
376.17	763.01
376.37	653.01
376.56	669.39
376.76	624.92
376.95	704.50
377.15	636.63
377.35	664.71
377.54	664.71
377.74	674.07
377.93	709.18
378.13	779.40
378.33	634.29
378.52	636.63
378.72	669.39
378.91	704.50
379.11	608.54
379.31	681.10
379.50	671.73
379.70	718.54
379.89	748.97
380.09	725.57
380.28	774.72
380.48	723.23
380.68	784.08
380.87	755.99
381.07	763.01
381.26	826.21
381.46	779.40
381.65	772.38
381.85	774.72
382.04	713.86
382.24	791.10
382.43	741.95
382.63	767.70
382.83	800.46
383.02	807.48
383.22	784.08
383.41	844.93
383.61	716.20
383.80	854.30
384.00	777.06
384.19	828.55
384.39	777.06
384.58	793.44
384.78	798.12
384.97	868.34
385.17	844.93
385.36	807.48
385.56	765.36
385.75	837.91
385.95	826.21
386.14	880.04
386.34	800.46
386.53	816.85
386.72	739.61
386.92	809.83
387.11	903.45
387.31	842.59
387.50	772.38
387.70	858.98
387.89	922.17
388.09	908.13
388.28	849.61
388.48	873.02
388.67	903.45
388.86	912.81
389.06	849.61
389.25	978.34
389.45	931.53
389.64	894.08
389.84	950.26
390.03	915.15
390.22	903.45
390.42	1027.50
390.61	896.43
390.81	938.55
391.00	945.58
391.19	954.94
391.39	947.92
391.58	971.32
391.78	992.39
391.97	961.96
392.16	992.39
392.36	1083.67
392.55	1050.90
392.75	1053.24
392.94	1018.13
393.13	1090.69
393.33	1146.86
393.52	1062.60
393.71	1121.12
393.91	1034.52
394.10	994.73
394.29	1022.81
394.49	1069.62
394.68	1078.99
394.88	1088.35
395.07	1111.75
395.26	1078.99
395.46	1081.33
395.65	1151.54
395.84	1081.33
396.04	1149.20
396.23	1121.12
396.42	1191.33
396.62	1156.22
396.81	1210.06
397.00	1228.78
397.19	1118.78
397.39	1174.95
397.58	1135.16
397.77	1086.01
397.97	1191.33
398.16	1205.38
398.35	1277.93
398.55	1188.99
398.74	1294.32
398.93	1249.85
399.12	1226.44
399.32	1193.67
399.51	1219.42
399.70	1308.36
399.90	1315.38
400.09	1184.31
400.28	1387.94
400.47	1329.42
400.67	1352.83
400.86	1317.72
401.05	1322.40
401.24	1397.30
401.44	1343.47
401.63	1451.13
401.82	1310.70
402.01	1416.02
402.21	1479.22
402.40	1437.09
402.59	1387.94
402.78	1446.45
402.97	1434.75
403.17	1507.30
403.36	1526.03
403.55	1521.35
403.74	1526.03
403.93	1591.56
404.13	1589.22
404.32	1561.14
404.51	1526.03
404.70	1596.25
404.89	1570.50
405.09	1659.44
405.28	1678.16
405.47	1577.52
405.66	1657.10
405.85	1617.31
406.05	1572.84
406.24	1638.38
406.43	1666.46
406.62	1636.03
406.81	1727.32
407.00	1626.67
407.20	1668.80
407.39	1788.17
407.58	1699.23
407.77	1799.87
407.96	1888.81
408.15	1799.87
408.34	1724.97
408.54	1846.68
408.73	1792.85
408.92	1872.43
409.11	1902.86
409.30	1827.96
409.49	1788.17
409.68	1837.32
409.87	1987.11
410.07	1916.90
410.26	1937.96
410.45	1980.09
410.64	2012.86
410.83	2076.06
411.02	2031.58
411.21	2024.56
411.40	1996.48
411.59	2092.44
411.78	2172.02
411.98	2148.61
412.17	2181.38
412.36	2120.53
412.55	2260.96
412.74	2277.34
412.93	2263.30
413.12	2214.15
413.31	2359.26
413.50	2221.17
413.69	2246.91
413.88	2373.30
414.07	2410.75
414.26	2431.82
414.45	2511.39
414.64	2413.09
414.83	2466.92
415.02	2415.43
415.22	2401.39
415.41	2569.91
415.60	2473.95
415.79	2516.08
415.98	2689.28
416.17	2548.84
416.36	2471.61
416.55	2733.75
416.74	2736.09
416.93	2654.17
417.12	2630.76
417.31	2836.73
417.50	2768.85
417.69	2925.67
417.88	2761.83
418.07	2686.94
418.26	2829.71
418.45	2956.10
418.64	2899.92
418.83	2911.63
419.02	2935.03
419.21	2998.23
419.39	3052.06
419.58	2911.63
419.77	2960.78
419.96	3033.33
420.15	2953.76
420.34	2977.16
420.53	2960.78
420.72	3040.36
420.91	3108.23
421.10	3059.08
421.29	3227.60
421.48	3084.83
421.67	3143.34
421.86	3234.62
422.05	3056.74
422.24	3194.83
422.43	3162.06
422.61	3131.64
422.80	3318.88
422.99	3279.09
423.18	3253.34
423.37	3180.79
423.56	3290.79
423.75	3255.69
423.94	3129.30
424.13	3002.91
424.32	3117.59
424.50	3255.69
424.69	3328.24
424.88	3370.37
425.07	3248.66
425.26	3101.21
425.45	3234.62
425.64	3276.75
425.83	3241.64
426.01	3389.10
426.20	3424.20
426.39	3417.18
426.58	3346.97
426.77	3389.10
426.96	3396.12
427.15	3379.73
427.33	3377.39
427.52	3286.11
427.71	3400.80
427.90	3344.63
428.09	3545.91
428.28	3421.86
428.46	3463.99
428.65	3559.95
428.84	3620.81
429.03	3620.81
429.22	3445.27
429.40	3557.61
429.59	3660.60
429.78	3473.36
429.97	3440.59
430.16	3538.89
430.34	3686.34
430.53	3749.54
430.72	3515.48
430.91	3691.02
431.10	3658.26
431.28	3770.60
431.47	3819.75
431.66	3819.75
431.85	3857.20
432.03	3789.33
432.22	3950.82
432.41	3824.44
432.60	3999.98
432.79	3815.07
432.97	4007.00
433.16	3904.01
433.35	3817.41
433.54	3932.10
433.72	4030.40
433.91	3934.44
434.10	4037.42
434.28	3969.55
434.47	3997.64
434.66	4124.02
434.85	4175.52
435.03	4227.01
435.22	4161.47
435.41	4114.66
435.59	4184.88
435.78	4205.94
435.97	4147.43
436.16	4205.94
436.34	4182.54
436.53	4184.88
436.72	4395.53
436.90	4229.35
437.09	4238.71
437.28	4205.94
437.46	4203.60
437.65	4280.84
437.84	4304.25
438.02	4376.80
438.21	4325.31
438.40	4358.08
438.58	4557.02
438.77	4589.79
438.96	4444.68
439.14	4585.11
439.33	4559.36
439.52	4741.93
439.70	4652.98
439.89	4795.76
440.08	4898.74
440.26	4690.43
440.45	4634.26
440.63	4933.85
440.82	4821.50
441.01	4816.82
441.19	4889.38
441.38	4943.21
441.57	4936.19
441.75	5043.85
441.94	5043.85
442.12	5153.86
442.31	5128.11
442.50	5256.84
442.68	5177.26
442.87	5146.84
443.05	5191.31
443.24	5416.00
443.43	5235.78
443.61	5341.10
443.80	5352.81
443.98	5085.98
444.17	4985.34
444.35	5235.78
444.54	5308.34
444.73	5322.38
444.91	5387.91
445.10	5451.11
445.28	5266.21
445.47	5324.72
445.65	5364.51
445.84	5495.58
446.02	5451.11
446.21	5533.03
446.39	5385.57
446.58	5458.13
446.77	5343.44
446.95	5434.72
447.14	5472.17
447.32	5493.24
447.51	5383.23
447.69	5446.43
447.88	5497.92
448.06	5406.64
448.25	5397.28
448.43	5614.95
448.62	5469.83
448.80	5406.64
448.99	5603.24
449.17	5469.83
449.36	5439.40
449.54	5500.26
449.73	5769.42
449.91	5727.29
450.10	5643.03
450.28	5830.27
450.46	5935.60
450.65	5830.27
450.83	5830.27
451.02	5654.73
451.20	5921.56
451.39	5914.53
451.57	5937.94
451.76	5841.98
451.94	5736.65
452.13	5935.60
452.31	5968.37
452.49	5907.51
452.68	5881.77
452.86	5961.34
453.05	6090.07
453.23	6038.58
453.42	5998.79
453.60	5954.32
453.78	5968.37
453.97	5921.56
454.15	6111.14
454.34	6101.78
454.52	6204.76
454.70	6230.51
454.89	6368.60
455.07	6408.39
455.26	6235.19
455.44	6448.18
455.62	6134.54
455.81	6431.79
455.99	6326.47
456.17	6527.75
456.36	6389.66
456.54	6333.49
456.73	6438.81
456.91	6729.04
457.09	6740.74
457.28	6736.06
457.46	6459.88
457.64	6715.00
457.83	6738.40
458.01	6656.48
458.19	6764.15
458.38	6644.78
458.56	6745.42
458.74	6988.84
458.93	6869.47
459.11	6864.79
459.29	6827.34
459.48	7075.44
459.66	6911.60
459.84	6876.49
460.03	7204.17
460.21	7070.76
460.39	6918.62
460.57	6827.34
460.76	6988.84
460.94	7007.56
461.12	7131.61
461.31	7028.63
461.49	7187.79
461.67	7129.27
461.85	7302.47
462.04	7279.07
462.22	7487.37
462.40	7372.69
462.59	7318.86
462.77	7222.89
462.95	7222.89
463.13	7318.86
463.32	7342.26
463.50	7555.25
463.68	7414.82
463.86	7445.24
464.05	7522.48
464.23	7569.29
464.41	7508.44
464.59	7482.69
464.78	7651.21
464.96	7625.47
465.14	7489.71
465.32	7665.25
465.50	7796.32
465.69	7672.28
465.87	7658.23
466.05	7604.40
466.23	7819.73
466.41	7730.79
466.60	7824.41
466.78	7597.38
466.96	7735.47
467.14	7777.60
467.32	7852.50
467.51	7911.01
467.69	7639.51
467.87	7751.85
468.05	7871.22
468.23	7922.71
468.41	7920.37
468.60	8023.36
468.78	8067.83
468.96	8037.40
469.14	8060.80
469.32	8149.75
469.50	7981.23
469.69	8077.19
469.87	8156.77
470.05	8276.13
470.23	8311.24
470.41	8444.65
470.59	8315.92
470.77	8461.04
470.95	8379.12
471.14	8510.19
471.32	8269.11
471.50	8594.45
471.68	8552.32
471.86	8603.81
472.04	8575.72
472.22	8690.41
472.40	8727.86
472.58	8720.84
472.77	8734.88
472.95	8915.10
473.13	9025.11
473.31	8744.24
473.49	9018.08
473.67	9015.74
473.85	9202.99
474.03	9451.08
474.21	9153.84
474.39	9444.06
474.57	9280.22
474.75	9418.32
474.93	9502.58
475.12	9472.15
475.30	9511.94
475.48	9418.32
475.66	9586.83
475.84	9776.42
476.02	9502.58
476.20	9738.97
476.38	10022.17
476.56	9994.09
476.74	10031.54
476.92	9886.42
477.10	9923.87
477.28	10218.78
477.46	9975.36
477.64	10005.79
477.82	10415.38
478.00	10445.81
478.18	10527.73
478.36	10754.76
478.54	10586.24
478.72	10757.10
478.90	10869.45
479.08	10801.57
479.26	11131.59
479.44	10972.43
479.62	11234.57
479.80	11075.42
479.98	11461.60
480.16	11480.33
480.34	11307.13
480.52	11627.78
480.70	11562.25
480.88	11274.36
481.06	11775.24
481.24	11796.30
481.41	11983.54
481.59	12074.82
481.77	12072.48
481.95	12121.63
482.13	12175.47
482.31	12329.94
482.49	12575.70
482.67	12603.78
482.85	12676.34
483.03	12809.75
483.21	12833.16
483.39	12884.65
483.57	12940.82
483.74	13242.75
483.92	13179.56
484.10	13041.46
484.28	13376.16
484.46	13909.80
484.64	13781.07
484.82	13694.47
485.00	13799.80
485.18	13898.10
485.35	14171.94
485.53	14274.93
485.71	14331.10
485.89	14726.65
486.07	14391.95
486.25	14415.36
486.43	14450.47
486.61	14864.74
486.78	14841.34
486.96	15117.52
487.14	15164.33
487.32	15243.91
487.50	15213.48
487.68	15330.51
487.85	15726.06
488.03	15651.16
488.21	15882.88
488.39	16203.53
488.57	16259.70
488.75	16278.43
488.92	16692.70
489.10	16688.02
489.28	16702.06
489.46	16723.13
489.64	17106.98
489.81	17170.17
489.99	17146.76
490.17	17050.80
490.35	17404.22
490.53	17528.27
490.70	17563.38
490.88	17664.02
491.06	17862.97
491.24	17982.34
491.41	17774.03
491.59	18293.63
491.77	18274.90
491.95	18162.56
492.13	18256.18
492.30	18530.02
492.48	18881.10
492.66	18787.48
492.84	18654.07
493.01	18874.08
493.19	19012.17
493.37	18946.64
493.54	19225.16
493.72	19433.47
493.90	19445.17
494.08	19506.02
494.25	19917.96
494.43	19978.81
494.61	20109.88
494.79	20133.29
494.96	20245.63
495.14	20212.87
495.32	20556.93
495.49	20477.35
495.67	20500.75
495.85	20924.39
496.02	21240.36
496.20	21095.25
496.38	21043.76
496.55	21228.66
496.73	21488.46
496.91	21488.46
497.09	21453.35
497.26	21706.13
497.44	21476.76
497.62	21762.30
497.79	21755.28
497.97	22136.79
498.14	21979.97
498.32	22302.96
498.50	22408.29
498.67	22843.63
498.85	22401.27
499.03	22913.84
499.20	22609.58
499.38	22733.62
499.56	22972.36
499.73	22885.76
499.91	23166.62
500.08	23548.13
500.26	23276.63
500.44	23403.02
500.61	23527.06
500.79	23028.53
500.97	23660.48
501.14	23943.68
501.32	23726.01
501.49	23775.16
501.67	24130.92
501.84	24046.66
502.02	23936.66
502.20	24023.26
502.37	24121.56
502.55	24397.74
502.72	24554.56
502.90	24453.92
503.07	24666.91
503.25	24671.59
503.43	24765.21
503.60	24790.95
503.78	25055.43
503.95	24938.41
504.13	25003.94
504.30	25282.47
504.48	25139.69
504.65	25111.61
504.83	25135.01
505.01	25563.33
505.18	25455.67
505.36	25900.37
505.53	25539.93
505.71	25734.19
505.88	25898.03
506.06	25795.04
506.23	25991.65
506.41	26129.74
506.58	26005.69
506.76	26066.55
506.93	26562.74
507.11	26494.86
507.28	26508.91
507.46	26593.17
507.63	26728.92
507.81	26745.30
507.98	26897.44
508.16	26909.14
508.33	26948.93
508.50	26883.39
508.68	27140.85
508.85	27112.77
509.03	27349.16
509.20	27543.42
509.38	27709.60
509.55	27623.00
509.73	27513.00
509.90	27707.26
510.08	27569.17
510.25	27988.13
510.42	28041.96
510.60	28135.58
510.77	28079.41
510.95	28212.82
511.12	28121.54
511.30	28297.08
511.47	28580.28
511.64	28779.23
511.82	28814.34
511.99	28390.70
512.17	28540.49
512.34	28655.18
512.51	28943.06
512.69	28999.24
512.86	28910.30
513.04	29301.17
513.21	29013.28
513.38	29436.92
513.56	29390.11
513.73	29383.09
513.90	29275.42
514.08	29319.89
514.25	29797.36
514.43	29589.05
514.60	29509.47
514.77	29757.57
514.95	30202.27
515.12	30162.48
515.29	30057.16
515.47	30050.14
515.64	30113.33
515.81	30085.25
515.99	30368.45
516.16	30541.65
516.33	30408.24
516.51	30635.27
516.68	30780.39
516.85	30300.58
517.03	30988.69
517.20	30724.21
517.37	30522.93
517.54	31056.57
517.72	30962.95
517.89	30960.61
518.06	31140.83
518.24	31037.84
518.41	31314.03
518.58	31192.32
518.75	31302.32
518.93	31503.61
519.10	31604.25
519.27	31496.59
519.45	31644.04
519.62	31585.53
519.79	31964.70
519.96	31938.95
520.14	32119.17
520.31	31927.25
520.48	32268.97
520.65	31985.76
520.83	32273.65
521.00	32360.25
521.17	32257.26
521.34	32685.58
521.52	32566.21
521.69	32362.59
521.86	32577.92
522.03	32683.24
522.20	33001.55
522.38	33394.76
522.55	32830.69
522.72	33057.73
522.89	32978.15
523.07	33584.35
523.24	33139.65
523.41	33174.75
523.58	33408.81
523.75	33359.66
523.92	33181.77
524.10	33462.64
524.27	33621.80
524.44	33876.91
524.61	33621.80
524.78	33425.19
524.96	33923.72
525.13	34206.93
525.30	34216.29
525.47	34323.96
525.64	34354.38
525.81	34073.52
525.98	34178.84
526.16	34368.43
526.33	34394.17
526.50	34682.06
526.67	34471.41
526.84	34593.12
527.01	34450.35
527.18	34621.20
527.36	34724.19
527.53	34508.86
527.70	35044.84
527.87	35173.57
528.04	34555.67
528.21	34913.77
528.38	34934.84
528.55	35519.97
528.72	34937.18
528.89	34946.54
529.07	35140.80
529.24	35091.65
529.41	35276.55
529.58	35145.48
529.75	35182.93
529.92	35599.55
530.09	35601.89
530.26	35241.45
530.43	35576.14
530.60	35339.75
530.77	35426.35
530.94	35730.62
531.11	35384.22
531.28	36208.09
531.46	35669.76
531.63	35564.44
531.80	36011.48
531.97	36348.52
532.14	36219.79
532.31	36044.25
532.48	36435.12
532.65	36882.16
532.82	36294.69
532.99	36432.78
533.16	36126.17
533.33	36318.09
533.50	36521.72
533.67	36943.02
533.84	36666.83
534.01	36751.09
534.18	36767.48
534.35	37013.23
534.52	36919.61
534.69	37078.77
534.86	37060.04
535.03	36678.54
535.20	37046.00
535.37	37078.77
535.54	37244.94
535.71	37226.22
535.88	37230.90
536.05	37317.50
536.22	37340.91
536.38	37682.62
536.55	37474.32
536.72	37390.06
536.89	37209.84
537.06	37715.39
537.23	37771.57
537.40	37645.18
537.57	37523.47
537.74	37500.06
537.91	37935.40
538.08	37626.45
538.25	37804.33
538.42	37785.61
538.59	38267.76
538.75	37661.56
538.92	38136.69
539.09	38312.23
539.26	38382.45
539.43	38494.79
539.60	38466.70
539.77	38686.71
539.94	38501.81
540.11	38574.37
540.28	37979.87
540.44	38930.13
540.61	38340.32
540.78	38270.10
540.95	38590.75
541.12	38520.54
541.29	38656.29
541.46	38246.69
541.62	38759.27
541.79	38789.70
541.96	38740.55
542.13	38579.05
542.30	38653.95
542.47	38873.96
542.63	39014.39
542.80	39140.78
542.97	39313.98
543.14	39201.63
543.31	39416.96
543.48	39129.08
543.64	39821.87
543.81	40425.73
543.98	39861.66
544.15	39096.31
544.32	39985.71
544.48	40275.94
544.65	39674.42
544.82	39821.87
544.99	40339.13
545.16	39849.96
545.32	40023.16
545.49	40044.23
545.66	40470.20
545.83	40332.11
546.00	40264.24
546.16	39974.01
546.33	40191.68
546.50	40215.08
546.67	40137.85
546.83	40205.72
547.00	40119.12
547.17	40137.85
547.34	40004.44
547.50	40573.19
547.67	41017.89
547.84	40554.46
548.00	40495.95
548.17	41076.40
548.34	40545.10
548.51	41090.44
548.67	41289.39
548.84	40889.16
549.01	40631.70
549.18	40868.09
549.34	40954.69
549.51	41258.96
549.68	41216.83
549.84	41155.98
550.01	41106.83
550.18	41209.81
550.34	41111.51
550.51	41273.01
550.68	41832.39
550.84	41151.30
551.01	41347.90
551.18	41383.01
551.34	41427.48
551.51	41507.06
551.68	41441.53
551.84	41462.59
552.01	41345.56
552.18	41490.68
552.34	41652.17
552.51	41446.21
552.68	41907.29
552.84	41280.03
553.01	41544.51
553.18	41633.45
553.34	41598.34
553.51	41813.67
553.67	41928.36
553.84	42110.92
554.01	42185.82
554.17	42274.76
554.34	42389.44
554.51	42162.41
554.67	41998.57
554.84	42422.21
555.00	41663.88
555.17	42230.29
555.33	42096.88
555.50	42021.98
555.67	42469.02
555.83	41979.85
556.00	42597.75
556.16	42579.03
556.33	42178.79
556.50	42534.56
556.66	42375.40
556.83	42436.25
556.99	42972.24
557.16	42457.32
557.32	42827.12
557.49	42567.32
557.65	42520.51
557.82	42604.77
557.98	42930.11
558.15	42927.77
558.32	42693.71
558.48	42253.69
558.65	42742.86
558.81	43002.66
558.98	42665.63
559.14	42742.86
559.31	42677.33
559.47	42562.64
559.64	43145.44
559.80	42462.00
559.97	42972.24
560.13	42684.35
560.30	43068.20
560.46	43271.82
560.63	42923.08
560.79	42930.11
560.96	43447.36
561.12	43154.80
561.29	43456.73
561.45	43007.34
561.61	43241.40
561.78	43391.19
561.94	43737.59
562.11	43449.70
562.27	43241.40
562.44	43117.35
562.60	43618.22
562.77	43756.32
562.93	43302.25
563.10	43543.33
563.26	43388.85
563.42	43861.64
563.59	43213.31
563.75	43709.50
563.92	43693.12
564.08	43468.43
564.24	43426.30
564.41	43225.01
564.57	43859.30
564.74	43952.92
564.90	43618.22
565.07	43707.16
565.23	43421.62
565.39	43803.13
565.56	43789.08
565.72	43416.94
565.88	43863.98
566.05	43697.80
566.21	43529.28
566.38	43737.59
566.54	43775.04
566.70	44158.89
566.87	44107.40
567.03	43608.86
567.19	43828.87
567.36	43880.36
567.52	44002.07
567.68	43978.67
567.85	43756.32
568.01	44144.84
568.17	43695.46
568.34	44626.99
568.50	43615.88
568.66	43861.64
568.83	43863.98
568.99	44165.91
569.15	43948.24
569.32	44154.21
569.48	44044.20
569.64	44584.86
569.81	44294.64
569.97	44320.38
570.13	44275.91
570.30	44041.86
570.46	44409.32
570.62	44259.53
570.78	43730.57
570.95	43854.62
571.11	44711.25
571.27	44151.87
571.43	44065.27
571.60	44226.76
571.76	43983.35
571.92	43938.88
572.09	44378.90
572.25	44208.04
572.41	43992.71
572.57	44135.48
572.74	44313.36
572.90	44219.74
573.06	44128.46
573.22	44320.38
573.38	44839.98
573.55	44362.51
573.71	44947.65
573.87	44463.16
574.03	44477.20
574.20	44465.50
574.36	44598.91
574.52	44821.26
574.68	44278.25
574.84	44594.23
575.01	44917.22
575.17	45003.82
575.33	44765.09
575.49	44336.77
575.65	44423.37
575.82	44800.19
575.98	44369.54
576.14	44634.02
576.30	44699.55
576.46	44605.93
576.62	44685.51
576.79	44369.54
576.95	44524.01
577.11	44533.37
577.27	44734.66
577.43	44460.82
577.59	44783.81
577.75	44240.81
577.92	44102.71
578.08	44505.29
578.24	44804.88
578.40	45052.97
578.56	44636.36
578.72	44334.43
578.88	45057.65
579.04	44924.24
579.21	44849.35
579.37	44844.66
579.53	44634.02
579.69	44570.82
579.85	44603.59
580.01	44568.48
580.17	44622.31
580.33	44814.24
580.49	44449.11
580.65	44868.07
580.82	44458.48
580.98	44388.26
581.14	44491.24
581.30	44938.29
581.46	44411.67
581.62	44596.57
581.78	44854.03
581.94	45045.95
582.10	44804.88
582.26	45088.08
582.42	44961.69
582.58	44678.49
582.74	44678.49
582.90	44603.59
583.06	44753.38
583.22	44631.68
583.38	44828.28
583.54	44832.96
583.70	44928.92
583.86	44917.22
584.02	45031.91
584.18	45303.41
584.34	44886.79
584.50	44992.12
584.66	45205.11
584.82	44900.84
584.98	45099.78
585.14	45029.57
585.30	44793.17
585.46	45113.83
585.62	44980.42
585.78	45319.79
585.94	44811.90
586.10	44924.24
586.26	44964.03
586.42	44893.82
586.58	44847.00
586.74	44882.11
586.90	44957.01
587.06	44697.21
587.22	44973.39
587.38	44985.10
587.54	44952.33
587.70	45455.54
587.86	44879.77
588.02	44793.17
588.18	44924.24
588.34	44886.79
588.49	45338.52
588.65	44900.84
588.81	44903.18
588.97	45198.09
589.13	44989.78
589.29	44954.67
589.45	45092.76
589.61	44809.56
589.77	45397.03
589.93	44397.62
590.08	45572.57
