SpectraSuite Data File
++++++++++++++++++++++++++++++++++++
Date: Fri Oct 25 11:23:35 EDT 2013
User: price-jones
Dark Spectrum Present: No
Reference Spectrum Present: No
Number of Sampled Component Spectra: 1
Spectrometers: USB2+H05261
Integration Time (usec): 100000 (USB2+H05261)
Spectra Averaged: 1 (USB2+H05261)
Boxcar Smoothing: 0 (USB2+H05261)
Correct for Electrical Dark: No (USB2+H05261)
Strobe/Lamp Enabled: No (USB2+H05261)
Correct for Detector Non-linearity: No (USB2+H05261)
Correct for Stray Light: No (USB2+H05261)
Number of Pixels in Processed Spectrum: 2048
>>>>>Begin Processed Spectral Data<<<<<
365.73	217.67
365.92	217.67
366.12	217.67
366.32	154.48
366.52	180.22
366.72	196.60
366.91	70.22
367.11	98.30
367.31	147.45
367.51	119.37
367.70	135.75
367.90	124.05
368.10	131.07
368.30	205.97
368.49	154.48
368.69	191.92
368.89	161.50
369.09	140.43
369.28	194.26
369.48	95.96
369.68	161.50
369.87	208.31
370.07	191.92
370.27	224.69
370.47	372.15
370.66	568.75
370.86	585.13
371.06	643.65
371.25	678.76
371.45	631.94
371.65	681.10
371.84	695.14
372.04	648.33
372.24	674.07
372.44	690.46
372.63	763.01
372.83	685.78
373.03	828.55
373.22	704.50
373.42	690.46
373.62	765.36
373.81	805.14
374.01	812.17
374.21	786.42
374.40	809.83
374.60	816.85
374.79	802.80
374.99	858.98
375.19	788.76
375.38	933.87
375.58	840.25
375.78	849.61
375.97	814.51
376.17	798.12
376.37	830.89
376.56	919.83
376.76	830.89
376.95	840.25
377.15	887.06
377.35	795.78
377.54	875.36
377.74	903.45
377.93	917.49
378.13	866.00
378.33	973.66
378.52	983.02
378.72	882.38
378.91	940.90
379.11	898.77
379.31	795.78
379.50	940.90
379.70	905.79
379.89	915.15
380.09	917.49
380.28	940.90
380.48	964.30
380.68	943.24
380.87	1008.77
381.07	997.07
381.26	997.07
381.46	908.13
381.65	1069.62
381.85	1071.97
382.04	1018.13
382.24	1039.20
382.43	1001.75
382.63	1048.56
382.83	1160.91
383.02	1135.16
383.22	1076.65
383.41	1130.48
383.61	1078.99
383.80	1053.24
384.00	1177.29
384.19	1170.27
384.39	1149.20
384.58	994.73
384.78	1188.99
384.97	1160.91
385.17	1137.50
385.36	1158.57
385.56	1207.72
385.75	1233.46
385.95	1188.99
386.14	1233.46
386.34	1191.33
386.53	1200.69
386.72	1137.50
386.92	1235.80
387.11	1146.86
387.31	1200.69
387.50	1160.91
387.70	1247.51
387.89	1329.42
388.09	1217.08
388.28	1268.57
388.48	1306.02
388.67	1284.95
388.86	1380.92
389.06	1401.98
389.25	1355.17
389.45	1345.81
389.64	1289.64
389.84	1434.75
390.03	1411.34
390.22	1315.38
390.42	1418.36
390.61	1373.89
390.81	1355.17
391.00	1425.39
391.19	1409.00
391.39	1406.66
391.58	1458.15
391.78	1453.47
391.97	1547.09
392.16	1369.21
392.36	1516.67
392.55	1504.96
392.75	1390.28
392.94	1511.99
393.13	1568.16
393.33	1521.35
393.52	1598.59
393.71	1617.31
393.91	1570.50
394.10	1682.85
394.29	1619.65
394.49	1554.12
394.68	1607.95
394.88	1528.37
395.07	1703.91
395.26	1675.82
395.46	1647.74
395.65	1717.95
395.84	1701.57
396.04	1753.06
396.23	1846.68
396.42	1792.85
396.62	1839.66
396.81	1757.74
397.00	1809.23
397.19	1827.96
397.39	1757.74
397.58	1834.98
397.77	1764.76
397.97	1879.45
398.16	1769.44
398.35	1944.99
398.55	1846.68
398.74	1813.92
398.93	1888.81
399.12	1907.54
399.32	1842.00
399.51	1921.58
399.70	2024.56
399.90	1954.35
400.09	2059.67
400.28	1996.48
400.47	2043.29
400.67	2083.08
400.86	1998.82
401.05	2073.71
401.24	2040.95
401.44	2033.93
401.63	2087.76
401.82	2099.46
402.01	2094.78
402.21	2064.35
402.40	2193.08
402.59	2155.63
402.78	2314.79
402.97	2228.19
403.17	2324.15
403.36	2307.77
403.55	2232.87
403.74	2190.74
403.93	2480.97
404.13	2298.41
404.32	2345.22
404.51	2410.75
404.70	2356.92
404.89	2359.26
405.09	2403.73
405.28	2448.20
405.47	2443.52
405.66	2530.12
405.85	2551.18
406.05	2464.58
406.24	2626.08
406.43	2527.78
406.62	2593.31
406.81	2586.29
407.00	2537.14
407.20	2434.16
407.39	2665.87
407.58	2628.42
407.77	2743.11
407.96	2745.45
408.15	2785.24
408.34	2670.55
408.54	2778.22
408.73	2897.58
408.92	2799.28
409.11	2869.50
409.30	2963.12
409.49	2974.82
409.68	2946.73
409.87	2920.99
410.07	2916.31
410.26	3021.63
410.45	3000.57
410.64	3096.53
410.83	3016.95
411.02	3035.67
411.21	3262.71
411.40	3157.38
411.59	3052.06
411.78	3204.19
411.98	3141.00
412.17	3176.11
412.36	3396.12
412.55	3323.56
412.74	3424.20
412.93	3307.18
413.12	3342.28
413.31	3543.57
413.50	3454.63
413.69	3494.42
413.88	3623.15
414.07	3665.28
414.26	3721.45
414.45	3569.32
414.64	3737.84
414.83	3702.73
415.02	3836.14
415.22	3833.80
415.41	3852.52
415.60	3815.07
415.79	3918.06
415.98	4072.53
416.17	3845.50
416.36	3873.59
416.55	3946.14
416.74	4138.07
416.93	3999.98
417.12	4051.47
417.31	4182.54
417.50	4121.68
417.69	4266.80
417.88	4280.84
418.07	4325.31
418.26	4353.40
418.45	4365.10
418.64	4498.51
418.83	4472.76
419.02	4531.28
419.21	4636.60
419.39	4514.89
419.58	4472.76
419.77	4475.10
419.96	4652.98
420.15	4770.01
420.34	4510.21
420.53	4482.13
420.72	4765.33
420.91	4699.80
421.10	4891.72
421.29	4868.31
421.48	4737.24
421.67	4795.76
421.86	4681.07
422.05	4695.11
422.24	4830.87
422.43	4830.87
422.61	4873.00
422.80	4917.47
422.99	4983.00
423.18	5011.09
423.37	5039.17
423.56	4868.31
423.75	4975.98
423.94	4823.84
424.13	4685.75
424.32	4938.53
424.50	4973.64
424.69	5107.05
424.88	5107.05
425.07	5046.20
425.26	4919.81
425.45	5057.90
425.64	4851.93
425.83	5036.83
426.01	5128.11
426.20	5055.56
426.39	5006.41
426.58	4945.55
426.77	5081.30
426.96	5167.90
427.15	5062.58
427.33	5172.58
427.52	5121.09
427.71	5235.78
427.90	5289.61
428.09	5329.40
428.28	5453.45
428.46	5404.30
428.65	5404.30
428.84	5731.97
429.03	5467.49
429.22	5383.23
429.40	5563.45
429.59	5497.92
429.78	5497.92
429.97	5263.86
430.16	5526.00
430.34	5572.82
430.53	5612.60
430.72	5731.97
430.91	5659.42
431.10	5535.37
431.28	5785.80
431.47	5816.23
431.66	6104.12
431.85	5790.49
432.03	5930.92
432.22	6129.86
432.41	5902.83
432.60	5973.05
432.79	5921.56
432.97	5937.94
433.16	5984.75
433.35	6059.65
433.54	6050.28
433.72	6132.20
433.91	6127.52
434.10	6136.88
434.28	6115.82
434.47	6338.17
434.66	6296.04
434.85	6305.40
435.03	6417.75
435.22	6115.82
435.41	6502.01
435.59	6485.62
435.78	6471.58
435.97	6406.05
436.16	6438.81
436.34	6438.81
436.53	6422.43
436.72	6630.74
436.90	6356.90
437.09	6729.04
437.28	6485.62
437.46	6604.99
437.65	6682.23
437.84	6799.26
438.02	6628.40
438.21	6878.83
438.40	6696.27
438.58	6979.48
438.77	7171.40
438.96	6970.12
439.14	7236.94
439.33	7171.40
439.52	7286.09
439.70	7180.76
439.89	7335.24
440.08	7356.30
440.26	7400.77
440.45	7396.09
440.63	7360.98
440.82	7674.62
441.01	7576.31
441.19	7756.54
441.38	7749.51
441.57	7798.66
441.75	7705.04
441.94	7915.69
442.12	7812.71
442.31	8114.64
442.50	7948.46
442.68	7901.65
442.87	7997.61
443.05	8210.60
443.24	8334.65
443.43	8196.56
443.61	8180.17
443.80	8360.39
443.98	8217.62
444.17	7943.78
444.35	8212.94
444.54	8365.07
444.73	8241.03
444.91	8280.82
445.10	8465.72
445.28	8346.35
445.47	8280.82
445.65	8421.25
445.84	8367.42
446.02	8580.40
446.21	8430.61
446.39	8379.12
446.58	8587.43
446.77	8439.97
446.95	8451.67
447.14	8336.99
447.32	8585.08
447.51	8449.33
447.69	8456.36
447.88	8587.43
448.06	8732.54
448.25	8531.25
448.43	8713.81
448.62	8718.50
448.80	8528.91
448.99	8706.79
449.17	8774.67
449.36	8601.47
449.54	8697.43
449.73	8891.70
449.91	9001.70
450.10	8896.38
450.28	9076.60
450.46	9057.87
450.65	8987.66
450.83	9144.47
451.02	9029.79
451.20	9160.86
451.39	9114.05
451.57	9195.96
451.76	9139.79
451.94	8971.27
452.13	9348.10
452.31	9137.45
452.49	9132.77
452.68	9254.48
452.86	9380.87
453.05	9413.63
453.23	9451.08
453.42	9207.67
453.60	9437.04
453.78	9523.64
453.97	9483.85
454.15	9558.75
454.34	9488.53
454.52	9460.45
454.70	9750.67
454.89	9722.59
455.07	9881.74
455.26	9757.69
455.44	10036.22
455.62	9884.08
455.81	9898.13
455.99	10141.54
456.17	10026.86
456.36	9977.70
456.54	10237.50
456.73	10104.09
456.91	10614.33
457.09	10417.72
457.28	10478.58
457.46	10235.16
457.64	10403.68
457.83	10595.61
458.01	10387.30
458.19	10513.69
458.38	10546.45
458.56	10775.83
458.74	10581.56
458.93	10651.78
459.11	10918.60
459.29	10824.98
459.48	10874.13
459.66	10719.65
459.84	10883.49
460.03	11077.76
460.21	10986.47
460.39	11122.23
460.57	11084.78
460.76	11014.56
460.94	11433.52
461.12	11222.87
461.31	11138.61
461.49	11314.15
461.67	11454.58
461.85	11503.73
462.04	11384.37
462.22	11470.97
462.40	11688.64
462.59	11452.24
462.77	11777.58
462.95	11772.89
463.13	11573.95
463.32	11569.27
463.50	11674.59
463.68	11772.89
463.86	11908.65
464.05	11522.46
464.23	11960.14
464.41	11887.58
464.59	11754.17
464.78	12042.06
464.96	12018.65
465.14	11941.41
465.32	12006.95
465.50	12084.19
465.69	12336.96
465.87	12109.93
466.05	12051.42
466.23	11920.35
466.41	12170.79
466.60	12535.91
466.78	12224.62
466.96	11948.43
467.14	12383.77
467.32	12505.48
467.51	12531.23
467.69	12072.48
467.87	12535.91
468.05	12582.72
468.23	12861.24
468.41	12737.20
468.60	12620.17
468.78	12678.68
468.96	12578.04
469.14	12940.82
469.32	12812.09
469.50	12643.57
469.69	13076.57
469.87	13334.03
470.05	12861.24
470.23	13050.83
470.41	13224.03
470.59	13268.50
470.77	12992.31
470.95	13434.68
471.14	13706.18
471.32	13179.56
471.50	13509.57
471.68	13989.38
471.86	13872.36
472.04	13799.80
472.22	14078.32
472.40	13893.42
472.58	13937.89
472.77	14239.82
472.95	14359.19
473.13	14677.50
473.31	13912.14
473.49	13977.68
473.67	14228.12
473.85	14567.49
474.03	14724.31
474.21	14516.00
474.39	14885.81
474.57	14523.02
474.75	14834.32
474.93	15056.67
475.12	15129.22
475.30	15002.83
475.48	15154.97
475.66	15229.87
475.84	15023.90
476.02	15236.89
476.20	15440.51
476.38	15653.50
476.56	16224.59
476.74	15915.64
476.92	16077.14
477.10	16020.97
477.28	16133.31
477.46	16154.38
477.64	16542.91
477.82	16645.89
478.00	17036.76
478.18	16875.26
478.36	17221.66
478.54	17165.49
478.72	17067.19
478.90	17366.78
479.08	17528.27
479.26	17921.48
479.44	18237.45
479.62	17884.03
479.80	17942.55
479.98	18157.88
480.16	18560.45
480.34	18679.82
480.52	18583.85
480.70	18405.97
480.88	18394.27
481.06	18429.38
481.24	18841.31
481.41	19164.31
481.59	19236.86
481.77	19496.66
481.95	19768.16
482.13	19639.44
482.31	19943.70
482.49	20301.81
482.67	20252.66
482.85	20554.58
483.03	20650.55
483.21	20854.17
483.39	20961.84
483.57	20910.35
483.74	20762.89
483.92	21343.35
484.10	21366.75
484.28	21724.85
484.46	21834.86
484.64	22157.85
484.82	21568.04
485.00	22490.21
485.18	22647.02
485.35	23077.68
485.53	22778.09
485.71	23063.64
485.89	23517.70
486.07	23468.55
486.25	23442.81
486.43	23667.50
486.61	24081.77
486.78	24334.55
486.96	24531.15
487.14	24739.46
487.32	24582.65
487.50	24861.17
487.68	24936.07
487.85	25324.60
488.03	25366.73
488.21	25666.31
488.39	25790.36
488.57	25937.82
488.75	26731.26
488.92	26658.70
489.10	26663.38
489.28	26597.85
489.46	27201.71
489.64	26944.25
489.81	27665.13
489.99	27843.01
490.17	27714.28
490.35	27864.08
490.53	28175.37
490.70	28697.31
490.88	28261.97
491.06	28608.37
491.24	28697.31
491.41	29474.37
491.59	29247.33
491.77	29104.56
491.95	29628.84
492.13	29984.60
492.30	30150.78
492.48	30120.35
492.66	30202.27
492.84	30607.19
493.01	30698.47
493.19	30752.30
493.37	31049.55
493.54	31112.74
493.72	31634.68
493.90	31552.76
494.08	31468.50
494.25	32030.23
494.43	32107.47
494.61	31985.76
494.79	32643.45
494.96	32669.20
495.14	32746.44
495.32	33359.66
495.49	32893.89
495.67	33701.37
495.85	33731.80
496.02	33951.81
496.20	34515.88
496.38	34000.96
496.55	34003.30
496.73	34796.74
496.91	34377.79
497.09	34780.36
497.26	35232.08
497.44	35161.87
497.62	35608.91
497.79	35625.29
497.97	35510.61
498.14	36149.57
498.32	36378.95
498.50	36320.43
498.67	36753.43
498.85	36135.53
499.03	36809.61
499.20	36879.82
499.38	37034.30
499.56	37163.03
499.73	37284.73
499.91	37263.67
500.08	37111.53
500.26	37460.27
500.44	37263.67
500.61	37897.95
500.79	37982.21
500.97	38293.50
501.14	38656.29
501.32	38801.40
501.49	38272.44
501.67	38691.40
501.84	38721.82
502.02	38885.66
502.20	39236.74
502.37	39615.91
502.55	39208.65
502.72	39688.46
502.90	39435.69
503.07	39353.77
503.25	39997.41
503.43	39782.09
503.60	40177.64
503.78	40428.07
503.95	40467.86
504.13	40566.16
504.30	40776.81
504.48	40603.61
504.65	40940.65
504.83	41158.32
505.01	41155.98
505.18	41200.45
505.36	41565.57
505.53	41153.64
505.71	41436.84
505.88	41525.78
506.06	41411.10
506.23	42548.60
506.41	41663.88
506.58	42452.64
506.76	42237.31
506.93	42576.69
507.11	42567.32
507.28	42707.76
507.46	42960.53
507.63	42923.08
507.81	43356.08
507.98	42862.23
508.16	42939.47
508.33	43594.82
508.50	43203.95
508.68	43393.53
508.85	43966.96
509.03	43714.19
509.20	43929.51
509.38	44306.34
509.55	44502.95
509.73	44767.43
509.90	45041.27
510.08	44343.79
510.25	44715.93
510.42	44573.16
510.60	44942.97
510.77	45226.17
510.95	45593.64
511.12	45067.02
511.30	45331.50
511.47	45380.65
511.64	45759.81
511.82	45804.28
511.99	45563.21
512.17	46021.95
512.34	45670.87
512.51	46504.10
512.69	46618.79
512.86	46263.03
513.04	46770.93
513.21	46637.51
513.38	46616.45
513.56	46873.91
513.73	46902.00
513.90	47089.24
514.08	46859.87
514.25	47501.17
514.43	47227.33
514.60	47449.68
514.77	47367.76
514.95	47845.23
515.12	47491.81
515.29	47676.71
515.47	47798.42
515.64	48198.65
515.81	48179.93
515.99	48025.45
516.16	48713.57
516.33	48498.24
516.51	48388.24
516.68	48769.74
516.85	49041.24
517.03	48835.28
517.20	49134.87
517.37	48868.05
517.54	48849.32
517.72	48975.71
517.89	49291.68
518.06	49371.26
518.24	49151.25
518.41	49511.69
518.58	49478.92
518.75	49244.87
518.93	49731.70
519.10	49317.43
519.27	50106.19
519.45	49853.41
519.62	49815.96
519.79	50031.29
519.96	49820.64
520.14	49993.84
520.31	50181.09
520.48	50621.11
520.65	50270.03
520.83	50787.28
521.00	50553.23
521.17	50583.66
521.34	50763.88
521.52	50735.79
521.69	51220.28
521.86	51276.46
522.03	51435.61
522.20	51489.45
522.38	51618.17
522.55	51529.23
522.72	51079.85
522.89	51215.60
523.07	51646.26
523.24	51409.87
523.41	51887.34
523.58	51346.67
523.75	51962.23
523.92	51709.46
524.10	51882.66
524.27	52486.51
524.44	52158.84
524.61	51964.57
524.78	52002.02
524.96	51929.47
525.13	52360.12
525.30	52374.17
525.47	52385.87
525.64	52406.94
525.81	52755.68
525.98	52699.50
526.16	52603.54
526.33	52870.36
526.50	53036.54
526.67	52917.17
526.84	53109.10
527.01	52570.77
527.18	52879.72
527.36	53022.50
527.53	53254.21
527.70	53268.25
527.87	53282.30
528.04	53022.50
528.21	53549.12
528.38	53340.81
528.55	53434.43
528.72	53591.25
528.89	53652.10
529.07	53553.80
529.24	53689.55
529.41	53645.08
529.58	53996.16
529.75	53518.69
529.92	53865.09
530.09	53928.28
530.26	53984.46
530.43	54167.02
530.60	53923.60
530.77	54024.25
530.94	54358.94
531.11	54092.12
531.28	54457.24
531.46	54377.67
531.63	54384.69
531.80	54073.40
531.97	54712.36
532.14	54672.57
532.31	54705.34
532.48	54674.91
532.65	54712.36
532.82	54513.42
532.99	54710.02
533.16	54761.51
533.33	54955.78
533.50	54852.80
533.67	54679.60
533.84	54944.08
534.01	54990.89
534.18	54979.18
534.35	55075.15
534.52	55243.66
534.69	55210.90
534.86	55238.98
535.03	55098.55
535.20	55215.58
535.37	55325.58
535.54	55454.31
535.71	55159.41
535.88	55569.00
536.05	55494.10
536.22	55913.06
536.38	55657.94
536.55	55688.37
536.72	55770.28
536.89	55470.70
537.06	55868.59
537.23	55796.03
537.40	55557.30
537.57	55849.86
537.74	55707.09
537.91	55917.74
538.08	55959.87
538.25	55781.99
538.42	56016.04
538.59	56348.40
538.75	56119.02
538.92	56041.79
539.09	56275.84
539.26	56275.84
539.43	55927.10
539.60	56369.46
539.77	56140.09
539.94	56591.81
540.11	56442.02
540.28	56750.97
540.44	56533.30
540.61	56435.00
540.78	56437.34
540.95	56734.59
541.12	56411.59
541.29	56507.55
541.46	56708.84
541.62	56563.73
541.79	56767.35
541.96	56750.97
542.13	56615.22
542.30	56612.88
542.47	56718.20
542.63	57027.15
542.80	56940.55
542.97	57109.07
543.14	57317.38
543.31	57235.46
543.48	57202.69
543.64	57478.88
543.81	57303.34
543.98	57434.41
544.15	57434.41
544.32	57563.14
544.48	57623.99
544.65	57455.47
544.82	57553.77
544.99	57371.21
545.16	57535.05
545.32	57471.85
545.49	57593.56
545.66	57895.49
545.83	57591.22
546.00	57855.70
546.16	57820.59
546.33	57755.06
546.50	57750.38
546.67	57916.56
546.83	57436.75
547.00	57797.19
547.17	58012.52
547.34	57825.28
547.50	57965.71
547.67	58150.61
547.84	58068.69
548.00	58143.59
548.17	58426.79
548.34	58010.18
548.51	58176.36
548.67	58365.94
548.84	58202.10
549.01	58145.93
549.18	58405.73
549.34	58532.12
549.51	58508.71
549.68	58459.56
549.84	58485.31
550.01	58504.03
550.18	58468.92
550.34	58375.30
550.51	58534.46
550.68	58525.10
550.84	58532.12
551.01	58660.85
551.18	58653.82
551.34	58450.20
551.51	58625.74
551.68	58721.70
551.84	58714.68
552.01	58387.00
552.18	58623.40
552.34	58599.99
552.51	58829.37
552.68	58588.29
552.84	58752.13
553.01	58911.28
553.18	58766.17
553.34	58834.05
553.51	58810.64
553.67	59077.46
553.84	59093.85
554.01	58969.80
554.17	59131.29
554.34	59182.79
554.51	59082.14
554.67	59131.29
554.84	58937.03
555.00	58948.73
555.17	59128.95
555.33	58955.75
555.50	59054.06
555.67	58995.54
555.83	58871.49
556.00	59187.47
556.16	59297.47
556.33	59360.67
556.50	59290.45
556.66	59536.21
556.83	59084.48
556.99	59437.90
557.16	59491.74
557.32	59526.84
557.49	59583.02
557.65	59437.90
557.82	59346.62
557.98	59405.14
558.15	59512.80
558.32	59494.08
558.48	59334.92
558.65	59564.29
558.81	59576.00
558.98	59552.59
559.14	59753.88
559.31	59650.89
559.47	59732.81
559.64	59660.26
559.80	59835.80
559.97	59739.83
560.13	59561.95
560.30	59686.00
560.46	59798.35
560.63	59798.35
560.79	59760.90
560.96	59894.31
561.12	59838.14
561.29	60095.60
561.45	59924.74
561.61	59927.08
561.78	59835.80
561.94	59997.29
562.11	59983.25
562.27	60151.77
562.44	59983.25
562.60	59922.40
562.77	59920.05
562.93	59817.07
563.10	60158.79
563.26	59908.35
563.42	60116.66
563.59	59964.52
563.75	59971.55
563.92	60135.38
564.08	59978.57
564.24	60243.05
564.41	60280.50
564.57	60123.68
564.74	60182.19
564.90	60182.19
565.07	60083.89
565.23	60182.19
565.39	60053.47
565.56	60191.56
565.72	60245.39
565.88	60182.19
566.05	60320.29
566.21	60121.34
566.38	60402.21
566.54	60207.94
566.70	60348.37
566.87	60367.10
567.03	60018.36
567.19	60654.98
567.36	60247.73
567.52	60451.36
567.68	60395.18
567.85	60402.21
568.01	60615.19
568.17	60289.86
568.34	60107.30
568.50	60339.01
568.66	60369.44
568.83	60467.74
568.99	60495.83
569.15	60477.10
569.32	60514.55
569.48	60537.96
569.64	60584.77
569.81	60383.48
569.97	60488.80
570.13	60582.43
570.30	60411.57
570.46	60547.32
570.62	60603.49
570.78	60486.46
570.95	60521.57
571.11	60722.86
571.27	60449.02
571.43	60341.35
571.60	60743.92
571.76	60610.51
571.92	60509.87
572.09	60736.90
572.25	60720.52
572.41	60631.58
572.57	60626.90
572.74	60947.55
572.90	60566.04
573.06	60795.42
573.22	60615.19
573.38	60629.24
573.55	60673.71
573.71	60921.80
573.87	60793.07
574.03	60650.30
574.20	60842.23
574.36	60662.00
574.52	60631.58
574.68	60900.74
574.84	60865.63
575.01	60825.84
575.17	60638.60
575.33	60664.35
575.49	60849.25
575.65	60802.44
575.82	60818.82
575.98	60727.54
576.14	61017.77
576.30	60739.24
576.46	60764.99
576.62	61003.72
576.79	60671.37
576.95	60617.53
577.11	60846.91
577.27	60903.08
577.43	60879.67
577.59	60615.19
577.75	60804.78
577.92	60729.88
578.08	60907.76
578.24	60933.51
578.40	61057.56
578.56	61003.72
578.72	60952.23
578.88	61008.40
579.04	61022.45
579.21	60828.18
579.37	60896.06
579.53	60954.57
579.69	60697.11
579.85	60942.87
580.01	60844.57
580.17	60694.77
580.33	61031.81
580.49	61052.87
580.65	61010.74
580.82	60891.38
580.98	60898.40
581.14	60690.09
581.30	61045.85
581.46	61034.15
581.62	61020.11
581.78	60992.02
581.94	61029.47
582.10	61029.47
582.26	60999.04
582.42	60912.44
582.58	61111.39
582.74	61148.84
582.90	60985.00
583.06	60912.44
583.22	61003.72
583.38	60903.08
583.54	61001.38
583.70	61015.43
583.86	61165.22
584.02	60980.32
584.18	61120.75
584.34	60985.00
584.50	61099.68
584.66	61148.84
584.82	60844.57
584.98	61130.11
585.14	61080.96
585.30	60935.85
585.46	61048.19
585.62	60935.85
585.78	61378.21
585.94	60942.87
586.10	61139.47
586.26	61038.83
586.42	60907.76
586.58	61155.86
586.74	61017.77
586.90	61132.45
587.06	60987.34
587.22	61144.16
587.38	61041.17
587.54	61205.01
587.70	61315.01
587.86	61055.21
588.02	61027.13
588.18	61387.57
588.34	61066.92
588.49	61141.81
