SpectraSuite Data File
++++++++++++++++++++++++++++++++++++
Date: Fri Oct 25 10:47:13 EDT 2013
User: price-jones
Dark Spectrum Present: No
Reference Spectrum Present: No
Number of Sampled Component Spectra: 1
Spectrometers: USB2+H05261
Integration Time (usec): 100000 (USB2+H05261)
Spectra Averaged: 1 (USB2+H05261)
Boxcar Smoothing: 0 (USB2+H05261)
Correct for Electrical Dark: No (USB2+H05261)
Strobe/Lamp Enabled: No (USB2+H05261)
Correct for Detector Non-linearity: No (USB2+H05261)
Correct for Stray Light: No (USB2+H05261)
Number of Pixels in Processed Spectrum: 2048
>>>>>Begin Processed Spectral Data<<<<<
365.73	124.05
365.92	124.05
366.12	124.05
366.32	2.34
366.52	23.41
366.72	39.79
366.91	35.11
367.11	18.72
367.31	28.09
367.51	58.51
367.70	32.77
367.90	32.77
368.10	65.54
368.30	18.72
368.49	65.54
368.69	88.94
368.89	63.19
369.09	7.02
369.28	42.13
369.48	18.72
369.68	81.92
369.87	63.19
370.07	67.88
370.27	112.35
370.47	105.32
370.66	346.40
370.86	465.77
371.06	365.12
371.25	524.28
371.45	402.57
371.65	414.27
371.84	411.93
372.04	442.36
372.24	491.51
372.44	470.45
372.63	510.24
372.83	566.41
373.03	472.79
373.22	538.32
373.42	540.66
373.62	449.38
373.81	601.52
374.01	568.75
374.21	531.30
374.40	498.53
374.60	550.03
374.79	479.81
374.99	507.90
375.19	517.26
375.38	489.17
375.58	493.85
375.78	491.51
375.97	489.17
376.17	580.45
376.37	528.96
376.56	535.98
376.76	559.39
376.95	608.54
377.15	610.88
377.35	561.73
377.54	580.45
377.74	624.92
377.93	669.39
378.13	709.18
378.33	650.67
378.52	660.03
378.72	624.92
378.91	655.35
379.11	608.54
379.31	697.48
379.50	622.58
379.70	664.71
379.89	594.50
380.09	594.50
380.28	634.29
380.48	678.76
380.68	615.56
380.87	622.58
381.07	587.47
381.26	765.36
381.46	664.71
381.65	692.80
381.85	709.18
382.04	688.12
382.24	559.39
382.43	770.04
382.63	720.88
382.83	624.92
383.02	805.14
383.22	741.95
383.41	629.60
383.61	716.20
383.80	699.82
384.00	697.48
384.19	699.82
384.39	732.59
384.58	755.99
384.78	737.27
384.97	765.36
385.17	704.50
385.36	676.41
385.56	851.96
385.75	667.05
385.95	688.12
386.14	791.10
386.34	760.67
386.53	760.67
386.72	788.76
386.92	826.21
387.11	826.21
387.31	856.64
387.50	770.04
387.70	723.23
387.89	802.80
388.09	837.91
388.28	837.91
388.48	751.31
388.67	835.57
388.86	849.61
389.06	779.40
389.25	858.98
389.45	873.02
389.64	826.21
389.84	933.87
390.03	828.55
390.22	950.26
390.42	887.06
390.61	912.81
390.81	861.32
391.00	896.43
391.19	964.30
391.39	964.30
391.58	933.87
391.78	983.02
391.97	997.07
392.16	945.58
392.36	959.62
392.55	894.08
392.75	903.45
392.94	964.30
393.13	901.11
393.33	954.94
393.52	1032.18
393.71	961.96
393.91	964.30
394.10	1015.79
394.29	1015.79
394.49	959.62
394.68	1088.35
394.88	1088.35
395.07	1172.61
395.26	1104.73
395.46	1116.44
395.65	1128.14
395.84	1011.11
396.04	1153.88
396.23	1053.24
396.42	1043.88
396.62	1135.16
396.81	1114.10
397.00	1167.93
397.19	1076.65
397.39	1144.52
397.58	1137.50
397.77	1156.22
397.97	1259.21
398.16	1252.19
398.35	1270.91
398.55	1214.74
398.74	1355.17
398.93	1345.81
399.12	1299.00
399.32	1280.27
399.51	1320.06
399.70	1299.00
399.90	1343.47
400.09	1434.75
400.28	1352.83
400.47	1411.34
400.67	1448.79
400.86	1366.87
401.05	1444.11
401.24	1355.17
401.44	1399.64
401.63	1310.70
401.82	1556.46
402.01	1441.77
402.21	1493.26
402.40	1446.45
402.59	1420.71
402.78	1458.15
402.97	1519.01
403.17	1483.90
403.36	1589.22
403.55	1519.01
403.74	1563.48
403.93	1605.61
404.13	1647.74
404.32	1544.75
404.51	1533.05
404.70	1614.97
404.89	1715.61
405.09	1607.95
405.28	1549.43
405.47	1703.91
405.66	1652.42
405.85	1657.10
406.05	1692.21
406.24	1746.04
406.43	1827.96
406.62	1724.97
406.81	1788.17
407.00	1757.74
407.20	1736.68
407.39	1797.53
407.58	1844.34
407.77	1877.11
407.96	1856.04
408.15	1802.21
408.34	1898.17
408.54	1865.41
408.73	1863.07
408.92	1975.41
409.11	1996.48
409.30	1956.69
409.49	1989.46
409.68	1977.75
409.87	2019.88
410.07	2064.35
410.26	2001.16
410.45	2008.18
410.64	2071.37
410.83	2038.61
411.02	2251.60
411.21	2113.50
411.40	2090.10
411.59	2162.66
411.78	2104.14
411.98	2232.87
412.17	2291.38
412.36	2279.68
412.55	2352.24
412.74	2338.20
412.93	2401.39
413.12	2305.43
413.31	2473.95
413.50	2361.60
413.69	2485.65
413.88	2539.48
414.07	2401.39
414.26	2480.97
414.45	2473.95
414.64	2502.03
414.83	2679.91
415.02	2590.97
415.22	2656.51
415.41	2640.12
415.60	2691.62
415.79	2747.79
415.98	2782.90
416.17	2736.09
416.36	2743.11
416.55	2747.79
416.74	2794.60
416.93	2771.19
417.12	2757.15
417.31	2841.41
417.50	2930.35
417.69	2904.60
417.88	2911.63
418.07	3038.02
418.26	2979.50
418.45	2981.84
418.64	3070.78
418.83	2995.89
419.02	2930.35
419.21	3241.64
419.39	3152.70
419.58	3028.65
419.77	2979.50
419.96	3002.91
420.15	3166.74
420.34	3225.26
420.53	3225.26
420.72	3356.33
420.91	3295.47
421.10	3337.60
421.29	3412.50
421.48	3234.62
421.67	3384.41
421.86	3328.24
422.05	3346.97
422.24	3314.20
422.43	3267.39
422.61	3281.43
422.80	3442.93
422.99	3407.82
423.18	3496.76
423.37	3328.24
423.56	3302.50
423.75	3426.54
423.94	3337.60
424.13	3206.53
424.32	3295.47
424.50	3382.07
424.69	3339.94
424.88	3456.97
425.07	3407.82
425.26	3386.76
425.45	3316.54
425.64	3361.01
425.83	3323.56
426.01	3541.23
426.20	3529.53
426.39	3480.38
426.58	3503.78
426.77	3435.91
426.96	3571.66
427.15	3520.17
427.33	3463.99
427.52	3426.54
427.71	3536.55
427.90	3623.15
428.09	3700.39
428.28	3674.64
428.46	3644.21
428.65	3599.74
428.84	3786.99
429.03	3730.81
429.22	3412.50
429.40	3695.71
429.59	3667.62
429.78	3534.21
429.97	3644.21
430.16	3655.92
430.34	3803.37
430.53	3840.82
430.72	3749.54
430.91	3873.59
431.10	3915.72
431.28	3878.27
431.47	4037.42
431.66	3969.55
431.85	3899.33
432.03	4042.11
432.22	3995.29
432.41	4046.79
432.60	4109.98
432.79	4065.51
432.97	4124.02
433.16	4198.92
433.35	4018.70
433.54	4105.30
433.72	4128.70
433.91	4131.05
434.10	4184.88
434.28	4266.80
434.47	4189.56
434.66	4348.72
434.85	4285.52
435.03	4365.10
435.22	4255.09
435.41	4313.61
435.59	4409.57
435.78	4362.76
435.97	4533.62
436.16	4418.93
436.34	4416.59
436.53	4351.06
436.72	4472.76
436.90	4421.27
437.09	4454.04
437.28	4550.00
437.46	4568.73
437.65	4376.80
437.84	4610.86
438.02	4566.39
438.21	4648.30
438.40	4575.75
438.58	4718.52
438.77	4802.78
438.96	4610.86
439.14	4938.53
439.33	4915.12
439.52	4975.98
439.70	4889.38
439.89	5013.43
440.08	4929.17
440.26	5130.45
440.45	5046.20
440.63	5046.20
440.82	5210.03
441.01	5343.44
441.19	5165.56
441.38	5327.06
441.57	5247.48
441.75	5404.30
441.94	5495.58
442.12	5364.51
442.31	5636.01
442.50	5458.13
442.68	5523.66
442.87	5408.98
443.05	5598.56
443.24	5589.20
443.43	5434.72
443.61	5533.03
443.80	5809.21
443.98	5518.98
444.17	5423.02
444.35	5738.99
444.54	5802.19
444.73	5724.95
444.91	5640.69
445.10	5750.70
445.28	5537.71
445.47	5483.88
445.65	5748.36
445.84	5671.12
446.02	5666.44
446.21	5661.76
446.39	5703.89
446.58	5879.43
446.77	5811.55
446.95	5734.31
447.14	5839.64
447.32	5837.30
447.51	5858.36
447.69	5626.65
447.88	5792.83
448.06	5987.09
448.25	5884.11
448.43	5959.00
448.62	5692.18
448.80	5731.97
448.99	5851.34
449.17	6012.84
449.36	5825.59
449.54	6045.60
449.73	6155.61
449.91	6029.22
450.10	6186.04
450.28	6279.66
450.46	6249.23
450.65	6209.44
450.83	6349.87
451.02	6122.84
451.20	6129.86
451.39	6333.49
451.57	6207.10
451.76	6249.23
451.94	6286.68
452.13	6310.08
452.31	6171.99
452.49	6136.88
452.68	6162.63
452.86	6171.99
453.05	6282.00
453.23	6370.94
453.42	6380.30
453.60	6282.00
453.78	6399.02
453.97	6415.41
454.15	6579.25
454.34	6317.11
454.52	6490.31
454.70	6604.99
454.89	6661.16
455.07	6658.82
455.26	6619.04
455.44	6761.81
455.62	6722.02
455.81	6738.40
455.99	6869.47
456.17	6782.87
456.36	6787.55
456.54	6747.76
456.73	7108.21
456.91	7000.54
457.09	7045.01
457.28	7159.70
457.46	6815.64
457.64	7033.31
457.83	7098.84
458.01	7040.33
458.19	7293.11
458.38	7180.76
458.56	7042.67
458.74	7103.53
458.93	7115.23
459.11	7112.89
459.29	7232.26
459.48	7478.01
459.66	7321.20
459.84	7438.22
460.03	7478.01
460.21	7421.84
460.39	7332.90
460.57	7379.71
460.76	7281.41
460.94	7501.42
461.12	7463.97
461.31	7372.69
461.49	7634.83
461.67	7646.53
461.85	7681.64
462.04	7581.00
462.22	8077.19
462.40	7838.45
462.59	7686.32
462.77	7805.69
462.95	7831.43
463.13	7768.24
463.32	7789.30
463.50	7957.82
463.68	7971.86
463.86	7833.77
464.05	7978.89
464.23	7829.09
464.41	7756.54
464.59	7826.75
464.78	8021.02
464.96	8058.46
465.14	7932.08
465.32	8215.28
465.50	8084.21
465.69	8276.13
465.87	8100.59
466.05	8252.73
466.23	8107.62
466.41	8177.83
466.60	8304.22
466.78	8121.66
466.96	8039.74
467.14	8152.09
467.32	8145.06
467.51	8285.50
467.69	8060.80
467.87	8163.79
468.05	8423.59
468.23	8248.05
468.41	8472.74
468.60	8367.42
468.78	8369.76
468.96	8166.13
469.14	8596.79
469.32	8823.82
469.50	8386.14
469.69	8622.53
469.87	8751.26
470.05	8737.22
470.23	8931.48
470.41	8683.39
470.59	8765.31
470.77	8636.58
470.95	8669.34
471.14	8915.10
471.32	8826.16
471.50	9104.68
471.68	9067.24
471.86	9172.56
472.04	9043.83
472.22	9202.99
472.40	8858.93
472.58	9200.65
472.77	9163.20
472.95	9186.60
473.13	9685.14
473.31	9254.48
473.49	9076.60
473.67	9465.13
473.85	9355.12
474.03	9675.77
474.21	9671.09
474.39	10008.13
474.57	9692.16
474.75	9762.37
474.93	10052.60
475.12	9966.00
475.30	10092.39
475.48	9713.22
475.66	10094.73
475.84	9804.50
476.02	10122.82
476.20	10106.43
476.38	10333.47
476.56	10520.71
476.74	10289.00
476.92	10417.72
477.10	10401.34
477.28	10801.57
477.46	10665.82
477.64	10806.25
477.82	10832.00
478.00	11103.50
478.18	11026.26
478.36	10977.11
478.54	11136.27
478.72	11356.28
478.90	11442.88
479.08	11541.18
479.26	11702.68
479.44	11449.90
479.62	11681.61
479.80	11754.17
479.98	11871.20
480.16	11985.88
480.34	11950.78
480.52	12074.82
480.70	12304.20
480.88	12135.68
481.06	12432.93
481.24	12210.57
481.41	12493.78
481.59	12692.73
481.77	12828.48
481.95	12793.37
482.13	12882.31
482.31	12957.21
482.49	13067.21
482.67	13043.81
482.85	13528.30
483.03	13273.18
483.21	13605.53
483.39	13799.80
483.57	13537.66
483.74	13745.97
483.92	13860.65
484.10	13635.96
484.28	13998.74
484.46	14384.93
484.64	14728.99
484.82	14216.41
485.00	14504.30
485.18	14831.97
485.35	14916.23
485.53	14686.86
485.71	14689.20
485.89	15082.41
486.07	15201.78
486.25	15250.93
486.43	15103.48
486.61	15009.86
486.78	15403.07
486.96	15620.74
487.14	15632.44
487.32	15985.86
487.50	16121.61
487.68	16287.79
487.85	16517.16
488.03	16730.15
488.21	16552.27
488.39	16500.78
488.57	16524.18
488.75	16835.47
488.92	16975.91
489.10	17408.90
489.28	17233.36
489.46	17266.13
489.64	17490.82
489.81	17895.74
489.99	17865.31
490.17	18195.32
490.35	18169.58
490.53	17930.84
490.70	18113.41
490.88	18445.76
491.06	18787.48
491.24	18806.20
491.41	18572.15
491.59	18951.32
491.77	18735.99
491.95	19026.21
492.13	19239.20
492.30	19814.98
492.48	19484.96
492.66	19524.75
492.84	19515.39
493.01	19875.83
493.19	19810.29
493.37	20074.77
493.54	19875.83
493.72	20556.93
493.90	20156.69
494.08	20524.16
494.25	20723.10
494.43	21146.74
494.61	20666.93
494.79	20915.03
494.96	20936.09
495.14	20776.94
495.32	21474.42
495.49	21322.28
495.67	21535.27
495.85	21486.12
496.02	21605.49
496.20	21881.67
496.38	21729.53
496.55	21898.05
496.73	22232.75
496.91	22127.42
497.09	22141.47
497.26	22459.78
497.44	22616.60
497.62	22490.21
497.79	23009.81
497.97	22632.98
498.14	23150.24
498.32	22831.93
498.50	23028.53
498.67	23253.22
498.85	23161.94
499.03	23634.73
499.20	23721.33
499.38	23641.75
499.56	23761.12
499.73	23744.73
499.91	23955.38
500.08	24142.63
500.26	24023.26
500.44	24243.27
500.61	24416.47
500.79	24219.86
500.97	24269.01
501.14	24608.39
501.32	24758.19
501.49	24758.19
501.67	24400.08
501.84	24758.19
502.02	24929.05
502.20	25083.52
502.37	25340.98
502.55	25270.76
502.72	25102.25
502.90	25156.08
503.07	25006.28
503.25	25500.14
503.43	25490.77
503.60	25717.81
503.78	25577.37
503.95	25542.27
504.13	25928.45
504.30	26094.63
504.48	25970.58
504.65	25729.51
504.83	26309.96
505.01	26796.79
505.18	26389.54
505.36	26520.61
505.53	26438.69
505.71	26845.94
505.88	26960.63
506.06	26586.15
506.23	26941.91
506.41	26789.77
506.58	26876.37
506.76	27269.58
506.93	27456.82
507.11	27206.39
507.28	27498.95
507.46	27449.80
507.63	27545.76
507.81	27620.66
507.98	27484.91
508.16	27543.42
508.33	27971.74
508.50	27852.38
508.68	27817.27
508.85	28201.11
509.03	28346.23
509.20	28589.64
509.38	28381.34
509.55	28552.20
509.73	28531.13
509.90	28582.62
510.08	28428.15
510.25	28308.78
510.42	28746.46
510.60	29151.37
510.77	28723.05
510.95	29179.46
511.12	28957.11
511.30	29509.47
511.47	29319.89
511.64	29390.11
511.82	29635.86
511.99	29294.14
512.17	29893.32
512.34	29490.75
512.51	29769.27
512.69	29921.41
512.86	30003.33
513.04	30237.38
513.21	29965.88
513.38	29729.48
513.56	30000.99
513.73	30115.67
513.90	30185.89
514.08	30232.70
514.25	30593.14
514.43	30494.84
514.60	30335.68
514.77	30506.54
514.95	30726.55
515.12	30785.07
515.29	30642.29
515.47	30761.66
515.64	30934.86
515.81	30820.17
515.99	31072.95
516.16	30960.61
516.33	31187.64
516.51	31290.62
516.68	31051.89
516.85	30850.60
517.03	31620.64
517.20	31384.24
517.37	31175.94
517.54	31744.69
517.72	31580.85
517.89	31630.00
518.06	31494.25
518.24	31627.66
518.41	31768.09
518.58	31784.48
518.75	31941.29
518.93	32671.54
519.10	32149.60
519.27	32313.44
519.45	32353.23
519.62	32238.54
519.79	32547.49
519.96	32634.09
520.14	32767.50
520.31	32533.45
520.48	32498.34
520.65	32926.66
520.83	33392.42
521.00	33256.67
521.17	33060.07
521.34	33156.03
521.52	33158.37
521.69	33448.60
521.86	33275.40
522.03	33544.56
522.20	33633.50
522.38	33521.15
522.55	33802.02
522.72	33628.82
522.89	33682.65
523.07	33799.68
523.24	33404.13
523.41	33876.91
523.58	33848.83
523.75	34387.15
523.92	33935.43
524.10	34550.99
524.27	34499.50
524.44	34700.78
524.61	34576.73
524.78	34141.39
524.96	34192.89
525.13	34682.06
525.30	34600.14
525.47	35012.07
525.64	34719.51
525.81	34799.08
525.98	34745.25
526.16	34778.02
526.33	34600.14
526.50	35227.40
526.67	34948.88
526.84	34845.90
527.01	35180.59
527.18	34782.70
527.36	35112.72
527.53	35267.19
527.70	35709.55
527.87	35725.94
528.04	35562.10
528.21	35555.08
528.38	35271.87
528.55	35688.49
528.72	35590.19
528.89	36023.19
529.07	35732.96
529.24	35220.38
529.41	35735.30
529.58	35936.59
529.75	36306.39
529.92	36039.57
530.09	36137.87
530.26	36308.73
530.43	35969.35
530.60	35749.34
530.77	36486.61
530.94	36261.92
531.11	36659.81
531.28	36629.38
531.46	36788.54
531.63	36847.05
531.80	36395.33
531.97	36795.56
532.14	36926.63
532.31	37057.70
532.48	36938.33
532.65	36931.31
532.82	37064.72
532.99	37160.69
533.16	36935.99
533.33	36823.65
533.50	37724.75
533.67	36959.40
533.84	36933.65
534.01	37443.89
534.18	37383.04
534.35	37184.09
534.52	37600.71
534.69	37415.80
534.86	37376.01
535.03	37291.76
535.20	37385.38
535.37	37441.55
535.54	38155.41
535.71	37951.79
535.88	37738.80
536.05	37907.32
536.22	37834.76
536.38	37933.06
536.55	37977.53
536.72	37977.53
536.89	37895.61
537.06	38169.46
537.23	38068.81
537.40	38071.15
537.57	38183.50
537.74	38295.85
537.91	38480.75
538.08	38459.68
538.25	38307.55
538.42	38361.38
538.59	38756.93
538.75	38272.44
538.92	38396.49
539.09	38487.77
539.26	38644.59
539.43	38852.89
539.60	38904.38
539.77	38623.52
539.94	38801.40
540.11	38801.40
540.28	38738.21
540.44	38824.81
540.61	38897.36
540.78	38651.61
540.95	38979.28
541.12	39007.37
541.29	38703.10
541.46	39187.59
541.62	39124.40
541.79	39365.47
541.96	39199.29
542.13	39316.32
542.30	39438.03
542.47	39536.33
542.63	39456.75
542.80	39915.50
542.97	39999.76
543.14	39941.24
543.31	39978.69
543.48	39966.99
543.64	40224.45
543.81	40175.30
543.98	39674.42
544.15	39875.71
544.32	40315.73
544.48	40488.93
544.65	40060.61
544.82	40320.41
544.99	40243.17
545.16	40292.32
545.32	40184.66
545.49	40458.50
545.66	40739.36
545.83	40554.46
546.00	40559.14
546.16	39997.41
546.33	40322.75
546.50	40350.84
546.67	40980.44
546.83	40102.74
547.00	40708.94
547.17	40275.94
547.34	40318.07
547.50	40746.39
547.67	40947.67
547.84	40884.48
548.00	40900.86
548.17	40886.82
548.34	40985.12
548.51	41275.35
548.67	41024.91
548.84	41528.13
549.01	40989.80
549.18	41153.64
549.34	41373.65
549.51	41471.95
549.68	41188.75
549.84	41427.48
550.01	41500.04
550.18	41053.00
550.34	41364.29
550.51	41352.58
550.68	41184.07
550.84	40835.33
551.01	41404.08
551.18	41546.85
551.34	41841.76
551.51	41720.05
551.68	41673.24
551.84	41757.50
552.01	41677.92
552.18	41720.05
552.34	41539.83
552.51	41982.19
552.68	41579.62
552.84	41450.89
553.01	42127.30
553.18	41724.73
553.34	41539.83
553.51	42050.06
553.67	41837.08
553.84	42609.45
554.01	42082.83
554.17	42450.30
554.34	42560.30
554.51	42302.84
554.67	42148.37
554.84	42511.15
555.00	42344.97
555.17	41827.71
555.33	42330.93
555.50	42373.06
555.67	42192.84
555.83	42227.95
556.00	42422.21
556.16	42784.99
556.33	42595.41
556.50	42794.36
556.66	42794.36
556.83	42541.58
556.99	42632.86
557.16	42895.00
557.32	42342.63
557.49	42927.77
557.65	42459.66
557.82	42237.31
557.98	42422.21
558.15	42787.33
558.32	43119.69
558.48	43091.60
558.65	42333.27
558.81	42560.30
558.98	42981.60
559.14	42822.44
559.31	42913.72
559.47	42969.90
559.64	43122.03
559.80	43168.84
559.97	43365.45
560.13	43105.65
560.30	42866.91
560.46	42637.54
560.63	43026.07
560.79	43318.64
560.96	43058.84
561.12	43026.07
561.29	43138.41
561.45	43100.97
561.61	42962.87
561.78	43187.56
561.94	42745.20
562.11	42904.36
562.27	43175.86
562.44	43152.46
562.60	43232.04
562.77	43349.06
562.93	43037.77
563.10	43241.40
563.26	43129.05
563.42	43257.78
563.59	43260.12
563.75	43178.20
563.92	43735.25
564.08	43510.56
564.24	43648.65
564.41	43360.76
564.57	43438.00
564.74	43313.95
564.90	43667.37
565.07	43529.28
565.23	43407.58
565.39	43498.86
565.56	43374.81
565.72	43550.35
565.88	43702.48
566.05	43597.16
566.21	43714.19
566.38	43693.12
566.54	43276.51
566.70	43723.55
566.87	43648.65
567.03	43524.60
567.19	43648.65
567.36	43594.82
567.52	43285.87
567.68	43906.11
567.85	43709.50
568.01	43676.74
568.17	43845.26
568.34	43805.47
568.50	43707.16
568.66	43695.46
568.83	43693.12
568.99	43665.03
569.15	43688.44
569.32	43707.16
569.48	43798.44
569.64	43725.89
569.81	44123.78
569.97	43749.29
570.13	43707.16
570.30	43026.07
570.46	43173.52
570.62	43702.48
570.78	43482.47
570.95	43838.23
571.11	43955.26
571.27	43770.36
571.43	43391.19
571.60	43489.49
571.76	44006.75
571.92	43871.00
572.09	43641.63
572.25	43910.79
572.41	43686.10
572.57	44339.11
572.74	44374.22
572.90	43957.60
573.06	43693.12
573.22	44102.71
573.38	43798.44
573.55	43578.43
573.71	44196.34
573.87	43990.37
574.03	43540.99
574.20	43765.68
574.36	43845.26
574.52	44126.12
574.68	43838.23
574.84	44428.05
575.01	43835.89
575.17	43835.89
575.33	43976.33
575.49	43882.70
575.65	44325.07
575.82	44282.94
575.98	44067.61
576.14	44442.09
576.30	43910.79
576.46	43618.22
576.62	43576.09
576.79	44273.57
576.95	43819.51
577.11	43770.36
577.27	44318.04
577.43	44374.22
577.59	44554.44
577.75	44147.18
577.92	43594.82
578.08	43704.82
578.24	43234.38
578.40	43896.75
578.56	44079.31
578.72	44093.35
578.88	44238.47
579.04	44198.68
579.21	44067.61
579.37	44217.40
579.53	44062.93
579.69	43695.46
579.85	44076.97
580.01	44271.23
580.17	43931.86
580.33	43859.30
580.49	44027.82
580.65	44065.27
580.82	44495.92
580.98	43966.96
581.14	43856.96
581.30	44318.04
581.46	44203.36
581.62	44016.11
581.78	44315.70
581.94	44402.30
582.10	44037.18
582.26	44495.92
582.42	44168.25
582.58	44355.49
582.74	43793.76
582.90	44404.64
583.06	44203.36
583.22	44507.63
583.38	44685.51
583.54	44154.21
583.70	43718.87
583.86	44013.77
584.02	43775.04
584.18	44144.84
584.34	44030.16
584.50	44292.30
584.66	44020.80
584.82	44172.93
584.98	44226.76
585.14	44652.74
585.30	43920.15
585.46	44582.52
585.62	44259.53
585.78	44322.72
585.94	44006.75
586.10	44067.61
586.26	44093.35
586.42	44030.16
586.58	44116.76
586.74	44294.64
586.90	44292.30
587.06	44107.40
587.22	44231.44
587.38	43512.90
587.54	44545.08
587.70	44252.51
587.86	44329.75
588.02	44416.35
588.18	44383.58
588.34	44458.48
588.49	44116.76
588.65	43856.96
588.81	44446.77
588.97	44296.98
589.13	44224.42
589.29	43938.88
589.45	44093.35
589.61	44758.06
589.77	44893.82
589.93	44493.58
590.08	44610.61
590.24	44680.83
590.40	44713.59
