SpectraSuite Data File
++++++++++++++++++++++++++++++++++++
Date: Fri Oct 25 11:25:06 EDT 2013
User: price-jones
Dark Spectrum Present: No
Reference Spectrum Present: No
Number of Sampled Component Spectra: 1
Spectrometers: USB2+H05261
Integration Time (usec): 100000 (USB2+H05261)
Spectra Averaged: 1 (USB2+H05261)
Boxcar Smoothing: 0 (USB2+H05261)
Correct for Electrical Dark: No (USB2+H05261)
Strobe/Lamp Enabled: No (USB2+H05261)
Correct for Detector Non-linearity: No (USB2+H05261)
Correct for Stray Light: No (USB2+H05261)
Number of Pixels in Processed Spectrum: 2048
>>>>>Begin Processed Spectral Data<<<<<
365.73	229.37
365.92	229.37
366.12	229.37
366.32	100.64
366.52	114.69
366.72	175.54
366.91	37.45
367.11	168.52
367.31	138.09
367.51	175.54
367.70	79.58
367.90	105.32
368.10	117.03
368.30	145.11
368.49	133.41
368.69	191.92
368.89	131.07
369.09	210.65
369.28	201.29
369.48	133.41
369.68	168.52
369.87	222.35
370.07	166.18
370.27	322.99
370.47	306.61
370.66	486.83
370.86	571.09
371.06	688.12
371.25	709.18
371.45	631.94
371.65	720.88
371.84	697.48
372.04	669.39
372.24	763.01
372.44	699.82
372.63	732.59
372.83	692.80
373.03	650.67
373.22	748.97
373.42	809.83
373.62	887.06
373.81	809.83
374.01	744.29
374.21	791.10
374.40	706.84
374.60	826.21
374.79	823.87
374.99	823.87
375.19	830.89
375.38	856.64
375.58	844.93
375.78	812.17
375.97	828.55
376.17	882.38
376.37	882.38
376.56	861.32
376.76	903.45
376.95	943.24
377.15	863.66
377.35	910.47
377.54	898.77
377.74	973.66
377.93	919.83
378.13	851.96
378.33	896.43
378.52	809.83
378.72	992.39
378.91	908.13
379.11	889.40
379.31	959.62
379.50	856.64
379.70	938.55
379.89	976.00
380.09	947.92
380.28	905.79
380.48	980.68
380.68	922.17
380.87	964.30
381.07	954.94
381.26	1078.99
381.46	926.85
381.65	1043.88
381.85	1097.71
382.04	1081.33
382.24	1071.97
382.43	992.39
382.63	1043.88
382.83	1074.31
383.02	1048.56
383.22	1100.05
383.41	1090.69
383.61	1046.22
383.80	1109.41
384.00	1137.50
384.19	1109.41
384.39	1116.44
384.58	1076.65
384.78	1144.52
384.97	1132.82
385.17	1200.69
385.36	1121.12
385.56	1172.61
385.75	1219.42
385.95	1193.67
386.14	1210.06
386.34	1203.04
386.53	1296.66
386.72	1214.74
386.92	1219.42
387.11	1235.80
387.31	1186.65
387.50	1196.01
387.70	1210.06
387.89	1334.11
388.09	1266.23
388.28	1224.10
388.48	1256.87
388.67	1254.53
388.86	1256.87
389.06	1331.76
389.25	1301.34
389.45	1294.32
389.64	1299.00
389.84	1418.36
390.03	1418.36
390.22	1357.51
390.42	1364.53
390.61	1343.47
390.81	1378.58
391.00	1294.32
391.19	1434.75
391.39	1352.83
391.58	1444.11
391.78	1423.05
391.97	1455.81
392.16	1577.52
392.36	1528.37
392.55	1509.65
392.75	1511.99
392.94	1507.30
393.13	1537.73
393.33	1528.37
393.52	1448.79
393.71	1638.38
393.91	1668.80
394.10	1558.80
394.29	1579.86
394.49	1561.14
394.68	1640.72
394.88	1657.10
395.07	1621.99
395.26	1589.22
395.46	1603.27
395.65	1710.93
395.84	1715.61
396.04	1792.85
396.23	1739.02
396.42	1771.79
396.62	1785.83
396.81	1832.64
397.00	1785.83
397.19	1668.80
397.39	1774.13
397.58	1870.09
397.77	1790.51
397.97	1849.02
398.16	1781.15
398.35	1907.54
398.55	1893.49
398.74	1886.47
398.93	1926.26
399.12	1867.75
399.32	1877.11
399.51	1961.37
399.70	1944.99
399.90	1898.17
400.09	1940.30
400.28	2076.06
400.47	2094.78
400.67	2045.63
400.86	1919.24
401.05	1980.09
401.24	2029.24
401.44	2108.82
401.63	2062.01
401.82	2033.93
402.01	2052.65
402.21	2094.78
402.40	2106.48
402.59	2153.29
402.78	2143.93
402.97	2120.53
403.17	2143.93
403.36	2263.30
403.55	2165.00
403.74	2305.43
403.93	2296.07
404.13	2258.62
404.32	2424.80
404.51	2382.67
404.70	2324.15
404.89	2326.49
405.09	2429.48
405.28	2424.80
405.47	2478.63
405.66	2523.10
405.85	2434.16
406.05	2523.10
406.24	2513.74
406.43	2581.61
406.62	2719.70
406.81	2614.38
407.00	2422.45
407.20	2541.82
407.39	2546.50
407.58	2607.36
407.77	2656.51
407.96	2663.53
408.15	2677.57
408.34	2808.64
408.54	2895.24
408.73	2829.71
408.92	2754.81
409.11	2895.24
409.30	2979.50
409.49	2895.24
409.68	2799.28
409.87	2782.90
410.07	2956.10
410.26	2930.35
410.45	2960.78
410.64	3124.62
410.83	3133.98
411.02	3122.27
411.21	3068.44
411.40	3108.23
411.59	3155.04
411.78	3145.68
411.98	3141.00
412.17	3187.81
412.36	3314.20
412.55	3323.56
412.74	3255.69
412.93	3428.88
413.12	3279.09
413.31	3604.42
413.50	3440.59
413.69	3454.63
413.88	3566.98
414.07	3440.59
414.26	3672.30
414.45	3719.11
414.64	3705.07
414.83	3688.68
415.02	3784.65
415.22	3756.56
415.41	3826.78
415.60	3754.22
415.79	3742.52
415.98	3904.01
416.17	4067.85
416.36	3943.80
416.55	4044.45
416.74	4067.85
416.93	3953.16
417.12	3985.93
417.31	4077.21
417.50	4170.83
417.69	4173.18
417.88	4250.41
418.07	4294.88
418.26	4152.11
418.45	4229.35
418.64	4437.66
418.83	4276.16
419.02	4423.61
419.21	4428.29
419.39	4355.74
419.58	4404.89
419.77	4486.81
419.96	4526.60
420.15	4585.11
420.34	4491.49
420.53	4524.26
420.72	4587.45
420.91	4826.18
421.10	4699.80
421.29	4739.58
421.48	4758.31
421.67	4730.22
421.86	4645.96
422.05	4837.89
422.24	4741.93
422.43	4945.55
422.61	4795.76
422.80	4912.78
422.99	4856.61
423.18	4865.97
423.37	5036.83
423.56	4814.48
423.75	4784.06
423.94	4896.40
424.13	4557.02
424.32	4772.35
424.50	4926.83
424.69	5179.61
424.88	5060.24
425.07	5015.77
425.26	4973.64
425.45	4973.64
425.64	4947.89
425.83	4889.38
426.01	4973.64
426.20	5008.75
426.39	5081.30
426.58	5039.17
426.77	5085.98
426.96	5132.79
427.15	5027.47
427.33	4999.38
427.52	5165.56
427.71	5240.46
427.90	5191.31
428.09	5252.16
428.28	5430.04
428.46	5373.87
428.65	5324.72
428.84	5561.11
429.03	5392.59
429.22	5240.46
429.40	5607.92
429.59	5458.13
429.78	5097.69
429.97	5174.92
430.16	5416.00
430.34	5493.24
430.53	5554.09
430.72	5748.36
430.91	5605.58
431.10	5509.62
431.28	5785.80
431.47	5790.49
431.66	5895.81
431.85	5673.46
432.03	6001.13
432.22	5879.43
432.41	5879.43
432.60	5942.62
432.79	5827.93
432.97	6019.86
433.16	6038.58
433.35	6003.47
433.54	5856.02
433.72	6200.08
433.91	6022.20
434.10	5966.03
434.28	6047.94
434.47	6284.34
434.66	6146.25
434.85	6324.13
435.03	6162.63
435.22	6174.33
435.41	6487.96
435.59	6338.17
435.78	6237.53
435.97	6551.16
436.16	6436.47
436.34	6396.68
436.53	6415.41
436.72	6684.57
436.90	6551.16
437.09	6361.58
437.28	6612.01
437.46	6579.25
437.65	6647.12
437.84	6602.65
438.02	6736.06
438.21	6614.35
438.40	6633.08
438.58	7096.50
438.77	7115.23
438.96	6951.39
439.14	7169.06
439.33	7110.55
439.52	7269.70
439.70	7073.10
439.89	7215.87
440.08	7241.62
440.26	7246.30
440.45	7421.84
440.63	7421.84
440.82	7555.25
441.01	7386.73
441.19	7501.42
441.38	7691.00
441.57	7667.60
441.75	7627.81
441.94	7810.37
442.12	7957.82
442.31	8002.29
442.50	8028.04
442.68	7871.22
442.87	7992.93
443.05	8035.06
443.24	8124.00
443.43	8175.49
443.61	8091.23
443.80	8203.58
443.98	8175.49
444.17	7882.92
444.35	8018.68
444.54	8210.60
444.73	8402.52
444.91	8229.32
445.10	8259.75
445.28	8423.59
445.47	8507.85
445.65	8205.92
445.84	8344.01
446.02	8505.51
446.21	8491.46
446.39	8234.00
446.58	8325.29
446.77	8468.06
446.95	8248.05
447.14	8435.29
447.32	8505.51
447.51	8585.08
447.69	8285.50
447.88	8482.10
448.06	8519.55
448.25	8505.51
448.43	8636.58
448.62	8475.08
448.80	8430.61
448.99	8692.75
449.17	8652.96
449.36	8645.94
449.54	8777.01
449.73	8919.78
449.91	8887.01
450.10	8751.26
450.28	9071.92
450.46	9202.99
450.65	8924.46
450.83	8882.33
451.02	8975.95
451.20	9191.28
451.39	8990.00
451.57	9116.39
451.76	8975.95
451.94	9088.30
452.13	9247.46
452.31	9210.01
452.49	9069.58
452.68	9352.78
452.86	9493.21
453.05	9427.68
453.23	9488.53
453.42	9533.00
453.60	9366.82
453.78	9514.28
453.97	9577.47
454.15	9617.26
454.34	9453.42
454.52	9710.88
454.70	9633.64
454.89	9575.13
455.07	9598.54
455.26	9806.84
455.44	9795.14
455.62	9692.16
455.81	9991.75
455.99	9893.44
456.17	9968.34
456.36	10071.33
456.54	9893.44
456.73	10335.81
456.91	10190.69
457.09	10284.31
457.28	10490.28
457.46	10157.92
457.64	10307.72
457.83	10363.89
458.01	10333.47
458.19	10597.95
458.38	10321.76
458.56	10611.99
458.74	10604.97
458.93	10689.23
459.11	10672.84
459.29	10714.97
459.48	10647.10
459.66	10761.78
459.84	10853.06
460.03	10864.77
460.21	10677.52
460.39	10593.26
460.57	10855.40
460.76	11112.86
460.94	10977.11
461.12	11138.61
461.31	10897.53
461.49	11005.20
461.67	10988.82
461.85	11288.40
462.04	11138.61
462.22	11606.72
462.40	11499.05
462.59	11372.66
462.77	11508.41
462.95	11655.87
463.13	11492.03
463.32	11613.74
463.50	11709.70
463.68	11585.65
463.86	11763.53
464.05	11602.04
464.23	11489.69
464.41	11651.19
464.59	11470.97
464.78	11967.16
464.96	11784.60
465.14	11698.00
465.32	11875.88
465.50	11983.54
465.69	12147.38
465.87	11915.67
466.05	12025.67
466.23	12147.38
466.41	12035.03
466.60	12259.73
466.78	12002.27
466.96	12126.32
467.14	12201.21
467.32	12292.49
467.51	12498.46
467.69	12081.85
467.87	12231.64
468.05	12613.15
468.23	12187.17
468.41	12308.88
468.60	12535.91
468.78	12622.51
468.96	12482.08
469.14	12748.90
469.32	12870.61
469.50	12592.08
469.69	13001.68
469.87	13303.60
470.05	12973.59
470.23	13273.18
470.41	13046.15
470.59	13252.11
470.77	12989.97
470.95	13554.04
471.14	13532.98
471.32	13200.62
471.50	13345.73
471.68	13462.76
471.86	13479.15
472.04	13425.31
472.22	13989.38
472.40	13647.66
472.58	13593.83
472.77	14080.66
472.95	14125.13
473.13	14705.59
473.31	13790.44
473.49	14066.62
473.67	14090.02
473.85	14279.61
474.03	14307.69
474.21	14813.25
474.39	14691.54
474.57	14555.79
474.75	14817.93
474.93	14792.19
475.12	14843.68
475.30	15105.82
475.48	15087.09
475.66	15248.59
475.84	15016.88
476.02	15229.87
476.20	15386.68
476.38	15484.98
476.56	15857.13
476.74	16044.37
476.92	15941.39
477.10	15503.71
477.28	16156.72
477.46	16006.92
477.64	16149.70
477.82	16451.63
478.00	16915.05
478.18	16673.98
478.36	16669.30
478.54	17102.29
478.72	16828.45
478.90	17207.62
479.08	17816.16
479.26	17708.49
479.44	17589.13
479.62	17649.98
479.80	17991.70
479.98	18153.20
480.16	18534.70
480.34	18181.28
480.52	18712.58
480.70	18555.77
480.88	18333.42
481.06	18764.07
481.24	18930.25
481.41	19131.54
481.59	19190.05
481.77	19440.49
481.95	19176.01
482.13	19889.87
482.31	19676.88
482.49	20102.86
482.67	19957.75
482.85	20313.51
483.03	20641.18
483.21	20472.67
483.39	20659.91
483.57	20814.38
483.74	21076.52
483.92	21158.44
484.10	21195.89
484.28	21481.44
484.46	21956.57
484.64	21944.86
484.82	21968.27
485.00	21986.99
485.18	22501.91
485.35	22918.53
485.53	22897.46
485.71	22759.37
485.89	23398.34
486.07	23267.27
486.25	23084.70
486.43	23442.81
486.61	23484.94
486.78	23999.85
486.96	24163.69
487.14	24311.14
487.32	24842.45
487.50	24814.36
487.68	24973.52
487.85	24917.34
488.03	25598.44
488.21	25661.63
488.39	25549.29
488.57	25951.86
488.75	26185.91
488.92	26567.42
489.10	26532.31
489.28	26677.43
489.46	26675.09
489.64	27049.57
489.81	27463.85
489.99	27566.83
490.17	27674.49
490.35	28114.52
490.53	28002.17
490.70	28341.55
490.88	28128.56
491.06	28709.01
491.24	28690.29
491.41	28767.52
491.59	29165.42
491.77	29343.30
491.95	29509.47
492.13	29647.57
492.30	30000.99
492.48	29972.90
492.66	29965.88
492.84	30047.80
493.01	30391.86
493.19	30614.21
493.37	30677.40
493.54	31056.57
493.72	31377.22
493.90	30862.30
494.08	31751.71
494.25	31452.12
494.43	31913.20
494.61	32091.09
494.79	32453.87
494.96	32835.38
495.14	32973.47
495.32	33153.69
495.49	33226.24
495.67	32900.91
495.85	33401.79
496.02	33560.94
496.20	34185.86
496.38	33844.15
496.55	34050.11
496.73	34820.15
496.91	34050.11
497.09	34543.97
497.26	34740.57
497.44	34766.32
497.62	35349.11
497.79	35512.95
497.97	35538.69
498.14	35772.75
498.32	36210.43
498.50	36074.68
498.67	36313.41
498.85	36065.31
499.03	36346.18
499.20	36418.74
499.38	37046.00
499.56	37060.04
499.73	37038.98
499.91	37343.25
500.08	37572.62
500.26	36879.82
500.44	37219.20
500.61	37872.21
500.79	37759.86
500.97	37888.59
501.14	38206.90
501.32	38342.66
501.49	38429.26
501.67	38653.95
501.84	38913.75
502.02	38539.26
502.20	38787.36
502.37	38859.91
502.55	39318.66
502.72	39543.35
502.90	39304.62
503.07	39501.22
503.25	39475.48
503.43	39969.33
503.60	40243.17
503.78	39945.92
503.95	39924.86
504.13	40203.38
504.30	40744.05
504.48	40226.79
504.65	40837.67
504.83	40472.54
505.01	40730.00
505.18	40982.78
505.36	41373.65
505.53	40896.18
505.71	41558.55
505.88	41572.60
506.06	41214.49
506.23	41556.21
506.41	41731.75
506.58	41904.95
506.76	41965.81
506.93	41935.38
507.11	42082.83
507.28	42014.96
507.46	42464.34
507.63	42777.97
507.81	43274.16
507.98	42485.40
508.16	42969.90
508.33	43222.67
508.50	43475.45
508.68	43414.60
508.85	43798.44
509.03	43915.47
509.20	43688.44
509.38	44289.96
509.55	44390.60
509.73	44355.49
509.90	44362.51
510.08	44261.87
510.25	44275.91
510.42	44364.85
510.60	44844.66
510.77	44687.85
510.95	45099.78
511.12	45024.89
511.30	45160.64
511.47	45038.93
511.64	45191.06
511.82	45584.27
511.99	45382.99
512.17	45366.60
512.34	45628.74
512.51	46284.09
512.69	45783.22
512.86	46497.08
513.04	46398.78
513.21	46342.61
513.38	46319.20
513.56	46878.59
513.73	46557.94
513.90	46794.33
514.08	46660.92
514.25	47201.58
514.43	47210.95
514.60	47356.06
514.77	46953.49
514.95	47817.14
515.12	47407.55
515.29	47288.18
515.47	47498.83
515.64	47648.63
515.81	47929.49
515.99	47870.98
516.16	48055.88
516.33	48362.49
516.51	48285.25
516.68	48032.47
516.85	48432.71
517.03	48704.21
517.20	48563.78
517.37	48402.28
517.54	48692.50
517.72	48411.64
517.89	48790.81
518.06	48971.03
518.24	49212.10
518.41	48985.07
518.58	49448.50
518.75	49158.27
518.93	49361.90
519.10	49413.39
519.27	49483.61
519.45	49310.41
519.62	49832.35
519.79	50171.72
519.96	49553.82
520.14	50082.78
520.31	49867.45
520.48	50265.34
520.65	49977.46
520.83	50454.93
521.00	50529.83
521.17	50361.31
521.34	50454.93
521.52	50429.18
521.69	50885.59
521.86	50534.51
522.03	51136.02
522.20	51606.47
522.38	51234.33
522.55	51194.54
522.72	51119.64
522.89	51215.60
523.07	51323.27
523.24	51341.99
523.41	51255.39
523.58	51435.61
523.75	51800.74
523.92	51784.35
524.10	51594.77
524.27	51931.81
524.44	51838.18
524.61	51969.26
524.78	52020.75
524.96	52023.09
525.13	52182.24
525.30	52402.25
525.47	52320.34
525.64	52385.87
525.81	52224.37
525.98	52650.35
526.16	52435.02
526.33	52477.15
526.50	53076.33
526.67	52669.08
526.84	52584.82
527.01	52739.29
527.18	52657.37
527.36	52748.65
527.53	52982.71
527.70	53174.63
527.87	53464.86
528.04	53034.20
528.21	53387.62
528.38	53031.86
528.55	53415.71
528.72	53315.06
528.89	53380.60
529.07	53301.02
529.24	53120.80
529.41	53432.09
529.58	53928.28
529.75	53408.68
529.92	53694.23
530.09	53785.51
530.26	53624.01
530.43	53609.97
530.60	53616.99
530.77	53649.76
530.94	54028.93
531.11	53860.41
531.28	53918.92
531.46	54375.33
531.63	54113.19
531.80	54085.10
531.97	54279.36
532.14	54426.82
532.31	54426.82
532.48	54162.34
532.65	54576.61
532.82	54361.28
532.99	54424.48
533.16	54391.71
533.33	54700.66
533.50	54621.08
533.67	54857.48
533.84	54529.80
534.01	54672.57
534.18	54913.65
534.35	55222.60
534.52	54787.26
534.69	54962.80
534.86	55182.81
535.03	54937.05
535.20	54878.54
535.37	55400.48
535.54	55220.26
535.71	54918.33
535.88	55077.49
536.05	55461.33
536.22	55327.92
536.38	55592.40
536.55	55639.22
536.72	55480.06
536.89	55236.64
537.06	55576.02
537.23	55456.65
537.40	55669.64
537.57	55592.40
537.74	55805.39
537.91	55580.70
538.08	55547.93
538.25	55421.55
538.42	55496.44
538.59	55831.14
538.75	55639.22
538.92	56121.37
539.09	56030.08
539.26	56128.39
539.43	56060.51
539.60	56289.88
539.77	55798.37
539.94	56006.68
540.11	56287.54
540.28	56339.04
540.44	56367.12
540.61	56273.50
540.78	56552.02
540.95	56240.73
541.12	56023.06
541.29	56315.63
541.46	56261.80
541.62	56561.39
541.79	56488.83
541.96	56268.82
542.13	56427.98
542.30	56530.96
542.47	56877.36
542.63	56636.28
542.80	56671.39
542.97	57041.20
543.14	57202.69
543.31	57003.75
543.48	56996.73
543.64	57333.76
543.81	57347.81
543.98	57146.52
544.15	57303.34
544.32	57609.95
544.48	57326.74
544.65	57268.23
544.82	57411.00
544.99	57181.63
545.16	57326.74
545.32	57542.07
545.49	57490.58
545.66	57684.84
545.83	57584.20
546.00	57460.15
546.16	57483.56
546.33	57389.94
546.50	57148.86
546.67	57661.44
546.83	57385.25
547.00	57581.86
547.17	57708.25
547.34	57769.10
547.50	57666.12
547.67	57867.40
547.84	57855.70
548.00	58138.91
548.17	58220.83
548.34	57787.83
548.51	58115.50
548.67	58216.14
548.84	58169.33
549.01	58122.52
549.18	57801.87
549.34	57883.79
549.51	58185.72
549.68	58202.10
549.84	58232.53
550.01	58309.77
550.18	58115.50
550.34	58415.09
550.51	58445.52
550.68	58335.51
550.84	58258.27
551.01	58623.40
551.18	58468.92
551.34	58419.77
551.51	58585.95
551.68	58454.88
551.84	58337.85
552.01	58255.93
552.18	58485.31
552.34	58504.03
552.51	58480.63
552.68	58351.90
552.84	58461.90
553.01	58824.68
553.18	58639.78
553.34	58838.73
553.51	58401.05
553.67	58618.72
553.84	58773.19
554.01	58871.49
554.17	58981.50
554.34	59009.59
554.51	58974.48
554.67	58965.12
554.84	58904.26
555.00	58965.12
555.17	58918.31
555.33	59014.27
555.50	58698.30
555.67	59100.87
555.83	58990.86
556.00	59112.57
556.16	59325.56
556.33	59318.54
556.50	59063.42
556.66	59150.02
556.83	58845.75
556.99	59313.86
557.16	59341.94
557.32	59311.52
557.49	59344.28
557.65	59215.55
557.82	59297.47
557.98	59416.84
558.15	59391.09
558.32	59295.13
558.48	59360.67
558.65	59447.27
558.81	59295.13
558.98	59267.05
559.14	59505.78
559.31	59419.18
559.47	59440.24
559.64	59496.42
559.80	59627.49
559.97	59353.65
560.13	59358.33
560.30	59566.63
560.46	59650.89
560.63	59634.51
560.79	59437.90
560.96	59821.75
561.12	59641.53
561.29	59475.35
561.45	59847.50
561.61	59800.69
561.78	59730.47
561.94	59650.89
562.11	59819.41
562.27	59627.49
562.44	59697.70
562.60	60020.70
562.77	59943.46
562.93	59655.57
563.10	59908.35
563.26	59770.26
563.42	60149.43
563.59	59791.33
563.75	59852.18
563.92	59814.73
564.08	59751.54
564.24	60048.78
564.41	60144.75
564.57	59985.59
564.74	59842.82
564.90	60088.57
565.07	60114.32
565.23	59941.12
565.39	59805.37
565.56	60126.02
565.72	59978.57
565.88	60048.78
566.05	59934.10
566.21	60168.15
566.38	60172.83
566.54	60072.19
566.70	60261.77
566.87	60259.43
567.03	60048.78
567.19	60257.09
567.36	60177.51
567.52	60198.58
567.68	60505.19
567.85	60292.20
568.01	60451.36
568.17	60226.66
568.34	60189.22
568.50	60268.79
568.66	60203.26
568.83	60163.47
568.99	60156.45
569.15	60191.56
569.32	60196.24
569.48	60346.03
569.64	60474.76
569.81	60172.83
569.97	60156.45
570.13	60533.28
570.30	60252.41
570.46	60346.03
570.62	60498.17
570.78	60221.98
570.95	60310.92
571.11	60704.13
571.27	60306.24
571.43	60369.44
571.60	60596.47
571.76	60390.50
571.92	60540.30
572.09	60463.06
572.25	60420.93
572.41	60355.39
572.57	60500.51
572.74	60772.01
572.90	60364.76
573.06	60350.71
573.22	60706.47
573.38	60647.96
573.55	60725.20
573.71	60851.59
573.87	60552.00
574.03	60540.30
574.20	60645.62
574.36	60498.17
574.52	60488.80
574.68	60540.30
574.84	60676.05
575.01	60715.84
575.17	60643.28
575.33	60474.76
575.49	60633.92
575.65	60582.43
575.82	60601.15
575.98	60580.09
576.14	60811.80
576.30	60687.75
576.46	60530.93
576.62	60619.88
576.79	60388.16
576.95	60598.81
577.11	60708.82
577.27	60746.26
577.43	60612.85
577.59	60701.79
577.75	60631.58
577.92	60640.94
578.08	60786.05
578.24	60764.99
578.40	60921.80
578.56	60769.67
578.72	60858.61
578.88	60807.12
579.04	60987.34
579.21	60795.42
579.37	60837.54
579.53	60835.20
579.69	60650.30
579.85	60678.39
580.01	60683.07
580.17	60739.24
580.33	60919.46
580.49	60788.39
580.65	61008.40
580.82	60942.87
580.98	60533.28
581.14	60472.42
581.30	60896.06
581.46	60800.10
581.62	60938.19
581.78	60839.89
581.94	60982.66
582.10	60762.65
582.26	60814.14
582.42	60912.44
582.58	61034.15
582.74	60849.25
582.90	60772.01
583.06	60931.17
583.22	60821.16
583.38	60774.35
583.54	60701.79
583.70	60917.12
583.86	60938.19
584.02	60879.67
584.18	60795.42
584.34	61001.38
584.50	60889.04
584.66	60645.62
584.82	60748.60
584.98	61045.85
585.14	60830.52
585.30	60851.59
585.46	60921.80
585.62	60736.90
585.78	61057.56
585.94	60619.88
586.10	60996.70
586.26	61001.38
586.42	60882.02
586.58	61001.38
586.74	60860.95
586.90	60800.10
587.06	60725.20
587.22	61045.85
587.38	60896.06
587.54	60903.08
587.70	61244.80
587.86	60769.67
588.02	60919.46
588.18	61097.34
588.34	60858.61
588.49	61057.56
