SpectraSuite Data File
++++++++++++++++++++++++++++++++++++
Date: Fri Oct 25 10:48:00 EDT 2013
User: price-jones
Dark Spectrum Present: No
Reference Spectrum Present: No
Number of Sampled Component Spectra: 1
Spectrometers: USB2+H05261
Integration Time (usec): 100000 (USB2+H05261)
Spectra Averaged: 1 (USB2+H05261)
Boxcar Smoothing: 0 (USB2+H05261)
Correct for Electrical Dark: No (USB2+H05261)
Strobe/Lamp Enabled: No (USB2+H05261)
Correct for Detector Non-linearity: No (USB2+H05261)
Correct for Stray Light: No (USB2+H05261)
Number of Pixels in Processed Spectrum: 2048
>>>>>Begin Processed Spectral Data<<<<<
365.73	161.50
365.92	161.50
366.12	161.50
366.32	81.92
366.52	0.00
366.72	74.90
366.91	49.15
367.11	25.75
367.31	25.75
367.51	51.49
367.70	70.22
367.90	51.49
368.10	42.13
368.30	4.68
368.49	23.41
368.69	95.96
368.89	95.96
369.09	46.81
369.28	117.03
369.48	102.98
369.68	91.28
369.87	147.45
370.07	56.17
370.27	194.26
370.47	210.65
370.66	435.34
370.86	402.57
371.06	489.17
371.25	496.19
371.45	395.55
371.65	484.49
371.84	395.55
372.04	437.68
372.24	468.11
372.44	458.74
372.63	505.56
372.83	517.26
373.03	463.43
373.22	498.53
373.42	500.87
373.62	557.05
373.81	571.09
374.01	486.83
374.21	521.94
374.40	510.24
374.60	540.66
374.79	500.87
374.99	622.58
375.19	573.43
375.38	587.47
375.58	550.03
375.78	547.69
375.97	610.88
376.17	664.71
376.37	613.22
376.56	507.90
376.76	571.09
376.95	582.79
377.15	594.50
377.35	615.56
377.54	643.65
377.74	552.37
377.93	547.69
378.13	629.60
378.33	664.71
378.52	615.56
378.72	629.60
378.91	599.18
379.11	702.16
379.31	573.43
379.50	685.78
379.70	685.78
379.89	638.97
380.09	674.07
380.28	608.54
380.48	613.22
380.68	692.80
380.87	648.33
381.07	741.95
381.26	671.73
381.46	559.39
381.65	589.82
381.85	732.59
382.04	713.86
382.24	716.20
382.43	727.91
382.63	613.22
382.83	669.39
383.02	634.29
383.22	692.80
383.41	718.54
383.61	741.95
383.80	774.72
384.00	821.53
384.19	760.67
384.39	662.37
384.58	718.54
384.78	711.52
384.97	746.63
385.17	774.72
385.36	763.01
385.56	826.21
385.75	741.95
385.95	730.25
386.14	774.72
386.34	816.85
386.53	744.29
386.72	706.84
386.92	788.76
387.11	819.19
387.31	788.76
387.50	823.87
387.70	763.01
387.89	854.30
388.09	837.91
388.28	781.74
388.48	861.32
388.67	835.57
388.86	858.98
389.06	854.30
389.25	945.58
389.45	891.74
389.64	917.49
389.84	994.73
390.03	924.51
390.22	952.60
390.42	901.11
390.61	896.43
390.81	964.30
391.00	866.00
391.19	910.47
391.39	910.47
391.58	992.39
391.78	933.87
391.97	940.90
392.16	987.71
392.36	931.53
392.55	1032.18
392.75	1008.77
392.94	929.19
393.13	1022.81
393.33	926.85
393.52	987.71
393.71	1001.75
393.91	1027.50
394.10	1083.67
394.29	1090.69
394.49	1022.81
394.68	1034.52
394.88	1062.60
395.07	1200.69
395.26	1074.31
395.46	1121.12
395.65	1104.73
395.84	1123.46
396.04	1121.12
396.23	1142.18
396.42	1156.22
396.62	1067.28
396.81	1078.99
397.00	1198.35
397.19	1179.63
397.39	1203.04
397.58	1203.04
397.77	1219.42
397.97	1245.16
398.16	1249.85
398.35	1315.38
398.55	1235.80
398.74	1301.34
398.93	1434.75
399.12	1336.45
399.32	1336.45
399.51	1303.68
399.70	1355.17
399.90	1294.32
400.09	1327.08
400.28	1352.83
400.47	1380.92
400.67	1387.94
400.86	1394.96
401.05	1451.13
401.24	1493.26
401.44	1519.01
401.63	1432.41
401.82	1467.52
402.01	1423.05
402.21	1434.75
402.40	1540.07
402.59	1493.26
402.78	1497.94
402.97	1533.05
403.17	1497.94
403.36	1565.82
403.55	1600.93
403.74	1514.33
403.93	1671.14
404.13	1612.63
404.32	1631.35
404.51	1570.50
404.70	1664.12
404.89	1666.46
405.09	1671.14
405.28	1645.40
405.47	1636.03
405.66	1680.50
405.85	1820.94
406.05	1746.04
406.24	1816.26
406.43	1722.63
406.62	1825.62
406.81	1884.13
407.00	1811.57
407.20	1769.44
407.39	1834.98
407.58	1870.09
407.77	1806.89
407.96	1912.22
408.15	1959.03
408.34	1961.37
408.54	1944.99
408.73	1961.37
408.92	2050.31
409.11	2113.50
409.30	1949.67
409.49	2017.54
409.68	2125.21
409.87	2005.84
410.07	2129.89
410.26	2097.12
410.45	2101.80
410.64	2186.06
410.83	2073.71
411.02	2132.23
411.21	2286.70
411.40	2190.74
411.59	2221.17
411.78	2363.94
411.98	2223.51
412.17	2225.85
412.36	2408.41
412.55	2340.54
412.74	2452.88
412.93	2242.23
413.12	2434.16
413.31	2516.08
413.50	2420.11
413.69	2396.71
413.88	2513.74
414.07	2567.57
414.26	2544.16
414.45	2736.09
414.64	2626.08
414.83	2668.21
415.02	2670.55
415.22	2764.17
415.41	2736.09
415.60	2658.85
415.79	2764.17
415.98	2810.98
416.17	2729.06
416.36	2839.07
416.55	2738.43
416.74	2930.35
416.93	2862.48
417.12	2881.20
417.31	2998.23
417.50	2956.10
417.69	3112.91
417.88	2965.46
418.07	3073.12
418.26	2899.92
418.45	2972.48
418.64	3129.30
418.83	3204.19
419.02	3089.51
419.21	3262.71
419.39	3185.47
419.58	3094.19
419.77	3023.97
419.96	3162.06
420.15	3344.63
420.34	3159.72
420.53	3260.37
420.72	3480.38
420.91	3426.54
421.10	3337.60
421.29	3358.67
421.48	3426.54
421.67	3478.04
421.86	3290.79
422.05	3293.13
422.24	3323.56
422.43	3290.79
422.61	3393.78
422.80	3417.18
422.99	3463.99
423.18	3492.08
423.37	3522.51
423.56	3459.31
423.75	3550.59
423.94	3433.57
424.13	3279.09
424.32	3276.75
424.50	3569.32
424.69	3459.31
424.88	3461.65
425.07	3337.60
425.26	3501.44
425.45	3569.32
425.64	3489.74
425.83	3473.36
426.01	3595.06
426.20	3574.00
426.39	3536.55
426.58	3445.27
426.77	3468.67
426.96	3597.40
427.15	3646.55
427.33	3613.79
427.52	3538.89
427.71	3730.81
427.90	3672.30
428.09	3789.33
428.28	3686.34
428.46	3679.32
428.65	3639.53
428.84	3768.26
429.03	3906.35
429.22	3822.09
429.40	3740.18
429.59	3655.92
429.78	3590.38
429.97	3625.49
430.16	3716.77
430.34	3723.79
430.53	3786.99
430.72	3822.09
430.91	3901.67
431.10	3840.82
431.28	4163.81
431.47	4124.02
431.66	4086.58
431.85	3915.72
432.03	4187.22
432.22	4252.75
432.41	4032.74
432.60	4121.68
432.79	4095.94
432.97	4182.54
433.16	4210.62
433.35	4131.05
433.54	4234.03
433.72	4276.16
433.91	4173.18
434.10	4341.69
434.28	4322.97
434.47	4290.20
434.66	4156.79
434.85	4365.10
435.03	4372.12
435.22	4423.61
435.41	4461.06
435.59	4510.21
435.78	4601.49
435.97	4493.83
436.16	4482.13
436.34	4442.34
436.53	4660.01
436.72	4540.64
436.90	4531.28
437.09	4638.94
437.28	4538.30
437.46	4524.26
437.65	4678.73
437.84	4610.86
438.02	4753.63
438.21	4767.67
438.40	4491.49
438.58	4844.91
438.77	4821.50
438.96	4865.97
439.14	4896.40
439.33	4926.83
439.52	4926.83
439.70	5032.15
439.89	5067.26
440.08	5060.24
440.26	5088.32
440.45	5167.90
440.63	5247.48
440.82	5233.44
441.01	5191.31
441.19	5280.25
441.38	5329.40
441.57	5301.31
441.75	5432.38
441.94	5547.07
442.12	5514.30
442.31	5666.44
442.50	5654.73
442.68	5514.30
442.87	5537.71
443.05	5671.12
443.24	5673.46
443.43	5816.23
443.61	5636.01
443.80	5926.24
443.98	5472.17
444.17	5523.66
444.35	5678.14
444.54	5832.62
444.73	5659.42
444.91	5790.49
445.10	5701.54
445.28	5661.76
445.47	5795.17
445.65	5631.33
445.84	5799.85
446.02	5797.51
446.21	5746.02
446.39	5769.42
446.58	6031.56
446.77	5891.13
446.95	5755.38
447.14	5771.76
447.32	5877.09
447.51	5830.27
447.69	5926.24
447.88	5928.58
448.06	5898.15
448.25	5996.45
448.43	5959.00
448.62	5834.96
448.80	5921.56
448.99	6010.50
449.17	6012.84
449.36	5914.53
449.54	6242.21
449.73	6078.37
449.91	6242.21
450.10	6204.76
450.28	6274.98
450.46	6314.77
450.65	6359.24
450.83	6373.28
451.02	6380.30
451.20	6239.87
451.39	6382.64
451.57	6300.72
451.76	6155.61
451.94	6265.61
452.13	6443.49
452.31	6572.22
452.49	6155.61
452.68	6572.22
452.86	6509.03
453.05	6464.56
453.23	6333.49
453.42	6445.84
453.60	6406.05
453.78	6574.56
453.97	6443.49
454.15	6452.86
454.34	6445.84
454.52	6619.04
454.70	6670.53
454.89	6768.83
455.07	6581.59
455.26	6663.51
455.44	6764.15
455.62	6745.42
455.81	6944.37
455.99	6810.96
456.17	7002.88
456.36	7007.56
456.54	7054.37
456.73	7012.24
456.91	7253.32
457.09	7208.85
457.28	7360.98
457.46	7005.22
457.64	7122.25
457.83	7176.08
458.01	6965.43
458.19	7279.07
458.38	7321.20
458.56	7316.51
458.74	7171.40
458.93	7197.15
459.11	7435.88
459.29	7365.67
459.48	7330.56
459.66	7403.11
459.84	7550.57
460.03	7754.19
460.21	7517.80
460.39	7513.12
460.57	7372.69
460.76	7496.74
460.94	7658.23
461.12	7721.43
461.31	7805.69
461.49	7625.47
461.67	7573.97
461.85	7889.95
462.04	7730.79
462.22	8346.35
462.40	7946.12
462.59	7772.92
462.77	7772.92
462.95	7925.05
463.13	7829.09
463.32	7798.66
463.50	8187.19
463.68	7955.48
463.86	8016.33
464.05	7936.76
464.23	7941.44
464.41	8177.83
464.59	8035.06
464.78	8030.38
464.96	8217.62
465.14	8049.10
465.32	8168.47
465.50	8376.78
465.69	8210.60
465.87	8023.36
466.05	8131.02
466.23	8182.51
466.41	8196.56
466.60	8561.68
466.78	8140.38
466.96	8486.78
467.14	8484.44
467.32	8454.02
467.51	8444.65
467.69	7974.21
467.87	8549.98
468.05	8571.04
468.23	8313.58
468.41	8475.08
468.60	8489.12
468.78	8737.22
468.96	8475.08
469.14	8739.56
469.32	8795.73
469.50	8542.96
469.69	8615.51
469.87	8767.65
470.05	8800.41
470.23	8769.99
470.41	8777.01
470.59	8833.18
470.77	8975.95
470.95	8985.32
471.14	9034.47
471.32	9025.11
471.50	9238.09
471.68	9277.88
471.86	9172.56
472.04	9369.16
472.22	9383.21
472.40	9158.52
472.58	9165.54
472.77	9387.89
472.95	9605.56
473.13	9589.17
473.31	9406.61
473.49	9179.58
473.67	9476.83
473.85	9530.66
474.03	9811.53
474.21	10057.28
474.39	10026.86
474.57	9851.31
474.75	9865.36
474.93	10120.48
475.12	9921.53
475.30	10204.74
475.48	10150.90
475.66	10127.50
475.84	10246.87
476.02	10211.76
476.20	10324.10
476.38	10560.50
476.56	10616.67
476.74	10644.76
476.92	10373.25
477.10	10478.58
477.28	10626.03
477.46	10759.44
477.64	10754.76
477.82	10925.62
478.00	11396.07
478.18	11262.66
478.36	11440.54
478.54	11311.81
478.72	11213.51
478.90	11473.31
479.08	11531.82
479.26	11672.25
479.44	11948.43
479.62	11918.01
479.80	11999.93
479.98	11915.67
480.16	12269.09
480.34	12046.74
480.52	12255.04
480.70	12203.55
480.88	12217.60
481.06	12222.28
481.24	12376.75
481.41	12645.91
481.59	12819.11
481.77	12952.52
481.95	13011.04
482.13	13102.32
482.31	13092.96
482.49	13261.48
482.67	13605.53
482.85	13647.66
483.03	13596.17
483.21	13418.29
483.39	13778.73
483.57	13834.91
483.74	13837.25
483.92	14270.25
484.10	13965.98
484.28	14291.31
484.46	14492.60
484.64	14647.07
484.82	14436.42
485.00	14703.25
485.18	15077.73
485.35	15068.37
485.53	14949.00
485.71	14923.26
485.89	15087.09
486.07	14897.51
486.25	15309.44
486.43	15391.36
486.61	15543.50
486.78	15501.37
486.96	15829.04
487.14	15932.03
487.32	16156.72
487.50	16369.71
487.68	16416.52
487.85	16613.12
488.03	16905.69
488.21	16863.56
488.39	16884.62
488.57	17001.65
488.75	17289.54
488.92	17254.43
489.10	17418.27
489.28	17542.32
489.46	17460.40
489.64	17647.64
489.81	18286.61
489.99	18267.88
490.17	18281.92
490.35	18525.34
490.53	18487.89
490.70	18602.58
490.88	18611.94
491.06	18939.62
491.24	18668.11
491.41	19176.01
491.59	18925.57
491.77	19185.37
491.95	19325.80
492.13	19269.63
492.30	19440.49
492.48	19393.68
492.66	19882.85
492.84	19702.63
493.01	19840.72
493.19	19894.55
493.37	20409.47
493.54	20208.19
493.72	20236.27
493.90	20556.93
494.08	20676.29
494.25	20882.26
494.43	21010.99
494.61	21275.47
494.79	21188.87
494.96	20884.60
495.14	21326.96
495.32	21600.80
495.49	21649.96
495.67	21582.08
495.85	21729.53
496.02	21879.33
496.20	21825.50
496.38	22185.94
496.55	22150.83
496.73	22621.28
496.91	22169.55
497.09	22480.85
497.26	22803.84
497.44	22471.48
497.62	22794.48
497.79	23166.62
497.97	23049.60
498.14	23253.22
498.32	23393.65
498.50	23405.36
498.67	23679.20
498.85	23407.70
499.03	23950.70
499.20	24006.87
499.38	24046.66
499.56	24004.53
499.73	23971.77
499.91	24247.95
500.08	24444.56
500.26	24388.38
500.44	24362.64
500.61	24512.43
500.79	24435.19
500.97	24641.16
501.14	24797.98
501.32	25179.48
501.49	24795.64
501.67	24840.11
501.84	25221.61
502.02	25516.52
502.20	25422.90
502.37	25481.41
502.55	25692.06
502.72	25436.94
502.90	25769.30
503.07	25633.55
503.25	25743.55
503.43	25750.57
503.60	26246.77
503.78	26024.42
503.95	25914.41
504.13	26258.47
504.30	26333.37
504.48	26464.44
504.65	26459.76
504.83	26721.90
505.01	26850.63
505.18	26665.72
505.36	27147.87
505.53	26841.26
505.71	26953.61
505.88	27049.57
506.06	27215.75
506.23	26754.66
506.41	26838.92
506.58	27356.18
506.76	27578.53
506.93	27775.14
507.11	27637.05
507.28	27850.03
507.46	27358.52
507.63	27768.12
507.81	27749.39
507.98	27534.06
508.16	28077.07
508.33	28182.39
508.50	28098.13
508.68	28226.86
508.85	28332.18
509.03	28287.71
509.20	28379.00
509.38	28561.56
509.55	28971.15
509.73	29153.71
509.90	28943.06
510.08	28793.27
510.25	28959.45
510.42	29048.39
510.60	29064.77
510.77	29273.08
510.95	29399.47
511.12	29188.82
511.30	29254.36
511.47	29741.19
511.64	29816.08
511.82	29975.24
511.99	29195.84
512.17	29926.09
512.34	29654.59
512.51	30333.34
512.69	30448.03
512.86	30363.77
513.04	30221.00
513.21	30471.43
513.38	30101.63
513.56	30562.72
513.73	29982.26
513.90	30930.18
514.08	30408.24
514.25	30579.10
514.43	30672.72
514.60	30539.31
514.77	31346.79
514.95	31182.96
515.12	30799.11
515.29	31014.44
515.47	31447.44
515.64	31597.23
515.81	31360.84
515.99	31522.34
516.16	31440.42
516.33	31243.81
516.51	31817.24
516.68	31370.20
516.85	31173.60
517.03	31477.86
517.20	31501.27
517.37	32065.34
517.54	32177.68
517.72	31763.41
517.89	31889.80
518.06	32027.89
518.24	32128.53
518.41	31859.37
518.58	32208.11
518.75	31882.78
518.93	32657.49
519.10	32301.73
519.27	32428.12
519.45	32545.15
519.62	32741.75
519.79	33151.35
519.96	33046.02
520.14	32912.61
520.31	32907.93
520.48	33020.28
520.65	32730.05
520.83	33483.70
521.00	33516.47
521.17	33413.49
521.34	33338.59
521.52	33537.54
521.69	33900.32
521.86	33558.60
522.03	33675.63
522.20	33687.33
522.38	33586.69
522.55	33666.27
522.72	33720.10
522.89	34005.64
523.07	34181.18
523.24	34246.72
523.41	34401.19
523.58	33830.10
523.75	34749.93
523.92	34347.36
524.10	34904.41
524.27	34220.97
524.44	34258.42
524.61	34850.58
524.78	34604.82
524.96	34878.66
525.13	35140.80
525.30	35297.62
525.47	34981.65
525.64	35051.86
525.81	35091.65
525.98	34972.28
526.16	34866.96
526.33	34955.90
526.50	35651.04
526.67	34707.80
526.84	35491.88
527.01	35517.63
527.18	35295.28
527.36	35852.33
527.53	35716.58
527.70	35550.40
527.87	36055.95
528.04	35358.47
528.21	35875.73
528.38	35924.88
528.55	36144.89
528.72	36407.03
528.89	36318.09
529.07	36280.64
529.24	35852.33
529.41	36390.65
529.58	36362.56
529.75	36311.07
529.92	36584.91
530.09	36371.92
530.26	36453.84
530.43	36580.23
530.60	36643.43
530.77	36868.12
530.94	37001.53
531.11	36657.47
531.28	37170.05
531.46	36896.20
531.63	36762.79
531.80	36804.92
531.97	37240.26
532.14	37181.75
532.31	37057.70
532.48	36935.99
532.65	37303.46
532.82	37167.71
532.99	37394.74
533.16	37022.59
533.33	37518.79
533.50	37785.61
533.67	37982.21
533.84	36821.31
534.01	37713.05
534.18	37565.60
534.35	38536.92
534.52	37776.25
534.69	37944.76
534.86	37930.72
535.03	37574.96
535.20	38227.97
535.37	38124.99
535.54	38134.35
535.71	37989.24
535.88	38003.28
536.05	37902.64
536.22	38242.01
536.38	38405.85
536.55	38155.41
536.72	38426.92
536.89	38003.28
537.06	38370.74
537.23	38359.04
537.40	38293.50
537.57	38164.78
537.74	38637.56
537.91	39044.82
538.08	38859.91
538.25	38651.61
538.42	38965.24
538.59	38916.09
538.75	38043.07
538.92	38829.49
539.09	39189.93
539.26	39164.18
539.43	39028.43
539.60	39068.22
539.77	38763.95
539.94	39267.17
540.11	38855.23
540.28	38927.79
540.44	38969.92
540.61	39124.40
540.78	39159.50
540.95	39849.96
541.12	38944.17
541.29	38969.92
541.46	39477.82
541.62	39473.13
541.79	39775.06
541.96	39491.86
542.13	39651.02
542.30	39768.04
542.47	39831.24
542.63	39840.60
542.80	39903.79
542.97	40446.80
543.14	40570.85
543.31	40418.71
543.48	40114.44
543.64	40594.25
543.81	40339.13
543.98	40184.66
544.15	40086.36
544.32	40142.53
544.48	40327.43
544.65	40641.06
544.82	40587.23
544.99	40299.34
545.16	40243.17
545.32	40112.10
545.49	40531.06
545.66	40680.85
545.83	40884.48
546.00	40765.11
546.16	40662.13
546.33	40540.42
546.50	40683.19
546.67	40598.93
546.83	40610.64
547.00	40910.22
547.17	40727.66
547.34	40786.18
547.50	41284.71
547.67	41027.25
547.84	41006.19
548.00	41483.66
548.17	41209.81
548.34	41375.99
548.51	41635.79
548.67	41340.88
548.84	41401.74
549.01	41392.37
549.18	41359.61
549.34	41390.03
549.51	41170.02
549.68	41563.23
549.84	41652.17
550.01	41954.10
550.18	41326.84
550.34	41289.39
550.51	41427.48
550.68	41420.46
550.84	41240.24
551.01	41895.59
551.18	41825.37
551.34	41511.74
551.51	41666.22
551.68	42124.96
551.84	42213.90
552.01	41996.23
552.18	41956.44
552.34	41631.11
552.51	42227.95
552.68	42513.49
552.84	42171.77
553.01	42792.01
553.18	41701.32
553.34	42202.20
553.51	41806.65
553.67	42089.85
553.84	42457.32
554.01	42693.71
554.17	42351.99
554.34	42277.10
554.51	42497.11
554.67	42539.24
554.84	42199.86
555.00	42309.86
555.17	42167.09
555.33	42780.31
555.50	42651.58
555.67	42471.36
555.83	42473.70
556.00	42719.46
556.16	43124.37
556.33	42887.98
556.50	42642.22
556.66	42981.60
556.83	42539.24
556.99	43014.37
557.16	42873.93
557.32	42988.62
557.49	43115.01
557.65	43138.41
557.82	42759.25
557.98	43203.95
558.15	43079.90
558.32	43147.78
558.48	42909.04
558.65	42878.61
558.81	43002.66
558.98	43227.35
559.14	43318.64
559.31	43103.31
559.47	43051.81
559.64	43379.49
559.80	43828.87
559.97	43587.80
560.13	43180.54
560.30	42883.30
560.46	43309.27
560.63	43306.93
560.79	43281.19
560.96	43915.47
561.12	43531.62
561.29	43863.98
561.45	43210.97
561.61	43789.08
561.78	43199.27
561.94	43159.48
562.11	43634.61
562.27	43576.09
562.44	43283.53
562.60	43585.46
562.77	43903.77
562.93	43344.38
563.10	43840.57
563.26	43264.80
563.42	43768.02
563.59	43356.08
563.75	43449.70
563.92	43611.20
564.08	43779.72
564.24	43695.46
564.41	43824.19
564.57	43597.16
564.74	43704.82
564.90	43604.18
565.07	43512.90
565.23	43618.22
565.39	43988.03
565.56	44168.25
565.72	43997.39
565.88	43833.55
566.05	43887.39
566.21	43447.36
566.38	43559.71
566.54	43618.22
566.70	44369.54
566.87	44346.13
567.03	43903.77
567.19	44308.68
567.36	44112.08
567.52	43569.07
567.68	44069.95
567.85	44002.07
568.01	43981.01
568.17	44158.89
568.34	44222.08
568.50	43927.17
568.66	43803.13
568.83	43749.29
568.99	44093.35
569.15	43817.17
569.32	43732.91
569.48	44116.76
569.64	44245.49
569.81	44170.59
569.97	44013.77
570.13	44313.36
570.30	43894.41
570.46	43742.27
570.62	43674.40
570.78	43901.43
570.95	44076.97
571.11	44055.90
571.27	44278.25
571.43	43903.77
571.60	44048.88
571.76	43966.96
571.92	44268.89
572.09	43885.04
572.25	43915.47
572.41	44346.13
572.57	43880.36
572.74	44301.66
572.90	44442.09
573.06	44224.42
573.22	44210.38
573.38	44451.45
573.55	43723.55
573.71	44259.53
573.87	44175.27
574.03	44315.70
574.20	44582.52
574.36	44203.36
574.52	44292.30
574.68	44432.73
574.84	44280.60
575.01	44346.13
575.17	44533.37
575.33	44350.81
575.49	44135.48
575.65	44498.26
575.82	44589.55
575.98	44196.34
576.14	44760.40
576.30	44165.91
576.46	44306.34
576.62	44505.29
576.79	44296.98
576.95	43896.75
577.11	44624.65
577.27	44428.05
577.43	44186.97
577.59	44208.04
577.75	44353.15
577.92	43997.39
578.08	44231.44
578.24	44004.41
578.40	44240.81
578.56	44465.50
578.72	44383.58
578.88	44378.90
579.04	44458.48
579.21	43758.66
579.37	44210.38
579.53	44343.79
579.69	43892.07
579.85	44219.74
580.01	44608.27
580.17	44650.40
580.33	44638.70
580.49	44725.30
580.65	44467.84
580.82	44423.37
580.98	44102.71
581.14	44147.18
581.30	44240.81
581.46	44643.38
581.62	44516.99
581.78	44811.90
581.94	45144.25
582.10	44591.89
582.26	44554.44
582.42	44418.69
582.58	44100.37
582.74	44474.86
582.90	44638.70
583.06	44531.03
583.22	44753.38
583.38	44666.78
583.54	44498.26
583.70	44856.37
583.86	44374.22
584.02	44371.88
584.18	44421.03
584.34	44825.94
584.50	44355.49
584.66	44252.51
584.82	44722.96
584.98	44769.77
585.14	44793.17
585.30	44715.93
585.46	44741.68
585.62	44177.61
585.78	44512.31
585.94	44191.65
586.10	44673.81
586.26	44374.22
586.42	44989.78
586.58	44872.75
586.74	44744.02
586.90	44271.23
587.06	44259.53
587.22	44362.51
587.38	44238.47
587.54	44727.64
587.70	45031.91
587.86	44374.22
588.02	44535.71
588.18	44697.21
588.34	44678.49
588.49	44397.62
588.65	44243.15
588.81	43929.51
588.97	44477.20
589.13	44072.29
589.29	44732.32
589.45	44725.30
589.61	44531.03
589.77	44556.78
589.93	44865.73
590.08	45120.85
590.24	44463.16
