SpectraSuite Data File
++++++++++++++++++++++++++++++++++++
Date: Fri Oct 25 11:23:00 EDT 2013
User: price-jones
Dark Spectrum Present: No
Reference Spectrum Present: No
Number of Sampled Component Spectra: 1
Spectrometers: USB2+H05261
Integration Time (usec): 100000 (USB2+H05261)
Spectra Averaged: 1 (USB2+H05261)
Boxcar Smoothing: 0 (USB2+H05261)
Correct for Electrical Dark: No (USB2+H05261)
Strobe/Lamp Enabled: No (USB2+H05261)
Correct for Detector Non-linearity: No (USB2+H05261)
Correct for Stray Light: No (USB2+H05261)
Number of Pixels in Processed Spectrum: 2048
>>>>>Begin Processed Spectral Data<<<<<
365.73	264.48
365.92	264.48
366.12	264.48
366.32	163.84
366.52	135.75
366.72	114.69
366.91	117.03
367.11	102.98
367.31	93.62
367.51	135.75
367.70	135.75
367.90	163.84
368.10	142.77
368.30	145.11
368.49	142.77
368.69	121.71
368.89	142.77
369.09	156.82
369.28	131.07
369.48	222.35
369.68	184.90
369.87	175.54
370.07	140.43
370.27	238.73
370.47	278.52
370.66	496.19
370.86	545.34
371.06	744.29
371.25	732.59
371.45	690.46
371.65	674.07
371.84	723.23
372.04	739.61
372.24	697.48
372.44	821.53
372.63	770.04
372.83	760.67
373.03	774.72
373.22	826.21
373.42	716.20
373.62	849.61
373.81	807.48
374.01	863.66
374.21	784.08
374.40	786.42
374.60	812.17
374.79	772.38
374.99	833.23
375.19	894.08
375.38	891.74
375.58	819.19
375.78	910.47
375.97	854.30
376.17	938.55
376.37	917.49
376.56	880.04
376.76	858.98
376.95	887.06
377.15	821.53
377.35	889.40
377.54	901.11
377.74	887.06
377.93	880.04
378.13	973.66
378.33	978.34
378.52	910.47
378.72	940.90
378.91	954.94
379.11	959.62
379.31	847.27
379.50	882.38
379.70	917.49
379.89	1025.15
380.09	1011.11
380.28	929.19
380.48	976.00
380.68	1029.84
380.87	959.62
381.07	994.73
381.26	1013.45
381.46	1013.45
381.65	1006.43
381.85	1071.97
382.04	1050.90
382.24	1039.20
382.43	1004.09
382.63	1060.26
382.83	1097.71
383.02	1107.07
383.22	1071.97
383.41	1074.31
383.61	1207.72
383.80	1172.61
384.00	1076.65
384.19	1174.95
384.39	1109.41
384.58	1130.48
384.78	1196.01
384.97	1107.07
385.17	1149.20
385.36	1191.33
385.56	1212.40
385.75	1139.84
385.95	1146.86
386.14	1249.85
386.34	1247.51
386.53	1242.82
386.72	1280.27
386.92	1310.70
387.11	1149.20
387.31	1306.02
387.50	1210.06
387.70	1214.74
387.89	1181.97
388.09	1334.11
388.28	1270.91
388.48	1299.00
388.67	1355.17
388.86	1357.51
389.06	1338.79
389.25	1425.39
389.45	1345.81
389.64	1242.82
389.84	1378.58
390.03	1373.89
390.22	1348.15
390.42	1362.19
390.61	1296.66
390.81	1331.76
391.00	1523.69
391.19	1430.07
391.39	1418.36
391.58	1448.79
391.78	1451.13
391.97	1535.39
392.16	1469.86
392.36	1483.90
392.55	1502.62
392.75	1572.84
392.94	1561.14
393.13	1540.07
393.33	1533.05
393.52	1551.78
393.71	1561.14
393.91	1418.36
394.10	1577.52
394.29	1526.03
394.49	1537.73
394.68	1724.97
394.88	1603.27
395.07	1717.95
395.26	1710.93
395.46	1703.91
395.65	1722.63
395.84	1729.66
396.04	1769.44
396.23	1673.48
396.42	1783.49
396.62	1708.59
396.81	1818.60
397.00	1753.06
397.19	1902.86
397.39	1736.68
397.58	1834.98
397.77	1771.79
397.97	1860.73
398.16	1893.49
398.35	1895.83
398.55	1865.41
398.74	1858.39
398.93	1872.43
399.12	1837.32
399.32	1900.52
399.51	1984.77
399.70	2115.84
399.90	1980.09
400.09	2115.84
400.28	2003.50
400.47	2052.65
400.67	2005.84
400.86	2207.13
401.05	2129.89
401.24	2057.33
401.44	2087.76
401.63	2179.04
401.82	2176.70
402.01	2113.50
402.21	2221.17
402.40	2179.04
402.59	2193.08
402.78	2223.51
402.97	2207.13
403.17	2207.13
403.36	2249.25
403.55	2396.71
403.74	2399.05
403.93	2277.34
404.13	2368.62
404.32	2399.05
404.51	2473.95
404.70	2455.22
404.89	2289.04
405.09	2607.36
405.28	2455.22
405.47	2338.20
405.66	2539.48
405.85	2581.61
406.05	2616.72
406.24	2579.27
406.43	2600.34
406.62	2705.66
406.81	2719.70
407.00	2623.74
407.20	2595.65
407.39	2668.21
407.58	2722.04
407.77	2799.28
407.96	2782.90
408.15	2794.60
408.34	2635.44
408.54	2775.88
408.73	2827.37
408.92	2848.43
409.11	2899.92
409.30	2815.66
409.49	2958.44
409.68	2930.35
409.87	2972.48
410.07	3045.04
410.26	3038.02
410.45	3068.44
410.64	3075.46
410.83	3122.27
411.02	3066.10
411.21	3213.56
411.40	3054.40
411.59	3274.41
411.78	3302.50
411.98	3155.04
412.17	3269.73
412.36	3335.26
412.55	3475.70
412.74	3400.80
412.93	3377.39
413.12	3419.52
413.31	3506.12
413.50	3485.06
413.69	3424.20
413.88	3545.91
414.07	3658.26
414.26	3688.68
414.45	3634.85
414.64	3770.60
414.83	3833.80
415.02	3749.54
415.22	3754.22
415.41	3864.22
415.60	3913.38
415.79	3950.82
415.98	3999.98
416.17	3913.38
416.36	3953.16
416.55	3983.59
416.74	4102.96
416.93	4042.11
417.12	4191.90
417.31	4142.75
417.50	4156.79
417.69	4327.65
417.88	4397.87
418.07	4262.12
418.26	4159.13
418.45	4454.04
418.64	4414.25
418.83	4376.80
419.02	4337.01
419.21	4428.29
419.39	4512.55
419.58	4514.89
419.77	4458.72
419.96	4514.89
420.15	4606.17
420.34	4592.13
420.53	4507.87
420.72	4643.62
420.91	4596.81
421.10	4606.17
421.29	4760.65
421.48	4751.29
421.67	4636.60
421.86	4706.82
422.05	4945.55
422.24	4908.10
422.43	4826.18
422.61	4704.48
422.80	4835.55
422.99	4837.89
423.18	4887.04
423.37	5083.64
423.56	4973.64
423.75	4964.28
423.94	4833.21
424.13	4589.79
424.32	4702.14
424.50	5074.28
424.69	5245.14
424.88	5130.45
425.07	5043.85
425.26	4901.08
425.45	5027.47
425.64	5032.15
425.83	4990.02
426.01	5034.49
426.20	5104.71
426.39	5006.41
426.58	4957.25
426.77	5130.45
426.96	5102.37
427.15	5121.09
427.33	5238.12
427.52	5064.92
427.71	5282.59
427.90	5163.22
428.09	5247.48
428.28	5394.93
428.46	5313.02
428.65	5291.95
428.84	5364.51
429.03	5593.88
429.22	5296.63
429.40	5425.36
429.59	5523.66
429.78	5439.40
429.97	5392.59
430.16	5465.15
430.34	5668.78
430.53	5654.73
430.72	5804.53
430.91	5741.33
431.10	5659.42
431.28	5769.42
431.47	5806.87
431.66	5827.93
431.85	5872.40
432.03	5809.21
432.22	5919.21
432.41	5867.72
432.60	5954.32
432.79	5970.71
432.97	5921.56
433.16	6171.99
433.35	6085.39
433.54	5912.19
433.72	6045.60
433.91	6045.60
434.10	6171.99
434.28	5980.07
434.47	6246.89
434.66	6146.25
434.85	6258.59
435.03	6408.39
435.22	6195.40
435.41	6595.63
435.59	6494.99
435.78	6525.41
435.97	6506.69
436.16	6345.19
436.34	6438.81
436.53	6574.56
436.72	6710.32
436.90	6480.94
437.09	6710.32
437.28	6494.99
437.46	6677.55
437.65	6604.99
437.84	6768.83
438.02	6803.94
438.21	6871.81
438.40	6796.92
438.58	7101.19
438.77	7014.59
438.96	6972.46
439.14	7164.38
439.33	7173.74
439.52	7258.00
439.70	7346.94
439.89	7433.54
440.08	7548.23
440.26	7496.74
440.45	7393.75
440.63	7815.05
440.82	7566.95
441.01	7609.08
441.19	7651.21
441.38	7864.20
441.57	7803.35
441.75	8016.33
441.94	7927.39
442.12	7892.29
442.31	8035.06
442.50	8018.68
442.68	7899.31
442.87	8135.70
443.05	8187.19
443.24	8318.26
443.43	8196.56
443.61	8177.83
443.80	8430.61
443.98	8013.99
444.17	7962.50
444.35	8273.79
444.54	8177.83
444.73	8428.27
444.91	8231.66
445.10	8484.44
445.28	8393.16
445.47	8299.54
445.65	8456.36
445.84	8585.08
446.02	8372.10
446.21	8456.36
446.39	8341.67
446.58	8491.46
446.77	8526.57
446.95	8381.46
447.14	8568.70
447.32	8587.43
447.51	8449.33
447.69	8463.38
447.88	8664.66
448.06	8627.21
448.25	8613.17
448.43	8629.56
448.62	8774.67
448.80	8741.90
448.99	8421.25
449.17	8821.48
449.36	8561.68
449.54	8936.17
449.73	8912.76
449.91	8966.59
450.10	8898.72
450.28	9076.60
450.46	9334.06
450.65	9364.48
450.83	9364.48
451.02	9090.64
451.20	9221.71
451.39	9191.28
451.57	9011.06
451.76	9268.52
451.94	9259.16
452.13	9289.59
452.31	9453.42
452.49	9446.40
452.68	9308.31
452.86	9315.33
453.05	9497.89
453.23	9518.96
453.42	9355.12
453.60	9483.85
453.78	9694.50
453.97	9469.81
454.15	9502.58
454.34	9432.36
454.52	9657.05
454.70	9734.29
454.89	9860.68
455.07	9778.76
455.26	9921.53
455.44	9923.87
455.62	9930.89
455.81	9921.53
455.99	10160.27
456.17	10083.03
456.36	10272.61
456.54	10284.31
456.73	10284.31
456.91	10600.29
457.09	10532.41
457.28	10546.45
457.46	10469.22
457.64	10520.71
457.83	10485.60
458.01	10602.63
458.19	10721.99
458.38	10551.14
458.56	10595.61
458.74	10857.75
458.93	10810.93
459.11	10796.89
459.29	10780.51
459.48	11077.76
459.66	10771.15
459.84	11178.40
460.03	11108.18
460.21	11138.61
460.39	11077.76
460.57	11138.61
460.76	11295.43
460.94	11061.37
461.12	11066.05
461.31	11150.31
461.49	11171.38
461.67	11260.32
461.85	11438.20
462.04	11531.82
462.22	11655.87
462.40	11407.77
462.59	11545.86
462.77	11590.33
462.95	11576.29
463.13	11737.79
463.32	11646.51
463.50	11754.17
463.68	11726.08
463.86	11836.09
464.05	11681.61
464.23	11690.98
464.41	12072.48
464.59	11658.21
464.78	12343.99
464.96	12039.72
465.14	12095.89
465.32	12046.74
465.50	12329.94
465.69	12194.19
465.87	12189.51
466.05	12248.02
466.23	12402.50
466.41	12383.77
466.60	12786.35
466.78	12079.50
466.96	12514.84
467.14	12215.26
467.32	12542.93
467.51	12652.94
467.69	12362.71
467.87	12554.63
468.05	12542.93
468.23	12491.44
468.41	12517.18
468.60	12531.23
468.78	12758.26
468.96	12727.83
469.14	12872.95
469.32	13427.65
469.50	12739.54
469.69	13116.36
469.87	13474.46
470.05	13256.79
470.23	13163.17
470.41	13172.54
470.59	13465.10
470.77	13420.63
470.95	13245.09
471.14	13568.09
471.32	13221.69
471.50	13547.02
471.68	13715.54
471.86	13635.96
472.04	13867.67
472.22	14073.64
472.40	13710.86
472.58	13900.44
472.77	14295.99
472.95	14403.66
473.13	14754.74
473.31	14361.53
473.49	14434.08
473.67	14492.60
473.85	14237.48
474.03	14724.31
474.21	14682.18
474.39	14993.47
474.57	14988.79
474.75	14998.15
474.93	15047.30
475.12	15173.69
475.30	15323.49
475.48	15316.47
475.66	15351.57
475.84	15330.51
476.02	15412.43
476.20	15365.62
476.38	15964.79
476.56	16294.81
476.74	16065.44
476.92	15803.30
477.10	15819.68
477.28	16226.93
477.46	16334.60
477.64	16437.58
477.82	16634.19
478.00	17020.38
478.18	17039.10
478.36	16924.41
478.54	17521.25
478.72	17303.58
478.90	17277.83
479.08	17657.00
479.26	17942.55
479.44	17874.67
479.62	17886.37
479.80	18340.44
479.98	18328.74
480.16	18513.64
480.34	18501.93
480.52	18448.10
480.70	18890.46
480.88	18595.56
481.06	18944.30
481.24	18757.05
481.41	19391.34
481.59	19260.27
481.77	19639.44
481.95	19655.82
482.13	19669.86
482.31	19838.38
482.49	20421.17
482.67	20339.26
482.85	20552.24
483.03	20737.15
483.21	20950.14
483.39	20992.26
483.57	20994.61
483.74	21429.94
483.92	21500.16
484.10	21579.74
484.28	21996.35
484.46	22146.15
484.64	22448.08
484.82	22265.52
485.00	22551.06
485.18	22642.34
485.35	22974.70
485.53	23105.77
485.71	22998.10
485.89	23740.05
486.07	23307.05
486.25	23632.39
486.43	23740.05
486.61	23964.75
486.78	24098.16
486.96	24428.17
487.14	24872.87
487.32	24678.61
487.50	25144.38
487.68	25376.09
487.85	25326.94
488.03	25645.25
488.21	26085.27
488.39	25832.49
488.57	26305.28
488.75	26499.55
488.92	26761.69
489.10	26859.99
489.28	26583.80
489.46	27632.36
489.64	27316.39
489.81	27768.12
489.99	28002.17
490.17	28404.74
490.35	28039.62
490.53	28400.06
490.70	28875.19
490.88	28390.70
491.06	29017.96
491.24	29195.84
491.41	29240.31
491.59	29539.90
491.77	29448.62
491.95	30043.12
492.13	29771.61
492.30	30178.87
492.48	30389.52
492.66	30281.85
492.84	30579.10
493.01	30742.94
493.19	30883.37
493.37	31101.04
493.54	31784.48
493.72	31248.49
493.90	31737.66
494.08	31782.13
494.25	32247.90
494.43	32493.66
494.61	32704.31
494.79	32510.04
494.96	32879.85
495.14	32936.02
495.32	33406.47
495.49	33343.27
495.67	33577.33
495.85	33830.10
496.02	33914.36
496.20	34244.38
496.38	34279.49
496.55	34267.78
496.73	35379.54
496.91	34806.11
497.09	35000.37
497.26	35194.64
497.44	35302.30
497.62	35365.49
497.79	36437.46
497.97	35840.62
498.14	36041.91
498.32	36535.76
498.50	36444.48
498.67	36524.06
498.85	36212.77
499.03	36966.42
499.20	36947.70
499.38	37130.26
499.56	37455.59
499.73	37408.78
499.91	37675.60
500.08	38007.96
500.26	37816.04
500.44	38047.75
500.61	38007.96
500.79	37975.19
500.97	38012.64
501.14	38677.35
501.32	38508.83
501.49	38895.02
501.67	38906.73
501.84	39171.21
502.02	38899.70
502.20	39522.29
502.37	39749.32
502.55	39388.88
502.72	39503.56
502.90	39636.97
503.07	39793.79
503.25	40023.16
503.43	40142.53
503.60	40194.02
503.78	40236.15
503.95	40182.32
504.13	40399.99
504.30	41144.28
504.48	40498.29
504.65	41088.10
504.83	41361.95
505.01	41600.68
505.18	41588.98
505.36	41771.54
505.53	41530.47
505.71	41923.68
505.88	42424.55
506.06	41780.90
506.23	42202.20
506.41	42337.95
506.58	42480.72
506.76	42471.36
506.93	42550.94
507.11	42593.07
507.28	42679.67
507.46	43063.52
507.63	43222.67
507.81	43222.67
507.98	42883.30
508.16	43482.47
508.33	43842.92
508.50	43503.54
508.68	43854.62
508.85	43819.51
509.03	43704.82
509.20	43969.30
509.38	44676.15
509.55	44502.95
509.73	44720.62
509.90	45312.77
510.08	44524.01
510.25	45427.46
510.42	45315.11
510.60	45289.37
510.77	45280.00
510.95	45872.16
511.12	45202.77
511.30	45258.94
511.47	45923.65
511.64	46227.92
511.82	46012.59
511.99	46075.79
512.17	46302.82
512.34	46050.04
512.51	46382.40
512.69	46756.88
512.86	46672.62
513.04	47091.58
513.21	47091.58
513.38	47138.39
513.56	46993.28
513.73	46890.29
513.90	47234.35
514.08	47480.11
514.25	47723.52
514.43	47576.07
514.60	47868.64
514.77	47798.42
514.95	48186.95
515.12	48037.16
515.29	48144.82
515.47	48037.16
515.64	48584.84
515.81	47859.27
515.99	48575.48
516.16	48697.19
516.33	48545.05
516.51	49052.95
516.68	48755.70
516.85	48823.58
517.03	49184.02
517.20	49439.14
517.37	48828.26
517.54	48914.86
517.72	49258.91
517.89	49586.59
518.06	49427.43
518.24	49315.09
518.41	49631.06
518.58	49223.81
518.75	49305.73
518.93	49808.94
519.10	49647.44
519.27	50251.30
519.45	50082.78
519.62	50267.69
519.79	49764.47
519.96	50239.60
520.14	50457.27
520.31	50354.29
520.48	50298.11
520.65	50569.61
520.83	50813.03
521.00	50913.67
521.17	50651.53
521.34	50806.01
521.52	51168.79
521.69	50930.06
521.86	51145.39
522.03	51281.14
522.20	51608.81
522.38	51578.39
522.55	51531.57
522.72	51487.10
522.89	51693.07
523.07	52107.35
523.24	51980.96
523.41	52378.85
523.58	51803.08
523.75	52432.68
523.92	52116.71
524.10	51854.57
524.27	52229.05
524.44	52172.88
524.61	52439.70
524.78	52388.21
524.96	52404.59
525.13	52643.33
525.30	52907.81
525.47	52662.05
525.64	52863.34
525.81	53052.92
525.98	52837.59
526.16	52996.75
526.33	52891.43
526.50	53172.29
526.67	53097.39
526.84	53265.91
527.01	52933.56
527.18	53050.58
527.36	53263.57
527.53	53251.87
527.70	53481.24
527.87	53427.41
528.04	53242.51
528.21	53631.04
528.38	53577.20
528.55	53766.79
528.72	53579.54
528.89	54007.86
529.07	53673.16
529.24	53574.86
529.41	53708.27
529.58	53628.69
529.75	53708.27
529.92	53834.66
530.09	53977.43
530.26	54152.97
530.43	54169.36
530.60	54319.15
530.77	53811.26
530.94	54155.32
531.11	54157.66
531.28	54394.05
531.46	54302.77
531.63	54630.44
531.80	54644.49
531.97	54841.09
532.14	54798.96
532.31	54611.72
532.48	54890.24
532.65	54906.63
532.82	54756.83
532.99	54887.90
533.16	54670.23
533.33	55004.93
533.50	54986.21
533.67	54869.18
533.84	55009.61
534.01	55164.09
534.18	54983.86
534.35	55451.97
534.52	55463.67
534.69	55161.75
534.86	55255.37
535.03	55140.68
535.20	55384.10
535.37	55313.88
535.54	55587.72
535.71	55491.76
535.88	55674.32
536.05	55744.54
536.22	56055.83
536.38	55875.61
536.55	55746.88
536.72	55671.98
536.89	55728.16
537.06	55842.84
537.23	55826.46
537.40	55725.81
537.57	55884.97
537.74	55913.06
537.91	56051.15
538.08	56083.92
538.25	55920.08
538.42	55936.46
538.59	56104.98
538.75	56093.28
538.92	56231.37
539.09	56446.70
539.26	56449.04
539.43	56395.21
539.60	56413.93
539.77	56493.51
539.94	56622.24
540.11	56472.45
540.28	56523.94
540.44	56676.07
540.61	56671.39
540.78	56540.32
540.95	56556.70
541.12	56442.02
541.29	56659.69
541.46	56584.79
541.62	56746.29
541.79	56966.30
541.96	56498.19
542.13	56697.14
542.30	56970.98
542.47	57001.41
542.63	56956.94
542.80	57071.62
542.97	57069.28
543.14	57378.23
543.31	57235.46
543.48	57600.58
543.64	57916.56
543.81	57462.49
543.98	57553.77
544.15	57513.98
544.32	57645.05
544.48	57813.57
544.65	57579.52
544.82	57687.18
544.99	57659.10
545.16	57691.86
545.32	57455.47
545.49	57705.91
545.66	57808.89
545.83	57792.51
546.00	57668.46
546.16	57900.17
546.33	57638.03
546.50	57455.47
546.67	58005.50
546.83	57804.21
547.00	57998.48
547.17	58071.03
547.34	58040.60
547.50	58045.29
547.67	58096.78
547.84	58110.82
548.00	58190.40
548.17	58480.63
548.34	58358.92
548.51	58342.53
548.67	58405.73
548.84	58197.42
549.01	58127.20
549.18	58487.65
549.34	58356.58
549.51	58440.84
549.68	58438.50
549.84	58440.84
550.01	58728.72
550.18	58384.66
550.34	58560.20
550.51	58621.06
550.68	58791.92
550.84	58394.03
551.01	58962.78
551.18	58672.55
551.34	58885.54
551.51	58653.82
551.68	58663.19
551.84	58775.53
552.01	58501.69
552.18	58848.09
552.34	58705.32
552.51	58862.13
552.68	58857.45
552.84	58948.73
553.01	59243.64
553.18	58796.60
553.34	59007.25
553.51	59009.59
553.67	58955.75
553.84	59105.55
554.01	59171.08
554.17	58862.13
554.34	59227.26
554.51	59320.88
554.67	59283.43
554.84	59091.51
555.00	59084.48
555.17	59168.74
555.33	59274.07
555.50	59220.23
555.67	58871.49
555.83	59189.81
556.00	59290.45
556.16	59372.37
556.33	59442.59
556.50	59365.35
556.66	59669.62
556.83	59011.93
556.99	59545.57
557.16	59693.02
557.32	59723.45
557.49	59887.29
557.65	59564.29
557.82	59578.34
557.98	59573.66
558.15	59615.79
558.32	59735.15
558.48	59686.00
558.65	59594.72
558.81	59482.37
558.98	59784.30
559.14	59901.33
559.31	59758.56
559.47	59891.97
559.64	59849.84
559.80	59896.65
559.97	59835.80
560.13	59934.10
560.30	60004.31
560.46	59941.12
560.63	60013.68
560.79	59852.18
560.96	60238.37
561.12	60104.96
561.29	60025.38
561.45	60053.47
561.61	59934.10
561.78	60001.97
561.94	59962.18
562.11	59978.57
562.27	59917.71
562.44	60097.94
562.60	60207.94
562.77	59999.63
562.93	59943.46
563.10	60252.41
563.26	60069.85
563.42	60486.46
563.59	60090.91
563.75	60140.07
563.92	60065.17
564.08	60065.17
564.24	60250.07
564.41	60308.58
564.57	60331.99
564.74	60219.64
564.90	60149.43
565.07	60154.11
565.23	60278.16
565.39	60163.47
565.56	60451.36
565.72	60432.63
565.88	60395.18
566.05	60264.11
566.21	60500.51
566.38	60610.51
566.54	60322.63
566.70	60547.32
566.87	60505.19
567.03	60355.39
567.19	60608.17
567.36	60526.25
567.52	60507.53
567.68	60706.47
567.85	60509.87
568.01	60673.71
568.17	60760.31
568.34	60549.66
568.50	60519.23
568.66	60598.81
568.83	60650.30
568.99	60505.19
569.15	60472.42
569.32	60596.47
569.48	60544.98
569.64	60776.69
569.81	60610.51
569.97	60479.44
570.13	60636.26
570.30	60498.17
570.46	60507.53
570.62	60713.50
570.78	60821.16
570.95	60573.06
571.11	60715.84
571.27	60809.46
571.43	60659.66
571.60	60903.08
571.76	60617.53
571.92	60853.93
572.09	60874.99
572.25	60776.69
572.41	60790.73
572.57	60872.65
572.74	60966.27
572.90	60573.06
573.06	60783.71
573.22	60867.97
573.38	60860.95
573.55	60811.80
573.71	60959.25
573.87	60790.73
574.03	60664.35
574.20	60898.40
574.36	60980.32
574.52	60945.21
574.68	60966.27
574.84	60905.42
575.01	60891.38
575.17	60856.27
575.33	60825.84
575.49	60652.64
575.65	60935.85
575.82	60940.53
575.98	60961.59
576.14	60921.80
576.30	60921.80
576.46	60905.42
576.62	61055.21
576.79	60879.67
576.95	60739.24
577.11	61034.15
577.27	61059.90
577.43	60987.34
577.59	61034.15
577.75	60893.72
577.92	60938.19
578.08	61064.58
578.24	61010.74
578.40	61083.30
578.56	60975.64
578.72	60931.17
578.88	61059.90
579.04	61209.69
579.21	61006.06
579.37	61165.22
579.53	61151.18
579.69	60914.78
579.85	61080.96
580.01	61190.97
580.17	61017.77
580.33	61263.52
580.49	61113.73
580.65	61087.98
580.82	61008.40
580.98	61001.38
581.14	60989.68
581.30	61113.73
581.46	60931.17
581.62	61080.96
581.78	60942.87
581.94	61244.80
582.10	60931.17
582.26	61181.60
582.42	61123.09
582.58	61338.42
582.74	61034.15
582.90	61080.96
583.06	61120.75
583.22	60975.64
583.38	61064.58
583.54	61359.48
583.70	61036.49
583.86	61013.08
584.02	60933.51
584.18	61228.41
584.34	61141.81
584.50	61109.05
584.66	61127.77
584.82	60851.59
584.98	61240.12
585.14	61343.10
585.30	61062.24
585.46	61109.05
585.62	61303.31
585.78	61289.27
585.94	60956.91
586.10	61080.96
586.26	61247.14
586.42	61263.52
586.58	61219.05
586.74	61254.16
586.90	61223.73
587.06	61174.58
587.22	61319.70
587.38	61205.01
587.54	61282.25
587.70	61448.42
587.86	61345.44
588.02	61289.27
588.18	61436.72
588.34	61085.64
588.49	61240.12
