SpectraSuite Data File
++++++++++++++++++++++++++++++++++++
Date: Fri Oct 25 11:26:13 EDT 2013
User: price-jones
Dark Spectrum Present: No
Reference Spectrum Present: No
Number of Sampled Component Spectra: 1
Spectrometers: USB2+H05261
Integration Time (usec): 100000 (USB2+H05261)
Spectra Averaged: 1 (USB2+H05261)
Boxcar Smoothing: 0 (USB2+H05261)
Correct for Electrical Dark: No (USB2+H05261)
Strobe/Lamp Enabled: No (USB2+H05261)
Correct for Detector Non-linearity: No (USB2+H05261)
Correct for Stray Light: No (USB2+H05261)
Number of Pixels in Processed Spectrum: 2048
>>>>>Begin Processed Spectral Data<<<<<
365.73	255.12
365.92	255.12
366.12	255.12
366.32	205.97
366.52	114.69
366.72	163.84
366.91	175.54
367.11	133.41
367.31	203.63
367.51	149.79
367.70	168.52
367.90	107.66
368.10	147.45
368.30	114.69
368.49	170.86
368.69	177.88
368.89	140.43
369.09	114.69
369.28	201.29
369.48	184.90
369.68	201.29
369.87	175.54
370.07	189.58
370.27	245.76
370.47	294.91
370.66	582.79
370.86	662.37
371.06	638.97
371.25	688.12
371.45	617.90
371.65	725.57
371.84	704.50
372.04	662.37
372.24	641.31
372.44	683.44
372.63	777.06
372.83	720.88
373.03	660.03
373.22	791.10
373.42	725.57
373.62	873.02
373.81	711.52
374.01	784.08
374.21	739.61
374.40	826.21
374.60	861.32
374.79	866.00
374.99	795.78
375.19	744.29
375.38	856.64
375.58	889.40
375.78	882.38
375.97	905.79
376.17	938.55
376.37	807.48
376.56	882.38
376.76	947.92
376.95	973.66
377.15	938.55
377.35	884.72
377.54	912.81
377.74	863.66
377.93	910.47
378.13	851.96
378.33	959.62
378.52	905.79
378.72	919.83
378.91	924.51
379.11	985.37
379.31	964.30
379.50	1027.50
379.70	1074.31
379.89	919.83
380.09	943.24
380.28	945.58
380.48	1107.07
380.68	1027.50
380.87	976.00
381.07	1015.79
381.26	1118.78
381.46	987.71
381.65	1006.43
381.85	1013.45
382.04	1046.22
382.24	1116.44
382.43	1057.92
382.63	1074.31
382.83	1076.65
383.02	1076.65
383.22	1139.84
383.41	1074.31
383.61	1144.52
383.80	1193.67
384.00	1137.50
384.19	1071.97
384.39	1165.59
384.58	1018.13
384.78	1219.42
384.97	1142.18
385.17	1186.65
385.36	1181.97
385.56	1102.39
385.75	1149.20
385.95	1198.35
386.14	1224.10
386.34	1130.48
386.53	1259.21
386.72	1128.14
386.92	1121.12
387.11	1214.74
387.31	1200.69
387.50	1214.74
387.70	1226.44
387.89	1172.61
388.09	1270.91
388.28	1259.21
388.48	1277.93
388.67	1277.93
388.86	1287.29
389.06	1254.53
389.25	1291.98
389.45	1324.74
389.64	1387.94
389.84	1397.30
390.03	1355.17
390.22	1357.51
390.42	1416.02
390.61	1345.81
390.81	1444.11
391.00	1444.11
391.19	1366.87
391.39	1437.09
391.58	1453.47
391.78	1439.43
391.97	1364.53
392.16	1474.54
392.36	1561.14
392.55	1516.67
392.75	1579.86
392.94	1481.56
393.13	1535.39
393.33	1441.77
393.52	1598.59
393.71	1570.50
393.91	1640.72
394.10	1549.43
394.29	1514.33
394.49	1537.73
394.68	1717.95
394.88	1654.76
395.07	1659.44
395.26	1598.59
395.46	1710.93
395.65	1659.44
395.84	1720.29
396.04	1837.32
396.23	1741.36
396.42	1790.51
396.62	1743.70
396.81	1696.89
397.00	1729.66
397.19	1902.86
397.39	1839.66
397.58	1760.08
397.77	1802.21
397.97	1827.96
398.16	1837.32
398.35	1926.26
398.55	1856.04
398.74	1867.75
398.93	2033.93
399.12	1849.02
399.32	1923.92
399.51	1909.88
399.70	2033.93
399.90	1895.83
400.09	1963.71
400.28	2104.14
400.47	2024.56
400.67	1994.14
400.86	2062.01
401.05	2047.97
401.24	2085.42
401.44	2146.27
401.63	2169.68
401.82	2125.21
402.01	2111.16
402.21	2183.72
402.40	2188.40
402.59	2148.61
402.78	2120.53
402.97	2303.09
403.17	2228.19
403.36	2239.89
403.55	2296.07
403.74	2296.07
403.93	2349.90
404.13	2410.75
404.32	2457.56
404.51	2443.52
404.70	2417.77
404.89	2370.96
405.09	2354.58
405.28	2324.15
405.47	2452.88
405.66	2520.76
405.85	2476.29
406.05	2427.14
406.24	2551.18
406.43	2612.04
406.62	2682.25
406.81	2658.85
407.00	2588.63
407.20	2609.70
407.39	2600.34
407.58	2689.28
407.77	2628.42
407.96	2750.13
408.15	2724.38
408.34	2764.17
408.54	2813.32
408.73	2775.88
408.92	2726.72
409.11	2729.06
409.30	2937.37
409.49	2918.65
409.68	2862.48
409.87	2883.54
410.07	2949.08
410.26	3052.06
410.45	3021.63
410.64	3103.55
410.83	3211.22
411.02	3148.02
411.21	3141.00
411.40	3169.09
411.59	3332.92
411.78	3124.62
411.98	3063.76
412.17	3208.87
412.36	3309.52
412.55	3325.90
412.74	3468.67
412.93	3461.65
413.12	3300.16
413.31	3559.95
413.50	3487.40
413.69	3391.44
413.88	3604.42
414.07	3613.79
414.26	3616.13
414.45	3513.14
414.64	3653.58
414.83	3756.56
415.02	3632.51
415.22	3726.13
415.41	3894.65
415.60	3840.82
415.79	3861.88
415.98	3962.53
416.17	3885.29
416.36	3864.22
416.55	3918.06
416.74	4081.89
416.93	3999.98
417.12	4114.66
417.31	4215.30
417.50	4231.69
417.69	4355.74
417.88	4266.80
418.07	4276.16
418.26	4306.59
418.45	4430.63
418.64	4454.04
418.83	4304.25
419.02	4397.87
419.21	4421.27
419.39	4519.57
419.58	4376.80
419.77	4503.19
419.96	4571.07
420.15	4447.02
420.34	4535.96
420.53	4564.04
420.72	4650.64
420.91	4713.84
421.10	4564.04
421.29	4856.61
421.48	4718.52
421.67	4837.89
421.86	4550.00
422.05	4751.29
422.24	4954.91
422.43	5071.94
422.61	4807.46
422.80	4973.64
422.99	4954.91
423.18	5046.20
423.37	4999.38
423.56	5060.24
423.75	4957.25
423.94	4854.27
424.13	4723.20
424.32	4856.61
424.50	5008.75
424.69	5029.81
424.88	5018.11
425.07	4926.83
425.26	4971.30
425.45	5029.81
425.64	4964.28
425.83	5036.83
426.01	5085.98
426.20	4994.70
426.39	5011.09
426.58	5128.11
426.77	4971.30
426.96	5207.69
427.15	5018.11
427.33	5270.89
427.52	5093.01
427.71	5324.72
427.90	5238.12
428.09	5095.35
428.28	5298.97
428.46	5245.14
428.65	5364.51
428.84	5526.00
429.03	5596.22
429.22	5268.55
429.40	5416.00
429.59	5455.79
429.78	5238.12
429.97	5301.31
430.16	5432.38
430.34	5699.20
430.53	5628.99
430.72	5806.87
430.91	5479.19
431.10	5526.00
431.28	5692.18
431.47	5783.46
431.66	5811.55
431.85	5645.37
432.03	5954.32
432.22	6031.56
432.41	5799.85
432.60	5947.30
432.79	5884.11
432.97	6001.13
433.16	5923.90
433.35	5935.60
433.54	6134.54
433.72	6120.50
433.91	5959.00
434.10	6106.46
434.28	6085.39
434.47	6157.95
434.66	6186.04
434.85	6443.49
435.03	6211.78
435.22	6150.93
435.41	6406.05
435.59	6300.72
435.78	6356.90
435.97	6321.79
436.16	6420.09
436.34	6415.41
436.53	6415.41
436.72	6736.06
436.90	6277.32
437.09	6640.10
437.28	6509.03
437.46	6450.52
437.65	6502.01
437.84	6808.62
438.02	6656.48
438.21	6766.49
438.40	6612.01
438.58	6839.05
438.77	7016.93
438.96	6965.43
439.14	6967.77
439.33	7000.54
439.52	7321.20
439.70	7119.91
439.89	7433.54
440.08	7297.79
440.26	7346.94
440.45	7274.38
440.63	7513.12
440.82	7524.82
441.01	7365.67
441.19	7630.15
441.38	7578.65
441.57	7550.57
441.75	7681.64
441.94	7950.80
442.12	8060.80
442.31	7999.95
442.50	7983.57
442.68	7812.71
442.87	7871.22
443.05	8018.68
443.24	8234.00
443.43	8016.33
443.61	7861.86
443.80	8489.12
443.98	8203.58
444.17	7735.47
444.35	8266.77
444.54	8166.13
444.73	8329.97
444.91	8278.47
445.10	8381.46
445.28	8280.82
445.47	8138.04
445.65	8322.94
445.84	8374.44
446.02	8519.55
446.21	8444.65
446.39	8411.89
446.58	8411.89
446.77	8475.08
446.95	8376.78
447.14	8362.73
447.32	8552.32
447.51	8652.96
447.69	8482.10
447.88	8395.50
448.06	8484.44
448.25	8603.81
448.43	8575.72
448.62	8519.55
448.80	8489.12
448.99	8638.92
449.17	8683.39
449.36	8533.59
449.54	8809.78
449.73	8896.38
449.91	9163.20
450.10	9015.74
450.28	9301.29
450.46	9004.04
450.65	8851.91
450.83	8929.14
451.02	9088.30
451.20	9076.60
451.39	9092.98
451.57	9116.39
451.76	9172.56
451.94	9067.24
452.13	9069.58
452.31	9291.93
452.49	9081.28
452.68	9357.46
452.86	9366.82
453.05	9411.29
453.23	9551.73
453.42	9139.79
453.60	9317.67
453.78	9408.95
453.97	9338.74
454.15	9467.47
454.34	9401.93
454.52	9430.02
454.70	9643.01
454.89	9549.39
455.07	9858.34
455.26	9703.86
455.44	10010.47
455.62	9692.16
455.81	9881.74
455.99	9696.84
456.17	10237.50
456.36	10031.54
456.54	10157.92
456.73	10136.86
456.91	10476.24
457.09	10368.57
457.28	10501.98
457.46	10125.16
457.64	10541.77
457.83	10628.37
458.01	10354.53
458.19	10642.42
458.38	10621.35
458.56	10719.65
458.74	10698.59
458.93	10815.62
459.11	10719.65
459.29	10696.25
459.48	10611.99
459.66	10834.34
459.84	10869.45
460.03	11005.20
460.21	11007.54
460.39	11033.29
460.57	10906.90
460.76	10916.26
460.94	11054.35
461.12	11370.32
461.31	10970.09
461.49	11201.80
461.67	11150.31
461.85	11222.87
462.04	11248.61
462.22	11672.25
462.40	11562.25
462.59	11375.00
462.77	11527.14
462.95	11583.31
463.13	11524.80
463.32	11611.40
463.50	11735.45
463.68	11817.36
463.86	12074.82
464.05	11562.25
464.23	11375.00
464.41	11817.36
464.59	11625.44
464.78	11978.86
464.96	11840.77
465.14	11770.55
465.32	11927.37
465.50	11960.14
465.69	12105.25
465.87	11950.78
466.05	12074.82
466.23	12161.42
466.41	12299.52
466.60	12255.04
466.78	12077.16
466.96	12374.41
467.14	12308.88
467.32	12343.99
467.51	12674.00
467.69	12149.72
467.87	12657.62
468.05	12418.88
468.23	12191.85
468.41	12538.25
468.60	12571.02
468.78	12624.85
468.96	12348.67
469.14	12905.71
469.32	12924.44
469.50	12791.03
469.69	12938.48
469.87	13167.85
470.05	13153.81
470.23	13327.01
470.41	12999.34
470.59	13146.79
470.77	13310.63
470.95	13280.20
471.14	13556.38
471.32	13146.79
471.50	13554.04
471.68	13774.05
471.86	13673.41
472.04	13561.06
472.22	13682.77
472.40	13729.58
472.58	13909.80
472.77	13867.67
472.95	14181.31
473.13	14178.97
473.31	13975.34
473.49	13923.85
473.67	13888.74
473.85	14476.21
474.03	14628.35
474.21	14478.55
474.39	14827.29
474.57	14906.87
474.75	14684.52
474.93	15021.56
475.12	15054.33
475.30	15108.16
475.48	14700.90
475.66	15283.70
475.84	15145.61
476.02	15447.54
476.20	15295.40
476.38	15723.72
476.56	15920.32
476.74	15988.20
476.92	15822.02
477.10	15754.15
477.28	15550.52
477.46	15976.50
477.64	16191.83
477.82	16451.63
478.00	17018.04
478.18	16678.66
478.36	16945.48
478.54	16966.54
478.72	17057.82
478.90	17343.37
479.08	17343.37
479.26	17549.34
479.44	17425.29
479.62	17809.14
479.80	17649.98
479.98	17893.40
480.16	18361.50
480.34	18310.01
480.52	18710.24
480.70	18321.71
480.88	18698.54
481.06	18487.89
481.24	18616.62
481.41	19096.43
481.59	19166.65
481.77	19335.17
481.95	19281.33
482.13	19836.04
482.31	19482.62
482.49	20088.82
482.67	20013.92
482.85	20233.93
483.03	20250.32
483.21	20673.95
483.39	20943.11
483.57	20933.75
483.74	21184.19
483.92	21333.98
484.10	20999.29
484.28	21621.87
484.46	21933.16
484.64	21930.82
484.82	21642.93
485.00	22242.11
485.18	22883.42
485.35	22993.42
485.53	22885.76
485.71	23035.55
485.89	23695.58
486.07	23091.73
486.25	23026.19
486.43	23494.30
486.61	23564.51
486.78	24114.54
486.96	23922.62
487.14	24327.53
487.32	24451.58
487.50	24524.13
487.68	24907.98
487.85	25116.29
488.03	24900.96
488.21	25909.73
488.39	25769.30
488.57	25806.75
488.75	26008.03
488.92	26504.23
489.10	26710.19
489.28	26553.38
489.46	27077.66
489.64	26841.26
489.81	27573.85
489.99	27786.84
490.17	27381.93
490.35	28229.20
490.53	28046.64
490.70	28587.30
490.88	27999.83
491.06	29020.30
491.24	28425.81
491.41	28823.70
491.59	28982.85
491.77	29134.99
491.95	29738.85
492.13	29734.17
492.30	29696.72
492.48	29631.18
492.66	30356.75
492.84	30162.48
493.01	30319.30
493.19	30618.89
493.37	30579.10
493.54	31115.08
493.72	31241.47
493.90	31145.51
494.08	31641.70
494.25	31569.15
494.43	31981.08
494.61	32355.57
494.79	32093.43
494.96	32685.58
495.14	32175.34
495.32	33214.54
495.49	32985.17
495.67	32982.83
495.85	33399.44
496.02	33397.10
496.20	33954.15
496.38	33890.96
496.55	34057.14
496.73	34745.25
496.91	34370.77
497.09	34813.13
497.26	34642.27
497.44	34644.61
497.62	35000.37
497.79	35573.80
497.97	35274.21
498.14	35814.88
498.32	36297.03
498.50	36268.94
498.67	36367.24
498.85	36437.46
499.03	36392.99
499.20	36388.31
499.38	36903.23
499.56	36961.74
499.73	37170.05
499.91	37067.06
500.08	37322.18
500.26	37687.31
500.44	37256.65
500.61	37666.24
500.79	37752.84
500.97	37752.84
501.14	38445.64
501.32	38162.43
501.49	37930.72
501.67	38431.60
501.84	39187.59
502.02	39208.65
502.20	39005.03
502.37	39014.39
502.55	39414.62
502.72	39173.55
502.90	39423.98
503.07	39367.81
503.25	39358.45
503.43	39833.58
503.60	40058.27
503.78	39864.00
503.95	39985.71
504.13	40423.39
504.30	40673.83
504.48	40603.61
504.65	40711.28
504.83	40786.18
505.01	41102.15
505.18	41123.21
505.36	41558.55
505.53	41163.00
505.71	41336.20
505.88	41640.47
506.06	41191.09
506.23	41631.11
506.41	41670.90
506.58	42157.73
506.76	42361.36
506.93	42532.22
507.11	41734.09
507.28	42433.91
507.46	42494.77
507.63	42344.97
507.81	43400.55
507.98	42473.70
508.16	43180.54
508.33	43407.58
508.50	42916.06
508.68	43428.64
508.85	43613.54
509.03	43639.29
509.20	43803.13
509.38	44074.63
509.55	44416.35
509.73	44189.31
509.90	44346.13
510.08	44516.99
510.25	44320.38
510.42	44535.71
510.60	44954.67
510.77	44868.07
510.95	45242.56
511.12	44889.13
511.30	44898.50
511.47	44980.42
511.64	45237.87
511.82	45991.53
511.99	45390.01
512.17	45682.58
512.34	45935.35
512.51	45881.52
512.69	46199.83
512.86	46199.83
513.04	46653.90
513.21	46293.46
513.38	46113.23
513.56	46602.41
513.73	46747.52
513.90	47075.19
514.08	46670.28
514.25	47213.29
514.43	47215.63
514.60	47388.83
514.77	47168.82
514.95	47875.66
515.12	47531.60
515.29	47285.84
515.47	47655.65
515.64	47779.70
515.81	47400.53
515.99	47604.16
516.16	48444.41
516.33	48137.80
516.51	48526.33
516.68	48037.16
516.85	48568.46
517.03	48362.49
517.20	48687.82
517.37	48523.99
517.54	48795.49
517.72	48790.81
517.89	49270.62
518.06	48914.86
518.24	48711.23
518.41	49338.49
518.58	49275.30
518.75	48999.12
518.93	49284.66
519.10	49172.31
519.27	49574.89
519.45	49134.87
519.62	50127.25
519.79	49523.40
519.96	50190.45
520.14	50298.11
520.31	49993.84
520.48	50424.50
520.65	50150.66
520.83	50335.56
521.00	50742.81
521.17	50597.70
521.34	50492.38
521.52	50494.72
521.69	50618.77
521.86	50768.56
522.03	50588.34
522.20	51138.36
522.38	51435.61
522.55	51201.56
522.72	51367.74
522.89	51437.95
523.07	51136.02
523.24	51239.01
523.41	51627.54
523.58	51267.09
523.75	51796.06
523.92	51632.22
524.10	51924.78
524.27	51899.04
524.44	52083.94
524.61	51983.30
524.78	51835.84
524.96	51978.62
525.13	52051.17
525.30	52449.06
525.47	52158.84
525.64	52203.31
525.81	52715.89
525.98	52622.26
526.16	52142.45
526.33	52664.39
526.50	53043.56
526.67	52615.24
526.84	52989.73
527.01	52959.30
527.18	52793.12
527.36	52861.00
527.53	52987.39
527.70	53394.64
527.87	53155.91
528.04	52994.41
528.21	53481.24
528.38	53200.38
528.55	53499.97
528.72	53532.73
528.89	53308.04
529.07	53366.55
529.24	53085.69
529.41	53614.65
529.58	53745.72
529.75	53467.20
529.92	53551.46
530.09	53820.62
530.26	53881.47
530.43	53874.45
530.60	53579.54
530.77	53841.68
530.94	54021.90
531.11	54045.31
531.28	54171.70
531.46	54389.37
531.63	53907.22
531.80	54145.95
531.97	54082.76
532.14	54314.47
532.31	54504.06
532.48	54330.86
532.65	54581.29
532.82	54370.64
532.99	54611.72
533.16	54562.57
533.33	54981.52
533.50	55056.42
533.67	54487.67
533.84	54632.78
534.01	54656.19
534.18	54733.43
534.35	54857.48
534.52	54777.90
534.69	55023.65
534.86	55140.68
535.03	54948.76
535.20	55110.25
535.37	55262.39
535.54	55250.69
535.71	55267.07
535.88	55161.75
536.05	55430.91
536.22	55395.80
536.38	55398.14
536.55	55679.00
536.72	55503.46
536.89	55276.43
537.06	55674.32
537.23	55835.82
537.40	55531.55
537.57	55622.83
537.74	55569.00
537.91	55716.45
538.08	55924.76
538.25	55496.44
538.42	55828.80
538.59	56161.15
538.75	55894.33
538.92	55842.84
539.09	56009.02
539.26	55903.70
539.43	55854.54
539.60	56240.73
539.77	56102.64
539.94	56444.36
540.11	56079.24
540.28	56259.46
540.44	56308.61
540.61	56198.60
540.78	56250.09
540.95	56119.02
541.12	56439.68
541.29	56437.34
541.46	56362.44
541.62	56350.74
541.79	56561.39
541.96	56254.78
542.13	56324.99
542.30	56416.27
542.47	56776.72
542.63	56622.24
542.80	56629.26
542.97	57097.37
543.14	57249.50
543.31	57043.54
543.48	57270.57
543.64	57439.09
543.81	57181.63
543.98	57092.69
544.15	57303.34
544.32	57291.63
544.48	57392.28
544.65	57139.50
544.82	57366.53
544.99	57186.31
545.16	57308.02
545.32	57380.57
545.49	57813.57
545.66	57729.31
545.83	57521.01
546.00	57719.95
546.16	57715.27
546.33	57691.86
546.50	57584.20
546.67	57563.14
546.83	57474.20
547.00	57563.14
547.17	57429.72
547.34	57783.15
547.50	58136.57
547.67	58108.48
547.84	57799.53
548.00	57916.56
548.17	58068.69
548.34	57975.07
548.51	58108.48
548.67	58075.71
548.84	58085.07
549.01	57935.28
549.18	58103.80
549.34	58204.44
549.51	58291.04
549.68	58218.49
549.84	58375.30
550.01	58375.30
550.18	58269.98
550.34	58468.92
550.51	58515.73
550.68	58384.66
550.84	58279.34
551.01	58630.42
551.18	58518.07
551.34	58424.45
551.51	58422.11
551.68	58543.82
551.84	58534.46
552.01	58307.43
552.18	58546.16
552.34	58314.45
552.51	58784.90
552.68	58604.67
552.84	58611.70
553.01	58789.58
553.18	58869.15
553.34	58747.45
553.51	58527.44
553.67	58578.93
553.84	58738.08
554.01	58850.43
554.17	59023.63
554.34	59063.42
554.51	59002.56
554.67	58876.18
554.84	58880.86
555.00	58901.92
555.17	58920.65
555.33	59021.29
555.50	58831.71
555.67	58876.18
555.83	59114.91
556.00	59075.12
556.16	59147.68
556.33	59187.47
556.50	59061.08
556.66	59290.45
556.83	58990.86
556.99	59374.71
557.16	59494.08
557.32	59496.42
557.49	59601.74
557.65	59110.23
557.82	59241.30
557.98	59325.56
558.15	59374.71
558.32	59203.85
558.48	59377.05
558.65	59302.15
558.81	59395.77
558.98	59339.60
559.14	59576.00
559.31	59657.91
559.47	59669.62
559.64	59629.83
559.80	59608.76
559.97	59608.76
560.13	59447.27
560.30	59538.55
560.46	59676.64
560.63	59938.78
560.79	59636.85
560.96	59627.49
561.12	59594.72
561.29	59686.00
561.45	59765.58
561.61	59777.28
561.78	59749.20
561.94	59767.92
562.11	59756.22
562.27	59854.52
562.44	59880.27
562.60	60013.68
562.77	59730.47
562.93	59875.58
563.10	59838.14
563.26	59887.29
563.42	59983.25
563.59	59971.55
563.75	59936.44
563.92	59969.21
564.08	59838.14
564.24	59957.50
564.41	60114.32
564.57	60069.85
564.74	59943.46
564.90	60044.10
565.07	59987.93
565.23	60154.11
565.39	60147.09
565.56	60111.98
565.72	60016.02
565.88	60030.06
566.05	60023.04
566.21	59868.56
566.38	60062.83
566.54	60196.24
566.70	60224.32
566.87	60219.64
567.03	60009.00
567.19	60430.29
567.36	60315.61
567.52	60172.83
567.68	60479.44
567.85	60336.67
568.01	60383.48
568.17	60135.38
568.34	60303.90
568.50	60196.24
568.66	60250.07
568.83	60587.11
568.99	60425.61
569.15	60413.91
569.32	60221.98
569.48	60292.20
569.64	60465.40
569.81	60416.25
569.97	60334.33
570.13	60509.87
570.30	60406.89
570.46	60451.36
570.62	60519.23
570.78	60392.84
570.95	60362.42
571.11	60406.89
571.27	60282.84
571.43	60289.86
571.60	60493.49
571.76	60530.93
571.92	60582.43
572.09	60470.08
572.25	60498.17
572.41	60331.99
572.57	60397.52
572.74	60598.81
572.90	60430.29
573.06	60411.57
573.22	60500.51
573.38	60554.34
573.55	60381.14
573.71	60664.35
573.87	60566.04
574.03	60481.78
574.20	60575.40
574.36	60533.28
574.52	60584.77
574.68	60722.86
574.84	60549.66
575.01	60732.22
575.17	60498.17
575.33	60622.22
575.49	60502.85
575.65	60544.98
575.82	60828.18
575.98	60760.31
576.14	60786.05
576.30	60711.16
576.46	60594.13
576.62	60671.37
576.79	60664.35
576.95	60617.53
577.11	60945.21
577.27	60769.67
577.43	60725.20
577.59	60704.13
577.75	60537.96
577.92	60425.61
578.08	60582.43
578.24	60640.94
578.40	60774.35
578.56	60828.18
578.72	60552.00
578.88	60774.35
579.04	61015.43
579.21	60835.20
579.37	60886.70
579.53	60853.93
579.69	60610.51
579.85	60809.46
580.01	60575.40
580.17	60893.72
580.33	60940.53
580.49	60772.01
580.65	60802.44
580.82	60846.91
580.98	60650.30
581.14	60654.98
581.30	60860.95
581.46	60704.13
581.62	60912.44
581.78	60687.75
581.94	60853.93
582.10	60842.23
582.26	60802.44
582.42	60860.95
582.58	60816.48
582.74	60790.73
582.90	60774.35
583.06	60626.90
583.22	60650.30
583.38	60781.37
583.54	60886.70
583.70	60788.39
583.86	61050.53
584.02	60933.51
584.18	60954.57
584.34	61090.32
584.50	60797.76
584.66	60502.85
584.82	60685.41
584.98	61066.92
585.14	61013.08
585.30	60664.35
585.46	60762.65
585.62	60769.67
585.78	60959.25
585.94	60610.51
586.10	60786.05
586.26	60940.53
586.42	61031.81
586.58	61209.69
586.74	60968.61
586.90	60985.00
587.06	60954.57
587.22	60985.00
587.38	60966.27
587.54	61057.56
587.70	61069.26
587.86	60992.02
588.02	60924.14
588.18	61038.83
588.34	61041.17
