SpectraSuite Data File
++++++++++++++++++++++++++++++++++++
Date: Fri Oct 25 11:23:44 EDT 2013
User: price-jones
Dark Spectrum Present: No
Reference Spectrum Present: No
Number of Sampled Component Spectra: 1
Spectrometers: USB2+H05261
Integration Time (usec): 100000 (USB2+H05261)
Spectra Averaged: 1 (USB2+H05261)
Boxcar Smoothing: 0 (USB2+H05261)
Correct for Electrical Dark: No (USB2+H05261)
Strobe/Lamp Enabled: No (USB2+H05261)
Correct for Detector Non-linearity: No (USB2+H05261)
Correct for Stray Light: No (USB2+H05261)
Number of Pixels in Processed Spectrum: 2048
>>>>>Begin Processed Spectral Data<<<<<
365.73	194.26
365.92	194.26
366.12	194.26
366.32	135.75
366.52	114.69
366.72	126.39
366.91	175.54
367.11	114.69
367.31	72.56
367.51	84.26
367.70	142.77
367.90	145.11
368.10	184.90
368.30	140.43
368.49	121.71
368.69	110.01
368.89	180.22
369.09	152.13
369.28	93.62
369.48	156.82
369.68	217.67
369.87	252.78
370.07	159.16
370.27	184.90
370.47	280.86
370.66	545.34
370.86	653.01
371.06	610.88
371.25	697.48
371.45	599.18
371.65	650.67
371.84	629.60
372.04	634.29
372.24	746.63
372.44	741.95
372.63	814.51
372.83	716.20
373.03	685.78
373.22	734.93
373.42	774.72
373.62	774.72
373.81	844.93
374.01	809.83
374.21	807.48
374.40	781.74
374.60	828.55
374.79	802.80
374.99	737.27
375.19	826.21
375.38	767.70
375.58	856.64
375.78	791.10
375.97	910.47
376.17	994.73
376.37	849.61
376.56	842.59
376.76	877.70
376.95	922.17
377.15	901.11
377.35	912.81
377.54	943.24
377.74	814.51
377.93	856.64
378.13	936.21
378.33	894.08
378.52	987.71
378.72	938.55
378.91	950.26
379.11	924.51
379.31	973.66
379.50	952.60
379.70	954.94
379.89	964.30
380.09	1046.22
380.28	940.90
380.48	992.39
380.68	1025.15
380.87	1004.09
381.07	1022.81
381.26	1041.54
381.46	1029.84
381.65	987.71
381.85	1022.81
382.04	1083.67
382.24	1097.71
382.43	1118.78
382.63	1102.39
382.83	1022.81
383.02	1188.99
383.22	1088.35
383.41	1196.01
383.61	1104.73
383.80	1083.67
384.00	1097.71
384.19	1095.37
384.39	1196.01
384.58	1188.99
384.78	1149.20
384.97	1121.12
385.17	1071.97
385.36	1104.73
385.56	1153.88
385.75	1125.80
385.95	1191.33
386.14	1170.27
386.34	1200.69
386.53	1249.85
386.72	1205.38
386.92	1186.65
387.11	1270.91
387.31	1196.01
387.50	1179.63
387.70	1303.68
387.89	1338.79
388.09	1200.69
388.28	1310.70
388.48	1284.95
388.67	1289.64
388.86	1313.04
389.06	1277.93
389.25	1373.89
389.45	1336.45
389.64	1359.85
389.84	1373.89
390.03	1411.34
390.22	1383.26
390.42	1406.66
390.61	1310.70
390.81	1504.96
391.00	1399.64
391.19	1390.28
391.39	1397.30
391.58	1474.54
391.78	1444.11
391.97	1504.96
392.16	1511.99
392.36	1497.94
392.55	1516.67
392.75	1427.73
392.94	1509.65
393.13	1554.12
393.33	1486.24
393.52	1572.84
393.71	1516.67
393.91	1626.67
394.10	1547.09
394.29	1556.46
394.49	1598.59
394.68	1757.74
394.88	1710.93
395.07	1675.82
395.26	1661.78
395.46	1729.66
395.65	1736.68
395.84	1685.19
396.04	1809.23
396.23	1729.66
396.42	1757.74
396.62	1762.42
396.81	1769.44
397.00	1776.47
397.19	1818.60
397.39	1813.92
397.58	1783.49
397.77	1839.66
397.97	1825.62
398.16	1891.15
398.35	1973.07
398.55	1877.11
398.74	1872.43
398.93	2033.93
399.12	1947.33
399.32	1879.45
399.51	1935.62
399.70	2019.88
399.90	1923.92
400.09	2024.56
400.28	2071.37
400.47	2010.52
400.67	2186.06
400.86	1994.14
401.05	2090.10
401.24	2111.16
401.44	2057.33
401.63	2176.70
401.82	2326.49
402.01	2167.34
402.21	2239.89
402.40	2120.53
402.59	2251.60
402.78	2202.44
402.97	2111.16
403.17	2174.36
403.36	2249.25
403.55	2359.26
403.74	2338.20
403.93	2429.48
404.13	2473.95
404.32	2342.88
404.51	2417.77
404.70	2289.04
404.89	2377.98
405.09	2502.03
405.28	2466.92
405.47	2513.74
405.66	2516.08
405.85	2520.76
406.05	2497.35
406.24	2483.31
406.43	2553.52
406.62	2609.70
406.81	2710.34
407.00	2626.08
407.20	2684.59
407.39	2717.36
407.58	2693.96
407.77	2796.94
407.96	2761.83
408.15	2843.75
408.34	2785.24
408.54	2818.00
408.73	2775.88
408.92	2883.54
409.11	2850.77
409.30	2902.26
409.49	2888.22
409.68	3007.59
409.87	2911.63
410.07	3098.87
410.26	3030.99
410.45	2979.50
410.64	3059.08
410.83	3038.02
411.02	3239.30
411.21	3159.72
411.40	3148.02
411.59	3232.28
411.78	3162.06
411.98	3267.39
412.17	3197.17
412.36	3438.25
412.55	3269.73
412.74	3452.29
412.93	3485.06
413.12	3318.88
413.31	3456.97
413.50	3557.61
413.69	3487.40
413.88	3564.64
414.07	3655.92
414.26	3611.45
414.45	3693.37
414.64	3688.68
414.83	3782.31
415.02	3707.41
415.22	3810.39
415.41	3880.61
415.60	3866.56
415.79	3843.16
415.98	3950.82
416.17	3939.12
416.36	3864.22
416.55	4025.72
416.74	3918.06
416.93	3974.23
417.12	4042.11
417.31	4100.62
417.50	4219.99
417.69	4395.53
417.88	4339.35
418.07	4212.96
418.26	4299.56
418.45	4353.40
418.64	4442.34
418.83	4456.38
419.02	4550.00
419.21	4468.08
419.39	4557.02
419.58	4526.60
419.77	4428.29
419.96	4540.64
420.15	4652.98
420.34	4620.22
420.53	4730.22
420.72	4589.79
420.91	4711.50
421.10	4671.71
421.29	4833.21
421.48	4805.12
421.67	4819.16
421.86	4652.98
422.05	4851.93
422.24	4903.42
422.43	4702.14
422.61	4798.10
422.80	4922.15
422.99	4938.53
423.18	4901.08
423.37	4849.59
423.56	5060.24
423.75	4978.32
423.94	4865.97
424.13	4505.53
424.32	4697.46
424.50	5064.92
424.69	5252.16
424.88	5203.01
425.07	5032.15
425.26	4884.70
425.45	4863.63
425.64	5032.15
425.83	5015.77
426.01	5165.56
426.20	5032.15
426.39	5146.84
426.58	5158.54
426.77	5055.56
426.96	5076.62
427.15	5149.18
427.33	5303.65
427.52	5186.63
427.71	5191.31
427.90	5139.82
428.09	5282.59
428.28	5472.17
428.46	5399.62
428.65	5329.40
428.84	5423.02
429.03	5584.52
429.22	5458.13
429.40	5612.60
429.59	5577.50
429.78	5263.86
429.97	5366.85
430.16	5460.47
430.34	5570.48
430.53	5678.14
430.72	5753.04
430.91	5633.67
431.10	5659.42
431.28	5687.50
431.47	5926.24
431.66	5914.53
431.85	5944.96
432.03	5879.43
432.22	6094.76
432.41	6019.86
432.60	5975.39
432.79	5994.11
432.97	5907.51
433.16	6047.94
433.35	6012.84
433.54	6106.46
433.72	6190.72
433.91	5994.11
434.10	6258.59
434.28	6174.33
434.47	6164.97
434.66	6246.89
434.85	6202.42
435.03	6602.65
435.22	6516.05
435.41	6553.50
435.59	6408.39
435.78	6534.78
435.97	6392.00
436.16	6366.26
436.34	6452.86
436.53	6567.54
436.72	6754.79
436.90	6434.13
437.09	6787.55
437.28	6504.35
437.46	6712.66
437.65	6722.02
437.84	6796.92
438.02	6698.61
438.21	6913.94
438.40	6794.58
438.58	7110.55
438.77	6979.48
438.96	7063.74
439.14	6944.37
439.33	7211.19
439.52	7148.00
439.70	7250.98
439.89	7286.09
440.08	7386.73
440.26	7344.60
440.45	7286.09
440.63	7396.09
440.82	7597.38
441.01	7740.15
441.19	7707.38
441.38	7735.47
441.57	7742.49
441.75	7850.16
441.94	7908.67
442.12	8116.98
442.31	8039.74
442.50	8002.29
442.68	7918.03
442.87	8105.28
443.05	8081.87
443.24	8145.06
443.43	8301.88
443.61	8332.31
443.80	8388.48
443.98	8016.33
444.17	7971.86
444.35	8322.94
444.54	8355.71
444.73	8376.78
444.91	8236.35
445.10	8168.47
445.28	8308.90
445.47	8222.30
445.65	8395.50
445.84	8442.31
446.02	8599.13
446.21	8545.30
446.39	8454.02
446.58	8418.91
446.77	8442.31
446.95	8409.54
447.14	8521.89
447.32	8650.62
447.51	8533.59
447.69	8531.25
447.88	8627.21
448.06	8465.72
448.25	8613.17
448.43	8613.17
448.62	8695.09
448.80	8564.02
448.99	8748.92
449.17	8748.92
449.36	8617.85
449.54	9048.51
449.73	9238.09
449.91	9006.38
450.10	9029.79
450.28	9100.00
450.46	9071.92
450.65	9128.09
450.83	9074.26
451.02	9242.78
451.20	9294.27
451.39	9238.09
451.57	9217.03
451.76	9221.71
451.94	9315.33
452.13	9584.49
452.31	9341.08
452.49	9245.12
452.68	9153.84
452.86	9355.12
453.05	9554.07
453.23	9497.89
453.42	9390.23
453.60	9437.04
453.78	9486.19
453.97	9387.89
454.15	9645.35
454.34	9577.47
454.52	9659.39
454.70	9834.93
454.89	9694.50
455.07	9898.13
455.26	9652.37
455.44	9933.23
455.62	10104.09
455.81	9966.00
455.99	10050.26
456.17	10251.55
456.36	10160.27
456.54	10085.37
456.73	10291.34
456.91	10593.26
457.09	10450.49
457.28	10635.39
457.46	10265.59
457.64	10342.83
457.83	10553.48
458.01	10310.06
458.19	10773.49
458.38	10616.67
458.56	10740.72
458.74	10824.98
458.93	10675.18
459.11	10703.27
459.29	10710.29
459.48	10817.96
459.66	10843.70
459.84	10981.79
460.03	11133.93
460.21	11033.29
460.39	11059.03
460.57	11126.91
460.76	11140.95
460.94	11236.91
461.12	11215.85
461.31	11166.70
461.49	11346.92
461.67	11199.46
461.85	11405.43
462.04	11382.03
462.22	11485.01
462.40	11562.25
462.59	11527.14
462.77	11461.60
462.95	11616.08
463.13	11599.70
463.32	11705.02
463.50	11985.88
463.68	11847.79
463.86	11817.36
464.05	11782.26
464.23	11653.53
464.41	11737.79
464.59	11538.84
464.78	12201.21
464.96	11946.09
465.14	11747.15
465.32	12091.21
465.50	12166.10
465.69	12444.63
465.87	12032.69
466.05	12180.15
466.23	12135.68
466.41	12238.66
466.60	12585.06
466.78	12205.89
466.96	12273.77
467.14	12212.92
467.32	12587.40
467.51	12512.50
467.69	12156.74
467.87	12444.63
468.05	12809.75
468.23	12496.12
468.41	12732.51
468.60	12699.75
468.78	12882.31
468.96	12730.17
469.14	12786.35
469.32	13128.06
469.50	12678.68
469.69	12924.44
469.87	13165.51
470.05	13146.79
470.23	13331.69
470.41	13149.13
470.59	13523.62
470.77	13254.45
470.95	13378.50
471.14	13685.11
471.32	13209.98
471.50	13518.93
471.68	13680.43
471.86	13860.65
472.04	13760.01
472.22	14244.50
472.40	13874.70
472.58	13958.96
472.77	13919.17
472.95	14218.75
473.13	14480.89
473.31	14277.27
473.49	14160.24
473.67	14097.05
473.85	14260.88
474.03	14450.47
474.21	14595.58
474.39	14874.10
474.57	14817.93
474.75	14778.14
474.93	15157.31
475.12	15239.23
475.30	15276.68
475.48	14965.39
475.66	15442.85
475.84	15253.27
476.02	15569.24
476.20	15510.73
476.38	15803.30
476.56	16032.67
476.74	15917.98
476.92	16397.79
477.10	15899.26
477.28	16460.99
477.46	16161.40
477.64	16697.38
477.82	16798.02
478.00	16842.50
478.18	16898.67
478.36	16961.86
478.54	17422.95
478.72	17254.43
478.90	17504.87
479.08	17841.90
479.26	17841.90
479.44	17820.84
479.62	18003.40
479.80	17991.70
479.98	18246.82
480.16	18799.18
480.34	18258.52
480.52	18689.18
480.70	18679.82
480.88	18302.99
481.06	18705.56
481.24	18986.43
481.41	19197.07
481.59	19295.38
481.77	19374.95
481.95	19807.95
482.13	19859.45
482.31	19829.02
482.49	20430.54
482.67	20030.30
482.85	20217.55
483.03	20802.68
483.21	20819.07
483.39	21025.03
483.57	21043.76
483.74	20793.32
483.92	21364.41
484.10	21315.26
484.28	21954.22
484.46	21970.61
484.64	22235.09
484.82	21972.95
485.00	22429.35
485.18	22665.75
485.35	23234.50
485.53	22712.56
485.71	23080.02
485.89	23484.94
486.07	23122.15
486.25	23597.28
486.43	23676.86
486.61	23997.51
486.78	24044.32
486.96	24545.20
487.14	24720.74
487.32	25039.05
487.50	24996.92
487.68	25455.67
487.85	25095.22
488.03	25530.56
488.21	26040.80
488.39	25699.08
488.57	26277.19
488.75	26593.17
488.92	26546.36
489.10	26920.84
489.28	26904.46
489.46	27365.54
489.64	27152.55
489.81	27578.53
489.99	27529.38
490.17	27777.48
490.35	28135.58
490.53	28271.33
490.70	28400.06
490.88	28386.02
491.06	28507.72
491.24	28659.86
491.41	29123.29
491.59	29160.73
491.77	29635.86
491.95	29844.17
492.13	29806.72
492.30	30085.25
492.48	30253.76
492.66	30314.62
492.84	30352.07
493.01	31136.15
493.19	30768.68
493.37	30998.06
493.54	31101.04
493.72	31721.28
493.90	31463.82
494.08	31751.71
494.25	32180.03
494.43	32271.31
494.61	32456.21
494.79	32479.61
494.96	32479.61
495.14	32704.31
495.32	33029.64
495.49	33242.63
495.67	33752.87
495.85	33598.39
496.02	34153.10
496.20	34022.03
496.38	33963.51
496.55	34525.24
496.73	34602.48
496.91	34597.80
497.09	35456.78
497.26	35236.77
497.44	35110.38
497.62	35566.78
497.79	35990.42
497.97	35487.20
498.14	36032.55
498.32	35995.10
498.50	36355.54
498.67	36809.61
498.85	36706.62
499.03	36912.59
499.20	36741.73
499.38	37329.20
499.56	36989.83
499.73	37755.18
499.91	37684.97
500.08	38059.45
500.26	37062.38
500.44	37706.03
500.61	38052.43
500.79	38279.46
500.97	38508.83
501.14	38785.02
501.32	38831.83
501.49	38974.60
501.67	39044.82
501.84	39145.46
502.02	39255.46
502.20	39098.65
502.37	39484.84
502.55	39110.35
502.72	39676.76
502.90	39559.73
503.07	39484.84
503.25	40149.55
503.43	39821.87
503.60	40060.61
503.78	40280.62
503.95	40219.77
504.13	40690.21
504.30	40680.85
504.48	40666.81
504.65	41127.89
504.83	41390.03
505.01	41556.21
505.18	41404.08
505.36	41525.78
505.53	41500.04
505.71	41687.28
505.88	42185.82
506.06	41682.60
506.23	42284.12
506.41	41977.51
506.58	42223.26
506.76	42302.84
506.93	42747.54
507.11	42843.51
507.28	42953.51
507.46	42447.96
507.63	43257.78
507.81	43281.19
507.98	42665.63
508.16	43136.07
508.33	43679.08
508.50	43545.67
508.68	43859.30
508.85	43856.96
509.03	43943.56
509.20	44168.25
509.38	44591.89
509.55	44149.53
509.73	44718.28
509.90	44896.16
510.08	44851.69
510.25	44765.09
510.42	44664.44
510.60	45525.76
510.77	45462.57
510.95	45687.26
511.12	45170.00
511.30	45406.39
511.47	45815.99
511.64	45457.88
511.82	46450.27
511.99	45874.50
512.17	46075.79
512.34	46134.30
512.51	46431.55
512.69	46726.46
512.86	46639.86
513.04	46712.41
513.21	47002.64
513.38	46965.19
513.56	47079.88
513.73	47030.72
513.90	47585.43
514.08	46759.22
514.25	46997.96
514.43	47826.51
514.60	47665.01
514.77	47681.39
514.95	47470.75
515.12	47704.80
515.29	47613.52
515.47	48390.58
515.64	48245.46
515.81	47856.93
515.99	48580.16
516.16	48706.55
516.33	48378.87
516.51	48697.19
516.68	48486.54
516.85	48505.26
517.03	48692.50
517.20	49230.83
517.37	48697.19
517.54	48942.94
517.72	49265.94
517.89	49322.11
518.06	49481.27
518.24	49385.30
518.41	49471.90
518.58	49668.51
518.75	49263.60
518.93	49518.71
519.10	49411.05
519.27	49993.84
519.45	49932.99
519.62	50136.62
519.79	50218.53
519.96	49832.35
520.14	50227.90
520.31	50206.83
520.48	50703.03
520.65	50754.52
520.83	50740.47
521.00	50731.11
521.17	50508.76
521.34	51033.04
521.52	50749.84
521.69	50923.04
521.86	51243.69
522.03	51255.39
522.20	51349.01
522.38	51819.46
522.55	51473.06
522.72	51402.85
522.89	51758.61
523.07	51737.54
523.24	51676.69
523.41	51987.98
523.58	51627.54
523.75	52067.56
523.92	52088.62
524.10	52020.75
524.27	52055.85
524.44	52376.51
524.61	52072.24
524.78	52222.03
524.96	52467.79
525.13	52577.79
525.30	52463.11
525.47	52479.49
525.64	52825.89
525.81	52743.97
525.98	52975.69
526.16	52875.04
526.33	52760.36
526.50	53059.94
526.67	52839.93
526.84	53186.33
527.01	52926.53
527.18	53078.67
527.36	53116.12
527.53	53284.64
527.70	53401.66
527.87	53221.44
528.04	53343.15
528.21	53649.76
528.38	53621.67
528.55	53588.91
528.72	53436.77
528.89	53741.04
529.07	53319.74
529.24	53567.84
529.41	53778.49
529.58	53717.64
529.75	53792.53
529.92	53858.07
530.09	53769.13
530.26	54298.09
530.43	54087.44
530.60	53787.85
530.77	53986.80
530.94	54195.10
531.11	54129.57
531.28	54234.89
531.46	54122.55
531.63	54351.92
531.80	54267.66
531.97	54600.02
532.14	54382.35
532.31	54188.08
532.48	54600.02
532.65	54827.05
532.82	54609.38
532.99	54805.98
533.16	54810.67
533.33	54618.74
533.50	55288.13
533.67	54824.71
533.84	54955.78
534.01	55068.12
534.18	54955.78
534.35	55370.05
534.52	55173.45
534.69	55117.28
534.86	55348.99
535.03	55437.93
535.20	55260.05
535.37	55533.89
535.54	55583.04
535.71	55313.88
535.88	55454.31
536.05	55576.02
536.22	55606.45
536.38	55758.58
536.55	55728.16
536.72	55721.13
536.89	55751.56
537.06	55569.00
537.23	55910.72
537.40	55646.24
537.57	55650.92
537.74	55824.12
537.91	56072.21
538.08	55899.01
538.25	55938.80
538.42	56090.94
538.59	56104.98
538.75	56247.75
538.92	55941.14
539.09	56287.54
539.26	56179.88
539.43	56254.78
539.60	56205.62
539.77	56367.12
539.94	56320.31
540.11	56425.64
540.28	56547.34
540.44	56355.42
540.61	56542.66
540.78	56554.36
540.95	56420.95
541.12	56505.21
541.29	56446.70
541.46	56748.63
541.62	56669.05
541.79	56779.06
541.96	56481.81
542.13	56465.42
542.30	56690.12
542.47	57052.90
542.63	56975.66
542.80	56788.42
542.97	57085.67
543.14	57176.95
543.31	57221.42
543.48	57338.44
543.64	57418.02
543.81	57279.93
543.98	57588.88
544.15	57483.56
544.32	57680.16
544.48	57745.70
544.65	57436.75
544.82	57579.52
544.99	57485.90
545.16	57818.25
545.32	57726.97
545.49	57656.76
545.66	57977.41
545.83	57841.66
546.00	57759.74
546.16	57855.70
546.33	57593.56
546.50	57516.32
546.67	57759.74
546.83	57755.06
547.00	57925.92
547.17	57748.04
547.34	57921.24
547.50	57937.62
547.67	58211.46
547.84	58211.46
548.00	58178.70
548.17	58482.97
548.34	58351.90
548.51	58244.23
548.67	58234.87
548.84	58422.11
549.01	58183.38
549.18	58286.36
549.34	58211.46
549.51	58316.79
549.68	58337.85
549.84	58489.99
550.01	58555.52
550.18	58450.20
550.34	58436.16
550.51	58763.83
550.68	58567.23
550.84	58506.37
551.01	58791.92
551.18	58588.29
551.34	58698.30
551.51	58536.80
551.68	58452.54
551.84	58766.17
552.01	58644.46
552.18	58974.48
552.34	58733.40
552.51	58974.48
552.68	58698.30
552.84	58768.51
553.01	59061.08
553.18	58794.26
553.34	59091.51
553.51	58822.34
553.67	58857.45
553.84	59068.10
554.01	59028.31
554.17	59070.44
554.34	59304.49
554.51	59133.63
554.67	59351.30
554.84	59173.42
555.00	59320.88
555.17	59065.76
555.33	59201.51
555.50	58864.47
555.67	59185.13
555.83	59159.38
556.00	59075.12
556.16	59576.00
556.33	59264.70
556.50	59482.37
556.66	59440.24
556.83	59220.23
556.99	59372.37
557.16	59660.26
557.32	59664.94
557.49	59751.54
557.65	59388.75
557.82	59657.91
557.98	59381.73
558.15	59386.41
558.32	59576.00
558.48	59517.48
558.65	59611.10
558.81	59760.90
558.98	59611.10
559.14	59650.89
559.31	59882.61
559.47	59777.28
559.64	59927.08
559.80	59700.04
559.97	59873.24
560.13	59625.15
560.30	59643.87
560.46	59980.91
560.63	59908.35
560.79	59723.45
560.96	60053.47
561.12	60151.77
561.29	59990.27
561.45	60004.31
561.61	60088.57
561.78	59941.12
561.94	59880.27
562.11	60076.87
562.27	59915.37
562.44	60053.47
562.60	60289.86
562.77	60245.39
562.93	59852.18
563.10	60104.96
563.26	59945.80
563.42	60200.92
563.59	60137.72
563.75	59906.01
563.92	60151.77
564.08	60135.38
564.24	60378.80
564.41	60287.52
564.57	60210.28
564.74	60247.73
564.90	60329.65
565.07	60238.37
565.23	60360.08
565.39	60217.30
565.56	60392.84
565.72	60186.88
565.88	60334.33
566.05	60219.64
566.21	60378.80
566.38	60397.52
566.54	60247.73
566.70	60481.78
566.87	60559.02
567.03	60381.14
567.19	60406.89
567.36	60458.38
567.52	60341.35
567.68	60542.64
567.85	60481.78
568.01	60587.11
568.17	60355.39
568.34	60582.43
568.50	60669.03
568.66	60336.67
568.83	60530.93
568.99	60458.38
569.15	60416.25
569.32	60528.59
569.48	60633.92
569.64	60788.39
569.81	60636.26
569.97	60460.72
570.13	60505.19
570.30	60315.61
570.46	60547.32
570.62	60664.35
570.78	60566.04
570.95	60678.39
571.11	60676.05
571.27	60512.21
571.43	60530.93
571.60	60919.46
571.76	60694.77
571.92	60781.37
572.09	60814.14
572.25	60863.29
572.41	60711.16
572.57	60867.97
572.74	60912.44
572.90	60544.98
573.06	60741.58
573.22	60870.31
573.38	60657.32
573.55	60729.88
573.71	60846.91
573.87	60748.60
574.03	60584.77
574.20	60743.92
574.36	60757.97
574.52	60797.76
574.68	60779.03
574.84	60963.93
575.01	60945.21
575.17	60832.86
575.33	60692.43
575.49	60715.84
575.65	61116.07
575.82	60959.25
575.98	60762.65
576.14	61130.11
576.30	60924.14
576.46	60795.42
576.62	60898.40
576.79	60867.97
576.95	60697.11
577.11	60739.24
577.27	60926.49
577.43	61092.66
577.59	60898.40
577.75	60687.75
577.92	60715.84
578.08	61066.92
578.24	61080.96
578.40	60865.63
578.56	61104.37
578.72	60931.17
578.88	61076.28
579.04	61095.00
579.21	60914.78
579.37	60980.32
579.53	61130.11
579.69	60711.16
579.85	60980.32
580.01	60982.66
580.17	60781.37
580.33	61041.17
580.49	61078.62
580.65	61041.17
580.82	61132.45
580.98	60933.51
581.14	61020.11
581.30	61120.75
581.46	60966.27
581.62	60973.30
581.78	60985.00
581.94	61062.24
582.10	60942.87
582.26	61118.41
582.42	60830.52
582.58	60977.98
582.74	61109.05
582.90	61106.71
583.06	61050.53
583.22	60818.82
583.38	61286.93
583.54	61036.49
583.70	61090.32
583.86	61207.35
584.02	61249.48
584.18	61076.28
584.34	61197.99
584.50	60945.21
584.66	61148.84
584.82	60893.72
584.98	61200.33
585.14	61087.98
585.30	60865.63
585.46	61160.54
585.62	61303.31
585.78	61289.27
585.94	60928.83
586.10	61010.74
586.26	61221.39
586.42	61190.97
586.58	61265.86
586.74	61087.98
586.90	60987.34
587.06	61146.50
587.22	61272.88
587.38	61197.99
587.54	61228.41
587.70	61380.55
587.86	61219.05
588.02	61118.41
588.18	61427.36
588.34	61078.62
588.49	61261.18
