SpectraSuite Data File
++++++++++++++++++++++++++++++++++++
Date: Fri Oct 25 10:43:30 EDT 2013
User: price-jones
Dark Spectrum Present: No
Reference Spectrum Present: No
Number of Sampled Component Spectra: 1
Spectrometers: USB2+H05261
Integration Time (usec): 100000 (USB2+H05261)
Spectra Averaged: 1 (USB2+H05261)
Boxcar Smoothing: 0 (USB2+H05261)
Correct for Electrical Dark: No (USB2+H05261)
Strobe/Lamp Enabled: No (USB2+H05261)
Correct for Detector Non-linearity: No (USB2+H05261)
Correct for Stray Light: No (USB2+H05261)
Number of Pixels in Processed Spectrum: 2048
>>>>>Begin Processed Spectral Data<<<<<
365.73	166.18
365.92	166.18
366.12	166.18
366.32	86.60
366.52	72.56
366.72	11.70
366.91	79.58
367.11	0.00
367.31	21.06
367.51	0.00
367.70	49.15
367.90	0.00
368.10	30.43
368.30	4.68
368.49	14.04
368.69	37.45
368.89	21.06
369.09	0.00
369.28	32.77
369.48	14.04
369.68	30.43
369.87	124.05
370.07	39.79
370.27	138.09
370.47	145.11
370.66	367.46
370.86	430.66
371.06	482.15
371.25	430.66
371.45	435.34
371.65	449.38
371.84	475.13
372.04	428.32
372.24	451.72
372.44	461.09
372.63	564.07
372.83	526.62
373.03	479.81
373.22	461.09
373.42	528.96
373.62	507.90
373.81	587.47
374.01	557.05
374.21	552.37
374.40	528.96
374.60	557.05
374.79	493.85
374.99	575.77
375.19	496.19
375.38	531.30
375.58	526.62
375.78	512.58
375.97	622.58
376.17	580.45
376.37	547.69
376.56	676.41
376.76	580.45
376.95	624.92
377.15	603.86
377.35	674.07
377.54	582.79
377.74	645.99
377.93	587.47
378.13	645.99
378.33	667.05
378.52	540.66
378.72	702.16
378.91	636.63
379.11	669.39
379.31	608.54
379.50	664.71
379.70	645.99
379.89	683.44
380.09	603.86
380.28	627.26
380.48	648.33
380.68	599.18
380.87	713.86
381.07	681.10
381.26	662.37
381.46	671.73
381.65	751.31
381.85	727.91
382.04	706.84
382.24	678.76
382.43	704.50
382.63	760.67
382.83	805.14
383.02	744.29
383.22	779.40
383.41	791.10
383.61	683.44
383.80	767.70
384.00	730.25
384.19	746.63
384.39	779.40
384.58	784.08
384.78	833.23
384.97	816.85
385.17	786.42
385.36	833.23
385.56	821.53
385.75	842.59
385.95	849.61
386.14	870.68
386.34	873.02
386.53	730.25
386.72	760.67
386.92	744.29
387.11	868.34
387.31	856.64
387.50	894.08
387.70	957.28
387.89	821.53
388.09	837.91
388.28	896.43
388.48	933.87
388.67	938.55
388.86	1036.86
389.06	952.60
389.25	964.30
389.45	952.60
389.64	980.68
389.84	980.68
390.03	1029.84
390.22	1015.79
390.42	1008.77
390.61	985.37
390.81	1081.33
391.00	1102.39
391.19	1060.26
391.39	1043.88
391.58	1036.86
391.78	1048.56
391.97	1097.71
392.16	1029.84
392.36	966.64
392.55	994.73
392.75	1022.81
392.94	997.07
393.13	1029.84
393.33	947.92
393.52	1048.56
393.71	1100.05
393.91	1032.18
394.10	1172.61
394.29	1146.86
394.49	1130.48
394.68	1153.88
394.88	1226.44
395.07	1191.33
395.26	1259.21
395.46	1188.99
395.65	1289.64
395.84	1224.10
396.04	1200.69
396.23	1100.05
396.42	1060.26
396.62	1231.12
396.81	1172.61
397.00	1193.67
397.19	1163.25
397.39	1280.27
397.58	1376.24
397.77	1394.96
397.97	1355.17
398.16	1287.29
398.35	1516.67
398.55	1486.24
398.74	1516.67
398.93	1516.67
399.12	1458.15
399.32	1462.83
399.51	1575.18
399.70	1507.30
399.90	1523.69
400.09	1563.48
400.28	1582.20
400.47	1579.86
400.67	1568.16
400.86	1598.59
401.05	1687.53
401.24	1760.08
401.44	1675.82
401.63	1708.59
401.82	1710.93
402.01	1640.72
402.21	1844.34
402.40	1774.13
402.59	1694.55
402.78	1675.82
402.97	1806.89
403.17	1769.44
403.36	1743.70
403.55	1867.75
403.74	1884.13
403.93	1856.04
404.13	1842.00
404.32	1870.09
404.51	1842.00
404.70	1851.36
404.89	1881.79
405.09	2024.56
405.28	2033.93
405.47	1952.01
405.66	1947.33
405.85	1952.01
406.05	1912.22
406.24	1977.75
406.43	2050.31
406.62	2033.93
406.81	2111.16
407.00	2038.61
407.20	2038.61
407.39	1949.67
407.58	2031.58
407.77	2146.27
407.96	2249.25
408.15	2228.19
408.34	2172.02
408.54	2244.57
408.73	2307.77
408.92	2270.32
409.11	2307.77
409.30	2324.15
409.49	2237.55
409.68	2232.87
409.87	2246.91
410.07	2406.07
410.26	2286.70
410.45	2370.96
410.64	2291.38
410.83	2492.67
411.02	2546.50
411.21	2527.78
411.40	2527.78
411.59	2581.61
411.78	2642.46
411.98	2492.67
412.17	2654.17
412.36	2628.42
412.55	2693.96
412.74	2731.41
412.93	2766.51
413.12	2609.70
413.31	2689.28
413.50	2796.94
413.69	2958.44
413.88	2871.84
414.07	2860.13
414.26	2979.50
414.45	3019.29
414.64	3054.40
414.83	3019.29
415.02	2981.84
415.22	2995.89
415.41	3131.64
415.60	3059.08
415.79	3152.70
415.98	3227.60
416.17	3269.73
416.36	3211.22
416.55	3187.81
416.74	3307.18
416.93	3295.47
417.12	3293.13
417.31	3290.79
417.50	3258.03
417.69	3466.33
417.88	3487.40
418.07	3318.88
418.26	3431.23
418.45	3576.34
418.64	3681.66
418.83	3468.67
419.02	3531.87
419.21	3513.14
419.39	3576.34
419.58	3590.38
419.77	3433.57
419.96	3576.34
420.15	3637.19
420.34	3674.64
420.53	3730.81
420.72	3730.81
420.91	3815.07
421.10	3702.73
421.29	3911.04
421.48	3698.05
421.67	3967.21
421.86	3700.39
422.05	3859.54
422.24	3763.58
422.43	3749.54
422.61	3791.67
422.80	3796.35
422.99	3836.14
423.18	3812.73
423.37	3798.69
423.56	4002.32
423.75	3871.25
423.94	3775.28
424.13	3543.57
424.32	3728.47
424.50	4007.00
424.69	3918.06
424.88	3983.59
425.07	3915.72
425.26	3927.42
425.45	3882.95
425.64	4058.49
425.83	3969.55
426.01	3957.85
426.20	3885.29
426.39	3913.38
426.58	3925.08
426.77	3861.88
426.96	4117.00
427.15	3971.89
427.33	3988.27
427.52	4081.89
427.71	4222.33
427.90	4002.32
428.09	4194.24
428.28	4217.65
428.46	4304.25
428.65	4117.00
428.84	4210.62
429.03	4329.99
429.22	4170.83
429.40	4095.94
429.59	4109.98
429.78	4002.32
429.97	3852.52
430.16	3999.98
430.34	3969.55
430.53	4119.34
430.72	4126.36
430.91	4138.07
431.10	4318.29
431.28	4346.37
431.47	4575.75
431.66	4610.86
431.85	4482.13
432.03	4601.49
432.22	4793.42
432.41	4571.07
432.60	4652.98
432.79	4617.88
432.97	4922.15
433.16	4779.37
433.35	4624.90
433.54	4645.96
433.72	4669.37
433.91	4685.75
434.10	4739.58
434.28	4915.12
434.47	4784.06
434.66	4889.38
434.85	4784.06
435.03	4903.42
435.22	4950.23
435.41	4936.19
435.59	5025.13
435.78	5172.58
435.97	5170.24
436.16	5053.22
436.34	5139.82
436.53	5102.37
436.72	5116.41
436.90	5069.60
437.09	5219.39
437.28	5214.71
437.46	5163.22
437.65	5158.54
437.84	5205.35
438.02	5039.17
438.21	5069.60
438.40	5193.65
438.58	5357.49
438.77	5488.56
438.96	5462.81
439.14	5596.22
439.33	5542.39
439.52	5650.05
439.70	5802.19
439.89	5533.03
440.08	5610.26
440.26	5713.25
440.45	5820.91
440.63	5668.78
440.82	5970.71
441.01	5799.85
441.19	6104.12
441.38	6064.33
441.57	5944.96
441.75	6127.52
441.94	6239.87
442.12	6244.55
442.31	6258.59
442.50	6317.11
442.68	6464.56
442.87	6289.02
443.05	6333.49
443.24	6466.90
443.43	6319.45
443.61	6445.84
443.80	6698.61
443.98	6174.33
444.17	6258.59
444.35	6466.90
444.54	6579.25
444.73	6420.09
444.91	6462.22
445.10	6551.16
445.28	6342.85
445.47	6235.19
445.65	6490.31
445.84	6567.54
446.02	6480.94
446.21	6548.82
446.39	6539.46
446.58	6642.44
446.77	6473.92
446.95	6581.59
447.14	6602.65
447.32	6775.85
447.51	6773.51
447.69	6595.63
447.88	6612.01
448.06	6670.53
448.25	6670.53
448.43	6670.53
448.62	6843.73
448.80	6750.10
448.99	6832.02
449.17	6920.96
449.36	6806.28
449.54	6860.11
449.73	7075.44
449.91	7063.74
450.10	7054.37
450.28	7183.10
450.46	7239.28
450.65	7248.64
450.83	7342.26
451.02	7096.50
451.20	7159.70
451.39	7314.17
451.57	7234.60
451.76	7140.97
451.94	7110.55
452.13	7442.90
452.31	7290.77
452.49	7098.84
452.68	7140.97
452.86	7023.95
453.05	7419.50
453.23	7258.00
453.42	7239.28
453.60	7302.47
453.78	7337.58
453.97	7286.09
454.15	7508.44
454.34	7421.84
454.52	7405.46
454.70	7576.31
454.89	7520.14
455.07	7620.78
455.26	7543.55
455.44	7927.39
455.62	7803.35
455.81	7716.75
455.99	7665.25
456.17	7960.16
456.36	7922.71
456.54	7925.05
456.73	7955.48
456.91	8177.83
457.09	8154.43
457.28	8297.20
457.46	7901.65
457.64	8100.59
457.83	7999.95
458.01	7819.73
458.19	8217.62
458.38	8081.87
458.56	8219.96
458.74	8229.32
458.93	8203.58
459.11	8159.11
459.29	8259.75
459.48	8430.61
459.66	8142.72
459.84	8484.44
460.03	8411.89
460.21	8367.42
460.39	8573.38
460.57	8397.84
460.76	8596.79
460.94	8765.31
461.12	8631.90
461.31	8645.94
461.49	8603.81
461.67	8421.25
461.85	8777.01
462.04	8671.68
462.22	9343.42
462.40	8877.65
462.59	8767.65
462.77	8830.84
462.95	8926.80
463.13	8819.14
463.32	8877.65
463.50	9001.70
463.68	8905.74
463.86	8901.06
464.05	8723.18
464.23	8788.71
464.41	9025.11
464.59	8889.35
464.78	9132.77
464.96	9153.84
465.14	8919.78
465.32	9256.82
465.50	9303.63
465.69	9366.82
465.87	9097.66
466.05	9181.92
466.23	8980.64
466.41	8959.57
466.60	9509.60
466.78	9174.90
466.96	9282.56
467.14	9163.20
467.32	9277.88
467.51	9554.07
467.69	9062.55
467.87	9516.62
468.05	9425.34
468.23	9352.78
468.41	9486.19
468.60	9460.45
468.78	9570.45
468.96	9401.93
469.14	9481.51
469.32	9778.76
469.50	9202.99
469.69	9614.92
469.87	9750.67
470.05	9783.44
470.23	9652.37
470.41	9757.69
470.59	9928.55
470.77	9914.51
470.95	9970.68
471.14	10064.30
471.32	9935.57
471.50	10242.18
471.68	10188.35
471.86	10352.19
472.04	10125.16
472.22	10541.77
472.40	10057.28
472.58	10314.74
472.77	10317.08
472.95	10448.15
473.13	11068.39
473.31	10476.24
473.49	10415.38
473.67	10513.69
473.85	10691.57
474.03	10839.02
474.21	11016.90
474.39	11007.54
474.57	11049.67
474.75	11061.37
474.93	11068.39
475.12	10902.22
475.30	11248.61
475.48	11356.28
475.66	11384.37
475.84	11115.20
476.02	11269.68
476.20	11269.68
476.38	11564.59
476.56	11915.67
476.74	11817.36
476.92	11775.24
477.10	11941.41
477.28	12168.45
477.46	12037.38
477.64	12091.21
477.82	12353.35
478.00	12435.27
478.18	12732.51
478.36	12638.89
478.54	12826.14
478.72	12573.36
478.90	12947.84
479.08	12875.29
479.26	13352.76
479.44	13263.82
479.62	13132.75
479.80	13408.93
479.98	13558.72
480.16	13528.30
480.34	13406.59
480.52	13853.63
480.70	13626.60
480.88	13511.91
481.06	13774.05
481.24	13778.73
481.41	14291.31
481.59	14380.25
481.77	14249.18
481.95	14185.99
482.13	14459.83
482.31	14633.03
482.49	14675.16
482.67	14965.39
482.85	14927.94
483.03	15026.24
483.21	15438.17
483.39	15330.51
483.57	15269.66
483.74	15676.91
483.92	15770.53
484.10	15426.47
484.28	15847.77
484.46	15936.71
484.64	16166.08
484.82	15946.07
485.00	15913.30
485.18	16334.60
485.35	16334.60
485.53	16088.84
485.71	16006.92
485.89	16285.45
486.07	16505.46
486.25	16519.50
486.43	16828.45
486.61	16849.52
486.78	17167.83
486.96	17453.37
487.14	17462.74
487.32	17783.39
487.50	17914.46
487.68	18197.67
487.85	18317.03
488.03	18162.56
488.21	18279.58
488.39	18202.35
488.57	18527.68
488.75	18588.53
488.92	19204.10
489.10	18909.19
489.28	19005.15
489.46	19473.26
489.64	19566.88
489.81	20114.56
489.99	20067.75
490.17	20126.27
490.35	20086.48
490.53	20044.35
490.70	20318.19
490.88	20526.50
491.06	20978.22
491.24	20716.08
491.41	20755.87
491.59	20648.21
491.77	20732.47
491.95	20900.98
492.13	20971.20
492.30	21469.73
492.48	21598.46
492.66	22036.14
492.84	21774.00
493.01	21951.88
493.19	21776.34
493.37	22019.76
493.54	22293.60
493.72	22265.52
493.90	22473.82
494.08	22705.54
494.25	23115.13
494.43	22955.97
494.61	23599.62
494.79	23264.92
494.96	23271.95
495.14	23157.26
495.32	23477.91
495.49	23573.88
495.67	23751.76
495.85	24016.24
496.02	24294.76
496.20	24173.05
496.38	24283.06
496.55	24184.76
496.73	24833.08
496.91	24746.48
497.09	24650.52
497.26	25376.09
497.44	24819.04
497.62	24821.38
497.79	25317.57
497.97	25039.05
498.14	25167.78
498.32	25507.16
498.50	25287.15
498.67	25888.67
498.85	25816.11
499.03	25895.69
499.20	26221.02
499.38	25970.58
499.56	26277.19
499.73	26532.31
499.91	26445.71
500.08	26904.46
500.26	26328.69
500.44	26574.44
500.61	26501.89
500.79	26478.48
500.97	26513.59
501.14	27318.73
501.32	26981.70
501.49	27166.60
501.67	26742.96
501.84	27014.46
502.02	27513.00
502.20	27388.95
502.37	27747.05
502.55	27751.73
502.72	28180.05
502.90	27807.90
503.07	27814.93
503.25	27927.27
503.43	27833.65
503.60	28332.18
503.78	27931.95
503.95	28114.52
504.13	28067.70
504.30	28486.66
504.48	28500.70
504.65	28933.70
504.83	28900.94
505.01	29130.31
505.18	28912.64
505.36	29088.18
505.53	29088.18
505.71	29427.56
505.88	29610.12
506.06	29067.11
506.23	29195.84
506.41	29542.24
506.58	29675.65
506.76	29652.25
506.93	29717.78
507.11	29567.99
507.28	29830.13
507.46	29626.50
507.63	29720.12
507.81	29909.71
507.98	29502.45
508.16	30478.46
508.33	30211.64
508.50	30597.82
508.68	30677.40
508.85	31161.89
509.03	30693.79
509.20	31094.02
509.38	31077.63
509.55	30843.58
509.73	31269.56
509.90	31164.23
510.08	31108.06
510.25	31302.32
510.42	31356.16
510.60	31644.04
510.77	31133.81
510.95	31831.29
511.12	31442.76
511.30	31995.12
511.47	32198.75
511.64	32264.28
511.82	32173.00
511.99	32091.09
512.17	32472.59
512.34	31845.33
512.51	32292.37
512.69	32919.63
512.86	32442.17
513.04	32849.42
513.21	32594.30
513.38	32334.50
513.56	32947.72
513.73	32196.41
513.90	32858.78
514.08	32521.74
514.25	32837.72
514.43	32624.73
514.60	32762.82
514.77	32999.21
514.95	33610.09
515.12	33626.48
515.29	33237.95
515.47	33832.44
515.64	34106.29
515.81	33628.82
515.99	33844.15
516.16	33820.74
516.33	33130.28
516.51	33490.73
516.68	33125.60
516.85	32879.85
517.03	33425.19
517.20	34052.45
517.37	33986.92
517.54	34022.03
517.72	33909.68
517.89	33846.49
518.06	34010.32
518.24	33982.24
518.41	34183.52
518.58	34192.89
518.75	34043.09
518.93	35047.18
519.10	34766.32
519.27	34630.57
519.45	35147.82
519.62	35239.11
519.79	35302.30
519.96	35236.77
520.14	35405.28
520.31	35248.47
520.48	35157.19
520.65	34597.80
520.83	35620.61
521.00	35683.81
521.17	35564.44
521.34	35615.93
521.52	35557.42
521.69	35892.12
521.86	36077.02
522.03	36058.29
522.20	35861.69
522.38	36058.29
522.55	36011.48
522.72	36114.47
522.89	36346.18
523.07	36694.92
523.24	36306.39
523.41	37022.59
523.58	36364.90
523.75	36987.49
523.92	37060.04
524.10	37177.07
524.27	36793.22
524.44	37095.15
524.61	37450.91
524.78	36622.36
524.96	36605.98
525.13	37521.13
525.30	37565.60
525.47	37638.15
525.64	37574.96
525.81	36793.22
525.98	37060.04
526.16	37429.85
526.33	37088.13
526.50	37151.32
526.67	37380.70
526.84	37336.23
527.01	36999.19
527.18	37820.72
527.36	37727.10
527.53	38134.35
527.70	38522.88
527.87	37930.72
528.04	38127.33
528.21	38099.24
528.38	38478.41
528.55	38359.04
528.72	38663.31
528.89	38651.61
529.07	38340.32
529.24	38251.38
529.41	38735.87
529.58	38862.26
529.75	38579.05
529.92	38567.35
530.09	39058.86
530.26	38972.26
530.43	39150.14
530.60	38642.24
530.77	39318.66
530.94	39115.03
531.11	39019.07
531.28	39335.04
531.46	39573.78
531.63	39234.40
531.80	39152.48
531.97	38918.43
532.14	39040.14
532.31	38703.10
532.48	38817.78
532.65	39625.27
532.82	39349.09
532.99	39533.99
533.16	39299.94
533.33	39541.01
533.50	39849.96
533.67	39807.83
533.84	39597.18
534.01	39927.20
534.18	39901.45
534.35	40151.89
534.52	39611.23
534.69	40318.07
534.86	40334.45
535.03	40404.67
535.20	40664.47
535.37	40772.13
535.54	40982.78
535.71	40341.47
535.88	40538.08
536.05	40453.82
536.22	40479.57
536.38	40669.15
536.55	40479.57
536.72	40233.81
536.89	40360.20
537.06	40416.37
537.23	40727.66
537.40	40975.76
537.57	40362.54
537.74	40769.79
537.91	41235.56
538.08	41340.88
538.25	40825.96
538.42	40870.43
538.59	40938.31
538.75	40250.19
538.92	41397.06
539.09	41186.41
539.26	41390.03
539.43	41434.50
539.60	41099.81
539.77	40996.82
539.94	41193.43
540.11	41310.46
540.28	40980.44
540.44	41464.93
540.61	40907.88
540.78	41200.45
540.95	40968.74
541.12	41137.26
541.29	41680.26
541.46	41776.22
541.62	41530.47
541.79	41858.14
541.96	41413.44
542.13	41305.77
542.30	41907.29
542.47	41661.54
542.63	41565.57
542.80	41844.10
542.97	42213.90
543.14	42113.26
543.31	42363.70
543.48	42398.80
543.64	42735.84
543.81	42864.57
543.98	42359.02
544.15	41970.49
544.32	42635.20
544.48	42990.96
544.65	43028.41
544.82	42990.96
544.99	42574.34
545.16	43005.00
545.32	42267.73
545.49	43040.11
545.66	42983.94
545.83	42976.92
546.00	43016.71
546.16	43009.68
546.33	42808.40
546.50	42700.73
546.67	43192.25
546.83	42761.59
547.00	42892.66
547.17	43054.15
547.34	42686.69
547.50	43344.38
547.67	42918.40
547.84	43339.70
548.00	43540.99
548.17	43388.85
548.34	43533.96
548.51	43290.55
548.67	43966.96
548.84	43468.43
549.01	43131.39
549.18	43526.94
549.34	43510.56
549.51	43433.32
549.68	43477.79
549.84	43655.67
550.01	43838.23
550.18	43718.87
550.34	43753.97
550.51	43524.60
550.68	43763.34
550.84	43566.73
551.01	43335.02
551.18	43374.81
551.34	43679.08
551.51	44477.20
551.68	43990.37
551.84	43948.24
552.01	44053.56
552.18	44086.33
552.34	43831.21
552.51	44509.97
552.68	43763.34
552.84	43868.66
553.01	44250.17
553.18	44348.47
553.34	44605.93
553.51	43796.10
553.67	44734.66
553.84	44636.36
554.01	44814.24
554.17	44774.45
554.34	44662.10
554.51	44612.95
554.67	44622.31
554.84	44355.49
555.00	44098.03
555.17	44584.86
555.33	44329.75
555.50	44561.46
555.67	44301.66
555.83	44423.37
556.00	44584.86
556.16	44994.46
556.33	44512.31
556.50	44971.05
556.66	44533.37
556.83	44308.68
556.99	44968.71
557.16	44261.87
557.32	44746.36
557.49	44626.99
557.65	44442.09
557.82	44905.52
557.98	44673.81
558.15	45092.76
558.32	44701.89
558.48	44657.42
558.65	44610.61
558.81	44797.85
558.98	44348.47
559.14	44928.92
559.31	44505.29
559.47	44746.36
559.64	44893.82
559.80	44940.63
559.97	44624.65
560.13	44783.81
560.30	44741.68
560.46	45172.34
560.63	45436.82
560.79	45434.48
560.96	45357.24
561.12	45240.21
561.29	45139.57
561.45	45212.13
561.61	44947.65
561.78	45312.77
561.94	45118.51
562.11	44711.25
562.27	45209.79
562.44	45064.67
562.60	45378.31
562.77	45427.46
562.93	45427.46
563.10	45595.98
563.26	45340.86
563.42	45329.16
563.59	45251.92
563.75	45467.25
563.92	45558.53
564.08	45687.26
564.24	45516.40
564.41	45537.46
564.57	45359.58
564.74	45345.54
564.90	45090.42
565.07	45263.62
565.23	45272.98
565.39	45237.87
565.56	45059.99
565.72	44863.39
565.88	45113.83
566.05	45366.60
566.21	45193.40
566.38	45628.74
566.54	45588.95
566.70	45635.77
566.87	45677.90
567.03	45586.61
567.19	46082.81
567.36	45963.44
567.52	45621.72
567.68	45361.92
567.85	45610.02
568.01	45776.20
568.17	45553.85
568.34	45996.21
568.50	45425.12
568.66	45230.85
568.83	45848.75
568.99	45345.54
569.15	45455.54
569.32	45804.28
569.48	45603.00
569.64	45607.68
569.81	45268.30
569.97	45425.12
570.13	45808.96
570.30	45153.62
570.46	45647.47
570.62	45038.93
570.78	44985.10
570.95	45280.00
571.11	45188.72
571.27	45141.91
571.43	45453.20
571.60	45940.04
571.76	45689.60
571.92	46298.14
572.09	45649.81
572.25	45448.52
572.41	45848.75
572.57	45900.25
572.74	45794.92
572.90	45979.82
573.06	45806.62
573.22	45820.67
573.38	45918.97
573.55	45542.14
573.71	46038.34
573.87	45736.41
574.03	45319.79
574.20	45867.48
574.36	45916.63
574.52	46021.95
574.68	45752.79
574.84	46031.32
575.01	45563.21
575.17	45982.16
575.33	45696.62
575.49	45507.04
575.65	45808.96
575.82	45853.44
575.98	46113.23
576.14	46134.30
576.30	45876.84
576.46	45804.28
576.62	45350.22
576.79	45593.64
576.95	45659.17
577.11	45607.68
577.27	45724.71
577.43	45537.46
577.59	45804.28
577.75	45600.66
577.92	45139.57
578.08	45502.35
578.24	45453.20
578.40	45776.20
578.56	45886.20
578.72	45654.49
578.88	46225.58
579.04	45820.67
579.21	45546.82
579.37	45563.21
579.53	45986.85
579.69	45607.68
579.85	45708.32
580.01	45778.54
580.17	45773.86
580.33	45834.71
580.49	45553.85
580.65	45713.00
580.82	45680.24
580.98	45638.11
581.14	45333.84
581.30	46253.67
581.46	46054.72
581.62	45724.71
581.78	45862.80
581.94	46099.19
582.10	46206.86
582.26	46075.79
582.42	46085.15
582.58	45909.61
582.74	45645.13
582.90	46153.02
583.06	46073.45
583.22	46202.18
583.38	46272.39
583.54	46075.79
583.70	46237.28
583.86	45804.28
584.02	45727.05
584.18	46251.33
584.34	45586.61
584.50	45876.84
584.66	45612.36
584.82	45574.91
584.98	45542.14
585.14	46054.72
585.30	45841.73
585.46	46183.45
585.62	45549.17
585.78	45958.76
585.94	45626.40
586.10	45399.37
586.26	45455.54
586.42	46209.20
586.58	45928.33
586.74	46178.77
586.90	46080.47
587.06	45918.97
587.22	46319.20
587.38	45797.26
587.54	45820.67
587.70	46342.61
587.86	45815.99
588.02	46110.89
588.18	46085.15
588.34	45382.99
588.49	45162.98
588.65	44783.81
588.81	45670.87
588.97	45502.35
589.13	45158.30
589.29	45509.38
589.45	45467.25
589.61	45837.05
589.77	46529.85
589.93	46078.13
