SpectraSuite Data File
++++++++++++++++++++++++++++++++++++
Date: Fri Oct 25 11:25:29 EDT 2013
User: price-jones
Dark Spectrum Present: No
Reference Spectrum Present: No
Number of Sampled Component Spectra: 1
Spectrometers: USB2+H05261
Integration Time (usec): 100000 (USB2+H05261)
Spectra Averaged: 1 (USB2+H05261)
Boxcar Smoothing: 0 (USB2+H05261)
Correct for Electrical Dark: No (USB2+H05261)
Strobe/Lamp Enabled: No (USB2+H05261)
Correct for Detector Non-linearity: No (USB2+H05261)
Correct for Stray Light: No (USB2+H05261)
Number of Pixels in Processed Spectrum: 2048
>>>>>Begin Processed Spectral Data<<<<<
365.73	184.90
365.92	184.90
366.12	184.90
366.32	105.32
366.52	91.28
366.72	177.88
366.91	145.11
367.11	152.13
367.31	128.73
367.51	112.35
367.70	53.83
367.90	154.48
368.10	156.82
368.30	149.79
368.49	91.28
368.69	168.52
368.89	245.76
369.09	138.09
369.28	131.07
369.48	191.92
369.68	168.52
369.87	238.73
370.07	248.10
370.27	152.13
370.47	339.38
370.66	592.16
370.86	608.54
371.06	681.10
371.25	798.12
371.45	690.46
371.65	777.06
371.84	634.29
372.04	685.78
372.24	704.50
372.44	674.07
372.63	751.31
372.83	777.06
373.03	763.01
373.22	802.80
373.42	863.66
373.62	751.31
373.81	723.23
374.01	849.61
374.21	793.44
374.40	765.36
374.60	844.93
374.79	833.23
374.99	863.66
375.19	814.51
375.38	847.27
375.58	830.89
375.78	882.38
375.97	896.43
376.17	943.24
376.37	940.90
376.56	856.64
376.76	835.57
376.95	842.59
377.15	812.17
377.35	868.34
377.54	837.91
377.74	980.68
377.93	889.40
378.13	915.15
378.33	905.79
378.52	894.08
378.72	929.19
378.91	917.49
379.11	964.30
379.31	922.17
379.50	929.19
379.70	1011.11
379.89	957.28
380.09	1027.50
380.28	901.11
380.48	1020.47
380.68	908.13
380.87	983.02
381.07	1071.97
381.26	1029.84
381.46	1032.18
381.65	1053.24
381.85	1029.84
382.04	1093.03
382.24	1074.31
382.43	1116.44
382.63	1011.11
382.83	1057.92
383.02	1062.60
383.22	1121.12
383.41	1060.26
383.61	1142.18
383.80	1076.65
384.00	1163.25
384.19	1149.20
384.39	1088.35
384.58	1146.86
384.78	1109.41
384.97	1212.40
385.17	1156.22
385.36	1109.41
385.56	1074.31
385.75	1135.16
385.95	1217.08
386.14	1207.72
386.34	1224.10
386.53	1151.54
386.72	1217.08
386.92	1273.25
387.11	1240.48
387.31	1266.23
387.50	1256.87
387.70	1247.51
387.89	1188.99
388.09	1249.85
388.28	1252.19
388.48	1270.91
388.67	1296.66
388.86	1242.82
389.06	1320.06
389.25	1345.81
389.45	1409.00
389.64	1320.06
389.84	1406.66
390.03	1401.98
390.22	1345.81
390.42	1291.98
390.61	1284.95
390.81	1458.15
391.00	1441.77
391.19	1448.79
391.39	1526.03
391.58	1460.49
391.78	1376.24
391.97	1523.69
392.16	1474.54
392.36	1441.77
392.55	1570.50
392.75	1614.97
392.94	1504.96
393.13	1521.35
393.33	1589.22
393.52	1458.15
393.71	1659.44
393.91	1509.65
394.10	1533.05
394.29	1593.90
394.49	1507.30
394.68	1647.74
394.88	1614.97
395.07	1638.38
395.26	1661.78
395.46	1685.19
395.65	1671.14
395.84	1727.32
396.04	1776.47
396.23	1783.49
396.42	1767.10
396.62	1802.21
396.81	1734.34
397.00	1849.02
397.19	1870.09
397.39	1724.97
397.58	1888.81
397.77	1774.13
397.97	1820.94
398.16	1767.10
398.35	1949.67
398.55	1797.53
398.74	1935.62
398.93	2026.90
399.12	1827.96
399.32	1994.14
399.51	1902.86
399.70	1944.99
399.90	1944.99
400.09	1902.86
400.28	2019.88
400.47	2040.95
400.67	2106.48
400.86	1970.73
401.05	2029.24
401.24	2172.02
401.44	2115.84
401.63	2176.70
401.82	2202.44
402.01	2113.50
402.21	2235.21
402.40	2204.78
402.59	2080.74
402.78	2183.72
402.97	2333.51
403.17	2141.59
403.36	2232.87
403.55	2253.94
403.74	2256.28
403.93	2340.54
404.13	2338.20
404.32	2356.92
404.51	2275.00
404.70	2452.88
404.89	2256.28
405.09	2441.18
405.28	2480.97
405.47	2588.63
405.66	2553.52
405.85	2572.25
406.05	2588.63
406.24	2518.42
406.43	2499.69
406.62	2590.97
406.81	2609.70
407.00	2473.95
407.20	2565.23
407.39	2621.40
407.58	2668.21
407.77	2572.25
407.96	2661.19
408.15	2761.83
408.34	2752.47
408.54	2864.82
408.73	2813.32
408.92	2729.06
409.11	2801.62
409.30	2806.30
409.49	2909.29
409.68	2764.17
409.87	2963.12
410.07	2881.20
410.26	3026.31
410.45	2867.16
410.64	3005.25
410.83	3023.97
411.02	3150.36
411.21	3290.79
411.40	3206.53
411.59	3171.43
411.78	3155.04
411.98	3089.51
412.17	3288.45
412.36	3178.45
412.55	3346.97
412.74	3452.29
412.93	3393.78
413.12	3414.84
413.31	3585.70
413.50	3471.01
413.69	3482.72
413.88	3541.23
414.07	3571.66
414.26	3707.41
414.45	3688.68
414.64	3655.92
414.83	3784.65
415.02	3641.87
415.22	3695.71
415.41	3854.86
415.60	3824.44
415.79	3913.38
415.98	4079.55
416.17	3941.46
416.36	3899.33
416.55	4128.70
416.74	4149.77
416.93	3950.82
417.12	4028.06
417.31	4231.69
417.50	4262.12
417.69	4329.99
417.88	4248.07
418.07	4234.03
418.26	4311.27
418.45	4379.14
418.64	4348.72
418.83	4318.29
419.02	4402.55
419.21	4528.94
419.39	4542.98
419.58	4402.55
419.77	4285.52
419.96	4561.70
420.15	4437.66
420.34	4491.49
420.53	4688.09
420.72	4681.07
420.91	4645.96
421.10	4585.11
421.29	4884.70
421.48	4753.63
421.67	4732.56
421.86	4777.03
422.05	4798.10
422.24	4732.56
422.43	4898.74
422.61	4823.84
422.80	4877.68
422.99	4961.94
423.18	4919.81
423.37	4910.44
423.56	5001.72
423.75	4870.65
423.94	4814.48
424.13	4582.77
424.32	4622.56
424.50	4844.91
424.69	4999.38
424.88	4915.12
425.07	4856.61
425.26	4887.04
425.45	5095.35
425.64	4922.15
425.83	5076.62
426.01	4999.38
426.20	5004.07
426.39	4891.72
426.58	4959.60
426.77	5085.98
426.96	5153.86
427.15	5008.75
427.33	5085.98
427.52	5188.97
427.71	5139.82
427.90	5184.29
428.09	5483.88
428.28	5378.55
428.46	5207.69
428.65	5284.93
428.84	5376.21
429.03	5425.36
429.22	5453.45
429.40	5406.64
429.59	5483.88
429.78	5460.47
429.97	5383.23
430.16	5490.90
430.34	5493.24
430.53	5636.01
430.72	5696.86
430.91	5645.37
431.10	5572.82
431.28	5687.50
431.47	5823.25
431.66	5699.20
431.85	5776.44
432.03	5776.44
432.22	6064.33
432.41	5926.24
432.60	5802.19
432.79	5987.09
432.97	5982.41
433.16	6001.13
433.35	5921.56
433.54	6108.80
433.72	6202.42
433.91	6036.24
434.10	6054.97
434.28	6162.63
434.47	6169.65
434.66	6221.14
434.85	6097.10
435.03	6244.55
435.22	6263.27
435.41	6429.45
435.59	6326.47
435.78	6382.64
435.97	6392.00
436.16	6298.38
436.34	6368.60
436.53	6490.31
436.72	6511.37
436.90	6485.62
437.09	6546.48
437.28	6356.90
437.46	6773.51
437.65	6539.46
437.84	6712.66
438.02	6677.55
438.21	6794.58
438.40	6745.42
438.58	6939.69
438.77	6902.24
438.96	6972.46
439.14	6981.82
439.33	6970.12
439.52	7171.40
439.70	7052.03
439.89	7211.19
440.08	7274.38
440.26	7382.05
440.45	7445.24
440.63	7302.47
440.82	7609.08
441.01	7573.97
441.19	7564.61
441.38	7662.91
441.57	7857.18
441.75	7784.62
441.94	7777.60
442.12	7779.94
442.31	7803.35
442.50	7929.74
442.68	7882.92
442.87	8046.76
443.05	7903.99
443.24	8009.31
443.43	8028.04
443.61	8161.45
443.80	8198.90
443.98	8077.19
444.17	7754.19
444.35	8131.02
444.54	8435.29
444.73	8138.04
444.91	8456.36
445.10	8414.23
445.28	8308.90
445.47	8372.10
445.65	8360.39
445.84	8332.31
446.02	8248.05
446.21	8379.12
446.39	8379.12
446.58	8554.66
446.77	8390.82
446.95	8088.89
447.14	8390.82
447.32	8437.63
447.51	8463.38
447.69	8423.59
447.88	8643.60
448.06	8409.54
448.25	8498.49
448.43	8788.71
448.62	8519.55
448.80	8500.83
448.99	8601.47
449.17	8713.81
449.36	8613.17
449.54	8795.73
449.73	8919.78
449.91	8887.01
450.10	8777.01
450.28	9008.72
450.46	9004.04
450.65	8929.14
450.83	8868.29
451.02	8964.25
451.20	9078.94
451.39	9097.66
451.57	9188.94
451.76	8833.18
451.94	9121.07
452.13	9479.17
452.31	9060.21
452.49	8978.30
452.68	9188.94
452.86	9294.27
453.05	9530.66
453.23	9481.51
453.42	9277.88
453.60	9277.88
453.78	9612.58
453.97	9343.42
454.15	9387.89
454.34	9596.20
454.52	9645.35
454.70	9521.30
454.89	9619.60
455.07	9951.96
455.26	9631.30
455.44	9844.29
455.62	9823.23
455.81	9799.82
455.99	9935.57
456.17	9933.23
456.36	9837.27
456.54	10031.54
456.73	10157.92
456.91	10321.76
457.09	10101.75
457.28	10499.64
457.46	10380.28
457.64	10476.24
457.83	10368.57
458.01	10242.18
458.19	10569.86
458.38	10621.35
458.56	10530.07
458.74	10721.99
458.93	10551.14
459.11	10731.36
459.29	10677.52
459.48	10511.35
459.66	10829.66
459.84	10916.26
460.03	10977.11
460.21	10860.09
460.39	10920.94
460.57	11054.35
460.76	11166.70
460.94	11012.22
461.12	11068.39
461.31	10977.11
461.49	11108.18
461.67	11089.46
461.85	11461.60
462.04	11059.03
462.22	11714.38
462.40	11698.00
462.59	11658.21
462.77	11482.67
462.95	11683.95
463.13	11496.71
463.32	11550.54
463.50	11503.73
463.68	11644.17
463.86	11604.38
464.05	11604.38
464.23	11674.59
464.41	11913.33
464.59	11639.48
464.78	12093.55
464.96	11955.46
465.14	11932.05
465.32	12177.81
465.50	11997.59
465.69	12105.25
465.87	12182.49
466.05	12077.16
466.23	11969.50
466.41	12023.33
466.60	12245.68
466.78	12023.33
466.96	12262.07
467.14	12184.83
467.32	12334.62
467.51	12545.27
467.69	12215.26
467.87	12510.16
468.05	12538.25
468.23	12498.46
468.41	12198.87
468.60	12592.08
468.78	12671.66
468.96	12475.06
469.14	12868.27
469.32	12786.35
469.50	12758.26
469.69	12961.89
469.87	13041.46
470.05	13158.49
470.23	12924.44
470.41	12910.40
470.59	13064.87
470.77	12971.25
470.95	13336.37
471.14	13369.14
471.32	13259.13
471.50	13717.88
471.68	13570.43
471.86	13621.92
472.04	13525.96
472.22	13832.57
472.40	13832.57
472.58	13853.63
472.77	13727.24
472.95	14052.58
473.13	14750.06
473.31	14026.83
473.49	14111.09
473.67	14022.15
473.85	14064.28
474.03	14579.20
474.21	14663.46
474.39	14698.56
474.57	14656.43
474.75	14661.12
474.93	14918.57
475.12	14965.39
475.30	14850.70
475.48	14892.83
475.66	15548.18
475.84	15138.58
476.02	15449.88
476.20	15243.91
476.38	15679.25
476.56	16072.46
476.74	15915.64
476.92	15737.76
477.10	15791.59
477.28	16037.35
477.46	16187.14
477.64	16173.10
477.82	16535.88
478.00	16627.17
478.18	16549.93
478.36	16905.69
478.54	17184.21
478.72	17062.51
478.90	17338.69
479.08	17486.14
479.26	17661.68
479.44	17633.60
479.62	17886.37
479.80	18111.07
479.98	17682.75
480.16	18377.89
480.34	18319.37
480.52	18391.93
480.70	18473.85
480.88	18141.49
481.06	18532.36
481.24	18703.22
481.41	19260.27
481.59	18857.70
481.77	19389.00
481.95	19583.26
482.13	19482.62
482.31	19309.42
482.49	19805.61
482.67	20049.03
482.85	20224.57
483.03	20339.26
483.21	20727.78
483.39	20692.68
483.57	20805.02
483.74	21010.99
483.92	21387.82
484.10	21149.08
484.28	21420.58
484.46	22026.78
484.64	22033.80
484.82	21788.05
485.00	22017.42
485.18	22745.33
485.35	22778.09
485.53	22551.06
485.71	22951.29
485.89	23260.24
486.07	23082.36
486.25	23080.02
486.43	23367.91
486.61	23674.52
486.78	24098.16
486.96	23873.46
487.14	24479.66
487.32	24409.45
487.50	24697.33
487.68	24816.70
487.85	25343.32
488.03	25488.43
488.21	25563.33
488.39	25757.60
488.57	26052.50
488.75	26190.59
488.92	26515.93
489.10	26874.03
489.28	26817.86
489.46	27110.43
489.64	26735.94
489.81	27395.97
489.99	27527.04
490.17	27407.67
490.35	28102.81
490.53	28123.88
490.70	28147.28
490.88	28219.84
491.06	28512.41
491.24	28540.49
491.41	29209.89
491.59	29172.44
491.77	28821.36
491.95	29703.74
492.13	29612.46
492.30	29577.35
492.48	29652.25
492.66	29806.72
492.84	30223.34
493.01	30621.23
493.19	30637.61
493.37	30969.97
493.54	31033.16
493.72	31105.72
493.90	31180.62
494.08	31519.99
494.25	31791.50
494.43	31630.00
494.61	32360.25
494.79	32662.18
494.96	32297.05
495.14	32180.03
495.32	33165.39
495.49	32989.85
495.67	33359.66
495.85	33366.68
496.02	34120.33
496.20	33675.63
496.38	33823.08
496.55	34054.79
496.73	34569.71
496.91	34015.01
497.09	34689.08
497.26	34628.23
497.44	34522.90
497.62	35241.45
497.79	35728.28
497.97	35241.45
498.14	35976.37
498.32	35887.43
498.50	36093.40
498.67	36180.00
498.85	36442.14
499.03	36163.62
499.20	36533.42
499.38	36907.91
499.56	36800.24
499.73	37291.76
499.91	37352.61
500.08	37385.38
500.26	36964.08
500.44	37647.52
500.61	37371.33
500.79	37497.72
500.97	38007.96
501.14	38206.90
501.32	38373.08
501.49	38040.73
501.67	38445.64
501.84	38712.46
502.02	38543.94
502.20	38972.26
502.37	38948.85
502.55	39243.76
502.72	39475.48
502.90	39721.23
503.07	39342.06
503.25	39782.09
503.43	39098.65
503.60	39938.90
503.78	40325.09
503.95	40266.58
504.13	40341.47
504.30	40725.32
504.48	40133.17
504.65	40598.93
504.83	40790.86
505.01	41315.14
505.18	40905.54
505.36	41308.11
505.53	41191.09
505.71	41209.81
505.88	41483.66
506.06	41146.62
506.23	42234.97
506.41	41846.44
506.58	42256.03
506.76	41851.12
506.93	42326.25
507.11	42199.86
507.28	42653.92
507.46	42359.02
507.63	42579.03
507.81	43014.37
507.98	42897.34
508.16	43075.22
508.33	43269.48
508.50	42897.34
508.68	43599.50
508.85	43524.60
509.03	43739.93
509.20	43688.44
509.38	43957.60
509.55	44304.00
509.73	44423.37
509.90	43973.98
510.08	44355.49
510.25	44619.97
510.42	44669.12
510.60	44989.78
510.77	45104.46
510.95	45191.06
511.12	44804.88
511.30	45083.40
511.47	45322.13
511.64	45308.09
511.82	45736.41
511.99	45514.06
512.17	46024.29
512.34	45750.45
512.51	46117.92
512.69	45970.46
512.86	46073.45
513.04	46361.33
513.21	46370.69
513.38	46670.28
513.56	46876.25
513.73	46665.60
513.90	46810.71
514.08	46831.78
514.25	47320.95
514.43	47540.96
514.60	47384.15
514.77	47173.50
514.95	47625.22
515.12	47264.78
515.29	47175.84
515.47	48112.05
515.64	48086.31
515.81	47601.82
515.99	48041.84
516.16	48360.15
516.33	47753.95
516.51	48641.01
516.68	48350.79
516.85	48289.93
517.03	48596.54
517.20	48769.74
517.37	48509.94
517.54	48495.90
517.72	48708.89
517.89	48973.37
518.06	49284.66
518.24	49055.29
518.41	49177.00
518.58	49237.85
518.75	48968.69
518.93	49289.34
519.10	49322.11
519.27	49570.21
519.45	49717.66
519.62	49839.37
519.79	49741.06
519.96	50064.06
520.14	50387.05
520.31	50206.83
520.48	50382.37
520.65	50363.65
520.83	50220.87
521.00	50232.58
521.17	50564.93
521.34	50684.30
521.52	50485.36
521.69	50834.10
521.86	50885.59
522.03	51058.79
522.20	50897.29
522.38	51360.72
522.55	51021.34
522.72	51145.39
522.89	51194.54
523.07	51419.23
523.24	51129.00
523.41	51760.95
523.58	51227.31
523.75	51456.68
523.92	51927.13
524.10	51828.82
524.27	51770.31
524.44	51875.63
524.61	52006.70
524.78	52009.04
524.96	51828.82
525.13	51957.55
525.30	52062.88
525.47	52280.55
525.64	52048.83
525.81	52598.86
525.98	52914.83
526.16	52168.20
526.33	52701.84
526.50	52891.43
526.67	52559.07
526.84	52858.66
527.01	53031.86
527.18	52877.38
527.36	52748.65
527.53	52835.25
527.70	53282.30
527.87	53221.44
528.04	53095.05
528.21	53380.60
528.38	53242.51
528.55	53467.20
528.72	53411.02
528.89	53167.61
529.07	53158.25
529.24	53378.26
529.41	53261.23
529.58	53551.46
529.75	53551.46
529.92	53528.05
530.09	53708.27
530.26	54054.67
530.43	53677.85
530.60	53649.76
530.77	53977.43
530.94	53991.48
531.11	53928.28
531.28	54017.22
531.46	53839.34
531.63	54506.40
531.80	53895.52
531.97	54241.92
532.14	54349.58
532.31	54124.89
532.48	54590.66
532.65	54300.43
532.82	54351.92
532.99	54454.90
533.16	54401.07
533.33	54527.46
533.50	54946.42
533.67	54618.74
533.84	54546.18
534.01	54665.55
534.18	54721.72
534.35	55110.25
534.52	55171.11
534.69	55189.83
534.86	55351.33
535.03	54894.92
535.20	54967.48
535.37	55136.00
535.54	55173.45
535.71	55229.62
535.88	55416.86
536.05	55463.67
536.22	55381.76
536.38	55400.48
536.55	55442.61
536.72	55613.47
536.89	55220.26
537.06	55416.86
537.23	55437.93
537.40	55505.80
537.57	55587.72
537.74	55547.93
537.91	55943.48
538.08	55718.79
538.25	55496.44
538.42	55650.92
538.59	55978.59
538.75	55884.97
538.92	55966.89
539.09	56121.37
539.26	55906.04
539.43	56076.90
539.60	56257.12
539.77	56423.29
539.94	56161.15
540.11	56360.10
540.28	56420.95
540.44	56303.93
540.61	56514.58
540.78	56182.22
540.95	56207.97
541.12	56137.75
541.29	56458.40
541.46	56357.76
541.62	56493.51
541.79	56488.83
541.96	56123.71
542.13	56336.69
542.30	56683.09
542.47	56619.90
542.63	56722.88
542.80	56807.14
542.97	56896.08
543.14	56959.28
543.31	57137.16
543.48	57102.05
543.64	57434.41
543.81	57329.08
543.98	57378.23
544.15	57059.92
544.32	57289.29
544.48	57509.30
544.65	57221.42
544.82	57434.41
544.99	57352.49
545.16	57446.11
545.32	57432.07
545.49	57572.50
545.66	57352.49
545.83	57640.37
546.00	57413.34
546.16	57652.08
546.33	57511.64
546.50	57361.85
546.67	57478.88
546.83	57296.31
547.00	57607.61
547.17	57516.32
547.34	57635.69
547.50	57890.81
547.67	58059.33
547.84	58059.33
548.00	57904.85
548.17	58028.90
548.34	58000.82
548.51	58141.25
548.67	58056.99
548.84	57741.02
549.01	57801.87
549.18	57984.43
549.34	58049.97
549.51	58220.83
549.68	58241.89
549.84	58267.64
550.01	58656.17
550.18	58152.95
550.34	58274.66
550.51	58412.75
550.68	58244.23
550.84	58096.78
551.01	58546.16
551.18	58354.24
551.34	58398.71
551.51	58333.17
551.68	58511.05
551.84	58260.62
552.01	58321.47
552.18	58534.46
552.34	58220.83
552.51	58642.12
552.68	58363.60
552.84	58726.38
553.01	58691.27
553.18	58536.80
553.34	58939.37
553.51	58953.41
553.67	58677.23
553.84	58684.25
554.01	58759.15
554.17	58932.35
554.34	58997.88
554.51	59023.63
554.67	58953.41
554.84	59079.80
555.00	58958.09
555.17	58887.88
555.33	59079.80
555.50	58674.89
555.67	59140.66
555.83	58908.94
556.00	59077.46
556.16	59412.16
556.33	59367.69
556.50	59070.44
556.66	59276.41
556.83	58965.12
556.99	59173.42
557.16	59313.86
557.32	59374.71
557.49	59501.10
557.65	59332.58
557.82	59290.45
557.98	59243.64
558.15	59377.05
558.32	59456.63
558.48	59510.46
558.65	59260.02
558.81	59470.67
558.98	59318.54
559.14	59306.83
559.31	59615.79
559.47	59473.01
559.64	59622.81
559.80	59599.40
559.97	59601.74
560.13	59451.95
560.30	59592.38
560.46	59693.02
560.63	59475.35
560.79	59664.94
560.96	59681.32
561.12	59737.49
561.29	59543.23
561.45	59480.03
561.61	59557.27
561.78	59831.11
561.94	59835.80
562.11	59781.96
562.27	59758.56
562.44	60069.85
562.60	59945.80
562.77	59735.15
562.93	59709.41
563.10	59978.57
563.26	59777.28
563.42	59929.42
563.59	59948.14
563.75	59739.83
563.92	59828.77
564.08	59910.69
564.24	60025.38
564.41	60135.38
564.57	59749.20
564.74	59852.18
564.90	59969.21
565.07	59969.21
565.23	59971.55
565.39	59756.22
565.56	60163.47
565.72	60322.63
565.88	59992.61
566.05	60030.06
566.21	60114.32
566.38	60282.84
566.54	60158.79
566.70	60123.68
566.87	60090.91
567.03	60320.29
567.19	60280.50
567.36	60221.98
567.52	60186.88
567.68	60411.57
567.85	60233.69
568.01	60514.55
568.17	60090.91
568.34	60280.50
568.50	60154.11
568.66	60287.52
568.83	60364.76
568.99	60168.15
569.15	60357.74
569.32	60434.97
569.48	60226.66
569.64	60463.06
569.81	60460.72
569.97	60083.89
570.13	60362.42
570.30	60376.46
570.46	60250.07
570.62	60383.48
570.78	60500.51
570.95	60498.17
571.11	60591.79
571.27	60427.95
571.43	60460.72
571.60	60516.89
571.76	60514.55
571.92	60360.08
572.09	60423.27
572.25	60573.06
572.41	60537.96
572.57	60507.53
572.74	60633.92
572.90	60547.32
573.06	60673.71
573.22	60573.06
573.38	60488.80
573.55	60470.08
573.71	60587.11
573.87	60654.98
574.03	60420.93
574.20	60844.57
574.36	60697.11
574.52	60488.80
574.68	60456.04
574.84	60690.09
575.01	60722.86
575.17	60420.93
575.33	60526.25
575.49	60575.40
575.65	60582.43
575.82	60874.99
575.98	60512.21
576.14	60870.31
576.30	60851.59
576.46	60678.39
576.62	60615.19
576.79	60491.15
576.95	60678.39
577.11	60779.03
577.27	60715.84
577.43	60779.03
577.59	60722.86
577.75	60598.81
577.92	60605.83
578.08	60690.09
578.24	60732.22
578.40	60889.04
578.56	60814.14
578.72	60762.65
578.88	60739.24
579.04	61095.00
579.21	61010.74
579.37	60945.21
579.53	61118.41
579.69	60507.53
579.85	60523.91
580.01	60552.00
580.17	60619.88
580.33	60767.33
580.49	60734.56
580.65	60839.89
580.82	60750.94
580.98	60636.26
581.14	60603.49
581.30	60912.44
581.46	60814.14
581.62	60547.32
581.78	60715.84
581.94	60760.31
582.10	60739.24
582.26	60694.77
582.42	60757.97
582.58	60835.20
582.74	60872.65
582.90	60963.93
583.06	60860.95
583.22	60673.71
583.38	60863.29
583.54	60903.08
583.70	60938.19
583.86	60865.63
584.02	60657.32
584.18	60931.17
584.34	60884.36
584.50	60800.10
584.66	60615.19
584.82	60804.78
584.98	61190.97
585.14	61034.15
585.30	60816.48
585.46	61078.62
585.62	60795.42
585.78	61073.94
585.94	60671.37
586.10	60879.67
586.26	60994.36
586.42	60863.29
586.58	60947.55
586.74	61015.43
586.90	60900.74
587.06	60867.97
587.22	61251.82
587.38	60863.29
587.54	60884.36
587.70	61174.58
587.86	61003.72
588.02	60963.93
588.18	61160.54
588.34	60842.23
588.49	60823.50
