SpectraSuite Data File
++++++++++++++++++++++++++++++++++++
Date: Fri Oct 25 11:26:37 EDT 2013
User: price-jones
Dark Spectrum Present: No
Reference Spectrum Present: No
Number of Sampled Component Spectra: 1
Spectrometers: USB2+H05261
Integration Time (usec): 100000 (USB2+H05261)
Spectra Averaged: 1 (USB2+H05261)
Boxcar Smoothing: 0 (USB2+H05261)
Correct for Electrical Dark: No (USB2+H05261)
Strobe/Lamp Enabled: No (USB2+H05261)
Correct for Detector Non-linearity: No (USB2+H05261)
Correct for Stray Light: No (USB2+H05261)
Number of Pixels in Processed Spectrum: 2048
>>>>>Begin Processed Spectral Data<<<<<
365.73	325.33
365.92	325.33
366.12	325.33
366.32	191.92
366.52	128.73
366.72	166.18
366.91	138.09
367.11	138.09
367.31	147.45
367.51	147.45
367.70	175.54
367.90	145.11
368.10	161.50
368.30	149.79
368.49	149.79
368.69	159.16
368.89	156.82
369.09	191.92
369.28	168.52
369.48	140.43
369.68	194.26
369.87	208.31
370.07	203.63
370.27	203.63
370.47	358.10
370.66	624.92
370.86	667.05
371.06	643.65
371.25	709.18
371.45	660.03
371.65	596.84
371.84	676.41
372.04	704.50
372.24	737.27
372.44	718.54
372.63	774.72
372.83	720.88
373.03	819.19
373.22	737.27
373.42	800.46
373.62	784.08
373.81	786.42
374.01	784.08
374.21	877.70
374.40	840.25
374.60	830.89
374.79	812.17
374.99	828.55
375.19	826.21
375.38	819.19
375.58	823.87
375.78	837.91
375.97	816.85
376.17	933.87
376.37	763.01
376.56	891.74
376.76	889.40
376.95	833.23
377.15	908.13
377.35	945.58
377.54	922.17
377.74	898.77
377.93	851.96
378.13	938.55
378.33	1008.77
378.52	943.24
378.72	1050.90
378.91	954.94
379.11	931.53
379.31	985.37
379.50	997.07
379.70	1006.43
379.89	1006.43
380.09	983.02
380.28	978.34
380.48	1083.67
380.68	1064.94
380.87	1006.43
381.07	980.68
381.26	1081.33
381.46	1032.18
381.65	1027.50
381.85	1050.90
382.04	1111.75
382.24	1046.22
382.43	1078.99
382.63	1130.48
382.83	1083.67
383.02	1135.16
383.22	1137.50
383.41	1217.08
383.61	1132.82
383.80	1196.01
384.00	1121.12
384.19	1149.20
384.39	1076.65
384.58	1088.35
384.78	1125.80
384.97	1156.22
385.17	1268.57
385.36	1198.35
385.56	1160.91
385.75	1132.82
385.95	1104.73
386.14	1235.80
386.34	1214.74
386.53	1142.18
386.72	1320.06
386.92	1256.87
387.11	1266.23
387.31	1235.80
387.50	1263.89
387.70	1352.83
387.89	1310.70
388.09	1217.08
388.28	1273.25
388.48	1205.38
388.67	1277.93
388.86	1317.72
389.06	1277.93
389.25	1336.45
389.45	1350.49
389.64	1287.29
389.84	1418.36
390.03	1409.00
390.22	1416.02
390.42	1329.42
390.61	1245.16
390.81	1366.87
391.00	1383.26
391.19	1465.18
391.39	1441.77
391.58	1469.86
391.78	1556.46
391.97	1549.43
392.16	1437.09
392.36	1586.88
392.55	1441.77
392.75	1537.73
392.94	1516.67
393.13	1521.35
393.33	1495.60
393.52	1469.86
393.71	1617.31
393.91	1668.80
394.10	1596.25
394.29	1647.74
394.49	1577.52
394.68	1706.25
394.88	1643.06
395.07	1668.80
395.26	1732.00
395.46	1633.69
395.65	1764.76
395.84	1685.19
396.04	1746.04
396.23	1732.00
396.42	1825.62
396.62	1781.15
396.81	1837.32
397.00	1813.92
397.19	1830.30
397.39	1870.09
397.58	1783.49
397.77	1755.40
397.97	1851.36
398.16	1912.22
398.35	1849.02
398.55	1867.75
398.74	1891.15
398.93	1891.15
399.12	1844.34
399.32	1907.54
399.51	1919.24
399.70	2026.90
399.90	1987.11
400.09	2062.01
400.28	1982.43
400.47	2036.27
400.67	2146.27
400.86	2036.27
401.05	2064.35
401.24	2062.01
401.44	2043.29
401.63	2167.34
401.82	2275.00
402.01	2038.61
402.21	2305.43
402.40	2312.45
402.59	2113.50
402.78	2190.74
402.97	2160.31
403.17	2251.60
403.36	2225.85
403.55	2211.81
403.74	2340.54
403.93	2310.11
404.13	2370.96
404.32	2443.52
404.51	2394.37
404.70	2392.03
404.89	2242.23
405.09	2546.50
405.28	2495.01
405.47	2415.43
405.66	2558.21
405.85	2576.93
406.05	2572.25
406.24	2499.69
406.43	2597.99
406.62	2686.94
406.81	2668.21
407.00	2560.55
407.20	2651.83
407.39	2649.49
407.58	2675.23
407.77	2729.06
407.96	2700.98
408.15	2708.00
408.34	2764.17
408.54	2832.05
408.73	2796.94
408.92	2836.73
409.11	2799.28
409.30	2864.82
409.49	2960.78
409.68	2967.80
409.87	2930.35
410.07	3035.67
410.26	2977.16
410.45	3038.02
410.64	3000.57
410.83	3038.02
411.02	3077.80
411.21	3234.62
411.40	3056.74
411.59	3169.09
411.78	3133.98
411.98	3206.53
412.17	3272.07
412.36	3351.65
412.55	3234.62
412.74	3475.70
412.93	3534.21
413.12	3332.92
413.31	3611.45
413.50	3531.87
413.69	3576.34
413.88	3618.47
414.07	3489.74
414.26	3749.54
414.45	3784.65
414.64	3691.02
414.83	3695.71
415.02	3859.54
415.22	3850.18
415.41	3906.35
415.60	3899.33
415.79	4009.34
415.98	3957.85
416.17	4100.62
416.36	4032.74
416.55	3922.74
416.74	4117.00
416.93	4093.60
417.12	4147.43
417.31	4241.05
417.50	4224.67
417.69	4287.86
417.88	4241.05
418.07	4201.26
418.26	4379.14
418.45	4299.56
418.64	4550.00
418.83	4292.54
419.02	4278.50
419.21	4449.36
419.39	4503.19
419.58	4395.53
419.77	4442.34
419.96	4533.62
420.15	4587.45
420.34	4524.26
420.53	4713.84
420.72	4550.00
420.91	4645.96
421.10	4718.52
421.29	4793.42
421.48	4592.13
421.67	4884.70
421.86	4774.69
422.05	4788.74
422.24	4779.37
422.43	4884.70
422.61	4809.80
422.80	4858.95
422.99	5060.24
423.18	4990.02
423.37	5188.97
423.56	4947.89
423.75	4999.38
423.94	4966.62
424.13	4636.60
424.32	4821.50
424.50	5004.07
424.69	5050.88
424.88	5043.85
425.07	4950.23
425.26	4936.19
425.45	4926.83
425.64	4898.74
425.83	5020.45
426.01	5034.49
426.20	4943.21
426.39	5144.50
426.58	5170.24
426.77	5174.92
426.96	5263.86
427.15	5291.95
427.33	5195.99
427.52	5146.84
427.71	5245.14
427.90	5289.61
428.09	5350.46
428.28	5441.75
428.46	5420.68
428.65	5341.10
428.84	5509.62
429.03	5621.97
429.22	5373.87
429.40	5586.86
429.59	5474.51
429.78	5411.32
429.97	5291.95
430.16	5621.97
430.34	5678.14
430.53	5841.98
430.72	5717.93
430.91	5720.27
431.10	5521.32
431.28	5790.49
431.47	5717.93
431.66	5914.53
431.85	5937.94
432.03	6026.88
432.22	6026.88
432.41	5942.62
432.60	5853.68
432.79	5949.64
432.97	6118.16
433.16	5912.19
433.35	6174.33
433.54	5916.87
433.72	6155.61
433.91	6064.33
434.10	6134.54
434.28	6228.17
434.47	6061.99
434.66	6314.77
434.85	6162.63
435.03	6267.95
435.22	6246.89
435.41	6441.15
435.59	6384.98
435.78	6333.49
435.97	6527.75
436.16	6406.05
436.34	6443.49
436.53	6640.10
436.72	6647.12
436.90	6413.07
437.09	6581.59
437.28	6513.71
437.46	6546.48
437.65	6647.12
437.84	6778.19
438.02	6825.00
438.21	6827.34
438.40	6841.39
438.58	6909.26
438.77	7204.17
438.96	7028.63
439.14	7042.67
439.33	7265.02
439.52	7152.68
439.70	7208.85
439.89	7269.70
440.08	7478.01
440.26	7524.82
440.45	7321.20
440.63	7384.39
440.82	7740.15
441.01	7634.83
441.19	7681.64
441.38	7791.64
441.57	7705.04
441.75	7887.61
441.94	8175.49
442.12	7903.99
442.31	8322.94
442.50	8081.87
442.68	7967.18
442.87	8156.77
443.05	8046.76
443.24	8336.99
443.43	8159.11
443.61	8269.11
443.80	8332.31
443.98	8035.06
444.17	7925.05
444.35	8219.96
444.54	8409.54
444.73	8325.29
444.91	8421.25
445.10	8439.97
445.28	8388.48
445.47	8241.03
445.65	8496.14
445.84	8430.61
446.02	8613.17
446.21	8594.45
446.39	8482.10
446.58	8566.36
446.77	8526.57
446.95	8344.01
447.14	8451.67
447.32	8718.50
447.51	8416.57
447.69	8477.42
447.88	8491.46
448.06	8564.02
448.25	8622.53
448.43	8847.22
448.62	8760.63
448.80	8606.15
448.99	8723.18
449.17	8952.55
449.36	8795.73
449.54	9046.17
449.73	8933.82
449.91	9132.77
450.10	8774.67
450.28	9142.13
450.46	8968.93
450.65	9144.47
450.83	9041.49
451.02	9228.73
451.20	9076.60
451.39	9270.86
451.57	9006.38
451.76	9233.41
451.94	9334.06
452.13	9411.29
452.31	9415.98
452.49	9296.61
452.68	9301.29
452.86	9413.63
453.05	9401.93
453.23	9380.87
453.42	9394.91
453.60	9413.63
453.78	9392.57
453.97	9547.05
454.15	9591.52
454.34	9530.66
454.52	9514.28
454.70	9715.56
454.89	9799.82
455.07	9830.25
455.26	9853.66
455.44	9895.78
455.62	9949.62
455.81	9970.68
455.99	10193.03
456.17	10038.56
456.36	10085.37
456.54	10150.90
456.73	10216.44
456.91	10424.75
457.09	10431.77
457.28	10729.02
457.46	10389.64
457.64	10541.77
457.83	10670.50
458.01	10775.83
458.19	10679.86
458.38	10492.62
458.56	10621.35
458.74	10876.47
458.93	10588.58
459.11	10698.59
459.29	10796.89
459.48	10731.36
459.66	10705.61
459.84	10923.28
460.03	11197.12
460.21	10963.07
460.39	11012.22
460.57	11028.60
460.76	11117.54
460.94	11323.51
461.12	11225.21
461.31	11323.51
461.49	11229.89
461.67	11290.74
461.85	11435.86
462.04	11260.32
462.22	11473.31
462.40	11620.76
462.59	11634.80
462.77	11517.78
462.95	11421.81
463.13	11726.08
463.32	11646.51
463.50	12037.38
463.68	11758.85
463.86	11838.43
464.05	11779.92
464.23	11597.35
464.41	11873.54
464.59	11669.91
464.78	12112.27
464.96	11906.31
465.14	11857.15
465.32	11948.43
465.50	12037.38
465.69	12400.16
465.87	12138.02
466.05	12379.09
466.23	11976.52
466.41	12142.70
466.60	12571.02
466.78	12278.45
466.96	12437.61
467.14	12273.77
467.32	12638.89
467.51	12737.20
467.69	12341.64
467.87	12435.27
468.05	12622.51
468.23	12528.89
468.41	12538.25
468.60	12526.55
468.78	12690.38
468.96	12732.51
469.14	12636.55
469.32	12943.16
469.50	12903.37
469.69	13174.88
469.87	13170.19
470.05	12957.21
470.23	13266.16
470.41	12999.34
470.59	13341.05
470.77	13165.51
470.95	13390.20
471.14	13631.28
471.32	13345.73
471.50	13664.05
471.68	13509.57
471.86	13743.63
472.04	13926.19
472.22	14047.90
472.40	13664.05
472.58	13998.74
472.77	14188.33
472.95	14171.94
473.13	14389.61
473.31	14349.82
473.49	14249.18
473.67	14157.90
473.85	14188.33
474.03	14654.09
474.21	14558.13
474.39	15014.54
474.57	14771.12
474.75	14932.62
474.93	14909.21
475.12	14916.23
475.30	15335.19
475.48	14909.21
475.66	15227.53
475.84	15206.46
476.02	15222.84
476.20	15639.46
476.38	15667.55
476.56	16248.00
476.74	16240.98
476.92	15730.74
477.10	15779.89
477.28	16278.43
477.46	16397.79
477.64	16781.64
477.82	16713.77
478.00	17067.19
478.18	16774.62
478.36	16985.27
478.54	17231.02
478.72	17413.59
478.90	17193.58
479.08	17727.22
479.26	17652.32
479.44	17982.34
479.62	17694.45
479.80	18279.58
479.98	18345.12
480.16	18761.73
480.34	18525.34
480.52	18581.51
480.70	18602.58
480.88	18298.31
481.06	18696.20
481.24	18913.87
481.41	19145.58
481.59	19667.52
481.77	19428.79
481.95	19740.08
482.13	19754.12
482.31	19768.16
482.49	20320.53
482.67	20194.14
482.85	20395.43
483.03	20739.49
483.21	20627.14
483.39	21081.21
483.57	20872.90
483.74	21308.24
483.92	21427.60
484.10	21081.21
484.28	21603.14
484.46	21774.00
484.64	22153.17
484.82	22054.87
485.00	22583.83
485.18	22925.55
485.35	23246.20
485.53	22920.87
485.71	22850.65
485.89	23477.91
486.07	23365.57
486.25	23304.71
486.43	23927.30
486.61	24032.62
486.78	23740.05
486.96	24191.78
487.14	24641.16
487.32	24739.46
487.50	25167.78
487.68	25081.18
487.85	25034.37
488.03	25867.60
488.21	26190.59
488.39	25717.81
488.57	26345.07
488.75	26239.75
488.92	26525.29
489.10	26836.58
489.28	26661.04
489.46	27152.55
489.64	27337.46
489.81	27573.85
489.99	27667.47
490.17	28088.77
490.35	28376.66
490.53	28371.97
490.70	28584.96
490.88	28451.55
491.06	28814.34
491.24	29214.57
491.41	29034.35
491.59	29397.13
491.77	29605.44
491.95	29872.26
492.13	30106.31
492.30	29780.98
492.48	30101.63
492.66	30295.89
492.84	30298.23
493.01	30913.80
493.19	30726.55
493.37	31241.47
493.54	31208.70
493.72	31515.31
493.90	31257.85
494.08	31896.82
494.25	32280.67
494.43	31950.65
494.61	32350.88
494.79	32594.30
494.96	32425.78
495.14	32746.44
495.32	33092.83
495.49	33116.24
495.67	33577.33
495.85	33661.58
496.02	34426.94
496.20	34455.03
496.38	34295.87
496.55	34206.93
496.73	35180.59
496.91	34293.53
497.09	34476.09
497.26	35491.88
497.44	35349.11
497.62	35770.41
497.79	35681.47
497.97	35393.58
498.14	36229.15
498.32	36442.14
498.50	35988.08
498.67	36980.46
498.85	36648.11
499.03	36842.37
499.20	37001.53
499.38	37043.66
499.56	37092.81
499.73	37598.37
499.91	37427.51
500.08	38064.13
500.26	37633.47
500.44	37205.16
500.61	37827.74
500.79	38089.88
500.97	37729.44
501.14	38888.00
501.32	38653.95
501.49	38696.08
501.67	38328.61
501.84	39295.25
502.02	39079.92
502.20	39147.80
502.37	39435.69
502.55	39133.76
502.72	39674.42
502.90	39981.03
503.07	39599.52
503.25	39718.89
503.43	39756.34
503.60	40285.30
503.78	40154.23
503.95	40395.31
504.13	40507.65
504.30	40879.80
504.48	40545.10
504.65	40907.88
504.83	41062.36
505.01	41490.68
505.18	41263.64
505.36	41659.20
505.53	41001.50
505.71	41759.84
505.88	41883.89
506.06	41682.60
506.23	42220.92
506.41	42188.16
506.58	42387.10
506.76	42351.99
506.93	42731.16
507.11	42117.94
507.28	42639.88
507.46	43269.48
507.63	42972.24
507.81	43377.15
507.98	43409.92
508.16	43388.85
508.33	43344.38
508.50	43845.26
508.68	43353.74
508.85	44144.84
509.03	43929.51
509.20	44261.87
509.38	44357.83
509.55	44645.72
509.73	44821.26
509.90	44500.61
510.08	44825.94
510.25	45010.84
510.42	45132.55
510.60	45352.56
510.77	45064.67
510.95	45425.12
511.12	45581.93
511.30	45361.92
511.47	45675.55
511.64	45666.19
511.82	45923.65
511.99	45500.01
512.17	46033.66
512.34	45764.49
512.51	46649.22
512.69	46536.87
512.86	46120.26
513.04	46880.93
513.21	46674.96
513.38	46745.18
513.56	46960.51
513.73	46939.44
513.90	47234.35
514.08	46866.89
514.25	47054.13
514.43	47725.86
514.60	47711.82
514.77	47262.44
514.95	48098.01
515.12	47753.95
515.29	47608.84
515.47	48257.17
515.64	47854.59
515.81	48105.03
515.99	47985.66
516.16	48360.15
516.33	48662.08
516.51	48685.48
516.68	48421.00
516.85	48828.26
517.03	49137.21
517.20	49198.06
517.37	48828.26
517.54	48907.83
517.72	49205.08
517.89	49338.49
518.06	49483.61
518.24	49216.78
518.41	49336.15
518.58	49460.20
518.75	49666.17
518.93	49621.70
519.10	49839.37
519.27	49642.76
519.45	49771.49
519.62	50375.35
519.79	49815.96
519.96	49968.10
520.14	50192.79
520.31	50061.72
520.48	50270.03
520.65	50298.11
520.83	50852.82
521.00	50763.88
521.17	50375.35
521.34	50614.08
521.52	50932.40
521.69	51030.70
521.86	51297.52
522.03	51185.18
522.20	51253.05
522.38	51681.37
522.55	51395.82
522.72	51512.85
522.89	51409.87
523.07	52046.49
523.24	51409.87
523.41	51917.76
523.58	51550.30
523.75	51831.16
523.92	51892.02
524.10	51756.27
524.27	52102.67
524.44	51992.66
524.61	52058.20
524.78	52332.04
524.96	52296.93
525.13	52322.68
525.30	52685.46
525.47	52348.42
525.64	52294.59
525.81	52788.44
525.98	52718.23
526.16	52694.82
526.33	52851.64
526.50	53038.88
526.67	53076.33
526.84	52898.45
527.01	53017.82
527.18	53003.77
527.36	53066.97
527.53	53123.14
527.70	53429.75
527.87	53216.76
528.04	53286.98
528.21	53469.54
528.38	53631.04
528.55	53446.13
528.72	53406.34
528.89	53521.03
529.07	53294.00
529.24	53532.73
529.41	54003.18
529.58	53932.96
529.75	53797.21
529.92	53947.01
530.09	53794.87
530.26	54075.74
530.43	54206.81
530.60	53881.47
530.77	53932.96
530.94	54291.07
531.11	54164.68
531.28	54115.53
531.46	54436.18
531.63	54321.49
531.80	54403.41
531.97	54454.90
532.14	54625.76
532.31	54536.82
532.48	54394.05
532.65	54731.09
532.82	54405.75
532.99	54798.96
533.16	54674.91
533.33	54859.82
533.50	54913.65
533.67	54850.45
533.84	54768.54
534.01	55037.70
534.18	55152.38
534.35	55370.05
534.52	55391.12
534.69	55194.51
534.86	55306.86
535.03	55119.62
535.20	55150.04
535.37	55519.85
535.54	55564.32
535.71	55348.99
535.88	55358.35
536.05	55480.06
536.22	55639.22
536.38	55590.06
536.55	55732.84
536.72	55735.18
536.89	55522.19
537.06	55643.90
537.23	55948.17
537.40	55585.38
537.57	55868.59
537.74	55613.47
537.91	56121.37
538.08	55950.51
538.25	55781.99
538.42	55875.61
538.59	56135.41
538.75	55786.67
538.92	56240.73
539.09	56261.80
539.26	56411.59
539.43	56006.68
539.60	56264.14
539.77	56236.05
539.94	56624.58
540.11	56446.70
540.28	56481.81
540.44	56516.92
540.61	56727.56
540.78	56381.16
540.95	56406.91
541.12	56324.99
541.29	56374.14
541.46	56470.11
541.62	56762.67
541.79	56856.29
541.96	56626.92
542.13	56460.74
542.30	56769.69
542.47	56924.17
542.63	56809.48
542.80	57095.03
542.97	57176.95
543.14	57148.86
543.31	57464.83
543.48	57272.91
543.64	57656.76
543.81	57471.85
543.98	57462.49
544.15	57265.89
544.32	57698.89
544.48	57640.37
544.65	57542.07
544.82	57518.67
544.99	57439.09
545.16	57488.24
545.32	57469.51
545.49	57661.44
545.66	57865.06
545.83	57722.29
546.00	57963.37
546.16	57628.67
546.33	57607.61
546.50	57530.37
546.67	57900.17
546.83	57633.35
547.00	57886.13
547.17	57888.47
547.34	57778.46
547.50	58028.90
547.67	58138.91
547.84	58204.44
548.00	58286.36
548.17	58054.65
548.34	58209.12
548.51	58401.05
548.67	58450.20
548.84	58047.63
549.01	58183.38
549.18	58216.14
549.34	58211.46
549.51	58342.53
549.68	58447.86
549.84	58457.22
550.01	58363.60
550.18	58480.63
550.34	58497.01
550.51	58525.10
550.68	58585.95
550.84	58267.64
551.01	58805.96
551.18	58787.24
551.34	58663.19
551.51	58763.83
551.68	58681.91
551.84	58700.64
552.01	58536.80
552.18	58623.40
552.34	58705.32
552.51	58829.37
552.68	58557.86
552.84	58707.66
553.01	58983.84
553.18	58812.98
553.34	59096.19
553.51	58831.71
553.67	58857.45
553.84	59114.91
554.01	59056.40
554.17	59463.65
554.34	58986.18
554.51	59063.42
554.67	59035.33
554.84	59032.99
555.00	58873.84
555.17	59194.49
555.33	59018.95
555.50	59117.25
555.67	59051.72
555.83	59058.74
556.00	59075.12
556.16	59522.16
556.33	59267.05
556.50	59281.09
556.66	59325.56
556.83	59128.95
556.99	59395.77
557.16	59489.40
557.32	59444.93
557.49	59812.39
557.65	59302.15
557.82	59590.04
557.98	59384.07
558.15	59388.75
558.32	59580.68
558.48	59351.30
558.65	59475.35
558.81	59419.18
558.98	59496.42
559.14	59634.51
559.31	59657.91
559.47	59639.19
559.64	59601.74
559.80	59767.92
559.97	59735.15
560.13	59646.21
560.30	59826.43
560.46	59901.33
560.63	59849.84
560.79	59725.79
560.96	59941.12
561.12	59765.58
561.29	59868.56
561.45	60144.75
561.61	60065.17
561.78	59842.82
561.94	59945.80
562.11	60013.68
562.27	59817.07
562.44	59999.63
562.60	60210.28
562.77	59980.91
562.93	59882.61
563.10	60076.87
563.26	60107.30
563.42	60240.71
563.59	60109.64
563.75	59812.39
563.92	60163.47
564.08	60114.32
564.24	60210.28
564.41	60203.26
564.57	60261.77
564.74	60079.21
564.90	60182.19
565.07	60137.72
565.23	60156.45
565.39	60282.84
565.56	60292.20
565.72	60376.46
565.88	60219.64
566.05	60037.08
566.21	60170.49
566.38	60271.14
566.54	60238.37
566.70	60392.84
566.87	60512.21
567.03	60320.29
567.19	60521.57
567.36	60257.09
567.52	60528.59
567.68	60816.48
567.85	60474.76
568.01	60203.26
568.17	60271.14
568.34	60512.21
568.50	60537.96
568.66	60418.59
568.83	60406.89
568.99	60399.86
569.15	60753.29
569.32	60502.85
569.48	60444.33
569.64	60591.79
569.81	60561.36
569.97	60530.93
570.13	60456.04
570.30	60463.06
570.46	60659.66
570.62	60608.17
570.78	60549.66
570.95	60533.28
571.11	60807.12
571.27	60580.09
571.43	60587.11
571.60	60563.70
571.76	60638.60
571.92	60699.45
572.09	60645.62
572.25	60858.61
572.41	60650.30
572.57	60666.69
572.74	60837.54
572.90	60657.32
573.06	60544.98
573.22	60781.37
573.38	60774.35
573.55	60839.89
573.71	60769.67
573.87	60844.57
574.03	60652.64
574.20	60594.13
574.36	60683.07
574.52	60947.55
574.68	60811.80
574.84	60867.97
575.01	60823.50
575.17	60767.33
575.33	60743.92
575.49	60793.07
575.65	60790.73
575.82	60767.33
575.98	60874.99
576.14	61050.53
576.30	60884.36
576.46	60795.42
576.62	60680.73
576.79	60753.29
576.95	60638.60
577.11	60882.02
577.27	60741.58
577.43	60959.25
577.59	60940.53
577.75	60706.47
577.92	60938.19
578.08	60921.80
578.24	60853.93
578.40	60994.36
578.56	60963.93
578.72	60837.54
578.88	61059.90
579.04	61059.90
579.21	60893.72
579.37	61080.96
579.53	61078.62
579.69	60683.07
579.85	61031.81
580.01	60706.47
580.17	60865.63
580.33	60793.07
580.49	61052.87
580.65	61022.45
580.82	61174.58
580.98	60837.54
581.14	61029.47
581.30	61090.32
581.46	60800.10
581.62	60858.61
581.78	60636.26
581.94	61123.09
582.10	60800.10
582.26	60954.57
582.42	60865.63
582.58	60903.08
582.74	60889.04
582.90	61029.47
583.06	61022.45
583.22	60846.91
583.38	61111.39
583.54	60839.89
583.70	61001.38
583.86	61249.48
584.02	60952.23
584.18	60999.04
584.34	61106.71
584.50	61155.86
584.66	60968.61
584.82	60846.91
584.98	61041.17
585.14	61183.94
585.30	61041.17
585.46	60945.21
585.62	61132.45
585.78	61219.05
585.94	60769.67
586.10	61097.34
586.26	60772.01
586.42	60992.02
586.58	61268.20
586.74	61127.77
586.90	61172.24
587.06	61125.43
587.22	61254.16
587.38	60973.30
587.54	61228.41
587.70	61368.85
587.86	61197.99
588.02	61188.63
588.18	61293.95
588.34	61324.38
