SpectraSuite Data File
++++++++++++++++++++++++++++++++++++
Date: Fri Oct 25 10:47:55 EDT 2013
User: price-jones
Dark Spectrum Present: No
Reference Spectrum Present: No
Number of Sampled Component Spectra: 1
Spectrometers: USB2+H05261
Integration Time (usec): 100000 (USB2+H05261)
Spectra Averaged: 1 (USB2+H05261)
Boxcar Smoothing: 0 (USB2+H05261)
Correct for Electrical Dark: No (USB2+H05261)
Strobe/Lamp Enabled: No (USB2+H05261)
Correct for Detector Non-linearity: No (USB2+H05261)
Correct for Stray Light: No (USB2+H05261)
Number of Pixels in Processed Spectrum: 2048
>>>>>Begin Processed Spectral Data<<<<<
365.73	121.71
365.92	121.71
366.12	121.71
366.32	28.09
366.52	0.00
366.72	0.00
366.91	0.00
367.11	18.72
367.31	0.00
367.51	37.45
367.70	4.68
367.90	35.11
368.10	18.72
368.30	30.43
368.49	65.54
368.69	117.03
368.89	28.09
369.09	42.13
369.28	67.88
369.48	42.13
369.68	72.56
369.87	56.17
370.07	51.49
370.27	112.35
370.47	196.60
370.66	348.74
370.86	409.59
371.06	475.13
371.25	463.43
371.45	402.57
371.65	433.00
371.84	456.40
372.04	461.09
372.24	430.66
372.44	449.38
372.63	479.81
372.83	521.94
373.03	454.06
373.22	533.64
373.42	510.24
373.62	404.91
373.81	519.60
374.01	479.81
374.21	594.50
374.40	519.60
374.60	704.50
374.79	559.39
374.99	519.60
375.19	594.50
375.38	568.75
375.58	500.87
375.78	613.22
375.97	608.54
376.17	594.50
376.37	547.69
376.56	510.24
376.76	557.05
376.95	594.50
377.15	622.58
377.35	622.58
377.54	650.67
377.74	603.86
377.93	589.82
378.13	538.32
378.33	613.22
378.52	608.54
378.72	617.90
378.91	638.97
379.11	620.24
379.31	566.41
379.50	641.31
379.70	631.94
379.89	690.46
380.09	690.46
380.28	627.26
380.48	727.91
380.68	662.37
380.87	641.31
381.07	753.65
381.26	760.67
381.46	688.12
381.65	636.63
381.85	688.12
382.04	671.73
382.24	676.41
382.43	615.56
382.63	678.76
382.83	641.31
383.02	716.20
383.22	744.29
383.41	690.46
383.61	695.14
383.80	730.25
384.00	706.84
384.19	755.99
384.39	702.16
384.58	751.31
384.78	755.99
384.97	791.10
385.17	781.74
385.36	798.12
385.56	798.12
385.75	777.06
385.95	802.80
386.14	788.76
386.34	753.65
386.53	814.51
386.72	777.06
386.92	905.79
387.11	800.46
387.31	718.54
387.50	816.85
387.70	905.79
387.89	786.42
388.09	922.17
388.28	840.25
388.48	873.02
388.67	905.79
388.86	929.19
389.06	856.64
389.25	917.49
389.45	842.59
389.64	821.53
389.84	922.17
390.03	884.72
390.22	915.15
390.42	933.87
390.61	809.83
390.81	917.49
391.00	954.94
391.19	990.05
391.39	1008.77
391.58	959.62
391.78	1083.67
391.97	1053.24
392.16	926.85
392.36	1046.22
392.55	1015.79
392.75	957.28
392.94	903.45
393.13	985.37
393.33	933.87
393.52	1015.79
393.71	1107.07
393.91	1076.65
394.10	1032.18
394.29	1107.07
394.49	1057.92
394.68	1100.05
394.88	1181.97
395.07	1137.50
395.26	1104.73
395.46	1029.84
395.65	1067.28
395.84	1158.57
396.04	1146.86
396.23	1158.57
396.42	1132.82
396.62	1149.20
396.81	1123.46
397.00	1107.07
397.19	1179.63
397.39	1301.34
397.58	1193.67
397.77	1221.76
397.97	1294.32
398.16	1320.06
398.35	1315.38
398.55	1263.89
398.74	1226.44
398.93	1348.15
399.12	1313.04
399.32	1268.57
399.51	1341.13
399.70	1387.94
399.90	1313.04
400.09	1460.49
400.28	1432.41
400.47	1331.76
400.67	1441.77
400.86	1404.32
401.05	1439.43
401.24	1383.26
401.44	1472.20
401.63	1540.07
401.82	1621.99
402.01	1547.09
402.21	1488.58
402.40	1565.82
402.59	1430.07
402.78	1544.75
402.97	1685.19
403.17	1493.26
403.36	1535.39
403.55	1556.46
403.74	1565.82
403.93	1647.74
404.13	1650.08
404.32	1593.90
404.51	1668.80
404.70	1739.02
404.89	1675.82
405.09	1732.00
405.28	1769.44
405.47	1703.91
405.66	1764.76
405.85	1764.76
406.05	1724.97
406.24	1769.44
406.43	1879.45
406.62	1867.75
406.81	1973.07
407.00	1788.17
407.20	1839.66
407.39	1837.32
407.58	1858.39
407.77	1839.66
407.96	1984.77
408.15	1914.56
408.34	1933.28
408.54	1961.37
408.73	1928.60
408.92	2045.63
409.11	1977.75
409.30	1968.39
409.49	2062.01
409.68	2043.29
409.87	2099.46
410.07	2115.84
410.26	2148.61
410.45	2160.31
410.64	2122.87
410.83	2232.87
411.02	2150.95
411.21	2195.42
411.40	2209.47
411.59	2328.83
411.78	2377.98
411.98	2317.13
412.17	2338.20
412.36	2363.94
412.55	2380.32
412.74	2483.31
412.93	2436.50
413.12	2401.39
413.31	2544.16
413.50	2450.54
413.69	2420.11
413.88	2429.48
414.07	2532.46
414.26	2583.95
414.45	2593.31
414.64	2546.50
414.83	2661.19
415.02	2663.53
415.22	2813.32
415.41	2778.22
415.60	2693.96
415.79	2822.69
415.98	2935.03
416.17	2759.49
416.36	2944.39
416.55	2846.09
416.74	2972.48
416.93	2810.98
417.12	2834.39
417.31	2871.84
417.50	2953.76
417.69	3035.67
417.88	3016.95
418.07	3054.40
418.26	3084.83
418.45	3119.93
418.64	3164.40
418.83	3138.66
419.02	3173.77
419.21	3194.83
419.39	3105.89
419.58	3236.96
419.77	3045.04
419.96	3190.15
420.15	3229.94
420.34	3286.11
420.53	3379.73
420.72	3346.97
420.91	3482.72
421.10	3368.03
421.29	3412.50
421.48	3452.29
421.67	3391.44
421.86	3386.76
422.05	3534.21
422.24	3513.14
422.43	3410.16
422.61	3433.57
422.80	3520.17
422.99	3604.42
423.18	3531.87
423.37	3655.92
423.56	3545.91
423.75	3510.80
423.94	3527.19
424.13	3307.18
424.32	3478.04
424.50	3545.91
424.69	3590.38
424.88	3527.19
425.07	3517.83
425.26	3581.02
425.45	3522.51
425.64	3531.87
425.83	3648.90
426.01	3747.20
426.20	3559.95
426.39	3574.00
426.58	3574.00
426.77	3508.46
426.96	3686.34
427.15	3688.68
427.33	3662.94
427.52	3618.47
427.71	3581.02
427.90	3695.71
428.09	3655.92
428.28	3824.44
428.46	3756.56
428.65	3667.62
428.84	3808.05
429.03	3873.59
429.22	3709.75
429.40	3801.03
429.59	3756.56
429.78	3693.37
429.97	3672.30
430.16	3667.62
430.34	3824.44
430.53	3880.61
430.72	3803.37
430.91	3822.09
431.10	3960.19
431.28	3999.98
431.47	3995.29
431.66	4105.30
431.85	4154.45
432.03	4093.60
432.22	4149.77
432.41	4208.28
432.60	4278.50
432.79	4196.58
432.97	4278.50
433.16	4325.31
433.35	4250.41
433.54	4367.44
433.72	4243.39
433.91	4236.37
434.10	4301.90
434.28	4322.97
434.47	4365.10
434.66	4465.74
434.85	4416.59
435.03	4428.29
435.22	4369.78
435.41	4648.30
435.59	4416.59
435.78	4386.16
435.97	4657.67
436.16	4601.49
436.34	4423.61
436.53	4617.88
436.72	4697.46
436.90	4685.75
437.09	4727.88
437.28	4711.50
437.46	4589.79
437.65	4674.05
437.84	4819.16
438.02	4674.05
438.21	4730.22
438.40	4652.98
438.58	4901.08
438.77	4849.59
438.96	4884.70
439.14	5008.75
439.33	5015.77
439.52	4940.87
439.70	5041.51
439.89	5151.52
440.08	5287.27
440.26	5233.44
440.45	5245.14
440.63	5167.90
440.82	5577.50
441.01	5231.10
441.19	5586.86
441.38	5465.15
441.57	5488.56
441.75	5423.02
441.94	5802.19
442.12	5563.45
442.31	5657.07
442.50	5638.35
442.68	5717.93
442.87	5687.50
443.05	5612.60
443.24	5804.53
443.43	5659.42
443.61	5720.27
443.80	6054.97
443.98	5724.95
444.17	5673.46
444.35	5860.70
444.54	5891.13
444.73	5760.06
444.91	5867.72
445.10	5870.06
445.28	5802.19
445.47	5837.30
445.65	5898.15
445.84	5696.86
446.02	5926.24
446.21	5916.87
446.39	5891.13
446.58	5968.37
446.77	5942.62
446.95	5984.75
447.14	5956.66
447.32	6150.93
447.51	5874.74
447.69	5956.66
447.88	6040.92
448.06	5996.45
448.25	5977.73
448.43	6038.58
448.62	6111.14
448.80	5888.79
448.99	6171.99
449.17	6143.91
449.36	6087.73
449.54	6314.77
449.73	6303.06
449.91	6363.92
450.10	6373.28
450.28	6555.84
450.46	6448.18
450.65	6562.86
450.83	6345.19
451.02	6377.96
451.20	6441.15
451.39	6469.24
451.57	6331.15
451.76	6562.86
451.94	6429.45
452.13	6633.08
452.31	6530.09
452.49	6511.37
452.68	6487.96
452.86	6693.93
453.05	6544.14
453.23	6604.99
453.42	6497.33
453.60	6665.85
453.78	6530.09
453.97	6537.12
454.15	6686.91
454.34	6670.53
454.52	6834.36
454.70	6703.29
454.89	6803.94
455.07	6848.41
455.26	6787.55
455.44	6881.18
455.62	6939.69
455.81	6888.20
455.99	6965.43
456.17	7073.10
456.36	7040.33
456.54	7094.16
456.73	6986.50
456.91	7297.79
457.09	7145.66
457.28	7342.26
457.46	7145.66
457.64	7349.28
457.83	7412.48
458.01	7199.49
458.19	7489.71
458.38	7218.21
458.56	7281.41
458.74	7541.21
458.93	7456.95
459.11	7236.94
459.29	7344.60
459.48	7688.66
459.66	7531.84
459.84	7637.17
460.03	7667.60
460.21	7803.35
460.39	7545.89
460.57	7796.32
460.76	7662.91
460.94	7791.64
461.12	7712.07
461.31	7789.30
461.49	7784.62
461.67	7737.81
461.85	7808.03
462.04	7896.97
462.22	8248.05
462.40	8065.49
462.59	8028.04
462.77	8002.29
462.95	7932.08
463.13	7854.84
463.32	7964.84
463.50	8119.32
463.68	8088.89
463.86	8259.75
464.05	8032.72
464.23	8058.46
464.41	8252.73
464.59	7840.79
464.78	8322.94
464.96	8149.75
465.14	8191.88
465.32	8311.24
465.50	8156.77
465.69	8369.76
465.87	8264.43
466.05	8425.93
466.23	8353.37
466.41	8549.98
466.60	8624.87
466.78	8353.37
466.96	8449.33
467.14	8468.06
467.32	8648.28
467.51	8540.61
467.69	8287.84
467.87	8397.84
468.05	8505.51
468.23	8580.40
468.41	8418.91
468.60	8557.00
468.78	8945.53
468.96	8671.68
469.14	8774.67
469.32	8758.28
469.50	8564.02
469.69	8924.46
469.87	8901.06
470.05	8957.23
470.23	8940.85
470.41	9069.58
470.59	9081.28
470.77	8837.86
470.95	8926.80
471.14	9186.60
471.32	8947.87
471.50	9142.13
471.68	9268.52
471.86	9514.28
472.04	9472.15
472.22	9561.09
472.40	9298.95
472.58	9500.23
472.77	9404.27
472.95	9699.18
473.13	9790.46
473.31	9685.14
473.49	9455.76
473.67	9600.88
473.85	9816.21
474.03	9682.80
474.21	9757.69
474.39	9980.04
474.57	9912.17
474.75	10139.20
474.93	10181.33
475.12	9956.64
475.30	10193.03
475.48	10195.37
475.66	10286.65
475.84	10195.37
476.02	10471.56
476.20	10239.84
476.38	10651.78
476.56	10609.65
476.74	10726.68
476.92	10541.77
477.10	10736.04
477.28	10895.19
477.46	10885.83
477.64	10988.82
477.82	11248.61
478.00	11241.59
478.18	11363.30
478.36	11524.80
478.54	11683.95
478.72	11412.45
478.90	11639.48
479.08	11728.42
479.26	11758.85
479.44	12109.93
479.62	11777.58
479.80	11918.01
479.98	12255.04
480.16	12180.15
480.34	12098.23
480.52	12592.08
480.70	12491.44
480.88	12444.63
481.06	12498.46
481.24	12690.38
481.41	13060.19
481.59	13008.70
481.77	13172.54
481.95	13200.62
482.13	13364.46
482.31	13209.98
482.49	13380.84
482.67	13523.62
482.85	13820.86
483.03	13767.03
483.21	13830.23
483.39	13954.27
483.57	13799.80
483.74	14111.09
483.92	14499.62
484.10	14328.76
484.28	14450.47
484.46	14787.50
484.64	14831.97
484.82	14384.93
485.00	14953.68
485.18	15026.24
485.35	15384.34
485.53	14857.72
485.71	15051.99
485.89	15318.81
486.07	15082.41
486.25	15197.10
486.43	15456.90
486.61	15655.84
486.78	15829.04
486.96	15761.17
487.14	16252.68
487.32	16285.45
487.50	16570.99
487.68	16578.01
487.85	16798.02
488.03	16767.60
488.21	16844.84
488.39	17048.46
488.57	16961.86
488.75	17179.53
488.92	17715.51
489.10	17600.83
489.28	17795.09
489.46	17776.37
489.64	17762.33
489.81	18572.15
489.99	18293.63
490.17	18539.38
490.35	18637.69
490.53	18813.23
490.70	18927.91
490.88	18754.71
491.06	19016.85
491.24	18918.55
491.41	19426.45
491.59	19145.58
491.77	19267.29
491.95	19386.66
492.13	19826.68
492.30	19693.27
492.48	19719.01
492.66	20149.67
492.84	19892.21
493.01	20011.58
493.19	20318.19
493.37	20652.89
493.54	20570.97
493.72	20741.83
493.90	20746.51
494.08	20985.24
494.25	21252.06
494.43	21174.83
494.61	21607.83
494.79	21057.80
494.96	21383.13
495.14	21462.71
495.32	21818.47
495.49	21685.06
495.67	21989.33
495.85	21916.78
496.02	22225.73
496.20	22115.72
496.38	22424.67
496.55	22405.95
496.73	22974.70
496.91	22614.26
497.09	22955.97
497.26	22848.31
497.44	22977.04
497.62	22890.44
497.79	23550.47
497.97	23147.90
498.14	23562.17
498.32	23536.43
498.50	23726.01
498.67	23934.32
498.85	23894.53
499.03	24283.06
499.20	24180.07
499.38	23948.36
499.56	24226.89
499.73	24266.67
499.91	24177.73
500.08	24493.71
500.26	24386.04
500.44	24444.56
500.61	24844.79
500.79	24762.87
500.97	24915.00
501.14	25202.89
501.32	25228.63
501.49	25315.23
501.67	25238.00
501.84	25462.69
502.02	25221.61
502.20	25652.27
502.37	25851.22
502.55	25694.40
502.72	25926.11
502.90	25773.98
503.07	25671.00
503.25	26155.49
503.43	25905.05
503.60	26272.51
503.78	26251.45
503.95	26057.18
504.13	26658.70
504.30	26761.69
504.48	26415.29
504.65	26567.42
504.83	26792.11
505.01	27199.37
505.18	26867.01
505.36	27300.01
505.53	27054.25
505.71	27571.51
505.88	27442.78
506.06	27124.47
506.23	27543.42
506.41	27632.36
506.58	27606.62
506.76	27618.32
506.93	28107.49
507.11	27866.42
507.28	27704.92
507.46	27948.34
507.63	27864.08
507.81	28322.82
507.98	28130.90
508.16	28472.62
508.33	28128.56
508.50	28535.81
508.68	28610.71
508.85	28854.12
509.03	28662.20
509.20	28875.19
509.38	29127.97
509.55	29254.36
509.73	29340.96
509.90	29109.24
510.08	29249.67
510.25	28914.98
510.42	29692.04
510.60	29663.95
510.77	29647.57
510.95	29804.38
511.12	29766.93
511.30	29785.66
511.47	29858.21
511.64	29937.79
511.82	30155.46
511.99	30073.54
512.17	30373.13
512.34	29888.64
512.51	30272.49
512.69	30422.28
512.86	30478.46
513.04	30930.18
513.21	30754.64
513.38	31016.78
513.56	31140.83
513.73	30511.22
513.90	30724.21
514.08	30679.74
514.25	31239.13
514.43	31122.10
514.60	31063.59
514.77	31236.79
514.95	31377.22
515.12	31351.48
515.29	31693.19
515.47	31857.03
515.64	32023.21
515.81	31325.73
515.99	31730.64
516.16	31571.49
516.33	31683.83
516.51	31924.91
516.68	31622.98
516.85	31641.70
517.03	31634.68
517.20	31969.38
517.37	31470.84
517.54	32144.92
517.72	32346.20
517.89	31817.24
518.06	31971.72
518.24	32528.77
518.41	32430.46
518.58	32510.04
518.75	32496.00
518.93	32769.84
519.10	32467.91
519.27	32905.59
519.45	33141.99
519.62	33179.43
519.79	33432.21
519.96	33282.42
520.14	33347.95
520.31	33137.30
520.48	33408.81
520.65	33670.95
520.83	33680.31
521.00	33933.09
521.17	33429.87
521.34	33769.25
521.52	33762.23
521.69	33645.20
521.86	33830.10
522.03	34211.61
522.20	33748.18
522.38	34125.01
522.55	34340.34
522.72	34539.29
522.89	34139.05
523.07	34141.39
523.24	34071.18
523.41	34660.99
523.58	34024.37
523.75	34911.43
523.92	34946.54
524.10	35005.05
524.27	34623.54
524.44	35091.65
524.61	35119.74
524.78	35253.15
524.96	35459.12
525.13	35276.55
525.30	35765.73
525.47	35587.85
525.64	35388.90
525.81	35824.24
525.98	35541.03
526.16	34998.03
526.33	35005.05
526.50	35449.75
526.67	35075.27
526.84	35253.15
527.01	35360.81
527.18	35744.66
527.36	35852.33
527.53	36011.48
527.70	36250.22
527.87	36189.36
528.04	36093.40
528.21	36077.02
528.38	35992.76
528.55	36421.08
528.72	36470.23
528.89	36882.16
529.07	36229.15
529.24	36189.36
529.41	36641.09
529.58	36767.48
529.75	36531.08
529.92	36765.14
530.09	37158.34
530.26	36708.96
530.43	36973.44
530.60	36641.09
530.77	37111.53
530.94	37048.34
531.11	36840.03
531.28	37102.17
531.46	37223.88
531.63	36985.15
531.80	37752.84
531.97	37729.44
532.14	37481.34
532.31	36891.52
532.48	37137.28
532.65	37797.31
532.82	37677.94
532.99	37586.66
533.16	37422.83
533.33	37668.58
533.50	38047.75
533.67	37961.15
533.84	37521.13
534.01	37888.59
534.18	37883.91
534.35	38443.30
534.52	37968.17
534.69	37872.21
534.86	37947.11
535.03	38040.73
535.20	38295.85
535.37	38457.34
535.54	38384.79
535.71	38139.03
535.88	38117.96
536.05	38237.33
536.22	38602.46
536.38	39014.39
536.55	38897.36
536.72	38593.09
536.89	38525.22
537.06	38712.46
537.23	38691.40
537.40	39063.54
537.57	38866.94
537.74	38768.63
537.91	39260.15
538.08	39180.57
538.25	38944.17
538.42	39281.21
538.59	39276.53
538.75	38546.28
538.92	38888.00
539.09	38864.60
539.26	39187.59
539.43	39192.27
539.60	39606.55
539.77	38780.34
539.94	39526.97
540.11	39419.30
540.28	39466.11
540.44	39562.08
540.61	39250.78
540.78	39072.90
540.95	39367.81
541.12	39519.95
541.29	39358.45
541.46	39714.21
541.62	39416.96
541.79	40154.23
541.96	39391.22
542.13	39765.70
542.30	39608.89
542.47	39831.24
542.63	39819.53
542.80	40226.79
542.97	40706.60
543.14	40818.94
543.31	40076.99
543.48	40535.74
543.64	41163.00
543.81	40832.99
543.98	40694.89
544.15	40865.75
544.32	41043.63
544.48	41177.04
544.65	40706.60
544.82	40996.82
544.99	40533.40
545.16	40896.18
545.32	40540.42
545.49	41202.79
545.66	41247.26
545.83	41298.75
546.00	41212.15
546.16	41137.26
546.33	41045.97
546.50	40739.36
546.67	41385.35
546.83	40865.75
547.00	41478.97
547.17	41586.64
547.34	41387.69
547.50	41378.33
547.67	41851.12
547.84	41598.34
548.00	41638.13
548.17	41701.32
548.34	41343.22
548.51	41808.99
548.67	42019.64
548.84	41979.85
549.01	41612.38
549.18	41647.49
549.34	41680.26
549.51	41350.24
549.68	41923.68
549.84	42045.38
550.01	42178.79
550.18	41530.47
550.34	41787.92
550.51	41624.09
550.68	41979.85
550.84	41680.26
551.01	42012.62
551.18	41858.14
551.34	41717.71
551.51	42305.18
551.68	42260.71
551.84	42117.94
552.01	42073.47
552.18	42241.99
552.34	42003.25
552.51	42176.45
552.68	42314.55
552.84	42639.88
553.01	43037.77
553.18	42473.70
553.34	42167.09
553.51	42347.31
553.67	42209.22
553.84	43103.31
554.01	42677.33
554.17	42534.56
554.34	43217.99
554.51	42677.33
554.67	43058.84
554.84	42747.54
555.00	42822.44
555.17	42557.96
555.33	42969.90
555.50	42808.40
555.67	42543.92
555.83	42696.05
556.00	43112.67
556.16	43585.46
556.33	43262.46
556.50	43005.00
556.66	43257.78
556.83	42682.01
556.99	43196.93
557.16	43360.76
557.32	43515.24
557.49	43110.33
557.65	42845.85
557.82	43405.23
557.98	43452.05
558.15	43653.33
558.32	43629.93
558.48	43199.27
558.65	43217.99
558.81	43372.47
558.98	43147.78
559.14	43185.22
559.31	43386.51
559.47	43688.44
559.64	43669.72
559.80	43538.65
559.97	43487.15
560.13	43438.00
560.30	43290.55
560.46	43290.55
560.63	43264.80
560.79	43737.59
560.96	43737.59
561.12	43601.84
561.29	43454.39
561.45	43697.80
561.61	43842.92
561.78	43622.90
561.94	43966.96
562.11	43821.85
562.27	43545.67
562.44	43662.69
562.60	43770.36
562.77	44105.06
562.93	43236.72
563.10	43885.04
563.26	44259.53
563.42	43622.90
563.59	43861.64
563.75	43723.55
563.92	44318.04
564.08	43562.05
564.24	43604.18
564.41	43910.79
564.57	43945.90
564.74	43840.57
564.90	44086.33
565.07	43831.21
565.23	44065.27
565.39	43835.89
565.56	44341.45
565.72	44278.25
565.88	43997.39
566.05	43592.48
566.21	43842.92
566.38	43854.62
566.54	43782.06
566.70	44390.60
566.87	44364.85
567.03	44098.03
567.19	44790.83
567.36	44086.33
567.52	44034.84
567.68	44231.44
567.85	43969.30
568.01	44107.40
568.17	44259.53
568.34	44360.17
568.50	44250.17
568.66	44638.70
568.83	44524.01
568.99	43772.70
569.15	44018.46
569.32	44332.09
569.48	44037.18
569.64	44465.50
569.81	44556.78
569.97	44130.80
570.13	44451.45
570.30	43997.39
570.46	44381.24
570.62	43782.06
570.78	44313.36
570.95	43552.69
571.11	44388.26
571.27	43931.86
571.43	44495.92
571.60	44519.33
571.76	44282.94
571.92	44465.50
572.09	44428.05
572.25	44292.30
572.41	43704.82
572.57	44378.90
572.74	44917.22
572.90	44488.90
573.06	44158.89
573.22	44741.68
573.38	44488.90
573.55	44369.54
573.71	44622.31
573.87	44179.95
574.03	44336.77
574.20	44509.97
574.36	44243.15
574.52	44662.10
574.68	44795.51
574.84	44987.44
575.01	44507.63
575.17	44697.21
575.33	44577.84
575.49	44177.61
575.65	44727.64
575.82	44776.79
575.98	44432.73
576.14	44767.43
576.30	44449.11
576.46	44341.45
576.62	44507.63
576.79	44414.01
576.95	43847.60
577.11	44500.61
577.27	44570.82
577.43	44446.77
577.59	44498.26
577.75	44526.35
577.92	44296.98
578.08	44259.53
578.24	44409.32
578.40	44484.22
578.56	44781.47
578.72	44378.90
578.88	44821.26
579.04	44729.98
579.21	44573.16
579.37	44037.18
579.53	44828.28
579.69	44364.85
579.85	43990.37
580.01	44610.61
580.17	44823.60
580.33	45146.59
580.49	44343.79
580.65	44861.05
580.82	44327.41
580.98	44549.76
581.14	44481.88
581.30	44863.39
581.46	44861.05
581.62	44697.21
581.78	44479.54
581.94	45162.98
582.10	44795.51
582.26	45188.72
582.42	44875.09
582.58	44406.98
582.74	44666.78
582.90	44725.30
583.06	44854.03
583.22	44959.35
583.38	44804.88
583.54	44629.34
583.70	44849.35
583.86	44879.77
584.02	43910.79
584.18	44673.81
584.34	44591.89
584.50	44463.16
584.66	44280.60
584.82	44610.61
584.98	45162.98
585.14	44615.29
585.30	44432.73
585.46	44861.05
585.62	44399.96
585.78	45055.31
585.94	44292.30
586.10	44924.24
586.26	44526.35
586.42	44526.35
586.58	45338.52
586.74	45130.21
586.90	44484.22
587.06	44657.42
587.22	44809.56
587.38	44390.60
587.54	45216.81
587.70	45357.24
587.86	44793.17
588.02	44355.49
588.18	45179.36
588.34	44910.20
588.49	44666.78
588.65	44584.86
588.81	44156.55
588.97	44999.14
589.13	44715.93
589.29	44655.08
589.45	44779.13
589.61	45305.75
589.77	45081.06
589.93	44807.22
590.08	44973.39
590.24	44858.71
