SpectraSuite Data File
++++++++++++++++++++++++++++++++++++
Date: Fri Oct 25 10:43:52 EDT 2013
User: price-jones
Dark Spectrum Present: No
Reference Spectrum Present: No
Number of Sampled Component Spectra: 1
Spectrometers: USB2+H05261
Integration Time (usec): 100000 (USB2+H05261)
Spectra Averaged: 1 (USB2+H05261)
Boxcar Smoothing: 0 (USB2+H05261)
Correct for Electrical Dark: No (USB2+H05261)
Strobe/Lamp Enabled: No (USB2+H05261)
Correct for Detector Non-linearity: No (USB2+H05261)
Correct for Stray Light: No (USB2+H05261)
Number of Pixels in Processed Spectrum: 2048
>>>>>Begin Processed Spectral Data<<<<<
365.73	126.39
365.92	126.39
366.12	126.39
366.32	35.11
366.52	25.75
366.72	63.19
366.91	16.38
367.11	70.22
367.31	18.72
367.51	93.62
367.70	0.00
367.90	44.47
368.10	11.70
368.30	16.38
368.49	0.00
368.69	95.96
368.89	110.01
369.09	0.00
369.28	0.00
369.48	58.51
369.68	39.79
369.87	149.79
370.07	72.56
370.27	173.20
370.47	147.45
370.66	330.02
370.86	503.22
371.06	463.43
371.25	507.90
371.45	482.15
371.65	512.58
371.84	479.81
372.04	472.79
372.24	479.81
372.44	521.94
372.63	500.87
372.83	538.32
373.03	521.94
373.22	475.13
373.42	477.47
373.62	477.47
373.81	517.26
374.01	580.45
374.21	580.45
374.40	543.00
374.60	535.98
374.79	543.00
374.99	615.56
375.19	674.07
375.38	564.07
375.58	510.24
375.78	580.45
375.97	554.71
376.17	674.07
376.37	578.11
376.56	610.88
376.76	573.43
376.95	512.58
377.15	669.39
377.35	601.52
377.54	636.63
377.74	655.35
377.93	718.54
378.13	683.44
378.33	702.16
378.52	624.92
378.72	692.80
378.91	695.14
379.11	734.93
379.31	690.46
379.50	653.01
379.70	739.61
379.89	688.12
380.09	608.54
380.28	667.05
380.48	650.67
380.68	653.01
380.87	678.76
381.07	709.18
381.26	695.14
381.46	746.63
381.65	737.27
381.85	795.78
382.04	692.80
382.24	648.33
382.43	830.89
382.63	676.41
382.83	676.41
383.02	779.40
383.22	702.16
383.41	709.18
383.61	723.23
383.80	725.57
384.00	777.06
384.19	798.12
384.39	854.30
384.58	748.97
384.78	779.40
384.97	854.30
385.17	758.33
385.36	800.46
385.56	826.21
385.75	851.96
385.95	800.46
386.14	875.36
386.34	800.46
386.53	875.36
386.72	816.85
386.92	912.81
387.11	823.87
387.31	873.02
387.50	882.38
387.70	959.62
387.89	854.30
388.09	908.13
388.28	800.46
388.48	880.04
388.67	973.66
388.86	940.90
389.06	964.30
389.25	997.07
389.45	1001.75
389.64	929.19
389.84	1027.50
390.03	1062.60
390.22	994.73
390.42	1006.43
390.61	1111.75
390.81	1062.60
391.00	1118.78
391.19	1078.99
391.39	1053.24
391.58	1198.35
391.78	1057.92
391.97	1081.33
392.16	1071.97
392.36	1104.73
392.55	1064.94
392.75	1109.41
392.94	1018.13
393.13	990.05
393.33	1062.60
393.52	1137.50
393.71	1153.88
393.91	1193.67
394.10	1130.48
394.29	1144.52
394.49	1144.52
394.68	1240.48
394.88	1158.57
395.07	1245.16
395.26	1268.57
395.46	1231.12
395.65	1284.95
395.84	1308.36
396.04	1334.11
396.23	1207.72
396.42	1238.14
396.62	1242.82
396.81	1165.59
397.00	1331.76
397.19	1345.81
397.39	1425.39
397.58	1394.96
397.77	1406.66
397.97	1504.96
398.16	1437.09
398.35	1530.71
398.55	1549.43
398.74	1486.24
398.93	1593.90
399.12	1617.31
399.32	1533.05
399.51	1568.16
399.70	1617.31
399.90	1682.85
400.09	1638.38
400.28	1699.23
400.47	1556.46
400.67	1668.80
400.86	1788.17
401.05	1727.32
401.24	1687.53
401.44	1696.89
401.63	1760.08
401.82	1767.10
402.01	1797.53
402.21	1823.28
402.40	1834.98
402.59	1790.51
402.78	1813.92
402.97	1746.04
403.17	1905.20
403.36	1832.64
403.55	1898.17
403.74	1874.77
403.93	1933.28
404.13	1947.33
404.32	1874.77
404.51	1842.00
404.70	1980.09
404.89	1956.69
405.09	1935.62
405.28	2113.50
405.47	2080.74
405.66	2036.27
405.85	1989.46
406.05	2087.76
406.24	2090.10
406.43	2038.61
406.62	2134.57
406.81	2195.42
407.00	2087.76
407.20	2146.27
407.39	2153.29
407.58	2188.40
407.77	2298.41
407.96	2251.60
408.15	2314.79
408.34	2251.60
408.54	2349.90
408.73	2235.21
408.92	2342.88
409.11	2408.41
409.30	2333.51
409.49	2359.26
409.68	2265.64
409.87	2321.81
410.07	2392.03
410.26	2363.94
410.45	2420.11
410.64	2534.80
410.83	2565.23
411.02	2626.08
411.21	2801.62
411.40	2710.34
411.59	2691.62
411.78	2679.91
411.98	2757.15
412.17	2698.64
412.36	2815.66
412.55	2813.32
412.74	2867.16
412.93	2757.15
413.12	2836.73
413.31	2925.67
413.50	2993.55
413.69	2876.52
413.88	2906.95
414.07	3047.38
414.26	2977.16
414.45	3077.80
414.64	3159.72
414.83	3096.53
415.02	3000.57
415.22	3222.92
415.41	3152.70
415.60	3176.11
415.79	3325.90
415.98	3286.11
416.17	3344.63
416.36	3323.56
416.55	3365.69
416.74	3351.65
416.93	3358.67
417.12	3438.25
417.31	3410.16
417.50	3398.46
417.69	3403.14
417.88	3555.27
418.07	3496.76
418.26	3559.95
418.45	3602.08
418.64	3639.53
418.83	3735.50
419.02	3728.47
419.21	3684.00
419.39	3770.60
419.58	3590.38
419.77	3639.53
419.96	3854.86
420.15	3716.77
420.34	3681.66
420.53	3885.29
420.72	3932.10
420.91	3754.22
421.10	3911.04
421.29	4119.34
421.48	3833.80
421.67	3976.57
421.86	3857.20
422.05	3751.88
422.24	3969.55
422.43	4074.87
422.61	3969.55
422.80	3995.29
422.99	4023.38
423.18	4063.17
423.37	4128.70
423.56	4023.38
423.75	4016.36
423.94	3990.61
424.13	3838.48
424.32	3864.22
424.50	4065.51
424.69	4219.99
424.88	4212.96
425.07	3962.53
425.26	3789.33
425.45	4035.08
425.64	3985.93
425.83	3978.91
426.01	4257.43
426.20	4177.86
426.39	4152.11
426.58	4191.90
426.77	4135.73
426.96	3981.25
427.15	4058.49
427.33	4264.46
427.52	4166.15
427.71	4266.80
427.90	4332.33
428.09	4119.34
428.28	4231.69
428.46	4224.67
428.65	4346.37
428.84	4311.27
429.03	4397.87
429.22	4184.88
429.40	4339.35
429.59	4227.01
429.78	4081.89
429.97	4039.76
430.16	4198.92
430.34	4095.94
430.53	4290.20
430.72	4180.20
430.91	4306.59
431.10	4486.81
431.28	4676.39
431.47	4870.65
431.66	4868.31
431.85	4681.07
432.03	4688.09
432.22	4793.42
432.41	4690.43
432.60	4676.39
432.79	4877.68
432.97	4840.23
433.16	4933.85
433.35	4788.74
433.54	4732.56
433.72	4800.44
433.91	4837.89
434.10	4739.58
434.28	4840.23
434.47	5015.77
434.66	4905.76
434.85	5022.79
435.03	5123.43
435.22	4952.57
435.41	5181.95
435.59	5362.17
435.78	5200.67
435.97	5207.69
436.16	5228.76
436.34	5317.70
436.53	5338.76
436.72	5514.30
436.90	5226.42
437.09	5305.99
437.28	5268.55
437.46	5355.15
437.65	5303.65
437.84	5043.85
438.02	5266.21
438.21	5135.14
438.40	5200.67
438.58	5467.49
438.77	5614.95
438.96	5500.26
439.14	5610.26
439.33	5701.54
439.52	5486.22
439.70	5755.38
439.89	5790.49
440.08	5727.29
440.26	5820.91
440.45	5839.64
440.63	5933.26
440.82	6181.35
441.01	5956.66
441.19	6047.94
441.38	6176.67
441.57	6195.40
441.75	6396.68
441.94	6448.18
442.12	6394.34
442.31	6532.44
442.50	6487.96
442.68	6487.96
442.87	6661.16
443.05	6516.05
443.24	6525.41
443.43	6590.95
443.61	6640.10
443.80	6876.49
443.98	6548.82
444.17	6436.47
444.35	6789.89
444.54	6782.87
444.73	6745.42
444.91	6579.25
445.10	6626.06
445.28	6619.04
445.47	6616.69
445.65	6462.22
445.84	6626.06
446.02	6705.63
446.21	6539.46
446.39	6726.70
446.58	6944.37
446.77	6909.26
446.95	6745.42
447.14	6843.73
447.32	6988.84
447.51	6822.66
447.69	6808.62
447.88	6988.84
448.06	6897.56
448.25	6984.16
448.43	7005.22
448.62	6619.04
448.80	6949.05
448.99	6888.20
449.17	6974.80
449.36	7054.37
449.54	7258.00
449.73	7236.94
449.91	7281.41
450.10	7384.39
450.28	7454.61
450.46	7344.60
450.65	7363.33
450.83	7494.40
451.02	7396.09
451.20	7276.73
451.39	7459.29
451.57	7330.56
451.76	7452.27
451.94	7428.86
452.13	7449.93
452.31	7234.60
452.49	7302.47
452.68	7375.03
452.86	7274.38
453.05	7351.62
453.23	7496.74
453.42	7438.22
453.60	7571.63
453.78	7805.69
453.97	7463.97
454.15	7625.47
454.34	7571.63
454.52	7585.68
454.70	7730.79
454.89	7730.79
455.07	7932.08
455.26	7740.15
455.44	8006.97
455.62	7988.25
455.81	7950.80
455.99	7918.03
456.17	8060.80
456.36	8049.10
456.54	7976.55
456.73	8039.74
456.91	8283.16
457.09	8259.75
457.28	8461.04
457.46	8313.58
457.64	8212.94
457.83	8308.90
458.01	8248.05
458.19	8524.23
458.38	8332.31
458.56	8692.75
458.74	8472.74
458.93	8386.14
459.11	8524.23
459.29	8334.65
459.48	8252.73
459.66	8294.86
459.84	8601.47
460.03	8704.45
460.21	8774.67
460.39	8713.81
460.57	8636.58
460.76	8748.92
460.94	9053.19
461.12	8879.99
461.31	8870.63
461.49	8833.18
461.67	9114.05
461.85	8851.91
462.04	8997.02
462.22	9296.61
462.40	9217.03
462.59	9233.41
462.77	9128.09
462.95	9174.90
463.13	9160.86
463.32	9195.96
463.50	9390.23
463.68	9092.98
463.86	9348.10
464.05	9085.96
464.23	9207.67
464.41	9247.46
464.59	9107.02
464.78	9371.50
464.96	9151.49
465.14	9305.97
465.32	9481.51
465.50	9476.83
465.69	9371.50
465.87	9591.52
466.05	9357.46
466.23	9310.65
466.41	9521.30
466.60	9542.36
466.78	9287.25
466.96	9453.42
467.14	9511.94
467.32	9633.64
467.51	9614.92
467.69	9540.02
467.87	9605.56
468.05	9703.86
468.23	9678.12
468.41	9703.86
468.60	9783.44
468.78	9851.31
468.96	9774.08
469.14	9809.19
469.32	10033.88
469.50	9717.90
469.69	9757.69
469.87	10015.15
470.05	9881.74
470.23	10026.86
470.41	10078.35
470.59	10132.18
470.77	10087.71
470.95	10216.44
471.14	10359.21
471.32	10235.16
471.50	10464.54
471.68	10209.42
471.86	10548.79
472.04	10691.57
472.22	10764.12
472.40	10209.42
472.58	10817.96
472.77	10754.76
472.95	10771.15
473.13	11208.83
473.31	10726.68
473.49	10799.23
473.67	10909.24
473.85	10967.75
474.03	11407.77
474.21	11197.12
474.39	11403.09
474.57	11351.60
474.75	11201.80
474.93	11517.78
475.12	11302.45
475.30	11538.84
475.48	11466.28
475.66	11679.27
475.84	11595.01
476.02	11946.09
476.20	11585.65
476.38	11770.55
476.56	12210.57
476.74	12070.14
476.92	12028.01
477.10	11882.90
477.28	12493.78
477.46	12243.34
477.64	12362.71
477.82	12585.06
478.00	12929.12
478.18	12643.57
478.36	12903.37
478.54	13027.42
478.72	13224.03
478.90	13254.45
479.08	13437.02
479.26	13596.17
479.44	13591.49
479.62	13422.97
479.80	13579.79
479.98	13570.43
480.16	13755.33
480.34	14174.28
480.52	14174.28
480.70	14361.53
480.88	13907.46
481.06	14569.83
481.24	14340.46
481.41	14834.32
481.59	14860.06
481.77	14757.08
481.95	14920.92
482.13	14621.33
482.31	14661.12
482.49	15164.33
482.67	15033.26
482.85	15286.04
483.03	15496.69
483.21	15566.90
483.39	15960.11
483.57	15566.90
483.74	16039.69
483.92	15997.56
484.10	15646.48
484.28	16442.26
484.46	16376.73
484.64	16547.59
484.82	16304.17
485.00	16655.25
485.18	16599.08
485.35	16978.25
485.53	16570.99
485.71	16791.00
485.89	16828.45
486.07	16940.80
486.25	16865.90
486.43	17575.08
486.61	17312.94
486.78	17575.08
486.96	17577.42
487.14	17710.83
487.32	18321.71
487.50	18132.13
487.68	18286.61
487.85	18698.54
488.03	18768.76
488.21	18918.55
488.39	19339.85
488.57	19213.46
488.75	19367.93
488.92	19557.52
489.10	19800.93
489.28	19756.46
489.46	20170.74
489.64	19988.18
489.81	20540.54
489.99	20577.99
490.17	20723.10
490.35	20741.83
490.53	20662.25
490.70	20980.56
490.88	20943.11
491.06	21139.72
491.24	21338.66
491.41	21221.64
491.59	21032.05
491.77	21259.09
491.95	21486.12
492.13	21579.74
492.30	22122.74
492.48	22143.81
492.66	22239.77
492.84	22478.50
493.01	22443.40
493.19	22462.12
493.37	22569.79
493.54	22813.20
493.72	22710.22
493.90	23080.02
494.08	23363.23
494.25	23606.64
494.43	23894.53
494.61	23793.89
494.79	23807.93
494.96	23616.01
495.14	23709.63
495.32	24215.18
495.49	24107.52
495.67	24102.84
495.85	24463.28
496.02	24776.91
496.20	24643.50
496.38	24966.49
496.55	25069.48
496.73	25645.25
496.91	25078.84
497.09	25935.48
497.26	25528.22
497.44	25558.65
497.62	25745.89
497.79	25972.92
497.97	25607.80
498.14	25919.09
498.32	26286.56
498.50	25797.38
498.67	26771.05
498.85	26478.48
499.03	26733.60
499.20	26565.08
499.38	27072.98
499.56	26890.41
499.73	27199.37
499.91	26869.35
500.08	26977.01
500.26	26731.26
500.44	27229.79
500.61	27021.48
500.79	27051.91
500.97	27784.50
501.14	27803.22
501.32	27658.11
501.49	27768.12
501.67	27669.81
501.84	28006.85
502.02	28004.51
502.20	28114.52
502.37	28524.11
502.55	28217.50
502.72	28428.15
502.90	28498.36
503.07	28458.57
503.25	28795.61
503.43	28643.48
503.60	28599.01
503.78	28816.68
503.95	28739.44
504.13	29099.88
504.30	29303.51
504.48	28989.88
504.65	29378.40
504.83	29670.97
505.01	29575.01
505.18	29502.45
505.36	30197.59
505.53	30246.74
505.71	30305.26
505.88	30338.02
506.06	30125.04
506.23	30398.88
506.41	30607.19
506.58	30490.16
506.76	30583.78
506.93	30672.72
507.11	30483.14
507.28	30658.68
507.46	30618.89
507.63	30288.87
507.81	30735.92
507.98	30869.33
508.16	31145.51
508.33	31087.00
508.50	31253.17
508.68	31765.75
508.85	31351.48
509.03	31426.37
509.20	31271.90
509.38	32041.93
509.55	31896.82
509.73	31866.39
509.90	31992.78
510.08	31758.73
510.25	31735.32
510.42	32128.53
510.60	32273.65
510.77	32449.19
510.95	32535.79
511.12	32187.05
511.30	33008.58
511.47	32936.02
511.64	32910.27
511.82	33017.94
511.99	32856.44
512.17	32907.93
512.34	32629.41
512.51	32755.80
512.69	33469.66
512.86	33144.33
513.04	33589.03
513.21	33846.49
513.38	33347.95
513.56	33460.30
513.73	33631.16
513.90	33654.56
514.08	33654.56
514.25	33521.15
514.43	34059.48
514.60	33710.74
514.77	33682.65
514.95	34185.86
515.12	34202.25
515.29	34314.59
515.47	34532.26
515.64	34555.67
515.81	34253.74
515.99	34476.09
516.16	34181.18
516.33	33919.04
516.51	34249.06
516.68	33703.71
516.85	33860.53
517.03	33940.11
517.20	34183.52
517.37	34974.63
517.54	35084.63
517.72	34288.85
517.89	34445.66
518.06	34567.37
518.24	34850.58
518.41	34855.26
518.58	35257.83
518.75	35391.24
518.93	35814.88
519.10	35426.35
519.27	35763.39
519.45	35704.87
519.62	35971.69
519.79	35861.69
519.96	36177.66
520.14	36231.49
520.31	35943.61
520.48	36182.34
520.65	35903.82
520.83	36503.00
521.00	36332.14
521.17	36673.85
521.34	36112.13
521.52	37043.66
521.69	36746.41
521.86	37027.28
522.03	36631.72
522.20	36943.02
522.38	36825.99
522.55	37092.81
522.72	37230.90
522.89	36919.61
523.07	37258.99
523.24	37642.84
523.41	37301.12
523.58	37280.05
523.75	37834.76
523.92	37577.30
524.10	37773.91
524.27	38024.34
524.44	37961.15
524.61	37965.83
524.78	38036.05
524.96	37986.89
525.13	38326.27
525.30	38616.50
525.47	38490.11
525.64	38181.16
525.81	38288.82
525.98	37797.31
526.16	37748.16
526.33	37551.56
526.50	38309.89
526.67	37769.22
526.84	38101.58
527.01	38052.43
527.18	38543.94
527.36	38593.09
527.53	38859.91
527.70	39213.34
527.87	39395.90
528.04	38988.64
528.21	39100.99
528.38	39049.50
528.55	39529.31
528.72	39409.94
528.89	39578.46
529.07	39337.38
529.24	39758.68
529.41	39519.95
529.58	39206.31
529.75	39068.22
529.92	39463.77
530.09	39512.92
530.26	40161.25
530.43	39983.37
530.60	39585.48
530.77	39927.20
530.94	39887.41
531.11	40112.10
531.28	40137.85
531.46	40238.49
531.63	40175.30
531.80	40025.50
531.97	40016.14
532.14	39990.39
532.31	39959.97
532.48	39683.78
532.65	40521.69
532.82	40084.01
532.99	40395.31
533.16	40313.39
533.33	40676.17
533.50	40601.27
533.67	40364.88
533.84	40299.34
534.01	40378.92
534.18	40402.33
534.35	41104.49
534.52	40797.88
534.69	40961.72
534.86	41146.62
535.03	41055.34
535.20	40996.82
535.37	41816.01
535.54	41296.41
535.71	41191.09
535.88	41132.57
536.05	41352.58
536.22	41277.69
536.38	41607.70
536.55	41184.07
536.72	41090.44
536.89	41172.36
537.06	41125.55
537.23	41675.58
537.40	41656.85
537.57	41755.16
537.74	41790.27
537.91	41808.99
538.08	41972.83
538.25	41385.35
538.42	41647.49
538.59	41954.10
538.75	41778.56
538.92	41986.87
539.09	42092.19
539.26	42038.36
539.43	42127.30
539.60	41879.21
539.77	42162.41
539.94	42157.73
540.11	41900.27
540.28	42223.26
540.44	41844.10
540.61	42249.01
540.78	42270.08
540.95	41715.37
541.12	41979.85
541.29	41879.21
541.46	42415.19
541.62	42705.41
541.79	42775.63
541.96	42185.82
542.13	42770.95
542.30	42504.13
542.47	42277.10
542.63	42583.71
542.80	42906.70
542.97	43323.32
543.14	43365.45
543.31	43103.31
543.48	42834.14
543.64	43295.23
543.81	43267.14
543.98	43100.97
544.15	43000.32
544.32	43459.07
544.48	43384.17
544.65	43761.00
544.82	44034.84
544.99	43405.23
545.16	43732.91
545.32	43138.41
545.49	44086.33
545.66	43995.05
545.83	43817.17
546.00	43929.51
546.16	43894.41
546.33	43812.49
546.50	43405.23
546.67	44009.09
546.83	43585.46
547.00	44055.90
547.17	44009.09
547.34	43449.70
547.50	43938.88
547.67	44395.28
547.84	43959.94
548.00	44257.19
548.17	44304.00
548.34	44325.07
548.51	44264.21
548.67	44570.82
548.84	44617.63
549.01	44414.01
549.18	44194.00
549.34	44360.17
549.51	44282.94
549.68	44781.47
549.84	44533.37
550.01	44390.60
550.18	44437.41
550.34	44643.38
550.51	44423.37
550.68	44591.89
550.84	44329.75
551.01	44828.28
551.18	44481.88
551.34	44549.76
551.51	45015.52
551.68	44978.07
551.84	44638.70
552.01	44641.04
552.18	45041.27
552.34	44615.29
552.51	45057.65
552.68	44524.01
552.84	44872.75
553.01	44748.70
553.18	45031.91
553.34	45162.98
553.51	44959.35
553.67	44900.84
553.84	45333.84
554.01	45148.93
554.17	45331.50
554.34	45216.81
554.51	45247.24
554.67	45013.18
554.84	45263.62
555.00	45174.68
555.17	45076.38
555.33	45312.77
555.50	45160.64
555.67	45326.81
555.83	45558.53
556.00	45380.65
556.16	45551.51
556.33	45457.88
556.50	45469.59
556.66	45626.40
556.83	45258.94
556.99	45523.42
557.16	45755.13
557.32	45535.12
557.49	46031.32
557.65	45745.77
557.82	45832.37
557.98	45708.32
558.15	45413.41
558.32	45935.35
558.48	45158.30
558.65	45858.12
558.81	45420.44
558.98	45790.24
559.14	45638.11
559.31	45556.19
559.47	45771.52
559.64	45921.31
559.80	45806.62
559.97	45818.33
560.13	45392.35
560.30	45558.53
560.46	46185.79
560.63	46202.18
560.79	45949.40
560.96	46424.53
561.12	46127.28
561.29	45757.47
561.45	46141.32
561.61	45914.29
561.78	45727.05
561.94	45675.55
562.11	45621.72
562.27	46019.61
562.44	45785.56
562.60	46143.66
562.77	46050.04
562.93	45823.01
563.10	46480.70
563.26	46026.63
563.42	46202.18
563.59	46021.95
563.75	46127.28
563.92	46579.00
564.08	46300.48
564.24	45867.48
564.41	45776.20
564.57	45998.55
564.74	45993.87
564.90	45975.14
565.07	46316.86
565.23	45762.15
565.39	45918.97
565.56	46335.59
565.72	45993.87
565.88	46000.89
566.05	46466.66
566.21	46256.01
566.38	45869.82
566.54	46499.42
566.70	46637.51
566.87	46473.68
567.03	46506.44
567.19	46838.80
567.36	46707.73
567.52	46590.70
567.68	46354.31
567.85	46031.32
568.01	46316.86
568.17	46476.02
568.34	46248.99
568.50	46583.68
568.66	46274.73
568.83	46539.21
568.99	46024.29
569.15	46550.91
569.32	46061.74
569.48	46354.31
569.64	46700.71
569.81	46422.19
569.97	46504.10
570.13	46148.34
570.30	46073.45
570.46	46068.76
570.62	45862.80
570.78	46246.65
570.95	46316.86
571.11	46429.21
571.27	46050.04
571.43	46321.54
571.60	46307.50
571.76	46375.37
571.92	46485.38
572.09	46639.86
572.25	46452.61
572.41	46450.27
572.57	46253.67
572.74	46738.16
572.90	46401.12
573.06	46597.73
573.22	46457.29
573.38	46679.64
573.55	46274.73
573.71	46981.57
573.87	46684.33
574.03	46286.43
574.20	46199.83
574.36	46560.28
574.52	46574.32
574.68	46394.10
574.84	46604.75
575.01	46916.04
575.17	46614.11
575.33	46274.73
575.49	46527.51
575.65	46593.04
575.82	46295.80
575.98	46164.73
576.14	46808.37
576.30	46597.73
576.46	46628.15
576.62	46185.79
576.79	46719.43
576.95	46333.24
577.11	46990.94
577.27	46588.36
577.43	46305.16
577.59	46216.22
577.75	46438.57
577.92	46394.10
578.08	46429.21
578.24	46408.14
578.40	46370.69
578.56	46759.22
578.72	46461.97
578.88	46796.67
579.04	46616.45
579.21	46089.83
579.37	46064.08
579.53	46443.25
579.69	46887.95
579.85	46553.26
580.01	46791.99
580.17	46951.15
580.33	46473.68
580.49	46639.86
580.65	46485.38
580.82	46791.99
580.98	46340.27
581.14	46211.54
581.30	46850.50
581.46	46674.96
581.62	46628.15
581.78	47234.35
581.94	46831.78
582.10	46693.69
582.26	47030.72
582.42	46562.62
582.58	46766.24
582.74	46852.84
582.90	46583.68
583.06	46894.97
583.22	46710.07
583.38	46773.27
583.54	46988.60
583.70	46838.80
583.86	47042.43
584.02	46438.57
584.18	46829.44
584.34	46817.74
584.50	46459.63
584.66	46628.15
584.82	46440.91
584.98	46820.08
585.14	46859.87
585.30	46857.52
585.46	46754.54
585.62	46440.91
585.78	46834.12
585.94	46361.33
586.10	46691.35
586.26	46543.89
586.42	46674.96
586.58	46726.46
586.74	46777.95
586.90	46597.73
587.06	46784.97
587.22	47260.10
587.38	46162.39
587.54	46417.50
587.70	46965.19
587.86	46887.95
588.02	46595.38
588.18	46391.76
588.34	46328.56
588.49	46146.00
588.65	45778.54
588.81	46295.80
588.97	46511.13
589.13	46316.86
589.29	45869.82
589.45	46110.89
589.61	46801.35
589.77	46855.18
589.93	46541.55
