SpectraSuite Data File
++++++++++++++++++++++++++++++++++++
Date: Fri Oct 25 11:26:14 EDT 2013
User: price-jones
Dark Spectrum Present: No
Reference Spectrum Present: No
Number of Sampled Component Spectra: 1
Spectrometers: USB2+H05261
Integration Time (usec): 100000 (USB2+H05261)
Spectra Averaged: 1 (USB2+H05261)
Boxcar Smoothing: 0 (USB2+H05261)
Correct for Electrical Dark: No (USB2+H05261)
Strobe/Lamp Enabled: No (USB2+H05261)
Correct for Detector Non-linearity: No (USB2+H05261)
Correct for Stray Light: No (USB2+H05261)
Number of Pixels in Processed Spectrum: 2048
>>>>>Begin Processed Spectral Data<<<<<
365.73	245.76
365.92	245.76
366.12	245.76
366.32	140.43
366.52	201.29
366.72	124.05
366.91	72.56
367.11	184.90
367.31	131.07
367.51	65.54
367.70	138.09
367.90	107.66
368.10	163.84
368.30	126.39
368.49	145.11
368.69	180.22
368.89	180.22
369.09	191.92
369.28	98.30
369.48	203.63
369.68	177.88
369.87	194.26
370.07	252.78
370.27	222.35
370.47	360.44
370.66	582.79
370.86	622.58
371.06	699.82
371.25	741.95
371.45	655.35
371.65	603.86
371.84	704.50
372.04	725.57
372.24	685.78
372.44	751.31
372.63	809.83
372.83	739.61
373.03	695.14
373.22	779.40
373.42	774.72
373.62	753.65
373.81	748.97
374.01	716.20
374.21	763.01
374.40	830.89
374.60	849.61
374.79	835.57
374.99	863.66
375.19	830.89
375.38	844.93
375.58	830.89
375.78	805.14
375.97	889.40
376.17	870.68
376.37	816.85
376.56	961.96
376.76	889.40
376.95	868.34
377.15	854.30
377.35	950.26
377.54	882.38
377.74	887.06
377.93	884.72
378.13	861.32
378.33	992.39
378.52	933.87
378.72	954.94
378.91	945.58
379.11	945.58
379.31	964.30
379.50	1004.09
379.70	1022.81
379.89	947.92
380.09	940.90
380.28	945.58
380.48	1064.94
380.68	1011.11
380.87	1015.79
381.07	987.71
381.26	987.71
381.46	950.26
381.65	1013.45
381.85	966.64
382.04	954.94
382.24	1111.75
382.43	1137.50
382.63	1004.09
382.83	1027.50
383.02	1032.18
383.22	1188.99
383.41	1151.54
383.61	1062.60
383.80	1156.22
384.00	1097.71
384.19	1107.07
384.39	1132.82
384.58	1165.59
384.78	1107.07
384.97	1170.27
385.17	1116.44
385.36	1181.97
385.56	1179.63
385.75	1132.82
385.95	1203.04
386.14	1277.93
386.34	1203.04
386.53	1280.27
386.72	1097.71
386.92	1235.80
387.11	1256.87
387.31	1280.27
387.50	1266.23
387.70	1252.19
387.89	1226.44
388.09	1313.04
388.28	1221.76
388.48	1263.89
388.67	1266.23
388.86	1359.85
389.06	1324.74
389.25	1373.89
389.45	1439.43
389.64	1266.23
389.84	1357.51
390.03	1252.19
390.22	1317.72
390.42	1341.13
390.61	1310.70
390.81	1329.42
391.00	1444.11
391.19	1357.51
391.39	1397.30
391.58	1507.30
391.78	1476.88
391.97	1556.46
392.16	1444.11
392.36	1446.45
392.55	1537.73
392.75	1514.33
392.94	1537.73
393.13	1455.81
393.33	1547.09
393.52	1600.93
393.71	1603.27
393.91	1542.41
394.10	1624.33
394.29	1596.25
394.49	1570.50
394.68	1650.08
394.88	1593.90
395.07	1666.46
395.26	1577.52
395.46	1645.40
395.65	1678.16
395.84	1636.03
396.04	1792.85
396.23	1760.08
396.42	1748.38
396.62	1696.89
396.81	1816.26
397.00	1813.92
397.19	1785.83
397.39	1715.61
397.58	1795.19
397.77	1834.98
397.97	1837.32
398.16	1809.23
398.35	1930.94
398.55	1954.35
398.74	1856.04
398.93	1942.64
399.12	1942.64
399.32	1813.92
399.51	1919.24
399.70	1994.14
399.90	1905.20
400.09	2078.40
400.28	2129.89
400.47	1996.48
400.67	2010.52
400.86	2111.16
401.05	2062.01
401.24	2059.67
401.44	2139.25
401.63	2071.37
401.82	2054.99
402.01	2069.03
402.21	2162.66
402.40	2129.89
402.59	2197.76
402.78	2174.36
402.97	2230.53
403.17	2275.00
403.36	2331.17
403.55	2195.42
403.74	2275.00
403.93	2408.41
404.13	2478.63
404.32	2289.04
404.51	2249.25
404.70	2356.92
404.89	2410.75
405.09	2436.50
405.28	2560.55
405.47	2413.09
405.66	2438.84
405.85	2457.56
406.05	2483.31
406.24	2525.44
406.43	2588.63
406.62	2715.02
406.81	2705.66
407.00	2572.25
407.20	2621.40
407.39	2726.72
407.58	2693.96
407.77	2731.41
407.96	2750.13
408.15	2684.59
408.34	2719.70
408.54	2750.13
408.73	2839.07
408.92	2745.45
409.11	2789.92
409.30	2869.50
409.49	2949.08
409.68	2920.99
409.87	2834.39
410.07	2906.95
410.26	2981.84
410.45	3080.14
410.64	2932.69
410.83	3052.06
411.02	2956.10
411.21	3152.70
411.40	3173.77
411.59	3234.62
411.78	3115.25
411.98	3206.53
412.17	3293.13
412.36	3243.98
412.55	3335.26
412.74	3574.00
412.93	3417.18
413.12	3307.18
413.31	3517.83
413.50	3482.72
413.69	3412.50
413.88	3555.27
414.07	3637.19
414.26	3648.90
414.45	3524.85
414.64	3620.81
414.83	3772.94
415.02	3798.69
415.22	3901.67
415.41	3815.07
415.60	3803.37
415.79	3803.37
415.98	3808.05
416.17	3840.82
416.36	3875.93
416.55	3918.06
416.74	4121.68
416.93	3995.29
417.12	4173.18
417.31	4067.85
417.50	4196.58
417.69	4196.58
417.88	4201.26
418.07	4086.58
418.26	4248.07
418.45	4252.75
418.64	4461.06
418.83	4374.46
419.02	4269.14
419.21	4402.55
419.39	4461.06
419.58	4444.68
419.77	4414.25
419.96	4643.62
420.15	4601.49
420.34	4723.20
420.53	4641.28
420.72	4648.30
420.91	4610.86
421.10	4704.48
421.29	4767.67
421.48	4629.58
421.67	4734.90
421.86	4762.99
422.05	4706.82
422.24	4770.01
422.43	4901.08
422.61	4833.21
422.80	4985.34
422.99	4837.89
423.18	5036.83
423.37	4971.30
423.56	4987.68
423.75	5004.07
423.94	4812.14
424.13	4578.09
424.32	4706.82
424.50	4933.85
424.69	5097.69
424.88	5078.96
425.07	4908.10
425.26	4840.23
425.45	4992.36
425.64	4856.61
425.83	4922.15
426.01	5004.07
426.20	4978.32
426.39	4926.83
426.58	5039.17
426.77	5097.69
426.96	4990.02
427.15	5114.07
427.33	5207.69
427.52	5107.05
427.71	5156.20
427.90	5245.14
428.09	5298.97
428.28	5238.12
428.46	5366.85
428.65	5511.96
428.84	5617.29
429.03	5469.83
429.22	5416.00
429.40	5385.57
429.59	5476.85
429.78	5364.51
429.97	5313.02
430.16	5554.09
430.34	5502.60
430.53	5659.42
430.72	5682.82
430.91	5643.03
431.10	5621.97
431.28	5657.07
431.47	5612.60
431.66	5746.02
431.85	5720.27
432.03	5755.38
432.22	6036.24
432.41	5968.37
432.60	5804.53
432.79	5949.64
432.97	6125.18
433.16	5977.73
433.35	5975.39
433.54	5977.73
433.72	6188.38
433.91	6148.59
434.10	6064.33
434.28	6087.73
434.47	6045.60
434.66	6270.30
434.85	6120.50
435.03	6389.66
435.22	6342.85
435.41	6420.09
435.59	6539.46
435.78	6263.27
435.97	6457.54
436.16	6417.75
436.34	6363.92
436.53	6441.15
436.72	6654.14
436.90	6471.58
437.09	6612.01
437.28	6483.28
437.46	6387.32
437.65	6609.67
437.84	6799.26
438.02	6562.86
438.21	6621.38
438.40	6672.87
438.58	6794.58
438.77	6967.77
438.96	7005.22
439.14	7140.97
439.33	7227.57
439.52	7169.06
439.70	7108.21
439.89	7363.33
440.08	7293.11
440.26	7274.38
440.45	7463.97
440.63	7344.60
440.82	7520.14
441.01	7258.00
441.19	7562.27
441.38	7634.83
441.57	7758.88
441.75	7714.41
441.94	8002.29
442.12	7793.98
442.31	8070.17
442.50	7894.63
442.68	7922.71
442.87	7899.31
443.05	7992.93
443.24	8058.46
443.43	8163.79
443.61	8184.85
443.80	8402.52
443.98	8149.75
444.17	7751.85
444.35	8194.22
444.54	8336.99
444.73	8414.23
444.91	8255.07
445.10	8187.19
445.28	8173.15
445.47	8135.70
445.65	8287.84
445.84	8336.99
446.02	8470.40
446.21	8173.15
446.39	8446.99
446.58	8372.10
446.77	8404.86
446.95	8273.79
447.14	8383.80
447.32	8643.60
447.51	8430.61
447.69	8311.24
447.88	8643.60
448.06	8531.25
448.25	8421.25
448.43	8549.98
448.62	8805.10
448.80	8484.44
448.99	8667.00
449.17	8589.77
449.36	8669.34
449.54	8837.86
449.73	8954.89
449.91	8858.93
450.10	8826.16
450.28	9088.30
450.46	8891.70
450.65	8985.32
450.83	9004.04
451.02	8952.55
451.20	9205.33
451.39	8936.17
451.57	9123.41
451.76	8957.23
451.94	9320.01
452.13	9355.12
452.31	9425.34
452.49	9088.30
452.68	9399.59
452.86	9256.82
453.05	9336.40
453.23	9245.12
453.42	9158.52
453.60	9301.29
453.78	9671.09
453.97	9303.63
454.15	9378.53
454.34	9467.47
454.52	9706.20
454.70	9687.48
454.89	9458.10
455.07	9830.25
455.26	10090.05
455.44	9919.19
455.62	9881.74
455.81	9834.93
455.99	9994.09
456.17	10068.98
456.36	9980.04
456.54	9921.53
456.73	10274.95
456.91	10417.72
457.09	10190.69
457.28	10607.31
457.46	10284.31
457.64	10490.28
457.83	10523.05
458.01	10455.17
458.19	10736.04
458.38	10324.10
458.56	10696.25
458.74	10738.38
458.93	10581.56
459.11	10637.73
459.29	10649.44
459.48	10633.05
459.66	10583.90
459.84	10628.37
460.03	10874.13
460.21	11019.24
460.39	10932.64
460.57	10956.05
460.76	11059.03
460.94	11131.59
461.12	11236.91
461.31	11030.94
461.49	11239.25
461.67	11101.16
461.85	11517.78
462.04	11321.17
462.22	11637.14
462.40	11295.43
462.59	11243.93
462.77	11335.21
462.95	11536.50
463.13	11571.61
463.32	11791.62
463.50	11578.63
463.68	11824.39
463.86	11499.05
464.05	11536.50
464.23	11772.89
464.41	11964.82
464.59	11686.29
464.78	11978.86
464.96	12049.08
465.14	11831.41
465.32	11882.90
465.50	12212.92
465.69	12079.50
465.87	12063.12
466.05	12098.23
466.23	12067.80
466.41	12271.43
466.60	12358.03
466.78	12287.81
466.96	11990.56
467.14	12074.82
467.32	12400.16
467.51	12475.06
467.69	12018.65
467.87	12519.53
468.05	12596.76
468.23	12308.88
468.41	12461.01
468.60	12774.64
468.78	12718.47
468.96	12334.62
469.14	12685.70
469.32	12805.07
469.50	12947.84
469.69	12655.28
469.87	13060.19
470.05	13158.49
470.23	13090.62
470.41	13137.43
470.59	13062.53
470.77	13027.42
470.95	13114.02
471.14	13570.43
471.32	13071.89
471.50	13500.21
471.68	13277.86
471.86	13654.69
472.04	13619.58
472.22	14057.26
472.40	13465.10
472.58	13607.87
472.77	13668.73
472.95	14097.05
473.13	14520.68
473.31	14092.37
473.49	14169.60
473.67	13827.88
473.85	14036.19
474.03	14476.21
474.21	14513.66
474.39	14504.30
474.57	14579.20
474.75	14675.16
474.93	14871.76
475.12	14834.32
475.30	15007.52
475.48	15061.35
475.66	15077.73
475.84	15143.27
476.02	15286.04
476.20	15304.76
476.38	15559.88
476.56	15946.07
476.74	15997.56
476.92	15761.17
477.10	15452.22
477.28	16208.21
477.46	15887.56
477.64	16226.93
477.82	16411.84
478.00	16779.30
478.18	16379.07
478.36	16503.12
478.54	17062.51
478.72	17041.44
478.90	17357.41
479.08	17509.55
479.26	17603.17
479.44	17336.35
479.62	17481.46
479.80	17846.58
479.98	18008.08
480.16	18258.52
480.34	18244.48
480.52	18728.97
480.70	18675.13
480.88	18192.98
481.06	18670.45
481.24	18700.88
481.41	18988.77
481.59	19213.46
481.77	19484.96
481.95	19625.39
482.13	19688.59
482.31	19520.07
482.49	20046.69
482.67	20191.80
482.85	20077.12
483.03	20781.62
483.21	20812.04
483.39	20748.85
483.57	20751.19
483.74	20800.34
483.92	21144.40
484.10	20966.52
484.28	21586.76
484.46	21647.61
484.64	22089.98
484.82	22026.78
485.00	22068.91
485.18	22363.82
485.35	22829.59
485.53	22981.72
485.71	22845.97
485.89	23297.69
486.07	22726.60
486.25	23342.16
486.43	23374.93
486.61	23941.34
486.78	23859.42
486.96	24002.19
487.14	24400.08
487.32	24687.97
487.50	24835.42
487.68	24872.87
487.85	25226.29
488.03	25401.83
488.21	25406.52
488.39	25638.23
488.57	25778.66
488.75	25853.56
488.92	26223.36
489.10	26429.33
489.28	26487.84
489.46	26827.22
489.64	27072.98
489.81	27414.69
489.99	27438.10
490.17	27405.33
490.35	27962.38
490.53	27798.54
490.70	28203.46
490.88	28030.26
491.06	28507.72
491.24	28531.13
491.41	28694.97
491.59	29153.71
491.77	29118.60
491.95	29369.04
492.13	29867.58
492.30	29605.44
492.48	29614.80
492.66	30213.98
492.84	30038.44
493.01	30178.87
493.19	30258.45
493.37	30897.41
493.54	31168.91
493.72	31243.81
493.90	31194.66
494.08	31524.68
494.25	31693.19
494.43	31651.06
494.61	31459.14
494.79	32498.34
494.96	32163.64
495.14	32863.46
495.32	32989.85
495.49	33226.24
495.67	33254.33
495.85	33521.15
496.02	33858.19
496.20	33762.23
496.38	33582.01
496.55	33703.71
496.73	34431.62
496.91	34319.28
497.09	34436.30
497.26	35065.91
497.44	34450.35
497.62	35262.51
497.79	35817.22
497.97	35086.97
498.14	35999.78
498.32	36135.53
498.50	36062.97
498.67	36381.29
498.85	36081.70
499.03	36594.28
499.20	36465.55
499.38	36364.90
499.56	36666.83
499.73	36842.37
499.91	37247.29
500.08	37373.67
500.26	37163.03
500.44	37214.52
500.61	37308.14
500.79	37111.53
500.97	37483.68
501.14	38300.53
501.32	38286.48
501.49	38305.21
501.67	38171.80
501.84	38389.47
502.02	38483.09
502.20	39173.55
502.37	39440.37
502.55	39178.23
502.72	39187.59
502.90	39442.71
503.07	39016.73
503.25	39578.46
503.43	39035.45
503.60	39636.97
503.78	39913.16
503.95	39824.22
504.13	40315.73
504.30	40502.97
504.48	40526.38
504.65	40369.56
504.83	40018.48
505.01	40982.78
505.18	41008.53
505.36	41399.40
505.53	40802.56
505.71	41745.80
505.88	41233.22
506.06	41134.92
506.23	41663.88
506.41	42047.72
506.58	41839.42
506.76	41778.56
506.93	42810.74
507.11	42164.75
507.28	42220.92
507.46	42253.69
507.63	42562.64
507.81	42824.78
507.98	42450.30
508.16	43054.15
508.33	43105.65
508.50	43281.19
508.68	42939.47
508.85	43374.81
509.03	43613.54
509.20	43938.88
509.38	44065.27
509.55	44055.90
509.73	44151.87
509.90	44301.66
510.08	44126.12
510.25	44460.82
510.42	44732.32
510.60	45027.23
510.77	44891.48
510.95	45177.02
511.12	44694.87
511.30	44928.92
511.47	45329.16
511.64	44959.35
511.82	45050.63
511.99	45462.57
512.17	45263.62
512.34	45514.06
512.51	46094.51
512.69	46569.64
512.86	45888.54
513.04	46607.09
513.21	46225.58
513.38	46316.86
513.56	46536.87
513.73	46574.32
513.90	46883.27
514.08	46817.74
514.25	46609.43
514.43	47068.17
514.60	47246.05
514.77	47342.02
514.95	47547.98
515.12	47058.81
515.29	47351.38
515.47	47159.45
515.64	48098.01
515.81	47901.40
515.99	47957.58
516.16	48112.05
516.33	48067.58
516.51	48552.07
516.68	48053.54
516.85	48165.88
517.03	48573.14
517.20	48451.43
517.37	48500.58
517.54	48498.24
517.72	48545.05
517.89	48809.53
518.06	48938.26
518.24	48947.62
518.41	49160.61
518.58	49287.00
518.75	48933.58
518.93	49010.82
519.10	49502.33
519.27	49750.43
519.45	49272.96
519.62	49427.43
519.79	49666.17
519.96	49787.88
520.14	50127.25
520.31	49801.92
520.48	49886.18
520.65	50075.76
520.83	50387.05
521.00	50576.64
521.17	50202.15
521.34	50085.12
521.52	50344.92
521.69	50953.46
521.86	50693.66
522.03	50904.31
522.20	51119.64
522.38	51299.86
522.55	51103.26
522.72	51180.49
522.89	51250.71
523.07	51374.76
523.24	51208.58
523.41	51774.99
523.58	51196.88
523.75	51578.39
523.92	51269.43
524.10	51716.48
524.27	51744.56
524.44	51941.17
524.61	51892.02
524.78	51938.83
524.96	52266.50
525.13	52105.01
525.30	52004.36
525.47	52090.96
525.64	52179.90
525.81	52275.87
525.98	52252.46
526.16	52313.31
526.33	52210.33
526.50	52910.15
526.67	52598.86
526.84	52655.03
527.01	52526.30
527.18	52643.33
527.36	52900.79
527.53	52781.42
527.70	53315.06
527.87	53200.38
528.04	52825.89
528.21	53680.19
528.38	53436.77
528.55	53387.62
528.72	53109.10
528.89	53179.31
529.07	53347.83
529.24	53176.97
529.41	53712.95
529.58	53312.72
529.75	53394.64
529.92	53401.66
530.09	53659.12
530.26	53652.10
530.43	53963.39
530.60	53600.61
530.77	53570.18
530.94	54113.19
531.11	53778.49
531.28	53886.15
531.46	54038.29
531.63	54061.69
531.80	54089.78
531.97	54134.25
532.14	54478.31
532.31	54031.27
532.48	54490.01
532.65	54513.42
532.82	54241.92
532.99	54663.21
533.16	54293.41
533.33	54569.59
533.50	54717.04
533.67	54447.88
533.84	54461.93
534.01	54667.89
534.18	54906.63
534.35	54855.14
534.52	54705.34
534.69	55063.44
534.86	55061.10
535.03	54890.24
535.20	55304.52
535.37	55260.05
535.54	54939.39
535.71	55004.93
535.88	55365.37
536.05	55112.59
536.22	55522.19
536.38	55372.39
536.55	55484.74
536.72	55414.52
536.89	55304.52
537.06	55236.64
537.23	55508.14
537.40	55564.32
537.57	55735.18
537.74	55676.66
537.91	55854.54
538.08	55742.20
538.25	55569.00
538.42	55760.92
538.59	55992.64
538.75	55693.05
538.92	55711.77
539.09	55760.92
539.26	55901.36
539.43	56041.79
539.60	56144.77
539.77	56147.11
539.94	56154.13
540.11	56243.07
540.28	55906.04
540.44	56177.54
540.61	56360.10
540.78	56055.83
540.95	56100.30
541.12	56498.19
541.29	56336.69
541.46	56435.00
541.62	56549.68
541.79	56224.35
541.96	56271.16
542.13	56488.83
542.30	56519.26
542.47	56690.12
542.63	56418.61
542.80	56652.67
542.97	56996.73
543.14	56868.00
543.31	57104.39
543.48	56982.68
543.64	57387.60
543.81	57240.14
543.98	57146.52
544.15	56999.07
544.32	57301.00
544.48	57256.53
544.65	57186.31
544.82	57244.82
544.99	56992.04
545.16	57396.96
545.32	57235.46
545.49	57684.84
545.66	57741.02
545.83	57368.87
546.00	57584.20
546.16	57626.33
546.33	57717.61
546.50	57371.21
546.67	57532.71
546.83	57322.06
547.00	57401.64
547.17	57556.11
547.34	57729.31
547.50	57673.14
547.67	57925.92
547.84	57647.39
548.00	57741.02
548.17	57909.53
548.34	57904.85
548.51	57993.79
548.67	58061.67
548.84	57996.13
549.01	57911.88
549.18	57935.28
549.34	57916.56
549.51	58108.48
549.68	57893.15
549.84	58379.98
550.01	58232.53
550.18	58166.99
550.34	58279.34
550.51	58356.58
550.68	58347.21
550.84	57975.07
551.01	58459.56
551.18	58384.66
551.34	58274.66
551.51	58438.50
551.68	58457.22
551.84	58408.07
552.01	58277.00
552.18	58480.63
552.34	58447.86
552.51	58670.21
552.68	58384.66
552.84	58653.82
553.01	58955.75
553.18	58607.01
553.34	58756.81
553.51	58700.64
553.67	58564.88
553.84	58686.59
554.01	58869.15
554.17	58841.07
554.34	58784.90
554.51	58824.68
554.67	58946.39
554.84	58892.56
555.00	58843.41
555.17	58876.18
555.33	58838.73
555.50	58780.21
555.67	58824.68
555.83	58988.52
556.00	58876.18
556.16	59372.37
556.33	59051.72
556.50	59051.72
556.66	59061.08
556.83	59182.79
556.99	59227.26
557.16	59377.05
557.32	59283.43
557.49	59592.38
557.65	59222.58
557.82	59297.47
557.98	59430.88
558.15	59327.90
558.32	59412.16
558.48	59206.19
558.65	59269.39
558.81	59597.06
558.98	59250.66
559.14	59505.78
559.31	59517.48
559.47	59480.03
559.64	59489.40
559.80	59543.23
559.97	59512.80
560.13	59318.54
560.30	59463.65
560.46	59248.32
560.63	59700.04
560.79	59676.64
560.96	59735.15
561.12	59613.44
561.29	59723.45
561.45	59650.89
561.61	59587.70
561.78	59660.26
561.94	59613.44
562.11	59693.02
562.27	59770.26
562.44	59812.39
562.60	59833.46
562.77	59831.11
562.93	59704.73
563.10	59959.84
563.26	59821.75
563.42	59917.71
563.59	59856.86
563.75	59765.58
563.92	59765.58
564.08	60044.10
564.24	59859.20
564.41	60086.23
564.57	60079.21
564.74	59901.33
564.90	59877.93
565.07	60104.96
565.23	59894.31
565.39	59786.64
565.56	60067.51
565.72	60018.36
565.88	60130.70
566.05	60016.02
566.21	59760.90
566.38	60037.08
566.54	60252.41
566.70	60086.23
566.87	60107.30
567.03	59854.52
567.19	60191.56
567.36	60266.45
567.52	60163.47
567.68	60486.46
567.85	60315.61
568.01	60301.56
568.17	60119.00
568.34	60346.03
568.50	60154.11
568.66	60336.67
568.83	60264.11
568.99	60229.01
569.15	60233.69
569.32	60130.70
569.48	60182.19
569.64	60420.93
569.81	60299.22
569.97	60123.68
570.13	60104.96
570.30	60266.45
570.46	60247.73
570.62	60329.65
570.78	60327.31
570.95	60273.48
571.11	60406.89
571.27	60247.73
571.43	60296.88
571.60	60327.31
571.76	60327.31
571.92	60486.46
572.09	60669.03
572.25	60514.55
572.41	60313.26
572.57	60266.45
572.74	60512.21
572.90	60474.76
573.06	60301.56
573.22	60591.79
573.38	60381.14
573.55	60509.87
573.71	60690.09
573.87	60556.68
574.03	60601.15
574.20	60626.90
574.36	60514.55
574.52	60544.98
574.68	60640.94
574.84	60640.94
575.01	60704.13
575.17	60512.21
575.33	60584.77
575.49	60493.49
575.65	60650.30
575.82	60692.43
575.98	60554.34
576.14	60823.50
576.30	60495.83
576.46	60516.89
576.62	60626.90
576.79	60420.93
576.95	60631.58
577.11	60500.51
577.27	60786.05
577.43	60540.30
577.59	60617.53
577.75	60554.34
577.92	60720.52
578.08	60697.11
578.24	60671.37
578.40	60760.31
578.56	60809.46
578.72	60591.79
578.88	60842.23
579.04	60970.96
579.21	60736.90
579.37	60736.90
579.53	60664.35
579.69	60552.00
579.85	60542.64
580.01	60612.85
580.17	60678.39
580.33	60540.30
580.49	60947.55
580.65	60793.07
580.82	60718.18
580.98	60772.01
581.14	60650.30
581.30	60835.20
581.46	60823.50
581.62	60823.50
581.78	60610.51
581.94	60603.49
582.10	60823.50
582.26	60666.69
582.42	60540.30
582.58	60591.79
582.74	60640.94
582.90	60783.71
583.06	60757.97
583.22	60755.63
583.38	60809.46
583.54	60891.38
583.70	60753.29
583.86	60828.18
584.02	60608.17
584.18	61123.09
584.34	60678.39
584.50	60851.59
584.66	60598.81
584.82	60788.39
584.98	60898.40
585.14	60900.74
585.30	60814.14
585.46	61029.47
585.62	60764.99
585.78	61092.66
585.94	60500.51
586.10	60865.63
586.26	60781.37
586.42	61073.94
586.58	60973.30
586.74	60865.63
586.90	60949.89
587.06	60949.89
587.22	61038.83
587.38	60935.85
587.54	60968.61
587.70	61066.92
587.86	60851.59
588.02	61029.47
588.18	60867.97
588.34	60945.21
588.49	60956.91
