SpectraSuite Data File
++++++++++++++++++++++++++++++++++++
Date: Fri Oct 25 10:43:54 EDT 2013
User: price-jones
Dark Spectrum Present: No
Reference Spectrum Present: No
Number of Sampled Component Spectra: 1
Spectrometers: USB2+H05261
Integration Time (usec): 100000 (USB2+H05261)
Spectra Averaged: 1 (USB2+H05261)
Boxcar Smoothing: 0 (USB2+H05261)
Correct for Electrical Dark: No (USB2+H05261)
Strobe/Lamp Enabled: No (USB2+H05261)
Correct for Detector Non-linearity: No (USB2+H05261)
Correct for Stray Light: No (USB2+H05261)
Number of Pixels in Processed Spectrum: 2048
>>>>>Begin Processed Spectral Data<<<<<
365.73	81.92
365.92	81.92
366.12	81.92
366.32	0.00
366.52	14.04
366.72	77.24
366.91	21.06
367.11	11.70
367.31	11.70
367.51	0.00
367.70	0.00
367.90	9.36
368.10	35.11
368.30	28.09
368.49	79.58
368.69	77.24
368.89	35.11
369.09	21.06
369.28	65.54
369.48	58.51
369.68	37.45
369.87	70.22
370.07	60.85
370.27	56.17
370.47	222.35
370.66	376.83
370.86	339.38
371.06	468.11
371.25	491.51
371.45	475.13
371.65	449.38
371.84	463.43
372.04	465.77
372.24	458.74
372.44	547.69
372.63	575.77
372.83	519.60
373.03	568.75
373.22	559.39
373.42	587.47
373.62	526.62
373.81	564.07
374.01	535.98
374.21	622.58
374.40	526.62
374.60	587.47
374.79	624.92
374.99	638.97
375.19	566.41
375.38	627.26
375.58	645.99
375.78	620.24
375.97	629.60
376.17	627.26
376.37	580.45
376.56	655.35
376.76	566.41
376.95	627.26
377.15	645.99
377.35	671.73
377.54	599.18
377.74	615.56
377.93	634.29
378.13	610.88
378.33	645.99
378.52	622.58
378.72	720.88
378.91	669.39
379.11	613.22
379.31	690.46
379.50	667.05
379.70	716.20
379.89	760.67
380.09	688.12
380.28	678.76
380.48	763.01
380.68	781.74
380.87	732.59
381.07	748.97
381.26	774.72
381.46	669.39
381.65	720.88
381.85	732.59
382.04	706.84
382.24	695.14
382.43	727.91
382.63	758.33
382.83	727.91
383.02	758.33
383.22	830.89
383.41	737.27
383.61	716.20
383.80	793.44
384.00	798.12
384.19	798.12
384.39	788.76
384.58	880.04
384.78	847.27
384.97	882.38
385.17	758.33
385.36	800.46
385.56	828.55
385.75	802.80
385.95	805.14
386.14	868.34
386.34	898.77
386.53	947.92
386.72	835.57
386.92	898.77
387.11	905.79
387.31	940.90
387.50	823.87
387.70	875.36
387.89	936.21
388.09	835.57
388.28	898.77
388.48	1013.45
388.67	875.36
388.86	952.60
389.06	1001.75
389.25	980.68
389.45	1020.47
389.64	1011.11
389.84	1076.65
390.03	1015.79
390.22	966.64
390.42	1018.13
390.61	980.68
390.81	1041.54
391.00	1151.54
391.19	1053.24
391.39	1086.01
391.58	1050.90
391.78	1097.71
391.97	1011.11
392.16	1093.03
392.36	1088.35
392.55	1118.78
392.75	1053.24
392.94	997.07
393.13	990.05
393.33	999.41
393.52	1006.43
393.71	1128.14
393.91	1135.16
394.10	1090.69
394.29	1151.54
394.49	1186.65
394.68	1235.80
394.88	1378.58
395.07	1299.00
395.26	1259.21
395.46	1345.81
395.65	1280.27
395.84	1231.12
396.04	1217.08
396.23	1273.25
396.42	1186.65
396.62	1254.53
396.81	1219.42
397.00	1188.99
397.19	1226.44
397.39	1376.24
397.58	1401.98
397.77	1411.34
397.97	1394.96
398.16	1413.68
398.35	1483.90
398.55	1551.78
398.74	1612.63
398.93	1645.40
399.12	1680.50
399.32	1671.14
399.51	1629.01
399.70	1715.61
399.90	1701.57
400.09	1722.63
400.28	1692.21
400.47	1687.53
400.67	1689.87
400.86	1783.49
401.05	1666.46
401.24	1699.23
401.44	1813.92
401.63	1806.89
401.82	1797.53
402.01	1839.66
402.21	1757.74
402.40	1893.49
402.59	1870.09
402.78	1849.02
402.97	1797.53
403.17	1863.07
403.36	1853.70
403.55	1944.99
403.74	1947.33
403.93	1928.60
404.13	1940.30
404.32	2017.54
404.51	1973.07
404.70	2038.61
404.89	1994.14
405.09	2001.16
405.28	2209.47
405.47	1989.46
405.66	2040.95
405.85	1989.46
406.05	2080.74
406.24	1970.73
406.43	2188.40
406.62	2134.57
406.81	2277.34
407.00	2174.36
407.20	2172.02
407.39	2317.13
407.58	2272.66
407.77	2392.03
407.96	2244.57
408.15	2347.56
408.34	2293.72
408.54	2401.39
408.73	2392.03
408.92	2401.39
409.11	2434.16
409.30	2483.31
409.49	2354.58
409.68	2296.07
409.87	2392.03
410.07	2434.16
410.26	2457.56
410.45	2462.24
410.64	2600.34
410.83	2710.34
411.02	2637.78
411.21	2675.23
411.40	2663.53
411.59	2799.28
411.78	2682.25
411.98	2768.85
412.17	2827.37
412.36	2738.43
412.55	2810.98
412.74	2876.52
412.93	2862.48
413.12	2899.92
413.31	2972.48
413.50	2967.80
413.69	3045.04
413.88	3098.87
414.07	3045.04
414.26	3115.25
414.45	3019.29
414.64	2998.23
414.83	3229.94
415.02	3070.78
415.22	3178.45
415.41	3185.47
415.60	3309.52
415.79	3236.96
415.98	3536.55
416.17	3421.86
416.36	3375.05
416.55	3478.04
416.74	3562.30
416.93	3405.48
417.12	3417.18
417.31	3421.86
417.50	3534.21
417.69	3595.06
417.88	3508.46
418.07	3524.85
418.26	3723.79
418.45	3585.70
418.64	3782.31
418.83	3667.62
419.02	3772.94
419.21	3817.41
419.39	3798.69
419.58	3805.71
419.77	3595.06
419.96	3658.26
420.15	3906.35
420.34	3899.33
420.53	3894.65
420.72	4030.40
420.91	3833.80
421.10	3936.78
421.29	4053.81
421.48	3969.55
421.67	4053.81
421.86	3894.65
422.05	3981.25
422.24	4014.02
422.43	3791.67
422.61	4016.36
422.80	4067.85
422.99	4037.42
423.18	4098.28
423.37	4107.64
423.56	4135.73
423.75	4056.15
423.94	4002.32
424.13	3920.40
424.32	3929.76
424.50	4177.86
424.69	4147.43
424.88	4215.30
425.07	4138.07
425.26	4011.68
425.45	3974.23
425.64	4210.62
425.83	4079.55
426.01	4124.02
426.20	4208.28
426.39	4109.98
426.58	4163.81
426.77	4035.08
426.96	4135.73
427.15	4109.98
427.33	4341.69
427.52	4248.07
427.71	4311.27
427.90	4308.93
428.09	4287.86
428.28	4344.03
428.46	4318.29
428.65	4334.67
428.84	4458.72
429.03	4278.50
429.22	4299.56
429.40	4318.29
429.59	4334.67
429.78	4105.30
429.97	4133.39
430.16	4208.28
430.34	4219.99
430.53	4252.75
430.72	4428.29
430.91	4381.48
431.10	4475.10
431.28	4758.31
431.47	4627.24
431.66	4891.72
431.85	4739.58
432.03	4840.23
432.22	4814.48
432.41	4861.29
432.60	4826.18
432.79	4767.67
432.97	5104.71
433.16	5004.07
433.35	4828.53
433.54	4854.27
433.72	4854.27
433.91	4915.12
434.10	4973.64
434.28	4884.70
434.47	5053.22
434.66	5268.55
434.85	5130.45
435.03	5188.97
435.22	5149.18
435.41	5158.54
435.59	5329.40
435.78	5254.50
435.97	5296.63
436.16	5472.17
436.34	5327.06
436.53	5481.53
436.72	5610.26
436.90	5383.23
437.09	5432.38
437.28	5460.47
437.46	5467.49
437.65	5371.53
437.84	5406.64
438.02	5397.28
438.21	5249.82
438.40	5432.38
438.58	5514.30
438.77	5591.54
438.96	5626.65
439.14	5603.24
439.33	5905.17
439.52	5820.91
439.70	5968.37
439.89	5881.77
440.08	5942.62
440.26	5923.90
440.45	6066.67
440.63	6267.95
440.82	6225.82
441.01	6239.87
441.19	6272.64
441.38	6403.71
441.57	6459.88
441.75	6424.77
441.94	6445.84
442.12	6436.47
442.31	6612.01
442.50	6595.63
442.68	6436.47
442.87	6579.25
443.05	6635.42
443.24	6647.12
443.43	6799.26
443.61	6707.98
443.80	6916.28
443.98	6693.93
444.17	6499.67
444.35	6672.87
444.54	6810.96
444.73	6960.75
444.91	6693.93
445.10	6799.26
445.28	6724.36
445.47	6609.67
445.65	6825.00
445.84	6817.98
446.02	6850.75
446.21	6677.55
446.39	6850.75
446.58	6883.52
446.77	7023.95
446.95	6825.00
447.14	7075.44
447.32	7178.42
447.51	6981.82
447.69	7035.65
447.88	6963.09
448.06	6974.80
448.25	6953.73
448.43	7002.88
448.62	7016.93
448.80	6909.26
448.99	7225.23
449.17	7124.59
449.36	6963.09
449.54	7234.60
449.73	7353.96
449.91	7295.45
450.10	7499.08
450.28	7625.47
450.46	7669.94
450.65	7585.68
450.83	7400.77
451.02	7581.00
451.20	7672.28
451.39	7564.61
451.57	7398.43
451.76	7468.65
451.94	7524.82
452.13	7627.81
452.31	7466.31
452.49	7262.68
452.68	7431.20
452.86	7588.02
453.05	7719.09
453.23	7454.61
453.42	7534.18
453.60	7674.62
453.78	7726.11
453.97	7775.26
454.15	7829.09
454.34	7672.28
454.52	7985.91
454.70	7950.80
454.89	7833.77
455.07	7978.89
455.26	8077.19
455.44	8318.26
455.62	8072.51
455.81	7967.18
455.99	8215.28
456.17	8100.59
456.36	8299.54
456.54	8428.27
456.73	8299.54
456.91	8456.36
457.09	8624.87
457.28	8659.98
457.46	8332.31
457.64	8388.48
457.83	8472.74
458.01	8578.06
458.19	8603.81
458.38	8425.93
458.56	8552.32
458.74	8327.63
458.93	8559.34
459.11	8809.78
459.29	8610.83
459.48	8659.98
459.66	8568.70
459.84	8549.98
460.03	8826.16
460.21	8767.65
460.39	8912.76
460.57	8802.75
460.76	8870.63
460.94	8990.00
461.12	8851.91
461.31	9074.26
461.49	8891.70
461.67	9121.07
461.85	9275.54
462.04	9160.86
462.22	9322.35
462.40	9296.61
462.59	9315.33
462.77	9341.08
462.95	9383.21
463.13	9441.72
463.32	9359.80
463.50	9359.80
463.68	9540.02
463.86	9348.10
464.05	9291.93
464.23	9474.49
464.41	9516.62
464.59	9165.54
464.78	9554.07
464.96	9521.30
465.14	9434.70
465.32	9598.54
465.50	9701.52
465.69	9837.27
465.87	9753.01
466.05	9411.29
466.23	9528.32
466.41	9675.77
466.60	9818.55
466.78	9647.69
466.96	9652.37
467.14	9591.52
467.32	9788.12
467.51	9858.34
467.69	9535.34
467.87	9750.67
468.05	9928.55
468.23	9738.97
468.41	9799.82
468.60	9678.12
468.78	10015.15
468.96	9856.00
469.14	10300.70
469.32	10225.80
469.50	9933.23
469.69	9998.77
469.87	10094.73
470.05	10057.28
470.23	10249.21
470.41	10253.89
470.59	10492.62
470.77	10216.44
470.95	10455.17
471.14	10637.73
471.32	10120.48
471.50	10679.86
471.68	10719.65
471.86	10647.10
472.04	10885.83
472.22	10916.26
472.40	10546.45
472.58	10707.95
472.77	10953.71
472.95	11009.88
473.13	11248.61
473.31	10806.25
473.49	10890.51
473.67	11208.83
473.85	11164.36
474.03	11276.70
474.21	11482.67
474.39	11587.99
474.57	11529.48
474.75	11730.76
474.93	11660.55
475.12	11410.11
475.30	11800.98
475.48	11538.84
475.66	11683.95
475.84	11742.47
476.02	11969.50
476.20	11847.79
476.38	12049.08
476.56	12177.81
476.74	12049.08
476.92	12266.75
477.10	12280.79
477.28	12435.27
477.46	12585.06
477.64	12840.18
477.82	13071.89
478.00	13219.35
478.18	13057.85
478.36	13027.42
478.54	13177.22
478.72	13427.65
478.90	13341.05
479.08	13614.90
479.26	13825.54
479.44	13692.13
479.62	13930.87
479.80	13846.61
479.98	14050.24
480.16	14321.74
480.34	13994.06
480.52	14267.91
480.70	14487.92
480.88	14169.60
481.06	14434.08
481.24	14562.81
481.41	14679.84
481.59	15061.35
481.77	15171.35
481.95	14808.57
482.13	15161.99
482.31	14981.77
482.49	15447.54
482.67	15386.68
482.85	15690.95
483.03	15866.49
483.21	15758.83
483.39	15777.55
483.57	15960.11
483.74	15887.56
483.92	16130.97
484.10	16262.04
484.28	16264.38
484.46	16610.78
484.64	16964.20
484.82	16606.10
485.00	16561.63
485.18	17104.64
485.35	17198.26
485.53	16968.88
485.71	16767.60
485.89	16896.33
486.07	16884.62
486.25	17289.54
486.43	17532.95
486.61	17551.68
486.78	18071.28
486.96	17900.42
487.14	18354.48
487.32	18398.95
487.50	18689.18
487.68	18588.53
487.85	19176.01
488.03	19283.67
488.21	19470.92
488.39	19246.23
488.57	19421.77
488.75	19796.25
488.92	19552.84
489.10	20114.56
489.28	20152.01
489.46	20638.84
489.64	20540.54
489.81	20868.22
489.99	20690.34
490.17	21170.15
490.35	21242.70
490.53	21177.17
490.70	21153.76
490.88	21352.71
491.06	21453.35
491.24	21465.05
491.41	21596.12
491.59	21685.06
491.77	21535.27
491.95	22073.59
492.13	22167.21
492.30	22017.42
492.48	22635.32
492.66	22525.32
492.84	22764.05
493.01	22890.44
493.19	22972.36
493.37	23030.87
493.54	23040.23
493.72	23396.00
493.90	23475.57
494.08	23721.33
494.25	24184.76
494.43	24095.82
494.61	24393.06
494.79	24575.62
494.96	24554.56
495.14	24386.04
495.32	24702.01
495.49	24561.58
495.67	24863.51
495.85	25041.39
496.02	25172.46
496.20	25223.95
496.38	25610.14
496.55	25443.96
496.73	25869.94
496.91	26024.42
497.09	26199.96
497.26	26181.23
497.44	25891.01
497.62	26143.78
497.79	26391.88
497.97	25963.56
498.14	26342.73
498.32	26384.86
498.50	26815.52
498.67	27168.94
498.85	26742.96
499.03	27475.55
499.20	27606.62
499.38	27339.80
499.56	27112.77
499.73	27388.95
499.91	27391.29
500.08	27660.45
500.26	27377.25
500.44	27496.61
500.61	27847.69
500.79	27407.67
500.97	27847.69
501.14	28053.66
501.32	28041.96
501.49	27976.42
501.67	28098.13
501.84	28313.46
502.02	28439.85
502.20	28556.88
502.37	28933.70
502.55	28931.36
502.72	28828.38
502.90	29120.95
503.07	28804.97
503.25	29060.09
503.43	28804.97
503.60	29153.71
503.78	29275.42
503.95	28947.75
504.13	29167.76
504.30	29570.33
504.48	29827.79
504.65	30075.88
504.83	30017.37
505.01	29993.97
505.18	30183.55
505.36	30417.60
505.53	30490.16
505.71	30661.02
505.88	30742.94
506.06	30506.54
506.23	31091.68
506.41	30955.93
506.58	31262.54
506.76	30902.09
506.93	31138.49
507.11	31185.30
507.28	31138.49
507.46	31072.95
507.63	30756.98
507.81	31225.09
507.98	31218.07
508.16	31356.16
508.33	31459.14
508.50	31662.77
508.68	32032.57
508.85	32376.63
509.03	32257.26
509.20	32077.04
509.38	32397.70
509.55	32376.63
509.73	32332.16
509.90	32280.67
510.08	32601.32
510.25	32748.78
510.42	32737.07
510.60	32800.27
510.77	32833.04
510.95	33179.43
511.12	33029.64
511.30	33469.66
511.47	33031.98
511.64	33415.83
511.82	33490.73
511.99	33146.67
512.17	33408.81
512.34	33296.46
512.51	33530.51
512.69	34017.35
512.86	34052.45
513.04	33825.42
513.21	34122.67
513.38	33706.05
513.56	33745.84
513.73	34017.35
513.90	34227.99
514.08	33544.56
514.25	33996.28
514.43	34436.30
514.60	34742.91
514.77	34213.95
514.95	34190.55
515.12	34422.26
515.29	34682.06
515.47	35122.08
515.64	35314.00
515.81	35236.77
515.99	35180.59
516.16	34630.57
516.33	34464.39
516.51	34483.11
516.68	34096.92
516.85	34265.44
517.03	34270.12
517.20	34679.72
517.37	35356.13
517.54	35761.05
517.72	35068.25
517.89	35138.46
518.06	35136.12
518.24	35161.87
518.41	35503.59
518.58	35309.32
518.75	35391.24
518.93	35906.16
519.10	35812.54
519.27	36229.15
519.45	35833.60
519.62	36177.66
519.79	36601.30
519.96	36231.49
520.14	36629.38
520.31	36517.04
520.48	36622.36
520.65	36851.73
520.83	36744.07
521.00	37111.53
521.17	36788.54
521.34	37181.75
521.52	37010.89
521.69	36982.80
521.86	37773.91
522.03	37722.41
522.20	37474.32
522.38	37422.83
522.55	37603.05
522.72	37118.56
522.89	37706.03
523.07	37895.61
523.24	37343.25
523.41	38012.64
523.58	38103.92
523.75	38422.23
523.92	38366.06
524.10	38216.27
524.27	38298.19
524.44	38581.39
524.61	38775.66
524.78	38565.01
524.96	38698.42
525.13	38700.76
525.30	38749.91
525.47	38759.27
525.64	38515.86
525.81	38817.78
525.98	38534.58
526.16	38534.58
526.33	38132.01
526.50	38579.05
526.67	38073.49
526.84	38286.48
527.01	38515.86
527.18	39103.33
527.36	38838.85
527.53	39533.99
527.70	39337.38
527.87	39517.60
528.04	39452.07
528.21	39356.11
528.38	39555.05
528.55	40142.53
528.72	40088.70
528.89	40179.98
529.07	39824.22
529.24	39604.20
529.41	40348.50
529.58	39758.68
529.75	40067.63
529.92	40268.92
530.09	39955.29
530.26	40493.61
530.43	40259.55
530.60	40502.97
530.77	40271.26
530.94	40849.37
531.11	40481.91
531.28	40910.22
531.46	40638.72
531.63	41022.57
531.80	40751.07
531.97	40575.53
532.14	40428.07
532.31	40060.61
532.48	40367.22
532.65	40442.12
532.82	40107.42
532.99	40722.98
533.16	41181.73
533.33	40910.22
533.50	41008.53
533.67	41181.73
533.84	41242.58
534.01	41167.68
534.18	41165.34
534.35	41247.26
534.52	41509.40
534.69	41223.86
534.86	42204.54
535.03	42057.09
535.20	42277.10
535.37	41876.86
535.54	42241.99
535.71	41663.88
535.88	42131.98
536.05	41797.29
536.22	41703.67
536.38	42286.46
536.55	41563.23
536.72	41308.11
536.89	42017.30
537.06	41478.97
537.23	42454.98
537.40	42398.80
537.57	41766.86
537.74	42873.93
537.91	42518.17
538.08	42536.90
538.25	42253.69
538.42	42293.48
538.59	42518.17
538.75	42251.35
538.92	42429.23
539.09	42770.95
539.26	42787.33
539.43	43030.75
539.60	42211.56
539.77	42337.95
539.94	42539.24
540.11	42370.72
540.28	42230.29
540.44	42948.83
540.61	42618.81
540.78	42506.47
540.95	42419.87
541.12	42714.78
541.29	42649.24
541.46	42574.34
541.62	43103.31
541.79	43091.60
541.96	42642.22
542.13	42796.70
542.30	42946.49
542.47	43000.32
542.63	43133.73
542.80	43643.97
542.97	43475.45
543.14	43735.25
543.31	43606.52
543.48	43320.98
543.64	44201.02
543.81	43894.41
543.98	43470.77
544.15	43475.45
544.32	43992.71
544.48	44423.37
544.65	44186.97
544.82	44289.96
544.99	44194.00
545.16	43894.41
545.32	43732.91
545.49	44659.76
545.66	44460.82
545.83	44472.52
546.00	44807.22
546.16	44418.69
546.33	44252.51
546.50	44076.97
546.67	44460.82
546.83	43971.64
547.00	44652.74
547.17	44151.87
547.34	44282.94
547.50	44404.64
547.67	44591.89
547.84	44605.93
548.00	44842.32
548.17	44797.85
548.34	45099.78
548.51	44935.95
548.67	44961.69
548.84	44839.98
549.01	44788.49
549.18	44795.51
549.34	45113.83
549.51	45095.10
549.68	45106.80
549.84	44837.64
550.01	45247.24
550.18	44957.01
550.34	45146.59
550.51	45195.74
550.68	45186.38
550.84	44451.45
551.01	44935.95
551.18	45003.82
551.34	45495.33
551.51	45202.77
551.68	45705.98
551.84	45422.78
552.01	45193.40
552.18	45106.80
552.34	45029.57
552.51	45677.90
552.68	45099.78
552.84	45574.91
553.01	45820.67
553.18	45411.07
553.34	45490.65
553.51	45113.83
553.67	45874.50
553.84	46164.73
554.01	45603.00
554.17	45762.15
554.34	45797.26
554.51	45790.24
554.67	45909.61
554.84	45968.12
555.00	45404.05
555.17	45572.57
555.33	45542.14
555.50	45551.51
555.67	45944.72
555.83	45918.97
556.00	45841.73
556.16	46195.15
556.33	46239.62
556.50	45841.73
556.66	45881.52
556.83	45914.29
556.99	46026.63
557.16	46045.36
557.32	46169.41
557.49	46328.56
557.65	45851.09
557.82	45935.35
557.98	46085.15
558.15	46356.65
558.32	46178.77
558.48	46068.76
558.65	45853.44
558.81	45823.01
558.98	45855.78
559.14	46007.91
559.31	45860.46
559.47	46466.66
559.64	46117.92
559.80	46120.26
559.97	46384.74
560.13	45944.72
560.30	46333.24
560.46	46391.76
560.63	46628.15
560.79	46487.72
560.96	46286.43
561.12	46410.48
561.29	45930.67
561.45	46431.55
561.61	46113.23
561.78	46398.78
561.94	46410.48
562.11	46373.03
562.27	46232.60
562.44	46541.55
562.60	46918.38
562.77	46536.87
562.93	46492.40
563.10	46766.24
563.26	46073.45
563.42	46380.06
563.59	46520.49
563.75	46518.15
563.92	46195.15
564.08	46637.51
564.24	46485.38
564.41	46749.86
564.57	46625.81
564.74	46513.47
564.90	46923.06
565.07	46368.35
565.23	46546.23
565.39	46600.07
565.56	46635.17
565.72	46550.91
565.88	46384.74
566.05	46466.66
566.21	46728.80
566.38	46373.03
566.54	46944.12
566.70	47136.05
566.87	47274.14
567.03	46972.21
567.19	46724.11
567.36	47117.32
567.52	46735.82
567.68	47173.50
567.85	46962.85
568.01	46623.47
568.17	46539.21
568.34	46738.16
568.50	46845.82
568.66	46787.31
568.83	46777.95
568.99	46408.14
569.15	47037.75
569.32	46801.35
569.48	46681.98
569.64	47459.04
569.81	46784.97
569.97	46717.09
570.13	46822.42
570.30	46614.11
570.46	46672.62
570.62	46548.57
570.78	46604.75
570.95	46541.55
571.11	46312.18
571.27	46464.32
571.43	46625.81
571.60	46766.24
571.76	47068.17
571.92	47105.62
572.09	46719.43
572.25	46911.36
572.41	47292.86
572.57	46974.55
572.74	47365.42
572.90	46946.47
573.06	46988.60
573.22	46965.19
573.38	46810.71
573.55	46719.43
573.71	47210.95
573.87	46990.94
574.03	46789.65
574.20	46866.89
574.36	47098.60
574.52	46902.00
574.68	46787.31
574.84	47112.64
575.01	47349.04
575.17	47049.45
575.33	46714.75
575.49	47079.88
575.65	47166.48
575.82	47016.68
575.98	46621.13
576.14	46789.65
576.30	46967.53
576.46	46953.49
576.62	47056.47
576.79	47023.70
576.95	46234.94
577.11	46689.01
577.27	47061.15
577.43	46794.33
577.59	46616.45
577.75	47274.14
577.92	46356.65
578.08	46082.81
578.24	46845.82
578.40	46415.16
578.56	46946.47
578.72	47459.04
578.88	47103.28
579.04	46817.74
579.21	47103.28
579.37	46646.88
579.53	47157.11
579.69	46763.90
579.85	47185.20
580.01	47192.22
580.17	47042.43
580.33	46925.40
580.49	47398.19
580.65	47051.79
580.82	46909.02
580.98	46948.81
581.14	46721.77
581.30	47178.18
581.46	46876.25
581.62	46930.08
581.78	47047.11
581.94	47487.13
582.10	47061.15
582.26	47346.70
582.42	47019.02
582.58	47189.88
582.74	47150.09
582.90	47049.45
583.06	47466.06
583.22	47199.24
583.38	47356.06
583.54	46979.23
583.70	47154.77
583.86	47220.31
584.02	47206.26
584.18	47054.13
584.34	47370.10
584.50	46997.96
584.66	47061.15
584.82	46777.95
584.98	47241.37
585.14	47388.83
585.30	46721.77
585.46	47246.05
585.62	46761.56
585.78	46794.33
585.94	46525.17
586.10	46904.34
586.26	46553.26
586.42	47353.72
586.58	47145.41
586.74	47154.77
586.90	47070.51
587.06	46869.23
587.22	47271.80
587.38	47093.92
587.54	47246.05
587.70	47386.49
587.86	47082.22
588.02	47222.65
588.18	46916.04
588.34	47110.30
588.49	46595.38
588.65	46405.80
588.81	46630.49
588.97	46396.44
589.13	46789.65
589.29	46433.89
589.45	46504.10
589.61	47187.54
589.77	47318.61
589.93	47175.84
