SpectraSuite Data File
++++++++++++++++++++++++++++++++++++
Date: Fri Oct 25 11:25:59 EDT 2013
User: price-jones
Dark Spectrum Present: No
Reference Spectrum Present: No
Number of Sampled Component Spectra: 1
Spectrometers: USB2+H05261
Integration Time (usec): 100000 (USB2+H05261)
Spectra Averaged: 1 (USB2+H05261)
Boxcar Smoothing: 0 (USB2+H05261)
Correct for Electrical Dark: No (USB2+H05261)
Strobe/Lamp Enabled: No (USB2+H05261)
Correct for Detector Non-linearity: No (USB2+H05261)
Correct for Stray Light: No (USB2+H05261)
Number of Pixels in Processed Spectrum: 2048
>>>>>Begin Processed Spectral Data<<<<<
365.73	138.09
365.92	138.09
366.12	138.09
366.32	212.99
366.52	175.54
366.72	142.77
366.91	135.75
367.11	170.86
367.31	53.83
367.51	110.01
367.70	170.86
367.90	114.69
368.10	145.11
368.30	77.24
368.49	110.01
368.69	184.90
368.89	159.16
369.09	126.39
369.28	224.69
369.48	117.03
369.68	161.50
369.87	189.58
370.07	220.01
370.27	250.44
370.47	325.33
370.66	587.47
370.86	627.26
371.06	723.23
371.25	748.97
371.45	699.82
371.65	615.56
371.84	648.33
372.04	603.86
372.24	739.61
372.44	699.82
372.63	702.16
372.83	772.38
373.03	774.72
373.22	833.23
373.42	809.83
373.62	765.36
373.81	821.53
374.01	800.46
374.21	802.80
374.40	849.61
374.60	800.46
374.79	814.51
374.99	774.72
375.19	798.12
375.38	779.40
375.58	812.17
375.78	772.38
375.97	777.06
376.17	961.96
376.37	882.38
376.56	933.87
376.76	943.24
376.95	861.32
377.15	945.58
377.35	945.58
377.54	952.60
377.74	877.70
377.93	964.30
378.13	961.96
378.33	931.53
378.52	964.30
378.72	992.39
378.91	952.60
379.11	966.64
379.31	971.32
379.50	894.08
379.70	994.73
379.89	1004.09
380.09	926.85
380.28	1022.81
380.48	924.51
380.68	978.34
380.87	952.60
381.07	957.28
381.26	1018.13
381.46	997.07
381.65	1008.77
381.85	1022.81
382.04	999.41
382.24	1064.94
382.43	1039.20
382.63	1050.90
382.83	1078.99
383.02	999.41
383.22	1116.44
383.41	1158.57
383.61	1109.41
383.80	1139.84
384.00	1107.07
384.19	1163.25
384.39	1210.06
384.58	1081.33
384.78	1188.99
384.97	1191.33
385.17	1179.63
385.36	1174.95
385.56	1256.87
385.75	1034.52
385.95	1125.80
386.14	1121.12
386.34	1064.94
386.53	1198.35
386.72	1226.44
386.92	1196.01
387.11	1256.87
387.31	1266.23
387.50	1294.32
387.70	1296.66
387.89	1210.06
388.09	1291.98
388.28	1331.76
388.48	1238.14
388.67	1310.70
388.86	1380.92
389.06	1313.04
389.25	1308.36
389.45	1387.94
389.64	1310.70
389.84	1373.89
390.03	1341.13
390.22	1451.13
390.42	1294.32
390.61	1327.08
390.81	1416.02
391.00	1500.28
391.19	1521.35
391.39	1409.00
391.58	1465.18
391.78	1378.58
391.97	1420.71
392.16	1437.09
392.36	1483.90
392.55	1472.20
392.75	1549.43
392.94	1486.24
393.13	1598.59
393.33	1526.03
393.52	1579.86
393.71	1572.84
393.91	1650.08
394.10	1479.22
394.29	1664.12
394.49	1657.10
394.68	1699.23
394.88	1647.74
395.07	1783.49
395.26	1739.02
395.46	1678.16
395.65	1811.57
395.84	1799.87
396.04	1694.55
396.23	1874.77
396.42	1790.51
396.62	1783.49
396.81	1825.62
397.00	1799.87
397.19	1844.34
397.39	1846.68
397.58	1818.60
397.77	1830.30
397.97	1844.34
398.16	1806.89
398.35	1902.86
398.55	1767.10
398.74	2008.18
398.93	1923.92
399.12	1956.69
399.32	1940.30
399.51	1858.39
399.70	1902.86
399.90	1970.73
400.09	1982.43
400.28	2054.99
400.47	2017.54
400.67	2071.37
400.86	2064.35
401.05	2099.46
401.24	2078.40
401.44	2097.12
401.63	2113.50
401.82	2188.40
402.01	2228.19
402.21	2265.64
402.40	2132.23
402.59	2188.40
402.78	2190.74
402.97	2223.51
403.17	2356.92
403.36	2256.28
403.55	2326.49
403.74	2366.28
403.93	2382.67
404.13	2429.48
404.32	2373.30
404.51	2396.71
404.70	2459.90
404.89	2370.96
405.09	2452.88
405.28	2399.05
405.47	2424.80
405.66	2471.61
405.85	2562.89
406.05	2513.74
406.24	2523.10
406.43	2541.82
406.62	2541.82
406.81	2736.09
407.00	2567.57
407.20	2504.37
407.39	2640.12
407.58	2600.34
407.77	2708.00
407.96	2810.98
408.15	2710.34
408.34	2759.49
408.54	2836.73
408.73	2733.75
408.92	2752.47
409.11	2841.41
409.30	2981.84
409.49	2946.73
409.68	3026.31
409.87	2953.76
410.07	2953.76
410.26	3091.85
410.45	3038.02
410.64	3002.91
410.83	2939.71
411.02	3063.76
411.21	3157.38
411.40	3115.25
411.59	3211.22
411.78	3185.47
411.98	3178.45
412.17	3276.75
412.36	3309.52
412.55	3330.58
412.74	3403.14
412.93	3487.40
413.12	3386.76
413.31	3552.93
413.50	3403.14
413.69	3342.28
413.88	3571.66
414.07	3604.42
414.26	3396.12
414.45	3637.19
414.64	3623.15
414.83	3662.94
415.02	3726.13
415.22	3859.54
415.41	3864.22
415.60	3850.18
415.79	3962.53
415.98	3932.10
416.17	4021.04
416.36	3960.19
416.55	4037.42
416.74	4063.17
416.93	3976.57
417.12	4236.37
417.31	4208.28
417.50	4142.75
417.69	4203.60
417.88	4257.43
418.07	4318.29
418.26	4259.78
418.45	4266.80
418.64	4444.68
418.83	4304.25
419.02	4592.13
419.21	4542.98
419.39	4554.68
419.58	4472.76
419.77	4337.01
419.96	4507.87
420.15	4533.62
420.34	4739.58
420.53	4737.24
420.72	4662.35
420.91	4690.43
421.10	4664.69
421.29	4748.95
421.48	4601.49
421.67	4858.95
421.86	4697.46
422.05	4739.58
422.24	4634.26
422.43	4772.35
422.61	4840.23
422.80	4868.31
422.99	4793.42
423.18	4856.61
423.37	5102.37
423.56	4819.16
423.75	4985.34
423.94	4812.14
424.13	4711.50
424.32	4858.95
424.50	4924.49
424.69	5095.35
424.88	4943.21
425.07	4936.19
425.26	4940.87
425.45	4964.28
425.64	4842.57
425.83	4929.17
426.01	4959.60
426.20	4903.42
426.39	5111.73
426.58	4891.72
426.77	5039.17
426.96	5090.67
427.15	5067.26
427.33	5305.99
427.52	5130.45
427.71	5233.44
427.90	5107.05
428.09	5200.67
428.28	5331.74
428.46	5359.83
428.65	5324.72
428.84	5643.03
429.03	5441.75
429.22	5179.61
429.40	5430.04
429.59	5537.71
429.78	5453.45
429.97	5348.12
430.16	5483.88
430.34	5633.67
430.53	5654.73
430.72	5544.73
430.91	5605.58
431.10	5647.71
431.28	5813.89
431.47	5741.33
431.66	6012.84
431.85	5736.65
432.03	6036.24
432.22	5956.66
432.41	5839.64
432.60	5991.77
432.79	5806.87
432.97	5977.73
433.16	6005.81
433.35	6017.52
433.54	6162.63
433.72	6024.54
433.91	6099.44
434.10	6230.51
434.28	6017.52
434.47	6174.33
434.66	6324.13
434.85	6321.79
435.03	6188.38
435.22	6174.33
435.41	6539.46
435.59	6359.24
435.78	6415.41
435.97	6466.90
436.16	6328.81
436.34	6331.15
436.53	6513.71
436.72	6663.51
436.90	6607.33
437.09	6710.32
437.28	6459.88
437.46	6389.66
437.65	6693.93
437.84	6766.49
438.02	6780.53
438.21	6885.86
438.40	6623.72
438.58	6813.30
438.77	7040.33
438.96	6832.02
439.14	7014.59
439.33	7026.29
439.52	7133.95
439.70	7220.55
439.89	7375.03
440.08	7382.05
440.26	7314.17
440.45	7328.22
440.63	7487.37
440.82	7478.01
441.01	7393.75
441.19	7543.55
441.38	7538.87
441.57	7772.92
441.75	7723.77
441.94	7918.03
442.12	7894.63
442.31	8112.30
442.50	8063.15
442.68	7939.10
442.87	7932.08
443.05	8063.15
443.24	8257.41
443.43	8053.78
443.61	8299.54
443.80	8482.10
443.98	8088.89
444.17	7742.49
444.35	8201.24
444.54	8425.93
444.73	8278.47
444.91	8360.39
445.10	8126.34
445.28	8514.87
445.47	8248.05
445.65	8390.82
445.84	8255.07
446.02	8580.40
446.21	8308.90
446.39	8339.33
446.58	8372.10
446.77	8587.43
446.95	8215.28
447.14	8215.28
447.32	8615.51
447.51	8486.78
447.69	8236.35
447.88	8493.80
448.06	8442.31
448.25	8421.25
448.43	8482.10
448.62	8631.90
448.80	8636.58
448.99	8601.47
449.17	8535.93
449.36	8784.03
449.54	8784.03
449.73	8929.14
449.91	8908.08
450.10	8997.02
450.28	9027.45
450.46	9060.21
450.65	9149.15
450.83	8882.33
451.02	9011.06
451.20	9231.07
451.39	9137.45
451.57	8961.91
451.76	9081.28
451.94	9090.64
452.13	9378.53
452.31	9088.30
452.49	9165.54
452.68	9713.22
452.86	9303.63
453.05	9530.66
453.23	9561.09
453.42	9401.93
453.60	9245.12
453.78	9483.85
453.97	9179.58
454.15	9366.82
454.34	9315.33
454.52	9727.27
454.70	9661.73
454.89	9996.43
455.07	9816.21
455.26	9851.31
455.44	10106.43
455.62	9792.80
455.81	9872.38
455.99	10134.52
456.17	10200.05
456.36	10045.58
456.54	10193.03
456.73	10071.33
456.91	10391.98
457.09	10490.28
457.28	10466.88
457.46	10090.05
457.64	10609.65
457.83	10523.05
458.01	10342.83
458.19	10724.33
458.38	10565.18
458.56	10682.20
458.74	10490.28
458.93	10670.50
459.11	10628.37
459.29	10906.90
459.48	10918.60
459.66	10850.72
459.84	10925.62
460.03	11061.37
460.21	11101.16
460.39	11005.20
460.57	11054.35
460.76	11213.51
460.94	11176.06
461.12	11199.46
461.31	11398.41
461.49	11201.80
461.67	11105.84
461.85	11365.64
462.04	11152.65
462.22	11648.85
462.40	11541.18
462.59	11382.03
462.77	11337.56
462.95	11735.45
463.13	11531.82
463.32	11648.85
463.50	11772.89
463.68	11527.14
463.86	11765.87
464.05	11421.81
464.23	11676.93
464.41	11875.88
464.59	11506.07
464.78	11974.18
464.96	11857.15
465.14	11815.02
465.32	12039.72
465.50	12138.02
465.69	12105.25
465.87	11960.14
466.05	12180.15
466.23	12095.89
466.41	12381.43
466.60	12498.46
466.78	12025.67
466.96	12102.91
467.14	12285.47
467.32	12114.61
467.51	12519.53
467.69	12250.36
467.87	12362.71
468.05	12421.22
468.23	12519.53
468.41	12318.24
468.60	12662.30
468.78	12645.91
468.96	12496.12
469.14	12699.75
469.32	13020.40
469.50	12741.88
469.69	13135.09
469.87	12968.91
470.05	13064.87
470.23	13104.66
470.41	13338.71
470.59	13371.48
470.77	13153.81
470.95	13193.60
471.14	13673.41
471.32	13036.78
471.50	13755.33
471.68	13617.24
471.86	13949.59
472.04	13699.16
472.22	14183.65
472.40	13631.28
472.58	14075.98
472.77	13973.00
472.95	14193.01
473.13	14576.86
473.31	13963.64
473.49	13853.63
473.67	14040.87
473.85	14310.04
474.03	14764.10
474.21	14225.78
474.39	14897.51
474.57	14628.35
474.75	14796.87
474.93	14977.09
475.12	14766.44
475.30	15262.63
475.48	14885.81
475.66	15428.81
475.84	14918.57
476.02	15377.32
476.20	15384.34
476.38	15571.58
476.56	15707.34
476.74	15896.92
476.92	15761.17
477.10	15520.09
477.28	16044.37
477.46	16407.16
477.64	16278.43
477.82	16236.30
478.00	17116.34
478.18	16589.72
478.36	16870.58
478.54	17156.13
478.72	17102.29
478.90	17378.48
479.08	17584.44
479.26	17949.57
479.44	17411.25
479.62	17715.51
479.80	18029.15
479.98	18043.19
480.16	18396.61
480.34	18328.74
480.52	18515.98
480.70	18717.26
480.88	18305.33
481.06	18668.11
481.24	18759.39
481.41	19234.52
481.59	19147.92
481.77	19353.89
481.95	19396.02
482.13	19878.17
482.31	19623.05
482.49	20091.16
482.67	20128.61
482.85	20545.22
483.03	20531.18
483.21	20608.42
483.39	20683.31
483.57	20971.20
483.74	21130.36
483.92	21015.67
484.10	20783.96
484.28	21668.68
484.46	22190.62
484.64	22436.38
484.82	21965.93
485.00	22520.63
485.18	22726.60
485.35	23021.51
485.53	22801.50
485.71	22981.72
485.89	23461.53
486.07	23246.20
486.25	23407.70
486.43	23463.87
486.61	23751.76
486.78	23676.86
486.96	23929.64
487.14	24444.56
487.32	24252.63
487.50	24954.79
487.68	25284.81
487.85	25053.09
488.03	25476.73
488.21	26012.71
488.39	25736.53
488.57	25895.69
488.75	26160.17
488.92	26190.59
489.10	26639.98
489.28	26890.41
489.46	26864.67
489.64	27058.93
489.81	27470.87
489.99	27571.51
490.17	27955.36
490.35	28243.24
490.53	28215.16
490.70	28224.52
490.88	28243.24
491.06	28823.70
491.24	28514.75
491.41	29317.55
491.59	29373.72
491.77	29289.46
491.95	29701.40
492.13	29670.97
492.30	29965.88
492.48	29914.39
492.66	30012.69
492.84	30015.03
493.01	30731.23
493.19	30356.75
493.37	30859.96
493.54	31236.79
493.72	31555.10
493.90	31262.54
494.08	31515.31
494.25	31988.10
494.43	31618.30
494.61	32275.99
494.79	32208.11
494.96	32533.45
495.14	32610.68
495.32	32978.15
495.49	32875.16
495.67	33165.39
495.85	33504.77
496.02	33881.60
496.20	34061.82
496.38	34213.95
496.55	34218.63
496.73	34831.85
496.91	34918.45
497.09	34721.85
497.26	34616.52
497.44	34857.60
497.62	34951.22
497.79	35941.27
497.97	35388.90
498.14	35948.29
498.32	35948.29
498.50	36121.49
498.67	36051.27
498.85	36514.70
499.03	36275.96
499.20	36594.28
499.38	36381.29
499.56	36650.45
499.73	37078.77
499.91	37088.13
500.08	37476.66
500.26	36935.99
500.44	37422.83
500.61	37666.24
500.79	37724.75
500.97	37865.19
501.14	38281.80
501.32	38539.26
501.49	38450.32
501.67	38389.47
501.84	38567.35
502.02	38794.38
502.20	39248.44
502.37	39232.06
502.55	39051.84
502.72	39447.39
502.90	39653.36
503.07	39346.75
503.25	39730.59
503.43	39173.55
503.60	40402.33
503.78	40018.48
503.95	40477.22
504.13	40093.38
504.30	40512.33
504.48	40587.23
504.65	40521.69
504.83	41158.32
505.01	40964.06
505.18	41511.74
505.36	41137.26
505.53	41354.93
505.71	41273.01
505.88	41984.53
506.06	41074.06
506.23	41624.09
506.41	41467.27
506.58	41904.95
506.76	41844.10
506.93	42216.24
507.11	42356.67
507.28	42206.88
507.46	42462.00
507.63	42953.51
507.81	43344.38
507.98	42588.39
508.16	42850.53
508.33	43533.96
508.50	43501.20
508.68	43578.43
508.85	43896.75
509.03	43686.10
509.20	43920.15
509.38	44381.24
509.55	44053.56
509.73	44189.31
509.90	44500.61
510.08	44484.22
510.25	44383.58
510.42	44388.26
510.60	44781.47
510.77	45010.84
510.95	45125.53
511.12	44973.39
511.30	44858.71
511.47	45673.21
511.64	45031.91
511.82	46050.04
511.99	45556.19
512.17	45776.20
512.34	45876.84
512.51	46071.10
512.69	46366.01
512.86	46117.92
513.04	46274.73
513.21	46639.86
513.38	46831.78
513.56	47065.83
513.73	46539.21
513.90	47037.75
514.08	47112.64
514.25	47201.58
514.43	47234.35
514.60	47243.71
514.77	47400.53
514.95	47482.45
515.12	47419.25
515.29	47615.86
515.47	47423.93
515.64	48158.86
515.81	47679.05
515.99	47964.60
516.16	48034.81
516.33	47945.87
516.51	48502.92
516.68	48245.46
516.85	48437.39
517.03	48769.74
517.20	48671.44
517.37	48734.63
517.54	48748.68
517.72	48940.60
517.89	48816.55
518.06	49425.09
518.24	49111.46
518.41	49331.47
518.58	49315.09
518.75	49249.55
518.93	49528.08
519.10	49535.10
519.27	49762.13
519.45	50103.85
519.62	49886.18
519.79	49619.36
519.96	49822.98
520.14	50234.92
520.31	50021.93
520.48	50103.85
520.65	50468.97
520.83	50656.21
521.00	50567.27
521.17	50251.30
521.34	50553.23
521.52	50686.64
521.69	50555.57
521.86	50464.29
522.03	50899.63
522.20	51040.06
522.38	51276.46
522.55	51014.32
522.72	51564.34
522.89	51367.74
523.07	51667.33
523.24	51763.29
523.41	51503.49
523.58	51323.27
523.75	51917.76
523.92	51716.48
524.10	51920.10
524.27	52105.01
524.44	51957.55
524.61	51840.53
524.78	52161.18
524.96	52009.04
525.13	52133.09
525.30	52587.16
525.47	52332.04
525.64	52236.08
525.81	52636.31
525.98	52629.29
526.16	52357.78
526.33	52650.35
526.50	52500.56
526.67	52858.66
526.84	52741.63
527.01	52994.41
527.18	52889.09
527.36	53034.20
527.53	52793.12
527.70	53366.55
527.87	53193.36
528.04	53024.84
528.21	53268.25
528.38	53001.43
528.55	53436.77
528.72	53270.59
528.89	53675.51
529.07	53301.02
529.24	53364.21
529.41	53364.21
529.58	53619.33
529.75	53460.18
529.92	53689.55
530.09	53518.69
530.26	53717.64
530.43	53787.85
530.60	53780.83
530.77	53811.26
530.94	53839.34
531.11	53984.46
531.28	53909.56
531.46	54232.55
531.63	54232.55
531.80	54176.38
531.97	54209.15
532.14	54340.22
532.31	54164.68
532.48	54178.72
532.65	54658.53
532.82	54286.39
532.99	54639.81
533.16	54415.11
533.33	54742.79
533.50	54981.52
533.67	54677.25
533.84	54763.85
534.01	54728.75
534.18	54845.77
534.35	54967.48
534.52	55110.25
534.69	55201.53
534.86	55248.35
535.03	55054.08
535.20	55145.36
535.37	55341.97
535.54	55056.42
535.71	54742.79
535.88	55276.43
536.05	55517.51
536.22	55430.91
536.38	55339.63
536.55	55400.48
536.72	55388.78
536.89	55182.81
537.06	55662.62
537.23	55679.00
537.40	55341.97
537.57	55519.85
537.74	55772.63
537.91	55976.25
538.08	55728.16
538.25	55594.74
538.42	55695.39
538.59	56119.02
538.75	55779.65
538.92	56034.77
539.09	56062.85
539.26	56046.47
539.43	56182.22
539.60	56186.90
539.77	56025.40
539.94	56294.56
540.11	56280.52
540.28	56329.67
540.44	56498.19
540.61	56308.61
540.78	56259.46
540.95	56392.87
541.12	56264.14
541.29	56502.87
541.46	56498.19
541.62	56313.29
541.79	56673.73
541.96	56395.21
542.13	56540.32
542.30	56514.58
542.47	56720.54
542.63	56797.78
542.80	56980.34
542.97	56956.94
543.14	57050.56
543.31	57179.29
543.48	57205.03
543.64	57228.44
543.81	57375.89
543.98	57296.31
544.15	57506.96
544.32	57432.07
544.48	57460.15
544.65	57326.74
544.82	57497.60
544.99	57221.42
545.16	57511.64
545.32	57336.10
545.49	57607.61
545.66	57570.16
545.83	57572.50
546.00	57785.49
546.16	57612.29
546.33	57336.10
546.50	57296.31
546.67	57673.14
546.83	57401.64
547.00	57509.30
547.17	57715.27
547.34	57687.18
547.50	57977.41
547.67	57895.49
547.84	57909.53
548.00	57909.53
548.17	58164.65
548.34	57986.77
548.51	58078.05
548.67	58099.12
548.84	58110.82
549.01	57958.69
549.18	58033.58
549.34	58253.59
549.51	58136.57
549.68	58501.69
549.84	58307.43
550.01	58279.34
550.18	58202.10
550.34	58424.45
550.51	58667.87
550.68	58309.77
550.84	58174.02
551.01	58117.84
551.18	58450.20
551.34	58302.74
551.51	58560.20
551.68	58459.56
551.84	58618.72
552.01	58262.96
552.18	58452.54
552.34	58354.24
552.51	58773.19
552.68	58520.41
552.84	58623.40
553.01	58894.90
553.18	58794.26
553.34	58939.37
553.51	58735.74
553.67	59000.22
553.84	58834.05
554.01	58827.02
554.17	58974.48
554.34	58897.24
554.51	58974.48
554.67	58939.37
554.84	58763.83
555.00	58967.46
555.17	59152.36
555.33	58824.68
555.50	58838.73
555.67	58951.07
555.83	58939.37
556.00	59145.34
556.16	59276.41
556.33	59222.58
556.50	59117.25
556.66	59290.45
556.83	59126.61
556.99	59456.63
557.16	59339.60
557.32	59351.30
557.49	59592.38
557.65	59250.66
557.82	59297.47
557.98	59290.45
558.15	59332.58
558.32	59395.77
558.48	59260.02
558.65	59419.18
558.81	59377.05
558.98	59433.22
559.14	59583.02
559.31	59700.04
559.47	59559.61
559.64	59643.87
559.80	59657.91
559.97	59781.96
560.13	59711.75
560.30	59606.42
560.46	59597.06
560.63	59552.59
560.79	59826.43
560.96	59824.09
561.12	59788.98
561.29	59915.37
561.45	59800.69
561.61	59824.09
561.78	59561.95
561.94	59753.88
562.11	59601.74
562.27	59756.22
562.44	59856.86
562.60	59962.18
562.77	59966.87
562.93	59758.56
563.10	60020.70
563.26	59964.52
563.42	60111.98
563.59	59934.10
563.75	59817.07
563.92	59955.16
564.08	59971.55
564.24	60121.34
564.41	60224.32
564.57	59955.16
564.74	60097.94
564.90	60165.81
565.07	59999.63
565.23	60083.89
565.39	60032.40
565.56	60023.04
565.72	59936.44
565.88	60243.05
566.05	60088.57
566.21	59980.91
566.38	60168.15
566.54	60177.51
566.70	60374.12
566.87	60339.01
567.03	60072.19
567.19	60341.35
567.36	60104.96
567.52	60217.30
567.68	60303.90
567.85	60320.29
568.01	60449.02
568.17	60306.24
568.34	60399.86
568.50	60308.58
568.66	60243.05
568.83	60381.14
568.99	60495.83
569.15	60397.52
569.32	60409.23
569.48	60416.25
569.64	60388.16
569.81	60357.74
569.97	60212.62
570.13	60376.46
570.30	60348.37
570.46	60266.45
570.62	60580.09
570.78	60243.05
570.95	60488.80
571.11	60491.15
571.27	60451.36
571.43	60420.93
571.60	60746.26
571.76	60409.23
571.92	60402.21
572.09	60552.00
572.25	60392.84
572.41	60409.23
572.57	60521.57
572.74	60619.88
572.90	60432.63
573.06	60430.29
573.22	60570.72
573.38	60683.07
573.55	60526.25
573.71	60776.69
573.87	60701.79
574.03	60526.25
574.20	60645.62
574.36	60500.51
574.52	60797.76
574.68	60573.06
574.84	60800.10
575.01	60664.35
575.17	60594.13
575.33	60444.33
575.49	60505.19
575.65	60643.28
575.82	60708.82
575.98	60706.47
576.14	61027.13
576.30	60556.68
576.46	60472.42
576.62	60732.22
576.79	60650.30
576.95	60605.83
577.11	60903.08
577.27	60748.60
577.43	60800.10
577.59	60589.45
577.75	60750.94
577.92	60629.24
578.08	60720.52
578.24	60725.20
578.40	60940.53
578.56	60898.40
578.72	60779.03
578.88	60779.03
579.04	61020.11
579.21	60762.65
579.37	60992.02
579.53	60807.12
579.69	60556.68
579.85	60823.50
580.01	60636.26
580.17	60568.38
580.33	60842.23
580.49	60933.51
580.65	60685.41
580.82	60952.23
580.98	60636.26
581.14	60657.32
581.30	60865.63
581.46	60870.31
581.62	60825.84
581.78	60563.70
581.94	60816.48
582.10	60788.39
582.26	60673.71
582.42	60807.12
582.58	61120.75
582.74	60870.31
582.90	60767.33
583.06	60942.87
583.22	60734.56
583.38	60921.80
583.54	60800.10
583.70	61034.15
583.86	60753.29
584.02	60636.26
584.18	61230.75
584.34	60860.95
584.50	60989.68
584.66	60889.04
584.82	60652.64
584.98	60980.32
585.14	61172.24
585.30	60809.46
585.46	61003.72
585.62	60795.42
585.78	61024.79
585.94	60729.88
586.10	61001.38
586.26	60940.53
586.42	61045.85
586.58	60989.68
586.74	61048.19
586.90	60924.14
587.06	60987.34
587.22	61048.19
587.38	60935.85
587.54	61109.05
587.70	60999.04
587.86	61092.66
588.02	60970.96
588.18	61104.37
588.34	61045.85
588.49	60891.38
