SpectraSuite Data File
++++++++++++++++++++++++++++++++++++
Date: Fri Oct 25 10:44:34 EDT 2013
User: price-jones
Dark Spectrum Present: No
Reference Spectrum Present: No
Number of Sampled Component Spectra: 1
Spectrometers: USB2+H05261
Integration Time (usec): 100000 (USB2+H05261)
Spectra Averaged: 1 (USB2+H05261)
Boxcar Smoothing: 0 (USB2+H05261)
Correct for Electrical Dark: No (USB2+H05261)
Strobe/Lamp Enabled: No (USB2+H05261)
Correct for Detector Non-linearity: No (USB2+H05261)
Correct for Stray Light: No (USB2+H05261)
Number of Pixels in Processed Spectrum: 2048
>>>>>Begin Processed Spectral Data<<<<<
365.73	126.39
365.92	126.39
366.12	126.39
366.32	32.77
366.52	51.49
366.72	39.79
366.91	105.32
367.11	49.15
367.31	65.54
367.51	14.04
367.70	0.00
367.90	25.75
368.10	0.00
368.30	95.96
368.49	37.45
368.69	51.49
368.89	70.22
369.09	4.68
369.28	18.72
369.48	25.75
369.68	42.13
369.87	42.13
370.07	102.98
370.27	124.05
370.47	201.29
370.66	304.27
370.86	372.15
371.06	414.27
371.25	416.62
371.45	365.12
371.65	505.56
371.84	472.79
372.04	444.70
372.24	411.93
372.44	440.02
372.63	425.98
372.83	397.89
373.03	484.49
373.22	472.79
373.42	458.74
373.62	505.56
373.81	451.72
374.01	564.07
374.21	482.15
374.40	524.28
374.60	491.51
374.79	528.96
374.99	470.45
375.19	552.37
375.38	552.37
375.58	489.17
375.78	608.54
375.97	564.07
376.17	582.79
376.37	557.05
376.56	594.50
376.76	571.09
376.95	514.92
377.15	498.53
377.35	624.92
377.54	645.99
377.74	571.09
377.93	617.90
378.13	620.24
378.33	657.69
378.52	624.92
378.72	690.46
378.91	645.99
379.11	660.03
379.31	580.45
379.50	613.22
379.70	655.35
379.89	610.88
380.09	657.69
380.28	538.32
380.48	608.54
380.68	678.76
380.87	662.37
381.07	671.73
381.26	704.50
381.46	683.44
381.65	685.78
381.85	683.44
382.04	643.65
382.24	711.52
382.43	685.78
382.63	606.20
382.83	685.78
383.02	746.63
383.22	678.76
383.41	662.37
383.61	643.65
383.80	692.80
384.00	709.18
384.19	697.48
384.39	732.59
384.58	739.61
384.78	765.36
384.97	746.63
385.17	720.88
385.36	744.29
385.56	763.01
385.75	671.73
385.95	720.88
386.14	772.38
386.34	755.99
386.53	816.85
386.72	793.44
386.92	774.72
387.11	779.40
387.31	758.33
387.50	861.32
387.70	821.53
387.89	784.08
388.09	851.96
388.28	816.85
388.48	784.08
388.67	840.25
388.86	835.57
389.06	905.79
389.25	835.57
389.45	856.64
389.64	959.62
389.84	903.45
390.03	905.79
390.22	1011.11
390.42	889.40
390.61	917.49
390.81	915.15
391.00	947.92
391.19	980.68
391.39	952.60
391.58	980.68
391.78	957.28
391.97	966.64
392.16	1004.09
392.36	1095.37
392.55	978.34
392.75	1013.45
392.94	933.87
393.13	938.55
393.33	873.02
393.52	1008.77
393.71	919.83
393.91	1074.31
394.10	1004.09
394.29	1090.69
394.49	1029.84
394.68	1130.48
394.88	1144.52
395.07	1196.01
395.26	1090.69
395.46	1034.52
395.65	1109.41
395.84	1146.86
396.04	1128.14
396.23	1104.73
396.42	1139.84
396.62	1114.10
396.81	1123.46
397.00	1102.39
397.19	1179.63
397.39	1121.12
397.58	1219.42
397.77	1181.97
397.97	1282.61
398.16	1240.48
398.35	1394.96
398.55	1235.80
398.74	1338.79
398.93	1413.68
399.12	1320.06
399.32	1320.06
399.51	1322.40
399.70	1383.26
399.90	1366.87
400.09	1376.24
400.28	1565.82
400.47	1406.66
400.67	1465.18
400.86	1444.11
401.05	1437.09
401.24	1488.58
401.44	1547.09
401.63	1582.20
401.82	1493.26
402.01	1502.62
402.21	1647.74
402.40	1502.62
402.59	1544.75
402.78	1523.69
402.97	1565.82
403.17	1636.03
403.36	1617.31
403.55	1577.52
403.74	1696.89
403.93	1727.32
404.13	1614.97
404.32	1612.63
404.51	1764.76
404.70	1746.04
404.89	1710.93
405.09	1795.19
405.28	1799.87
405.47	1743.70
405.66	1799.87
405.85	1717.95
406.05	1771.79
406.24	1877.11
406.43	1844.34
406.62	1827.96
406.81	1907.54
407.00	1792.85
407.20	1792.85
407.39	1767.10
407.58	1928.60
407.77	1879.45
407.96	1942.64
408.15	2029.24
408.34	2015.20
408.54	2038.61
408.73	1994.14
408.92	2036.27
409.11	2127.55
409.30	2047.97
409.49	1977.75
409.68	2106.48
409.87	2129.89
410.07	2026.90
410.26	2099.46
410.45	2202.44
410.64	2209.47
410.83	2202.44
411.02	2230.53
411.21	2380.32
411.40	2260.96
411.59	2317.13
411.78	2305.43
411.98	2356.92
412.17	2326.49
412.36	2380.32
412.55	2434.16
412.74	2572.25
412.93	2476.29
413.12	2509.05
413.31	2630.76
413.50	2459.90
413.69	2483.31
413.88	2672.89
414.07	2553.52
414.26	2637.78
414.45	2644.81
414.64	2682.25
414.83	2621.40
415.02	2590.97
415.22	2654.17
415.41	2712.68
415.60	2834.39
415.79	2853.11
415.98	2869.50
416.17	2825.03
416.36	2956.10
416.55	2822.69
416.74	2906.95
416.93	2895.24
417.12	2970.14
417.31	3061.42
417.50	3009.93
417.69	3138.66
417.88	3087.17
418.07	3108.23
418.26	3138.66
418.45	3171.43
418.64	3274.41
418.83	3169.09
419.02	3239.30
419.21	3274.41
419.39	3330.58
419.58	3169.09
419.77	3204.19
419.96	3377.39
420.15	3428.88
420.34	3281.43
420.53	3323.56
420.72	3283.77
420.91	3379.73
421.10	3330.58
421.29	3361.01
421.48	3396.12
421.67	3496.76
421.86	3412.50
422.05	3391.44
422.24	3405.48
422.43	3323.56
422.61	3480.38
422.80	3531.87
422.99	3581.02
423.18	3468.67
423.37	3667.62
423.56	3520.17
423.75	3506.12
423.94	3569.32
424.13	3321.22
424.32	3375.05
424.50	3552.93
424.69	3609.11
424.88	3716.77
425.07	3454.63
425.26	3475.70
425.45	3482.72
425.64	3492.08
425.83	3482.72
426.01	3592.72
426.20	3667.62
426.39	3576.34
426.58	3592.72
426.77	3522.51
426.96	3763.58
427.15	3623.15
427.33	3714.43
427.52	3719.11
427.71	3702.73
427.90	3756.56
428.09	3833.80
428.28	3772.94
428.46	3777.62
428.65	3801.03
428.84	3838.48
429.03	3997.64
429.22	3808.05
429.40	3801.03
429.59	3845.50
429.78	3707.41
429.97	3772.94
430.16	3733.15
430.34	3838.48
430.53	3988.27
430.72	3960.19
430.91	3838.48
431.10	4028.06
431.28	4107.64
431.47	4276.16
431.66	4081.89
431.85	4131.05
432.03	4224.67
432.22	4411.91
432.41	4329.99
432.60	4458.72
432.79	4273.82
432.97	4311.27
433.16	4290.20
433.35	4346.37
433.54	4395.53
433.72	4365.10
433.91	4269.14
434.10	4367.44
434.28	4315.95
434.47	4458.72
434.66	4416.59
434.85	4451.70
435.03	4437.66
435.22	4456.38
435.41	4650.64
435.59	4599.15
435.78	4751.29
435.97	4535.96
436.16	4603.83
436.34	4615.54
436.53	4765.33
436.72	4676.39
436.90	4610.86
437.09	4755.97
437.28	4496.17
437.46	4643.62
437.65	4781.71
437.84	4781.71
438.02	4748.95
438.21	4592.13
438.40	4856.61
438.58	4798.10
438.77	5064.92
438.96	5039.17
439.14	5097.69
439.33	5015.77
439.52	5102.37
439.70	5242.80
439.89	5043.85
440.08	5172.58
440.26	5441.75
440.45	5210.03
440.63	5327.06
440.82	5444.09
441.01	5329.40
441.19	5495.58
441.38	5664.10
441.57	5518.98
441.75	5556.43
441.94	5404.30
442.12	5804.53
442.31	5839.64
442.50	5891.13
442.68	5736.65
442.87	5776.44
443.05	5781.12
443.24	5937.94
443.43	5809.21
443.61	5872.40
443.80	5928.58
443.98	5877.09
444.17	5692.18
444.35	6015.18
444.54	6022.20
444.73	6019.86
444.91	5778.78
445.10	5966.03
445.28	5900.49
445.47	5762.40
445.65	5879.43
445.84	5778.78
446.02	5874.74
446.21	5930.92
446.39	5989.43
446.58	5860.70
446.77	6122.84
446.95	5961.34
447.14	6122.84
447.32	6031.56
447.51	6036.24
447.69	5816.23
447.88	6104.12
448.06	6160.29
448.25	5933.26
448.43	6076.03
448.62	6125.18
448.80	6239.87
448.99	6155.61
449.17	6289.02
449.36	6024.54
449.54	6193.06
449.73	6286.68
449.91	6459.88
450.10	6457.54
450.28	6530.09
450.46	6487.96
450.65	6516.05
450.83	6595.63
451.02	6689.25
451.20	6462.22
451.39	6525.41
451.57	6602.65
451.76	6644.78
451.94	6600.31
452.13	6649.46
452.31	6462.22
452.49	6452.86
452.68	6558.18
452.86	6466.90
453.05	6555.84
453.23	6717.34
453.42	6597.97
453.60	6546.48
453.78	6801.60
453.97	6679.89
454.15	6628.40
454.34	6640.10
454.52	7047.35
454.70	6939.69
454.89	6923.30
455.07	6810.96
455.26	6970.12
455.44	7105.87
455.62	7232.26
455.81	7066.08
455.99	7131.61
456.17	7087.14
456.36	7056.72
456.54	7162.04
456.73	7035.65
456.91	7403.11
457.09	7410.14
457.28	7557.59
457.46	7431.20
457.64	7222.89
457.83	7307.15
458.01	7250.98
458.19	7566.95
458.38	7424.18
458.56	7517.80
458.74	7463.97
458.93	7485.03
459.11	7578.65
459.29	7534.18
459.48	7688.66
459.66	7620.78
459.84	7698.02
460.03	7889.95
460.21	7784.62
460.39	7765.90
460.57	7595.04
460.76	7716.75
460.94	7810.37
461.12	7808.03
461.31	7978.89
461.49	7784.62
461.67	7992.93
461.85	8119.32
462.04	7925.05
462.22	8248.05
462.40	8109.96
462.59	7985.91
462.77	8304.22
462.95	8063.15
463.13	8308.90
463.32	8189.53
463.50	8173.15
463.68	8131.02
463.86	8201.24
464.05	8159.11
464.23	8177.83
464.41	8374.44
464.59	8067.83
464.78	8432.95
464.96	8479.76
465.14	8166.13
465.32	8423.59
465.50	8479.76
465.69	8472.74
465.87	8348.69
466.05	8402.52
466.23	8348.69
466.41	8395.50
466.60	8685.73
466.78	8369.76
466.96	8369.76
467.14	8580.40
467.32	8690.41
467.51	8812.12
467.69	8411.89
467.87	8659.98
468.05	8908.08
468.23	8711.47
468.41	8685.73
468.60	8805.10
468.78	8805.10
468.96	8692.75
469.14	8950.21
469.32	9036.81
469.50	8746.58
469.69	9088.30
469.87	9142.13
470.05	9125.75
470.23	8929.14
470.41	9018.08
470.59	9118.73
470.77	9011.06
470.95	9193.62
471.14	9165.54
471.32	9268.52
471.50	9359.80
471.68	9437.04
471.86	9476.83
472.04	9460.45
472.22	9600.88
472.40	9397.25
472.58	9542.36
472.77	9614.92
472.95	9804.50
473.13	9987.07
473.31	9479.17
473.49	9825.57
473.67	9694.50
473.85	9900.47
474.03	9966.00
474.21	9923.87
474.39	10143.88
474.57	10113.45
474.75	9956.64
474.93	10120.48
475.12	10197.71
475.30	10356.87
475.48	10274.95
475.66	10356.87
475.84	10340.49
476.02	10738.38
476.20	10448.15
476.38	10438.79
476.56	10937.32
476.74	10785.19
476.92	10724.33
477.10	10862.43
477.28	11255.64
477.46	11052.01
477.64	11288.40
477.82	11534.16
478.00	11400.75
478.18	11382.03
478.36	11651.19
478.54	11552.88
478.72	11712.04
478.90	11779.92
479.08	12102.91
479.26	11908.65
479.44	12074.82
479.62	12156.74
479.80	11995.25
479.98	12285.47
480.16	12603.78
480.34	12383.77
480.52	12685.70
480.70	12669.32
480.88	12671.66
481.06	12484.42
481.24	12606.13
481.41	13177.22
481.59	12982.95
481.77	13289.56
481.95	13294.24
482.13	13434.68
482.31	13511.91
482.49	13781.07
482.67	13867.67
482.85	13893.42
483.03	14132.15
483.21	14143.86
483.39	14164.92
483.57	14228.12
483.74	14143.86
483.92	14466.85
484.10	14340.46
484.28	14506.64
484.46	14822.61
484.64	14941.98
484.82	14719.63
485.00	14782.82
485.18	15161.99
485.35	15417.11
485.53	15014.54
485.71	15089.43
485.89	15344.55
486.07	15239.23
486.25	15594.99
486.43	15267.31
486.61	15700.31
486.78	15807.98
486.96	16149.70
487.14	16559.29
487.32	16159.06
487.50	16533.54
487.68	16800.37
487.85	16676.32
488.03	17350.39
488.21	17111.66
488.39	17268.47
488.57	17453.37
488.75	17434.65
488.92	17645.30
489.10	18005.74
489.28	17940.21
489.46	18106.38
489.64	18040.85
489.81	18464.49
489.99	18480.87
490.17	18714.92
490.35	18841.31
490.53	18750.03
490.70	18927.91
490.88	18934.93
491.06	19140.90
491.24	19381.98
491.41	19080.05
491.59	19346.87
491.77	19367.93
491.95	19765.82
492.13	19917.96
492.30	19889.87
492.48	20074.77
492.66	19960.09
492.84	20489.05
493.01	20423.51
493.19	20418.83
493.37	20664.59
493.54	20774.60
493.72	21036.74
493.90	20999.29
494.08	21254.40
494.25	21165.46
494.43	21425.26
494.61	21621.87
494.79	22022.10
494.96	21378.45
495.14	21568.04
495.32	21986.99
495.49	22047.85
495.67	22040.82
495.85	22298.28
496.02	22504.25
496.20	22670.43
496.38	22925.55
496.55	22726.60
496.73	23126.83
496.91	23220.45
497.09	23278.97
497.26	23379.61
497.44	23218.11
497.62	23587.92
497.79	23646.43
497.97	23543.45
498.14	23527.06
498.32	24056.03
498.50	23995.17
498.67	23871.12
498.85	24208.16
499.03	24161.35
499.20	24582.65
499.38	24627.12
499.56	24559.24
499.73	24926.71
499.91	24769.89
500.08	24772.23
500.26	24367.32
500.44	24931.39
500.61	24861.17
500.79	24854.15
500.97	24985.22
501.14	25329.28
501.32	25317.57
501.49	25490.77
501.67	25544.61
501.84	25612.48
502.02	25750.57
502.20	25837.17
502.37	26057.18
502.55	25762.28
502.72	26279.54
502.90	26438.69
503.07	25982.29
503.25	26518.27
503.43	25947.18
503.60	26298.26
503.78	26478.48
503.95	26452.73
504.13	26696.15
504.30	26632.96
504.48	26731.26
504.65	27058.93
504.83	27101.06
505.01	27349.16
505.18	27204.05
505.36	27227.45
505.53	27232.13
505.71	27482.57
505.88	27534.06
506.06	27257.88
506.23	27613.64
506.41	27491.93
506.58	27548.11
506.76	27974.08
506.93	27716.62
507.11	27974.08
507.28	27828.97
507.46	27885.14
507.63	27955.36
507.81	28456.23
507.98	27999.83
508.16	28547.51
508.33	28816.68
508.50	28542.83
508.68	29046.05
508.85	28896.25
509.03	28847.10
509.20	29174.78
509.38	29329.25
509.55	29083.50
509.73	29523.52
509.90	29427.56
510.08	29371.38
510.25	29223.93
510.42	29961.20
510.60	29694.38
510.77	29621.82
510.95	29699.06
511.12	29685.01
511.30	30052.48
511.47	30244.40
511.64	30167.16
511.82	30375.47
511.99	30080.56
512.17	30333.34
512.34	30118.01
512.51	30419.94
512.69	30937.20
512.86	31119.76
513.04	31019.12
513.21	30845.92
513.38	31096.36
513.56	31204.02
513.73	30855.28
513.90	31068.27
514.08	30920.82
514.25	31154.87
514.43	31260.20
514.60	30881.03
514.77	31271.90
514.95	31206.36
515.12	31639.36
515.29	31967.04
515.47	31997.46
515.64	32203.43
515.81	31899.16
515.99	32084.06
516.16	31456.80
516.33	31573.83
516.51	31974.06
516.68	31608.93
516.85	31700.22
517.03	32027.89
517.20	32091.09
517.37	32133.21
517.54	32547.49
517.72	32402.38
517.89	32203.43
518.06	32041.93
518.24	32418.76
518.41	32524.08
518.58	32507.70
518.75	32713.67
518.93	32741.75
519.10	33099.86
519.27	33179.43
519.45	32940.70
519.62	33179.43
519.79	33149.01
519.96	33254.33
520.14	33312.84
520.31	32950.06
520.48	33457.96
520.65	33146.67
520.83	33855.85
521.00	33979.90
521.17	33628.82
521.34	33956.49
521.52	33846.49
521.69	34010.32
521.86	34157.78
522.03	34375.45
522.20	34340.34
522.38	34408.22
522.55	34333.32
522.72	34293.53
522.89	34595.46
523.07	34307.57
523.24	34363.75
523.41	35058.88
523.58	34768.66
523.75	35419.33
523.92	35178.25
524.10	35365.49
524.27	35271.87
524.44	35093.99
524.61	35072.93
524.78	35255.49
524.96	35566.78
525.13	35339.75
525.30	35758.70
525.47	35929.56
525.64	35292.94
525.81	35489.54
525.98	35618.27
526.16	35351.45
526.33	35431.03
526.50	35768.07
526.67	35339.75
526.84	35185.27
527.01	35491.88
527.18	35538.69
527.36	36538.10
527.53	36444.48
527.70	36177.66
527.87	36500.65
528.04	36238.51
528.21	36280.64
528.38	36238.51
528.55	36685.56
528.72	36713.64
528.89	36774.50
529.07	36692.58
529.24	36465.55
529.41	36641.09
529.58	36851.73
529.75	36931.31
529.92	36790.88
530.09	36898.55
530.26	37141.96
530.43	37088.13
530.60	36907.91
530.77	37097.49
530.94	37385.38
531.11	37345.59
531.28	37413.46
531.46	37975.19
531.63	37343.25
531.80	37591.34
531.97	37163.03
532.14	37619.43
532.31	37017.91
532.48	37427.51
532.65	37897.95
532.82	37537.51
532.99	37734.12
533.16	37626.45
533.33	37731.78
533.50	38036.05
533.67	37958.81
533.84	38258.40
534.01	38148.39
534.18	38122.65
534.35	38230.31
534.52	38136.69
534.69	38190.52
534.86	38174.14
535.03	38101.58
535.20	38546.28
535.37	38892.68
535.54	38607.14
535.71	38405.85
535.88	38300.53
536.05	38234.99
536.22	38609.48
536.38	38565.01
536.55	38618.84
536.72	39143.12
536.89	38181.16
537.06	38616.50
537.23	39030.77
537.40	38969.92
537.57	39091.63
537.74	38986.30
537.91	39147.80
538.08	39484.84
538.25	38677.35
538.42	38941.83
538.59	39061.20
538.75	39007.37
538.92	39105.67
539.09	39391.22
539.26	39077.58
539.43	39552.71
539.60	39821.87
539.77	39225.04
539.94	39159.50
540.11	39735.27
540.28	39936.56
540.44	39922.52
540.61	39356.11
540.78	39714.21
540.95	39601.86
541.12	39789.11
541.29	39604.20
541.46	39583.14
541.62	39501.22
541.79	40086.36
541.96	39718.89
542.13	39625.27
542.30	40065.29
542.47	40240.83
542.63	40194.02
542.80	40292.32
542.97	40177.64
543.14	40854.05
543.31	40825.96
543.48	40538.08
543.64	40783.83
543.81	40875.12
543.98	40713.62
544.15	40577.87
544.32	40577.87
544.48	41191.09
544.65	40868.09
544.82	41034.27
544.99	40774.47
545.16	40978.10
545.32	40421.05
545.49	41308.11
545.66	41179.39
545.83	41296.41
546.00	41359.61
546.16	41432.16
546.33	41291.73
546.50	40950.01
546.67	40823.62
546.83	40748.73
547.00	41280.03
547.17	41324.50
547.34	41640.47
547.50	41390.03
547.67	41610.04
547.84	41474.29
548.00	41780.90
548.17	41677.92
548.34	41493.02
548.51	41848.78
548.67	42185.82
548.84	42057.09
549.01	41787.92
549.18	41717.71
549.34	42045.38
549.51	42019.64
549.68	41645.15
549.84	42204.54
550.01	41958.78
550.18	41848.78
550.34	41977.51
550.51	42143.69
550.68	41883.89
550.84	41750.48
551.01	42029.00
551.18	41720.05
551.34	41830.05
551.51	42258.37
551.68	42354.33
551.84	42588.39
552.01	42438.59
552.18	42176.45
552.34	42033.68
552.51	42249.01
552.68	42195.18
552.84	42660.94
553.01	42686.69
553.18	42480.72
553.34	42473.70
553.51	42412.85
553.67	42492.43
553.84	42890.32
554.01	43063.52
554.17	42775.63
554.34	42742.86
554.51	43122.03
554.67	42962.87
554.84	42883.30
555.00	43332.68
555.17	42597.75
555.33	42703.07
555.50	42787.33
555.67	42780.31
555.83	43030.75
556.00	42883.30
556.16	43683.76
556.33	43152.46
556.50	43040.11
556.66	43203.95
556.83	43056.50
556.99	43349.06
557.16	43384.17
557.32	43033.09
557.49	42909.04
557.65	43335.02
557.82	43393.53
557.98	43391.19
558.15	43564.39
558.32	43650.99
558.48	43002.66
558.65	43002.66
558.81	43068.20
558.98	43206.29
559.14	43243.74
559.31	43065.86
559.47	43349.06
559.64	43196.93
559.80	43948.24
559.97	43611.20
560.13	43517.58
560.30	42990.96
560.46	43629.93
560.63	43093.94
560.79	43868.66
560.96	43835.89
561.12	43423.96
561.29	43510.56
561.45	43569.07
561.61	43522.26
561.78	43519.92
561.94	43388.85
562.11	43704.82
562.27	43735.25
562.44	43721.21
562.60	43838.23
562.77	43966.96
562.93	43948.24
563.10	43491.83
563.26	43709.50
563.42	44231.44
563.59	43704.82
563.75	43849.94
563.92	44025.48
564.08	44069.95
564.24	44521.67
564.41	44156.55
564.57	43578.43
564.74	43948.24
564.90	43997.39
565.07	43861.64
565.23	44395.28
565.39	43793.76
565.56	44362.51
565.72	44006.75
565.88	43885.04
566.05	44053.56
566.21	43775.04
566.38	43871.00
566.54	43969.30
566.70	44095.69
566.87	44362.51
567.03	44093.35
567.19	44830.62
567.36	44116.76
567.52	43927.17
567.68	43945.90
567.85	43871.00
568.01	44140.16
568.17	44245.49
568.34	44161.23
568.50	43868.66
568.66	43964.62
568.83	44217.40
568.99	44083.99
569.15	44027.82
569.32	43842.92
569.48	43885.04
569.64	44430.39
569.81	44411.67
569.97	44708.91
570.13	44540.39
570.30	43871.00
570.46	44304.00
570.62	44006.75
570.78	44037.18
570.95	43840.57
571.11	44634.02
571.27	44236.12
571.43	43913.13
571.60	44196.34
571.76	44114.42
571.92	44514.65
572.09	44449.11
572.25	44369.54
572.41	44505.29
572.57	44531.03
572.74	44409.32
572.90	44397.62
573.06	44746.36
573.22	44226.76
573.38	44465.50
573.55	44524.01
573.71	44388.26
573.87	44215.06
574.03	44257.19
574.20	44311.02
574.36	44201.02
574.52	44945.31
574.68	44615.29
574.84	44648.06
575.01	44367.20
575.17	44409.32
575.33	44481.88
575.49	44182.29
575.65	44694.87
575.82	44603.59
575.98	44737.00
576.14	44582.52
576.30	44638.70
576.46	44477.20
576.62	44500.61
576.79	44905.52
576.95	44119.10
577.11	44737.00
577.27	44849.35
577.43	44549.76
577.59	44336.77
577.75	44367.20
577.92	44189.31
578.08	44662.10
578.24	44612.95
578.40	44495.92
578.56	44582.52
578.72	44577.84
578.88	44631.68
579.04	44414.01
579.21	44091.01
579.37	44432.73
579.53	44940.63
579.69	44086.33
579.85	44479.54
580.01	44783.81
580.17	44500.61
580.33	44495.92
580.49	44561.46
580.65	44793.17
580.82	44739.34
580.98	44669.12
581.14	44378.90
581.30	44713.59
581.46	44545.08
581.62	44395.28
581.78	44444.43
581.94	45095.10
582.10	44704.23
582.26	44465.50
582.42	44453.79
582.58	44669.12
582.74	44711.25
582.90	45230.85
583.06	44755.72
583.22	44823.60
583.38	45038.93
583.54	44346.13
583.70	44886.79
583.86	44594.23
584.02	44343.79
584.18	44832.96
584.34	44542.74
584.50	44765.09
584.66	44423.37
584.82	44741.68
584.98	44938.29
585.14	45013.18
585.30	44334.43
585.46	44219.74
585.62	44828.28
585.78	44245.49
585.94	44505.29
586.10	44591.89
586.26	44542.74
586.42	44921.90
586.58	45261.28
586.74	44762.75
586.90	44505.29
587.06	44463.16
587.22	44816.58
587.38	44399.96
587.54	44673.81
587.70	44854.03
587.86	44376.56
588.02	44765.09
588.18	44512.31
588.34	44641.04
588.49	44428.05
588.65	44142.50
588.81	43859.30
588.97	44416.35
589.13	44748.70
589.29	44423.37
589.45	44535.71
589.61	44755.72
589.77	44837.64
589.93	44533.37
590.08	44608.27
590.24	45179.36
