SpectraSuite Data File
++++++++++++++++++++++++++++++++++++
Date: Fri Oct 25 11:25:04 EDT 2013
User: price-jones
Dark Spectrum Present: No
Reference Spectrum Present: No
Number of Sampled Component Spectra: 1
Spectrometers: USB2+H05261
Integration Time (usec): 100000 (USB2+H05261)
Spectra Averaged: 1 (USB2+H05261)
Boxcar Smoothing: 0 (USB2+H05261)
Correct for Electrical Dark: No (USB2+H05261)
Strobe/Lamp Enabled: No (USB2+H05261)
Correct for Detector Non-linearity: No (USB2+H05261)
Correct for Stray Light: No (USB2+H05261)
Number of Pixels in Processed Spectrum: 2048
>>>>>Begin Processed Spectral Data<<<<<
365.73	168.52
365.92	168.52
366.12	168.52
366.32	124.05
366.52	70.22
366.72	114.69
366.91	133.41
367.11	131.07
367.31	39.79
367.51	142.77
367.70	131.07
367.90	168.52
368.10	79.58
368.30	77.24
368.49	110.01
368.69	184.90
368.89	205.97
369.09	166.18
369.28	133.41
369.48	189.58
369.68	142.77
369.87	243.42
370.07	177.88
370.27	201.29
370.47	283.20
370.66	571.09
370.86	631.94
371.06	620.24
371.25	730.25
371.45	718.54
371.65	697.48
371.84	678.76
372.04	660.03
372.24	634.29
372.44	664.71
372.63	767.70
372.83	767.70
373.03	720.88
373.22	744.29
373.42	688.12
373.62	765.36
373.81	788.76
374.01	770.04
374.21	791.10
374.40	713.86
374.60	795.78
374.79	772.38
374.99	851.96
375.19	805.14
375.38	802.80
375.58	819.19
375.78	854.30
375.97	844.93
376.17	943.24
376.37	821.53
376.56	894.08
376.76	943.24
376.95	873.02
377.15	1055.58
377.35	910.47
377.54	938.55
377.74	795.78
377.93	940.90
378.13	908.13
378.33	954.94
378.52	940.90
378.72	945.58
378.91	1015.79
379.11	966.64
379.31	1006.43
379.50	964.30
379.70	976.00
379.89	940.90
380.09	968.98
380.28	1034.52
380.48	908.13
380.68	938.55
380.87	1097.71
381.07	971.32
381.26	1034.52
381.46	997.07
381.65	1050.90
381.85	968.98
382.04	1015.79
382.24	1036.86
382.43	1123.46
382.63	1046.22
382.83	1013.45
383.02	1041.54
383.22	1076.65
383.41	992.39
383.61	983.02
383.80	1027.50
384.00	1170.27
384.19	1039.20
384.39	1107.07
384.58	1245.16
384.78	1121.12
384.97	1149.20
385.17	1086.01
385.36	1097.71
385.56	1153.88
385.75	1097.71
385.95	1196.01
386.14	1184.31
386.34	1158.57
386.53	1132.82
386.72	1130.48
386.92	1188.99
387.11	1331.76
387.31	1247.51
387.50	1329.42
387.70	1179.63
387.89	1254.53
388.09	1322.40
388.28	1331.76
388.48	1275.59
388.67	1320.06
388.86	1348.15
389.06	1336.45
389.25	1320.06
389.45	1299.00
389.64	1235.80
389.84	1373.89
390.03	1364.53
390.22	1357.51
390.42	1385.60
390.61	1371.55
390.81	1343.47
391.00	1394.96
391.19	1444.11
391.39	1500.28
391.58	1467.52
391.78	1446.45
391.97	1516.67
392.16	1504.96
392.36	1448.79
392.55	1516.67
392.75	1575.18
392.94	1507.30
393.13	1523.69
393.33	1481.56
393.52	1612.63
393.71	1650.08
393.91	1610.29
394.10	1565.82
394.29	1603.27
394.49	1589.22
394.68	1575.18
394.88	1542.41
395.07	1565.82
395.26	1659.44
395.46	1626.67
395.65	1797.53
395.84	1689.87
396.04	1750.72
396.23	1732.00
396.42	1785.83
396.62	1827.96
396.81	1863.07
397.00	1834.98
397.19	1724.97
397.39	1781.15
397.58	1832.64
397.77	1863.07
397.97	1781.15
398.16	1823.28
398.35	1947.33
398.55	1952.01
398.74	1877.11
398.93	1982.43
399.12	1961.37
399.32	1872.43
399.51	1949.67
399.70	1975.41
399.90	1970.73
400.09	1961.37
400.28	2036.27
400.47	1963.71
400.67	2172.02
400.86	2118.18
401.05	1994.14
401.24	2134.57
401.44	2179.04
401.63	2176.70
401.82	2083.08
402.01	2076.06
402.21	2132.23
402.40	2160.31
402.59	2204.78
402.78	2148.61
402.97	2249.25
403.17	2284.36
403.36	2249.25
403.55	2349.90
403.74	2321.81
403.93	2307.77
404.13	2275.00
404.32	2347.56
404.51	2340.54
404.70	2359.26
404.89	2469.27
405.09	2422.45
405.28	2466.92
405.47	2385.01
405.66	2417.77
405.85	2406.07
406.05	2532.46
406.24	2539.48
406.43	2628.42
406.62	2539.48
406.81	2799.28
407.00	2731.41
407.20	2544.16
407.39	2693.96
407.58	2703.32
407.77	2684.59
407.96	2850.77
408.15	2754.81
408.34	2771.19
408.54	2764.17
408.73	2780.56
408.92	2780.56
409.11	2801.62
409.30	2850.77
409.49	2925.67
409.68	2942.05
409.87	2818.00
410.07	2953.76
410.26	3052.06
410.45	2995.89
410.64	3215.90
410.83	3007.59
411.02	3052.06
411.21	3141.00
411.40	3157.38
411.59	3117.59
411.78	3150.36
411.98	3236.96
412.17	3269.73
412.36	3325.90
412.55	3379.73
412.74	3342.28
412.93	3346.97
413.12	3353.99
413.31	3517.83
413.50	3372.71
413.69	3496.76
413.88	3531.87
414.07	3698.05
414.26	3538.89
414.45	3599.74
414.64	3611.45
414.83	3719.11
415.02	3761.24
415.22	3831.46
415.41	3913.38
415.60	3861.88
415.79	3906.35
415.98	3901.67
416.17	4046.79
416.36	4060.83
416.55	4086.58
416.74	4086.58
416.93	4079.55
417.12	4203.60
417.31	4140.41
417.50	4093.60
417.69	4262.12
417.88	4236.37
418.07	4224.67
418.26	4215.30
418.45	4299.56
418.64	4500.85
418.83	4444.68
419.02	4360.42
419.21	4540.64
419.39	4493.83
419.58	4482.13
419.77	4540.64
419.96	4437.66
420.15	4669.37
420.34	4559.36
420.53	4578.09
420.72	4542.98
420.91	4702.14
421.10	4634.26
421.29	4854.27
421.48	4805.12
421.67	4699.80
421.86	4730.22
422.05	4741.93
422.24	4793.42
422.43	4884.70
422.61	4844.91
422.80	5071.94
422.99	4868.31
423.18	4912.78
423.37	5095.35
423.56	4861.29
423.75	4915.12
423.94	4781.71
424.13	4571.07
424.32	4709.16
424.50	4875.34
424.69	5172.58
424.88	5149.18
425.07	4882.36
425.26	4936.19
425.45	4910.44
425.64	4975.98
425.83	5036.83
426.01	5036.83
426.20	5064.92
426.39	5114.07
426.58	4959.60
426.77	5095.35
426.96	5160.88
427.15	5226.42
427.33	5060.24
427.52	5167.90
427.71	5277.91
427.90	5266.21
428.09	5303.65
428.28	5221.74
428.46	5355.15
428.65	5446.43
428.84	5554.09
429.03	5441.75
429.22	5425.36
429.40	5427.70
429.59	5547.07
429.78	5385.57
429.97	5198.33
430.16	5490.90
430.34	5516.64
430.53	5729.63
430.72	5650.05
430.91	5643.03
431.10	5626.65
431.28	5628.99
431.47	5762.40
431.66	5884.11
431.85	5668.78
432.03	5895.81
432.22	5863.04
432.41	5778.78
432.60	5956.66
432.79	5820.91
432.97	6190.72
433.16	6031.56
433.35	5968.37
433.54	6038.58
433.72	6183.70
433.91	5944.96
434.10	6090.07
434.28	6277.32
434.47	6073.69
434.66	6324.13
434.85	6289.02
435.03	6370.94
435.22	6265.61
435.41	6314.77
435.59	6291.36
435.78	6478.60
435.97	6539.46
436.16	6511.37
436.34	6384.98
436.53	6518.39
436.72	6628.40
436.90	6408.39
437.09	6677.55
437.28	6511.37
437.46	6635.42
437.65	6630.74
437.84	6817.98
438.02	6691.59
438.21	6778.19
438.40	6848.41
438.58	7082.46
438.77	6874.15
438.96	6918.62
439.14	6967.77
439.33	7190.13
439.52	7052.03
439.70	7054.37
439.89	7365.67
440.08	7166.72
440.26	7531.84
440.45	7173.74
440.63	7454.61
440.82	7595.04
441.01	7321.20
441.19	7681.64
441.38	7616.10
441.57	7850.16
441.75	7758.88
441.94	7976.55
442.12	7932.08
442.31	7988.25
442.50	8128.68
442.68	8079.53
442.87	8058.46
443.05	8100.59
443.24	8234.00
443.43	8170.81
443.61	8238.69
443.80	8358.05
443.98	8217.62
444.17	7768.24
444.35	8107.62
444.54	8283.16
444.73	8351.03
444.91	8402.52
445.10	8404.86
445.28	8241.03
445.47	8313.58
445.65	8477.42
445.84	8222.30
446.02	8355.71
446.21	8571.04
446.39	8582.74
446.58	8475.08
446.77	8414.23
446.95	8425.93
447.14	8461.04
447.32	8491.46
447.51	8678.71
447.69	8589.77
447.88	8730.20
448.06	8421.25
448.25	8402.52
448.43	8512.53
448.62	8468.06
448.80	8713.81
448.99	8762.97
449.17	8837.86
449.36	8662.32
449.54	8833.18
449.73	8739.56
449.91	8985.32
450.10	9055.53
450.28	9235.75
450.46	9149.15
450.65	8985.32
450.83	9004.04
451.02	8919.78
451.20	9296.61
451.39	9118.73
451.57	9041.49
451.76	9046.17
451.94	9188.94
452.13	9268.52
452.31	9341.08
452.49	9308.31
452.68	9167.88
452.86	9263.84
453.05	9502.58
453.23	9359.80
453.42	9373.85
453.60	9460.45
453.78	9570.45
453.97	9366.82
454.15	9479.17
454.34	9226.39
454.52	9715.56
454.70	9554.07
454.89	9750.67
455.07	9961.32
455.26	9715.56
455.44	9961.32
455.62	9928.55
455.81	9792.80
455.99	9966.00
456.17	9958.98
456.36	10106.43
456.54	10094.73
456.73	10178.99
456.91	10537.09
457.09	10401.34
457.28	10511.35
457.46	10520.71
457.64	10513.69
457.83	10506.66
458.01	10415.38
458.19	10658.80
458.38	10647.10
458.56	10705.61
458.74	10719.65
458.93	10787.53
459.11	10546.45
459.29	10754.76
459.48	10604.97
459.66	10977.11
459.84	10867.11
460.03	11084.78
460.21	11066.05
460.39	10920.94
460.57	11056.69
460.76	11124.57
460.94	11140.95
461.12	11087.12
461.31	11194.78
461.49	11337.56
461.67	11225.21
461.85	11250.96
462.04	11243.93
462.22	11754.17
462.40	11796.30
462.59	11431.18
462.77	11349.26
462.95	11789.28
463.13	11351.60
463.32	11499.05
463.50	11822.05
463.68	11761.19
463.86	11875.88
464.05	11599.70
464.23	11770.55
464.41	11997.59
464.59	11534.16
464.78	12154.40
464.96	11824.39
465.14	11910.99
465.32	12131.00
465.50	12182.49
465.69	12030.35
465.87	12266.75
466.05	12212.92
466.23	12187.17
466.41	12243.34
466.60	12205.89
466.78	12088.87
466.96	12018.65
467.14	12311.22
467.32	12304.20
467.51	12674.00
467.69	12123.98
467.87	12428.24
468.05	12648.26
468.23	12643.57
468.41	12624.85
468.60	12517.18
468.78	12734.85
468.96	12599.10
469.14	12718.47
469.32	12957.21
469.50	12500.80
469.69	12908.05
469.87	13036.78
470.05	13247.43
470.23	13118.70
470.41	13179.56
470.59	13212.32
470.77	13074.23
470.95	13458.08
471.14	13207.64
471.32	13071.89
471.50	13575.11
471.68	13635.96
471.86	13617.24
472.04	13762.35
472.22	14033.85
472.40	13523.62
472.58	13900.44
472.77	14073.64
472.95	14122.79
473.13	14434.08
473.31	13870.01
473.49	14279.61
473.67	14253.86
473.85	14455.15
474.03	14726.65
474.21	14644.73
474.39	14581.54
474.57	14836.66
474.75	14754.74
474.93	14902.19
475.12	14836.66
475.30	15211.14
475.48	15145.61
475.66	15501.37
475.84	15033.26
476.02	15477.96
476.20	15229.87
476.38	15517.75
476.56	15920.32
476.74	16018.63
476.92	15618.39
477.10	15627.76
477.28	16088.84
477.46	16107.57
477.64	16025.65
477.82	16299.49
478.00	16613.12
478.18	16617.80
478.36	17011.01
478.54	16959.52
478.72	17397.20
478.90	17177.19
479.08	17874.67
479.26	17465.08
479.44	17659.34
479.62	17722.54
479.80	18012.76
479.98	18061.91
480.16	18478.53
480.34	18361.50
480.52	18700.88
480.70	18443.42
480.88	18415.34
481.06	18544.06
481.24	18703.22
481.41	18911.53
481.59	19372.61
481.77	19564.54
481.95	19772.85
482.13	19686.25
482.31	19599.65
482.49	20128.61
482.67	19852.42
482.85	20198.82
483.03	20538.20
483.21	20772.25
483.39	20774.60
483.57	20863.54
483.74	21310.58
483.92	21333.98
484.10	21268.45
484.28	21425.26
484.46	22101.68
484.64	22548.72
484.82	21811.45
485.00	22235.09
485.18	22794.48
485.35	22913.84
485.53	22607.23
485.71	22927.89
485.89	23632.39
486.07	23215.77
486.25	23159.60
486.43	23669.84
486.61	24011.56
486.78	24084.11
486.96	24168.37
487.14	24535.84
487.32	24479.66
487.50	24767.55
487.68	25415.88
487.85	25362.04
488.03	25685.04
488.21	25820.79
488.39	25596.10
488.57	25792.70
488.75	25989.31
488.92	26464.44
489.10	26691.47
489.28	27166.60
489.46	27342.14
489.64	26735.94
489.81	27515.34
489.99	27651.09
490.17	28006.85
490.35	28048.98
490.53	28362.61
490.70	28414.10
490.88	28446.87
491.06	28877.53
491.24	28847.10
491.41	29001.58
491.59	29481.39
491.77	29186.48
491.95	29441.60
492.13	29443.94
492.30	30150.78
492.48	29809.06
492.66	30174.19
492.84	30270.15
493.01	30611.87
493.19	30331.00
493.37	30918.48
493.54	31175.94
493.72	31597.23
493.90	31206.36
494.08	31896.82
494.25	31842.99
494.43	32067.68
494.61	32081.72
494.79	32629.41
494.96	32615.37
495.14	32645.79
495.32	32797.93
495.49	33041.34
495.67	33200.50
495.85	33736.48
496.02	33532.86
496.20	34209.27
496.38	34141.39
496.55	33926.07
496.73	34546.31
496.91	34216.29
497.09	34834.19
497.26	35416.99
497.44	34892.71
497.62	35290.60
497.79	35651.04
497.97	35576.14
498.14	35452.09
498.32	36268.94
498.50	36205.75
498.67	36299.37
498.85	36676.19
499.03	36790.88
499.20	36863.44
499.38	36875.14
499.56	37266.01
499.73	37383.04
499.91	37153.66
500.08	37790.29
500.26	37455.59
500.44	37624.11
500.61	37977.53
500.79	37961.15
500.97	38014.98
501.14	38249.03
501.32	38352.02
501.49	38670.33
501.67	38866.94
501.84	39000.35
502.02	39257.81
502.20	38712.46
502.37	39098.65
502.55	39023.75
502.72	39391.22
502.90	39908.47
503.07	39526.97
503.25	39377.17
503.43	39468.45
503.60	40079.33
503.78	40236.15
503.95	39964.65
504.13	40502.97
504.30	40620.00
504.48	40273.60
504.65	40900.86
504.83	40966.40
505.01	41303.43
505.18	41139.60
505.36	41783.24
505.53	41179.39
505.71	41691.96
505.88	41792.61
506.06	41418.12
506.23	41956.44
506.41	41736.43
506.58	41783.24
506.76	42368.38
506.93	42583.71
507.11	42307.52
507.28	42499.45
507.46	42492.43
507.63	42534.56
507.81	42965.21
507.98	42780.31
508.16	43044.79
508.33	43332.68
508.50	43592.48
508.68	43723.55
508.85	43908.45
509.03	43810.15
509.20	44175.27
509.38	44601.25
509.55	44154.21
509.73	44278.25
509.90	45006.16
510.08	44500.61
510.25	44224.42
510.42	44680.83
510.60	44795.51
510.77	45069.36
510.95	45062.33
511.12	44926.58
511.30	45265.96
511.47	45605.34
511.64	45471.93
511.82	45902.59
511.99	45577.25
512.17	46146.00
512.34	45890.88
512.51	46223.24
512.69	46256.01
512.86	46305.16
513.04	46726.46
513.21	46574.32
513.38	46686.67
513.56	46941.78
513.73	46656.24
513.90	46696.03
514.08	47019.02
514.25	47552.66
514.43	47203.92
514.60	47262.44
514.77	47421.59
514.95	47824.17
515.12	47463.72
515.29	47372.44
515.47	48254.82
515.64	48261.85
515.81	47894.38
515.99	47943.53
516.16	47952.90
516.33	48065.24
516.51	48725.27
516.68	48428.02
516.85	48603.56
517.03	48783.79
517.20	48545.05
517.37	48343.77
517.54	48872.73
517.72	49027.20
517.89	49017.84
518.06	49216.78
518.24	49134.87
518.41	49174.66
518.58	49478.92
518.75	49076.35
518.93	49425.09
519.10	49326.79
519.27	49731.70
519.45	49492.97
519.62	49691.91
519.79	49965.76
519.96	49806.60
520.14	50174.06
520.31	49675.53
520.48	50026.61
520.65	50099.17
520.83	50740.47
521.00	50607.06
521.17	50454.93
521.34	50749.84
521.52	50859.84
521.69	50562.59
521.86	50906.65
522.03	51344.33
522.20	51196.88
522.38	51496.47
522.55	51255.39
522.72	51447.32
522.89	50960.48
523.07	51629.88
523.24	51393.48
523.41	51667.33
523.58	51292.84
523.75	51917.76
523.92	51725.84
524.10	51800.74
524.27	51894.36
524.44	51833.50
524.61	51969.26
524.78	52147.14
524.96	52161.18
525.13	52205.65
525.30	52390.55
525.47	52416.30
525.64	52540.35
525.81	52392.89
525.98	52734.61
526.16	52477.15
526.33	52554.39
526.50	53120.80
526.67	52425.66
526.84	53055.26
527.01	52807.17
527.18	53265.91
527.36	52612.90
527.53	52858.66
527.70	53291.66
527.87	52961.64
528.04	53404.00
528.21	53261.23
528.38	53059.94
528.55	53371.24
528.72	53282.30
528.89	53474.22
529.07	53420.39
529.24	53387.62
529.41	53581.88
529.58	53687.21
529.75	53322.08
529.92	53881.47
530.09	53586.57
530.26	53553.80
530.43	53687.21
530.60	53890.83
530.77	53652.10
530.94	54005.52
531.11	53961.05
531.28	54059.35
531.46	54206.81
531.63	54372.99
531.80	54335.54
531.97	54354.26
532.14	54461.93
532.31	54398.73
532.48	54714.70
532.65	54602.36
532.82	54377.67
532.99	54768.54
533.16	54740.45
533.33	54791.94
533.50	54939.39
533.67	54810.67
533.84	54600.02
534.01	55035.36
534.18	54894.92
534.35	55365.37
534.52	54749.81
534.69	55028.34
534.86	55154.72
535.03	54897.27
535.20	55114.94
535.37	55143.02
535.54	55278.77
535.71	55168.77
535.88	55377.08
536.05	55421.55
536.22	55571.34
536.38	55578.36
536.55	55550.27
536.72	55531.55
536.89	55585.38
537.06	55732.84
537.23	55643.90
537.40	55487.08
537.57	55821.78
537.74	55531.55
537.91	56243.07
538.08	55744.54
538.25	55779.65
538.42	55838.16
538.59	56095.62
538.75	55711.77
538.92	56128.39
539.09	56100.30
539.26	56142.43
539.43	56041.79
539.60	56350.74
539.77	56083.92
539.94	56189.24
540.11	56381.16
540.28	56449.04
540.44	56285.20
540.61	56327.33
540.78	56442.02
540.95	56465.42
541.12	56294.56
541.29	56233.71
541.46	56509.89
541.62	56540.32
541.79	56528.62
541.96	56418.61
542.13	56502.87
542.30	56673.73
542.47	56568.41
542.63	56889.06
542.80	56882.04
542.97	56935.87
543.14	57249.50
543.31	57162.90
543.48	57073.96
543.64	57518.67
543.81	57396.96
543.98	57326.74
544.15	57401.64
544.32	57619.31
544.48	57389.94
544.65	57448.45
544.82	57635.69
544.99	57350.15
545.16	57558.45
545.32	57401.64
545.49	57621.65
545.66	57846.34
545.83	57645.05
546.00	57558.45
546.16	57818.25
546.33	57394.62
546.50	57602.92
546.67	57715.27
546.83	57570.16
547.00	57682.50
547.17	57605.26
547.34	57848.68
547.50	57822.93
547.67	58272.32
547.84	58209.12
548.00	58038.26
548.17	58117.84
548.34	58052.31
548.51	58092.10
548.67	58457.22
548.84	58026.56
549.01	57935.28
549.18	57909.53
549.34	57972.73
549.51	58265.30
549.68	58375.30
549.84	58277.00
550.01	58260.62
550.18	58176.36
550.34	58260.62
550.51	58607.01
550.68	58059.33
550.84	58300.40
551.01	58621.06
551.18	58497.01
551.34	58464.24
551.51	58644.46
551.68	58623.40
551.84	58482.97
552.01	58518.07
552.18	58632.76
552.34	58333.17
552.51	58752.13
552.68	58534.46
552.84	58539.14
553.01	58848.09
553.18	58621.06
553.34	58731.06
553.51	58712.34
553.67	58756.81
553.84	58974.48
554.01	58939.37
554.17	59082.14
554.34	59037.67
554.51	58857.45
554.67	59044.69
554.84	59103.21
555.00	58927.67
555.17	59030.65
555.33	59016.61
555.50	59011.93
555.67	59002.56
555.83	58845.75
556.00	58979.16
556.16	59456.63
556.33	59084.48
556.50	59166.40
556.66	59437.90
556.83	59042.35
556.99	59435.56
557.16	59498.76
557.32	59351.30
557.49	59519.82
557.65	59339.60
557.82	59381.73
557.98	59374.71
558.15	59423.86
558.32	59384.07
558.48	59384.07
558.65	59510.46
558.81	59552.59
558.98	59351.30
559.14	59620.47
559.31	59683.66
559.47	59543.23
559.64	59702.38
559.80	59510.46
559.97	59763.24
560.13	59814.73
560.30	59760.90
560.46	59716.43
560.63	59714.09
560.79	59777.28
560.96	59859.20
561.12	59838.14
561.29	59835.80
561.45	59842.82
561.61	59718.77
561.78	59936.44
561.94	59660.26
562.11	59779.62
562.27	59826.43
562.44	59962.18
562.60	60020.70
562.77	60069.85
562.93	59868.56
563.10	60111.98
563.26	59931.76
563.42	60271.14
563.59	59870.90
563.75	59913.03
563.92	60011.34
564.08	60023.04
564.24	60032.40
564.41	60023.04
564.57	60191.56
564.74	60081.55
564.90	60030.06
565.07	60069.85
565.23	60165.81
565.39	60210.28
565.56	60072.19
565.72	60128.36
565.88	60142.41
566.05	60032.40
566.21	60088.57
566.38	60378.80
566.54	60334.33
566.70	60111.98
566.87	60362.42
567.03	60025.38
567.19	60526.25
567.36	60289.86
567.52	60348.37
567.68	60420.93
567.85	60409.23
568.01	60580.09
568.17	60329.65
568.34	60509.87
568.50	60441.99
568.66	60369.44
568.83	60343.69
568.99	60360.08
569.15	60376.46
569.32	60266.45
569.48	60296.88
569.64	60472.42
569.81	60369.44
569.97	60374.12
570.13	60434.97
570.30	60240.71
570.46	60587.11
570.62	60411.57
570.78	60505.19
570.95	60432.63
571.11	60587.11
571.27	60500.51
571.43	60439.65
571.60	60437.31
571.76	60671.37
571.92	60308.58
572.09	60472.42
572.25	60575.40
572.41	60378.80
572.57	60488.80
572.74	60903.08
572.90	60589.45
573.06	60509.87
573.22	60502.85
573.38	60727.54
573.55	60626.90
573.71	60741.58
573.87	60619.88
574.03	60556.68
574.20	60863.29
574.36	60671.37
574.52	60926.49
574.68	60823.50
574.84	60746.26
575.01	60802.44
575.17	60676.05
575.33	60645.62
575.49	60530.93
575.65	60505.19
575.82	60849.25
575.98	60708.82
576.14	61031.81
576.30	60746.26
576.46	60584.77
576.62	60683.07
576.79	60680.73
576.95	60692.43
577.11	60860.95
577.27	60828.18
577.43	60865.63
577.59	60736.90
577.75	60636.26
577.92	60711.16
578.08	60739.24
578.24	60633.92
578.40	60992.02
578.56	60804.78
578.72	60931.17
578.88	60987.34
579.04	60772.01
579.21	60977.98
579.37	61034.15
579.53	61120.75
579.69	60694.77
579.85	60570.72
580.01	60769.67
580.17	60629.24
580.33	60825.84
580.49	61038.83
580.65	61010.74
580.82	60790.73
580.98	60926.49
581.14	60814.14
581.30	61111.39
581.46	60788.39
581.62	60926.49
581.78	60706.47
581.94	60907.76
582.10	60856.27
582.26	60896.06
582.42	60954.57
582.58	61045.85
582.74	60858.61
582.90	60952.23
583.06	61010.74
583.22	60825.84
583.38	60970.96
583.54	61080.96
583.70	61001.38
583.86	60912.44
584.02	60727.54
584.18	60980.32
584.34	60921.80
584.50	60942.87
584.66	60811.80
584.82	60748.60
584.98	61062.24
585.14	61095.00
585.30	60753.29
585.46	60954.57
585.62	60912.44
585.78	61087.98
585.94	60746.26
586.10	61073.94
586.26	60865.63
586.42	61106.71
586.58	61080.96
586.74	60954.57
586.90	60985.00
587.06	60860.95
587.22	61066.92
587.38	61073.94
587.54	61247.14
587.70	61141.81
587.86	61043.51
588.02	61034.15
588.18	61202.67
588.34	60968.61
588.49	60989.68
