SpectraSuite Data File
++++++++++++++++++++++++++++++++++++
Date: Fri Oct 25 11:22:57 EDT 2013
User: price-jones
Dark Spectrum Present: No
Reference Spectrum Present: No
Number of Sampled Component Spectra: 1
Spectrometers: USB2+H05261
Integration Time (usec): 100000 (USB2+H05261)
Spectra Averaged: 1 (USB2+H05261)
Boxcar Smoothing: 0 (USB2+H05261)
Correct for Electrical Dark: No (USB2+H05261)
Strobe/Lamp Enabled: No (USB2+H05261)
Correct for Detector Non-linearity: No (USB2+H05261)
Correct for Stray Light: No (USB2+H05261)
Number of Pixels in Processed Spectrum: 2048
>>>>>Begin Processed Spectral Data<<<<<
365.73	271.50
365.92	271.50
366.12	271.50
366.32	102.98
366.52	32.77
366.72	208.31
366.91	58.51
367.11	91.28
367.31	86.60
367.51	88.94
367.70	51.49
367.90	107.66
368.10	140.43
368.30	102.98
368.49	65.54
368.69	112.35
368.89	194.26
369.09	88.94
369.28	149.79
369.48	131.07
369.68	184.90
369.87	126.39
370.07	147.45
370.27	241.08
370.47	299.59
370.66	575.77
370.86	622.58
371.06	653.01
371.25	629.60
371.45	681.10
371.65	706.84
371.84	573.43
372.04	627.26
372.24	763.01
372.44	793.44
372.63	746.63
372.83	674.07
373.03	784.08
373.22	774.72
373.42	723.23
373.62	741.95
373.81	814.51
374.01	844.93
374.21	695.14
374.40	788.76
374.60	858.98
374.79	823.87
374.99	851.96
375.19	802.80
375.38	793.44
375.58	891.74
375.78	837.91
375.97	912.81
376.17	978.34
376.37	901.11
376.56	861.32
376.76	842.59
376.95	887.06
377.15	788.76
377.35	887.06
377.54	861.32
377.74	877.70
377.93	828.55
378.13	898.77
378.33	968.98
378.52	898.77
378.72	992.39
378.91	922.17
379.11	884.72
379.31	936.21
379.50	898.77
379.70	973.66
379.89	940.90
380.09	1015.79
380.28	1020.47
380.48	1027.50
380.68	1055.58
380.87	1048.56
381.07	997.07
381.26	1043.88
381.46	933.87
381.65	1011.11
381.85	1011.11
382.04	964.30
382.24	1086.01
382.43	1132.82
382.63	1013.45
382.83	1100.05
383.02	1139.84
383.22	1104.73
383.41	1149.20
383.61	1163.25
383.80	1167.93
384.00	1078.99
384.19	1111.75
384.39	1064.94
384.58	1135.16
384.78	1149.20
384.97	1172.61
385.17	1116.44
385.36	1088.35
385.56	1139.84
385.75	1149.20
385.95	1200.69
386.14	1107.07
386.34	1188.99
386.53	1327.08
386.72	1238.14
386.92	1275.59
387.11	1249.85
387.31	1198.35
387.50	1259.21
387.70	1139.84
387.89	1196.01
388.09	1359.85
388.28	1254.53
388.48	1352.83
388.67	1259.21
388.86	1306.02
389.06	1270.91
389.25	1331.76
389.45	1380.92
389.64	1327.08
389.84	1352.83
390.03	1348.15
390.22	1371.55
390.42	1392.62
390.61	1366.87
390.81	1376.24
391.00	1334.11
391.19	1469.86
391.39	1551.78
391.58	1483.90
391.78	1481.56
391.97	1509.65
392.16	1355.17
392.36	1568.16
392.55	1528.37
392.75	1621.99
392.94	1563.48
393.13	1469.86
393.33	1490.92
393.52	1530.71
393.71	1579.86
393.91	1621.99
394.10	1547.09
394.29	1521.35
394.49	1586.88
394.68	1561.14
394.88	1619.65
395.07	1591.56
395.26	1715.61
395.46	1640.72
395.65	1710.93
395.84	1724.97
396.04	1762.42
396.23	1750.72
396.42	1790.51
396.62	1849.02
396.81	1717.95
397.00	1713.27
397.19	1849.02
397.39	1893.49
397.58	1881.79
397.77	1895.83
397.97	1811.57
398.16	1844.34
398.35	1823.28
398.55	1846.68
398.74	1930.94
398.93	2071.37
399.12	1877.11
399.32	1933.28
399.51	1928.60
399.70	2012.86
399.90	1970.73
400.09	2024.56
400.28	2129.89
400.47	1944.99
400.67	2019.88
400.86	2059.67
401.05	1987.11
401.24	2230.53
401.44	2179.04
401.63	2160.31
401.82	2108.82
402.01	2225.85
402.21	2207.13
402.40	2195.42
402.59	2165.00
402.78	2099.46
402.97	2132.23
403.17	2228.19
403.36	2321.81
403.55	2242.23
403.74	2377.98
403.93	2270.32
404.13	2401.39
404.32	2455.22
404.51	2380.32
404.70	2527.78
404.89	2438.84
405.09	2555.86
405.28	2492.67
405.47	2462.24
405.66	2527.78
405.85	2569.91
406.05	2525.44
406.24	2612.04
406.43	2525.44
406.62	2583.95
406.81	2689.28
407.00	2546.50
407.20	2527.78
407.39	2640.12
407.58	2605.02
407.77	2717.36
407.96	2752.47
408.15	2719.70
408.34	2764.17
408.54	2860.13
408.73	2822.69
408.92	2871.84
409.11	2932.69
409.30	2815.66
409.49	3054.40
409.68	2937.37
409.87	2897.58
410.07	2979.50
410.26	2874.18
410.45	3117.59
410.64	3059.08
410.83	3136.32
411.02	3056.74
411.21	3068.44
411.40	3084.83
411.59	3124.62
411.78	3248.66
411.98	3115.25
412.17	3332.92
412.36	3445.27
412.55	3461.65
412.74	3286.11
412.93	3407.82
413.12	3321.22
413.31	3485.06
413.50	3478.04
413.69	3508.46
413.88	3555.27
414.07	3676.98
414.26	3648.90
414.45	3768.26
414.64	3648.90
414.83	3758.90
415.02	3705.07
415.22	3887.63
415.41	3941.46
415.60	3880.61
415.79	3866.56
415.98	4072.53
416.17	3922.74
416.36	4189.56
416.55	3899.33
416.74	4201.26
416.93	4049.13
417.12	4159.13
417.31	4168.49
417.50	4208.28
417.69	4189.56
417.88	4306.59
418.07	4383.82
418.26	4273.82
418.45	4461.06
418.64	4526.60
418.83	4489.15
419.02	4514.89
419.21	4580.43
419.39	4603.83
419.58	4510.21
419.77	4772.35
419.96	4573.41
420.15	4561.70
420.34	4788.74
420.53	4573.41
420.72	4704.48
420.91	4678.73
421.10	4809.80
421.29	4894.06
421.48	4702.14
421.67	4823.84
421.86	4922.15
422.05	4807.46
422.24	4795.76
422.43	4903.42
422.61	5090.67
422.80	4926.83
422.99	5013.43
423.18	5001.72
423.37	5032.15
423.56	4896.40
423.75	4912.78
423.94	4905.76
424.13	4531.28
424.32	4779.37
424.50	5027.47
424.69	5242.80
424.88	5050.88
425.07	5008.75
425.26	4903.42
425.45	4865.97
425.64	4912.78
425.83	5039.17
426.01	5277.91
426.20	5226.42
426.39	5018.11
426.58	5048.54
426.77	5057.90
426.96	5128.11
427.15	5067.26
427.33	5181.95
427.52	5151.52
427.71	5259.18
427.90	5172.58
428.09	5247.48
428.28	5324.72
428.46	5317.70
428.65	5252.16
428.84	5528.35
429.03	5621.97
429.22	5408.98
429.40	5596.22
429.59	5472.17
429.78	5366.85
429.97	5181.95
430.16	5600.90
430.34	5626.65
430.53	5802.19
430.72	5596.22
430.91	5811.55
431.10	5607.92
431.28	5713.25
431.47	5968.37
431.66	5832.62
431.85	5727.29
432.03	5856.02
432.22	5926.24
432.41	5996.45
432.60	6054.97
432.79	5966.03
432.97	6249.23
433.16	6120.50
433.35	5879.43
433.54	5977.73
433.72	6232.85
433.91	6188.38
434.10	6307.74
434.28	6094.76
434.47	6256.25
434.66	6293.70
434.85	6298.38
435.03	6363.92
435.22	6361.58
435.41	6506.69
435.59	6436.47
435.78	6539.46
435.97	6609.67
436.16	6530.09
436.34	6555.84
436.53	6595.63
436.72	6670.53
436.90	6546.48
437.09	6583.93
437.28	6576.91
437.46	6745.42
437.65	6743.08
437.84	6764.15
438.02	6588.61
438.21	6792.23
438.40	6654.14
438.58	6817.98
438.77	7159.70
438.96	7129.27
439.14	7140.97
439.33	7246.30
439.52	7178.42
439.70	7332.90
439.89	7372.69
440.08	7311.83
440.26	7375.03
440.45	7452.27
440.63	7496.74
440.82	7679.30
441.01	7496.74
441.19	7644.19
441.38	7864.20
441.57	7969.52
441.75	7822.07
441.94	7875.90
442.12	7896.97
442.31	7915.69
442.50	8257.41
442.68	7992.93
442.87	8208.26
443.05	8198.90
443.24	8411.89
443.43	8348.69
443.61	8290.18
443.80	8395.50
443.98	8147.40
444.17	7756.54
444.35	8241.03
444.54	8318.26
444.73	8344.01
444.91	8360.39
445.10	8428.27
445.28	8372.10
445.47	8458.70
445.65	8430.61
445.84	8451.67
446.02	8557.00
446.21	8397.84
446.39	8468.06
446.58	8557.00
446.77	8418.91
446.95	8217.62
447.14	8517.21
447.32	8641.26
447.51	8552.32
447.69	8402.52
447.88	8489.12
448.06	8826.16
448.25	8587.43
448.43	8498.49
448.62	8531.25
448.80	8610.83
448.99	8573.38
449.17	8737.22
449.36	8657.64
449.54	8912.76
449.73	8938.51
449.91	9329.38
450.10	9050.85
450.28	9076.60
450.46	9025.11
450.65	9104.68
450.83	9135.11
451.02	9111.71
451.20	9053.19
451.39	9198.31
451.57	9231.07
451.76	9163.20
451.94	9259.16
452.13	9650.03
452.31	9226.39
452.49	9312.99
452.68	9387.89
452.86	9446.40
453.05	9397.25
453.23	9284.91
453.42	9392.57
453.60	9495.55
453.78	9565.77
453.97	9469.81
454.15	9600.88
454.34	9764.72
454.52	9666.41
454.70	9832.59
454.89	9870.04
455.07	9863.02
455.26	9785.78
455.44	10012.81
455.62	9870.04
455.81	9928.55
455.99	10136.86
456.17	10237.50
456.36	10303.04
456.54	10071.33
456.73	10223.46
456.91	10593.26
457.09	10441.13
457.28	10541.77
457.46	10509.01
457.64	10761.78
457.83	10562.84
458.01	10335.81
458.19	10604.97
458.38	10602.63
458.56	10747.74
458.74	10698.59
458.93	10757.10
459.11	10881.15
459.29	10649.44
459.48	10937.32
459.66	10937.32
459.84	11269.68
460.03	11145.63
460.21	10956.05
460.39	11061.37
460.57	11035.63
460.76	11363.30
460.94	11435.86
461.12	11281.38
461.31	11000.52
461.49	11253.30
461.67	11101.16
461.85	11623.10
462.04	11323.51
462.22	12009.29
462.40	12035.03
462.59	11751.83
462.77	11587.99
462.95	11845.45
463.13	11580.97
463.32	11690.98
463.50	11733.11
463.68	11910.99
463.86	11882.90
464.05	11953.12
464.23	11765.87
464.41	12081.85
464.59	11962.48
464.78	12140.36
464.96	12039.72
465.14	11943.75
465.32	12285.47
465.50	12245.68
465.69	12191.85
465.87	12156.74
466.05	12084.19
466.23	12336.96
466.41	12236.32
466.60	12727.83
466.78	12292.49
466.96	12549.95
467.14	12219.94
467.32	12453.99
467.51	12786.35
467.69	12138.02
467.87	12360.37
468.05	12751.24
468.23	12315.90
468.41	12746.56
468.60	12837.84
468.78	12910.40
468.96	12865.92
469.14	12903.37
469.32	13128.06
469.50	12798.05
469.69	12854.22
469.87	13001.68
470.05	13111.68
470.23	13198.28
470.41	13228.71
470.59	13303.60
470.77	13469.78
470.95	13427.65
471.14	13547.02
471.32	13371.48
471.50	13813.84
471.68	13444.04
471.86	13605.53
472.04	13769.37
472.22	14295.99
472.40	13811.50
472.58	14008.11
472.77	14068.96
472.95	14333.44
473.13	14902.19
473.31	14239.82
473.49	14281.95
473.67	14176.62
473.85	14417.70
474.03	14853.04
474.21	14806.23
474.39	14614.30
474.57	14979.43
474.75	15143.27
474.93	15197.10
475.12	14995.81
475.30	15302.42
475.48	15089.43
475.66	15449.88
475.84	15250.93
476.02	15702.65
476.20	15321.15
476.38	15920.32
476.56	15807.98
476.74	16233.96
476.92	16156.72
477.10	15976.50
477.28	16465.67
477.46	16484.39
477.64	16437.58
477.82	16947.82
478.00	16730.15
478.18	16868.24
478.36	17053.14
478.54	17284.86
478.72	17317.62
478.90	17682.75
479.08	17635.94
479.26	17855.95
479.44	17872.33
479.62	17994.04
479.80	18153.20
479.98	18106.38
480.16	18740.67
480.34	18464.49
480.52	18689.18
480.70	19101.11
480.88	18445.76
481.06	18724.29
481.24	18799.18
481.41	19180.69
481.59	19576.24
481.77	19552.84
481.95	19709.65
482.13	20149.67
482.31	19967.11
482.49	20409.47
482.67	20290.10
482.85	20758.21
483.03	20863.54
483.21	20879.92
483.39	21029.71
483.57	21032.05
483.74	21542.29
483.92	21523.57
484.10	21462.71
484.28	21727.19
484.46	22026.78
484.64	22380.20
484.82	21961.25
485.00	22403.61
485.18	22679.79
485.35	23073.00
485.53	23108.11
485.71	23035.55
485.89	23571.54
486.07	23733.03
486.25	23761.12
486.43	23765.80
486.61	23995.17
486.78	24215.18
486.96	24290.08
487.14	25142.03
487.32	24893.94
487.50	25069.48
487.68	25268.42
487.85	25727.17
488.03	25558.65
488.21	26139.10
488.39	26010.37
488.57	26162.51
488.75	26274.85
488.92	27161.92
489.10	27030.85
489.28	27112.77
489.46	27208.73
489.64	27089.36
489.81	27725.99
489.99	28044.30
490.17	28175.37
490.35	28339.21
490.53	28266.65
490.70	28734.76
490.88	28332.18
491.06	29357.34
491.24	29394.79
491.41	29071.79
491.59	29666.29
491.77	29390.11
491.95	29708.42
492.13	30024.39
492.30	30043.12
492.48	30197.59
492.66	30642.29
492.84	30497.18
493.01	31157.21
493.19	30991.03
493.37	31072.95
493.54	31466.16
493.72	31950.65
493.90	31758.73
494.08	32292.37
494.25	32320.46
494.43	32395.35
494.61	32280.67
494.79	32694.94
494.96	32622.39
495.14	32933.68
495.32	33268.37
495.49	33642.86
495.67	33598.39
495.85	33701.37
496.02	33853.51
496.20	34192.89
496.38	34099.26
496.55	34366.09
496.73	35180.59
496.91	34780.36
497.09	34937.18
497.26	35379.54
497.44	35456.78
497.62	35356.13
497.79	36301.71
497.97	35693.17
498.14	36306.39
498.32	36631.72
498.50	36540.44
498.67	36825.99
498.85	36739.39
499.03	36694.92
499.20	37411.12
499.38	37228.56
499.56	37310.48
499.73	37387.72
499.91	37471.98
500.08	37930.72
500.26	37862.85
500.44	38234.99
500.61	37954.13
500.79	38340.32
500.97	38302.87
501.14	39407.60
501.32	38527.56
501.49	38794.38
501.67	39409.94
501.84	39475.48
502.02	39388.88
502.20	39084.61
502.37	39447.39
502.55	39700.17
502.72	39950.60
502.90	40020.82
503.07	39707.19
503.25	40025.50
503.43	40041.88
503.60	40535.74
503.78	40945.33
503.95	40701.92
504.13	40875.12
504.30	41085.76
504.48	41137.26
504.65	40921.93
504.83	41275.35
505.01	41715.37
505.18	41577.28
505.36	41635.79
505.53	41603.02
505.71	41846.44
505.88	42342.63
506.06	41514.08
506.23	42394.12
506.41	42270.08
506.58	42321.57
506.76	42005.59
506.93	42918.40
507.11	42831.80
507.28	42920.74
507.46	43241.40
507.63	43213.31
507.81	43393.53
507.98	43079.90
508.16	43288.21
508.33	43522.26
508.50	43676.74
508.68	44114.42
508.85	44257.19
509.03	43950.58
509.20	44449.11
509.38	44371.88
509.55	44832.96
509.73	45226.17
509.90	44926.58
510.08	44725.30
510.25	45155.96
510.42	44704.23
510.60	45317.45
510.77	45617.04
510.95	45710.66
511.12	45116.17
511.30	45457.88
511.47	45773.86
511.64	45972.80
511.82	46110.89
511.99	46012.59
512.17	46742.84
512.34	46234.94
512.51	46539.21
512.69	47035.41
512.86	46457.29
513.04	46976.89
513.21	46890.29
513.38	47014.34
513.56	47735.23
513.73	47199.24
513.90	47447.34
514.08	47054.13
514.25	47632.24
514.43	47721.18
514.60	47775.02
514.77	47423.93
514.95	48236.10
515.12	48067.58
515.29	48208.01
515.47	48126.10
515.64	48535.69
515.81	48470.15
515.99	48327.38
516.16	48739.32
516.33	48442.07
516.51	49242.53
516.68	48809.53
516.85	48697.19
517.03	49200.40
517.20	49366.58
517.37	48870.39
517.54	49022.52
517.72	49146.57
517.89	49387.64
518.06	49326.79
518.24	49659.15
518.41	49647.44
518.58	49727.02
518.75	49216.78
518.93	49841.71
519.10	49530.42
519.27	50026.61
519.45	50021.93
519.62	50108.53
519.79	50328.54
519.96	50279.39
520.14	50464.29
520.31	50148.32
520.48	50784.94
520.65	50649.19
520.83	50965.17
521.00	51037.72
521.17	50691.32
521.34	50866.86
521.52	50939.42
521.69	50876.22
521.86	51269.43
522.03	51339.65
522.20	51564.34
522.38	51849.89
522.55	51784.35
522.72	51908.40
522.89	51629.88
523.07	51948.19
523.24	51711.80
523.41	52163.52
523.58	51508.17
523.75	52196.29
523.92	52119.05
524.10	52259.48
524.27	52432.68
524.44	52739.29
524.61	52374.17
524.78	52505.24
524.96	52397.57
525.13	52402.25
525.30	52671.42
525.47	52666.73
525.64	52774.40
525.81	52893.77
525.98	52816.53
526.16	52868.02
526.33	52758.02
526.50	53294.00
526.67	52828.23
526.84	52837.59
527.01	53237.83
527.18	53078.67
527.36	53385.28
527.53	53254.21
527.70	53436.77
527.87	53837.00
528.04	53387.62
528.21	53371.24
528.38	53511.67
528.55	53769.13
528.72	53521.03
528.89	53703.59
529.07	53825.30
529.24	53855.73
529.41	54209.15
529.58	53703.59
529.75	53918.92
529.92	54150.63
530.09	54012.54
530.26	54241.92
530.43	54307.45
530.60	54138.93
530.77	54075.74
530.94	54410.43
531.11	54253.62
531.28	54148.29
531.46	54543.84
531.63	54436.18
531.80	54323.83
531.97	54550.87
532.14	54656.19
532.31	54482.99
532.48	54726.41
532.65	54876.20
532.82	54574.27
532.99	54997.91
533.16	54695.98
533.33	55107.91
533.50	55030.68
533.67	54932.37
533.84	55021.31
534.01	55107.91
534.18	55192.17
534.35	55536.23
534.52	55311.54
534.69	55332.60
534.86	55587.72
535.03	55323.24
535.20	55536.23
535.37	55653.26
535.54	55772.63
535.71	55576.02
535.88	55540.91
536.05	55849.86
536.22	55772.63
536.38	55756.24
536.55	56046.47
536.72	55870.93
536.89	55840.50
537.06	56128.39
537.23	56240.73
537.40	55735.18
537.57	56041.79
537.74	56044.13
537.91	56142.43
538.08	56058.17
538.25	56109.66
538.42	55985.61
538.59	56294.56
538.75	56154.13
538.92	56306.27
539.09	56633.94
539.26	56442.02
539.43	56360.10
539.60	56437.34
539.77	56210.31
539.94	56685.43
540.11	56591.81
540.28	56697.14
540.44	56678.41
540.61	56671.39
540.78	56456.06
540.95	56512.23
541.12	56601.18
541.29	56772.03
541.46	56912.47
541.62	56900.76
541.79	57024.81
541.96	56802.46
542.13	56889.06
542.30	56912.47
542.47	57071.62
542.63	57193.33
542.80	57174.61
542.97	57088.01
543.14	57345.47
543.31	57202.69
543.48	57523.35
543.64	57591.22
543.81	57609.95
543.98	57602.92
544.15	57422.70
544.32	57588.88
544.48	57733.99
544.65	57368.87
544.82	57525.69
544.99	57598.24
545.16	57738.68
545.32	57661.44
545.49	57790.17
545.66	57977.41
545.83	57741.02
546.00	57890.81
546.16	57998.48
546.33	57743.36
546.50	57832.30
546.67	58003.16
546.83	57680.16
547.00	58241.89
547.17	57916.56
547.34	58017.20
547.50	58183.38
547.67	58246.57
547.84	58178.70
548.00	58415.09
548.17	58356.58
548.34	58459.56
548.51	58740.42
548.67	58300.40
548.84	58251.25
549.01	58192.74
549.18	58553.18
549.34	58387.00
549.51	58571.91
549.68	58653.82
549.84	58513.39
550.01	58574.25
550.18	58501.69
550.34	58485.31
550.51	58644.46
550.68	58597.65
550.84	58461.90
551.01	58766.17
551.18	58646.80
551.34	58581.27
551.51	58791.92
551.68	58770.85
551.84	58810.64
552.01	58782.55
552.18	58906.60
552.34	58817.66
552.51	58913.62
552.68	58721.70
552.84	58892.56
553.01	59157.04
553.18	59042.35
553.34	58834.05
553.51	58880.86
553.67	59007.25
553.84	58997.88
554.01	59110.23
554.17	59348.96
554.34	59454.29
554.51	59288.11
554.67	59180.45
554.84	59253.00
555.00	59143.00
555.17	59192.15
555.33	59316.20
555.50	59208.53
555.67	59323.22
555.83	59103.21
556.00	59395.77
556.16	59498.76
556.33	59428.54
556.50	59260.02
556.66	59714.09
556.83	59477.69
556.99	59620.47
557.16	59660.26
557.32	59643.87
557.49	59700.04
557.65	59608.76
557.82	59426.20
557.98	59615.79
558.15	59613.44
558.32	59709.41
558.48	59501.10
558.65	59655.57
558.81	59660.26
558.98	59709.41
559.14	59650.89
559.31	59943.46
559.47	59835.80
559.64	59917.71
559.80	59884.95
559.97	60039.42
560.13	59718.77
560.30	60079.21
560.46	59891.97
560.63	59957.50
560.79	59854.52
560.96	60186.88
561.12	60203.26
561.29	60140.07
561.45	59831.11
561.61	59938.78
561.78	59859.20
561.94	60102.62
562.11	60032.40
562.27	60374.12
562.44	60210.28
562.60	60072.19
562.77	60156.45
562.93	59870.90
563.10	60114.32
563.26	60168.15
563.42	60243.05
563.59	60212.62
563.75	60217.30
563.92	60140.07
564.08	60158.79
564.24	60339.01
564.41	60392.84
564.57	60528.59
564.74	60343.69
564.90	60392.84
565.07	60413.91
565.23	60275.82
565.39	60271.14
565.56	60165.81
565.72	60238.37
565.88	60350.71
566.05	60264.11
566.21	60322.63
566.38	60437.31
566.54	60530.93
566.70	60610.51
566.87	60669.03
567.03	60350.71
567.19	60685.41
567.36	60643.28
567.52	60652.64
567.68	60708.82
567.85	60516.89
568.01	60701.79
568.17	60664.35
568.34	60713.50
568.50	60409.23
568.66	60542.64
568.83	60708.82
568.99	60542.64
569.15	60451.36
569.32	60619.88
569.48	60470.08
569.64	60704.13
569.81	60587.11
569.97	60643.28
570.13	60755.63
570.30	60652.64
570.46	60624.56
570.62	60701.79
570.78	60788.39
570.95	60577.75
571.11	60809.46
571.27	60676.05
571.43	60842.23
571.60	60727.54
571.76	60797.76
571.92	60776.69
572.09	60975.64
572.25	60764.99
572.41	60680.73
572.57	60867.97
572.74	60992.02
572.90	60842.23
573.06	60907.76
573.22	60863.29
573.38	60942.87
573.55	60814.14
573.71	61036.49
573.87	60711.16
574.03	60718.18
574.20	60786.05
574.36	60713.50
574.52	60708.82
574.68	60704.13
574.84	61010.74
575.01	60865.63
575.17	61139.47
575.33	60938.19
575.49	60933.51
575.65	60989.68
575.82	60975.64
575.98	61043.51
576.14	61214.37
576.30	60931.17
576.46	60956.91
576.62	60966.27
576.79	60961.59
576.95	61116.07
577.11	60910.10
577.27	61041.17
577.43	61041.17
577.59	60844.57
577.75	60807.12
577.92	60980.32
578.08	60992.02
578.24	61078.62
578.40	61179.26
578.56	61272.88
578.72	60898.40
578.88	61347.78
579.04	61183.94
579.21	61183.94
579.37	61188.63
579.53	61244.80
579.69	60999.04
579.85	61020.11
580.01	60982.66
580.17	61155.86
580.33	61155.86
580.49	61097.34
580.65	61141.81
580.82	61125.43
580.98	60928.83
581.14	61083.30
581.30	61151.18
581.46	61071.60
581.62	61057.56
581.78	61242.46
581.94	61085.64
582.10	61095.00
582.26	61148.84
582.42	61106.71
582.58	61352.46
582.74	61116.07
582.90	60992.02
583.06	61197.99
583.22	61113.73
583.38	61090.32
583.54	61029.47
583.70	61329.06
583.86	61148.84
584.02	61109.05
584.18	61324.38
584.34	61212.03
584.50	61036.49
584.66	61120.75
584.82	60907.76
584.98	61340.76
585.14	61090.32
585.30	61237.78
585.46	61120.75
585.62	61106.71
585.78	61303.31
585.94	60973.30
586.10	61158.20
586.26	61106.71
586.42	61118.41
586.58	61272.88
586.74	61230.75
586.90	61307.99
587.06	61045.85
587.22	61242.46
587.38	61261.18
587.54	61572.47
587.70	61413.32
587.86	61155.86
588.02	61305.65
588.18	61520.98
588.34	61237.78
588.49	61289.27
