SpectraSuite Data File
++++++++++++++++++++++++++++++++++++
Date: Fri Oct 25 11:34:44 EDT 2013
User: price-jones
Dark Spectrum Present: No
Reference Spectrum Present: No
Number of Sampled Component Spectra: 1
Spectrometers: USB2+H05261
Integration Time (usec): 100000 (USB2+H05261)
Spectra Averaged: 1 (USB2+H05261)
Boxcar Smoothing: 0 (USB2+H05261)
Correct for Electrical Dark: No (USB2+H05261)
Strobe/Lamp Enabled: No (USB2+H05261)
Correct for Detector Non-linearity: No (USB2+H05261)
Correct for Stray Light: No (USB2+H05261)
Number of Pixels in Processed Spectrum: 2048
>>>>>Begin Processed Spectral Data<<<<<
365.73	280.86
365.92	280.86
366.12	280.86
366.32	191.92
366.52	212.99
366.72	198.95
366.91	201.29
367.11	152.13
367.31	234.05
367.51	145.11
367.70	124.05
367.90	145.11
368.10	201.29
368.30	107.66
368.49	163.84
368.69	262.14
368.89	156.82
369.09	152.13
369.28	248.10
369.48	180.22
369.68	156.82
369.87	201.29
370.07	227.03
370.27	299.59
370.47	332.36
370.66	414.27
370.86	484.49
371.06	512.58
371.25	533.64
371.45	526.62
371.65	608.54
371.84	559.39
372.04	526.62
372.24	514.92
372.44	587.47
372.63	610.88
372.83	582.79
373.03	610.88
373.22	601.52
373.42	528.96
373.62	613.22
373.81	578.11
374.01	592.16
374.21	545.34
374.40	683.44
374.60	643.65
374.79	648.33
374.99	559.39
375.19	685.78
375.38	664.71
375.58	678.76
375.78	650.67
375.97	622.58
376.17	744.29
376.37	676.41
376.56	671.73
376.76	622.58
376.95	653.01
377.15	669.39
377.35	615.56
377.54	613.22
377.74	669.39
377.93	667.05
378.13	692.80
378.33	716.20
378.52	650.67
378.72	688.12
378.91	716.20
379.11	650.67
379.31	727.91
379.50	685.78
379.70	732.59
379.89	741.95
380.09	664.71
380.28	779.40
380.48	685.78
380.68	798.12
380.87	706.84
381.07	763.01
381.26	758.33
381.46	763.01
381.65	706.84
381.85	732.59
382.04	688.12
382.24	777.06
382.43	692.80
382.63	798.12
382.83	823.87
383.02	758.33
383.22	770.04
383.41	734.93
383.61	828.55
383.80	779.40
384.00	695.14
384.19	779.40
384.39	725.57
384.58	791.10
384.78	851.96
384.97	802.80
385.17	798.12
385.36	760.67
385.56	819.19
385.75	805.14
385.95	809.83
386.14	851.96
386.34	770.04
386.53	847.27
386.72	788.76
386.92	903.45
387.11	840.25
387.31	807.48
387.50	835.57
387.70	870.68
387.89	870.68
388.09	931.53
388.28	891.74
388.48	917.49
388.67	947.92
388.86	882.38
389.06	877.70
389.25	931.53
389.45	971.32
389.64	931.53
389.84	875.36
390.03	968.98
390.22	896.43
390.42	966.64
390.61	894.08
390.81	1036.86
391.00	896.43
391.19	999.41
391.39	926.85
391.58	931.53
391.78	964.30
391.97	990.05
392.16	1008.77
392.36	983.02
392.55	1004.09
392.75	1067.28
392.94	1064.94
393.13	985.37
393.33	1013.45
393.52	1076.65
393.71	1081.33
393.91	1039.20
394.10	1006.43
394.29	1022.81
394.49	1022.81
394.68	1109.41
394.88	1165.59
395.07	1151.54
395.26	1029.84
395.46	1050.90
395.65	1041.54
395.84	1071.97
396.04	1167.93
396.23	1081.33
396.42	1137.50
396.62	1158.57
396.81	1200.69
397.00	1146.86
397.19	1081.33
397.39	1146.86
397.58	1163.25
397.77	1170.27
397.97	1273.25
398.16	1254.53
398.35	1224.10
398.55	1219.42
398.74	1261.55
398.93	1233.46
399.12	1270.91
399.32	1186.65
399.51	1284.95
399.70	1306.02
399.90	1296.66
400.09	1376.24
400.28	1308.36
400.47	1273.25
400.67	1380.92
400.86	1334.11
401.05	1397.30
401.24	1329.42
401.44	1406.66
401.63	1409.00
401.82	1287.29
402.01	1406.66
402.21	1500.28
402.40	1331.76
402.59	1423.05
402.78	1413.68
402.97	1458.15
403.17	1462.83
403.36	1345.81
403.55	1479.22
403.74	1526.03
403.93	1549.43
404.13	1483.90
404.32	1547.09
404.51	1521.35
404.70	1678.16
404.89	1551.78
405.09	1647.74
405.28	1575.18
405.47	1643.06
405.66	1629.01
405.85	1636.03
406.05	1647.74
406.24	1636.03
406.43	1739.02
406.62	1757.74
406.81	1842.00
407.00	1654.76
407.20	1774.13
407.39	1797.53
407.58	1776.47
407.77	1832.64
407.96	1682.85
408.15	1708.59
408.34	1706.25
408.54	1846.68
408.73	1916.90
408.92	1839.66
409.11	1856.04
409.30	1830.30
409.49	1860.73
409.68	1940.30
409.87	1933.28
410.07	1994.14
410.26	2026.90
410.45	1944.99
410.64	1956.69
410.83	2019.88
411.02	1968.39
411.21	2097.12
411.40	2129.89
411.59	2059.67
411.78	2057.33
411.98	2115.84
412.17	2122.87
412.36	2101.80
412.55	2221.17
412.74	2202.44
412.93	2324.15
413.12	2239.89
413.31	2354.58
413.50	2207.13
413.69	2370.96
413.88	2427.14
414.07	2251.60
414.26	2485.65
414.45	2389.69
414.64	2298.41
414.83	2441.18
415.02	2504.37
415.22	2511.39
415.41	2665.87
415.60	2520.76
415.79	2499.69
415.98	2684.59
416.17	2703.32
416.36	2525.44
416.55	2595.65
416.74	2736.09
416.93	2597.99
417.12	2724.38
417.31	2780.56
417.50	2775.88
417.69	2850.77
417.88	2815.66
418.07	2794.60
418.26	2827.37
418.45	2778.22
418.64	2864.82
418.83	2850.77
419.02	2930.35
419.21	2913.97
419.39	2998.23
419.58	3080.14
419.77	2956.10
419.96	2993.55
420.15	3049.72
420.34	2995.89
420.53	3063.76
420.72	3110.57
420.91	3169.09
421.10	3141.00
421.29	3143.34
421.48	3059.08
421.67	3215.90
421.86	3143.34
422.05	3215.90
422.24	3150.36
422.43	3133.98
422.61	3124.62
422.80	3267.39
422.99	3204.19
423.18	3229.94
423.37	3222.92
423.56	3330.58
423.75	3239.30
423.94	3117.59
424.13	3016.95
424.32	3103.55
424.50	3293.13
424.69	3314.20
424.88	3260.37
425.07	3274.41
425.26	3293.13
425.45	3269.73
425.64	3316.54
425.83	3302.50
426.01	3407.82
426.20	3197.17
426.39	3316.54
426.58	3232.28
426.77	3349.31
426.96	3330.58
427.15	3421.86
427.33	3405.48
427.52	3393.78
427.71	3527.19
427.90	3482.72
428.09	3499.10
428.28	3503.78
428.46	3485.06
428.65	3534.21
428.84	3583.36
429.03	3688.68
429.22	3438.25
429.40	3386.76
429.59	3578.68
429.78	3541.23
429.97	3522.51
430.16	3510.80
430.34	3599.74
430.53	3576.34
430.72	3691.02
430.91	3810.39
431.10	3602.08
431.28	3758.90
431.47	3709.75
431.66	3885.29
431.85	3761.24
432.03	3843.16
432.22	3978.91
432.41	3873.59
432.60	4025.72
432.79	3838.48
432.97	3892.31
433.16	3953.16
433.35	3852.52
433.54	3887.63
433.72	3985.93
433.91	4081.89
434.10	3990.61
434.28	3985.93
434.47	4070.19
434.66	4086.58
434.85	3943.80
435.03	4053.81
435.22	4184.88
435.41	4283.18
435.59	4168.49
435.78	4081.89
435.97	4250.41
436.16	4264.46
436.34	4128.70
436.53	4208.28
436.72	4273.82
436.90	4306.59
437.09	4280.84
437.28	4313.61
437.46	4273.82
437.65	4292.54
437.84	4287.86
438.02	4269.14
438.21	4369.78
438.40	4353.40
438.58	4449.36
438.77	4557.02
438.96	4648.30
439.14	4542.98
439.33	4627.24
439.52	4727.88
439.70	4727.88
439.89	4748.95
440.08	4674.05
440.26	4746.61
440.45	4755.97
440.63	4751.29
440.82	4915.12
441.01	4922.15
441.19	4910.44
441.38	4994.70
441.57	4954.91
441.75	5064.92
441.94	5020.45
442.12	5060.24
442.31	5160.88
442.50	5188.97
442.68	5057.90
442.87	5123.43
443.05	5212.37
443.24	5369.19
443.43	5301.31
443.61	5153.86
443.80	5399.62
443.98	5128.11
444.17	4999.38
444.35	5425.36
444.54	5273.23
444.73	5301.31
444.91	5338.76
445.10	5359.83
445.28	5362.17
445.47	5362.17
445.65	5338.76
445.84	5408.98
446.02	5523.66
446.21	5348.12
446.39	5245.14
446.58	5434.72
446.77	5584.52
446.95	5233.44
447.14	5453.45
447.32	5551.75
447.51	5659.42
447.69	5430.04
447.88	5558.77
448.06	5523.66
448.25	5516.64
448.43	5603.24
448.62	5469.83
448.80	5675.80
448.99	5570.48
449.17	5596.22
449.36	5528.35
449.54	5582.18
449.73	5755.38
449.91	5823.25
450.10	5858.36
450.28	5820.91
450.46	5935.60
450.65	5898.15
450.83	5860.70
451.02	5914.53
451.20	5926.24
451.39	6040.92
451.57	5930.92
451.76	5827.93
451.94	5893.47
452.13	5865.38
452.31	6066.67
452.49	5926.24
452.68	5994.11
452.86	6094.76
453.05	6043.26
453.23	5987.09
453.42	6183.70
453.60	6069.01
453.78	6078.37
453.97	5909.85
454.15	6015.18
454.34	5935.60
454.52	6050.28
454.70	6298.38
454.89	6125.18
455.07	6167.31
455.26	6296.04
455.44	6354.55
455.62	6359.24
455.81	6370.94
455.99	6434.13
456.17	6310.08
456.36	6382.64
456.54	6534.78
456.73	6366.26
456.91	6565.20
457.09	6750.10
457.28	6853.09
457.46	6520.73
457.64	6829.68
457.83	6740.74
458.01	6633.08
458.19	6857.77
458.38	6740.74
458.56	6822.66
458.74	6710.32
458.93	6663.51
459.11	6883.52
459.29	6745.42
459.48	6871.81
459.66	6883.52
459.84	6920.96
460.03	7173.74
460.21	7110.55
460.39	7159.70
460.57	6993.52
460.76	7040.33
460.94	6991.18
461.12	7211.19
461.31	7070.76
461.49	7318.86
461.67	7042.67
461.85	7258.00
462.04	7204.17
462.22	7379.71
462.40	7396.09
462.59	7339.92
462.77	7368.01
462.95	7452.27
463.13	7412.48
463.32	7456.95
463.50	7470.99
463.68	7363.33
463.86	7606.74
464.05	7410.14
464.23	7417.16
464.41	7716.75
464.59	7492.05
464.78	7662.91
464.96	7489.71
465.14	7644.19
465.32	7698.02
465.50	7747.17
465.69	7590.36
465.87	7683.98
466.05	7719.09
466.23	7726.11
466.41	7772.92
466.60	8006.97
466.78	7913.35
466.96	7730.79
467.14	7756.54
467.32	7728.45
467.51	7950.80
467.69	7831.43
467.87	7925.05
468.05	8011.65
468.23	7920.37
468.41	7950.80
468.60	7915.69
468.78	8072.51
468.96	8217.62
469.14	8245.71
469.32	8100.59
469.50	8056.12
469.69	8334.65
469.87	8369.76
470.05	8428.27
470.23	8149.75
470.41	8325.29
470.59	8423.59
470.77	8217.62
470.95	8210.60
471.14	8381.46
471.32	8241.03
471.50	8580.40
471.68	8517.21
471.86	8573.38
472.04	8772.33
472.22	8915.10
472.40	8643.60
472.58	8903.40
472.77	8690.41
472.95	8837.86
473.13	9184.26
473.31	8840.20
473.49	8882.33
473.67	8641.26
473.85	9048.51
474.03	9132.77
474.21	9207.67
474.39	9198.31
474.57	9280.22
474.75	9593.86
474.93	9376.19
475.12	9425.34
475.30	9474.49
475.48	9678.12
475.66	9633.64
475.84	9547.05
476.02	9650.03
476.20	9696.84
476.38	9802.16
476.56	9919.19
476.74	9811.53
476.92	9877.06
477.10	10026.86
477.28	10129.84
477.46	10026.86
477.64	10221.12
477.82	10368.57
478.00	10579.22
478.18	10553.48
478.36	10544.11
478.54	10731.36
478.72	10607.31
478.90	10836.68
479.08	11030.94
479.26	10878.81
479.44	11140.95
479.62	11337.56
479.80	11108.18
479.98	11199.46
480.16	11499.05
480.34	11442.88
480.52	11639.48
480.70	11543.52
480.88	11440.54
481.06	11740.13
481.24	11896.94
481.41	11824.39
481.59	11833.75
481.77	11957.80
481.95	12184.83
482.13	12187.17
482.31	12266.75
482.49	12769.96
482.67	12620.17
482.85	12758.26
483.03	12903.37
483.21	12765.28
483.39	12968.91
483.57	12954.87
483.74	13076.57
483.92	13284.88
484.10	13209.98
484.28	13458.08
484.46	13652.34
484.64	13996.40
484.82	13338.71
485.00	13713.20
485.18	14019.81
485.35	14342.80
485.53	14118.11
485.71	14242.16
485.89	14726.65
486.07	14492.60
486.25	14588.56
486.43	14654.09
486.61	14803.89
486.78	15161.99
486.96	15066.03
487.14	15253.27
487.32	15176.03
487.50	15227.53
487.68	15445.20
487.85	15550.52
488.03	15613.71
488.21	16168.42
488.39	16088.84
488.57	15960.11
488.75	16032.67
488.92	16376.73
489.10	16521.84
489.28	16610.78
489.46	16776.96
489.64	16870.58
489.81	17219.32
489.99	17097.61
490.17	17106.98
490.35	17633.60
490.53	17411.25
490.70	17708.49
490.88	17359.75
491.06	17879.35
491.24	17664.02
491.41	17823.18
491.59	18251.50
491.77	17886.37
491.95	18363.84
492.13	18558.11
492.30	18281.92
492.48	18850.67
492.66	18663.43
492.84	18979.40
493.01	19297.72
493.19	18759.39
493.37	19290.70
493.54	19484.96
493.72	19688.59
493.90	19697.95
494.08	19623.05
494.25	19662.84
494.43	19988.18
494.61	19941.36
494.79	20418.83
494.96	19889.87
495.14	19964.77
495.32	20430.54
495.49	20442.24
495.67	20507.77
495.85	20821.41
496.02	20849.49
496.20	21076.52
496.38	20994.61
496.55	20922.05
496.73	21678.04
496.91	21467.39
497.09	21546.97
497.26	21802.09
497.44	21813.79
497.62	21699.11
497.79	22122.74
497.97	21886.35
498.14	22232.75
498.32	22443.40
498.50	22150.83
498.67	22742.99
498.85	22473.82
499.03	22761.71
499.20	22841.29
499.38	22974.70
499.56	22625.96
499.73	22857.67
499.91	23054.28
500.08	23166.62
500.26	23068.32
500.44	23419.40
500.61	23164.28
500.79	23367.91
500.97	23828.99
501.14	23672.18
501.32	23929.64
501.49	23768.14
501.67	24130.92
501.84	24098.16
502.02	24105.18
502.20	24212.84
502.37	24002.19
502.55	24306.46
502.72	24264.33
502.90	24624.78
503.07	24643.50
503.25	24746.48
503.43	24428.17
503.60	24992.24
503.78	25046.07
503.95	25055.43
504.13	25095.22
504.30	25163.10
504.48	25055.43
504.65	25411.20
504.83	25502.48
505.01	25577.37
505.18	25804.41
505.36	25687.38
505.53	25560.99
505.71	26085.27
505.88	25626.53
506.06	25668.66
506.23	26277.19
506.41	25867.60
506.58	26150.81
506.76	26450.39
506.93	26171.87
507.11	26513.59
507.28	26553.38
507.46	26506.57
507.63	26656.36
507.81	26747.64
507.98	26696.15
508.16	26771.05
508.33	26916.16
508.50	26993.40
508.68	27054.25
508.85	27585.55
509.03	27161.92
509.20	27344.48
509.38	27744.71
509.55	27496.61
509.73	27817.27
509.90	27573.85
510.08	27543.42
510.25	27714.28
510.42	27505.98
510.60	27988.13
510.77	27744.71
510.95	28367.29
511.12	28098.13
511.30	28369.63
511.47	28240.90
511.64	28465.60
511.82	28514.75
511.99	28575.60
512.17	28900.94
512.34	28201.11
512.51	29081.16
512.69	29118.60
512.86	29151.37
513.04	29202.86
513.21	28875.19
513.38	29125.63
513.56	29575.01
513.73	29205.20
513.90	29453.30
514.08	29528.20
514.25	29855.87
514.43	29811.40
514.60	29949.50
514.77	29549.26
514.95	29991.62
515.12	30075.88
515.29	29905.02
515.47	30043.12
515.64	30045.46
515.81	30050.14
515.99	30345.05
516.16	30749.96
516.33	30441.01
516.51	30534.63
516.68	30424.62
516.85	30665.70
517.03	30682.08
517.20	31030.82
517.37	30651.66
517.54	30850.60
517.72	30969.97
517.89	31344.45
518.06	31262.54
518.24	31229.77
518.41	31250.83
518.58	31543.40
518.75	31175.94
518.93	31548.08
519.10	31370.20
519.27	31412.33
519.45	31615.96
519.62	31417.01
519.79	31580.85
519.96	31732.98
520.14	32018.53
520.31	31924.91
520.48	32393.01
520.65	31990.44
520.83	32545.15
521.00	32231.52
521.17	32531.11
521.34	32627.07
521.52	32591.96
521.69	32818.99
521.86	32479.61
522.03	32713.67
522.20	32921.98
522.38	33179.43
522.55	33024.96
522.72	33141.99
522.89	32975.81
523.07	33006.23
523.24	33343.27
523.41	33397.10
523.58	33050.70
523.75	33244.97
523.92	33256.67
524.10	33610.09
524.27	33806.70
524.44	33865.21
524.61	33940.11
524.78	33776.27
524.96	33989.26
525.13	34174.16
525.30	34295.87
525.47	34220.97
525.64	34073.52
525.81	34443.32
525.98	34483.11
526.16	34668.02
526.33	34349.70
526.50	34298.21
526.67	34113.31
526.84	34562.69
527.01	34501.84
527.18	34438.64
527.36	34670.36
527.53	34443.32
527.70	34925.47
527.87	34876.32
528.04	34651.63
528.21	34506.52
528.38	35084.63
528.55	35433.37
528.72	34813.13
528.89	35115.06
529.07	35360.81
529.24	34761.64
529.41	35555.08
529.58	35232.08
529.75	35435.71
529.92	35295.28
530.09	35232.08
530.26	35789.13
530.43	35861.69
530.60	35044.84
530.77	35676.79
530.94	36046.59
531.11	35693.17
531.28	35775.09
531.46	35931.90
531.63	36266.60
531.80	35833.60
531.97	36479.59
532.14	35885.09
532.31	36004.46
532.48	36566.19
532.65	36903.23
532.82	36222.13
532.99	36535.76
533.16	35995.10
533.33	36620.02
533.50	36559.17
533.67	36786.20
533.84	36402.35
534.01	36753.43
534.18	36727.69
534.35	36926.63
534.52	36615.34
534.69	37022.59
534.86	37202.82
535.03	37111.53
535.20	37525.81
535.37	37563.26
535.54	37116.22
535.71	37146.64
535.88	37661.56
536.05	37322.18
536.22	37392.40
536.38	37364.31
536.55	37474.32
536.72	37113.87
536.89	37574.96
537.06	37684.97
537.23	37532.83
537.40	37628.79
537.57	37418.14
537.74	37937.74
537.91	37855.82
538.08	37930.72
538.25	37858.17
538.42	38022.00
538.59	38110.94
538.75	37965.83
538.92	37972.85
539.09	38539.26
539.26	38150.73
539.43	38075.84
539.60	38560.33
539.77	38113.28
539.94	38693.74
540.11	38242.01
540.28	38773.31
540.44	38581.39
540.61	38693.74
540.78	38569.69
540.95	38389.47
541.12	38412.87
541.29	38932.47
541.46	38810.76
541.62	38700.76
541.79	39077.58
541.96	38356.70
542.13	39077.58
542.30	39014.39
542.47	39171.21
542.63	38920.77
542.80	39009.71
542.97	39461.43
543.14	39538.67
543.31	39386.54
543.48	39255.46
543.64	39786.77
543.81	39864.00
543.98	39849.96
544.15	39491.86
544.32	39833.58
544.48	40334.45
544.65	39597.18
544.82	40121.46
544.99	39700.17
545.16	40030.18
545.32	39709.53
545.49	40165.93
545.66	39934.22
545.83	40182.32
546.00	40119.12
546.16	40664.47
546.33	40151.89
546.50	40676.17
546.67	40322.75
546.83	39777.40
547.00	40048.91
547.17	39789.11
547.34	40215.08
547.50	40722.98
547.67	40657.45
547.84	40694.89
548.00	40844.69
548.17	41088.10
548.34	41078.74
548.51	41226.20
548.67	40795.54
548.84	41134.92
549.01	40477.22
549.18	41083.42
549.34	40989.80
549.51	41371.31
549.68	40996.82
549.84	40730.00
550.01	41251.94
550.18	40957.03
550.34	41174.70
550.51	41081.08
550.68	41378.33
550.84	40847.03
551.01	41565.57
551.18	41448.55
551.34	41165.34
551.51	41549.19
551.68	41577.28
551.84	41041.29
552.01	41174.70
552.18	41329.18
552.34	41588.98
552.51	41144.28
552.68	41467.27
552.84	41799.63
553.01	41951.76
553.18	41691.96
553.34	41682.60
553.51	41935.38
553.67	41794.95
553.84	41855.80
554.01	42073.47
554.17	41727.07
554.34	41865.16
554.51	42021.98
554.67	42040.70
554.84	41909.63
555.00	42099.22
555.17	42003.25
555.33	42340.29
555.50	42171.77
555.67	42417.53
555.83	42218.58
556.00	42019.64
556.16	43005.00
556.33	42546.26
556.50	42684.35
556.66	42593.07
556.83	42178.79
556.99	42972.24
557.16	42534.56
557.32	43161.82
557.49	42628.18
557.65	42230.29
557.82	42726.48
557.98	42351.99
558.15	42550.94
558.32	42572.00
558.48	42450.30
558.65	42469.02
558.81	42691.37
558.98	43005.00
559.14	42937.13
559.31	42960.53
559.47	42667.97
559.64	42880.95
559.80	42436.25
559.97	43161.82
560.13	42747.54
560.30	42780.31
560.46	42981.60
560.63	43145.44
560.79	43552.69
560.96	43084.58
561.12	43419.28
561.29	43117.35
561.45	43349.06
561.61	43386.51
561.78	43367.79
561.94	43107.99
562.11	43388.85
562.27	42979.26
562.44	43370.13
562.60	43161.82
562.77	43377.15
562.93	43283.53
563.10	43878.02
563.26	43262.46
563.42	43990.37
563.59	43353.74
563.75	43487.15
563.92	43817.17
564.08	43250.76
564.24	43606.52
564.41	43433.32
564.57	43629.93
564.74	43515.24
564.90	43538.65
565.07	43707.16
565.23	43569.07
565.39	43147.78
565.56	43793.76
565.72	43320.98
565.88	43627.59
566.05	44009.09
566.21	43711.84
566.38	43681.42
566.54	43545.67
566.70	43559.71
566.87	43751.63
567.03	43746.95
567.19	43709.50
567.36	43784.40
567.52	43810.15
567.68	44280.60
567.85	44374.22
568.01	43995.05
568.17	43873.34
568.34	43782.06
568.50	43831.21
568.66	43658.01
568.83	43910.79
568.99	43889.73
569.15	43597.16
569.32	43999.73
569.48	44332.09
569.64	44107.40
569.81	44252.51
569.97	44088.67
570.13	43992.71
570.30	43856.96
570.46	44231.44
570.62	44348.47
570.78	44172.93
570.95	44601.25
571.11	44348.47
571.27	43948.24
571.43	44072.29
571.60	43775.04
571.76	44009.09
571.92	43903.77
572.09	44229.10
572.25	43889.73
572.41	44315.70
572.57	44259.53
572.74	44617.63
572.90	44224.42
573.06	44196.34
573.22	44615.29
573.38	44467.84
573.55	44755.72
573.71	44643.38
573.87	44423.37
574.03	44299.32
574.20	44753.38
574.36	44442.09
574.52	44353.15
574.68	44458.48
574.84	44687.85
575.01	44865.73
575.17	44535.71
575.33	44631.68
575.49	44500.61
575.65	44416.35
575.82	44460.82
575.98	44556.78
576.14	44954.67
576.30	44931.26
576.46	44807.22
576.62	44664.44
576.79	44456.14
576.95	44287.62
577.11	44273.57
577.27	44212.72
577.43	44683.17
577.59	44577.84
577.75	44399.96
577.92	43973.98
578.08	44973.39
578.24	44945.31
578.40	44744.02
578.56	44680.83
578.72	44624.65
578.88	44561.46
579.04	44545.08
579.21	44582.52
579.37	44790.83
579.53	45153.62
579.69	44186.97
579.85	44371.88
580.01	44470.18
580.17	44432.73
580.33	44802.53
580.49	45024.89
580.65	44847.00
580.82	44292.30
580.98	44374.22
581.14	44273.57
581.30	44830.62
581.46	44404.64
581.62	44884.45
581.78	44748.70
581.94	44804.88
582.10	44463.16
582.26	44641.04
582.42	44463.16
582.58	44591.89
582.74	44851.69
582.90	44835.30
583.06	44683.17
583.22	44847.00
583.38	44514.65
583.54	44622.31
583.70	44863.39
583.86	44762.75
584.02	44725.30
584.18	45235.53
584.34	44662.10
584.50	45076.38
584.66	45319.79
584.82	45202.77
584.98	44856.37
585.14	45219.15
585.30	44847.00
585.46	44531.03
585.62	44631.68
585.78	45034.25
585.94	44528.69
586.10	44678.49
586.26	44753.38
586.42	44957.01
586.58	44975.73
586.74	44596.57
586.90	44839.98
587.06	44685.51
587.22	44694.87
587.38	44573.16
587.54	44966.37
587.70	44987.44
587.86	45146.59
588.02	44854.03
588.18	44914.88
588.34	44945.31
588.49	44800.19
588.65	44910.20
588.81	45003.82
588.97	45301.07
589.13	44818.92
589.29	44797.85
589.45	45097.44
589.61	45329.16
589.77	45436.82
589.93	45195.74
590.08	45380.65
