SpectraSuite Data File
++++++++++++++++++++++++++++++++++++
Date: Fri Oct 25 11:26:12 EDT 2013
User: price-jones
Dark Spectrum Present: No
Reference Spectrum Present: No
Number of Sampled Component Spectra: 1
Spectrometers: USB2+H05261
Integration Time (usec): 100000 (USB2+H05261)
Spectra Averaged: 1 (USB2+H05261)
Boxcar Smoothing: 0 (USB2+H05261)
Correct for Electrical Dark: No (USB2+H05261)
Strobe/Lamp Enabled: No (USB2+H05261)
Correct for Detector Non-linearity: No (USB2+H05261)
Correct for Stray Light: No (USB2+H05261)
Number of Pixels in Processed Spectrum: 2048
>>>>>Begin Processed Spectral Data<<<<<
365.73	245.76
365.92	245.76
366.12	245.76
366.32	154.48
366.52	124.05
366.72	81.92
366.91	84.26
367.11	140.43
367.31	93.62
367.51	124.05
367.70	93.62
367.90	175.54
368.10	133.41
368.30	168.52
368.49	138.09
368.69	131.07
368.89	159.16
369.09	124.05
369.28	163.84
369.48	189.58
369.68	220.01
369.87	243.42
370.07	189.58
370.27	189.58
370.47	292.57
370.66	517.26
370.86	620.24
371.06	758.33
371.25	676.41
371.45	645.99
371.65	725.57
371.84	688.12
372.04	739.61
372.24	739.61
372.44	711.52
372.63	702.16
372.83	758.33
373.03	770.04
373.22	812.17
373.42	788.76
373.62	793.44
373.81	807.48
374.01	772.38
374.21	849.61
374.40	821.53
374.60	854.30
374.79	861.32
374.99	732.59
375.19	821.53
375.38	858.98
375.58	793.44
375.78	873.02
375.97	814.51
376.17	891.74
376.37	903.45
376.56	880.04
376.76	901.11
376.95	938.55
377.15	915.15
377.35	938.55
377.54	919.83
377.74	971.32
377.93	908.13
378.13	950.26
378.33	1029.84
378.52	985.37
378.72	861.32
378.91	943.24
379.11	931.53
379.31	931.53
379.50	877.70
379.70	952.60
379.89	1011.11
380.09	924.51
380.28	929.19
380.48	936.21
380.68	992.39
380.87	968.98
381.07	976.00
381.26	1015.79
381.46	1032.18
381.65	1095.37
381.85	1025.15
382.04	1020.47
382.24	957.28
382.43	1071.97
382.63	1069.62
382.83	1107.07
383.02	1153.88
383.22	1128.14
383.41	1074.31
383.61	1050.90
383.80	1153.88
384.00	1067.28
384.19	1118.78
384.39	1219.42
384.58	1170.27
384.78	1032.18
384.97	1123.46
385.17	1125.80
385.36	1210.06
385.56	1135.16
385.75	1137.50
385.95	1177.29
386.14	1151.54
386.34	1179.63
386.53	1275.59
386.72	1149.20
386.92	1289.64
387.11	1289.64
387.31	1291.98
387.50	1275.59
387.70	1193.67
387.89	1296.66
388.09	1308.36
388.28	1294.32
388.48	1261.55
388.67	1366.87
388.86	1334.11
389.06	1322.40
389.25	1303.68
389.45	1409.00
389.64	1270.91
389.84	1317.72
390.03	1364.53
390.22	1348.15
390.42	1327.08
390.61	1394.96
390.81	1418.36
391.00	1401.98
391.19	1453.47
391.39	1420.71
391.58	1451.13
391.78	1441.77
391.97	1563.48
392.16	1453.47
392.36	1511.99
392.55	1563.48
392.75	1591.56
392.94	1586.88
393.13	1561.14
393.33	1502.62
393.52	1547.09
393.71	1549.43
393.91	1495.60
394.10	1582.20
394.29	1523.69
394.49	1607.95
394.68	1612.63
394.88	1596.25
395.07	1610.29
395.26	1694.55
395.46	1701.57
395.65	1668.80
395.84	1764.76
396.04	1696.89
396.23	1724.97
396.42	1849.02
396.62	1827.96
396.81	1799.87
397.00	1818.60
397.19	1760.08
397.39	1825.62
397.58	1881.79
397.77	1706.25
397.97	1858.39
398.16	1827.96
398.35	1879.45
398.55	1930.94
398.74	1823.28
398.93	2008.18
399.12	1959.03
399.32	1825.62
399.51	1870.09
399.70	1961.37
399.90	1930.94
400.09	2024.56
400.28	2080.74
400.47	2017.54
400.67	2040.95
400.86	2071.37
401.05	1968.39
401.24	2010.52
401.44	2036.27
401.63	2183.72
401.82	2157.97
402.01	2162.66
402.21	2270.32
402.40	2143.93
402.59	2246.91
402.78	2195.42
402.97	2230.53
403.17	2312.45
403.36	2235.21
403.55	2319.47
403.74	2324.15
403.93	2275.00
404.13	2373.30
404.32	2221.17
404.51	2392.03
404.70	2387.35
404.89	2354.58
405.09	2431.82
405.28	2511.39
405.47	2506.71
405.66	2495.01
405.85	2530.12
406.05	2502.03
406.24	2588.63
406.43	2541.82
406.62	2525.44
406.81	2682.25
407.00	2663.53
407.20	2534.80
407.39	2581.61
407.58	2668.21
407.77	2925.67
407.96	2693.96
408.15	2761.83
408.34	2649.49
408.54	2703.32
408.73	2808.64
408.92	2792.26
409.11	2946.73
409.30	2963.12
409.49	2874.18
409.68	2916.31
409.87	2825.03
410.07	2944.39
410.26	3021.63
410.45	2918.65
410.64	2935.03
410.83	3089.51
411.02	3122.27
411.21	3227.60
411.40	3122.27
411.59	3199.51
411.78	3103.55
411.98	3290.79
412.17	3389.10
412.36	3368.03
412.55	3480.38
412.74	3396.12
412.93	3325.90
413.12	3405.48
413.31	3466.33
413.50	3325.90
413.69	3438.25
413.88	3543.57
414.07	3574.00
414.26	3618.47
414.45	3723.79
414.64	3604.42
414.83	3798.69
415.02	3791.67
415.22	3733.15
415.41	3796.35
415.60	3871.25
415.79	3911.04
415.98	3925.08
416.17	3978.91
416.36	3948.48
416.55	3854.86
416.74	4196.58
416.93	4107.64
417.12	4117.00
417.31	4269.14
417.50	4063.17
417.69	4332.33
417.88	4234.03
418.07	4266.80
418.26	4245.73
418.45	4322.97
418.64	4482.13
418.83	4414.25
419.02	4425.95
419.21	4545.32
419.39	4339.35
419.58	4414.25
419.77	4503.19
419.96	4652.98
420.15	4685.75
420.34	4535.96
420.53	4484.47
420.72	4734.90
420.91	4578.09
421.10	4847.25
421.29	4816.82
421.48	4573.41
421.67	4739.58
421.86	4730.22
422.05	4751.29
422.24	4772.35
422.43	4770.01
422.61	4912.78
422.80	4964.28
422.99	5039.17
423.18	4966.62
423.37	4936.19
423.56	4891.72
423.75	4961.94
423.94	4786.40
424.13	4531.28
424.32	4812.14
424.50	4990.02
424.69	4980.66
424.88	5235.78
425.07	4973.64
425.26	4924.49
425.45	4894.06
425.64	4957.25
425.83	4898.74
426.01	5128.11
426.20	5071.94
426.39	5142.16
426.58	4957.25
426.77	5111.73
426.96	5022.79
427.15	5057.90
427.33	5128.11
427.52	5139.82
427.71	5179.61
427.90	5303.65
428.09	5210.03
428.28	5345.78
428.46	5275.57
428.65	5406.64
428.84	5591.54
429.03	5341.10
429.22	5336.42
429.40	5441.75
429.59	5537.71
429.78	5324.72
429.97	5188.97
430.16	5298.97
430.34	5600.90
430.53	5633.67
430.72	5701.54
430.91	5680.48
431.10	5652.39
431.28	5631.33
431.47	5701.54
431.66	5870.06
431.85	5715.59
432.03	5837.30
432.22	5923.90
432.41	5947.30
432.60	6036.24
432.79	5900.49
432.97	5926.24
433.16	6146.25
433.35	5853.68
433.54	5984.75
433.72	6174.33
433.91	6017.52
434.10	6143.91
434.28	6232.85
434.47	6153.27
434.66	6073.69
434.85	6232.85
435.03	6366.26
435.22	6176.67
435.41	6448.18
435.59	6504.35
435.78	6293.70
435.97	6619.04
436.16	6399.02
436.34	6401.37
436.53	6504.35
436.72	6562.86
436.90	6424.77
437.09	6715.00
437.28	6562.86
437.46	6668.19
437.65	6565.20
437.84	6761.81
438.02	6871.81
438.21	6712.66
438.40	6726.70
438.58	6764.15
438.77	6935.01
438.96	6995.86
439.14	7068.42
439.33	7150.34
439.52	7133.95
439.70	7136.29
439.89	7393.75
440.08	7265.02
440.26	7248.64
440.45	7368.01
440.63	7382.05
440.82	7545.89
441.01	7646.53
441.19	7714.41
441.38	7616.10
441.57	7592.70
441.75	7775.26
441.94	7999.95
442.12	7992.93
442.31	7892.29
442.50	8109.96
442.68	7885.26
442.87	7950.80
443.05	8156.77
443.24	8049.10
443.43	8177.83
443.61	8114.64
443.80	8348.69
443.98	8060.80
444.17	7894.63
444.35	8299.54
444.54	8472.74
444.73	8308.90
444.91	8133.36
445.10	8329.97
445.28	8285.50
445.47	8346.35
445.65	8414.23
445.84	8313.58
446.02	8554.66
446.21	8369.76
446.39	8561.68
446.58	8442.31
446.77	8601.47
446.95	8182.51
447.14	8528.91
447.32	8676.37
447.51	8367.42
447.69	8248.05
447.88	8390.82
448.06	8575.72
448.25	8573.38
448.43	8709.13
448.62	8575.72
448.80	8404.86
448.99	8741.90
449.17	8730.20
449.36	8351.03
449.54	8791.05
449.73	8814.46
449.91	8952.55
450.10	8671.68
450.28	9001.70
450.46	9142.13
450.65	8910.42
450.83	9135.11
451.02	8990.00
451.20	9210.01
451.39	9067.24
451.57	9259.16
451.76	9214.69
451.94	9186.60
452.13	9247.46
452.31	9266.18
452.49	9163.20
452.68	9170.22
452.86	9240.44
453.05	9455.76
453.23	9500.23
453.42	9329.38
453.60	9364.48
453.78	9593.86
453.97	9366.82
454.15	9530.66
454.34	9373.85
454.52	9600.88
454.70	9757.69
454.89	9799.82
455.07	9617.26
455.26	9488.53
455.44	9806.84
455.62	9898.13
455.81	9856.00
455.99	9998.77
456.17	10207.08
456.36	9963.66
456.54	10108.77
456.73	10260.91
456.91	10441.13
457.09	10492.62
457.28	10841.36
457.46	10434.11
457.64	10546.45
457.83	10452.83
458.01	10363.89
458.19	10677.52
458.38	10438.79
458.56	10583.90
458.74	10637.73
458.93	10509.01
459.11	10782.85
459.29	10576.88
459.48	10691.57
459.66	11012.22
459.84	10806.25
460.03	11087.12
460.21	10965.41
460.39	10946.69
460.57	11063.71
460.76	11073.07
460.94	11389.05
461.12	11016.90
461.31	11112.86
461.49	11213.51
461.67	11082.44
461.85	11414.79
462.04	11276.70
462.22	11833.75
462.40	11723.74
462.59	11391.39
462.77	11314.15
462.95	11431.18
463.13	11882.90
463.32	11770.55
463.50	11669.91
463.68	11925.03
463.86	11988.22
464.05	11538.84
464.23	11625.44
464.41	11929.71
464.59	11592.67
464.78	11941.41
464.96	11910.99
465.14	11667.57
465.32	12131.00
465.50	12086.53
465.69	12262.07
465.87	12175.47
466.05	12229.30
466.23	12140.36
466.41	12219.94
466.60	12411.86
466.78	12175.47
466.96	12219.94
467.14	12276.11
467.32	12278.45
467.51	12318.24
467.69	12297.17
467.87	12430.59
468.05	12512.50
468.23	12266.75
468.41	12580.38
468.60	12449.31
468.78	12816.77
468.96	12498.46
469.14	12833.16
469.32	12943.16
469.50	12594.42
469.69	12898.69
469.87	12905.71
470.05	13198.28
470.23	13116.36
470.41	13219.35
470.59	13149.13
470.77	12774.64
470.95	13312.97
471.14	13593.83
471.32	13135.09
471.50	13561.06
471.68	13586.81
471.86	13565.74
472.04	13371.48
472.22	13923.85
472.40	13898.10
472.58	13802.14
472.77	14146.20
472.95	13853.63
473.13	14485.58
473.31	14073.64
473.49	14207.05
473.67	14310.04
473.85	14356.85
474.03	14525.36
474.21	14324.08
474.39	14682.18
474.57	14796.87
474.75	14572.18
474.93	14993.47
475.12	14993.47
475.30	15089.43
475.48	15077.73
475.66	15131.56
475.84	14810.91
476.02	15197.10
476.20	15470.94
476.38	15655.84
476.56	15939.05
476.74	15672.23
476.92	15995.22
477.10	15768.19
477.28	15978.84
477.46	16320.56
477.64	16233.96
477.82	16549.93
478.00	16800.37
478.18	16720.79
478.36	16905.69
478.54	17235.70
478.72	17060.16
478.90	17453.37
479.08	17504.87
479.26	17797.43
479.44	17521.25
479.62	17830.20
479.80	17867.65
479.98	18104.04
480.16	18431.72
480.34	18207.03
480.52	18412.99
480.70	18403.63
480.88	18389.59
481.06	18853.02
481.24	18796.84
481.41	19012.17
481.59	19405.38
481.77	19466.24
481.95	19644.12
482.13	19700.29
482.31	19477.94
482.49	20149.67
482.67	20343.94
482.85	20594.37
483.03	20470.33
483.21	20727.78
483.39	20919.71
483.57	20882.26
483.74	20943.11
483.92	21104.61
484.10	20915.03
484.28	21785.71
484.46	21703.79
484.64	22604.89
484.82	21792.73
485.00	21881.67
485.18	22642.34
485.35	22665.75
485.53	23019.17
485.71	22902.14
485.89	23342.16
486.07	23297.69
486.25	23239.18
486.43	23417.06
486.61	23475.57
486.78	24070.07
486.96	23793.89
487.14	24308.80
487.32	24657.54
487.50	25149.06
487.68	24870.53
487.85	25099.90
488.03	25378.43
488.21	25638.23
488.39	25605.46
488.57	26265.49
488.75	26125.06
488.92	26300.60
489.10	26237.41
489.28	26665.72
489.46	26909.14
489.64	26494.86
489.81	27660.45
489.99	27391.29
490.17	27721.30
490.35	28112.17
490.53	28135.58
490.70	28456.23
490.88	28203.46
491.06	29083.50
491.24	28861.15
491.41	28776.89
491.59	29139.67
491.77	29326.91
491.95	29443.94
492.13	29493.09
492.30	29804.38
492.48	29968.22
492.66	30300.58
492.84	30237.38
493.01	30511.22
493.19	30459.73
493.37	30998.06
493.54	31211.04
493.72	31281.26
493.90	30944.22
494.08	31676.81
494.25	31828.95
494.43	31704.90
494.61	32252.58
494.79	32060.66
494.96	32105.13
495.14	32706.65
495.32	32964.10
495.49	32961.76
495.67	33003.89
495.85	33483.70
496.02	33675.63
496.20	34038.41
496.38	33764.57
496.55	33804.36
496.73	35023.78
496.91	34295.87
497.09	34450.35
497.26	34646.95
497.44	34705.46
497.62	35236.77
497.79	35721.26
497.97	35108.04
498.14	35756.36
498.32	36121.49
498.50	35807.86
498.67	36294.69
498.85	36252.56
499.03	36027.87
499.20	36210.43
499.38	36914.93
499.56	36865.78
499.73	37024.93
499.91	37137.28
500.08	37574.96
500.26	37017.91
500.44	37542.19
500.61	37984.55
500.79	37504.74
500.97	37785.61
501.14	38366.06
501.32	38249.03
501.49	38555.64
501.67	38483.09
501.84	39138.44
502.02	38539.26
502.20	38604.80
502.37	39210.99
502.55	39269.51
502.72	39290.57
502.90	39180.57
503.07	39646.33
503.25	39388.88
503.43	39672.08
503.60	39473.13
503.78	40060.61
503.95	40407.01
504.13	40601.27
504.30	40357.86
504.48	39924.86
504.65	40524.04
504.83	40952.35
505.01	41111.51
505.18	41233.22
505.36	41544.51
505.53	41127.89
505.71	41511.74
505.88	41563.23
506.06	41216.83
506.23	41872.18
506.41	41963.46
506.58	42274.76
506.76	42087.51
506.93	42256.03
507.11	42326.25
507.28	42497.11
507.46	42005.59
507.63	42878.61
507.81	43461.41
507.98	42763.93
508.16	42340.29
508.33	42815.42
508.50	43538.65
508.68	43803.13
508.85	43615.88
509.03	43428.64
509.20	44112.08
509.38	44114.42
509.55	44296.98
509.73	44512.31
509.90	44301.66
510.08	44402.30
510.25	44676.15
510.42	44435.07
510.60	44790.83
510.77	45350.22
510.95	45085.74
511.12	45078.72
511.30	44987.44
511.47	45141.91
511.64	45399.37
511.82	46239.62
511.99	45593.64
512.17	45633.42
512.34	45694.28
512.51	46087.49
512.69	46401.12
512.86	45902.59
513.04	46464.32
513.21	46574.32
513.38	46419.84
513.56	46820.08
513.73	46635.17
513.90	46887.95
514.08	46761.56
514.25	47119.66
514.43	47239.03
514.60	47327.97
514.77	47283.50
514.95	47695.44
515.12	47096.26
515.29	47395.85
515.47	48023.11
515.64	47667.35
515.81	47374.78
515.99	48271.21
516.16	48154.18
516.33	48018.43
516.51	48486.54
516.68	48409.30
516.85	48275.89
517.03	48807.19
517.20	48732.29
517.37	48605.91
517.54	48722.93
517.72	48898.47
517.89	48956.99
518.06	49165.29
518.24	49336.15
518.41	49031.88
518.58	49076.35
518.75	49034.22
518.93	49528.08
519.10	49514.03
519.27	49174.66
519.45	49595.95
519.62	49869.79
519.79	49841.71
519.96	49670.85
520.14	50176.40
520.31	50244.28
520.48	50387.05
520.65	50183.43
520.83	50457.27
521.00	50394.07
521.17	50181.09
521.34	50623.45
521.52	50817.71
521.69	50810.69
521.86	50492.38
522.03	51253.05
522.20	51402.85
522.38	51257.73
522.55	51168.79
522.72	51353.69
522.89	51349.01
523.07	51501.15
523.24	51423.91
523.41	51440.29
523.58	51444.98
523.75	51789.03
523.92	51557.32
524.10	51606.47
524.27	52212.67
524.44	52051.17
524.61	52100.32
524.78	52266.50
524.96	52266.50
525.13	51990.32
525.30	52254.80
525.47	52413.96
525.64	52343.74
525.81	52397.57
525.98	52491.19
526.16	52420.98
526.33	52217.35
526.50	52973.34
526.67	52662.05
526.84	52910.15
527.01	52982.71
527.18	52732.27
527.36	52790.78
527.53	52594.18
527.70	53406.34
527.87	53525.71
528.04	53045.90
528.21	53202.72
528.38	53441.45
528.55	53425.07
528.72	53242.51
528.89	53069.31
529.07	53396.98
529.24	53275.27
529.41	53446.13
529.58	53530.39
529.75	53553.80
529.92	53628.69
530.09	53516.35
530.26	53794.87
530.43	54068.72
530.60	53785.51
530.77	54005.52
530.94	54113.19
531.11	53918.92
531.28	53909.56
531.46	54122.55
531.63	54223.19
531.80	54045.31
531.97	54293.41
532.14	54478.31
532.31	54546.18
532.48	54370.64
532.65	54387.03
532.82	54504.06
532.99	54387.03
533.16	54202.13
533.33	54815.35
533.50	54820.03
533.67	54892.58
533.84	54630.44
534.01	54745.13
534.18	54649.17
534.35	55058.76
534.52	54913.65
534.69	55152.38
534.86	55161.75
535.03	54965.14
535.20	55243.66
535.37	55210.90
535.54	55283.45
535.71	55178.13
535.88	55480.06
536.05	55348.99
536.22	55470.70
536.38	55597.09
536.55	55458.99
536.72	55468.36
536.89	55316.22
537.06	55789.01
537.23	55498.78
537.40	55327.92
537.57	55674.32
537.74	55957.53
537.91	55737.52
538.08	55676.66
538.25	55786.67
538.42	55833.48
538.59	56119.02
538.75	55594.74
538.92	56039.45
539.09	55929.44
539.26	55760.92
539.43	56104.98
539.60	56177.54
539.77	56205.62
539.94	56402.23
540.11	56222.01
540.28	56310.95
540.44	56399.89
540.61	55983.27
540.78	56299.25
540.95	56313.29
541.12	56294.56
541.29	56224.35
541.46	56439.68
541.62	56280.52
541.79	56697.14
541.96	56090.94
542.13	56643.30
542.30	56369.46
542.47	56832.89
542.63	56556.70
542.80	56722.88
542.97	56828.21
543.14	57265.89
543.31	57223.76
543.48	57123.11
543.64	57303.34
543.81	57298.65
543.98	57125.46
544.15	57076.30
544.32	57396.96
544.48	57626.33
544.65	57319.72
544.82	57380.57
544.99	57413.34
545.16	57399.30
545.32	57340.78
545.49	57382.91
545.66	57598.24
545.83	57469.51
546.00	57631.01
546.16	57792.51
546.33	57378.23
546.50	57408.66
546.67	57488.24
546.83	57312.70
547.00	57645.05
547.17	57464.83
547.34	57783.15
547.50	57785.49
547.67	57965.71
547.84	57836.98
548.00	57855.70
548.17	58375.30
548.34	58099.12
548.51	57989.11
548.67	57855.70
548.84	58005.50
549.01	57996.13
549.18	58028.90
549.34	58143.59
549.51	58223.17
549.68	58169.33
549.84	58075.71
550.01	58216.14
550.18	58230.19
550.34	58255.93
550.51	58461.90
550.68	58424.45
550.84	58150.61
551.01	58630.42
551.18	58578.93
551.34	58410.41
551.51	58223.17
551.68	58471.26
551.84	58424.45
552.01	58251.25
552.18	58555.52
552.34	58040.60
552.51	58700.64
552.68	58426.79
552.84	58700.64
553.01	58588.29
553.18	58831.71
553.34	58960.44
553.51	58670.21
553.67	58775.53
553.84	58614.04
554.01	58812.98
554.17	58817.66
554.34	58878.52
554.51	59018.95
554.67	59128.95
554.84	58834.05
555.00	58857.45
555.17	58831.71
555.33	58894.90
555.50	58988.52
555.67	58915.96
555.83	58930.01
556.00	59152.36
556.16	59208.53
556.33	59222.58
556.50	59040.01
556.66	59253.00
556.83	58979.16
556.99	59224.92
557.16	59503.44
557.32	59281.09
557.49	59395.77
557.65	59269.39
557.82	59325.56
557.98	59306.83
558.15	59222.58
558.32	59477.69
558.48	59302.15
558.65	59358.33
558.81	59547.91
558.98	59386.41
559.14	59447.27
559.31	59526.84
559.47	59648.55
559.64	59664.94
559.80	59552.59
559.97	59578.34
560.13	59632.17
560.30	59398.12
560.46	59690.68
560.63	59580.68
560.79	59859.20
560.96	59725.79
561.12	59674.30
561.29	59763.24
561.45	59751.54
561.61	59634.51
561.78	59772.60
561.94	59842.82
562.11	59686.00
562.27	59732.81
562.44	59824.09
562.60	60025.38
562.77	59994.95
562.93	59686.00
563.10	60011.34
563.26	59985.59
563.42	60076.87
563.59	59868.56
563.75	59753.88
563.92	59821.75
564.08	60151.77
564.24	59990.27
564.41	60278.16
564.57	60149.43
564.74	60097.94
564.90	60067.51
565.07	60039.42
565.23	60149.43
565.39	60140.07
565.56	60126.02
565.72	60044.10
565.88	60004.31
566.05	60027.72
566.21	59994.95
566.38	60119.00
566.54	60217.30
566.70	60324.97
566.87	60271.14
567.03	60001.97
567.19	60224.32
567.36	60032.40
567.52	60144.75
567.68	60446.68
567.85	60065.17
568.01	60411.57
568.17	60355.39
568.34	60395.18
568.50	60083.89
568.66	60205.60
568.83	60395.18
568.99	60217.30
569.15	60292.20
569.32	60193.90
569.48	60240.71
569.64	60399.86
569.81	60413.91
569.97	60236.03
570.13	60385.82
570.30	60364.76
570.46	60502.85
570.62	60441.99
570.78	60390.50
570.95	60500.51
571.11	60591.79
571.27	60371.78
571.43	60381.14
571.60	60502.85
571.76	60467.74
571.92	60460.72
572.09	60580.09
572.25	60549.66
572.41	60390.50
572.57	60416.25
572.74	60795.42
572.90	60470.08
573.06	60678.39
573.22	60542.64
573.38	60638.60
573.55	60463.06
573.71	60802.44
573.87	60587.11
574.03	60484.12
574.20	60657.32
574.36	60500.51
574.52	60561.36
574.68	60694.77
574.84	60788.39
575.01	60729.88
575.17	60741.58
575.33	60605.83
575.49	60493.49
575.65	60690.09
575.82	60732.22
575.98	60687.75
576.14	60846.91
576.30	60748.60
576.46	60732.22
576.62	60762.65
576.79	60760.31
576.95	60486.46
577.11	60666.69
577.27	60640.94
577.43	60823.50
577.59	60650.30
577.75	60605.83
577.92	60685.41
578.08	60713.50
578.24	60629.24
578.40	60757.97
578.56	60807.12
578.72	60795.42
578.88	60877.33
579.04	60952.23
579.21	60945.21
579.37	61020.11
579.53	60985.00
579.69	60507.53
579.85	60722.86
580.01	60741.58
580.17	60552.00
580.33	60896.06
580.49	61095.00
580.65	60963.93
580.82	60598.81
580.98	60786.05
581.14	60928.83
581.30	60764.99
581.46	60739.24
581.62	60985.00
581.78	60671.37
581.94	60872.65
582.10	60582.43
582.26	60666.69
582.42	60914.78
582.58	60748.60
582.74	60912.44
582.90	60898.40
583.06	60851.59
583.22	60736.90
583.38	60732.22
583.54	60809.46
583.70	60912.44
583.86	61038.83
584.02	60884.36
584.18	60816.48
584.34	60725.20
584.50	60732.22
584.66	60867.97
584.82	60615.19
584.98	61221.39
585.14	61057.56
585.30	60767.33
585.46	60954.57
585.62	60910.10
585.78	60886.70
585.94	60622.22
586.10	60914.78
586.26	60893.72
586.42	60821.16
586.58	61123.09
586.74	61071.60
586.90	60980.32
587.06	60683.07
587.22	60994.36
587.38	61034.15
587.54	60977.98
587.70	61158.20
587.86	61048.19
588.02	60928.83
588.18	61254.16
588.34	60924.14
588.49	60947.55
