SpectraSuite Data File
++++++++++++++++++++++++++++++++++++
Date: Fri Oct 25 11:23:48 EDT 2013
User: price-jones
Dark Spectrum Present: No
Reference Spectrum Present: No
Number of Sampled Component Spectra: 1
Spectrometers: USB2+H05261
Integration Time (usec): 100000 (USB2+H05261)
Spectra Averaged: 1 (USB2+H05261)
Boxcar Smoothing: 0 (USB2+H05261)
Correct for Electrical Dark: No (USB2+H05261)
Strobe/Lamp Enabled: No (USB2+H05261)
Correct for Detector Non-linearity: No (USB2+H05261)
Correct for Stray Light: No (USB2+H05261)
Number of Pixels in Processed Spectrum: 2048
>>>>>Begin Processed Spectral Data<<<<<
365.73	198.95
365.92	198.95
366.12	198.95
366.32	161.50
366.52	147.45
366.72	187.24
366.91	86.60
367.11	91.28
367.31	114.69
367.51	147.45
367.70	93.62
367.90	117.03
368.10	110.01
368.30	159.16
368.49	53.83
368.69	154.48
368.89	184.90
369.09	84.26
369.28	102.98
369.48	168.52
369.68	159.16
369.87	255.12
370.07	220.01
370.27	208.31
370.47	292.57
370.66	622.58
370.86	622.58
371.06	699.82
371.25	732.59
371.45	690.46
371.65	692.80
371.84	655.35
372.04	657.69
372.24	662.37
372.44	692.80
372.63	702.16
372.83	725.57
373.03	674.07
373.22	739.61
373.42	748.97
373.62	765.36
373.81	854.30
374.01	870.68
374.21	821.53
374.40	788.76
374.60	826.21
374.79	816.85
374.99	807.48
375.19	770.04
375.38	814.51
375.58	812.17
375.78	868.34
375.97	842.59
376.17	844.93
376.37	840.25
376.56	809.83
376.76	896.43
376.95	929.19
377.15	901.11
377.35	870.68
377.54	786.42
377.74	882.38
377.93	830.89
378.13	919.83
378.33	954.94
378.52	877.70
378.72	943.24
378.91	983.02
379.11	983.02
379.31	1027.50
379.50	938.55
379.70	947.92
379.89	917.49
380.09	863.66
380.28	997.07
380.48	912.81
380.68	957.28
380.87	973.66
381.07	1043.88
381.26	1050.90
381.46	1015.79
381.65	1020.47
381.85	1071.97
382.04	971.32
382.24	1046.22
382.43	1064.94
382.63	1069.62
382.83	1123.46
383.02	1174.95
383.22	1036.86
383.41	1137.50
383.61	1043.88
383.80	1158.57
384.00	1034.52
384.19	1123.46
384.39	1062.60
384.58	1118.78
384.78	1259.21
384.97	1139.84
385.17	1200.69
385.36	1156.22
385.56	1125.80
385.75	1179.63
385.95	1231.12
386.14	1221.76
386.34	1254.53
386.53	1193.67
386.72	1130.48
386.92	1240.48
387.11	1261.55
387.31	1301.34
387.50	1179.63
387.70	1207.72
387.89	1221.76
388.09	1282.61
388.28	1125.80
388.48	1221.76
388.67	1263.89
388.86	1315.38
389.06	1306.02
389.25	1336.45
389.45	1357.51
389.64	1320.06
389.84	1397.30
390.03	1423.05
390.22	1411.34
390.42	1350.49
390.61	1427.73
390.81	1350.49
391.00	1383.26
391.19	1425.39
391.39	1432.41
391.58	1448.79
391.78	1460.49
391.97	1479.22
392.16	1495.60
392.36	1519.01
392.55	1558.80
392.75	1570.50
392.94	1610.29
393.13	1425.39
393.33	1446.45
393.52	1490.92
393.71	1549.43
393.91	1650.08
394.10	1596.25
394.29	1526.03
394.49	1558.80
394.68	1732.00
394.88	1692.21
395.07	1671.14
395.26	1685.19
395.46	1619.65
395.65	1701.57
395.84	1708.59
396.04	1806.89
396.23	1846.68
396.42	1799.87
396.62	1863.07
396.81	1769.44
397.00	1706.25
397.19	1724.97
397.39	1757.74
397.58	1827.96
397.77	1884.13
397.97	1902.86
398.16	1802.21
398.35	1874.77
398.55	1870.09
398.74	1884.13
398.93	1888.81
399.12	1926.26
399.32	1959.03
399.51	1914.56
399.70	1916.90
399.90	2050.31
400.09	2076.06
400.28	2150.95
400.47	1942.64
400.67	2090.10
400.86	2066.69
401.05	2094.78
401.24	2115.84
401.44	2136.91
401.63	2127.55
401.82	2153.29
402.01	2125.21
402.21	2260.96
402.40	2270.32
402.59	2190.74
402.78	2282.02
402.97	2172.02
403.17	2172.02
403.36	2195.42
403.55	2225.85
403.74	2331.17
403.93	2406.07
404.13	2326.49
404.32	2342.88
404.51	2331.17
404.70	2462.24
404.89	2438.84
405.09	2544.16
405.28	2527.78
405.47	2483.31
405.66	2569.91
405.85	2469.27
406.05	2478.63
406.24	2602.68
406.43	2640.12
406.62	2616.72
406.81	2759.49
407.00	2565.23
407.20	2548.84
407.39	2605.02
407.58	2647.15
407.77	2633.10
407.96	2703.32
408.15	2803.96
408.34	2675.23
408.54	2883.54
408.73	2801.62
408.92	2801.62
409.11	2839.07
409.30	2876.52
409.49	2972.48
409.68	2923.33
409.87	3000.57
410.07	3035.67
410.26	3023.97
410.45	2935.03
410.64	2993.55
410.83	3084.83
411.02	3178.45
411.21	3222.92
411.40	3133.98
411.59	3236.96
411.78	3045.04
411.98	3204.19
412.17	3337.60
412.36	3225.26
412.55	3386.76
412.74	3426.54
412.93	3403.14
413.12	3351.65
413.31	3592.72
413.50	3562.30
413.69	3496.76
413.88	3609.11
414.07	3599.74
414.26	3590.38
414.45	3784.65
414.64	3630.17
414.83	3737.84
415.02	3770.60
415.22	3819.75
415.41	3791.67
415.60	3822.09
415.79	4021.04
415.98	3911.04
416.17	3990.61
416.36	4091.26
416.55	4011.68
416.74	4222.33
416.93	4140.41
417.12	4149.77
417.31	4271.48
417.50	4196.58
417.69	4369.78
417.88	4435.32
418.07	4290.20
418.26	4259.78
418.45	4348.72
418.64	4470.42
418.83	4404.89
419.02	4421.27
419.21	4507.87
419.39	4514.89
419.58	4533.62
419.77	4423.61
419.96	4496.17
420.15	4695.11
420.34	4498.51
420.53	4657.67
420.72	4814.48
420.91	4702.14
421.10	4856.61
421.29	4840.23
421.48	4664.69
421.67	4741.93
421.86	4851.93
422.05	4760.65
422.24	4772.35
422.43	4912.78
422.61	4889.38
422.80	4957.25
422.99	4978.32
423.18	4936.19
423.37	5020.45
423.56	4978.32
423.75	4954.91
423.94	4774.69
424.13	4519.57
424.32	4814.48
424.50	4966.62
424.69	5179.61
424.88	5104.71
425.07	4971.30
425.26	4898.74
425.45	5029.81
425.64	4987.68
425.83	4954.91
426.01	5102.37
426.20	4936.19
426.39	5090.67
426.58	5071.94
426.77	5109.39
426.96	5146.84
427.15	5146.84
427.33	5268.55
427.52	5247.48
427.71	5327.06
427.90	5273.23
428.09	5317.70
428.28	5371.53
428.46	5392.59
428.65	5268.55
428.84	5535.37
429.03	5544.73
429.22	5336.42
429.40	5530.69
429.59	5535.37
429.78	5376.21
429.97	5401.96
430.16	5444.09
430.34	5558.77
430.53	5654.73
430.72	5715.59
430.91	5755.38
431.10	5607.92
431.28	5708.57
431.47	5933.26
431.66	5839.64
431.85	5813.89
432.03	5991.77
432.22	6005.81
432.41	5863.04
432.60	6045.60
432.79	5942.62
432.97	6019.86
433.16	6024.54
433.35	6190.72
433.54	6186.04
433.72	6031.56
433.91	6057.31
434.10	6328.81
434.28	6099.44
434.47	6375.62
434.66	6338.17
434.85	6150.93
435.03	6445.84
435.22	6352.21
435.41	6389.66
435.59	6506.69
435.78	6389.66
435.97	6443.49
436.16	6541.80
436.34	6445.84
436.53	6544.14
436.72	6691.59
436.90	6637.76
437.09	6693.93
437.28	6541.80
437.46	6586.27
437.65	6691.59
437.84	6658.82
438.02	6925.65
438.21	6703.29
438.40	6806.28
438.58	7028.63
438.77	6939.69
438.96	6984.16
439.14	7119.91
439.33	7183.10
439.52	7253.32
439.70	7297.79
439.89	7330.56
440.08	7344.60
440.26	7449.93
440.45	7489.71
440.63	7555.25
440.82	7557.59
441.01	7515.46
441.19	7676.96
441.38	7674.62
441.57	7854.84
441.75	7709.72
441.94	8032.72
442.12	7948.46
442.31	7999.95
442.50	8124.00
442.68	8154.43
442.87	8145.06
443.05	8276.13
443.24	8259.75
443.43	8135.70
443.61	8093.57
443.80	8442.31
443.98	8252.73
444.17	7777.60
444.35	8318.26
444.54	8341.67
444.73	8238.69
444.91	8325.29
445.10	8383.80
445.28	8400.18
445.47	8182.51
445.65	8294.86
445.84	8580.40
446.02	8526.57
446.21	8549.98
446.39	8369.76
446.58	8430.61
446.77	8393.16
446.95	8313.58
447.14	8542.96
447.32	8823.82
447.51	8620.19
447.69	8582.74
447.88	8685.73
448.06	8432.95
448.25	8505.51
448.43	8568.70
448.62	8643.60
448.80	8760.63
448.99	8713.81
449.17	8739.56
449.36	8774.67
449.54	8741.90
449.73	8910.42
449.91	9245.12
450.10	9125.75
450.28	9053.19
450.46	9116.39
450.65	9078.94
450.83	9048.51
451.02	9170.22
451.20	9327.03
451.39	9341.08
451.57	9151.49
451.76	9132.77
451.94	9013.40
452.13	9582.15
452.31	9434.70
452.49	8870.63
452.68	9397.25
452.86	9231.07
453.05	9387.89
453.23	9465.13
453.42	9472.15
453.60	9509.60
453.78	9577.47
453.97	9348.10
454.15	9554.07
454.34	9544.70
454.52	9872.38
454.70	9544.70
454.89	9827.91
455.07	9874.72
455.26	9856.00
455.44	9944.94
455.62	10090.05
455.81	10040.90
455.99	10015.15
456.17	10153.24
456.36	10195.37
456.54	10188.35
456.73	10298.36
456.91	10476.24
457.09	10368.57
457.28	10427.09
457.46	10443.47
457.64	10682.20
457.83	10611.99
458.01	10450.49
458.19	10700.93
458.38	10693.91
458.56	10759.44
458.74	10792.21
458.93	10733.70
459.11	10633.05
459.29	10862.43
459.48	10960.73
459.66	10909.24
459.84	11257.98
460.03	11073.07
460.21	11126.91
460.39	11218.19
460.57	10932.64
460.76	10949.03
460.94	11140.95
461.12	11232.23
461.31	11047.33
461.49	11183.08
461.67	11487.35
461.85	11559.91
462.04	11234.57
462.22	11541.18
462.40	11403.09
462.59	11721.40
462.77	11520.12
462.95	11730.76
463.13	11737.79
463.32	11798.64
463.50	11749.49
463.68	11946.09
463.86	12032.69
464.05	11686.29
464.23	11826.73
464.41	12018.65
464.59	11585.65
464.78	12175.47
464.96	12114.61
465.14	11845.45
465.32	11896.94
465.50	12191.85
465.69	12486.76
465.87	12126.32
466.05	12159.08
466.23	12219.94
466.41	12233.98
466.60	12599.10
466.78	12374.41
466.96	12341.64
467.14	12355.69
467.32	12456.33
467.51	12578.04
467.69	12065.46
467.87	12681.02
468.05	12772.30
468.23	12519.53
468.41	12545.27
468.60	12837.84
468.78	13043.81
468.96	12685.70
469.14	12936.14
469.32	12996.99
469.50	12716.13
469.69	12779.32
469.87	13245.09
470.05	13160.83
470.23	13111.68
470.41	13172.54
470.59	13479.15
470.77	13144.45
470.95	13474.46
471.14	13664.05
471.32	13310.63
471.50	13839.59
471.68	13755.33
471.86	13823.20
472.04	14073.64
472.22	14249.18
472.40	13647.66
472.58	13870.01
472.77	14064.28
472.95	14342.80
473.13	14862.40
473.31	14101.73
473.49	14534.73
473.67	14181.31
473.85	14403.66
474.03	14803.89
474.21	14733.67
474.39	14759.42
474.57	14644.73
474.75	14883.47
474.93	15115.18
475.12	15229.87
475.30	15316.47
475.48	15054.33
475.66	15236.89
475.84	15225.18
476.02	15620.74
476.20	15391.36
476.38	15716.70
476.56	16219.91
476.74	16013.95
476.92	16065.44
477.10	16081.82
477.28	16308.85
477.46	16166.08
477.64	16341.62
477.82	16540.57
478.00	16882.28
478.18	17034.42
478.36	17022.72
478.54	17408.90
478.72	17216.98
478.90	17664.02
479.08	17664.02
479.26	17750.62
479.44	17860.63
479.62	17963.61
479.80	18176.60
479.98	17975.31
480.16	18628.32
480.34	18274.90
480.52	18953.66
480.70	18630.66
480.88	18408.31
481.06	18597.90
481.24	19168.99
481.41	19562.20
481.59	19445.17
481.77	19470.92
481.95	19634.75
482.13	19854.76
482.31	19639.44
482.49	20144.99
482.67	20257.34
482.85	20711.40
483.03	20755.87
483.21	20830.77
483.39	20685.65
483.57	21071.84
483.74	21135.04
483.92	21572.72
484.10	21429.94
484.28	21626.55
484.46	22293.60
484.64	22396.59
484.82	22354.46
485.00	22427.01
485.18	23080.02
485.35	23302.37
485.53	23211.09
485.71	23117.47
485.89	23910.91
486.07	23489.62
486.25	23414.72
486.43	23824.31
486.61	24350.93
486.78	24245.61
486.96	24166.03
487.14	24662.22
487.32	25078.84
487.50	25050.75
487.68	25200.55
487.85	25238.00
488.03	25486.09
488.21	26312.30
488.39	25855.90
488.57	26333.37
488.75	26265.49
488.92	26518.27
489.10	26586.15
489.28	26955.95
489.46	27426.40
489.64	27161.92
489.81	27669.81
489.99	27976.42
490.17	28067.70
490.35	28357.93
490.53	28294.74
490.70	28451.55
490.88	28322.82
491.06	29200.52
491.24	28833.06
491.41	29202.86
491.59	29481.39
491.77	29317.55
491.95	29446.28
492.13	29923.75
492.30	30244.40
492.48	30487.82
492.66	30567.40
492.84	30628.25
493.01	30686.76
493.19	30824.86
493.37	31339.77
493.54	31058.91
493.72	32006.83
493.90	31908.52
494.08	32107.47
494.25	32346.20
494.43	31955.33
494.61	32341.52
494.79	32720.69
494.96	33149.01
495.14	33039.00
495.32	33289.44
495.49	33729.46
495.67	33713.08
495.85	33546.90
496.02	33921.38
496.20	34286.51
496.38	34345.02
496.55	34202.25
496.73	34899.73
496.91	34899.73
497.09	35255.49
497.26	35021.44
497.44	34822.49
497.62	35538.69
497.79	36081.70
497.97	35297.62
498.14	36371.92
498.32	35962.33
498.50	36533.42
498.67	36687.90
498.85	36442.14
499.03	36996.85
499.20	37156.00
499.38	37200.47
499.56	37212.18
499.73	37628.79
499.91	37567.94
500.08	37476.66
500.26	37352.61
500.44	37607.73
500.61	38412.87
500.79	38033.71
500.97	38249.03
501.14	38630.54
501.32	38763.95
501.49	38735.87
501.67	39009.71
501.84	39215.68
502.02	39400.58
502.20	39262.49
502.37	39882.73
502.55	39618.25
502.72	39557.39
502.90	39864.00
503.07	39679.10
503.25	39981.03
503.43	39707.19
503.60	40465.52
503.78	40217.43
503.95	40435.10
504.13	40390.62
504.30	41230.88
504.48	40137.85
504.65	41237.90
504.83	41539.83
505.01	41546.85
505.18	41483.66
505.36	42007.94
505.53	41574.94
505.71	42089.85
505.88	42108.58
506.06	41287.05
506.23	41954.10
506.41	42218.58
506.58	42309.86
506.76	42609.45
506.93	42625.84
507.11	42684.35
507.28	42564.98
507.46	42731.16
507.63	43194.59
507.81	43707.16
507.98	43077.56
508.16	43323.32
508.33	43634.61
508.50	43590.14
508.68	43842.92
508.85	44083.99
509.03	43990.37
509.20	44170.59
509.38	44495.92
509.55	44844.66
509.73	45219.15
509.90	45090.42
510.08	44706.57
510.25	45008.50
510.42	45034.25
510.60	45022.54
510.77	45570.23
510.95	45464.91
511.12	45373.63
511.30	45441.50
511.47	45954.08
511.64	45483.63
511.82	46167.07
511.99	45659.17
512.17	45921.31
512.34	46082.81
512.51	46543.89
512.69	46398.78
512.86	46710.07
513.04	46681.98
513.21	47037.75
513.38	47136.05
513.56	47255.42
513.73	46796.67
513.90	47044.77
514.08	47208.61
514.25	47618.20
514.43	47906.08
514.60	47742.25
514.77	47426.28
514.95	47952.90
515.12	47573.73
515.29	47489.47
515.47	48224.40
515.64	48687.82
515.81	48311.00
515.99	48491.22
516.16	48854.00
516.33	48846.98
516.51	49031.88
516.68	48765.06
516.85	48797.83
517.03	48954.64
517.20	49088.06
517.37	49275.30
517.54	48893.79
517.72	49427.43
517.89	49031.88
518.06	49399.35
518.24	49287.00
518.41	49563.18
518.58	49680.21
518.75	49577.23
518.93	49759.79
519.10	49717.66
519.27	50309.82
519.45	50167.04
519.62	50248.96
519.79	50106.19
519.96	50150.66
520.14	50457.27
520.31	50454.93
520.48	50906.65
520.65	50363.65
520.83	50646.85
521.00	50965.17
521.17	50784.94
521.34	51107.94
521.52	50845.80
521.69	51035.38
521.86	51344.33
522.03	51334.97
522.20	51639.24
522.38	51590.09
522.55	51536.26
522.72	51435.61
522.89	51700.09
523.07	51517.53
523.24	51943.51
523.41	51934.15
523.58	51613.49
523.75	52149.48
523.92	52123.73
524.10	52430.34
524.27	52182.24
524.44	52123.73
524.61	52453.75
524.78	52107.35
524.96	52247.78
525.13	52580.13
525.30	52615.24
525.47	52694.82
525.64	52545.03
525.81	52877.38
525.98	52931.22
526.16	52776.74
526.33	53097.39
526.50	53207.40
526.67	52987.39
526.84	53277.61
527.01	53097.39
527.18	52933.56
527.36	52973.34
527.53	53350.17
527.70	53670.82
527.87	53495.28
528.04	53389.96
528.21	53549.12
528.38	53436.77
528.55	53649.76
528.72	53492.94
528.89	53621.67
529.07	53425.07
529.24	53855.73
529.41	53860.41
529.58	53738.70
529.75	53771.47
529.92	53996.16
530.09	54045.31
530.26	54089.78
530.43	54312.13
530.60	53918.92
530.77	53804.24
530.94	53911.90
531.11	54361.28
531.28	54288.73
531.46	54120.21
531.63	54300.43
531.80	54569.59
531.97	54719.38
532.14	54663.21
532.31	54152.97
532.48	54763.85
532.65	54695.98
532.82	54656.19
532.99	55117.28
533.16	54728.75
533.33	54941.74
533.50	55079.83
533.67	55288.13
533.84	54862.16
534.01	55100.89
534.18	55018.97
534.35	55501.12
534.52	55494.10
534.69	55370.05
534.86	55451.97
535.03	55281.11
535.20	55470.70
535.37	55290.48
535.54	55538.57
535.71	55433.25
535.88	55517.51
536.05	55557.30
536.22	55784.33
536.38	55667.30
536.55	55854.54
536.72	55852.20
536.89	55505.80
537.06	55786.67
537.23	55999.66
537.40	55810.07
537.57	55650.92
537.74	55969.23
537.91	56095.62
538.08	55983.27
538.25	55852.20
538.42	56205.62
538.59	56271.16
538.75	56250.09
538.92	56023.06
539.09	56406.91
539.26	56360.10
539.43	56222.01
539.60	56528.62
539.77	56170.52
539.94	56470.11
540.11	56505.21
540.28	56633.94
540.44	56643.30
540.61	56512.23
540.78	56444.36
540.95	56563.73
541.12	56577.77
541.29	56704.16
541.46	56793.10
541.62	56823.53
541.79	56701.82
541.96	56451.38
542.13	56605.86
542.30	56832.89
542.47	57013.11
542.63	57132.48
542.80	56889.06
542.97	56985.02
543.14	57029.49
543.31	57277.59
543.48	57403.98
543.64	57733.99
543.81	57378.23
543.98	57586.54
544.15	57396.96
544.32	57792.51
544.48	57729.31
544.65	57275.25
544.82	57371.21
544.99	57453.13
545.16	57602.92
545.32	57542.07
545.49	57694.21
545.66	57710.59
545.83	57897.83
546.00	57925.92
546.16	57787.83
546.33	57722.29
546.50	57759.74
546.67	57958.69
546.83	57572.50
547.00	58019.54
547.17	57869.75
547.34	58183.38
547.50	58087.42
547.67	58274.66
547.84	58096.78
548.00	58255.93
548.17	58431.47
548.34	58265.30
548.51	58504.03
548.67	58375.30
548.84	58384.66
549.01	58333.17
549.18	58129.54
549.34	58452.54
549.51	58632.76
549.68	58412.75
549.84	58433.81
550.01	58525.10
550.18	58286.36
550.34	58532.12
550.51	58803.62
550.68	58710.00
550.84	58361.26
551.01	58679.57
551.18	58930.01
551.34	58787.24
551.51	58801.28
551.68	58642.12
551.84	58803.62
552.01	58401.05
552.18	58913.62
552.34	58677.23
552.51	59215.55
552.68	58777.87
552.84	58951.07
553.01	59311.52
553.18	58986.18
553.34	58894.90
553.51	58937.03
553.67	59040.01
553.84	59229.60
554.01	59171.08
554.17	59187.47
554.34	59009.59
554.51	59150.02
554.67	59121.93
554.84	59285.77
555.00	58983.84
555.17	59157.04
555.33	59037.67
555.50	59201.51
555.67	59126.61
555.83	59416.84
556.00	59196.83
556.16	59615.79
556.33	59203.85
556.50	59559.61
556.66	59395.77
556.83	59297.47
556.99	59491.74
557.16	59587.70
557.32	59693.02
557.49	59774.94
557.65	59615.79
557.82	59526.84
557.98	59622.81
558.15	59407.48
558.32	59681.32
558.48	59561.95
558.65	59592.38
558.81	59690.68
558.98	59725.79
559.14	59884.95
559.31	59721.11
559.47	60009.00
559.64	59798.35
559.80	59845.16
559.97	59990.27
560.13	59840.48
560.30	59941.12
560.46	59859.20
560.63	59952.82
560.79	59887.29
560.96	59913.03
561.12	59945.80
561.29	59959.84
561.45	60018.36
561.61	59814.73
561.78	59868.56
561.94	59999.63
562.11	59973.89
562.27	59849.84
562.44	60069.85
562.60	60273.48
562.77	60140.07
562.93	59992.61
563.10	60102.62
563.26	60214.96
563.42	60250.07
563.59	60032.40
563.75	60341.35
563.92	60191.56
564.08	60221.98
564.24	60310.92
564.41	60294.54
564.57	60212.62
564.74	60273.48
564.90	60252.41
565.07	60287.52
565.23	60280.50
565.39	60126.02
565.56	60481.78
565.72	60259.43
565.88	60561.36
566.05	60327.31
566.21	60315.61
566.38	60310.92
566.54	60418.59
566.70	60458.38
566.87	60570.72
567.03	60350.71
567.19	60498.17
567.36	60760.31
567.52	60561.36
567.68	60547.32
567.85	60446.68
568.01	60505.19
568.17	60437.31
568.34	60463.06
568.50	60451.36
568.66	60353.05
568.83	60680.73
568.99	60575.40
569.15	60526.25
569.32	60573.06
569.48	60470.08
569.64	60631.58
569.81	60610.51
569.97	60624.56
570.13	60608.17
570.30	60306.24
570.46	60392.84
570.62	60556.68
570.78	60617.53
570.95	60481.78
571.11	60584.77
571.27	60547.32
571.43	60669.03
571.60	60849.25
571.76	60547.32
571.92	60760.31
572.09	60470.08
572.25	60580.09
572.41	60856.27
572.57	60882.02
572.74	60821.16
572.90	60851.59
573.06	60748.60
573.22	60706.47
573.38	61029.47
573.55	60919.46
573.71	60942.87
573.87	60844.57
574.03	60622.22
574.20	60994.36
574.36	60818.82
574.52	60872.65
574.68	60907.76
574.84	60947.55
575.01	60889.04
575.17	60816.48
575.33	60764.99
575.49	60760.31
575.65	61013.08
575.82	60933.51
575.98	61043.51
576.14	61174.58
576.30	61083.30
576.46	60837.54
576.62	60793.07
576.79	60910.10
576.95	60769.67
577.11	61106.71
577.27	61013.08
577.43	60884.36
577.59	60781.37
577.75	61078.62
577.92	60678.39
578.08	60837.54
578.24	61022.45
578.40	60961.59
578.56	60889.04
578.72	60874.99
578.88	61223.73
579.04	61141.81
579.21	61059.90
579.37	61237.78
579.53	61123.09
579.69	60786.05
579.85	60992.02
580.01	61029.47
580.17	61006.06
580.33	60959.25
580.49	60802.44
580.65	61153.52
580.82	61057.56
580.98	60910.10
581.14	61050.53
581.30	61062.24
581.46	61043.51
581.62	61118.41
581.78	61043.51
581.94	61169.90
582.10	61193.31
582.26	60851.59
582.42	60910.10
582.58	61104.37
582.74	60947.55
582.90	61109.05
583.06	60975.64
583.22	60790.73
583.38	60996.70
583.54	61095.00
583.70	61137.13
583.86	61169.90
584.02	60996.70
584.18	61193.31
584.34	61202.67
584.50	61013.08
584.66	61109.05
584.82	61001.38
584.98	61265.86
585.14	61059.90
585.30	60987.34
585.46	61090.32
585.62	61167.56
585.78	61329.06
585.94	61062.24
586.10	61202.67
586.26	61277.57
586.42	61322.04
586.58	61380.55
586.74	61378.21
586.90	61261.18
587.06	61174.58
587.22	61333.74
587.38	61221.39
587.54	61095.00
587.70	61406.30
587.86	61293.95
588.02	61235.44
588.18	61286.93
588.34	61272.88
588.49	61095.00
