SpectraSuite Data File
++++++++++++++++++++++++++++++++++++
Date: Fri Oct 25 11:22:53 EDT 2013
User: price-jones
Dark Spectrum Present: No
Reference Spectrum Present: No
Number of Sampled Component Spectra: 1
Spectrometers: USB2+H05261
Integration Time (usec): 100000 (USB2+H05261)
Spectra Averaged: 1 (USB2+H05261)
Boxcar Smoothing: 0 (USB2+H05261)
Correct for Electrical Dark: No (USB2+H05261)
Strobe/Lamp Enabled: No (USB2+H05261)
Correct for Detector Non-linearity: No (USB2+H05261)
Correct for Stray Light: No (USB2+H05261)
Number of Pixels in Processed Spectrum: 2048
>>>>>Begin Processed Spectral Data<<<<<
365.73	212.99
365.92	212.99
366.12	212.99
366.32	168.52
366.52	131.07
366.72	170.86
366.91	128.73
367.11	86.60
367.31	133.41
367.51	189.58
367.70	131.07
367.90	133.41
368.10	93.62
368.30	156.82
368.49	140.43
368.69	152.13
368.89	138.09
369.09	128.73
369.28	184.90
369.48	187.24
369.68	140.43
369.87	166.18
370.07	168.52
370.27	220.01
370.47	332.36
370.66	631.94
370.86	587.47
371.06	627.26
371.25	655.35
371.45	697.48
371.65	720.88
371.84	662.37
372.04	716.20
372.24	685.78
372.44	746.63
372.63	772.38
372.83	805.14
373.03	814.51
373.22	788.76
373.42	732.59
373.62	795.78
373.81	807.48
374.01	781.74
374.21	791.10
374.40	819.19
374.60	833.23
374.79	744.29
374.99	814.51
375.19	863.66
375.38	844.93
375.58	821.53
375.78	870.68
375.97	917.49
376.17	945.58
376.37	894.08
376.56	858.98
376.76	868.34
376.95	849.61
377.15	966.64
377.35	968.98
377.54	868.34
377.74	854.30
377.93	901.11
378.13	894.08
378.33	976.00
378.52	994.73
378.72	990.05
378.91	1029.84
379.11	926.85
379.31	954.94
379.50	961.96
379.70	1020.47
379.89	950.26
380.09	933.87
380.28	999.41
380.48	938.55
380.68	1020.47
380.87	1011.11
381.07	957.28
381.26	1032.18
381.46	1046.22
381.65	1130.48
381.85	1097.71
382.04	1015.79
382.24	1034.52
382.43	1097.71
382.63	980.68
382.83	1093.03
383.02	1013.45
383.22	1102.39
383.41	1043.88
383.61	1064.94
383.80	1130.48
384.00	1048.56
384.19	1118.78
384.39	1118.78
384.58	1116.44
384.78	1069.62
384.97	1174.95
385.17	1116.44
385.36	1125.80
385.56	1184.31
385.75	1231.12
385.95	1144.52
386.14	1235.80
386.34	1191.33
386.53	1231.12
386.72	1219.42
386.92	1226.44
387.11	1170.27
387.31	1219.42
387.50	1207.72
387.70	1256.87
387.89	1254.53
388.09	1247.51
388.28	1221.76
388.48	1275.59
388.67	1406.66
388.86	1284.95
389.06	1242.82
389.25	1380.92
389.45	1287.29
389.64	1355.17
389.84	1296.66
390.03	1322.40
390.22	1364.53
390.42	1416.02
390.61	1441.77
390.81	1376.24
391.00	1406.66
391.19	1364.53
391.39	1490.92
391.58	1451.13
391.78	1401.98
391.97	1486.24
392.16	1458.15
392.36	1493.26
392.55	1441.77
392.75	1458.15
392.94	1530.71
393.13	1537.73
393.33	1474.54
393.52	1612.63
393.71	1631.35
393.91	1591.56
394.10	1589.22
394.29	1577.52
394.49	1603.27
394.68	1668.80
394.88	1624.33
395.07	1694.55
395.26	1675.82
395.46	1685.19
395.65	1741.36
395.84	1713.27
396.04	1760.08
396.23	1710.93
396.42	1729.66
396.62	1753.06
396.81	1806.89
397.00	1795.19
397.19	1694.55
397.39	1799.87
397.58	1734.34
397.77	1858.39
397.97	1858.39
398.16	1834.98
398.35	1853.70
398.55	1860.73
398.74	1975.41
398.93	2031.58
399.12	1975.41
399.32	1966.05
399.51	1940.30
399.70	2026.90
399.90	1895.83
400.09	2033.93
400.28	2059.67
400.47	2038.61
400.67	1975.41
400.86	2047.97
401.05	2064.35
401.24	2125.21
401.44	2125.21
401.63	2155.63
401.82	2195.42
402.01	2183.72
402.21	2113.50
402.40	2183.72
402.59	2160.31
402.78	2275.00
402.97	2246.91
403.17	2403.73
403.36	2314.79
403.55	2246.91
403.74	2314.79
403.93	2338.20
404.13	2359.26
404.32	2410.75
404.51	2420.11
404.70	2438.84
404.89	2450.54
405.09	2490.33
405.28	2434.16
405.47	2473.95
405.66	2455.22
405.85	2532.46
406.05	2541.82
406.24	2499.69
406.43	2574.59
406.62	2743.11
406.81	2710.34
407.00	2656.51
407.20	2605.02
407.39	2612.04
407.58	2780.56
407.77	2754.81
407.96	2813.32
408.15	2827.37
408.34	2841.41
408.54	2757.15
408.73	2848.43
408.92	2773.53
409.11	2918.65
409.30	2874.18
409.49	2981.84
409.68	2956.10
409.87	2977.16
410.07	2970.14
410.26	3087.17
410.45	3073.12
410.64	3115.25
410.83	3180.79
411.02	3126.96
411.21	2988.86
411.40	3236.96
411.59	3152.70
411.78	3218.24
411.98	3197.17
412.17	3269.73
412.36	3316.54
412.55	3431.23
412.74	3417.18
412.93	3375.05
413.12	3400.80
413.31	3597.40
413.50	3478.04
413.69	3559.95
413.88	3693.37
414.07	3646.55
414.26	3595.06
414.45	3721.45
414.64	3662.94
414.83	3761.24
415.02	3803.37
415.22	3857.20
415.41	3857.20
415.60	3915.72
415.79	3969.55
415.98	3887.63
416.17	4049.13
416.36	4067.85
416.55	4084.23
416.74	4107.64
416.93	4060.83
417.12	4147.43
417.31	4219.99
417.50	4135.73
417.69	4252.75
417.88	4463.40
418.07	4208.28
418.26	4194.24
418.45	4367.44
418.64	4557.02
418.83	4545.32
419.02	4435.32
419.21	4631.92
419.39	4550.00
419.58	4512.55
419.77	4475.10
419.96	4678.73
420.15	4638.94
420.34	4842.57
420.53	4774.69
420.72	4842.57
420.91	4772.35
421.10	4865.97
421.29	4826.18
421.48	4711.50
421.67	4713.84
421.86	4812.14
422.05	4936.19
422.24	4840.23
422.43	4840.23
422.61	4933.85
422.80	5139.82
422.99	4985.34
423.18	5053.22
423.37	5121.09
423.56	5006.41
423.75	4968.96
423.94	4856.61
424.13	4641.28
424.32	4891.72
424.50	5074.28
424.69	5284.93
424.88	5198.33
425.07	4997.04
425.26	4968.96
425.45	4889.38
425.64	5165.56
425.83	5039.17
426.01	5170.24
426.20	5053.22
426.39	5172.58
426.58	5057.90
426.77	5100.03
426.96	5048.54
427.15	5177.26
427.33	5107.05
427.52	5181.95
427.71	5268.55
427.90	5219.39
428.09	5430.04
428.28	5455.79
428.46	5427.70
428.65	5373.87
428.84	5518.98
429.03	5708.57
429.22	5383.23
429.40	5680.48
429.59	5406.64
429.78	5383.23
429.97	5252.16
430.16	5416.00
430.34	5542.39
430.53	5743.67
430.72	5687.50
430.91	5621.97
431.10	5877.09
431.28	5849.00
431.47	5949.64
431.66	5930.92
431.85	5832.62
432.03	5989.43
432.22	6001.13
432.41	5928.58
432.60	5968.37
432.79	5940.28
432.97	6057.31
433.16	6099.44
433.35	6043.26
433.54	6043.26
433.72	6080.71
433.91	5989.43
434.10	6230.51
434.28	6183.70
434.47	6314.77
434.66	6204.76
434.85	6225.82
435.03	6272.64
435.22	6443.49
435.41	6551.16
435.59	6494.99
435.78	6478.60
435.97	6518.39
436.16	6349.87
436.34	6483.28
436.53	6672.87
436.72	6759.47
436.90	6450.52
437.09	6705.63
437.28	6410.73
437.46	6628.40
437.65	6764.15
437.84	6733.72
438.02	6738.40
438.21	6808.62
438.40	6899.90
438.58	6953.73
438.77	7080.12
438.96	6925.65
439.14	7307.15
439.33	7215.87
439.52	7260.34
439.70	7328.22
439.89	7508.44
440.08	7400.77
440.26	7281.41
440.45	7344.60
440.63	7372.69
440.82	7695.68
441.01	7632.49
441.19	7459.29
441.38	7882.92
441.57	7578.65
441.75	7691.00
441.94	8177.83
442.12	8152.09
442.31	8119.32
442.50	8023.36
442.68	8056.12
442.87	8140.38
443.05	8217.62
443.24	8329.97
443.43	8238.69
443.61	8276.13
443.80	8514.87
443.98	7985.91
444.17	7943.78
444.35	8205.92
444.54	8344.01
444.73	8212.94
444.91	8381.46
445.10	8512.53
445.28	8454.02
445.47	8100.59
445.65	8500.83
445.84	8557.00
446.02	8606.15
446.21	8446.99
446.39	8311.24
446.58	8549.98
446.77	8423.59
446.95	8163.79
447.14	8489.12
447.32	8648.28
447.51	8587.43
447.69	8599.13
447.88	8519.55
448.06	8741.90
448.25	8751.26
448.43	8734.88
448.62	8594.45
448.80	8613.17
448.99	8652.96
449.17	8809.78
449.36	8744.24
449.54	8887.01
449.73	9018.08
449.91	8903.40
450.10	9022.77
450.28	9116.39
450.46	9153.84
450.65	9048.51
450.83	9287.25
451.02	9104.68
451.20	9273.20
451.39	9263.84
451.57	9149.15
451.76	9116.39
451.94	9247.46
452.13	9502.58
452.31	9301.29
452.49	9273.20
452.68	9268.52
452.86	9514.28
453.05	9537.68
453.23	9610.24
453.42	9514.28
453.60	9439.38
453.78	9654.71
453.97	9563.43
454.15	9579.81
454.34	9455.76
454.52	9741.31
454.70	9720.24
454.89	9542.36
455.07	9804.50
455.26	9921.53
455.44	9996.43
455.62	10033.88
455.81	9930.89
455.99	9994.09
456.17	9996.43
456.36	10008.13
456.54	10200.05
456.73	10445.81
456.91	10623.69
457.09	10530.07
457.28	10691.57
457.46	10420.06
457.64	10609.65
457.83	10693.91
458.01	10530.07
458.19	10927.96
458.38	10487.94
458.56	10864.77
458.74	10808.59
458.93	10853.06
459.11	10761.78
459.29	10771.15
459.48	10939.66
459.66	10981.79
459.84	10892.85
460.03	11094.14
460.21	11173.72
460.39	11152.65
460.57	11178.40
460.76	11316.49
460.94	11517.78
461.12	11208.83
461.31	11190.10
461.49	11297.77
461.67	11403.09
461.85	11487.35
462.04	11562.25
462.22	11789.28
462.40	11751.83
462.59	11396.07
462.77	11501.39
462.95	11822.05
463.13	11815.02
463.32	11597.35
463.50	11707.36
463.68	12112.27
463.86	11948.43
464.05	11597.35
464.23	11758.85
464.41	12109.93
464.59	11864.18
464.78	12191.85
464.96	12109.93
465.14	12100.57
465.32	12273.77
465.50	11896.94
465.69	12262.07
465.87	12306.54
466.05	12355.69
466.23	12112.27
466.41	12521.87
466.60	12826.14
466.78	12325.26
466.96	12283.13
467.14	12484.42
467.32	12390.80
467.51	12826.14
467.69	12381.43
467.87	12706.77
468.05	12697.41
468.23	12372.07
468.41	12596.76
468.60	12650.60
468.78	12784.01
468.96	12858.90
469.14	12774.64
469.32	13041.46
469.50	12837.84
469.69	13137.43
469.87	12987.63
470.05	13362.12
470.23	13322.33
470.41	13312.97
470.59	13387.86
470.77	13315.31
470.95	13497.87
471.14	13626.60
471.32	13242.75
471.50	13589.15
471.68	13577.45
471.86	13802.14
472.04	13825.54
472.22	14113.43
472.40	13888.74
472.58	13865.33
472.77	13977.68
472.95	14413.02
473.13	14544.09
473.31	14417.70
473.49	14228.12
473.67	14150.88
473.85	14511.32
474.03	14909.21
474.21	14815.59
474.39	14679.84
474.57	14890.49
474.75	14813.25
474.93	15222.84
475.12	14967.73
475.30	15138.58
475.48	15286.04
475.66	15323.49
475.84	15391.36
476.02	15396.04
476.20	15339.87
476.38	15826.70
476.56	16126.29
476.74	16140.33
476.92	16236.30
477.10	16098.20
477.28	16313.53
477.46	16348.64
477.64	16486.73
477.82	16732.49
478.00	17364.43
478.18	16896.33
478.36	17238.05
478.54	17317.62
478.72	17261.45
478.90	17446.35
479.08	17593.81
479.26	17891.06
479.44	18169.58
479.62	17638.28
479.80	18314.69
479.98	18291.29
480.16	18855.36
480.34	18661.09
480.52	18808.54
480.70	18827.27
480.88	18408.31
481.06	19023.87
481.24	18853.02
481.41	19449.85
481.59	19543.47
481.77	19779.87
481.95	19922.64
482.13	19978.81
482.31	19875.83
482.49	20624.80
482.67	20327.55
482.85	20442.24
483.03	20402.45
483.21	20872.90
483.39	20952.48
483.57	20802.68
483.74	21310.58
483.92	21439.31
484.10	21605.49
484.28	22073.59
484.46	22129.77
484.64	22651.70
484.82	22455.10
485.00	22342.75
485.18	22885.76
485.35	23318.76
485.53	22998.10
485.71	23044.91
485.89	23763.46
486.07	23646.43
486.25	23613.66
486.43	23871.12
486.61	24217.52
486.78	24432.85
486.96	24463.28
487.14	24694.99
487.32	24989.90
487.50	25149.06
487.68	24833.08
487.85	25689.72
488.03	25659.29
488.21	26363.79
488.39	26106.34
488.57	26331.03
488.75	26618.91
488.92	26422.31
489.10	27105.74
489.28	27049.57
489.46	27620.66
489.64	27344.48
489.81	27793.86
489.99	27920.25
490.17	28034.94
490.35	28662.20
490.53	28589.64
490.70	28458.57
490.88	28938.38
491.06	29041.37
491.24	28961.79
491.41	29076.48
491.59	29596.07
491.77	29661.61
491.95	29809.06
492.13	30185.89
492.30	30181.21
492.48	30370.79
492.66	30363.77
492.84	30780.39
493.01	30504.20
493.19	30948.90
493.37	31035.50
493.54	31550.42
493.72	31740.00
493.90	31618.30
494.08	32243.22
494.25	32606.00
494.43	32488.98
494.61	32369.61
494.79	32786.22
494.96	32797.93
495.14	33034.32
495.32	33692.01
495.49	33460.30
495.67	33731.80
495.85	33881.60
496.02	33640.52
496.20	34391.83
496.38	34714.83
496.55	34588.44
496.73	35260.17
496.91	34824.83
497.09	35470.82
497.26	35246.13
497.44	35412.31
497.62	35772.75
497.79	35997.44
497.97	35763.39
498.14	36074.68
498.32	36500.65
498.50	36271.28
498.67	36952.38
498.85	36821.31
499.03	37233.24
499.20	36690.24
499.38	37141.96
499.56	37670.92
499.73	37820.72
499.91	37818.38
500.08	38050.09
500.26	37839.44
500.44	38087.54
500.61	38527.56
500.79	38010.30
500.97	38445.64
501.14	38763.95
501.32	39185.25
501.49	39267.17
501.67	38948.85
501.84	39597.18
502.02	39461.43
502.20	39321.00
502.37	39318.66
502.55	39566.76
502.72	39665.06
502.90	39981.03
503.07	39775.06
503.25	39941.24
503.43	39763.36
503.60	40102.74
503.78	40641.06
503.95	40875.12
504.13	41219.17
504.30	40919.59
504.48	41457.91
504.65	41226.20
504.83	41422.80
505.01	41930.70
505.18	41717.71
505.36	41996.23
505.53	41556.21
505.71	41563.23
505.88	42483.06
506.06	41837.08
506.23	42651.58
506.41	42354.33
506.58	42312.20
506.76	42637.54
506.93	43225.01
507.11	42763.93
507.28	43405.23
507.46	43056.50
507.63	43271.82
507.81	43730.57
507.98	43292.89
508.16	43358.42
508.33	43915.47
508.50	44067.61
508.68	43716.53
508.85	44456.14
509.03	43611.20
509.20	44371.88
509.38	44655.08
509.55	44563.80
509.73	44690.19
509.90	44919.56
510.08	44671.46
510.25	44596.57
510.42	44870.41
510.60	45528.10
510.77	45549.17
510.95	45659.17
511.12	45612.36
511.30	45818.33
511.47	45610.02
511.64	45624.06
511.82	46162.39
511.99	46153.02
512.17	46309.84
512.34	46171.75
512.51	46796.67
512.69	46777.95
512.86	46490.06
513.04	47356.06
513.21	47398.19
513.38	47281.16
513.56	47082.22
513.73	47065.83
513.90	47767.99
514.08	47201.58
514.25	47760.97
514.43	47613.52
514.60	48069.92
514.77	47555.00
514.95	48062.90
515.12	48137.80
515.29	47821.83
515.47	48311.00
515.64	48425.68
515.81	48212.70
515.99	48673.78
516.16	48842.30
516.33	48861.02
516.51	49254.23
516.68	48917.20
516.85	48718.25
517.03	49404.03
517.20	49324.45
517.37	49265.94
517.54	49485.95
517.72	49357.22
517.89	49345.51
518.06	49797.24
518.24	49607.65
518.41	49499.99
518.58	49804.26
518.75	49909.58
518.93	50115.55
519.10	49666.17
519.27	50075.76
519.45	50405.78
519.62	50401.10
519.79	50286.41
519.96	50417.48
520.14	50621.11
520.31	50504.08
520.48	50461.95
520.65	50726.43
520.83	50965.17
521.00	50918.35
521.17	50829.41
521.34	51002.61
521.52	50787.28
521.69	51178.15
521.86	51559.66
522.03	51428.59
522.20	51494.13
522.38	51812.44
522.55	51782.01
522.72	51552.64
522.89	51349.01
523.07	52093.30
523.24	51742.22
523.41	52224.37
523.58	51838.18
523.75	52191.61
523.92	52023.09
524.10	52432.68
524.27	52395.23
524.44	52498.22
524.61	52601.20
524.78	52371.83
524.96	52835.25
525.13	52928.87
525.30	52657.37
525.47	53116.12
525.64	53013.13
525.81	52832.91
525.98	53031.86
526.16	52947.60
526.33	52900.79
526.50	53551.46
526.67	52992.07
526.84	53279.96
527.01	53148.88
527.18	53305.70
527.36	53174.63
527.53	53357.19
527.70	53677.85
527.87	53467.20
528.04	53481.24
528.21	53357.19
528.38	53741.04
528.55	53794.87
528.72	53542.10
528.89	53549.12
529.07	53462.52
529.24	53574.86
529.41	53991.48
529.58	54096.80
529.75	53705.93
529.92	54363.62
530.09	53932.96
530.26	54370.64
530.43	54281.70
530.60	54162.34
530.77	54049.99
530.94	54382.35
531.11	54279.36
531.28	54602.36
531.46	54546.18
531.63	54583.63
531.80	54574.27
531.97	54836.41
532.14	54674.91
532.31	54871.52
532.48	54873.86
532.65	54775.56
532.82	54707.68
532.99	55136.00
533.16	55018.97
533.33	55299.84
533.50	55185.15
533.67	55164.09
533.84	54944.08
534.01	55311.54
534.18	55187.49
534.35	55435.59
534.52	55313.88
534.69	55409.84
534.86	55285.79
535.03	55210.90
535.20	55346.65
535.37	55653.26
535.54	55590.06
535.71	55522.19
535.88	55770.28
536.05	55906.04
536.22	55810.07
536.38	55781.99
536.55	55711.77
536.72	55906.04
536.89	55929.44
537.06	55875.61
537.23	55894.33
537.40	55856.88
537.57	56044.13
537.74	55966.89
537.91	56161.15
538.08	56172.86
538.25	55845.18
538.42	56247.75
538.59	56205.62
538.75	56280.52
538.92	56069.87
539.09	56554.36
539.26	56449.04
539.43	56156.47
539.60	56552.02
539.77	56463.08
539.94	56673.73
540.11	56399.89
540.28	56741.61
540.44	56528.62
540.61	56486.49
540.78	56615.22
540.95	56523.94
541.12	56734.59
541.29	56802.46
541.46	56563.73
541.62	56973.32
541.79	56966.30
541.96	56734.59
542.13	56870.34
542.30	56807.14
542.47	57104.39
542.63	56968.64
542.80	57235.46
542.97	57499.94
543.14	57556.11
543.31	57202.69
543.48	57378.23
543.64	57439.09
543.81	57614.63
543.98	57609.95
544.15	57591.22
544.32	57626.33
544.48	57818.25
544.65	57701.23
544.82	57528.03
544.99	57581.86
545.16	57518.67
545.32	57846.34
545.49	57773.78
545.66	58209.12
545.83	58087.42
546.00	57951.66
546.16	58075.71
546.33	57621.65
546.50	57879.11
546.67	57902.51
546.83	57563.14
547.00	58075.71
547.17	57930.60
547.34	58075.71
547.50	58302.74
547.67	58155.29
547.84	58230.19
548.00	58347.21
548.17	58742.77
548.34	58520.41
548.51	58604.67
548.67	58548.50
548.84	58452.54
549.01	58398.71
549.18	58504.03
549.34	58515.73
549.51	58562.54
549.68	58457.22
549.84	58609.35
550.01	58719.36
550.18	58672.55
550.34	58911.28
550.51	58969.80
550.68	58773.19
550.84	58569.57
551.01	58850.43
551.18	58808.30
551.34	58805.96
551.51	58763.83
551.68	58660.85
551.84	58831.71
552.01	58712.34
552.18	58995.54
552.34	58756.81
552.51	58871.49
552.68	58777.87
552.84	59063.42
553.01	59051.72
553.18	59150.02
553.34	59245.98
553.51	58859.79
553.67	58979.16
553.84	59147.68
554.01	59330.24
554.17	59304.49
554.34	59103.21
554.51	59313.86
554.67	59325.56
554.84	59250.66
555.00	59283.43
555.17	59199.17
555.33	59285.77
555.50	59098.53
555.67	59128.95
555.83	59243.64
556.00	59465.99
556.16	59686.00
556.33	59597.06
556.50	59709.41
556.66	59503.44
556.83	59468.33
556.99	59711.75
557.16	59681.32
557.32	59842.82
557.49	59966.87
557.65	59583.02
557.82	59648.55
557.98	59683.66
558.15	59657.91
558.32	59620.47
558.48	59671.96
558.65	59774.94
558.81	59863.88
558.98	59870.90
559.14	59931.76
559.31	60090.91
559.47	59840.48
559.64	60083.89
559.80	59922.40
559.97	59765.58
560.13	59835.80
560.30	60102.62
560.46	59957.50
560.63	59983.25
560.79	59910.69
560.96	60123.68
561.12	60264.11
561.29	60027.72
561.45	60083.89
561.61	60067.51
561.78	60144.75
561.94	60032.40
562.11	59976.23
562.27	60130.70
562.44	60023.04
562.60	60364.76
562.77	60238.37
562.93	60027.72
563.10	60322.63
563.26	60144.75
563.42	60346.03
563.59	60186.88
563.75	60214.96
563.92	60271.14
564.08	60250.07
564.24	60456.04
564.41	60357.74
564.57	60397.52
564.74	60308.58
564.90	60236.03
565.07	60324.97
565.23	60364.76
565.39	60500.51
565.56	60650.30
565.72	60563.70
565.88	60486.46
566.05	60301.56
566.21	60406.89
566.38	60669.03
566.54	60542.64
566.70	60711.16
566.87	60596.47
567.03	60240.71
567.19	60718.18
567.36	60650.30
567.52	60467.74
567.68	60659.66
567.85	60645.62
568.01	60760.31
568.17	60301.56
568.34	60692.43
568.50	60364.76
568.66	60434.97
568.83	60439.65
568.99	60589.45
569.15	60612.85
569.32	60671.37
569.48	60734.56
569.64	60849.25
569.81	60683.07
569.97	60748.60
570.13	60664.35
570.30	60472.42
570.46	60748.60
570.62	60722.86
570.78	60764.99
570.95	60715.84
571.11	60860.95
571.27	60659.66
571.43	60722.86
571.60	60985.00
571.76	60896.06
571.92	60800.10
572.09	60917.12
572.25	60662.00
572.41	60921.80
572.57	60938.19
572.74	61113.73
572.90	60898.40
573.06	60877.33
573.22	60853.93
573.38	60640.94
573.55	60757.97
573.71	61113.73
573.87	60835.20
574.03	60739.24
574.20	60755.63
574.36	60938.19
574.52	60996.70
574.68	61059.90
574.84	61087.98
575.01	60821.16
575.17	60753.29
575.33	60849.25
575.49	60830.52
575.65	60882.02
575.82	61151.18
575.98	61050.53
576.14	61200.33
576.30	61167.56
576.46	60963.93
576.62	60900.74
576.79	61066.92
576.95	60736.90
577.11	61183.94
577.27	60891.38
577.43	61024.79
577.59	61010.74
577.75	60816.48
577.92	60942.87
578.08	61085.64
578.24	60959.25
578.40	61378.21
578.56	61073.94
578.72	61052.87
578.88	61116.07
579.04	61172.24
579.21	61205.01
579.37	61240.12
579.53	61209.69
579.69	61097.34
579.85	60968.61
580.01	61153.52
580.17	60968.61
580.33	61193.31
580.49	61216.71
580.65	61336.08
580.82	61102.03
580.98	61109.05
581.14	61013.08
581.30	61202.67
581.46	61289.27
581.62	61347.78
581.78	61022.45
581.94	61235.44
582.10	61300.97
582.26	61062.24
582.42	60963.93
582.58	61176.92
582.74	60989.68
582.90	61095.00
583.06	61193.31
583.22	60968.61
583.38	61202.67
583.54	61153.52
583.70	61422.68
583.86	61361.82
584.02	61141.81
584.18	61219.05
584.34	61223.73
584.50	61186.28
584.66	60912.44
584.82	61027.13
584.98	61415.66
585.14	61331.40
585.30	61200.33
585.46	61399.27
585.62	61436.72
585.78	61345.44
585.94	61303.31
586.10	61268.20
586.26	61139.47
586.42	61343.10
586.58	61216.71
586.74	61467.15
586.90	61212.03
587.06	61183.94
587.22	61434.38
587.38	61492.89
587.54	61382.89
587.70	61710.56
587.86	61085.64
588.02	61230.75
588.18	61726.95
588.34	61279.91
588.49	61235.44
