SpectraSuite Data File
++++++++++++++++++++++++++++++++++++
Date: Fri Oct 25 10:47:31 EDT 2013
User: price-jones
Dark Spectrum Present: No
Reference Spectrum Present: No
Number of Sampled Component Spectra: 1
Spectrometers: USB2+H05261
Integration Time (usec): 100000 (USB2+H05261)
Spectra Averaged: 1 (USB2+H05261)
Boxcar Smoothing: 0 (USB2+H05261)
Correct for Electrical Dark: No (USB2+H05261)
Strobe/Lamp Enabled: No (USB2+H05261)
Correct for Detector Non-linearity: No (USB2+H05261)
Correct for Stray Light: No (USB2+H05261)
Number of Pixels in Processed Spectrum: 2048
>>>>>Begin Processed Spectral Data<<<<<
365.73	124.05
365.92	124.05
366.12	124.05
366.32	70.22
366.52	23.41
366.72	58.51
366.91	14.04
367.11	56.17
367.31	18.72
367.51	44.47
367.70	32.77
367.90	114.69
368.10	7.02
368.30	18.72
368.49	0.00
368.69	77.24
368.89	46.81
369.09	65.54
369.28	35.11
369.48	124.05
369.68	126.39
369.87	175.54
370.07	60.85
370.27	201.29
370.47	203.63
370.66	416.62
370.86	402.57
371.06	423.64
371.25	500.87
371.45	430.66
371.65	346.40
371.84	449.38
372.04	407.25
372.24	421.30
372.44	461.09
372.63	599.18
372.83	540.66
373.03	521.94
373.22	531.30
373.42	526.62
373.62	571.09
373.81	472.79
374.01	578.11
374.21	540.66
374.40	566.41
374.60	615.56
374.79	596.84
374.99	631.94
375.19	517.26
375.38	620.24
375.58	566.41
375.78	601.52
375.97	615.56
376.17	627.26
376.37	580.45
376.56	526.62
376.76	519.60
376.95	543.00
377.15	500.87
377.35	580.45
377.54	566.41
377.74	552.37
377.93	603.86
378.13	554.71
378.33	634.29
378.52	557.05
378.72	573.43
378.91	573.43
379.11	664.71
379.31	622.58
379.50	641.31
379.70	709.18
379.89	610.88
380.09	636.63
380.28	589.82
380.48	629.60
380.68	662.37
380.87	641.31
381.07	685.78
381.26	688.12
381.46	596.84
381.65	636.63
381.85	725.57
382.04	702.16
382.24	667.05
382.43	613.22
382.63	667.05
382.83	711.52
383.02	730.25
383.22	690.46
383.41	657.69
383.61	739.61
383.80	751.31
384.00	765.36
384.19	653.01
384.39	725.57
384.58	692.80
384.78	685.78
384.97	784.08
385.17	770.04
385.36	704.50
385.56	788.76
385.75	788.76
385.95	720.88
386.14	849.61
386.34	699.82
386.53	739.61
386.72	753.65
386.92	819.19
387.11	835.57
387.31	779.40
387.50	732.59
387.70	734.93
387.89	858.98
388.09	793.44
388.28	866.00
388.48	795.78
388.67	884.72
388.86	837.91
389.06	821.53
389.25	952.60
389.45	828.55
389.64	901.11
389.84	964.30
390.03	861.32
390.22	945.58
390.42	896.43
390.61	884.72
390.81	908.13
391.00	952.60
391.19	990.05
391.39	901.11
391.58	980.68
391.78	917.49
391.97	968.98
392.16	889.40
392.36	1015.79
392.55	978.34
392.75	952.60
392.94	889.40
393.13	873.02
393.33	1001.75
393.52	1048.56
393.71	1081.33
393.91	1064.94
394.10	1027.50
394.29	1041.54
394.49	992.39
394.68	1053.24
394.88	1011.11
395.07	1174.95
395.26	1034.52
395.46	1158.57
395.65	1104.73
395.84	1111.75
396.04	1109.41
396.23	1123.46
396.42	1083.67
396.62	1078.99
396.81	1165.59
397.00	1060.26
397.19	1137.50
397.39	1186.65
397.58	1186.65
397.77	1139.84
397.97	1291.98
398.16	1263.89
398.35	1277.93
398.55	1294.32
398.74	1254.53
398.93	1306.02
399.12	1205.38
399.32	1198.35
399.51	1242.82
399.70	1357.51
399.90	1355.17
400.09	1373.89
400.28	1401.98
400.47	1352.83
400.67	1441.77
400.86	1453.47
401.05	1366.87
401.24	1411.34
401.44	1516.67
401.63	1497.94
401.82	1455.81
402.01	1474.54
402.21	1523.69
402.40	1526.03
402.59	1451.13
402.78	1521.35
402.97	1430.07
403.17	1504.96
403.36	1593.90
403.55	1568.16
403.74	1577.52
403.93	1577.52
404.13	1605.61
404.32	1561.14
404.51	1598.59
404.70	1626.67
404.89	1699.23
405.09	1710.93
405.28	1689.87
405.47	1626.67
405.66	1696.89
405.85	1804.55
406.05	1659.44
406.24	1713.27
406.43	1703.91
406.62	1762.42
406.81	1804.55
407.00	1769.44
407.20	1710.93
407.39	1771.79
407.58	1893.49
407.77	1851.36
407.96	1893.49
408.15	1870.09
408.34	1968.39
408.54	1935.62
408.73	2015.20
408.92	1996.48
409.11	1877.11
409.30	2033.93
409.49	1973.07
409.68	2071.37
409.87	2008.18
410.07	2062.01
410.26	2045.63
410.45	2050.31
410.64	2120.53
410.83	2165.00
411.02	2139.25
411.21	2087.76
411.40	2181.38
411.59	2258.62
411.78	2225.85
411.98	2265.64
412.17	2303.09
412.36	2286.70
412.55	2244.57
412.74	2317.13
412.93	2399.05
413.12	2310.11
413.31	2424.80
413.50	2340.54
413.69	2389.69
413.88	2473.95
414.07	2518.42
414.26	2462.24
414.45	2579.27
414.64	2637.78
414.83	2532.46
415.02	2633.10
415.22	2635.44
415.41	2766.51
415.60	2679.91
415.79	2754.81
415.98	2750.13
416.17	2857.79
416.36	2675.23
416.55	2862.48
416.74	2771.19
416.93	2902.26
417.12	2785.24
417.31	2988.86
417.50	2937.37
417.69	3126.96
417.88	2918.65
418.07	3023.97
418.26	2967.80
418.45	2967.80
418.64	3110.57
418.83	3192.49
419.02	3054.40
419.21	3129.30
419.39	3187.81
419.58	3075.46
419.77	3112.91
419.96	3251.00
420.15	3234.62
420.34	3126.96
420.53	3286.11
420.72	3328.24
420.91	3201.85
421.10	3283.77
421.29	3309.52
421.48	3309.52
421.67	3222.92
421.86	3269.73
422.05	3267.39
422.24	3272.07
422.43	3295.47
422.61	3339.94
422.80	3435.91
422.99	3396.12
423.18	3447.61
423.37	3487.40
423.56	3400.80
423.75	3361.01
423.94	3246.32
424.13	3133.98
424.32	3323.56
424.50	3375.05
424.69	3431.23
424.88	3597.40
425.07	3403.14
425.26	3396.12
425.45	3492.08
425.64	3438.25
425.83	3351.65
426.01	3538.89
426.20	3447.61
426.39	3475.70
426.58	3501.44
426.77	3480.38
426.96	3435.91
427.15	3475.70
427.33	3442.93
427.52	3571.66
427.71	3592.72
427.90	3716.77
428.09	3709.75
428.28	3660.60
428.46	3653.58
428.65	3648.90
428.84	3733.15
429.03	3817.41
429.22	3559.95
429.40	3850.18
429.59	3637.19
429.78	3557.61
429.97	3588.04
430.16	3698.05
430.34	3716.77
430.53	3817.41
430.72	3843.16
430.91	3733.15
431.10	3796.35
431.28	3990.61
431.47	3971.89
431.66	4117.00
431.85	4032.74
432.03	4023.38
432.22	4107.64
432.41	4035.08
432.60	4046.79
432.79	4084.23
432.97	4196.58
433.16	4126.36
433.35	4266.80
433.54	4088.92
433.72	4173.18
433.91	4208.28
434.10	4126.36
434.28	4215.30
434.47	4245.73
434.66	4339.35
434.85	4332.33
435.03	4217.65
435.22	4386.16
435.41	4400.21
435.59	4390.84
435.78	4379.14
435.97	4435.32
436.16	4514.89
436.34	4491.49
436.53	4491.49
436.72	4734.90
436.90	4376.80
437.09	4587.45
437.28	4535.96
437.46	4456.38
437.65	4540.64
437.84	4589.79
438.02	4564.04
438.21	4732.56
438.40	4599.15
438.58	4720.86
438.77	4739.58
438.96	4634.26
439.14	4870.65
439.33	4865.97
439.52	4795.76
439.70	4882.36
439.89	5029.81
440.08	4929.17
440.26	5057.90
440.45	5170.24
440.63	5179.61
440.82	5254.50
441.01	5018.11
441.19	5289.61
441.38	5165.56
441.57	5259.18
441.75	5406.64
441.94	5579.84
442.12	5462.81
442.31	5458.13
442.50	5647.71
442.68	5472.17
442.87	5556.43
443.05	5577.50
443.24	5568.13
443.43	5645.37
443.61	5547.07
443.80	5797.51
443.98	5577.50
444.17	5497.92
444.35	5729.63
444.54	5572.82
444.73	5687.50
444.91	5666.44
445.10	5661.76
445.28	5577.50
445.47	5755.38
445.65	5549.41
445.84	5734.31
446.02	5783.46
446.21	5846.66
446.39	5568.13
446.58	5715.59
446.77	5785.80
446.95	5671.12
447.14	5764.74
447.32	5867.72
447.51	5717.93
447.69	5809.21
447.88	5837.30
448.06	5771.76
448.25	5734.31
448.43	5790.49
448.62	5767.08
448.80	5776.44
448.99	5996.45
449.17	5989.43
449.36	5954.32
449.54	6146.25
449.73	6139.23
449.91	6310.08
450.10	6169.65
450.28	6253.91
450.46	6331.15
450.65	6188.38
450.83	6352.21
451.02	6256.25
451.20	6352.21
451.39	6167.31
451.57	6181.35
451.76	6263.27
451.94	6218.80
452.13	6319.45
452.31	6392.00
452.49	6286.68
452.68	6333.49
452.86	6284.34
453.05	6506.69
453.23	6420.09
453.42	6328.81
453.60	6523.07
453.78	6574.56
453.97	6377.96
454.15	6413.07
454.34	6443.49
454.52	6483.28
454.70	6485.62
454.89	6750.10
455.07	6551.16
455.26	6705.63
455.44	6839.05
455.62	6885.86
455.81	6874.15
455.99	6920.96
456.17	6988.84
456.36	6764.15
456.54	6839.05
456.73	7066.08
456.91	7241.62
457.09	7194.81
457.28	7129.27
457.46	6953.73
457.64	7126.93
457.83	7201.83
458.01	6944.37
458.19	7091.82
458.38	7082.46
458.56	7377.37
458.74	7192.47
458.93	7096.50
459.11	7157.36
459.29	7115.23
459.48	7288.43
459.66	7459.29
459.84	7456.95
460.03	7410.14
460.21	7365.67
460.39	7693.34
460.57	7428.86
460.76	7730.79
460.94	7531.84
461.12	7630.15
461.31	7515.46
461.49	7581.00
461.67	7721.43
461.85	7695.68
462.04	7616.10
462.22	8086.55
462.40	7740.15
462.59	7831.43
462.77	7768.24
462.95	7873.56
463.13	7829.09
463.32	7634.83
463.50	7962.50
463.68	8013.99
463.86	7985.91
464.05	7700.36
464.23	7915.69
464.41	7981.23
464.59	7854.84
464.78	7908.67
464.96	7967.18
465.14	7922.71
465.32	8121.66
465.50	8257.41
465.69	8234.00
465.87	8189.53
466.05	8126.34
466.23	8219.96
466.41	8163.79
466.60	8175.49
466.78	7992.93
466.96	8212.94
467.14	8201.24
467.32	8145.06
467.51	8365.07
467.69	8072.51
467.87	8276.13
468.05	8336.99
468.23	8439.97
468.41	8486.78
468.60	8585.08
468.78	8397.84
468.96	8477.42
469.14	8421.25
469.32	8709.13
469.50	8468.06
469.69	8645.94
469.87	8823.82
470.05	8704.45
470.23	8767.65
470.41	8889.35
470.59	8709.13
470.77	8688.07
470.95	8830.84
471.14	9036.81
471.32	8732.54
471.50	9043.83
471.68	8854.25
471.86	9205.33
472.04	9296.61
472.22	9334.06
472.40	9247.46
472.58	9163.20
472.77	9291.93
472.95	9406.61
473.13	9708.54
473.31	9369.16
473.49	9317.67
473.67	9336.40
473.85	9341.08
474.03	9631.30
474.21	9661.73
474.39	9827.91
474.57	9753.01
474.75	9839.61
474.93	9848.97
475.12	9834.93
475.30	10141.54
475.48	10148.56
475.66	10265.59
475.84	10094.73
476.02	10146.22
476.20	10115.80
476.38	10499.64
476.56	10597.95
476.74	10441.13
476.92	10326.44
477.10	10611.99
477.28	10436.45
477.46	10586.24
477.64	10717.31
477.82	10944.34
478.00	11087.12
478.18	11054.35
478.36	11066.05
478.54	11272.02
478.72	11269.68
478.90	11463.94
479.08	11197.12
479.26	11672.25
479.44	11733.11
479.62	11693.32
479.80	11630.12
479.98	11929.71
480.16	11988.22
480.34	11782.26
480.52	12212.92
480.70	12023.33
480.88	11995.25
481.06	12238.66
481.24	12208.23
481.41	12713.79
481.59	12765.28
481.77	12702.09
481.95	13018.06
482.13	12996.99
482.31	13273.18
482.49	13020.40
482.67	13125.72
482.85	13366.80
483.03	13504.89
483.21	13568.09
483.39	13781.07
483.57	13771.71
483.74	13947.25
483.92	14010.45
484.10	13956.61
484.28	14106.41
484.46	14518.34
484.64	14541.75
484.82	14249.18
485.00	14647.07
485.18	14574.52
485.35	15229.87
485.53	14834.32
485.71	14724.31
485.89	15056.67
486.07	14855.38
486.25	15028.58
486.43	15529.45
486.61	15353.91
486.78	15611.37
486.96	15445.20
487.14	15756.49
487.32	16074.80
487.50	15873.51
487.68	16266.72
487.85	16350.98
488.03	16538.23
488.21	16999.31
488.39	16767.60
488.57	16835.47
488.75	16872.92
488.92	17364.43
489.10	17469.76
489.28	17413.59
489.46	17401.88
489.64	17600.83
489.81	17963.61
489.99	17914.46
490.17	18230.43
490.35	18253.84
490.53	18181.28
490.70	18373.21
490.88	18513.64
491.06	18565.13
491.24	18525.34
491.41	18567.47
491.59	18679.82
491.77	19058.98
491.95	19150.26
492.13	19466.24
492.30	19407.72
492.48	19527.09
492.66	19421.77
492.84	19365.59
493.01	19995.20
493.19	20077.12
493.37	20107.54
493.54	20152.01
493.72	20570.97
493.90	19976.47
494.08	20814.38
494.25	20680.97
494.43	20919.71
494.61	21076.52
494.79	21001.63
494.96	21319.94
495.14	21013.33
495.32	21434.63
495.49	21270.79
495.67	21362.07
495.85	21649.96
496.02	22047.85
496.20	22038.48
496.38	22026.78
496.55	21916.78
496.73	22714.90
496.91	22401.27
497.09	22239.77
497.26	22604.89
497.44	22532.34
497.62	22480.85
497.79	22803.84
497.97	22717.24
498.14	22857.67
498.32	23147.90
498.50	23250.88
498.67	23325.78
498.85	23616.01
499.03	23608.98
499.20	23758.78
499.38	23866.44
499.56	24091.13
499.73	24009.22
499.91	24011.56
500.08	24346.25
500.26	24182.42
500.44	24563.92
500.61	24503.07
500.79	24088.79
500.97	24547.54
501.14	24858.83
501.32	24645.84
501.49	24737.12
501.67	24748.82
501.84	24886.92
502.02	25046.07
502.20	25298.85
502.37	25310.55
502.55	24793.29
502.72	25568.01
502.90	25516.52
503.07	25490.77
503.25	25778.66
503.43	25434.60
503.60	26075.91
503.78	25743.55
503.95	25781.00
504.13	25951.86
504.30	26202.30
504.48	25666.31
504.65	26359.11
504.83	26405.92
505.01	26738.28
505.18	26244.43
505.36	26981.70
505.53	26309.96
505.71	26902.12
505.88	26892.76
506.06	26696.15
506.23	26988.72
506.41	27124.47
506.58	26993.40
506.76	27307.03
506.93	27475.55
507.11	27435.76
507.28	27468.53
507.46	27431.08
507.63	27592.58
507.81	28023.23
507.98	27873.44
508.16	27845.35
508.33	28039.62
508.50	27747.05
508.68	27910.89
508.85	28128.56
509.03	28182.39
509.20	28308.78
509.38	28573.26
509.55	28519.43
509.73	28599.01
509.90	28795.61
510.08	29017.96
510.25	28449.21
510.42	29221.59
510.60	28989.88
510.77	29270.74
510.95	29287.12
511.12	29088.18
511.30	29195.84
511.47	29397.13
511.64	29656.93
511.82	29851.19
511.99	29017.96
512.17	29366.70
512.34	29783.32
512.51	30270.15
512.69	29930.77
512.86	29867.58
513.04	30279.51
513.21	30604.84
513.38	30118.01
513.56	30391.86
513.73	29872.26
513.90	30382.49
514.08	30441.01
514.25	30384.83
514.43	30188.23
514.60	30501.86
514.77	30478.46
514.95	30820.17
515.12	30834.22
515.29	31035.50
515.47	31054.23
515.64	30962.95
515.81	31117.42
515.99	31173.60
516.16	31157.21
516.33	31070.61
516.51	31124.44
516.68	31218.07
516.85	31140.83
517.03	31395.95
517.20	31667.45
517.37	31737.66
517.54	31564.46
517.72	31922.57
517.89	31672.13
518.06	31716.60
518.24	31964.70
518.41	31391.26
518.58	31920.23
518.75	31667.45
518.93	32421.10
519.10	32130.87
519.27	32210.45
519.45	32273.65
519.62	32606.00
519.79	32903.25
519.96	32755.80
520.14	32818.99
520.31	32161.30
520.48	32830.69
520.65	32933.68
520.83	32849.42
521.00	32924.32
521.17	32863.46
521.34	33144.33
521.52	33167.73
521.69	33132.62
521.86	33619.46
522.03	33340.93
522.20	33586.69
522.38	33942.45
522.55	34045.43
522.72	33703.71
522.89	33439.23
523.07	34108.63
523.24	33797.34
523.41	34490.13
523.58	34185.86
523.75	34377.79
523.92	34267.78
524.10	34682.06
524.27	34284.17
524.44	34883.34
524.61	34637.59
524.78	34646.95
524.96	34611.84
525.13	34761.64
525.30	35063.57
525.47	35016.75
525.64	34558.01
525.81	35442.73
525.98	34792.06
526.16	34869.30
526.33	34787.38
526.50	35400.60
526.67	34927.81
526.84	35037.82
527.01	34885.68
527.18	35131.44
527.36	35634.66
527.53	35192.30
527.70	35931.90
527.87	35590.19
528.04	35459.12
528.21	35370.18
528.38	35543.38
528.55	35714.23
528.72	35763.39
528.89	36130.85
529.07	35590.19
529.24	36182.34
529.41	35896.80
529.58	35875.73
529.75	36034.89
529.92	35786.79
530.09	36470.23
530.26	36397.67
530.43	36156.60
530.60	36011.48
530.77	36203.41
530.94	37031.96
531.11	36701.94
531.28	36350.86
531.46	36648.11
531.63	36692.58
531.80	36919.61
531.97	36921.95
532.14	37095.15
532.31	36776.84
532.48	37024.93
532.65	37106.85
532.82	36905.57
532.99	37516.45
533.16	37163.03
533.33	37397.08
533.50	37191.11
533.67	37287.07
533.84	37151.32
534.01	37469.64
534.18	37280.05
534.35	37551.56
534.52	37467.30
534.69	37645.18
534.86	37703.69
535.03	37263.67
535.20	38075.84
535.37	37996.26
535.54	37968.17
535.71	37862.85
535.88	37673.26
536.05	37982.21
536.22	38220.95
536.38	37949.45
536.55	38122.65
536.72	38141.37
536.89	38059.45
537.06	38323.93
537.23	38321.59
537.40	38134.35
537.57	38188.18
537.74	38443.30
537.91	38590.75
538.08	38682.03
538.25	38438.62
538.42	38508.83
538.59	38859.91
538.75	38319.25
538.92	38752.25
539.09	38499.47
539.26	39173.55
539.43	38785.02
539.60	38855.23
539.77	38483.09
539.94	38492.45
540.11	39044.82
540.28	38967.58
540.44	38913.75
540.61	38967.58
540.78	39288.23
540.95	39112.69
541.12	38930.13
541.29	39122.05
541.46	39232.06
541.62	39051.84
541.79	39636.97
541.96	38829.49
542.13	39555.05
542.30	39442.71
542.47	39580.80
542.63	39438.03
542.80	39536.33
542.97	39952.94
543.14	40407.01
543.31	39894.43
543.48	40196.36
543.64	40210.40
543.81	40084.01
543.98	40252.53
544.15	39765.70
544.32	40238.49
544.48	40739.36
544.65	40774.47
544.82	39922.52
544.99	39936.56
545.16	39821.87
545.32	39859.32
545.49	41006.19
545.66	40727.66
545.83	40673.83
546.00	40392.97
546.16	40865.75
546.33	40210.40
546.50	39880.39
546.67	40961.72
546.83	40470.20
547.00	40488.93
547.17	40765.11
547.34	40402.33
547.50	40840.01
547.67	41380.67
547.84	41104.49
548.00	41340.88
548.17	41233.22
548.34	41064.70
548.51	41193.43
548.67	40907.88
548.84	41312.80
549.01	40999.16
549.18	41177.04
549.34	41134.92
549.51	41317.48
549.68	41448.55
549.84	41427.48
550.01	41811.33
550.18	41219.17
550.34	41420.46
550.51	41455.57
550.68	41132.57
550.84	41254.28
551.01	41446.21
551.18	41808.99
551.34	41720.05
551.51	41607.70
551.68	41776.22
551.84	41895.59
552.01	41097.47
552.18	41696.64
552.34	41069.38
552.51	41806.65
552.68	41610.04
552.84	42256.03
553.01	42281.78
553.18	42204.54
553.34	42431.57
553.51	41909.63
553.67	42143.69
553.84	42347.31
554.01	42087.51
554.17	42520.51
554.34	42508.81
554.51	42213.90
554.67	42440.93
554.84	42218.58
555.00	41654.51
555.17	42181.13
555.33	42380.08
555.50	42822.44
555.67	42174.11
555.83	42686.69
556.00	42454.98
556.16	42712.44
556.33	42808.40
556.50	42501.79
556.66	42536.90
556.83	42412.85
556.99	42646.90
557.16	42834.14
557.32	42927.77
557.49	42536.90
557.65	42139.00
557.82	42838.83
557.98	42756.91
558.15	42763.93
558.32	42319.23
558.48	43201.61
558.65	42831.80
558.81	43253.10
558.98	42988.62
559.14	43012.02
559.31	42831.80
559.47	42941.81
559.64	43028.41
559.80	43182.88
559.97	43243.74
560.13	42646.90
560.30	42852.87
560.46	43054.15
560.63	43147.78
560.79	43150.12
560.96	43328.00
561.12	43210.97
561.29	43232.04
561.45	43040.11
561.61	43196.93
561.78	43182.88
561.94	43061.18
562.11	42745.20
562.27	43246.08
562.44	43115.01
562.60	43386.51
562.77	43753.97
562.93	43323.32
563.10	43515.24
563.26	42918.40
563.42	43442.68
563.59	43016.71
563.75	43395.87
563.92	43524.60
564.08	43576.09
564.24	43702.48
564.41	43845.26
564.57	43164.16
564.74	43522.26
564.90	43964.62
565.07	43646.31
565.23	43508.22
565.39	43538.65
565.56	43739.93
565.72	43325.66
565.88	43793.76
566.05	43957.60
566.21	43550.35
566.38	43854.62
566.54	44002.07
566.70	43536.30
566.87	43763.34
567.03	43676.74
567.19	43627.59
567.36	44053.56
567.52	43421.62
567.68	43927.17
567.85	43711.84
568.01	43910.79
568.17	43887.39
568.34	43718.87
568.50	43786.74
568.66	43391.19
568.83	43924.83
568.99	43805.47
569.15	43622.90
569.32	43779.72
569.48	43681.42
569.64	43992.71
569.81	44355.49
569.97	43744.61
570.13	44095.69
570.30	44126.12
570.46	43508.22
570.62	43758.66
570.78	43367.79
570.95	44002.07
571.11	44229.10
571.27	43992.71
571.43	43578.43
571.60	44168.25
571.76	44231.44
571.92	44226.76
572.09	43782.06
572.25	43894.41
572.41	43880.36
572.57	44147.18
572.74	44502.95
572.90	44126.12
573.06	43840.57
573.22	43765.68
573.38	44088.67
573.55	43423.96
573.71	44128.46
573.87	44245.49
574.03	44105.06
574.20	43428.64
574.36	43454.39
574.52	44196.34
574.68	44259.53
574.84	44561.46
575.01	44355.49
575.17	44266.55
575.33	43772.70
575.49	43793.76
575.65	44315.70
575.82	44474.86
575.98	44172.93
576.14	44252.51
576.30	44023.14
576.46	44065.27
576.62	44006.75
576.79	43882.70
576.95	43384.17
577.11	43852.28
577.27	44182.29
577.43	43973.98
577.59	44175.27
577.75	43835.89
577.92	44072.29
578.08	43943.56
578.24	44095.69
578.40	44376.56
578.56	43842.92
578.72	43847.60
578.88	44299.32
579.04	44465.50
579.21	44451.45
579.37	44509.97
579.53	44109.74
579.69	43793.76
579.85	44285.28
580.01	44168.25
580.17	44037.18
580.33	44435.07
580.49	44271.23
580.65	44289.96
580.82	44306.34
580.98	44390.60
581.14	44341.45
581.30	44776.79
581.46	44296.98
581.62	44165.91
581.78	44229.10
581.94	44533.37
582.10	44091.01
582.26	44137.82
582.42	44617.63
582.58	44102.71
582.74	43861.64
582.90	44205.70
583.06	44594.23
583.22	44313.36
583.38	44528.69
583.54	44636.36
583.70	43976.33
583.86	44060.58
584.02	43901.43
584.18	44608.27
584.34	44311.02
584.50	44261.87
584.66	44194.00
584.82	43973.98
584.98	44315.70
585.14	44233.78
585.30	43999.73
585.46	44598.91
585.62	44491.24
585.78	44215.06
585.94	43873.34
586.10	44409.32
586.26	44105.06
586.42	44226.76
586.58	44858.71
586.74	44425.71
586.90	44634.02
587.06	43791.42
587.22	44507.63
587.38	44287.62
587.54	44542.74
587.70	44641.04
587.86	44556.78
588.02	44282.94
588.18	44739.34
588.34	44666.78
588.49	44203.36
588.65	44058.24
588.81	43744.61
588.97	44521.67
589.13	44133.14
589.29	44477.20
589.45	44184.63
589.61	44580.18
589.77	44638.70
589.93	44479.54
590.08	45188.72
590.24	44514.65
