SpectraSuite Data File
++++++++++++++++++++++++++++++++++++
Date: Fri Oct 25 11:25:53 EDT 2013
User: price-jones
Dark Spectrum Present: No
Reference Spectrum Present: No
Number of Sampled Component Spectra: 1
Spectrometers: USB2+H05261
Integration Time (usec): 100000 (USB2+H05261)
Spectra Averaged: 1 (USB2+H05261)
Boxcar Smoothing: 0 (USB2+H05261)
Correct for Electrical Dark: No (USB2+H05261)
Strobe/Lamp Enabled: No (USB2+H05261)
Correct for Detector Non-linearity: No (USB2+H05261)
Correct for Stray Light: No (USB2+H05261)
Number of Pixels in Processed Spectrum: 2048
>>>>>Begin Processed Spectral Data<<<<<
365.73	238.73
365.92	238.73
366.12	238.73
366.32	67.88
366.52	121.71
366.72	124.05
366.91	105.32
367.11	191.92
367.31	102.98
367.51	152.13
367.70	180.22
367.90	184.90
368.10	128.73
368.30	131.07
368.49	79.58
368.69	145.11
368.89	173.20
369.09	259.80
369.28	196.60
369.48	126.39
369.68	161.50
369.87	163.84
370.07	168.52
370.27	196.60
370.47	390.87
370.66	634.29
370.86	660.03
371.06	664.71
371.25	709.18
371.45	615.56
371.65	685.78
371.84	727.91
372.04	624.92
372.24	674.07
372.44	631.94
372.63	765.36
372.83	753.65
373.03	793.44
373.22	758.33
373.42	727.91
373.62	826.21
373.81	795.78
374.01	863.66
374.21	898.77
374.40	875.36
374.60	816.85
374.79	748.97
374.99	744.29
375.19	938.55
375.38	856.64
375.58	856.64
375.78	910.47
375.97	898.77
376.17	858.98
376.37	882.38
376.56	830.89
376.76	821.53
376.95	856.64
377.15	919.83
377.35	873.02
377.54	922.17
377.74	849.61
377.93	866.00
378.13	947.92
378.33	896.43
378.52	936.21
378.72	915.15
378.91	936.21
379.11	994.73
379.31	931.53
379.50	1032.18
379.70	961.96
379.89	1001.75
380.09	856.64
380.28	999.41
380.48	1029.84
380.68	1001.75
380.87	873.02
381.07	1043.88
381.26	1053.24
381.46	1029.84
381.65	1081.33
381.85	1181.97
382.04	1020.47
382.24	1149.20
382.43	954.94
382.63	1071.97
382.83	1081.33
383.02	1053.24
383.22	1200.69
383.41	1142.18
383.61	1144.52
383.80	1111.75
384.00	1170.27
384.19	1137.50
384.39	1121.12
384.58	1123.46
384.78	1135.16
384.97	1020.47
385.17	1217.08
385.36	1088.35
385.56	1104.73
385.75	1193.67
385.95	1144.52
386.14	1200.69
386.34	1177.29
386.53	1210.06
386.72	1153.88
386.92	1317.72
387.11	1282.61
387.31	1355.17
387.50	1174.95
387.70	1188.99
387.89	1301.34
388.09	1331.76
388.28	1327.08
388.48	1306.02
388.67	1252.19
388.86	1394.96
389.06	1348.15
389.25	1439.43
389.45	1345.81
389.64	1336.45
389.84	1306.02
390.03	1383.26
390.22	1418.36
390.42	1432.41
390.61	1409.00
390.81	1458.15
391.00	1439.43
391.19	1387.94
391.39	1390.28
391.58	1437.09
391.78	1364.53
391.97	1448.79
392.16	1490.92
392.36	1509.65
392.55	1547.09
392.75	1575.18
392.94	1486.24
393.13	1591.56
393.33	1495.60
393.52	1544.75
393.71	1584.54
393.91	1668.80
394.10	1530.71
394.29	1614.97
394.49	1577.52
394.68	1724.97
394.88	1664.12
395.07	1727.32
395.26	1743.70
395.46	1682.85
395.65	1715.61
395.84	1853.70
396.04	1750.72
396.23	1706.25
396.42	1781.15
396.62	1830.30
396.81	1706.25
397.00	1673.48
397.19	1764.76
397.39	1724.97
397.58	1778.81
397.77	1905.20
397.97	1811.57
398.16	1851.36
398.35	1928.60
398.55	1811.57
398.74	1952.01
398.93	1898.17
399.12	2008.18
399.32	1963.71
399.51	1914.56
399.70	2050.31
399.90	2019.88
400.09	1933.28
400.28	2057.33
400.47	1947.33
400.67	2125.21
400.86	2078.40
401.05	2040.95
401.24	2057.33
401.44	2099.46
401.63	2111.16
401.82	2090.10
402.01	2134.57
402.21	2090.10
402.40	2115.84
402.59	2228.19
402.78	2146.27
402.97	2214.15
403.17	2172.02
403.36	2270.32
403.55	2326.49
403.74	2324.15
403.93	2480.97
404.13	2317.13
404.32	2321.81
404.51	2354.58
404.70	2462.24
404.89	2450.54
405.09	2480.97
405.28	2490.33
405.47	2487.99
405.66	2464.58
405.85	2555.86
406.05	2502.03
406.24	2541.82
406.43	2640.12
406.62	2612.04
406.81	2647.15
407.00	2532.46
407.20	2626.08
407.39	2743.11
407.58	2677.57
407.77	2761.83
407.96	2747.79
408.15	2773.53
408.34	2864.82
408.54	2855.45
408.73	2904.60
408.92	2822.69
409.11	2906.95
409.30	2815.66
409.49	2946.73
409.68	2871.84
409.87	3061.42
410.07	2949.08
410.26	2970.14
410.45	2920.99
410.64	2972.48
410.83	3082.49
411.02	3082.49
411.21	3204.19
411.40	3176.11
411.59	3218.24
411.78	3148.02
411.98	3206.53
412.17	3173.77
412.36	3403.14
412.55	3410.16
412.74	3494.42
412.93	3332.92
413.12	3332.92
413.31	3555.27
413.50	3515.48
413.69	3478.04
413.88	3531.87
414.07	3428.88
414.26	3548.25
414.45	3625.49
414.64	3662.94
414.83	3782.31
415.02	3756.56
415.22	3686.34
415.41	3859.54
415.60	3852.52
415.79	3960.19
415.98	4140.41
416.17	4025.72
416.36	4093.60
416.55	4133.39
416.74	4177.86
416.93	3967.21
417.12	3976.57
417.31	4112.32
417.50	4280.84
417.69	4344.03
417.88	4224.67
418.07	4315.95
418.26	4337.01
418.45	4348.72
418.64	4627.24
418.83	4573.41
419.02	4353.40
419.21	4566.39
419.39	4517.23
419.58	4308.93
419.77	4381.48
419.96	4645.96
420.15	4521.92
420.34	4664.69
420.53	4744.27
420.72	4627.24
420.91	4652.98
421.10	4746.61
421.29	4589.79
421.48	4601.49
421.67	4858.95
421.86	4788.74
422.05	4856.61
422.24	4638.94
422.43	4753.63
422.61	4882.36
422.80	5008.75
422.99	4994.70
423.18	4936.19
423.37	4943.21
423.56	4999.38
423.75	4924.49
423.94	4865.97
424.13	4648.30
424.32	4774.69
424.50	5025.13
424.69	5184.29
424.88	5158.54
425.07	4880.02
425.26	4741.93
425.45	4889.38
425.64	4999.38
425.83	4894.06
426.01	5067.26
426.20	5015.77
426.39	5067.26
426.58	5102.37
426.77	4999.38
426.96	5186.63
427.15	5036.83
427.33	5107.05
427.52	5193.65
427.71	5418.34
427.90	5282.59
428.09	5298.97
428.28	5383.23
428.46	5420.68
428.65	5207.69
428.84	5647.71
429.03	5509.62
429.22	5392.59
429.40	5530.69
429.59	5439.40
429.78	5226.42
429.97	5219.39
430.16	5593.88
430.34	5671.12
430.53	5664.10
430.72	5507.28
430.91	5657.07
431.10	5563.45
431.28	5753.04
431.47	5769.42
431.66	5729.63
431.85	5902.83
432.03	5926.24
432.22	5944.96
432.41	5968.37
432.60	5977.73
432.79	6005.81
432.97	5872.40
433.16	5806.87
433.35	5970.71
433.54	6010.50
433.72	6127.52
433.91	6237.53
434.10	6164.97
434.28	6167.31
434.47	6293.70
434.66	6253.91
434.85	6410.73
435.03	6356.90
435.22	6324.13
435.41	6438.81
435.59	6291.36
435.78	6450.52
435.97	6380.30
436.16	6317.11
436.34	6511.37
436.53	6434.13
436.72	6581.59
436.90	6492.65
437.09	6665.85
437.28	6523.07
437.46	6511.37
437.65	6677.55
437.84	6593.29
438.02	6726.70
438.21	6855.43
438.40	6803.94
438.58	7068.42
438.77	7054.37
438.96	6848.41
439.14	7166.72
439.33	7197.15
439.52	7286.09
439.70	7232.26
439.89	7199.49
440.08	7321.20
440.26	7548.23
440.45	7288.43
440.63	7412.48
440.82	7513.12
441.01	7552.91
441.19	7653.55
441.38	7831.43
441.57	7705.04
441.75	7747.17
441.94	8063.15
442.12	7911.01
442.31	7985.91
442.50	8006.97
442.68	7962.50
442.87	8030.38
443.05	8138.04
443.24	8292.52
443.43	8098.25
443.61	8358.05
443.80	8437.63
443.98	7808.03
444.17	7693.34
444.35	8079.53
444.54	8421.25
444.73	8266.77
444.91	8264.43
445.10	8276.13
445.28	8107.62
445.47	8395.50
445.65	8226.98
445.84	8428.27
446.02	8470.40
446.21	8533.59
446.39	8285.50
446.58	8557.00
446.77	8531.25
446.95	8301.88
447.14	8404.86
447.32	8753.60
447.51	8374.44
447.69	8444.65
447.88	8772.33
448.06	8477.42
448.25	8535.93
448.43	8554.66
448.62	8533.59
448.80	8353.37
448.99	8713.81
449.17	8875.31
449.36	8837.86
449.54	8702.11
449.73	8961.91
449.91	8837.86
450.10	9210.01
450.28	9287.25
450.46	9104.68
450.65	9081.28
450.83	8884.67
451.02	9067.24
451.20	9118.73
451.39	9130.43
451.57	9121.07
451.76	8945.53
451.94	9242.78
452.13	9294.27
452.31	9453.42
452.49	9224.05
452.68	9202.99
452.86	9490.87
453.05	9355.12
453.23	9437.04
453.42	9394.91
453.60	9476.83
453.78	9631.30
453.97	9437.04
454.15	9401.93
454.34	9394.91
454.52	9591.52
454.70	9708.54
454.89	9762.37
455.07	9811.53
455.26	10066.64
455.44	10045.58
455.62	9989.41
455.81	10008.13
455.99	9958.98
456.17	10066.64
456.36	10207.08
456.54	10291.34
456.73	10260.91
456.91	10279.63
457.09	10441.13
457.28	10494.96
457.46	10181.33
457.64	10459.85
457.83	10476.24
458.01	10691.57
458.19	10607.31
458.38	10583.90
458.56	10752.42
458.74	10679.86
458.93	10640.08
459.11	10939.66
459.29	10602.63
459.48	10661.14
459.66	10754.76
459.84	10937.32
460.03	11012.22
460.21	10864.77
460.39	11063.71
460.57	10988.82
460.76	11180.74
460.94	10939.66
461.12	11143.29
461.31	11225.21
461.49	11119.89
461.67	11293.08
461.85	11297.77
462.04	11419.47
462.22	11662.89
462.40	11492.03
462.59	11386.71
462.77	11564.59
462.95	11800.98
463.13	11559.91
463.32	11520.12
463.50	11604.38
463.68	11964.82
463.86	11822.05
464.05	11672.25
464.23	11473.31
464.41	11955.46
464.59	11531.82
464.78	12290.15
464.96	11943.75
465.14	11880.56
465.32	11882.90
465.50	12121.63
465.69	12163.76
465.87	12166.10
466.05	12093.55
466.23	12353.35
466.41	12266.75
466.60	12545.27
466.78	12248.02
466.96	12159.08
467.14	12156.74
467.32	12355.69
467.51	12236.32
467.69	12393.14
467.87	12360.37
468.05	12601.44
468.23	12348.67
468.41	12538.25
468.60	12671.66
468.78	12772.30
468.96	12468.03
469.14	12996.99
469.32	13029.76
469.50	12650.60
469.69	13062.53
469.87	12926.78
470.05	13116.36
470.23	13167.85
470.41	13308.29
470.59	13343.39
470.77	13186.58
470.95	13191.26
471.14	13542.34
471.32	13259.13
471.50	13764.69
471.68	13659.37
471.86	13460.42
472.04	13858.31
472.22	13958.96
472.40	13694.47
472.58	13961.30
472.77	14064.28
472.95	13970.66
473.13	14703.25
473.31	14153.22
473.49	13984.70
473.67	14057.26
473.85	14317.06
474.03	14759.42
474.21	14483.24
474.39	14738.35
474.57	14565.15
474.75	14714.95
474.93	14951.34
475.12	14918.57
475.30	15169.01
475.48	15117.52
475.66	15672.23
475.84	15089.43
476.02	15569.24
476.20	15276.68
476.38	15660.52
476.56	16049.05
476.74	16100.55
476.92	15761.17
477.10	15768.19
477.28	16407.16
477.46	16065.44
477.64	16058.42
477.82	16606.10
478.00	16762.92
478.18	16723.13
478.36	16868.24
478.54	17282.52
478.72	16912.71
478.90	17338.69
479.08	17778.71
479.26	17642.96
479.44	17855.95
479.62	17987.02
479.80	18003.40
479.98	18087.66
480.16	18843.65
480.34	18326.39
480.52	18623.64
480.70	18738.33
480.88	18389.59
481.06	18714.92
481.24	18934.93
481.41	19300.06
481.59	19314.10
481.77	19499.00
481.95	19494.32
482.13	19761.14
482.31	19817.32
482.49	20285.42
482.67	20388.41
482.85	20294.79
483.03	20395.43
483.21	20718.42
483.39	20938.43
483.57	20905.66
483.74	21254.40
483.92	21418.24
484.10	21120.99
484.28	21539.95
484.46	21876.99
484.64	22649.36
484.82	22024.44
485.00	22204.66
485.18	22836.61
485.35	22869.37
485.53	22663.41
485.71	23206.41
485.89	23304.71
486.07	23412.38
486.25	23264.92
486.43	23840.70
486.61	23885.17
486.78	24147.31
486.96	24280.72
487.14	24720.74
487.32	24549.88
487.50	25027.35
487.68	25427.58
487.85	24800.32
488.03	25497.80
488.21	25869.94
488.39	25907.39
488.57	25916.75
488.75	26176.55
488.92	26450.39
489.10	26761.69
489.28	26235.06
489.46	27154.90
489.64	27044.89
489.81	27850.03
489.99	27690.88
490.17	27882.80
490.35	28182.39
490.53	28353.25
490.70	28187.07
490.88	28271.33
491.06	28713.69
491.24	28762.84
491.41	28931.36
491.59	29200.52
491.77	29347.98
491.95	29855.87
492.13	29572.67
492.30	30024.39
492.48	30064.18
492.66	29975.24
492.84	30415.26
493.01	30728.89
493.19	30237.38
493.37	30728.89
493.54	31463.82
493.72	31615.96
493.90	31480.21
494.08	31475.52
494.25	31878.10
494.43	31971.72
494.61	32053.64
494.79	32437.48
494.96	32257.26
495.14	32938.36
495.32	33149.01
495.49	33156.03
495.67	32978.15
495.85	33605.41
496.02	33907.34
496.20	34354.38
496.38	34085.22
496.55	34293.53
496.73	34763.98
496.91	34600.14
497.09	34834.19
497.26	34660.99
497.44	34972.28
497.62	35229.74
497.79	35765.73
497.97	35433.37
498.14	36044.25
498.32	36175.32
498.50	35761.05
498.67	36428.10
498.85	36657.47
499.03	36676.19
499.20	36917.27
499.38	36966.42
499.56	36699.60
499.73	36727.69
499.91	37031.96
500.08	37628.79
500.26	37165.37
500.44	37429.85
500.61	37455.59
500.79	37574.96
500.97	38022.00
501.14	38555.64
501.32	38614.16
501.49	38651.61
501.67	38906.73
501.84	38824.81
502.02	38742.89
502.20	38986.30
502.37	39440.37
502.55	39086.95
502.72	39370.15
502.90	39363.13
503.07	39246.10
503.25	39842.94
503.43	39749.32
503.60	40034.86
503.78	40126.14
503.95	40383.60
504.13	40832.99
504.30	40875.12
504.48	40301.68
504.65	40601.27
504.83	41420.46
505.01	40985.12
505.18	40877.46
505.36	41429.82
505.53	41268.33
505.71	41729.41
505.88	41860.48
506.06	41778.56
506.23	42094.53
506.41	41872.18
506.58	42501.79
506.76	42344.97
506.93	42089.85
507.11	42478.38
507.28	42792.01
507.46	42635.20
507.63	43278.85
507.81	43182.88
507.98	43049.47
508.16	43374.81
508.33	43093.94
508.50	43882.70
508.68	43512.90
508.85	43842.92
509.03	43847.60
509.20	43983.35
509.38	44460.82
509.55	44418.69
509.73	44442.09
509.90	44470.18
510.08	44364.85
510.25	44701.89
510.42	44610.61
510.60	45071.70
510.77	44926.58
510.95	45123.19
511.12	45074.04
511.30	45373.63
511.47	45244.90
511.64	45612.36
511.82	45560.87
511.99	45460.23
512.17	45956.42
512.34	45591.30
512.51	46281.75
512.69	46607.09
512.86	46230.26
513.04	46419.84
513.21	46515.81
513.38	46438.57
513.56	47004.98
513.73	46733.48
513.90	47096.26
514.08	46806.03
514.25	47356.06
514.43	47351.38
514.60	47587.77
514.77	47171.16
514.95	47613.52
515.12	47636.92
515.29	47454.36
515.47	47721.18
515.64	48018.43
515.81	48130.78
515.99	48362.49
516.16	48664.42
516.33	48421.00
516.51	48538.03
516.68	48435.05
516.85	48570.80
517.03	49017.84
517.20	49184.02
517.37	48739.32
517.54	48715.91
517.72	48509.94
517.89	48739.32
518.06	49071.67
518.24	49111.46
518.41	49514.03
518.58	49453.18
518.75	49495.31
518.93	49813.62
519.10	49177.00
519.27	49741.06
519.45	49804.26
519.62	50131.93
519.79	50157.68
519.96	50340.24
520.14	50227.90
520.31	49797.24
520.48	50525.14
520.65	50295.77
520.83	50688.98
521.00	50576.64
521.17	50822.39
521.34	50927.72
521.52	51019.00
521.69	50642.17
521.86	51014.32
522.03	50946.44
522.20	51533.92
522.38	51386.46
522.55	51299.86
522.72	51304.54
522.89	51082.19
523.07	51725.84
523.24	51320.93
523.41	51831.16
523.58	51608.81
523.75	51877.97
523.92	51627.54
524.10	52196.29
524.27	52055.85
524.44	52325.02
524.61	52135.43
524.78	51985.64
524.96	52336.72
525.13	52198.63
525.30	52420.98
525.47	52545.03
525.64	52437.36
525.81	52795.46
525.98	52530.98
526.16	52711.20
526.33	52495.88
526.50	53240.17
526.67	52725.25
526.84	53010.79
527.01	52729.93
527.18	52708.86
527.36	52992.07
527.53	52928.87
527.70	53401.66
527.87	53127.82
528.04	53066.97
528.21	53495.28
528.38	53282.30
528.55	53521.03
528.72	53343.15
528.89	53504.65
529.07	53389.96
529.24	53291.66
529.41	53612.31
529.58	53626.35
529.75	54014.88
529.92	53762.11
530.09	53979.78
530.26	53888.49
530.43	54080.42
530.60	53853.39
530.77	53918.92
530.94	54028.93
531.11	54092.12
531.28	54190.42
531.46	53939.99
531.63	53862.75
531.80	54176.38
531.97	54305.11
532.14	54365.96
532.31	54571.93
532.48	54522.78
532.65	54546.18
532.82	54585.97
532.99	54590.66
533.16	54658.53
533.33	54948.76
533.50	55133.66
533.67	54930.03
533.84	54658.53
534.01	54873.86
534.18	54808.32
534.35	55250.69
534.52	55042.38
534.69	55313.88
534.86	55021.31
535.03	54981.52
535.20	55531.55
535.37	55262.39
535.54	55442.61
535.71	55128.98
535.88	55334.95
536.05	55421.55
536.22	55512.83
536.38	55447.29
536.55	55718.79
536.72	55480.06
536.89	55512.83
537.06	55671.98
537.23	55725.81
537.40	55554.96
537.57	55957.53
537.74	55753.90
537.91	56074.55
538.08	55931.78
538.25	55664.96
538.42	55915.40
538.59	56126.05
538.75	55994.98
538.92	56296.91
539.09	56350.74
539.26	56182.22
539.43	56076.90
539.60	56378.82
539.77	56238.39
539.94	56589.47
540.11	56563.73
540.28	56631.60
540.44	56341.38
540.61	56439.68
540.78	56339.04
540.95	56303.93
541.12	56442.02
541.29	56547.34
541.46	56549.68
541.62	56772.03
541.79	56736.93
541.96	56390.53
542.13	56432.66
542.30	56729.90
542.47	57024.81
542.63	56860.97
542.80	56821.19
542.97	57153.54
543.14	57176.95
543.31	57179.29
543.48	57080.98
543.64	57326.74
543.81	57162.90
543.98	57563.14
544.15	57268.23
544.32	57375.89
544.48	57647.39
544.65	57261.21
544.82	57399.30
544.99	57357.17
545.16	57717.61
545.32	57181.63
545.49	57661.44
545.66	57907.19
545.83	57710.59
546.00	57719.95
546.16	57769.10
546.33	57553.77
546.50	57528.03
546.67	57682.50
546.83	57249.50
547.00	57827.62
547.17	57661.44
547.34	57928.26
547.50	57991.45
547.67	58113.16
547.84	58089.76
548.00	58052.31
548.17	58232.53
548.34	57958.69
548.51	58202.10
548.67	58136.57
548.84	58056.99
549.01	58019.54
549.18	58246.57
549.34	58372.96
549.51	58316.79
549.68	58314.45
549.84	58218.49
550.01	58532.12
550.18	58466.58
550.34	58284.02
550.51	58733.40
550.68	58548.50
550.84	58262.96
551.01	58522.76
551.18	58590.63
551.34	58344.87
551.51	58501.69
551.68	58618.72
551.84	58693.61
552.01	58384.66
552.18	58609.35
552.34	58389.34
552.51	58674.89
552.68	58562.54
552.84	58660.85
553.01	59084.48
553.18	58880.86
553.34	58862.13
553.51	58576.59
553.67	58616.38
553.84	59011.93
554.01	58770.85
554.17	58969.80
554.34	59016.61
554.51	58672.55
554.67	59213.21
554.84	59075.12
555.00	59016.61
555.17	59004.91
555.33	58960.44
555.50	58969.80
555.67	59105.55
555.83	59018.95
556.00	59100.87
556.16	59388.75
556.33	59267.05
556.50	59400.46
556.66	59295.13
556.83	59262.36
556.99	59320.88
557.16	59592.38
557.32	59482.37
557.49	59409.82
557.65	59346.62
557.82	59360.67
557.98	59269.39
558.15	59482.37
558.32	59508.12
558.48	59409.82
558.65	59597.06
558.81	59571.32
558.98	59632.17
559.14	59634.51
559.31	59716.43
559.47	59529.19
559.64	59522.16
559.80	59657.91
559.97	59723.45
560.13	59707.07
560.30	59669.62
560.46	59627.49
560.63	59906.01
560.79	59845.16
560.96	59831.11
561.12	59711.75
561.29	59810.05
561.45	59887.29
561.61	59683.66
561.78	59791.33
561.94	59840.48
562.11	59758.56
562.27	60037.08
562.44	59976.23
562.60	60053.47
562.77	59999.63
562.93	59646.21
563.10	60233.69
563.26	59950.48
563.42	60186.88
563.59	60009.00
563.75	59952.82
563.92	60076.87
564.08	59943.46
564.24	60097.94
564.41	60081.55
564.57	60097.94
564.74	59985.59
564.90	60156.45
565.07	60037.08
565.23	60156.45
565.39	59980.91
565.56	60322.63
565.72	60210.28
565.88	60074.53
566.05	60135.38
566.21	60109.64
566.38	60240.71
566.54	60250.07
566.70	60313.26
566.87	60381.14
567.03	60072.19
567.19	60374.12
567.36	60210.28
567.52	60308.58
567.68	60423.27
567.85	60395.18
568.01	60289.86
568.17	60364.76
568.34	60355.39
568.50	60331.99
568.66	60144.75
568.83	60474.76
568.99	60282.84
569.15	60259.43
569.32	60399.86
569.48	60357.74
569.64	60598.81
569.81	60603.49
569.97	60245.39
570.13	60430.29
570.30	60205.60
570.46	60376.46
570.62	60374.12
570.78	60411.57
570.95	60491.15
571.11	60612.85
571.27	60486.46
571.43	60474.76
571.60	60683.07
571.76	60589.45
571.92	60556.68
572.09	60692.43
572.25	60669.03
572.41	60650.30
572.57	60444.33
572.74	60720.52
572.90	60519.23
573.06	60367.10
573.22	60736.90
573.38	60612.85
573.55	60657.32
573.71	60701.79
573.87	60636.26
574.03	60500.51
574.20	60952.23
574.36	60666.69
574.52	60891.38
574.68	60706.47
574.84	60774.35
575.01	60928.83
575.17	60706.47
575.33	60533.28
575.49	60734.56
575.65	60676.05
575.82	60795.42
575.98	60823.50
576.14	60811.80
576.30	60781.37
576.46	60736.90
576.62	60692.43
576.79	60722.86
576.95	60755.63
577.11	60832.86
577.27	60753.29
577.43	60987.34
577.59	60680.73
577.75	60790.73
577.92	60626.90
578.08	60521.57
578.24	60772.01
578.40	60931.17
578.56	60942.87
578.72	60865.63
578.88	60851.59
579.04	61167.56
579.21	60879.67
579.37	60982.66
579.53	60980.32
579.69	60802.44
579.85	60701.79
580.01	60769.67
580.17	60821.16
580.33	60919.46
580.49	60804.78
580.65	60938.19
580.82	60748.60
580.98	60884.36
581.14	60926.49
581.30	60931.17
581.46	60935.85
581.62	61006.06
581.78	60926.49
581.94	60982.66
582.10	60694.77
582.26	60931.17
582.42	60863.29
582.58	60980.32
582.74	60720.52
582.90	60961.59
583.06	60886.70
583.22	60711.16
583.38	60898.40
583.54	60952.23
583.70	61071.60
583.86	61162.88
584.02	60764.99
584.18	61151.18
584.34	60912.44
584.50	60828.18
584.66	60975.64
584.82	60910.10
584.98	61329.06
585.14	61020.11
585.30	61031.81
585.46	60954.57
585.62	60839.89
585.78	61006.06
585.94	60790.73
586.10	61001.38
586.26	61031.81
586.42	61120.75
586.58	61020.11
586.74	61099.68
586.90	61111.39
587.06	61003.72
587.22	60961.59
587.38	60905.42
587.54	61092.66
587.70	61446.08
587.86	61013.08
588.02	60917.12
588.18	61148.84
588.34	60903.08
