SpectraSuite Data File
++++++++++++++++++++++++++++++++++++
Date: Fri Oct 25 10:43:42 EDT 2013
User: price-jones
Dark Spectrum Present: No
Reference Spectrum Present: No
Number of Sampled Component Spectra: 1
Spectrometers: USB2+H05261
Integration Time (usec): 100000 (USB2+H05261)
Spectra Averaged: 1 (USB2+H05261)
Boxcar Smoothing: 0 (USB2+H05261)
Correct for Electrical Dark: No (USB2+H05261)
Strobe/Lamp Enabled: No (USB2+H05261)
Correct for Detector Non-linearity: No (USB2+H05261)
Correct for Stray Light: No (USB2+H05261)
Number of Pixels in Processed Spectrum: 2048
>>>>>Begin Processed Spectral Data<<<<<
365.73	208.31
365.92	208.31
366.12	208.31
366.32	23.41
366.52	30.43
366.72	128.73
366.91	53.83
367.11	0.00
367.31	14.04
367.51	4.68
367.70	0.00
367.90	77.24
368.10	23.41
368.30	102.98
368.49	0.00
368.69	77.24
368.89	16.38
369.09	79.58
369.28	67.88
369.48	2.34
369.68	84.26
369.87	88.94
370.07	70.22
370.27	173.20
370.47	252.78
370.66	383.85
370.86	407.25
371.06	458.74
371.25	533.64
371.45	479.81
371.65	571.09
371.84	414.27
372.04	407.25
372.24	482.15
372.44	465.77
372.63	538.32
372.83	503.22
373.03	482.15
373.22	507.90
373.42	596.84
373.62	498.53
373.81	512.58
374.01	587.47
374.21	606.20
374.40	571.09
374.60	571.09
374.79	540.66
374.99	571.09
375.19	638.97
375.38	615.56
375.58	631.94
375.78	573.43
375.97	615.56
376.17	638.97
376.37	634.29
376.56	608.54
376.76	650.67
376.95	617.90
377.15	622.58
377.35	629.60
377.54	650.67
377.74	601.52
377.93	660.03
378.13	608.54
378.33	688.12
378.52	653.01
378.72	622.58
378.91	748.97
379.11	617.90
379.31	606.20
379.50	613.22
379.70	739.61
379.89	791.10
380.09	706.84
380.28	550.03
380.48	720.88
380.68	657.69
380.87	744.29
381.07	716.20
381.26	746.63
381.46	690.46
381.65	678.76
381.85	660.03
382.04	744.29
382.24	676.41
382.43	751.31
382.63	683.44
382.83	784.08
383.02	662.37
383.22	660.03
383.41	720.88
383.61	856.64
383.80	793.44
384.00	877.70
384.19	779.40
384.39	779.40
384.58	793.44
384.78	795.78
384.97	814.51
385.17	889.40
385.36	793.44
385.56	814.51
385.75	828.55
385.95	830.89
386.14	903.45
386.34	847.27
386.53	861.32
386.72	844.93
386.92	903.45
387.11	854.30
387.31	915.15
387.50	873.02
387.70	945.58
387.89	842.59
388.09	905.79
388.28	926.85
388.48	814.51
388.67	992.39
388.86	1034.52
389.06	983.02
389.25	1029.84
389.45	999.41
389.64	1046.22
389.84	1022.81
390.03	1018.13
390.22	994.73
390.42	1008.77
390.61	1008.77
390.81	1025.15
391.00	1076.65
391.19	1034.52
391.39	997.07
391.58	1008.77
391.78	971.32
391.97	1125.80
392.16	990.05
392.36	1032.18
392.55	1144.52
392.75	1022.81
392.94	1018.13
393.13	997.07
393.33	1060.26
393.52	1048.56
393.71	1188.99
393.91	1139.84
394.10	1142.18
394.29	1200.69
394.49	1135.16
394.68	1146.86
394.88	1177.29
395.07	1221.76
395.26	1338.79
395.46	1135.16
395.65	1191.33
395.84	1165.59
396.04	1224.10
396.23	1296.66
396.42	1186.65
396.62	1149.20
396.81	1242.82
397.00	1203.04
397.19	1270.91
397.39	1301.34
397.58	1275.59
397.77	1387.94
397.97	1341.13
398.16	1418.36
398.35	1427.73
398.55	1500.28
398.74	1549.43
398.93	1579.86
399.12	1544.75
399.32	1451.13
399.51	1479.22
399.70	1502.62
399.90	1533.05
400.09	1654.76
400.28	1582.20
400.47	1626.67
400.67	1734.34
400.86	1743.70
401.05	1736.68
401.24	1666.46
401.44	1657.10
401.63	1727.32
401.82	1743.70
402.01	1746.04
402.21	1753.06
402.40	1757.74
402.59	1795.19
402.78	1732.00
402.97	1853.70
403.17	1820.94
403.36	1830.30
403.55	1816.26
403.74	1865.41
403.93	1806.89
404.13	1760.08
404.32	1884.13
404.51	1886.47
404.70	1966.05
404.89	1893.49
405.09	1982.43
405.28	1982.43
405.47	1977.75
405.66	1856.04
405.85	1944.99
406.05	1839.66
406.24	2031.58
406.43	1975.41
406.62	2099.46
406.81	2115.84
407.00	2087.76
407.20	2106.48
407.39	2179.04
407.58	2200.10
407.77	2092.44
407.96	2141.59
408.15	2197.76
408.34	2277.34
408.54	2253.94
408.73	2380.32
408.92	2354.58
409.11	2244.57
409.30	2279.68
409.49	2207.13
409.68	2165.00
409.87	2277.34
410.07	2314.79
410.26	2413.09
410.45	2328.83
410.64	2492.67
410.83	2438.84
411.02	2434.16
411.21	2560.55
411.40	2588.63
411.59	2693.96
411.78	2595.65
411.98	2452.88
412.17	2663.53
412.36	2605.02
412.55	2654.17
412.74	2759.49
412.93	2689.28
413.12	2595.65
413.31	2822.69
413.50	2775.88
413.69	2878.86
413.88	2902.26
414.07	2897.58
414.26	3030.99
414.45	3023.97
414.64	2820.35
414.83	3019.29
415.02	3141.00
415.22	3124.62
415.41	3152.70
415.60	3096.53
415.79	3145.68
415.98	3164.40
416.17	3262.71
416.36	3239.30
416.55	3234.62
416.74	3309.52
416.93	3222.92
417.12	3236.96
417.31	3400.80
417.50	3487.40
417.69	3449.95
417.88	3452.29
418.07	3428.88
418.26	3445.27
418.45	3407.82
418.64	3620.81
418.83	3592.72
419.02	3606.77
419.21	3522.51
419.39	3597.40
419.58	3604.42
419.77	3585.70
419.96	3716.77
420.15	3721.45
420.34	3637.19
420.53	3737.84
420.72	3784.65
420.91	3840.82
421.10	3932.10
421.29	3847.84
421.48	3840.82
421.67	3911.04
421.86	3878.27
422.05	3934.44
422.24	3740.18
422.43	3730.81
422.61	3861.88
422.80	3847.84
422.99	3873.59
423.18	4007.00
423.37	3997.64
423.56	4014.02
423.75	3974.23
423.94	3852.52
424.13	3705.07
424.32	3887.63
424.50	4121.68
424.69	4074.87
424.88	4173.18
425.07	3880.61
425.26	3794.01
425.45	3981.25
425.64	4039.76
425.83	3943.80
426.01	4044.45
426.20	4070.19
426.39	3974.23
426.58	4042.11
426.77	3878.27
426.96	4051.47
427.15	4138.07
427.33	4112.32
427.52	4084.23
427.71	4184.88
427.90	4109.98
428.09	4243.39
428.28	4154.45
428.46	4159.13
428.65	4091.26
428.84	4337.01
429.03	4332.33
429.22	4030.40
429.40	4194.24
429.59	4147.43
429.78	3967.21
429.97	3978.91
430.16	4023.38
430.34	4170.83
430.53	4208.28
430.72	4095.94
430.91	4367.44
431.10	4383.82
431.28	4638.94
431.47	4664.69
431.66	4774.69
431.85	4552.34
432.03	4568.73
432.22	4711.50
432.41	4566.39
432.60	4706.82
432.79	4718.52
432.97	4702.14
433.16	4809.80
433.35	4662.35
433.54	4645.96
433.72	4531.28
433.91	4704.48
434.10	4786.40
434.28	4891.72
434.47	4924.49
434.66	4968.96
434.85	5029.81
435.03	4889.38
435.22	4807.46
435.41	5233.44
435.59	5172.58
435.78	5210.03
435.97	5053.22
436.16	5146.84
436.34	5280.25
436.53	5151.52
436.72	5320.04
436.90	5034.49
437.09	5268.55
437.28	5170.24
437.46	5163.22
437.65	5266.21
437.84	5207.69
438.02	5233.44
438.21	5331.74
438.40	5036.83
438.58	5378.55
438.77	5359.83
438.96	5425.36
439.14	5729.63
439.33	5584.52
439.52	5720.27
439.70	5685.16
439.89	5668.78
440.08	5631.33
440.26	5902.83
440.45	5795.17
440.63	5893.47
440.82	6001.13
441.01	5832.62
441.19	6043.26
441.38	6113.48
441.57	6289.02
441.75	6125.18
441.94	6258.59
442.12	6132.20
442.31	6317.11
442.50	6424.77
442.68	6345.19
442.87	6300.72
443.05	6298.38
443.24	6574.56
443.43	6576.91
443.61	6502.01
443.80	6710.32
443.98	6427.11
444.17	6305.40
444.35	6670.53
444.54	6541.80
444.73	6387.32
444.91	6576.91
445.10	6537.12
445.28	6574.56
445.47	6399.02
445.65	6471.58
445.84	6558.18
446.02	6504.35
446.21	6494.99
446.39	6633.08
446.58	6792.23
446.77	6574.56
446.95	6710.32
447.14	6686.91
447.32	6757.13
447.51	6668.19
447.69	6623.72
447.88	6668.19
448.06	6799.26
448.25	6743.08
448.43	6862.45
448.62	6719.68
448.80	6803.94
448.99	6843.73
449.17	6981.82
449.36	6684.57
449.54	6977.14
449.73	6846.07
449.91	7187.79
450.10	7232.26
450.28	7339.92
450.46	7358.64
450.65	7246.30
450.83	7272.04
451.02	7117.57
451.20	7365.67
451.39	7201.83
451.57	7176.08
451.76	7363.33
451.94	7265.02
452.13	7325.88
452.31	7171.40
452.49	7068.42
452.68	7199.49
452.86	7148.00
453.05	7262.68
453.23	7307.15
453.42	7265.02
453.60	7321.20
453.78	7449.93
453.97	7269.70
454.15	7470.99
454.34	7489.71
454.52	7473.33
454.70	7520.14
454.89	7644.19
455.07	7707.38
455.26	7655.89
455.44	7784.62
455.62	7768.24
455.81	7803.35
455.99	7852.50
456.17	7838.45
456.36	7915.69
456.54	8009.31
456.73	8044.42
456.91	8219.96
457.09	8285.50
457.28	8334.65
457.46	7960.16
457.64	8152.09
457.83	8168.47
458.01	8060.80
458.19	8154.43
458.38	8184.85
458.56	8407.20
458.74	8234.00
458.93	8334.65
459.11	8334.65
459.29	8397.84
459.48	8369.76
459.66	8454.02
459.84	8381.46
460.03	8437.63
460.21	8535.93
460.39	8418.91
460.57	8545.30
460.76	8496.14
460.94	8526.57
461.12	8652.96
461.31	8849.57
461.49	8554.66
461.67	8372.10
461.85	9067.24
462.04	8861.27
462.22	9273.20
462.40	8929.14
462.59	8819.14
462.77	8938.51
462.95	9146.81
463.13	8933.82
463.32	8985.32
463.50	9057.87
463.68	9111.71
463.86	9104.68
464.05	9011.06
464.23	8875.31
464.41	9015.74
464.59	8924.46
464.78	9303.63
464.96	9219.37
465.14	9008.72
465.32	9312.99
465.50	9362.14
465.69	9160.86
465.87	9249.80
466.05	9235.75
466.23	9142.13
466.41	9057.87
466.60	9549.39
466.78	9137.45
466.96	9151.49
467.14	9317.67
467.32	9415.98
467.51	9565.77
467.69	9301.29
467.87	9345.76
468.05	9717.90
468.23	9612.58
468.41	9535.34
468.60	9671.09
468.78	9612.58
468.96	9577.47
469.14	9635.99
469.32	9846.63
469.50	9511.94
469.69	9877.06
469.87	9785.78
470.05	9715.56
470.23	9816.21
470.41	9781.10
470.59	10068.98
470.77	9764.72
470.95	10068.98
471.14	10090.05
471.32	10087.71
471.50	10420.06
471.68	10242.18
471.86	10298.36
472.04	10401.34
472.22	10490.28
472.40	10321.76
472.58	10480.92
472.77	10499.64
472.95	10714.97
473.13	10801.57
473.31	10640.08
473.49	10516.03
473.67	10740.72
473.85	10726.68
474.03	11126.91
474.21	10743.06
474.39	10995.84
474.57	11061.37
474.75	11047.33
474.93	11424.15
475.12	10857.75
475.30	11330.53
475.48	11358.62
475.66	11344.58
475.84	11171.38
476.02	11321.17
476.20	11522.46
476.38	11585.65
476.56	12105.25
476.74	11618.42
476.92	11714.38
477.10	11936.73
477.28	11887.58
477.46	12287.81
477.64	12287.81
477.82	12400.16
478.00	12545.27
478.18	12374.41
478.36	12589.74
478.54	12751.24
478.72	12917.42
478.90	12919.76
479.08	13315.31
479.26	13294.24
479.44	13020.40
479.62	13235.73
479.80	13317.65
479.98	13310.63
480.16	13881.72
480.34	13715.54
480.52	13795.12
480.70	13853.63
480.88	13778.73
481.06	13785.76
481.24	14132.15
481.41	14480.89
481.59	14244.50
481.77	14410.68
481.95	14600.26
482.13	14518.34
482.31	14438.76
482.49	14862.40
482.67	14951.34
482.85	15126.88
483.03	15185.40
483.21	15461.58
483.39	15094.11
483.57	15325.83
483.74	15620.74
483.92	15536.48
484.10	15632.44
484.28	16093.52
484.46	16032.67
484.64	16561.63
484.82	16210.55
485.00	16407.16
485.18	16650.57
485.35	16561.63
485.53	16322.90
485.71	16266.72
485.89	16318.22
486.07	16329.92
486.25	16699.72
486.43	16826.11
486.61	17099.95
486.78	17385.50
486.96	17252.09
487.14	17937.87
487.32	17621.89
487.50	18209.37
487.68	18167.24
487.85	18644.71
488.03	18560.45
488.21	18628.32
488.39	18848.33
488.57	18618.96
488.75	18951.32
488.92	19208.78
489.10	19286.01
489.28	19344.53
489.46	19803.27
489.64	19915.62
489.81	20027.96
489.99	20109.88
490.17	20379.04
490.35	20442.24
490.53	20088.82
490.70	20493.73
490.88	20638.84
491.06	20936.09
491.24	20585.01
491.41	20896.30
491.59	20863.54
491.77	20966.52
491.95	21177.17
492.13	21530.59
492.30	21516.54
492.48	21411.22
492.66	21729.53
492.84	21816.13
493.01	22441.06
493.19	21858.26
493.37	22473.82
493.54	22328.71
493.72	22574.47
493.90	22771.07
494.08	23211.09
494.25	22862.35
494.43	23124.49
494.61	23489.62
494.79	23618.35
494.96	23611.32
495.14	23559.83
495.32	23957.72
495.49	23847.72
495.67	24126.24
495.85	23901.55
496.02	24243.27
496.20	24465.62
496.38	24161.35
496.55	24875.21
496.73	25305.87
496.91	25022.67
497.09	25193.53
497.26	24915.00
497.44	25256.72
497.62	25467.37
497.79	25242.68
497.97	25745.89
498.14	25448.64
498.32	25773.98
498.50	25965.90
498.67	25802.07
498.85	26307.62
499.03	26169.53
499.20	26270.17
499.38	26466.78
499.56	26478.48
499.73	26464.44
499.91	26684.45
500.08	26644.66
500.26	26417.63
500.44	26691.47
500.61	26899.78
500.79	26506.57
500.97	26810.84
501.14	27473.21
501.32	27285.97
501.49	26972.33
501.67	26930.20
501.84	27672.15
502.02	27798.54
502.20	27861.74
502.37	27805.56
502.55	27917.91
502.72	28177.71
502.90	28112.17
503.07	27990.47
503.25	28273.67
503.43	27997.49
503.60	28114.52
503.78	28002.17
503.95	28400.06
504.13	28318.14
504.30	28924.34
504.48	28599.01
504.65	29001.58
504.83	28994.56
505.01	29392.45
505.18	28872.85
505.36	29371.38
505.53	29235.63
505.71	29785.66
505.88	29975.24
506.06	29556.28
506.23	29780.98
506.41	29806.72
506.58	29841.83
506.76	29748.21
506.93	30134.40
507.11	30050.14
507.28	30359.09
507.46	30045.46
507.63	29820.77
507.81	30792.09
507.98	30352.07
508.16	30206.95
508.33	30513.56
508.50	30951.24
508.68	30871.67
508.85	31384.24
509.03	31129.12
509.20	31119.76
509.38	31419.35
509.55	31152.53
509.73	31311.69
509.90	31103.38
510.08	31622.98
510.25	31665.11
510.42	31770.43
510.60	31995.12
510.77	31754.05
510.95	32332.16
511.12	31936.61
511.30	31924.91
511.47	32348.54
511.64	32437.48
511.82	32666.86
511.99	32147.26
512.17	32402.38
512.34	32467.91
512.51	32526.42
512.69	32844.74
512.86	32861.12
513.04	32950.06
513.21	32987.51
513.38	32835.38
513.56	32985.17
513.73	32617.71
513.90	33207.52
514.08	33043.68
514.25	33116.24
514.43	33584.35
514.60	33242.63
514.77	33404.13
514.95	33612.43
515.12	33872.23
515.29	33488.38
515.47	34188.21
515.64	34555.67
515.81	34101.61
515.99	33940.11
516.16	33902.66
516.33	33905.00
516.51	34066.50
516.68	33457.96
516.85	33296.46
517.03	33617.11
517.20	34293.53
517.37	34600.14
517.54	34653.97
517.72	34766.32
517.89	34038.41
518.06	34270.12
518.24	34059.48
518.41	34211.61
518.58	34525.24
518.75	34562.69
518.93	34923.13
519.10	35056.54
519.27	35267.19
519.45	35168.89
519.62	35171.23
519.79	35629.98
519.96	35344.43
520.14	35566.78
520.31	35225.06
520.48	35496.56
520.65	35419.33
520.83	35938.93
521.00	36009.14
521.17	36158.94
521.34	35981.06
521.52	35920.20
521.69	35831.26
521.86	36570.87
522.03	36589.59
522.20	36243.20
522.38	36163.62
522.55	36182.34
522.72	36641.09
522.89	36732.37
523.07	37055.36
523.24	36816.63
523.41	37266.01
523.58	36807.26
523.75	37298.78
523.92	37467.30
524.10	37198.13
524.27	37460.27
524.44	37481.34
524.61	37703.69
524.78	37137.28
524.96	37516.45
525.13	37797.31
525.30	37897.95
525.47	38323.93
525.64	37319.84
525.81	37642.84
525.98	37825.40
526.16	37455.59
526.33	37596.03
526.50	37926.04
526.67	37146.64
526.84	37071.75
527.01	37326.86
527.18	37944.76
527.36	37855.82
527.53	37914.34
527.70	38785.02
527.87	38536.92
528.04	38574.37
528.21	38398.83
528.38	38735.87
528.55	39021.41
528.72	38642.24
528.89	38660.97
529.07	38588.41
529.24	38581.39
529.41	38883.32
529.58	39290.57
529.75	38618.84
529.92	39241.42
530.09	39047.16
530.26	39367.81
530.43	39608.89
530.60	39421.64
530.77	39660.38
530.94	39810.17
531.11	39412.28
531.28	39754.00
531.46	39505.90
531.63	40030.18
531.80	39599.52
531.97	39583.14
532.14	39653.36
532.31	39316.32
532.48	39611.23
532.65	39840.60
532.82	39583.14
532.99	40170.61
533.16	40297.00
533.33	39859.32
533.50	40062.95
533.67	40046.57
533.84	39842.94
534.01	40318.07
534.18	39976.35
534.35	40395.31
534.52	40088.70
534.69	40350.84
534.86	40767.45
535.03	40570.85
535.20	41083.42
535.37	40706.60
535.54	41273.01
535.71	40601.27
535.88	40697.24
536.05	40931.29
536.22	40999.16
536.38	40879.80
536.55	40701.92
536.72	41118.53
536.89	40793.20
537.06	40596.59
537.23	41474.29
537.40	40982.78
537.57	41177.04
537.74	41303.43
537.91	41511.74
538.08	41488.34
538.25	40889.16
538.42	41214.49
538.59	40931.29
538.75	41027.25
538.92	40851.71
539.09	41603.02
539.26	41322.16
539.43	41823.03
539.60	41359.61
539.77	41024.91
539.94	41411.10
540.11	41326.84
540.28	41684.94
540.44	41682.60
540.61	41649.83
540.78	41326.84
540.95	41532.81
541.12	41837.08
541.29	41827.71
541.46	42361.36
541.62	41940.06
541.79	41827.71
541.96	41816.01
542.13	42300.50
542.30	42120.28
542.47	42117.94
542.63	42122.62
542.80	42649.24
542.97	42810.74
543.14	42431.57
543.31	42763.93
543.48	42429.23
543.64	43564.39
543.81	42784.99
543.98	42911.38
544.15	43070.54
544.32	42658.60
544.48	43330.34
544.65	42852.87
544.82	43512.90
544.99	42693.71
545.16	43021.39
545.32	42717.12
545.49	43117.35
545.66	43220.33
545.83	43215.65
546.00	43395.87
546.16	43215.65
546.33	43325.66
546.50	42925.42
546.67	43838.23
546.83	43164.16
547.00	43384.17
547.17	43264.80
547.34	43391.19
547.50	43164.16
547.67	44140.16
547.84	43405.23
548.00	43753.97
548.17	43952.92
548.34	43351.40
548.51	43725.89
548.67	44116.76
548.84	43807.81
549.01	43725.89
549.18	43863.98
549.34	44037.18
549.51	44229.10
549.68	43789.08
549.84	44158.89
550.01	43959.94
550.18	44119.10
550.34	44257.19
550.51	43524.60
550.68	43901.43
550.84	43573.75
551.01	44273.57
551.18	44142.50
551.34	44378.90
551.51	44320.38
551.68	44346.13
551.84	44500.61
552.01	44282.94
552.18	44605.93
552.34	43957.60
552.51	44671.46
552.68	44460.82
552.84	44325.07
553.01	44664.44
553.18	44622.31
553.34	44240.81
553.51	44575.50
553.67	44921.90
553.84	45109.14
554.01	44460.82
554.17	44582.52
554.34	45003.82
554.51	44959.35
554.67	44783.81
554.84	45036.59
555.00	44622.31
555.17	44638.70
555.33	45099.78
555.50	44659.76
555.67	44832.96
555.83	44832.96
556.00	45052.97
556.16	45160.64
556.33	44898.50
556.50	44957.01
556.66	45244.90
556.83	44486.56
556.99	44704.23
557.16	45235.53
557.32	45214.47
557.49	45158.30
557.65	44814.24
557.82	45116.17
557.98	45179.36
558.15	45350.22
558.32	45380.65
558.48	45095.10
558.65	44949.99
558.81	45050.63
558.98	45200.43
559.14	45277.66
559.31	45052.97
559.47	45151.27
559.64	45354.90
559.80	44999.14
559.97	45401.71
560.13	45160.64
560.30	45186.38
560.46	45509.38
560.63	44905.52
560.79	45544.48
560.96	45935.35
561.12	45247.24
561.29	45624.06
561.45	45179.36
561.61	45558.53
561.78	45324.47
561.94	45588.95
562.11	45050.63
562.27	45443.84
562.44	45382.99
562.60	45359.58
562.77	45827.69
562.93	45242.56
563.10	45762.15
563.26	45336.18
563.42	45478.95
563.59	45233.19
563.75	45621.72
563.92	46197.49
564.08	45584.27
564.24	45490.65
564.41	45989.19
564.57	45563.21
564.74	45563.21
564.90	45663.85
565.07	45970.46
565.23	46017.27
565.39	45771.52
565.56	45586.61
565.72	45769.18
565.88	45663.85
566.05	45518.74
566.21	45588.95
566.38	46068.76
566.54	45940.04
566.70	46316.86
566.87	46377.72
567.03	45734.07
567.19	46321.54
567.36	46075.79
567.52	45745.77
567.68	46162.39
567.85	45776.20
568.01	45989.19
568.17	45935.35
568.34	46141.32
568.50	45874.50
568.66	45748.11
568.83	46103.87
568.99	45598.32
569.15	45851.09
569.32	46106.21
569.48	46031.32
569.64	46003.23
569.81	45914.29
569.97	45748.11
570.13	45757.47
570.30	45223.83
570.46	45883.86
570.62	45366.60
570.78	45715.34
570.95	45600.66
571.11	45663.85
571.27	45343.20
571.43	45825.35
571.60	45940.04
571.76	45792.58
571.92	45970.46
572.09	45799.60
572.25	45989.19
572.41	45556.19
572.57	46576.66
572.74	46337.93
572.90	46483.04
573.06	46211.54
573.22	46185.79
573.38	45970.46
573.55	46410.48
573.71	45928.33
573.87	46192.81
574.03	46225.58
574.20	46333.24
574.36	45944.72
574.52	46288.77
574.68	45989.19
574.84	46368.35
575.01	46305.16
575.17	45876.84
575.33	46085.15
575.49	45708.32
575.65	45764.49
575.82	46501.76
575.98	46127.28
576.14	45984.51
576.30	46485.38
576.46	46183.45
576.62	45886.20
576.79	46295.80
576.95	45794.92
577.11	46017.27
577.27	45745.77
577.43	46085.15
577.59	45858.12
577.75	46082.81
577.92	45624.06
578.08	45713.00
578.24	46010.25
578.40	46026.63
578.56	46087.49
578.72	46220.90
578.88	46536.87
579.04	46321.54
579.21	45874.50
579.37	46251.33
579.53	46548.57
579.69	46061.74
579.85	46143.66
580.01	46106.21
580.17	45886.20
580.33	45780.88
580.49	45942.38
580.65	45958.76
580.82	46146.00
580.98	46450.27
581.14	45853.44
581.30	46174.09
581.46	46246.65
581.62	46183.45
581.78	46082.81
581.94	46712.41
582.10	46394.10
582.26	46543.89
582.42	46363.67
582.58	46707.73
582.74	46319.20
582.90	46230.26
583.06	46354.31
583.22	46508.79
583.38	46157.70
583.54	46494.74
583.70	46330.90
583.86	46581.34
584.02	46068.76
584.18	46754.54
584.34	46323.88
584.50	46571.98
584.66	46183.45
584.82	46099.19
584.98	46557.94
585.14	46377.72
585.30	45993.87
585.46	46284.09
585.62	46007.91
585.78	46124.94
585.94	45382.99
586.10	45815.99
586.26	45881.52
586.42	46614.11
586.58	46686.67
586.74	46366.01
586.90	46059.40
587.06	46396.44
587.22	46337.93
587.38	46244.30
587.54	46452.61
587.70	46234.94
587.86	46197.49
588.02	46181.11
588.18	46487.72
588.34	45837.05
588.49	45815.99
588.65	45343.20
588.81	46087.49
588.97	45862.80
589.13	46043.02
589.29	45895.56
589.45	46483.04
589.61	45972.80
589.77	46398.78
589.93	46384.74
