SpectraSuite Data File
++++++++++++++++++++++++++++++++++++
Date: Fri Oct 25 10:48:18 EDT 2013
User: price-jones
Dark Spectrum Present: No
Reference Spectrum Present: No
Number of Sampled Component Spectra: 1
Spectrometers: USB2+H05261
Integration Time (usec): 100000 (USB2+H05261)
Spectra Averaged: 1 (USB2+H05261)
Boxcar Smoothing: 0 (USB2+H05261)
Correct for Electrical Dark: No (USB2+H05261)
Strobe/Lamp Enabled: No (USB2+H05261)
Correct for Detector Non-linearity: No (USB2+H05261)
Correct for Stray Light: No (USB2+H05261)
Number of Pixels in Processed Spectrum: 2048
>>>>>Begin Processed Spectral Data<<<<<
365.73	114.69
365.92	114.69
366.12	114.69
366.32	70.22
366.52	53.83
366.72	88.94
366.91	0.00
367.11	60.85
367.31	23.41
367.51	4.68
367.70	72.56
367.90	93.62
368.10	51.49
368.30	51.49
368.49	49.15
368.69	72.56
368.89	81.92
369.09	79.58
369.28	105.32
369.48	14.04
369.68	102.98
369.87	53.83
370.07	112.35
370.27	145.11
370.47	257.46
370.66	388.53
370.86	454.06
371.06	526.62
371.25	564.07
371.45	491.51
371.65	479.81
371.84	461.09
372.04	486.83
372.24	561.73
372.44	545.34
372.63	554.71
372.83	512.58
373.03	594.50
373.22	514.92
373.42	582.79
373.62	568.75
373.81	552.37
374.01	617.90
374.21	540.66
374.40	535.98
374.60	641.31
374.79	575.77
374.99	631.94
375.19	613.22
375.38	596.84
375.58	594.50
375.78	582.79
375.97	650.67
376.17	683.44
376.37	545.34
376.56	636.63
376.76	617.90
376.95	657.69
377.15	655.35
377.35	664.71
377.54	739.61
377.74	695.14
377.93	697.48
378.13	734.93
378.33	716.20
378.52	641.31
378.72	690.46
378.91	620.24
379.11	664.71
379.31	746.63
379.50	678.76
379.70	739.61
379.89	709.18
380.09	770.04
380.28	681.10
380.48	753.65
380.68	704.50
380.87	725.57
381.07	730.25
381.26	781.74
381.46	695.14
381.65	823.87
381.85	770.04
382.04	734.93
382.24	767.70
382.43	739.61
382.63	688.12
382.83	695.14
383.02	634.29
383.22	770.04
383.41	681.10
383.61	760.67
383.80	835.57
384.00	840.25
384.19	835.57
384.39	875.36
384.58	814.51
384.78	896.43
384.97	919.83
385.17	800.46
385.36	795.78
385.56	851.96
385.75	924.51
385.95	837.91
386.14	931.53
386.34	767.70
386.53	945.58
386.72	905.79
386.92	870.68
387.11	929.19
387.31	933.87
387.50	887.06
387.70	943.24
387.89	973.66
388.09	919.83
388.28	854.30
388.48	978.34
388.67	952.60
388.86	976.00
389.06	950.26
389.25	1027.50
389.45	1062.60
389.64	976.00
389.84	1046.22
390.03	971.32
390.22	1064.94
390.42	954.94
390.61	1043.88
390.81	1081.33
391.00	1081.33
391.19	1086.01
391.39	1057.92
391.58	1083.67
391.78	1090.69
391.97	1050.90
392.16	1020.47
392.36	1153.88
392.55	1062.60
392.75	1081.33
392.94	1015.79
393.13	1048.56
393.33	1046.22
393.52	1102.39
393.71	1123.46
393.91	1158.57
394.10	1149.20
394.29	1193.67
394.49	1282.61
394.68	1226.44
394.88	1315.38
395.07	1394.96
395.26	1383.26
395.46	1282.61
395.65	1270.91
395.84	1334.11
396.04	1273.25
396.23	1235.80
396.42	1163.25
396.62	1217.08
396.81	1233.46
397.00	1224.10
397.19	1385.60
397.39	1397.30
397.58	1418.36
397.77	1432.41
397.97	1458.15
398.16	1420.71
398.35	1465.18
398.55	1409.00
398.74	1544.75
398.93	1533.05
399.12	1638.38
399.32	1544.75
399.51	1645.40
399.70	1575.18
399.90	1586.88
400.09	1540.07
400.28	1638.38
400.47	1727.32
400.67	1809.23
400.86	1760.08
401.05	1746.04
401.24	1701.57
401.44	1867.75
401.63	1739.02
401.82	1788.17
402.01	1834.98
402.21	1774.13
402.40	1806.89
402.59	1769.44
402.78	1905.20
402.97	1856.04
403.17	1795.19
403.36	1940.30
403.55	1933.28
403.74	1994.14
403.93	2015.20
404.13	1907.54
404.32	1935.62
404.51	2017.54
404.70	1977.75
404.89	1923.92
405.09	2087.76
405.28	2054.99
405.47	2059.67
405.66	2040.95
405.85	2022.22
406.05	2054.99
406.24	2029.24
406.43	2186.06
406.62	2228.19
406.81	2162.66
407.00	2136.91
407.20	2092.44
407.39	2127.55
407.58	2167.34
407.77	2312.45
407.96	2340.54
408.15	2392.03
408.34	2373.30
408.54	2237.55
408.73	2406.07
408.92	2375.64
409.11	2293.72
409.30	2363.94
409.49	2267.98
409.68	2342.88
409.87	2406.07
410.07	2480.97
410.26	2485.65
410.45	2537.14
410.64	2537.14
410.83	2560.55
411.02	2609.70
411.21	2665.87
411.40	2719.70
411.59	2806.30
411.78	2691.62
411.98	2628.42
412.17	2722.04
412.36	2782.90
412.55	2916.31
412.74	2693.96
412.93	2883.54
413.12	2733.75
413.31	2918.65
413.50	2991.20
413.69	2944.39
413.88	3000.57
414.07	3045.04
414.26	3059.08
414.45	3040.36
414.64	3023.97
414.83	3131.64
415.02	3199.51
415.22	3133.98
415.41	3239.30
415.60	3241.64
415.79	3290.79
415.98	3211.22
416.17	3412.50
416.36	3463.99
416.55	3445.27
416.74	3426.54
416.93	3251.00
417.12	3368.03
417.31	3480.38
417.50	3417.18
417.69	3569.32
417.88	3487.40
418.07	3410.16
418.26	3482.72
418.45	3625.49
418.64	3698.05
418.83	3623.15
419.02	3747.20
419.21	3838.48
419.39	3616.13
419.58	3808.05
419.77	3786.99
419.96	3770.60
420.15	3779.97
420.34	3686.34
420.53	3946.14
420.72	3960.19
420.91	3782.31
421.10	4095.94
421.29	4035.08
421.48	3861.88
421.67	3810.39
421.86	3852.52
422.05	3868.91
422.24	3836.14
422.43	3981.25
422.61	4060.83
422.80	4070.19
422.99	4053.81
423.18	4079.55
423.37	4023.38
423.56	4142.75
423.75	4098.28
423.94	4072.53
424.13	3868.91
424.32	3955.51
424.50	4053.81
424.69	4131.05
424.88	4095.94
425.07	3960.19
425.26	3906.35
425.45	4119.34
425.64	3997.64
425.83	4072.53
426.01	4224.67
426.20	4086.58
426.39	4348.72
426.58	4112.32
426.77	4114.66
426.96	4290.20
427.15	4191.90
427.33	4212.96
427.52	4187.22
427.71	4304.25
427.90	4269.14
428.09	4388.50
428.28	4283.18
428.46	4458.72
428.65	4266.80
428.84	4524.26
429.03	4465.74
429.22	4222.33
429.40	4320.63
429.59	4219.99
429.78	4163.81
429.97	3955.51
430.16	4161.47
430.34	4369.78
430.53	4208.28
430.72	4376.80
430.91	4421.27
431.10	4559.36
431.28	4709.16
431.47	4828.53
431.66	4755.97
431.85	4828.53
432.03	4711.50
432.22	4919.81
432.41	4603.83
432.60	4870.65
432.79	4917.47
432.97	4844.91
433.16	4898.74
433.35	4856.61
433.54	4809.80
433.72	4788.74
433.91	4748.95
434.10	4842.57
434.28	4968.96
434.47	4968.96
434.66	5090.67
434.85	4926.83
435.03	5172.58
435.22	5064.92
435.41	5144.50
435.59	5245.14
435.78	5179.61
435.97	5371.53
436.16	5263.86
436.34	5324.72
436.53	5198.33
436.72	5359.83
436.90	5259.18
437.09	5322.38
437.28	5411.32
437.46	5355.15
437.65	5331.74
437.84	5343.44
438.02	5465.15
438.21	5420.68
438.40	5338.76
438.58	5481.53
438.77	5680.48
438.96	5568.13
439.14	5940.28
439.33	5769.42
439.52	5916.87
439.70	5696.86
439.89	5778.78
440.08	5923.90
440.26	5928.58
440.45	5884.11
440.63	6043.26
440.82	6193.06
441.01	6038.58
441.19	6036.24
441.38	6319.45
441.57	6249.23
441.75	6494.99
441.94	6382.64
442.12	6590.95
442.31	6504.35
442.50	6466.90
442.68	6583.93
442.87	6590.95
443.05	6558.18
443.24	6635.42
443.43	6682.23
443.61	6644.78
443.80	6719.68
443.98	6705.63
444.17	6384.98
444.35	6672.87
444.54	6726.70
444.73	6729.04
444.91	6644.78
445.10	6693.93
445.28	6682.23
445.47	6572.22
445.65	6616.69
445.84	6726.70
446.02	6937.35
446.21	6801.60
446.39	6944.37
446.58	6942.03
446.77	6864.79
446.95	6754.79
447.14	6918.62
447.32	7183.10
447.51	6836.70
447.69	6778.19
447.88	6913.94
448.06	6792.23
448.25	6878.83
448.43	7061.40
448.62	6965.43
448.80	6918.62
448.99	7045.01
449.17	7190.13
449.36	6890.54
449.54	7119.91
449.73	7339.92
449.91	7307.15
450.10	7414.82
450.28	7440.56
450.46	7536.52
450.65	7489.71
450.83	7489.71
451.02	7372.69
451.20	7503.76
451.39	7541.21
451.57	7372.69
451.76	7384.39
451.94	7433.54
452.13	7562.27
452.31	7559.93
452.49	7248.64
452.68	7468.65
452.86	7529.50
453.05	7421.84
453.23	7536.52
453.42	7683.98
453.60	7475.67
453.78	7569.29
453.97	7470.99
454.15	7679.30
454.34	7644.19
454.52	7772.92
454.70	7899.31
454.89	7775.26
455.07	7838.45
455.26	7840.79
455.44	7903.99
455.62	7976.55
455.81	7833.77
455.99	8168.47
456.17	8011.65
456.36	8166.13
456.54	8107.62
456.73	8191.88
456.91	8505.51
457.09	8397.84
457.28	8465.72
457.46	8304.22
457.64	8271.45
457.83	8528.91
458.01	8390.82
458.19	8552.32
458.38	8477.42
458.56	8636.58
458.74	8442.31
458.93	8652.96
459.11	8624.87
459.29	8470.40
459.48	8718.50
459.66	8439.97
459.84	8737.22
460.03	8814.46
460.21	8861.27
460.39	8901.06
460.57	8727.86
460.76	8896.38
460.94	8856.59
461.12	8903.40
461.31	8826.16
461.49	8828.50
461.67	8842.54
461.85	9249.80
462.04	9081.28
462.22	9467.47
462.40	9128.09
462.59	9221.71
462.77	8917.44
462.95	9224.05
463.13	9116.39
463.32	9254.48
463.50	9289.59
463.68	9167.88
463.86	9427.68
464.05	9202.99
464.23	9111.71
464.41	9343.42
464.59	9184.26
464.78	9593.86
464.96	9341.08
465.14	9420.66
465.32	9626.62
465.50	9591.52
465.69	9537.68
465.87	9518.96
466.05	9703.86
466.23	9556.41
466.41	9399.59
466.60	9659.39
466.78	9572.79
466.96	9774.08
467.14	9645.35
467.32	9645.35
467.51	9767.06
467.69	9397.25
467.87	9671.09
468.05	9848.97
468.23	9619.60
468.41	9750.67
468.60	9926.21
468.78	9856.00
468.96	9832.59
469.14	10064.30
469.32	10176.65
469.50	9774.08
469.69	9958.98
469.87	9797.48
470.05	10040.90
470.23	10148.56
470.41	10094.73
470.59	10363.89
470.77	10169.63
470.95	10237.50
471.14	10485.60
471.32	10122.82
471.50	10778.17
471.68	10691.57
471.86	10616.67
472.04	10567.52
472.22	10817.96
472.40	10569.86
472.58	10752.42
472.77	10530.07
472.95	10920.94
473.13	11166.70
473.31	10740.72
473.49	10822.64
473.67	10916.26
473.85	11026.26
474.03	11290.74
474.21	11358.62
474.39	11293.08
474.57	11290.74
474.75	11499.05
474.93	11744.81
475.12	11571.61
475.30	11798.64
475.48	11449.90
475.66	11587.99
475.84	11513.10
476.02	11672.25
476.20	11646.51
476.38	12105.25
476.56	12159.08
476.74	12170.79
476.92	12294.83
477.10	12320.58
477.28	12374.41
477.46	12468.03
477.64	12620.17
477.82	12606.13
478.00	13095.30
478.18	12702.09
478.36	12901.03
478.54	13158.49
478.72	13406.59
478.90	13114.02
479.08	13481.49
479.26	13490.85
479.44	13535.32
479.62	13734.26
479.80	13771.71
479.98	13846.61
480.16	13752.99
480.34	13928.53
480.52	14141.52
480.70	14113.43
480.88	13916.83
481.06	14406.00
481.24	14459.83
481.41	14459.83
481.59	14576.86
481.77	14822.61
481.95	14881.13
482.13	15033.26
482.31	15154.97
482.49	15524.77
482.67	15255.61
482.85	15342.21
483.03	15545.84
483.21	15763.51
483.39	16067.78
483.57	15807.98
483.74	15960.11
483.92	16088.84
484.10	15995.22
484.28	16292.47
484.46	16477.37
484.64	16748.87
484.82	16802.71
485.00	16833.13
485.18	16788.66
485.35	16727.81
485.53	16580.36
485.71	16505.46
485.89	16957.18
486.07	16631.85
486.25	16975.91
486.43	17525.93
486.61	17528.27
486.78	17998.72
486.96	17975.31
487.14	18101.70
487.32	17951.91
487.50	18523.00
487.68	18888.12
487.85	19051.96
488.03	19037.92
488.21	19119.84
488.39	18916.21
488.57	19276.65
488.75	19688.59
488.92	19583.26
489.10	19857.10
489.28	19971.79
489.46	20467.98
489.64	20095.84
489.81	20610.76
489.99	20788.64
490.17	20683.31
490.35	21099.93
490.53	20980.56
490.70	21022.69
490.88	21041.42
491.06	21336.32
491.24	21149.08
491.41	21280.15
491.59	21844.22
491.77	21928.48
491.95	21341.00
492.13	21986.99
492.30	22485.53
492.48	22094.66
492.66	22441.06
492.84	22586.17
493.01	22548.72
493.19	22733.62
493.37	23077.68
493.54	22621.28
493.72	23410.04
493.90	23475.57
494.08	23599.62
494.25	23810.27
494.43	23653.45
494.61	23901.55
494.79	24016.24
494.96	23983.47
495.14	24238.59
495.32	24091.13
495.49	24666.91
495.67	24554.56
495.85	24917.34
496.02	25268.42
496.20	25041.39
496.38	25223.95
496.55	24989.90
496.73	26068.89
496.91	25682.70
497.09	25937.82
497.26	26038.46
497.44	25708.44
497.62	25795.04
497.79	26246.77
497.97	25762.28
498.14	26026.76
498.32	26134.42
498.50	26359.11
498.67	26675.09
498.85	26897.44
499.03	27365.54
499.20	27103.40
499.38	27161.92
499.56	27367.88
499.73	26979.36
499.91	27016.80
500.08	27356.18
500.26	27215.75
500.44	27255.54
500.61	27522.36
500.79	27730.67
500.97	27938.97
501.14	28133.24
501.32	28056.00
501.49	28056.00
501.67	27974.08
501.84	27873.44
502.02	27903.87
502.20	28264.31
502.37	28505.38
502.55	28795.61
502.72	28980.51
502.90	28704.33
503.07	28788.59
503.25	28498.36
503.43	28797.95
503.60	28821.36
503.78	29184.14
503.95	29359.68
504.13	29338.62
504.30	29619.48
504.48	29017.96
504.65	29647.57
504.83	30064.18
505.01	30106.31
505.18	30029.07
505.36	30319.30
505.53	29909.71
505.71	30707.83
505.88	30845.92
506.06	30373.13
506.23	30256.11
506.41	30281.85
506.58	30698.47
506.76	30731.23
506.93	30932.52
507.11	31089.34
507.28	30876.35
507.46	30831.88
507.63	30588.46
507.81	30883.37
507.98	30927.84
508.16	31089.34
508.33	31047.21
508.50	31522.34
508.68	31674.47
508.85	32079.38
509.03	32128.53
509.20	32322.80
509.38	32205.77
509.55	31793.84
509.73	32313.44
509.90	32470.25
510.08	32144.92
510.25	32158.96
510.42	32107.47
510.60	32641.11
510.77	32666.86
510.95	32624.73
511.12	32596.64
511.30	33214.54
511.47	33261.35
511.64	33354.97
511.82	33001.55
511.99	33015.60
512.17	33359.66
512.34	32943.04
512.51	33165.39
512.69	33544.56
512.86	33958.83
513.04	33809.04
513.21	33942.45
513.38	33493.07
513.56	33565.62
513.73	33443.91
513.90	34101.61
514.08	33752.87
514.25	34061.82
514.43	34171.82
514.60	34263.10
514.77	34148.42
514.95	34312.25
515.12	34005.64
515.29	34698.44
515.47	34806.11
515.64	35250.81
515.81	34340.34
515.99	34955.90
516.16	34876.32
516.33	34258.42
516.51	34550.99
516.68	34424.60
516.85	34373.11
517.03	35023.78
517.20	34581.42
517.37	34763.98
517.54	35548.06
517.72	35290.60
517.89	35185.27
518.06	34866.96
518.24	35119.74
518.41	35042.50
518.58	35742.32
518.75	35461.46
518.93	35995.10
519.10	36002.12
519.27	36390.65
519.45	36070.00
519.62	36018.50
519.79	36196.38
519.96	36580.23
520.14	36673.85
520.31	35606.57
520.48	36212.77
520.65	36350.86
520.83	36924.29
521.00	36753.43
521.17	36711.30
521.34	36821.31
521.52	36938.33
521.69	37207.50
521.86	37464.96
522.03	37319.84
522.20	37127.92
522.38	37357.29
522.55	37399.42
522.72	37486.02
522.89	37193.45
523.07	37806.67
523.24	37244.94
523.41	37790.29
523.58	37979.87
523.75	38054.77
523.92	38548.62
524.10	38293.50
524.27	38424.57
524.44	38066.47
524.61	38721.82
524.78	38237.33
524.96	38621.18
525.13	38590.75
525.30	39297.59
525.47	38712.46
525.64	38698.42
525.81	38892.68
525.98	38831.83
526.16	38333.29
526.33	38017.32
526.50	38602.46
526.67	38110.94
526.84	38541.60
527.01	38586.07
527.18	38785.02
527.36	39098.65
527.53	39222.70
527.70	39920.18
527.87	39412.28
528.04	39541.01
528.21	39601.86
528.38	39213.34
528.55	40009.12
528.72	39456.75
528.89	40402.33
529.07	40254.87
529.24	39819.53
529.41	39522.29
529.58	39742.30
529.75	39538.67
529.92	40027.84
530.09	40149.55
530.26	40084.01
530.43	40584.89
530.60	40137.85
530.77	40512.33
530.94	40765.11
531.11	40488.93
531.28	40643.40
531.46	40634.04
531.63	40755.75
531.80	40559.14
531.97	40390.62
532.14	40580.21
532.31	40266.58
532.48	40315.73
532.65	41181.73
532.82	40493.61
532.99	41006.19
533.16	40809.58
533.33	40821.28
533.50	41022.57
533.67	41237.90
533.84	40947.67
534.01	41251.94
534.18	41048.32
534.35	41727.07
534.52	41048.32
534.69	41605.36
534.86	41497.70
535.03	41574.94
535.20	41958.78
535.37	41804.31
535.54	42323.91
535.71	41443.87
535.88	41954.10
536.05	41380.67
536.22	41956.44
536.38	41687.28
536.55	41457.91
536.72	42005.59
536.89	41523.44
537.06	41986.87
537.23	42401.14
537.40	41790.27
537.57	42405.83
537.74	42141.35
537.91	42401.14
538.08	42134.32
538.25	42197.52
538.42	42314.55
538.59	42724.14
538.75	41794.95
538.92	42141.35
539.09	42129.64
539.26	42515.83
539.43	42340.29
539.60	42784.99
539.77	42621.16
539.94	42515.83
540.11	42487.74
540.28	43035.43
540.44	42483.06
540.61	42576.69
540.78	42464.34
540.95	42508.81
541.12	42576.69
541.29	42801.38
541.46	43007.34
541.62	43332.68
541.79	43262.46
541.96	42766.27
542.13	43089.26
542.30	43267.14
542.47	42845.85
542.63	43058.84
542.80	43419.28
542.97	43566.73
543.14	43758.66
543.31	43683.76
543.48	44182.29
543.64	43826.53
543.81	44226.76
543.98	43995.05
544.15	43936.54
544.32	44392.94
544.48	44006.75
544.65	44135.48
544.82	43917.81
544.99	44039.52
545.16	43859.30
545.32	43859.30
545.49	44304.00
545.66	44250.17
545.83	44280.60
546.00	44755.72
546.16	44514.65
546.33	43964.62
546.50	43952.92
546.67	44273.57
546.83	43922.49
547.00	43924.83
547.17	44105.06
547.34	44378.90
547.50	44573.16
547.67	44636.36
547.84	44524.01
548.00	44748.70
548.17	44786.15
548.34	44729.98
548.51	44811.90
548.67	44783.81
548.84	44664.44
549.01	44872.75
549.18	44978.07
549.34	44847.00
549.51	44788.49
549.68	44863.39
549.84	45036.59
550.01	45148.93
550.18	44762.75
550.34	44882.11
550.51	44715.93
550.68	44795.51
550.84	44910.20
551.01	45287.03
551.18	44942.97
551.34	45223.83
551.51	45347.88
551.68	45242.56
551.84	45635.77
552.01	45200.43
552.18	45406.39
552.34	45062.33
552.51	45600.66
552.68	45928.33
552.84	45230.85
553.01	45844.07
553.18	45427.46
553.34	45521.08
553.51	45558.53
553.67	45514.06
553.84	45897.91
554.01	46003.23
554.17	45769.18
554.34	45689.60
554.51	45715.34
554.67	45949.40
554.84	45713.00
555.00	45944.72
555.17	45691.94
555.33	45635.77
555.50	45675.55
555.67	45853.44
555.83	45848.75
556.00	45909.61
556.16	46265.37
556.33	46012.59
556.50	46120.26
556.66	46284.09
556.83	45500.01
556.99	45944.72
557.16	46321.54
557.32	45811.31
557.49	46387.08
557.65	46082.81
557.82	45631.08
557.98	46124.94
558.15	46122.60
558.32	46522.83
558.48	45968.12
558.65	46026.63
558.81	46309.84
558.98	46122.60
559.14	46209.20
559.31	46309.84
559.47	46230.26
559.64	46094.51
559.80	46223.24
559.97	46309.84
560.13	45940.04
560.30	46415.16
560.46	46583.68
560.63	46459.63
560.79	46469.00
560.96	46274.73
561.12	46855.18
561.29	46899.65
561.45	46553.26
561.61	46478.36
561.78	46286.43
561.94	46450.27
562.11	46504.10
562.27	46480.70
562.44	46309.84
562.60	46918.38
562.77	46925.40
562.93	46878.59
563.10	46916.04
563.26	46188.13
563.42	47262.44
563.59	46515.81
563.75	47004.98
563.92	46878.59
564.08	46550.91
564.24	46969.87
564.41	46595.38
564.57	47009.66
564.74	46848.16
564.90	46927.74
565.07	46487.72
565.23	46539.21
565.39	47037.75
565.56	47072.85
565.72	46380.06
565.88	47030.72
566.05	46733.48
566.21	46887.95
566.38	46674.96
566.54	47040.09
566.70	47131.37
566.87	47358.40
567.03	47154.77
567.19	47171.16
567.36	47068.17
567.52	46749.86
567.68	46988.60
567.85	47021.36
568.01	47023.70
568.17	46873.91
568.34	47058.81
568.50	46838.80
568.66	46857.52
568.83	46822.42
568.99	46789.65
569.15	46939.44
569.32	46878.59
569.48	46791.99
569.64	47332.65
569.81	47185.20
569.97	46983.91
570.13	47122.01
570.30	46485.38
570.46	46824.76
570.62	46731.14
570.78	46696.03
570.95	46976.89
571.11	46913.70
571.27	46913.70
571.43	46899.65
571.60	47014.34
571.76	47119.66
571.92	46911.36
572.09	47019.02
572.25	47346.70
572.41	47023.70
572.57	46983.91
572.74	47835.87
572.90	47428.62
573.06	47000.30
573.22	47093.92
573.38	47159.45
573.55	47199.24
573.71	47636.92
573.87	47189.88
574.03	47157.11
574.20	47292.86
574.36	47133.71
574.52	46990.94
574.68	46845.82
574.84	47199.24
575.01	47332.65
575.17	47187.54
575.33	46827.10
575.49	46993.28
575.65	47185.20
575.82	47489.47
575.98	47222.65
576.14	47126.69
576.30	47332.65
576.46	47313.93
576.62	46855.18
576.79	47096.26
576.95	46616.45
577.11	47147.75
577.27	47227.33
577.43	47166.48
577.59	47180.52
577.75	47138.39
577.92	46763.90
578.08	46541.55
578.24	46848.16
578.40	46759.22
578.56	47014.34
578.72	47154.77
578.88	47313.93
579.04	47136.05
579.21	47505.85
579.37	46979.23
579.53	47051.79
579.69	47122.01
579.85	47416.91
580.01	47522.24
580.17	47124.35
580.33	46990.94
580.49	47171.16
580.65	47061.15
580.82	47164.14
580.98	46911.36
581.14	46595.38
581.30	47571.39
581.46	47491.81
581.62	47430.96
581.78	47466.06
581.94	47648.63
582.10	47208.61
582.26	47667.35
582.42	47365.42
582.58	47126.69
582.74	47299.89
582.90	47337.33
583.06	47412.23
583.22	47547.98
583.38	47562.03
583.54	47311.59
583.70	47337.33
583.86	47026.04
584.02	46897.31
584.18	47620.54
584.34	47374.78
584.50	46939.44
584.66	47065.83
584.82	47339.68
584.98	47290.52
585.14	47531.60
585.30	47150.09
585.46	47042.43
585.62	47138.39
585.78	47096.26
585.94	47196.90
586.10	47330.31
586.26	47241.37
586.42	47323.29
586.58	47555.00
586.74	47271.80
586.90	47182.86
587.06	47187.54
587.22	47449.68
587.38	47100.94
587.54	47505.85
587.70	47295.21
587.86	47222.65
588.02	47210.95
588.18	47351.38
588.34	46902.00
588.49	46906.68
588.65	46422.19
588.81	46698.37
588.97	46850.50
589.13	46632.83
589.29	46672.62
589.45	46864.55
589.61	47072.85
589.77	47800.76
