SpectraSuite Data File
++++++++++++++++++++++++++++++++++++
Date: Fri Oct 25 10:47:28 EDT 2013
User: price-jones
Dark Spectrum Present: No
Reference Spectrum Present: No
Number of Sampled Component Spectra: 1
Spectrometers: USB2+H05261
Integration Time (usec): 100000 (USB2+H05261)
Spectra Averaged: 1 (USB2+H05261)
Boxcar Smoothing: 0 (USB2+H05261)
Correct for Electrical Dark: No (USB2+H05261)
Strobe/Lamp Enabled: No (USB2+H05261)
Correct for Detector Non-linearity: No (USB2+H05261)
Correct for Stray Light: No (USB2+H05261)
Number of Pixels in Processed Spectrum: 2048
>>>>>Begin Processed Spectral Data<<<<<
365.73	140.43
365.92	140.43
366.12	140.43
366.32	30.43
366.52	0.00
366.72	23.41
366.91	0.00
367.11	21.06
367.31	63.19
367.51	67.88
367.70	9.36
367.90	9.36
368.10	25.75
368.30	100.64
368.49	0.00
368.69	67.88
368.89	74.90
369.09	65.54
369.28	49.15
369.48	112.35
369.68	95.96
369.87	124.05
370.07	88.94
370.27	168.52
370.47	217.67
370.66	421.30
370.86	433.00
371.06	517.26
371.25	456.40
371.45	440.02
371.65	489.17
371.84	444.70
372.04	489.17
372.24	484.49
372.44	360.44
372.63	510.24
372.83	500.87
373.03	414.27
373.22	461.09
373.42	475.13
373.62	528.96
373.81	505.56
374.01	531.30
374.21	484.49
374.40	535.98
374.60	531.30
374.79	498.53
374.99	540.66
375.19	543.00
375.38	519.60
375.58	648.33
375.78	512.58
375.97	568.75
376.17	580.45
376.37	538.32
376.56	620.24
376.76	561.73
376.95	554.71
377.15	566.41
377.35	571.09
377.54	624.92
377.74	592.16
377.93	550.03
378.13	559.39
378.33	617.90
378.52	622.58
378.72	613.22
378.91	613.22
379.11	580.45
379.31	578.11
379.50	608.54
379.70	653.01
379.89	624.92
380.09	636.63
380.28	669.39
380.48	669.39
380.68	664.71
380.87	636.63
381.07	667.05
381.26	720.88
381.46	653.01
381.65	645.99
381.85	620.24
382.04	697.48
382.24	631.94
382.43	641.31
382.63	660.03
382.83	653.01
383.02	720.88
383.22	744.29
383.41	716.20
383.61	645.99
383.80	748.97
384.00	807.48
384.19	683.44
384.39	812.17
384.58	798.12
384.78	856.64
384.97	779.40
385.17	725.57
385.36	786.42
385.56	755.99
385.75	718.54
385.95	732.59
386.14	772.38
386.34	882.38
386.53	819.19
386.72	732.59
386.92	781.74
387.11	765.36
387.31	812.17
387.50	837.91
387.70	774.72
387.89	791.10
388.09	772.38
388.28	748.97
388.48	805.14
388.67	870.68
388.86	826.21
389.06	802.80
389.25	812.17
389.45	870.68
389.64	1006.43
389.84	954.94
390.03	849.61
390.22	917.49
390.42	915.15
390.61	849.61
390.81	795.78
391.00	896.43
391.19	931.53
391.39	945.58
391.58	973.66
391.78	957.28
391.97	1018.13
392.16	1048.56
392.36	943.24
392.55	992.39
392.75	992.39
392.94	931.53
393.13	884.72
393.33	901.11
393.52	919.83
393.71	978.34
393.91	1046.22
394.10	940.90
394.29	1097.71
394.49	1018.13
394.68	1081.33
394.88	1203.04
395.07	1118.78
395.26	1170.27
395.46	1100.05
395.65	1078.99
395.84	1109.41
396.04	1167.93
396.23	1048.56
396.42	1027.50
396.62	1067.28
396.81	1174.95
397.00	1055.58
397.19	1088.35
397.39	1139.84
397.58	1221.76
397.77	1214.74
397.97	1174.95
398.16	1254.53
398.35	1273.25
398.55	1240.48
398.74	1219.42
398.93	1308.36
399.12	1156.22
399.32	1231.12
399.51	1303.68
399.70	1364.53
399.90	1240.48
400.09	1315.38
400.28	1313.04
400.47	1320.06
400.67	1378.58
400.86	1418.36
401.05	1439.43
401.24	1425.39
401.44	1502.62
401.63	1462.83
401.82	1362.19
402.01	1497.94
402.21	1472.20
402.40	1493.26
402.59	1451.13
402.78	1502.62
402.97	1530.71
403.17	1626.67
403.36	1474.54
403.55	1413.68
403.74	1591.56
403.93	1563.48
404.13	1617.31
404.32	1535.39
404.51	1687.53
404.70	1764.76
404.89	1664.12
405.09	1703.91
405.28	1659.44
405.47	1729.66
405.66	1621.99
405.85	1727.32
406.05	1582.20
406.24	1678.16
406.43	1778.81
406.62	1839.66
406.81	1792.85
407.00	1818.60
407.20	1692.21
407.39	1722.63
407.58	1877.11
407.77	1820.94
407.96	1853.70
408.15	1867.75
408.34	1893.49
408.54	1966.05
408.73	1996.48
408.92	2015.20
409.11	1966.05
409.30	1970.73
409.49	1987.11
409.68	1980.09
409.87	1916.90
410.07	2069.03
410.26	2069.03
410.45	2122.87
410.64	2043.29
410.83	2162.66
411.02	2064.35
411.21	2080.74
411.40	2047.97
411.59	2277.34
411.78	2204.78
411.98	2122.87
412.17	2235.21
412.36	2286.70
412.55	2363.94
412.74	2380.32
412.93	2385.01
413.12	2335.85
413.31	2497.35
413.50	2370.96
413.69	2443.52
413.88	2562.89
414.07	2518.42
414.26	2495.01
414.45	2621.40
414.64	2490.33
414.83	2581.61
415.02	2576.93
415.22	2600.34
415.41	2761.83
415.60	2649.49
415.79	2719.70
415.98	2871.84
416.17	2782.90
416.36	2794.60
416.55	2771.19
416.74	2818.00
416.93	2782.90
417.12	2782.90
417.31	2855.45
417.50	2853.11
417.69	3035.67
417.88	3007.59
418.07	2925.67
418.26	3063.76
418.45	3063.76
418.64	3138.66
418.83	3002.91
419.02	3035.67
419.21	3077.80
419.39	3169.09
419.58	3091.85
419.77	3119.93
419.96	3211.22
420.15	3229.94
420.34	3227.60
420.53	3260.37
420.72	3262.71
420.91	3344.63
421.10	3379.73
421.29	3295.47
421.48	3293.13
421.67	3295.47
421.86	3328.24
422.05	3445.27
422.24	3201.85
422.43	3272.07
422.61	3316.54
422.80	3510.80
422.99	3403.14
423.18	3330.58
423.37	3473.36
423.56	3426.54
423.75	3405.48
423.94	3536.55
424.13	3262.71
424.32	3302.50
424.50	3454.63
424.69	3482.72
424.88	3414.84
425.07	3445.27
425.26	3461.65
425.45	3496.76
425.64	3468.67
425.83	3389.10
426.01	3627.83
426.20	3548.25
426.39	3442.93
426.58	3442.93
426.77	3625.49
426.96	3506.12
427.15	3522.51
427.33	3487.40
427.52	3454.63
427.71	3548.25
427.90	3695.71
428.09	3700.39
428.28	3496.76
428.46	3658.26
428.65	3571.66
428.84	3721.45
429.03	3695.71
429.22	3705.07
429.40	3641.87
429.59	3768.26
429.78	3623.15
429.97	3583.36
430.16	3698.05
430.34	3705.07
430.53	3700.39
430.72	3803.37
430.91	3751.88
431.10	3723.79
431.28	3946.14
431.47	4070.19
431.66	4002.32
431.85	3929.76
432.03	4084.23
432.22	4117.00
432.41	4011.68
432.60	4173.18
432.79	4074.87
432.97	4074.87
433.16	4091.26
433.35	4147.43
433.54	4241.05
433.72	4149.77
433.91	4138.07
434.10	4194.24
434.28	4212.96
434.47	4306.59
434.66	4374.46
434.85	4362.76
435.03	4376.80
435.22	4222.33
435.41	4395.53
435.59	4418.93
435.78	4531.28
435.97	4430.63
436.16	4397.87
436.34	4477.44
436.53	4486.81
436.72	4533.62
436.90	4542.98
437.09	4547.66
437.28	4353.40
437.46	4409.57
437.65	4524.26
437.84	4603.83
438.02	4482.13
438.21	4542.98
438.40	4493.83
438.58	4741.93
438.77	4901.08
438.96	4774.69
439.14	4858.95
439.33	4823.84
439.52	4954.91
439.70	4889.38
439.89	4896.40
440.08	5004.07
440.26	4961.94
440.45	5013.43
440.63	5004.07
440.82	5203.01
441.01	5172.58
441.19	5266.21
441.38	5324.72
441.57	5259.18
441.75	5373.87
441.94	5394.93
442.12	5465.15
442.31	5411.32
442.50	5441.75
442.68	5556.43
442.87	5570.48
443.05	5535.37
443.24	5650.05
443.43	5846.66
443.61	5584.52
443.80	5860.70
443.98	5561.11
444.17	5462.81
444.35	5675.80
444.54	5963.68
444.73	5830.27
444.91	5701.54
445.10	5607.92
445.28	5610.26
445.47	5551.75
445.65	5809.21
445.84	5710.91
446.02	5774.10
446.21	5764.74
446.39	5816.23
446.58	5839.64
446.77	5832.62
446.95	5596.22
447.14	5935.60
447.32	6038.58
447.51	5827.93
447.69	5713.25
447.88	5825.59
448.06	5832.62
448.25	5832.62
448.43	5748.36
448.62	5750.70
448.80	5874.74
448.99	5996.45
449.17	5982.41
449.36	5813.89
449.54	5982.41
449.73	6148.59
449.91	6125.18
450.10	6155.61
450.28	6181.35
450.46	6134.54
450.65	6277.32
450.83	6209.44
451.02	6047.94
451.20	6317.11
451.39	6401.37
451.57	6122.84
451.76	6277.32
451.94	6352.21
452.13	6143.91
452.31	6141.57
452.49	6310.08
452.68	6314.77
452.86	6284.34
453.05	6623.72
453.23	6410.73
453.42	6324.13
453.60	6333.49
453.78	6569.88
453.97	6422.43
454.15	6363.92
454.34	6518.39
454.52	6626.06
454.70	6590.95
454.89	6588.61
455.07	6670.53
455.26	6757.13
455.44	6815.64
455.62	6616.69
455.81	6726.70
455.99	6707.98
456.17	6712.66
456.36	6757.13
456.54	6834.36
456.73	6773.51
456.91	7199.49
457.09	6986.50
457.28	7040.33
457.46	6977.14
457.64	7091.82
457.83	7171.40
458.01	6846.07
458.19	7105.87
458.38	7019.27
458.56	7260.34
458.74	7180.76
458.93	7133.95
459.11	7206.51
459.29	7206.51
459.48	7293.11
459.66	7325.88
459.84	7321.20
460.03	7377.37
460.21	7616.10
460.39	7365.67
460.57	7246.30
460.76	7375.03
460.94	7506.10
461.12	7447.58
461.31	7559.93
461.49	7524.82
461.67	7693.34
461.85	7854.84
462.04	7770.58
462.22	8203.58
462.40	7779.94
462.59	7810.37
462.77	7637.17
462.95	7906.33
463.13	7962.50
463.32	7934.42
463.50	8112.30
463.68	7950.80
463.86	7854.84
464.05	7660.57
464.23	7875.90
464.41	8170.81
464.59	7983.57
464.78	8032.72
464.96	7836.11
465.14	7824.41
465.32	7990.59
465.50	8006.97
465.69	8154.43
465.87	8126.34
466.05	8016.33
466.23	8290.18
466.41	8224.64
466.60	8243.37
466.78	8219.96
466.96	8269.11
467.14	8318.26
467.32	8313.58
467.51	8482.10
467.69	8194.22
467.87	8180.17
468.05	8341.67
468.23	8292.52
468.41	8180.17
468.60	8308.90
468.78	8636.58
468.96	8430.61
469.14	8627.21
469.32	8603.81
469.50	8404.86
469.69	8688.07
469.87	8807.44
470.05	8695.09
470.23	8674.03
470.41	8706.79
470.59	8901.06
470.77	8627.21
470.95	8840.20
471.14	8898.72
471.32	8936.17
471.50	9081.28
471.68	8910.42
471.86	9219.37
472.04	9146.81
472.22	9516.62
472.40	8784.03
472.58	9121.07
472.77	9242.78
472.95	9242.78
473.13	9469.81
473.31	9322.35
473.49	9221.71
473.67	9366.82
473.85	9465.13
474.03	9516.62
474.21	9757.69
474.39	9881.74
474.57	9687.48
474.75	10029.20
474.93	9856.00
475.12	9715.56
475.30	9991.75
475.48	10003.45
475.66	9923.87
475.84	10040.90
476.02	10164.95
476.20	10064.30
476.38	10129.84
476.56	10640.08
476.74	10595.61
476.92	10483.26
477.10	10445.81
477.28	10733.70
477.46	10677.52
477.64	10785.19
477.82	10888.17
478.00	10911.58
478.18	11143.29
478.36	11080.10
478.54	11351.60
478.72	11496.71
478.90	11492.03
479.08	11442.88
479.26	11379.68
479.44	11637.14
479.62	11910.99
479.80	11875.88
479.98	12074.82
480.16	12315.90
480.34	12152.06
480.52	11922.69
480.70	12138.02
480.88	12067.80
481.06	12381.43
481.24	12348.67
481.41	12587.40
481.59	12531.23
481.77	12809.75
481.95	12961.89
482.13	12842.52
482.31	12910.40
482.49	13069.55
482.67	13252.11
482.85	13390.20
483.03	13504.89
483.21	13139.77
483.39	13888.74
483.57	13774.05
483.74	13947.25
483.92	13982.36
484.10	14064.28
484.28	14188.33
484.46	14328.76
484.64	14370.89
484.82	14265.57
485.00	14380.25
485.18	14817.93
485.35	14934.96
485.53	14693.88
485.71	14803.89
485.89	15218.16
486.07	14909.21
486.25	15321.15
486.43	15108.16
486.61	15492.01
486.78	15683.93
486.96	15770.53
487.14	15599.67
487.32	15864.15
487.50	16365.03
487.68	16350.98
487.85	16528.86
488.03	16685.68
488.21	16732.49
488.39	16549.93
488.57	16940.80
488.75	16819.09
488.92	17188.89
489.10	17022.72
489.28	17240.39
489.46	17769.35
489.64	17329.33
489.81	17530.61
489.99	17844.24
490.17	18214.05
490.35	18389.59
490.53	18054.89
490.70	18258.52
490.88	18029.15
491.06	18820.25
491.24	18490.23
491.41	18745.35
491.59	18883.44
491.77	18696.20
491.95	19346.87
492.13	19234.52
492.30	19229.84
492.48	19405.38
492.66	19351.55
492.84	19695.61
493.01	19644.12
493.19	19744.76
493.37	19824.34
493.54	20053.71
493.72	20430.54
493.90	20409.47
494.08	20645.87
494.25	20821.41
494.43	20868.22
494.61	21242.70
494.79	21034.39
494.96	20798.00
495.14	20938.43
495.32	21523.57
495.49	21474.42
495.67	21715.49
495.85	21600.80
496.02	21596.12
496.20	21865.28
496.38	21972.95
496.55	21916.78
496.73	22581.49
496.91	22188.28
497.09	22331.05
497.26	22616.60
497.44	22424.67
497.62	22773.41
497.79	23110.45
497.97	22916.19
498.14	22944.27
498.32	23131.51
498.50	22941.93
498.67	23192.37
498.85	23332.80
499.03	23606.64
499.20	23777.50
499.38	23690.90
499.56	23576.22
499.73	24023.26
499.91	24018.58
500.08	23894.53
500.26	24023.26
500.44	24498.39
500.61	24271.36
500.79	24208.16
500.97	24027.94
501.14	24922.02
501.32	24596.69
501.49	24861.17
501.67	24819.04
501.84	24783.93
502.02	25015.65
502.20	25226.29
502.37	25518.86
502.55	25282.47
502.72	25359.70
502.90	25851.22
503.07	25223.95
503.25	25336.30
503.43	25631.21
503.60	25790.36
503.78	26029.10
503.95	25886.32
504.13	25855.90
504.30	26066.55
504.48	26239.75
504.65	26103.99
504.83	26328.69
505.01	26705.51
505.18	26312.30
505.36	26834.24
505.53	26948.93
505.71	27065.96
505.88	27122.13
506.06	26757.00
506.23	27016.80
506.41	27035.53
506.58	27068.30
506.76	27316.39
506.93	27562.15
507.11	27180.64
507.28	27751.73
507.46	27412.35
507.63	27480.23
507.81	27646.41
507.98	27344.48
508.16	27817.27
508.33	27927.27
508.50	28123.88
508.68	27843.01
508.85	28664.54
509.03	28056.00
509.20	28374.31
509.38	28393.04
509.55	28437.51
509.73	28648.16
509.90	28229.20
510.08	28542.83
510.25	28856.46
510.42	28863.49
510.60	29078.82
510.77	29090.52
510.95	29221.59
511.12	28945.41
511.30	28783.91
511.47	29331.59
511.64	29642.88
511.82	29638.20
511.99	29394.79
512.17	29795.02
512.34	29748.21
512.51	29694.38
512.69	30267.81
512.86	29759.91
513.04	30139.08
513.21	30359.09
513.38	30045.46
513.56	29832.47
513.73	30101.63
513.90	30148.44
514.08	30405.90
514.25	31035.50
514.43	30527.61
514.60	30536.97
514.77	30284.19
514.95	30801.45
515.12	30852.94
515.29	30747.62
515.47	30902.09
515.64	31449.78
515.81	30845.92
515.99	31274.24
516.16	31042.53
516.33	31407.65
516.51	30976.99
516.68	30771.02
516.85	31381.90
517.03	31278.92
517.20	31744.69
517.37	31442.76
517.54	32011.51
517.72	31538.72
517.89	31845.33
518.06	31615.96
518.24	31978.74
518.41	31847.67
518.58	31868.73
518.75	31601.91
518.93	32381.31
519.10	32095.77
519.27	32011.51
519.45	32079.38
519.62	32458.55
519.79	32837.72
519.96	32320.46
520.14	33074.11
520.31	32748.78
520.48	32905.59
520.65	32666.86
520.83	33111.56
521.00	33127.94
521.17	33256.67
521.34	32931.34
521.52	33088.15
521.69	33057.73
521.86	33359.66
522.03	33586.69
522.20	33998.62
522.38	33930.75
522.55	33797.34
522.72	33631.16
522.89	33493.07
523.07	34136.71
523.24	33392.42
523.41	33961.17
523.58	33553.92
523.75	34195.23
523.92	34115.65
524.10	34265.44
524.27	34471.41
524.44	34487.79
524.61	34548.65
524.78	34583.76
524.96	35084.63
525.13	34904.41
525.30	34885.68
525.47	34864.62
525.64	34948.88
525.81	34813.13
525.98	34955.90
526.16	34583.76
526.33	34534.60
526.50	35014.41
526.67	35070.59
526.84	34932.50
527.01	34761.64
527.18	34881.00
527.36	35042.50
527.53	35791.47
527.70	35861.69
527.87	35498.91
528.04	35447.41
528.21	35702.53
528.38	35604.23
528.55	36025.53
528.72	35765.73
528.89	36170.64
529.07	35772.75
529.24	35637.00
529.41	36147.23
529.58	36020.84
529.75	36041.91
529.92	36013.82
530.09	36364.90
530.26	36142.55
530.43	36409.37
530.60	36156.60
530.77	36481.93
530.94	36566.19
531.11	36659.81
531.28	36287.67
531.46	36500.65
531.63	36542.78
531.80	36350.86
531.97	36758.11
532.14	36776.84
532.31	36620.02
532.48	36737.05
532.65	37139.62
532.82	36552.15
532.99	37104.51
533.16	36783.86
533.33	36879.82
533.50	37460.27
533.67	37275.37
533.84	37165.37
534.01	37352.61
534.18	37532.83
534.35	37486.02
534.52	37549.21
534.69	37762.20
534.86	37528.15
535.03	37619.43
535.20	37926.04
535.37	38057.11
535.54	38302.87
535.71	37528.15
535.88	37453.25
536.05	38160.09
536.22	37809.01
536.38	37909.66
536.55	38202.22
536.72	37923.70
536.89	37743.48
537.06	37874.55
537.23	38347.34
537.40	38160.09
537.57	37963.49
537.74	38127.33
537.91	38518.20
538.08	38263.08
538.25	38618.84
538.42	38401.17
538.59	38480.75
538.75	38352.02
538.92	38747.57
539.09	38808.42
539.26	38995.67
539.43	38974.60
539.60	39138.44
539.77	38440.96
539.94	38775.66
540.11	38656.29
540.28	38852.89
540.44	38782.68
540.61	38967.58
540.78	39189.93
540.95	39131.42
541.12	38801.40
541.29	39035.45
541.46	38604.80
541.62	39108.01
541.79	39222.70
541.96	39026.09
542.13	39391.22
542.30	38923.11
542.47	39318.66
542.63	39433.35
542.80	39655.70
542.97	40009.12
543.14	40009.12
543.31	40304.02
543.48	39826.56
543.64	40467.86
543.81	40273.60
543.98	39871.03
544.15	39985.71
544.32	40107.42
544.48	40142.53
544.65	40369.56
544.82	40175.30
544.99	40025.50
545.16	40189.34
545.32	39985.71
545.49	40617.66
545.66	40350.84
545.83	40783.83
546.00	40692.55
546.16	40692.55
546.33	40037.20
546.50	39803.15
546.67	40851.71
546.83	40245.51
547.00	40603.61
547.17	40102.74
547.34	40837.67
547.50	40982.78
547.67	41141.94
547.84	40659.79
548.00	41092.79
548.17	40989.80
548.34	40961.72
548.51	41310.46
548.67	41034.27
548.84	41256.62
549.01	41516.42
549.18	41261.30
549.34	41041.29
549.51	41221.52
549.68	41918.99
549.84	41422.80
550.01	41715.37
550.18	41654.51
550.34	41586.64
550.51	41273.01
550.68	41574.94
550.84	41111.51
551.01	41577.28
551.18	41558.55
551.34	41141.94
551.51	41368.97
551.68	41528.13
551.84	41949.42
552.01	41926.02
552.18	41862.82
552.34	41130.23
552.51	42134.32
552.68	41982.19
552.84	41574.94
553.01	41998.57
553.18	41965.81
553.34	41366.63
553.51	42012.62
553.67	41928.36
553.84	42457.32
554.01	42312.20
554.17	42223.26
554.34	42202.20
554.51	42237.31
554.67	42815.42
554.84	41930.70
555.00	42438.59
555.17	41493.02
555.33	42351.99
555.50	42162.41
555.67	42663.28
555.83	42534.56
556.00	42155.39
556.16	43086.92
556.33	42642.22
556.50	42361.36
556.66	42429.23
556.83	42202.20
556.99	42691.37
557.16	42515.83
557.32	42834.14
557.49	42658.60
557.65	42429.23
557.82	42707.76
557.98	42368.38
558.15	42513.49
558.32	42911.38
558.48	43084.58
558.65	42614.13
558.81	43091.60
558.98	42696.05
559.14	42892.66
559.31	42710.10
559.47	42756.91
559.64	43461.41
559.80	43805.47
559.97	43250.76
560.13	42618.81
560.30	42937.13
560.46	42834.14
560.63	42941.81
560.79	43215.65
560.96	43166.50
561.12	43562.05
561.29	43461.41
561.45	42920.74
561.61	43545.67
561.78	43295.23
561.94	43173.52
562.11	43215.65
562.27	42878.61
562.44	43255.44
562.60	43402.89
562.77	43456.73
562.93	43309.27
563.10	43285.87
563.26	43173.52
563.42	42995.64
563.59	42869.25
563.75	43365.45
563.92	43229.69
564.08	43494.18
564.24	43587.80
564.41	43346.72
564.57	43688.44
564.74	43442.68
564.90	43447.36
565.07	43559.71
565.23	43438.00
565.39	43515.24
565.56	44041.86
565.72	43477.79
565.88	42976.92
566.05	43201.61
566.21	43882.70
566.38	43569.07
566.54	43328.00
566.70	43775.04
566.87	43892.07
567.03	43866.32
567.19	44067.61
567.36	43861.64
567.52	43571.41
567.68	43730.57
567.85	43625.25
568.01	43487.15
568.17	43136.07
568.34	43643.97
568.50	43786.74
568.66	43430.98
568.83	43915.47
568.99	43697.80
569.15	43578.43
569.32	43517.58
569.48	43512.90
569.64	43988.03
569.81	43538.65
569.97	43992.71
570.13	43524.60
570.30	43646.31
570.46	43503.54
570.62	43739.93
570.78	43604.18
570.95	43634.61
571.11	43882.70
571.27	44088.67
571.43	43903.77
571.60	44069.95
571.76	44020.80
571.92	43847.60
572.09	43894.41
572.25	43592.48
572.41	43863.98
572.57	43985.69
572.74	44332.09
572.90	44076.97
573.06	44158.89
573.22	44027.82
573.38	44208.04
573.55	43580.78
573.71	44582.52
573.87	43824.19
574.03	43915.47
574.20	43613.54
574.36	43838.23
574.52	44158.89
574.68	43828.87
574.84	44137.82
575.01	43840.57
575.17	43920.15
575.33	43681.42
575.49	43910.79
575.65	44807.22
575.82	44346.13
575.98	44287.62
576.14	44250.17
576.30	44025.48
576.46	43999.73
576.62	43952.92
576.79	43871.00
576.95	43627.59
577.11	44105.06
577.27	44076.97
577.43	44493.58
577.59	43835.89
577.75	44341.45
577.92	43643.97
578.08	43840.57
578.24	43716.53
578.40	44514.65
578.56	44184.63
578.72	44271.23
578.88	44418.69
579.04	44725.30
579.21	44165.91
579.37	43999.73
579.53	43901.43
579.69	44130.80
579.85	43917.81
580.01	44165.91
580.17	44091.01
580.33	44453.79
580.49	44540.39
580.65	44203.36
580.82	44430.39
580.98	44238.47
581.14	43711.84
581.30	43971.64
581.46	44315.70
581.62	44552.10
581.78	44046.54
581.94	44465.50
582.10	44442.09
582.26	44076.97
582.42	44509.97
582.58	44336.77
582.74	44259.53
582.90	44474.86
583.06	44624.65
583.22	44577.84
583.38	44521.67
583.54	44222.08
583.70	44212.72
583.86	44121.44
584.02	43629.93
584.18	44275.91
584.34	44589.55
584.50	44545.08
584.66	43749.29
584.82	44102.71
584.98	44617.63
585.14	44729.98
585.30	44350.81
585.46	44252.51
585.62	43810.15
585.78	44409.32
585.94	43805.47
586.10	44378.90
586.26	43676.74
586.42	44423.37
586.58	44086.33
586.74	44371.88
586.90	44196.34
587.06	44322.72
587.22	44626.99
587.38	43995.05
587.54	44093.35
587.70	44582.52
587.86	44170.59
588.02	44601.25
588.18	44734.66
588.34	44182.29
588.49	44425.71
588.65	44058.24
588.81	43835.89
588.97	44182.29
589.13	43599.50
589.29	44289.96
589.45	44634.02
589.61	44397.62
589.77	44818.92
589.93	44678.49
590.08	44292.30
590.24	44769.77
590.40	44261.87
