SpectraSuite Data File
++++++++++++++++++++++++++++++++++++
Date: Fri Oct 25 11:26:17 EDT 2013
User: price-jones
Dark Spectrum Present: No
Reference Spectrum Present: No
Number of Sampled Component Spectra: 1
Spectrometers: USB2+H05261
Integration Time (usec): 100000 (USB2+H05261)
Spectra Averaged: 1 (USB2+H05261)
Boxcar Smoothing: 0 (USB2+H05261)
Correct for Electrical Dark: No (USB2+H05261)
Strobe/Lamp Enabled: No (USB2+H05261)
Correct for Detector Non-linearity: No (USB2+H05261)
Correct for Stray Light: No (USB2+H05261)
Number of Pixels in Processed Spectrum: 2048
>>>>>Begin Processed Spectral Data<<<<<
365.73	212.99
365.92	212.99
366.12	212.99
366.32	131.07
366.52	77.24
366.72	191.92
366.91	93.62
367.11	173.20
367.31	170.86
367.51	105.32
367.70	189.58
367.90	121.71
368.10	77.24
368.30	147.45
368.49	145.11
368.69	161.50
368.89	224.69
369.09	152.13
369.28	208.31
369.48	175.54
369.68	201.29
369.87	173.20
370.07	135.75
370.27	318.31
370.47	332.36
370.66	486.83
370.86	566.41
371.06	655.35
371.25	657.69
371.45	629.60
371.65	671.73
371.84	720.88
372.04	676.41
372.24	723.23
372.44	695.14
372.63	688.12
372.83	774.72
373.03	753.65
373.22	760.67
373.42	802.80
373.62	713.86
373.81	840.25
374.01	809.83
374.21	777.06
374.40	786.42
374.60	833.23
374.79	851.96
374.99	835.57
375.19	894.08
375.38	875.36
375.58	947.92
375.78	851.96
375.97	882.38
376.17	905.79
376.37	830.89
376.56	873.02
376.76	929.19
376.95	835.57
377.15	849.61
377.35	875.36
377.54	847.27
377.74	917.49
377.93	961.96
378.13	938.55
378.33	947.92
378.52	891.74
378.72	1057.92
378.91	952.60
379.11	997.07
379.31	978.34
379.50	926.85
379.70	1034.52
379.89	971.32
380.09	964.30
380.28	917.49
380.48	1060.26
380.68	1043.88
380.87	1022.81
381.07	980.68
381.26	1095.37
381.46	1050.90
381.65	1060.26
381.85	1069.62
382.04	1100.05
382.24	1160.91
382.43	1048.56
382.63	1018.13
382.83	1121.12
383.02	1090.69
383.22	1142.18
383.41	997.07
383.61	1153.88
383.80	1132.82
384.00	1053.24
384.19	1083.67
384.39	1170.27
384.58	1048.56
384.78	1163.25
384.97	1198.35
385.17	1172.61
385.36	1153.88
385.56	1210.06
385.75	1137.50
385.95	1160.91
386.14	1149.20
386.34	1118.78
386.53	1249.85
386.72	1167.93
386.92	1210.06
387.11	1214.74
387.31	1263.89
387.50	1214.74
387.70	1252.19
387.89	1247.51
388.09	1301.34
388.28	1282.61
388.48	1303.68
388.67	1336.45
388.86	1376.24
389.06	1359.85
389.25	1256.87
389.45	1362.19
389.64	1320.06
389.84	1453.47
390.03	1411.34
390.22	1308.36
390.42	1390.28
390.61	1376.24
390.81	1413.68
391.00	1296.66
391.19	1500.28
391.39	1453.47
391.58	1451.13
391.78	1383.26
391.97	1523.69
392.16	1469.86
392.36	1376.24
392.55	1446.45
392.75	1474.54
392.94	1509.65
393.13	1497.94
393.33	1516.67
393.52	1582.20
393.71	1533.05
393.91	1600.93
394.10	1540.07
394.29	1610.29
394.49	1570.50
394.68	1671.14
394.88	1619.65
395.07	1633.69
395.26	1694.55
395.46	1631.35
395.65	1657.10
395.84	1753.06
396.04	1746.04
396.23	1739.02
396.42	1722.63
396.62	1734.34
396.81	1760.08
397.00	1809.23
397.19	1722.63
397.39	1774.13
397.58	1804.55
397.77	1879.45
397.97	1839.66
398.16	1834.98
398.35	1921.58
398.55	1851.36
398.74	1886.47
398.93	1891.15
399.12	1914.56
399.32	1893.49
399.51	1970.73
399.70	2066.69
399.90	1907.54
400.09	1930.94
400.28	1863.07
400.47	2057.33
400.67	2108.82
400.86	2085.42
401.05	2050.31
401.24	2090.10
401.44	2106.48
401.63	2050.31
401.82	2176.70
402.01	2146.27
402.21	2134.57
402.40	2094.78
402.59	2113.50
402.78	2125.21
402.97	2160.31
403.17	2195.42
403.36	2253.94
403.55	2263.30
403.74	2338.20
403.93	2279.68
404.13	2403.73
404.32	2263.30
404.51	2359.26
404.70	2368.62
404.89	2342.88
405.09	2455.22
405.28	2469.27
405.47	2516.08
405.66	2525.44
405.85	2623.74
406.05	2499.69
406.24	2537.14
406.43	2492.67
406.62	2619.06
406.81	2597.99
407.00	2511.39
407.20	2619.06
407.39	2626.08
407.58	2698.64
407.77	2654.17
407.96	2722.04
408.15	2780.56
408.34	2738.43
408.54	2768.85
408.73	2736.09
408.92	2904.60
409.11	2752.47
409.30	2846.09
409.49	2829.71
409.68	2874.18
409.87	2846.09
410.07	3012.27
410.26	2937.37
410.45	2951.42
410.64	3026.31
410.83	3101.21
411.02	3054.40
411.21	3232.28
411.40	3126.96
411.59	3143.34
411.78	3194.83
411.98	3166.74
412.17	3241.64
412.36	3225.26
412.55	3396.12
412.74	3473.36
412.93	3417.18
413.12	3372.71
413.31	3471.01
413.50	3389.10
413.69	3487.40
413.88	3440.59
414.07	3588.04
414.26	3559.95
414.45	3658.26
414.64	3604.42
414.83	3768.26
415.02	3721.45
415.22	3801.03
415.41	3812.73
415.60	3829.12
415.79	3801.03
415.98	3894.65
416.17	3920.40
416.36	3882.95
416.55	3894.65
416.74	4133.39
416.93	3941.46
417.12	4102.96
417.31	4081.89
417.50	4250.41
417.69	4351.06
417.88	4145.09
418.07	4196.58
418.26	4138.07
418.45	4236.37
418.64	4512.55
418.83	4353.40
419.02	4327.65
419.21	4444.68
419.39	4318.29
419.58	4491.49
419.77	4489.15
419.96	4573.41
420.15	4435.32
420.34	4554.68
420.53	4648.30
420.72	4702.14
420.91	4732.56
421.10	4580.43
421.29	4645.96
421.48	4760.65
421.67	4723.20
421.86	4582.77
422.05	4720.86
422.24	4730.22
422.43	4713.84
422.61	4884.70
422.80	4835.55
422.99	4943.21
423.18	4983.00
423.37	5137.48
423.56	4894.06
423.75	5039.17
423.94	4849.59
424.13	4606.17
424.32	4587.45
424.50	4809.80
424.69	5025.13
424.88	4847.25
425.07	4971.30
425.26	4877.68
425.45	4985.34
425.64	4875.34
425.83	4910.44
426.01	5104.71
426.20	4971.30
426.39	4830.87
426.58	4985.34
426.77	5050.88
426.96	5060.24
427.15	5076.62
427.33	5167.90
427.52	5205.35
427.71	5123.43
427.90	5135.14
428.09	5298.97
428.28	5170.24
428.46	5231.10
428.65	5310.68
428.84	5481.53
429.03	5392.59
429.22	5291.95
429.40	5563.45
429.59	5521.32
429.78	5282.59
429.97	5242.80
430.16	5345.78
430.34	5493.24
430.53	5502.60
430.72	5724.95
430.91	5678.14
431.10	5591.54
431.28	5680.48
431.47	5750.70
431.66	5874.74
431.85	5790.49
432.03	5813.89
432.22	5937.94
432.41	5666.44
432.60	5914.53
432.79	5916.87
432.97	6047.94
433.16	5905.17
433.35	6024.54
433.54	6005.81
433.72	6043.26
433.91	6167.31
434.10	6043.26
434.28	5893.47
434.47	5928.58
434.66	6303.06
434.85	6274.98
435.03	6326.47
435.22	6246.89
435.41	6511.37
435.59	6345.19
435.78	6490.31
435.97	6380.30
436.16	6291.36
436.34	6352.21
436.53	6403.71
436.72	6490.31
436.90	6513.71
437.09	6483.28
437.28	6541.80
437.46	6527.75
437.65	6523.07
437.84	6722.02
438.02	6649.46
438.21	6766.49
438.40	6693.93
438.58	6949.05
438.77	7138.63
438.96	6876.49
439.14	6885.86
439.33	7162.04
439.52	7248.64
439.70	6974.80
439.89	7169.06
440.08	7311.83
440.26	7232.26
440.45	7281.41
440.63	7463.97
440.82	7566.95
441.01	7487.37
441.19	7627.81
441.38	7588.02
441.57	7700.36
441.75	7843.14
441.94	7880.58
442.12	7880.58
442.31	7866.54
442.50	8091.23
442.68	7936.76
442.87	8121.66
443.05	8018.68
443.24	7974.21
443.43	8163.79
443.61	7960.16
443.80	8397.84
443.98	7981.23
444.17	7772.92
444.35	8189.53
444.54	8217.62
444.73	8077.19
444.91	8334.65
445.10	8156.77
445.28	8280.82
445.47	8184.85
445.65	8241.03
445.84	8285.50
446.02	8301.88
446.21	8402.52
446.39	8320.60
446.58	8315.92
446.77	8353.37
446.95	8161.45
447.14	8404.86
447.32	8435.29
447.51	8327.63
447.69	8423.59
447.88	8479.76
448.06	8400.18
448.25	8374.44
448.43	8540.61
448.62	8486.78
448.80	8526.57
448.99	8617.85
449.17	8695.09
449.36	8676.37
449.54	8755.94
449.73	8926.80
449.91	8891.70
450.10	9039.15
450.28	8945.53
450.46	8938.51
450.65	8938.51
450.83	8957.23
451.02	9015.74
451.20	9219.37
451.39	9121.07
451.57	9156.18
451.76	8877.65
451.94	9064.89
452.13	9315.33
452.31	9322.35
452.49	9055.53
452.68	9228.73
452.86	9172.56
453.05	9336.40
453.23	9371.50
453.42	9336.40
453.60	9282.56
453.78	9589.17
453.97	9408.95
454.15	9427.68
454.34	9366.82
454.52	9575.13
454.70	9497.89
454.89	9664.07
455.07	9591.52
455.26	9682.80
455.44	9839.61
455.62	9846.63
455.81	9877.06
455.99	9996.43
456.17	10052.60
456.36	10108.77
456.54	10094.73
456.73	10146.22
456.91	10293.68
457.09	10480.92
457.28	10647.10
457.46	10104.09
457.64	10640.08
457.83	10569.86
458.01	10361.55
458.19	10714.97
458.38	10363.89
458.56	10630.71
458.74	10806.25
458.93	10576.88
459.11	10581.56
459.29	10731.36
459.48	10707.95
459.66	10516.03
459.84	10836.68
460.03	11206.48
460.21	10644.76
460.39	10927.96
460.57	10876.47
460.76	10949.03
460.94	11068.39
461.12	11253.30
461.31	11150.31
461.49	11068.39
461.67	10972.43
461.85	11405.43
462.04	11204.14
462.22	11473.31
462.40	11440.54
462.59	11580.97
462.77	11548.20
462.95	11630.12
463.13	11447.56
463.32	11606.72
463.50	11459.26
463.68	11527.14
463.86	11662.89
464.05	11644.17
464.23	11496.71
464.41	11908.65
464.59	11449.90
464.78	12133.34
464.96	11950.78
465.14	11744.81
465.32	11995.25
465.50	12084.19
465.69	12191.85
465.87	12163.76
466.05	11983.54
466.23	12123.98
466.41	12161.42
466.60	12533.57
466.78	12032.69
466.96	12255.04
467.14	12390.80
467.32	12599.10
467.51	12606.13
467.69	12072.48
467.87	12301.86
468.05	12456.33
468.23	12451.65
468.41	12486.76
468.60	12425.90
468.78	12547.61
468.96	12798.05
469.14	12879.97
469.32	13055.51
469.50	12519.53
469.69	13128.06
469.87	13064.87
470.05	13092.96
470.23	13191.26
470.41	13160.83
470.59	13153.81
470.77	13029.76
470.95	13256.79
471.14	13495.53
471.32	12842.52
471.50	13338.71
471.68	13610.22
471.86	13692.13
472.04	13465.10
472.22	14052.58
472.40	13685.11
472.58	13881.72
472.77	13701.50
472.95	14038.53
473.13	14537.07
473.31	13930.87
473.49	14263.22
473.67	14181.31
473.85	14225.78
474.03	14679.84
474.21	14478.55
474.39	14476.21
474.57	14520.68
474.75	14626.01
474.93	15000.49
475.12	15070.71
475.30	15115.18
475.48	14930.28
475.66	14874.10
475.84	14963.04
476.02	15304.76
476.20	15463.92
476.38	15592.65
476.56	15840.75
476.74	15770.53
476.92	15899.26
477.10	15665.21
477.28	16074.80
477.46	16093.52
477.64	16056.08
477.82	16573.33
478.00	16812.07
478.18	16664.61
478.36	16865.90
478.54	16872.92
478.72	17027.40
478.90	17111.66
479.08	17411.25
479.26	17483.80
479.44	17504.87
479.62	17603.17
479.80	17886.37
479.98	17940.21
480.16	18331.08
480.34	17891.06
480.52	18380.23
480.70	18197.67
480.88	18265.54
481.06	18766.42
481.24	18834.29
481.41	18953.66
481.59	19108.13
481.77	19253.25
481.95	19651.14
482.13	19506.02
482.31	19761.14
482.49	20297.13
482.67	20109.88
482.85	20294.79
483.03	20563.95
483.21	20744.17
483.39	20898.64
483.57	20755.87
483.74	21008.65
483.92	21240.36
484.10	20823.75
484.28	21493.14
484.46	21612.51
484.64	22122.74
484.82	21935.50
485.00	21968.27
485.18	22300.62
485.35	22920.87
485.53	22806.18
485.71	22789.80
485.89	23304.71
486.07	23143.22
486.25	23239.18
486.43	23288.33
486.61	23889.85
486.78	23981.13
486.96	24170.71
487.14	23875.80
487.32	24367.32
487.50	24783.93
487.68	24898.62
487.85	25006.28
488.03	25102.25
488.21	25710.78
488.39	25778.66
488.57	26029.10
488.75	26050.16
488.92	26096.97
489.10	26710.19
489.28	26309.96
489.46	26953.61
489.64	27009.78
489.81	27529.38
489.99	27367.88
490.17	27831.31
490.35	27669.81
490.53	28095.79
490.70	28095.79
490.88	27857.06
491.06	28819.02
491.24	28177.71
491.41	28765.18
491.59	29095.20
491.77	29167.76
491.95	29308.19
492.13	29483.73
492.30	29607.78
492.48	29804.38
492.66	29750.55
492.84	30115.67
493.01	30494.84
493.19	30492.50
493.37	30864.64
493.54	31012.10
493.72	31040.18
493.90	30925.50
494.08	31491.91
494.25	31601.91
494.43	31491.91
494.61	32025.55
494.79	31702.56
494.96	32496.00
495.14	32201.09
495.32	32868.14
495.49	32751.12
495.67	32992.19
495.85	33144.33
496.02	33584.35
496.20	33605.41
496.38	33942.45
496.55	33816.06
496.73	34459.71
496.91	34445.66
497.09	34338.00
497.26	34462.05
497.44	34761.64
497.62	34986.33
497.79	35580.82
497.97	35281.24
498.14	35606.57
498.32	35964.67
498.50	35957.65
498.67	36273.62
498.85	35793.81
499.03	36390.65
499.20	36648.11
499.38	36205.75
499.56	36650.45
499.73	36898.55
499.91	37179.41
500.08	37069.40
500.26	37280.05
500.44	37151.32
500.61	37621.77
500.79	37228.56
500.97	37493.04
501.14	38455.00
501.32	38242.01
501.49	38167.12
501.67	38457.34
501.84	38740.55
502.02	38789.70
502.20	38754.59
502.37	38670.33
502.55	38958.22
502.72	39009.71
502.90	39054.18
503.07	38824.81
503.25	39651.02
503.43	39541.01
503.60	39473.13
503.78	39845.28
503.95	40156.57
504.13	40304.02
504.30	40432.75
504.48	39852.30
504.65	40395.31
504.83	40875.12
505.01	40905.54
505.18	40783.83
505.36	41088.10
505.53	41010.87
505.71	40900.86
505.88	41617.07
506.06	41106.83
506.23	42017.30
506.41	41907.29
506.58	41429.82
506.76	42164.75
506.93	42342.63
507.11	41549.19
507.28	42073.47
507.46	42429.23
507.63	42630.52
507.81	42534.56
507.98	43028.41
508.16	42616.47
508.33	42653.92
508.50	43196.93
508.68	43061.18
508.85	43512.90
509.03	43281.19
509.20	43777.38
509.38	43990.37
509.55	43482.47
509.73	44470.18
509.90	44161.23
510.08	44411.67
510.25	44320.38
510.42	44505.29
510.60	44573.16
510.77	44486.56
510.95	44971.05
511.12	44704.23
511.30	44802.53
511.47	45141.91
511.64	45495.33
511.82	45820.67
511.99	45043.61
512.17	45724.71
512.34	45315.11
512.51	46232.60
512.69	46260.69
512.86	46110.89
513.04	46164.73
513.21	46007.91
513.38	46026.63
513.56	46703.05
513.73	46593.04
513.90	46698.37
514.08	46623.47
514.25	46845.82
514.43	46972.21
514.60	47182.86
514.77	47114.98
514.95	47505.85
515.12	47557.35
515.29	47232.01
515.47	47779.70
515.64	47758.63
515.81	48102.69
515.99	47789.06
516.16	48058.22
516.33	48098.01
516.51	47990.34
516.68	47941.19
516.85	48208.01
517.03	48781.45
517.20	48535.69
517.37	48247.80
517.54	48282.91
517.72	48767.40
517.89	48849.32
518.06	49432.11
518.24	49123.16
518.41	49102.10
518.58	49249.55
518.75	48786.13
518.93	49031.88
519.10	49085.72
519.27	49284.66
519.45	49191.04
519.62	49855.75
519.79	49977.46
519.96	49380.62
520.14	49827.66
520.31	49429.77
520.48	50220.87
520.65	49813.62
520.83	50150.66
521.00	50316.84
521.17	50164.70
521.34	50478.33
521.52	50459.61
521.69	50473.65
521.86	50295.77
522.03	50932.40
522.20	50944.10
522.38	51182.84
522.55	51117.30
522.72	50951.12
522.89	51051.76
523.07	51112.62
523.24	51107.94
523.41	51264.75
523.58	51070.49
523.75	51405.19
523.92	51536.26
524.10	51866.27
524.27	51557.32
524.44	51803.08
524.61	51657.96
524.78	51840.53
524.96	52041.81
525.13	52025.43
525.30	52041.81
525.47	52428.00
525.64	52259.48
525.81	52622.26
525.98	52273.52
526.16	52292.25
526.33	52449.06
526.50	52886.74
526.67	52399.91
526.84	52914.83
527.01	52512.26
527.18	52865.68
527.36	52573.11
527.53	52767.38
527.70	53420.39
527.87	53097.39
528.04	52898.45
528.21	53151.23
528.38	53123.14
528.55	53183.99
528.72	53305.70
528.89	53169.95
529.07	53146.54
529.24	53340.81
529.41	53343.15
529.58	53530.39
529.75	53612.31
529.92	53198.04
530.09	53544.44
530.26	53771.47
530.43	53776.15
530.60	53497.62
530.77	53567.84
530.94	53790.19
531.11	53722.32
531.28	53811.26
531.46	53811.26
531.63	54028.93
531.80	54197.44
531.97	54232.55
532.14	54447.88
532.31	54078.08
532.48	53956.37
532.65	54323.83
532.82	54143.61
532.99	54667.89
533.16	54431.50
533.33	54452.56
533.50	54691.30
533.67	54644.49
533.84	54541.50
534.01	54623.42
534.18	54726.41
534.35	55105.57
534.52	54859.82
534.69	54871.52
534.86	55173.45
535.03	54937.05
535.20	54995.57
535.37	55068.12
535.54	55341.97
535.71	55098.55
535.88	55288.13
536.05	55182.81
536.22	55377.08
536.38	55327.92
536.55	55192.17
536.72	55398.14
536.89	55367.71
537.06	55318.56
537.23	55597.09
537.40	55622.83
537.57	55388.78
537.74	55519.85
537.91	55597.09
538.08	55751.56
538.25	55547.93
538.42	55777.31
538.59	55983.27
538.75	55604.11
538.92	55751.56
539.09	56090.94
539.26	55679.00
539.43	56081.58
539.60	55980.93
539.77	55664.96
539.94	56280.52
540.11	56142.43
540.28	56051.15
540.44	56303.93
540.61	56158.81
540.78	56149.45
540.95	56130.73
541.12	56261.80
541.29	56252.44
541.46	56282.86
541.62	56357.76
541.79	56479.47
541.96	56416.27
542.13	56273.50
542.30	56427.98
542.47	56523.94
542.63	56886.72
542.80	56378.82
542.97	56844.59
543.14	57137.16
543.31	57132.48
543.48	56879.70
543.64	57322.06
543.81	56786.08
543.98	57340.78
544.15	57176.95
544.32	57319.72
544.48	57448.45
544.65	57106.73
544.82	57251.84
544.99	56992.04
545.16	57357.17
545.32	56952.26
545.49	57460.15
545.66	57457.81
545.83	57088.01
546.00	57584.20
546.16	57485.90
546.33	57506.96
546.50	57214.40
546.67	57502.28
546.83	57008.43
547.00	57368.87
547.17	57579.52
547.34	57696.55
547.50	57677.82
547.67	57750.38
547.84	57979.75
548.00	57790.17
548.17	58122.52
548.34	57752.72
548.51	57963.37
548.67	58216.14
548.84	57813.57
549.01	58059.33
549.18	57822.93
549.34	58082.73
549.51	58241.89
549.68	58007.84
549.84	58216.14
550.01	58307.43
550.18	58089.76
550.34	58265.30
550.51	58307.43
550.68	58415.09
550.84	58145.93
551.01	58417.43
551.18	58209.12
551.34	58478.28
551.51	58274.66
551.68	58344.87
551.84	58302.74
552.01	58138.91
552.18	58291.04
552.34	58260.62
552.51	58326.15
552.68	58431.47
552.84	58323.81
553.01	58550.84
553.18	58576.59
553.34	58576.59
553.51	58583.61
553.67	58623.40
553.84	58894.90
554.01	58878.52
554.17	58801.28
554.34	58932.35
554.51	58717.02
554.67	58745.11
554.84	58838.73
555.00	58852.77
555.17	58812.98
555.33	58843.41
555.50	58770.85
555.67	58894.90
555.83	58595.31
556.00	58887.88
556.16	59353.65
556.33	58997.88
556.50	58972.14
556.66	59098.53
556.83	58702.98
556.99	59143.00
557.16	59372.37
557.32	59283.43
557.49	59697.70
557.65	59260.02
557.82	59337.26
557.98	59121.93
558.15	59236.62
558.32	59105.55
558.48	59152.36
558.65	59264.70
558.81	59215.55
558.98	59374.71
559.14	59587.70
559.31	59648.55
559.47	59494.08
559.64	59421.52
559.80	59547.91
559.97	59540.89
560.13	59447.27
560.30	59405.14
560.46	59377.05
560.63	59531.53
560.79	59683.66
560.96	59817.07
561.12	59718.77
561.29	59657.91
561.45	59536.21
561.61	59744.51
561.78	59634.51
561.94	59676.64
562.11	59704.73
562.27	59583.02
562.44	59695.36
562.60	59915.37
562.77	59737.49
562.93	59833.46
563.10	59756.22
563.26	59557.27
563.42	59838.14
563.59	59707.07
563.75	59714.09
563.92	59796.01
564.08	59627.49
564.24	59976.23
564.41	59948.14
564.57	60126.02
564.74	59941.12
564.90	60093.25
565.07	60067.51
565.23	59992.61
565.39	60060.49
565.56	59870.90
565.72	60025.38
565.88	59920.05
566.05	59849.84
566.21	59992.61
566.38	59955.16
566.54	60243.05
566.70	60177.51
566.87	60186.88
567.03	60011.34
567.19	60390.50
567.36	59927.08
567.52	60151.77
567.68	60339.01
567.85	60109.64
568.01	60093.25
568.17	59994.95
568.34	60355.39
568.50	60212.62
568.66	60161.13
568.83	60315.61
568.99	60114.32
569.15	60151.77
569.32	60240.71
569.48	60280.50
569.64	60367.10
569.81	60259.43
569.97	60051.12
570.13	60243.05
570.30	60229.01
570.46	60268.79
570.62	60336.67
570.78	60378.80
570.95	60233.69
571.11	60453.70
571.27	60388.16
571.43	60502.85
571.60	60364.76
571.76	60355.39
571.92	60205.60
572.09	60301.56
572.25	60357.74
572.41	60292.20
572.57	60547.32
572.74	60423.27
572.90	60329.65
573.06	60552.00
573.22	60498.17
573.38	60385.82
573.55	60327.31
573.71	60493.49
573.87	60463.06
574.03	60397.52
574.20	60601.15
574.36	60441.99
574.52	60589.45
574.68	60619.88
574.84	60533.28
575.01	60729.88
575.17	60544.98
575.33	60357.74
575.49	60273.48
575.65	60589.45
575.82	60664.35
575.98	60615.19
576.14	60654.98
576.30	60467.74
576.46	60491.15
576.62	60640.94
576.79	60472.42
576.95	60441.99
577.11	60608.17
577.27	60540.30
577.43	60650.30
577.59	60425.61
577.75	60570.72
577.92	60367.10
578.08	60493.49
578.24	60711.16
578.40	60961.59
578.56	60704.13
578.72	60612.85
578.88	60903.08
579.04	60769.67
579.21	60786.05
579.37	60711.16
579.53	60795.42
579.69	60601.15
579.85	60603.49
580.01	60598.81
580.17	60250.07
580.33	60802.44
580.49	60736.90
580.65	60697.11
580.82	60786.05
580.98	60554.34
581.14	60566.04
581.30	60816.48
581.46	60622.22
581.62	60793.07
581.78	60814.14
581.94	61020.11
582.10	60788.39
582.26	60659.66
582.42	60467.74
582.58	60673.71
582.74	60694.77
582.90	60832.86
583.06	60652.64
583.22	60542.64
583.38	60662.00
583.54	60694.77
583.70	60896.06
583.86	60760.31
584.02	60746.26
584.18	60788.39
584.34	60584.77
584.50	60973.30
584.66	60669.03
584.82	60638.60
584.98	60884.36
585.14	61003.72
585.30	60774.35
585.46	60900.74
585.62	60711.16
585.78	60999.04
585.94	60502.85
586.10	60729.88
586.26	61099.68
586.42	60938.19
586.58	60999.04
586.74	61010.74
586.90	60860.95
587.06	60772.01
587.22	60928.83
587.38	60961.59
587.54	61076.28
587.70	60931.17
587.86	60886.70
588.02	60762.65
588.18	61090.32
588.34	60893.72
588.49	60945.21
