SpectraSuite Data File
++++++++++++++++++++++++++++++++++++
Date: Fri Oct 25 11:26:00 EDT 2013
User: price-jones
Dark Spectrum Present: No
Reference Spectrum Present: No
Number of Sampled Component Spectra: 1
Spectrometers: USB2+H05261
Integration Time (usec): 100000 (USB2+H05261)
Spectra Averaged: 1 (USB2+H05261)
Boxcar Smoothing: 0 (USB2+H05261)
Correct for Electrical Dark: No (USB2+H05261)
Strobe/Lamp Enabled: No (USB2+H05261)
Correct for Detector Non-linearity: No (USB2+H05261)
Correct for Stray Light: No (USB2+H05261)
Number of Pixels in Processed Spectrum: 2048
>>>>>Begin Processed Spectral Data<<<<<
365.73	238.73
365.92	238.73
366.12	238.73
366.32	180.22
366.52	91.28
366.72	84.26
366.91	105.32
367.11	168.52
367.31	128.73
367.51	147.45
367.70	145.11
367.90	105.32
368.10	67.88
368.30	152.13
368.49	175.54
368.69	163.84
368.89	138.09
369.09	70.22
369.28	138.09
369.48	234.05
369.68	224.69
369.87	210.65
370.07	271.50
370.27	227.03
370.47	381.51
370.66	653.01
370.86	566.41
371.06	606.20
371.25	690.46
371.45	638.97
371.65	699.82
371.84	608.54
372.04	683.44
372.24	725.57
372.44	678.76
372.63	725.57
372.83	732.59
373.03	737.27
373.22	737.27
373.42	751.31
373.62	755.99
373.81	791.10
374.01	905.79
374.21	823.87
374.40	777.06
374.60	837.91
374.79	828.55
374.99	847.27
375.19	802.80
375.38	807.48
375.58	901.11
375.78	891.74
375.97	851.96
376.17	884.72
376.37	760.67
376.56	856.64
376.76	807.48
376.95	866.00
377.15	861.32
377.35	882.38
377.54	868.34
377.74	917.49
377.93	912.81
378.13	917.49
378.33	868.34
378.52	957.28
378.72	947.92
378.91	990.05
379.11	936.21
379.31	978.34
379.50	936.21
379.70	940.90
379.89	1029.84
380.09	954.94
380.28	947.92
380.48	966.64
380.68	947.92
380.87	929.19
381.07	1022.81
381.26	1069.62
381.46	1029.84
381.65	1104.73
381.85	1064.94
382.04	1022.81
382.24	1118.78
382.43	1109.41
382.63	1100.05
382.83	1097.71
383.02	1205.38
383.22	1069.62
383.41	1097.71
383.61	1114.10
383.80	1095.37
384.00	1076.65
384.19	1165.59
384.39	1128.14
384.58	1160.91
384.78	1050.90
384.97	1144.52
385.17	1186.65
385.36	1121.12
385.56	1196.01
385.75	1100.05
385.95	1273.25
386.14	1186.65
386.34	1149.20
386.53	1207.72
386.72	1205.38
386.92	1233.46
387.11	1210.06
387.31	1303.68
387.50	1193.67
387.70	1242.82
387.89	1247.51
388.09	1277.93
388.28	1226.44
388.48	1228.78
388.67	1383.26
388.86	1240.48
389.06	1355.17
389.25	1341.13
389.45	1306.02
389.64	1327.08
389.84	1425.39
390.03	1423.05
390.22	1432.41
390.42	1373.89
390.61	1291.98
390.81	1373.89
391.00	1411.34
391.19	1439.43
391.39	1500.28
391.58	1490.92
391.78	1434.75
391.97	1526.03
392.16	1448.79
392.36	1551.78
392.55	1490.92
392.75	1521.35
392.94	1469.86
393.13	1549.43
393.33	1596.25
393.52	1558.80
393.71	1600.93
393.91	1565.82
394.10	1607.95
394.29	1582.20
394.49	1629.01
394.68	1762.42
394.88	1664.12
395.07	1621.99
395.26	1694.55
395.46	1638.38
395.65	1584.54
395.84	1762.42
396.04	1748.38
396.23	1647.74
396.42	1734.34
396.62	1685.19
396.81	1724.97
397.00	1825.62
397.19	1748.38
397.39	1823.28
397.58	1834.98
397.77	1750.72
397.97	1912.22
398.16	1804.55
398.35	1863.07
398.55	1823.28
398.74	1846.68
398.93	1968.39
399.12	1961.37
399.32	1865.41
399.51	1977.75
399.70	2012.86
399.90	1947.33
400.09	2008.18
400.28	2078.40
400.47	2080.74
400.67	2024.56
400.86	2087.76
401.05	2080.74
401.24	1963.71
401.44	2108.82
401.63	2136.91
401.82	2139.25
402.01	2040.95
402.21	2181.38
402.40	2188.40
402.59	2223.51
402.78	2160.31
402.97	2331.17
403.17	2312.45
403.36	2282.02
403.55	2251.60
403.74	2380.32
403.93	2314.79
404.13	2291.38
404.32	2324.15
404.51	2401.39
404.70	2319.47
404.89	2370.96
405.09	2476.29
405.28	2429.48
405.47	2457.56
405.66	2443.52
405.85	2417.77
406.05	2518.42
406.24	2537.14
406.43	2546.50
406.62	2588.63
406.81	2719.70
407.00	2473.95
407.20	2633.10
407.39	2663.53
407.58	2551.18
407.77	2640.12
407.96	2705.66
408.15	2708.00
408.34	2670.55
408.54	2754.81
408.73	2803.96
408.92	2820.35
409.11	2876.52
409.30	2902.26
409.49	2899.92
409.68	2885.88
409.87	2970.14
410.07	3016.95
410.26	2946.73
410.45	3014.61
410.64	3054.40
410.83	3176.11
411.02	3183.13
411.21	3124.62
411.40	3080.14
411.59	3206.53
411.78	3169.09
411.98	3187.81
412.17	3335.26
412.36	3346.97
412.55	3335.26
412.74	3339.94
412.93	3335.26
413.12	3332.92
413.31	3588.04
413.50	3471.01
413.69	3588.04
413.88	3482.72
414.07	3578.68
414.26	3555.27
414.45	3506.12
414.64	3609.11
414.83	3695.71
415.02	3742.52
415.22	3915.72
415.41	3775.28
415.60	3789.33
415.79	3824.44
415.98	3805.71
416.17	4046.79
416.36	3960.19
416.55	3941.46
416.74	3981.25
416.93	4154.45
417.12	4100.62
417.31	4166.15
417.50	4093.60
417.69	4166.15
417.88	4283.18
418.07	4163.81
418.26	4386.16
418.45	4182.54
418.64	4402.55
418.83	4451.70
419.02	4500.85
419.21	4498.51
419.39	4580.43
419.58	4407.23
419.77	4334.67
419.96	4648.30
420.15	4533.62
420.34	4585.11
420.53	4645.96
420.72	4739.58
420.91	4645.96
421.10	4638.94
421.29	4847.25
421.48	4655.33
421.67	4730.22
421.86	4816.82
422.05	4889.38
422.24	4863.63
422.43	4835.55
422.61	4854.27
422.80	4884.70
422.99	4924.49
423.18	4936.19
423.37	4999.38
423.56	4947.89
423.75	4856.61
423.94	4905.76
424.13	4802.78
424.32	4793.42
424.50	4943.21
424.69	5139.82
424.88	5034.49
425.07	4894.06
425.26	4891.72
425.45	4994.70
425.64	4938.53
425.83	4987.68
426.01	5135.14
426.20	5015.77
426.39	4938.53
426.58	4905.76
426.77	5165.56
426.96	5116.41
427.15	5048.54
427.33	5097.69
427.52	5151.52
427.71	5317.70
427.90	5343.44
428.09	5303.65
428.28	5472.17
428.46	5385.57
428.65	5167.90
428.84	5460.47
429.03	5565.79
429.22	5331.74
429.40	5474.51
429.59	5643.03
429.78	5441.75
429.97	5240.46
430.16	5514.30
430.34	5577.50
430.53	5722.61
430.72	5614.95
430.91	5760.06
431.10	5586.86
431.28	5727.29
431.47	5582.18
431.66	5764.74
431.85	5685.16
432.03	5900.49
432.22	5919.21
432.41	5893.47
432.60	6038.58
432.79	5802.19
432.97	6036.24
433.16	5998.79
433.35	5966.03
433.54	6054.97
433.72	6113.48
433.91	6059.65
434.10	6059.65
434.28	6218.80
434.47	6134.54
434.66	6333.49
434.85	6298.38
435.03	6452.86
435.22	6127.52
435.41	6509.03
435.59	6546.48
435.78	6459.88
435.97	6494.99
436.16	6326.47
436.34	6345.19
436.53	6462.22
436.72	6626.06
436.90	6349.87
437.09	6658.82
437.28	6312.42
437.46	6579.25
437.65	6700.95
437.84	6733.72
438.02	6803.94
438.21	6881.18
438.40	6794.58
438.58	7084.80
438.77	7077.78
438.96	6752.45
439.14	7028.63
439.33	7194.81
439.52	7166.72
439.70	7136.29
439.89	7316.51
440.08	7225.23
440.26	7131.61
440.45	7360.98
440.63	7513.12
440.82	7674.62
441.01	7588.02
441.19	7702.70
441.38	7754.19
441.57	7604.40
441.75	7859.52
441.94	7793.98
442.12	7817.39
442.31	8072.51
442.50	8170.81
442.68	8138.04
442.87	8156.77
443.05	8269.11
443.24	8329.97
443.43	8224.64
443.61	8025.70
443.80	8402.52
443.98	7927.39
444.17	7873.56
444.35	8219.96
444.54	8318.26
444.73	8339.33
444.91	8119.32
445.10	8299.54
445.28	8159.11
445.47	8294.86
445.65	8500.83
445.84	8358.05
446.02	8524.23
446.21	8329.97
446.39	8292.52
446.58	8482.10
446.77	8549.98
446.95	8170.81
447.14	8360.39
447.32	8531.25
447.51	8596.79
447.69	8456.36
447.88	8648.28
448.06	8372.10
448.25	8369.76
448.43	8669.34
448.62	8521.89
448.80	8755.94
448.99	8739.56
449.17	8688.07
449.36	8486.78
449.54	8931.48
449.73	9008.72
449.91	9078.94
450.10	8896.38
450.28	8966.59
450.46	9179.58
450.65	9057.87
450.83	9263.84
451.02	9060.21
451.20	9348.10
451.39	9172.56
451.57	9043.83
451.76	9095.32
451.94	9275.54
452.13	9355.12
452.31	9242.78
452.49	9100.00
452.68	9327.03
452.86	9362.14
453.05	9425.34
453.23	9451.08
453.42	9224.05
453.60	9327.03
453.78	9488.53
453.97	9465.13
454.15	9521.30
454.34	9320.01
454.52	9549.39
454.70	9652.37
454.89	9799.82
455.07	9764.72
455.26	9774.08
455.44	9813.87
455.62	9738.97
455.81	9884.08
455.99	9856.00
456.17	10012.81
456.36	10155.58
456.54	10335.81
456.73	10277.29
456.91	10441.13
457.09	10401.34
457.28	10555.82
457.46	10422.41
457.64	10445.81
457.83	10548.79
458.01	10382.62
458.19	10799.23
458.38	10710.29
458.56	10616.67
458.74	10696.25
458.93	10480.92
459.11	10881.15
459.29	10619.01
459.48	10736.04
459.66	10724.33
459.84	10883.49
460.03	11068.39
460.21	10960.73
460.39	10878.81
460.57	10963.07
460.76	10965.41
460.94	11154.99
461.12	11110.52
461.31	10993.50
461.49	11220.53
461.67	11335.21
461.85	11398.41
462.04	11297.77
462.22	12016.31
462.40	11733.11
462.59	11585.65
462.77	11405.43
462.95	11452.24
463.13	11625.44
463.32	11580.97
463.50	11777.58
463.68	11997.59
463.86	11974.18
464.05	11714.38
464.23	11983.54
464.41	11857.15
464.59	11543.52
464.78	12170.79
464.96	12023.33
465.14	11896.94
465.32	12063.12
465.50	12264.41
465.69	12348.67
465.87	12016.31
466.05	12145.04
466.23	12226.96
466.41	12028.01
466.60	12812.09
466.78	12248.02
466.96	12446.97
467.14	12432.93
467.32	12404.84
467.51	12545.27
467.69	11950.78
467.87	12407.18
468.05	12510.16
468.23	12404.84
468.41	12461.01
468.60	12559.31
468.78	12592.08
468.96	12685.70
469.14	12631.87
469.32	13137.43
469.50	12798.05
469.69	12905.71
469.87	12821.45
470.05	12952.52
470.23	13373.82
470.41	13327.01
470.59	13394.89
470.77	13338.71
470.95	13268.50
471.14	13289.56
471.32	13334.03
471.50	13610.22
471.68	13579.79
471.86	13680.43
472.04	13703.84
472.22	13933.21
472.40	13776.39
472.58	13870.01
472.77	13989.38
472.95	13839.59
473.13	14511.32
473.31	14101.73
473.49	14104.07
473.67	14157.90
473.85	14476.21
474.03	14436.42
474.21	14600.26
474.39	14740.69
474.57	14455.15
474.75	14878.79
474.93	14906.87
475.12	14885.81
475.30	15342.21
475.48	15105.82
475.66	15461.58
475.84	15269.66
476.02	15206.46
476.20	15297.74
476.38	15683.93
476.56	15999.90
476.74	16004.58
476.92	15625.42
477.10	15803.30
477.28	16358.00
477.46	16287.79
477.64	16198.85
477.82	16578.01
478.00	16861.22
478.18	16643.55
478.36	16957.18
478.54	17008.67
478.72	17345.71
478.90	17607.85
479.08	17315.28
479.26	17755.30
479.44	17736.58
479.62	17767.01
479.80	17914.46
479.98	18211.71
480.16	18373.21
480.34	18047.87
480.52	18649.39
480.70	18382.57
480.88	18600.24
481.06	18960.68
481.24	18967.70
481.41	18895.14
481.59	19489.64
481.77	19468.58
481.95	19510.71
482.13	19850.08
482.31	19688.59
482.49	20255.00
482.67	20224.57
482.85	20428.20
483.03	20395.43
483.21	20891.62
483.39	20430.54
483.57	20896.30
483.74	21135.04
483.92	21443.99
484.10	21191.21
484.28	21565.70
484.46	22022.10
484.64	22506.59
484.82	21891.03
485.00	22417.65
485.18	22719.58
485.35	22679.79
485.53	22862.35
485.71	22946.61
485.89	23381.95
486.07	23178.33
486.25	23271.95
486.43	23613.66
486.61	24149.65
486.78	24219.86
486.96	24465.62
487.14	24489.03
487.32	24549.88
487.50	24812.02
487.68	24952.45
487.85	25102.25
488.03	25450.99
488.21	25874.62
488.39	25832.49
488.57	26073.57
488.75	26001.01
488.92	26417.63
489.10	26789.77
489.28	27070.64
489.46	27110.43
489.64	27019.14
489.81	27651.09
489.99	27737.69
490.17	27665.13
490.35	27936.63
490.53	28315.80
490.70	28467.94
490.88	28011.53
491.06	29067.11
491.24	28868.17
491.41	29172.44
491.59	29076.48
491.77	29472.03
491.95	29645.23
492.13	29766.93
492.30	29919.07
492.48	30375.47
492.66	30298.23
492.84	30389.52
493.01	30747.62
493.19	30745.28
493.37	31197.00
493.54	31353.82
493.72	31456.80
493.90	31641.70
494.08	31658.09
494.25	31964.70
494.43	31786.82
494.61	32226.84
494.79	32407.06
494.96	32102.79
495.14	33027.30
495.32	33284.76
495.49	33326.89
495.67	32985.17
495.85	33099.86
496.02	33516.47
496.20	34031.39
496.38	33827.76
496.55	34110.97
496.73	34941.86
496.91	34506.52
497.09	34878.66
497.26	34747.59
497.44	34953.56
497.62	35009.73
497.79	35796.15
497.97	35510.61
498.14	36315.75
498.32	36058.29
498.50	36065.31
498.67	36713.64
498.85	36180.00
499.03	36484.27
499.20	36526.40
499.38	36533.42
499.56	37172.39
499.73	37017.91
499.91	37090.47
500.08	37860.51
500.26	37368.99
500.44	37563.26
500.61	37734.12
500.79	37600.71
500.97	38106.26
501.14	38230.31
501.32	38623.52
501.49	38389.47
501.67	38455.00
501.84	38937.15
502.02	38918.43
502.20	38880.98
502.37	38824.81
502.55	39234.40
502.72	39203.97
502.90	39613.57
503.07	39306.96
503.25	39622.93
503.43	39667.40
503.60	39971.67
503.78	40446.80
503.95	40252.53
504.13	40196.36
504.30	40203.38
504.48	40196.36
504.65	40985.12
504.83	40924.27
505.01	41041.29
505.18	41270.67
505.36	41422.80
505.53	41551.53
505.71	41462.59
505.88	41935.38
506.06	41687.28
506.23	41818.35
506.41	41497.70
506.58	41907.29
506.76	42059.43
506.93	42710.10
507.11	41862.82
507.28	42487.74
507.46	43005.00
507.63	43016.71
507.81	43089.26
507.98	42913.72
508.16	43129.05
508.33	43737.59
508.50	43356.08
508.68	43770.36
508.85	43533.96
509.03	43714.19
509.20	43681.42
509.38	44404.64
509.55	44280.60
509.73	43999.73
509.90	44275.91
510.08	44369.54
510.25	44603.59
510.42	44856.37
510.60	45102.12
510.77	44832.96
510.95	45558.53
511.12	45029.57
511.30	45104.46
511.47	45385.33
511.64	45705.98
511.82	45462.57
511.99	45909.61
512.17	45677.90
512.34	46017.27
512.51	46705.39
512.69	46494.74
512.86	46337.93
513.04	46440.91
513.21	46857.52
513.38	46749.86
513.56	46939.44
513.73	46553.26
513.90	47061.15
514.08	46770.93
514.25	47051.79
514.43	47152.43
514.60	47407.55
514.77	47391.17
514.95	47737.57
515.12	47700.12
515.29	47746.93
515.47	48123.75
515.64	47786.72
515.81	47470.75
515.99	47760.97
516.16	48573.14
516.33	48428.02
516.51	48465.47
516.68	48676.12
516.85	48605.91
517.03	48900.81
517.20	48985.07
517.37	48526.33
517.54	48648.03
517.72	48786.13
517.89	49193.38
518.06	48985.07
518.24	48968.69
518.41	49516.37
518.58	49345.51
518.75	49401.69
518.93	49219.13
519.10	49235.51
519.27	49481.27
519.45	49602.97
519.62	49993.84
519.79	49848.73
519.96	50054.70
520.14	50291.09
520.31	50052.36
520.48	50291.09
520.65	50307.47
520.83	50375.35
521.00	50681.96
521.17	50595.36
521.34	50876.22
521.52	50871.54
521.69	50649.19
521.86	51096.24
522.03	51131.34
522.20	51000.27
522.38	51416.89
522.55	51243.69
522.72	50639.83
522.89	51124.32
523.07	51660.30
523.24	51440.29
523.41	51690.73
523.58	51199.22
523.75	51700.09
523.92	51906.06
524.10	52046.49
524.27	52016.07
524.44	51774.99
524.61	52055.85
524.78	52069.90
524.96	52128.41
525.13	52147.14
525.30	52474.81
525.47	52334.38
525.64	52640.99
525.81	52388.21
525.98	52666.73
526.16	52722.91
526.33	52449.06
526.50	52781.42
526.67	52699.50
526.84	52872.70
527.01	52896.11
527.18	52896.11
527.36	52839.93
527.53	52963.98
527.70	53375.92
527.87	53303.36
528.04	53244.85
528.21	53244.85
528.38	53347.83
528.55	53609.97
528.72	53223.78
528.89	53420.39
529.07	53216.76
529.24	53415.71
529.41	53638.06
529.58	53329.11
529.75	53902.54
529.92	53638.06
530.09	53911.90
530.26	53769.13
530.43	54040.63
530.60	53682.53
530.77	53724.66
530.94	54129.57
531.11	53947.01
531.28	53932.96
531.46	54167.02
531.63	54012.54
531.80	54143.61
531.97	54337.88
532.14	54571.93
532.31	54312.13
532.48	54515.76
532.65	54667.89
532.82	54412.77
532.99	54632.78
533.16	54588.31
533.33	54679.60
533.50	54880.88
533.67	54672.57
533.84	54805.98
534.01	54834.07
534.18	54813.01
534.35	55140.68
534.52	54941.74
534.69	55166.43
534.86	55103.23
535.03	55051.74
535.20	55229.62
535.37	55367.71
535.54	55255.37
535.71	55276.43
535.88	55405.16
536.05	55332.60
536.22	55547.93
536.38	55627.51
536.55	55622.83
536.72	55306.86
536.89	55604.11
537.06	55781.99
537.23	55718.79
537.40	55494.10
537.57	55547.93
537.74	55873.27
537.91	56009.02
538.08	55987.95
538.25	55697.73
538.42	55873.27
538.59	56067.53
538.75	55749.22
538.92	56212.65
539.09	56151.79
539.26	56158.81
539.43	56156.47
539.60	56093.28
539.77	56207.97
539.94	56767.35
540.11	56310.95
540.28	56381.16
540.44	56488.83
540.61	56350.74
540.78	56364.78
540.95	56378.82
541.12	56196.26
541.29	56268.82
541.46	56509.89
541.62	56699.48
541.79	56725.22
541.96	56341.38
542.13	56753.31
542.30	56580.11
542.47	56741.61
542.63	56877.36
542.80	56963.96
542.97	57275.25
543.14	57102.05
543.31	57134.82
543.48	57139.50
543.64	57406.32
543.81	57291.63
543.98	57399.30
544.15	57513.98
544.32	57340.78
544.48	57516.32
544.65	57408.66
544.82	57581.86
544.99	57340.78
545.16	57464.83
545.32	57373.55
545.49	57490.58
545.66	57691.86
545.83	57403.98
546.00	57645.05
546.16	57333.76
546.33	57530.37
546.50	57371.21
546.67	57780.81
546.83	57176.95
547.00	57708.25
547.17	57565.48
547.34	57844.00
547.50	57954.00
547.67	57956.35
547.84	57888.47
548.00	58103.80
548.17	58248.91
548.34	57946.98
548.51	57996.13
548.67	58340.19
548.84	58113.16
549.01	57895.49
549.18	58108.48
549.34	58103.80
549.51	58335.51
549.68	58478.28
549.84	58419.77
550.01	58457.22
550.18	58286.36
550.34	58614.04
550.51	58506.37
550.68	58415.09
550.84	58260.62
551.01	58468.92
551.18	58583.61
551.34	58398.71
551.51	58740.42
551.68	58611.70
551.84	58759.15
552.01	58585.95
552.18	58761.49
552.34	58562.54
552.51	58719.36
552.68	58459.56
552.84	58721.70
553.01	58981.50
553.18	58810.64
553.34	58794.26
553.51	58691.27
553.67	58831.71
553.84	58841.07
554.01	58932.35
554.17	59042.35
554.34	59065.76
554.51	59054.06
554.67	59082.14
554.84	58869.15
555.00	58995.54
555.17	59089.16
555.33	59093.85
555.50	58979.16
555.67	58857.45
555.83	58922.99
556.00	59161.72
556.16	59407.48
556.33	59119.59
556.50	59334.92
556.66	59241.30
556.83	59231.94
556.99	59269.39
557.16	59540.89
557.32	59597.06
557.49	59559.61
557.65	59344.28
557.82	59430.88
557.98	59281.09
558.15	59355.99
558.32	59550.25
558.48	59409.82
558.65	59449.61
558.81	59451.95
558.98	59494.08
559.14	59552.59
559.31	59430.88
559.47	59444.93
559.64	59505.78
559.80	59690.68
559.97	59791.33
560.13	59489.40
560.30	59566.63
560.46	59613.44
560.63	59774.94
560.79	59613.44
560.96	59711.75
561.12	59529.19
561.29	59716.43
561.45	59849.84
561.61	59910.69
561.78	59770.26
561.94	59585.36
562.11	59730.47
562.27	59931.76
562.44	59721.11
562.60	60069.85
562.77	59950.48
562.93	59805.37
563.10	60083.89
563.26	59990.27
563.42	60163.47
563.59	60076.87
563.75	60037.08
563.92	59952.82
564.08	59983.25
564.24	59985.59
564.41	60259.43
564.57	59859.20
564.74	60011.34
564.90	59983.25
565.07	60051.12
565.23	60097.94
565.39	60310.92
565.56	60219.64
565.72	60271.14
565.88	60308.58
566.05	60186.88
566.21	60034.74
566.38	60224.32
566.54	60261.77
566.70	60390.50
566.87	60399.86
567.03	60217.30
567.19	60324.97
567.36	60313.26
567.52	60273.48
567.68	60334.33
567.85	60233.69
568.01	60540.30
568.17	60233.69
568.34	60313.26
568.50	60240.71
568.66	60329.65
568.83	60502.85
568.99	60179.85
569.15	60362.42
569.32	60413.91
569.48	60193.90
569.64	60463.06
569.81	60444.33
569.97	60214.96
570.13	60486.46
570.30	60268.79
570.46	60430.29
570.62	60348.37
570.78	60514.55
570.95	60451.36
571.11	60575.40
571.27	60357.74
571.43	60505.19
571.60	60549.66
571.76	60472.42
571.92	60341.35
572.09	60610.51
572.25	60430.29
572.41	60521.57
572.57	60711.16
572.74	60699.45
572.90	60739.24
573.06	60327.31
573.22	60465.40
573.38	60725.20
573.55	60502.85
573.71	60790.73
573.87	60673.71
574.03	60404.55
574.20	60544.98
574.36	60430.29
574.52	60694.77
574.68	60591.79
574.84	60921.80
575.01	60790.73
575.17	60708.82
575.33	60587.11
575.49	60795.42
575.65	60645.62
575.82	60865.63
575.98	60685.41
576.14	60882.02
576.30	60580.09
576.46	60622.22
576.62	60645.62
576.79	60645.62
576.95	60589.45
577.11	60715.84
577.27	60692.43
577.43	61041.17
577.59	60807.12
577.75	60549.66
577.92	60584.77
578.08	60807.12
578.24	60587.11
578.40	61031.81
578.56	60917.12
578.72	60872.65
578.88	60980.32
579.04	61024.79
579.21	60692.43
579.37	60914.78
579.53	60931.17
579.69	60769.67
579.85	60818.82
580.01	60727.54
580.17	60533.28
580.33	60931.17
580.49	60931.17
580.65	60853.93
580.82	60940.53
580.98	60865.63
581.14	60837.54
581.30	60797.76
581.46	60870.31
581.62	60945.21
581.78	61111.39
581.94	60945.21
582.10	60856.27
582.26	60889.04
582.42	60741.58
582.58	60994.36
582.74	60849.25
582.90	61020.11
583.06	60659.66
583.22	60580.09
583.38	60776.69
583.54	60823.50
583.70	61001.38
583.86	61066.92
584.02	60708.82
584.18	61055.21
584.34	60879.67
584.50	61027.13
584.66	60856.27
584.82	60743.92
584.98	61366.51
585.14	61041.17
585.30	60931.17
585.46	60996.70
585.62	61038.83
585.78	61181.60
585.94	60874.99
586.10	60982.66
586.26	61165.22
586.42	60975.64
586.58	61153.52
586.74	61034.15
586.90	60921.80
587.06	61095.00
587.22	61090.32
587.38	61127.77
587.54	61237.78
587.70	61261.18
587.86	61116.07
588.02	61083.30
588.18	61003.72
588.34	61172.24
588.49	61087.98
