SpectraSuite Data File
++++++++++++++++++++++++++++++++++++
Date: Fri Oct 25 10:43:59 EDT 2013
User: price-jones
Dark Spectrum Present: No
Reference Spectrum Present: No
Number of Sampled Component Spectra: 1
Spectrometers: USB2+H05261
Integration Time (usec): 100000 (USB2+H05261)
Spectra Averaged: 1 (USB2+H05261)
Boxcar Smoothing: 0 (USB2+H05261)
Correct for Electrical Dark: No (USB2+H05261)
Strobe/Lamp Enabled: No (USB2+H05261)
Correct for Detector Non-linearity: No (USB2+H05261)
Correct for Stray Light: No (USB2+H05261)
Number of Pixels in Processed Spectrum: 2048
>>>>>Begin Processed Spectral Data<<<<<
365.73	126.39
365.92	126.39
366.12	126.39
366.32	23.41
366.52	37.45
366.72	79.58
366.91	2.34
367.11	56.17
367.31	25.75
367.51	11.70
367.70	32.77
367.90	28.09
368.10	30.43
368.30	0.00
368.49	88.94
368.69	56.17
368.89	28.09
369.09	102.98
369.28	4.68
369.48	65.54
369.68	35.11
369.87	74.90
370.07	39.79
370.27	98.30
370.47	212.99
370.66	355.76
370.86	454.06
371.06	475.13
371.25	489.17
371.45	456.40
371.65	472.79
371.84	395.55
372.04	433.00
372.24	491.51
372.44	550.03
372.63	505.56
372.83	519.60
373.03	552.37
373.22	454.06
373.42	557.05
373.62	557.05
373.81	496.19
374.01	531.30
374.21	589.82
374.40	545.34
374.60	575.77
374.79	575.77
374.99	641.31
375.19	641.31
375.38	526.62
375.58	596.84
375.78	624.92
375.97	566.41
376.17	629.60
376.37	636.63
376.56	575.77
376.76	624.92
376.95	554.71
377.15	613.22
377.35	631.94
377.54	725.57
377.74	617.90
377.93	667.05
378.13	664.71
378.33	683.44
378.52	695.14
378.72	638.97
378.91	664.71
379.11	645.99
379.31	638.97
379.50	741.95
379.70	695.14
379.89	695.14
380.09	695.14
380.28	678.76
380.48	692.80
380.68	732.59
380.87	730.25
381.07	763.01
381.26	795.78
381.46	688.12
381.65	641.31
381.85	746.63
382.04	711.52
382.24	732.59
382.43	730.25
382.63	671.73
382.83	678.76
383.02	690.46
383.22	716.20
383.41	753.65
383.61	798.12
383.80	814.51
384.00	767.70
384.19	774.72
384.39	774.72
384.58	784.08
384.78	788.76
384.97	777.06
385.17	739.61
385.36	788.76
385.56	704.50
385.75	812.17
385.95	800.46
386.14	795.78
386.34	840.25
386.53	816.85
386.72	814.51
386.92	912.81
387.11	793.44
387.31	849.61
387.50	910.47
387.70	821.53
387.89	891.74
388.09	863.66
388.28	870.68
388.48	905.79
388.67	1001.75
388.86	966.64
389.06	924.51
389.25	1006.43
389.45	926.85
389.64	994.73
389.84	994.73
390.03	978.34
390.22	1001.75
390.42	992.39
390.61	1027.50
390.81	978.34
391.00	1043.88
391.19	1039.20
391.39	1034.52
391.58	987.71
391.78	1107.07
391.97	1128.14
392.16	1013.45
392.36	1053.24
392.55	1071.97
392.75	1011.11
392.94	950.26
393.13	915.15
393.33	1053.24
393.52	1022.81
393.71	1132.82
393.91	1156.22
394.10	1149.20
394.29	1076.65
394.49	1207.72
394.68	1163.25
394.88	1254.53
395.07	1275.59
395.26	1245.16
395.46	1142.18
395.65	1231.12
395.84	1266.23
396.04	1338.79
396.23	1284.95
396.42	1114.10
396.62	1188.99
396.81	1200.69
397.00	1310.70
397.19	1282.61
397.39	1369.21
397.58	1324.74
397.77	1373.89
397.97	1453.47
398.16	1406.66
398.35	1596.25
398.55	1472.20
398.74	1434.75
398.93	1486.24
399.12	1519.01
399.32	1376.24
399.51	1554.12
399.70	1596.25
399.90	1530.71
400.09	1675.82
400.28	1605.61
400.47	1614.97
400.67	1687.53
400.86	1600.93
401.05	1673.48
401.24	1713.27
401.44	1774.13
401.63	1734.34
401.82	1668.80
402.01	1708.59
402.21	1722.63
402.40	1743.70
402.59	1706.25
402.78	1760.08
402.97	1783.49
403.17	1973.07
403.36	1825.62
403.55	1804.55
403.74	1905.20
403.93	1944.99
404.13	1895.83
404.32	1928.60
404.51	1879.45
404.70	1898.17
404.89	1975.41
405.09	1961.37
405.28	1963.71
405.47	1956.69
405.66	1980.09
405.85	1952.01
406.05	1940.30
406.24	1977.75
406.43	1994.14
406.62	2064.35
406.81	2165.00
407.00	2141.59
407.20	2134.57
407.39	2052.65
407.58	2188.40
407.77	2328.83
407.96	2225.85
408.15	2352.24
408.34	2202.44
408.54	2265.64
408.73	2270.32
408.92	2293.72
409.11	2373.30
409.30	2298.41
409.49	2340.54
409.68	2305.43
409.87	2326.49
410.07	2420.11
410.26	2380.32
410.45	2385.01
410.64	2483.31
410.83	2462.24
411.02	2499.69
411.21	2621.40
411.40	2579.27
411.59	2574.59
411.78	2628.42
411.98	2647.15
412.17	2717.36
412.36	2672.89
412.55	2747.79
412.74	2588.63
412.93	2834.39
413.12	2700.98
413.31	2923.33
413.50	2902.26
413.69	2832.05
413.88	2974.82
414.07	2902.26
414.26	2960.78
414.45	2988.86
414.64	3045.04
414.83	3012.27
415.02	3204.19
415.22	3012.27
415.41	3014.61
415.60	3033.33
415.79	3286.11
415.98	3279.09
416.17	3232.28
416.36	3255.69
416.55	3211.22
416.74	3503.78
416.93	3267.39
417.12	3442.93
417.31	3225.26
417.50	3173.77
417.69	3421.86
417.88	3365.69
418.07	3496.76
418.26	3452.29
418.45	3510.80
418.64	3571.66
418.83	3597.40
419.02	3611.45
419.21	3599.74
419.39	3653.58
419.58	3522.51
419.77	3578.68
419.96	3527.19
420.15	3667.62
420.34	3763.58
420.53	3845.50
420.72	3932.10
420.91	3665.28
421.10	3761.24
421.29	3885.29
421.48	3812.73
421.67	3927.42
421.86	3857.20
422.05	3904.01
422.24	3864.22
422.43	3768.26
422.61	3847.84
422.80	3943.80
422.99	3796.35
423.18	3967.21
423.37	4053.81
423.56	3943.80
423.75	3913.38
423.94	3946.14
424.13	3709.75
424.32	3882.95
424.50	3976.57
424.69	3943.80
424.88	3960.19
425.07	3936.78
425.26	3866.56
425.45	4091.26
425.64	4051.47
425.83	3995.29
426.01	3932.10
426.20	3999.98
426.39	4007.00
426.58	3929.76
426.77	4030.40
426.96	4109.98
427.15	4039.76
427.33	4056.15
427.52	4067.85
427.71	4259.78
427.90	4002.32
428.09	4152.11
428.28	4039.76
428.46	4119.34
428.65	4175.52
428.84	4315.95
429.03	4290.20
429.22	4173.18
429.40	4198.92
429.59	4182.54
429.78	3901.67
429.97	3985.93
430.16	4060.83
430.34	4205.94
430.53	4344.03
430.72	4142.75
430.91	4198.92
431.10	4374.46
431.28	4648.30
431.47	4671.71
431.66	4690.43
431.85	4512.55
432.03	4704.48
432.22	4737.24
432.41	4730.22
432.60	4805.12
432.79	4706.82
432.97	4681.07
433.16	4840.23
433.35	4657.67
433.54	4702.14
433.72	4671.71
433.91	4739.58
434.10	4835.55
434.28	4854.27
434.47	4891.72
434.66	4957.25
434.85	4957.25
435.03	5104.71
435.22	4950.23
435.41	5153.86
435.59	5050.88
435.78	5305.99
435.97	5186.63
436.16	5146.84
436.34	5062.58
436.53	5174.92
436.72	5193.65
436.90	5177.26
437.09	5252.16
437.28	4983.00
437.46	5219.39
437.65	5071.94
437.84	5282.59
438.02	5174.92
438.21	5228.76
438.40	5245.14
438.58	5416.00
438.77	5432.38
438.96	5301.31
439.14	5638.35
439.33	5631.33
439.52	5533.03
439.70	5799.85
439.89	5703.89
440.08	5603.24
440.26	5778.78
440.45	5743.67
440.63	6087.73
440.82	5912.19
441.01	5956.66
441.19	6092.41
441.38	6204.76
441.57	6132.20
441.75	6331.15
441.94	6392.00
442.12	6370.94
442.31	6483.28
442.50	6614.35
442.68	6445.84
442.87	6384.98
443.05	6457.54
443.24	6497.33
443.43	6441.15
443.61	6553.50
443.80	6551.16
443.98	6448.18
444.17	6300.72
444.35	6436.47
444.54	6705.63
444.73	6572.22
444.91	6569.88
445.10	6633.08
445.28	6628.40
445.47	6284.34
445.65	6438.81
445.84	6668.19
446.02	6698.61
446.21	6588.61
446.39	6530.09
446.58	6703.29
446.77	6869.47
446.95	6626.06
447.14	6848.41
447.32	6773.51
447.51	6759.47
447.69	6712.66
447.88	6813.30
448.06	6801.60
448.25	6712.66
448.43	6885.86
448.62	6672.87
448.80	6588.61
448.99	6689.25
449.17	6920.96
449.36	6810.96
449.54	6967.77
449.73	6984.16
449.91	7328.22
450.10	7218.21
450.28	7089.48
450.46	7269.70
450.65	7318.86
450.83	7260.34
451.02	7185.44
451.20	7424.18
451.39	7143.32
451.57	7339.92
451.76	7131.61
451.94	7325.88
452.13	7220.55
452.31	7370.35
452.49	7199.49
452.68	7272.04
452.86	7269.70
453.05	7424.18
453.23	7363.33
453.42	7433.54
453.60	7475.67
453.78	7559.93
453.97	7625.47
454.15	7384.39
454.34	7297.79
454.52	7480.35
454.70	7545.89
454.89	7494.40
455.07	7639.51
455.26	7698.02
455.44	7822.07
455.62	7602.06
455.81	8004.63
455.99	7808.03
456.17	7901.65
456.36	7723.77
456.54	7899.31
456.73	7983.57
456.91	8358.05
457.09	8196.56
457.28	8264.43
457.46	8086.55
457.64	8236.35
457.83	8334.65
458.01	8334.65
458.19	8311.24
458.38	8091.23
458.56	8421.25
458.74	8215.28
458.93	8226.98
459.11	8278.47
459.29	8339.33
459.48	8390.82
459.66	8311.24
459.84	8395.50
460.03	8512.53
460.21	8662.32
460.39	8629.56
460.57	8505.51
460.76	8500.83
460.94	8730.20
461.12	8858.93
461.31	8718.50
461.49	8781.69
461.67	8819.14
461.85	8987.66
462.04	8922.12
462.22	9015.74
462.40	8954.89
462.59	8978.30
462.77	8926.80
462.95	9081.28
463.13	8929.14
463.32	8987.66
463.50	9118.73
463.68	9085.96
463.86	9202.99
464.05	9083.62
464.23	9067.24
464.41	9191.28
464.59	9109.36
464.78	9373.85
464.96	9043.83
465.14	9071.92
465.32	9341.08
465.50	9357.46
465.69	9383.21
465.87	9355.12
466.05	9331.72
466.23	9294.27
466.41	9369.16
466.60	9635.99
466.78	9291.93
466.96	9329.38
467.14	9411.29
467.32	9504.92
467.51	9738.97
467.69	9378.53
467.87	9418.32
468.05	9444.06
468.23	9533.00
468.41	9584.49
468.60	9507.26
468.78	9666.41
468.96	9701.52
469.14	9738.97
469.32	9776.42
469.50	9540.02
469.69	9811.53
469.87	9900.47
470.05	9750.67
470.23	10033.88
470.41	9703.86
470.59	10211.76
470.77	10003.45
470.95	9949.62
471.14	10157.92
471.32	9818.55
471.50	10478.58
471.68	10214.10
471.86	10448.15
472.04	10417.72
472.22	10415.38
472.40	10501.98
472.58	10305.38
472.77	10530.07
472.95	10590.92
473.13	10747.74
473.31	10539.43
473.49	10600.29
473.67	10801.57
473.85	10768.80
474.03	11215.85
474.21	11204.14
474.39	11197.12
474.57	11124.57
474.75	11201.80
474.93	11382.03
475.12	11190.10
475.30	11538.84
475.48	11534.16
475.66	11232.23
475.84	11475.65
476.02	11583.31
476.20	11454.58
476.38	11747.15
476.56	12116.95
476.74	11686.29
476.92	11981.20
477.10	11918.01
477.28	12325.26
477.46	12210.57
477.64	12100.57
477.82	12585.06
478.00	12498.46
478.18	12498.46
478.36	12571.02
478.54	13064.87
478.72	12828.48
478.90	12933.80
479.08	12772.30
479.26	13352.76
479.44	13387.86
479.62	13479.15
479.80	13287.22
479.98	13317.65
480.16	13589.15
480.34	13596.17
480.52	13855.97
480.70	13926.19
480.88	13804.48
481.06	13907.46
481.24	14155.56
481.41	14427.06
481.59	14370.89
481.77	14555.79
481.95	14375.57
482.13	14377.91
482.31	14897.51
482.49	14923.26
482.67	15016.88
482.85	15136.24
483.03	15330.51
483.21	15276.68
483.39	15412.43
483.57	15403.07
483.74	15473.28
483.92	15676.91
484.10	15386.68
484.28	16063.10
484.46	16095.86
484.64	16299.49
484.82	16016.29
485.00	16245.66
485.18	16276.09
485.35	16760.58
485.53	16292.47
485.71	16379.07
485.89	16585.04
486.07	16489.07
486.25	17022.72
486.43	17123.36
486.61	17008.67
486.78	17146.76
486.96	17528.27
487.14	17867.65
487.32	17867.65
487.50	18092.34
487.68	18284.26
487.85	18396.61
488.03	18539.38
488.21	18633.00
488.39	18827.27
488.57	18963.02
488.75	18897.49
488.92	19337.51
489.10	19438.15
489.28	19639.44
489.46	19892.21
489.64	19630.07
489.81	20322.87
489.99	20168.40
490.17	20280.74
490.35	20517.14
490.53	20559.27
490.70	20723.10
490.88	20601.40
491.06	20842.47
491.24	20816.72
491.41	20980.56
491.59	20999.29
491.77	20889.28
491.95	21055.46
492.13	21486.12
492.30	21624.21
492.48	21916.78
492.66	21998.70
492.84	21781.03
493.01	22232.75
493.19	22127.42
493.37	22511.27
493.54	22417.65
493.72	22864.69
493.90	22738.30
494.08	23456.85
494.25	23482.59
494.43	23461.53
494.61	23452.17
494.79	23826.65
494.96	23686.22
495.14	23625.37
495.32	23913.25
495.49	23810.27
495.67	24259.65
495.85	24617.75
496.02	24056.03
496.20	24673.93
496.38	24683.29
496.55	24477.32
496.73	25315.23
496.91	24917.34
497.09	25074.16
497.26	25207.57
497.44	25055.43
497.62	25109.27
497.79	25289.49
497.97	25172.46
498.14	25851.22
498.32	25720.15
498.50	25773.98
498.67	26164.85
498.85	26120.38
499.03	26429.33
499.20	26431.67
499.38	26270.17
499.56	26686.79
499.73	26710.19
499.91	27005.10
500.08	26576.78
500.26	26401.24
500.44	26607.21
500.61	26953.61
500.79	26700.83
500.97	27054.25
501.14	27220.43
501.32	27405.33
501.49	27250.86
501.67	27201.71
501.84	27112.77
502.02	27871.10
502.20	27835.99
502.37	27990.47
502.55	27927.27
502.72	28161.33
502.90	28067.70
503.07	27819.61
503.25	28545.17
503.43	28116.86
503.60	28451.55
503.78	28430.49
503.95	28259.63
504.13	28657.52
504.30	29006.26
504.48	28514.75
504.65	29123.29
504.83	29390.11
505.01	29216.91
505.18	29336.27
505.36	29694.38
505.53	29729.48
505.71	29900.34
505.88	30031.41
506.06	29771.61
506.23	29977.58
506.41	29944.81
506.58	29900.34
506.76	30361.43
506.93	30436.33
507.11	30504.20
507.28	30174.19
507.46	29926.09
507.63	30213.98
507.81	30792.09
507.98	30178.87
508.16	30682.08
508.33	30810.81
508.50	31049.55
508.68	31426.37
508.85	31328.07
509.03	31063.59
509.20	31243.81
509.38	31545.74
509.55	31534.04
509.73	31402.97
509.90	31491.91
510.08	31737.66
510.25	31728.30
510.42	31473.18
510.60	31519.99
510.77	31936.61
510.95	32283.01
511.12	32077.04
511.30	32245.56
511.47	32685.58
511.64	32659.84
511.82	32566.21
511.99	32299.39
512.17	32622.39
512.34	32238.54
512.51	32566.21
512.69	32788.56
512.86	33078.79
513.04	32971.13
513.21	33106.88
513.38	33289.44
513.56	33069.43
513.73	33034.32
513.90	33193.48
514.08	33387.74
514.25	33406.47
514.43	33275.40
514.60	33436.89
514.77	33640.52
514.95	34015.01
515.12	33916.70
515.29	33965.85
515.47	34312.25
515.64	34342.68
515.81	33668.61
515.99	34033.73
516.16	34192.89
516.33	34146.08
516.51	34045.43
516.68	33422.85
516.85	33411.15
517.03	33848.83
517.20	34223.31
517.37	34218.63
517.54	34684.40
517.72	34529.92
517.89	34190.55
518.06	34265.44
518.24	34696.10
518.41	34099.26
518.58	34558.01
518.75	34738.23
518.93	35215.70
519.10	35098.67
519.27	35278.89
519.45	34951.22
519.62	35974.03
519.79	35323.36
519.96	35470.82
520.14	35803.17
520.31	35754.02
520.48	35866.37
520.65	35873.39
520.83	36023.19
521.00	36383.63
521.17	36226.81
521.34	36168.30
521.52	36355.54
521.69	36308.73
521.86	36664.49
522.03	36360.22
522.20	36290.01
522.38	36484.27
522.55	36718.32
522.72	36290.01
522.89	36741.73
523.07	37221.54
523.24	37043.66
523.41	37184.09
523.58	37144.30
523.75	37612.41
523.92	37352.61
524.10	37486.02
524.27	37500.06
524.44	37219.20
524.61	37670.92
524.78	37797.31
524.96	38022.00
525.13	37642.84
525.30	37986.89
525.47	37940.08
525.64	37743.48
525.81	37888.59
525.98	37823.06
526.16	37813.70
526.33	37310.48
526.50	37893.27
526.67	37453.25
526.84	37359.63
527.01	37907.32
527.18	37970.51
527.36	38330.95
527.53	38768.63
527.70	38539.26
527.87	38642.24
528.04	38419.89
528.21	38593.09
528.38	38663.31
528.55	39269.51
528.72	39304.62
528.89	39309.30
529.07	39040.14
529.24	39194.61
529.41	38920.77
529.58	38792.04
529.75	39412.28
529.92	39313.98
530.09	39374.83
530.26	39257.81
530.43	39936.56
530.60	39096.31
530.77	39112.69
530.94	39852.30
531.11	39531.65
531.28	39681.44
531.46	39861.66
531.63	40187.00
531.80	39999.76
531.97	39737.62
532.14	39695.49
532.31	39438.03
532.48	39931.88
532.65	39856.98
532.82	40088.70
532.99	40027.84
533.16	40172.96
533.33	40289.98
533.50	40421.05
533.67	40542.76
533.84	40105.08
534.01	40187.00
534.18	40329.77
534.35	41041.29
534.52	40339.13
534.69	40594.25
534.86	40767.45
535.03	40655.11
535.20	40458.50
535.37	41106.83
535.54	41127.89
535.71	40957.03
535.88	41174.70
536.05	40617.66
536.22	41141.94
536.38	40566.16
536.55	41326.84
536.72	40964.06
536.89	40828.30
537.06	40830.65
537.23	41490.68
537.40	41043.63
537.57	41689.62
537.74	41074.06
537.91	41633.45
538.08	40748.73
538.25	41605.36
538.42	41605.36
538.59	41486.00
538.75	41291.73
538.92	41991.55
539.09	41865.16
539.26	41698.98
539.43	41776.22
539.60	41474.29
539.77	41577.28
539.94	41703.67
540.11	41785.58
540.28	41691.96
540.44	42066.45
540.61	42176.45
540.78	41727.07
540.95	41411.10
541.12	41956.44
541.29	41961.12
541.46	42195.18
541.62	42129.64
541.79	42471.36
541.96	42457.32
542.13	42134.32
542.30	42281.78
542.47	42092.19
542.63	42064.11
542.80	42667.97
542.97	42686.69
543.14	42855.21
543.31	42632.86
543.48	42866.91
543.64	43386.51
543.81	43555.03
543.98	42990.96
544.15	43210.97
544.32	43143.09
544.48	43243.74
544.65	43253.10
544.82	43559.71
544.99	42913.72
545.16	42899.68
545.32	43379.49
545.49	43629.93
545.66	43735.25
545.83	43201.61
546.00	43758.66
546.16	43332.68
546.33	43171.18
546.50	43260.12
546.67	43831.21
546.83	43175.86
547.00	43620.56
547.17	43323.32
547.34	43353.74
547.50	43695.46
547.67	43992.71
547.84	43800.79
548.00	44371.88
548.17	43873.34
548.34	43861.64
548.51	43672.06
548.67	43941.22
548.84	44011.43
549.01	43604.18
549.18	43789.08
549.34	44662.10
549.51	44121.44
549.68	44041.86
549.84	44479.54
550.01	44364.85
550.18	44395.28
550.34	44126.12
550.51	44102.71
550.68	44397.62
550.84	43791.42
551.01	44371.88
551.18	44470.18
551.34	44451.45
551.51	44442.09
551.68	44463.16
551.84	44414.01
552.01	44334.43
552.18	44605.93
552.34	44069.95
552.51	44711.25
552.68	44500.61
552.84	44861.05
553.01	44650.40
553.18	45144.25
553.34	44821.26
553.51	44856.37
553.67	44725.30
553.84	45017.86
554.01	44685.51
554.17	45111.49
554.34	45003.82
554.51	44954.67
554.67	45137.23
554.84	45514.06
555.00	44903.18
555.17	44701.89
555.33	45048.29
555.50	45188.72
555.67	45062.33
555.83	45120.85
556.00	44856.37
556.16	45811.31
556.33	45263.62
556.50	44926.58
556.66	45090.42
556.83	44811.90
556.99	45291.71
557.16	45659.17
557.32	45275.32
557.49	45095.10
557.65	44928.92
557.82	45411.07
557.98	45247.24
558.15	45415.76
558.32	45546.82
558.48	45186.38
558.65	45158.30
558.81	45223.83
558.98	45497.67
559.14	45642.79
559.31	45656.83
559.47	45989.19
559.64	45523.42
559.80	45233.19
559.97	45406.39
560.13	45715.34
560.30	45881.52
560.46	45345.54
560.63	45595.98
560.79	45528.10
560.96	45748.11
561.12	45352.56
561.29	45586.61
561.45	46033.66
561.61	45584.27
561.78	45720.02
561.94	45177.02
562.11	45893.22
562.27	45404.05
562.44	45654.49
562.60	45902.59
562.77	46380.06
562.93	45757.47
563.10	46085.15
563.26	45359.58
563.42	46033.66
563.59	45619.38
563.75	45954.08
563.92	46248.99
564.08	45815.99
564.24	46108.55
564.41	46230.26
564.57	45642.79
564.74	45741.09
564.90	46054.72
565.07	45860.46
565.23	45593.64
565.39	45605.34
565.56	45848.75
565.72	45848.75
565.88	45834.71
566.05	45748.11
566.21	45390.01
566.38	45832.37
566.54	46080.47
566.70	46136.64
566.87	46431.55
567.03	45895.56
567.19	46569.64
567.36	46337.93
567.52	46054.72
567.68	45970.46
567.85	46040.68
568.01	46239.62
568.17	46092.17
568.34	46197.49
568.50	46382.40
568.66	45598.32
568.83	46089.83
568.99	45640.45
569.15	45951.74
569.32	46012.59
569.48	45855.78
569.64	46452.61
569.81	46248.99
569.97	46284.09
570.13	45855.78
570.30	46237.28
570.46	45511.72
570.62	45778.54
570.78	45579.59
570.95	45876.84
571.11	46389.42
571.27	46492.40
571.43	45944.72
571.60	46471.34
571.76	46120.26
571.92	46157.70
572.09	45909.61
572.25	45984.51
572.41	46192.81
572.57	46373.03
572.74	46775.61
572.90	46103.87
573.06	46307.50
573.22	46579.00
573.38	46251.33
573.55	46244.30
573.71	46904.34
573.87	46337.93
574.03	46424.53
574.20	46534.53
574.36	45949.40
574.52	46115.58
574.68	46328.56
574.84	46234.94
575.01	46270.05
575.17	46103.87
575.33	45727.05
575.49	46164.73
575.65	46333.24
575.82	46876.25
575.98	46153.02
576.14	46719.43
576.30	46134.30
576.46	46284.09
576.62	46129.62
576.79	46466.66
576.95	46064.08
577.11	46380.06
577.27	46749.86
577.43	46033.66
577.59	46457.29
577.75	45998.55
577.92	46047.70
578.08	45881.52
578.24	46141.32
578.40	45961.10
578.56	46581.34
578.72	46167.07
578.88	46284.09
579.04	46356.65
579.21	46391.76
579.37	46129.62
579.53	46803.69
579.69	45965.78
579.85	46447.93
580.01	46370.69
580.17	46433.89
580.33	46710.07
580.49	46146.00
580.65	46220.90
580.82	46417.50
580.98	46199.83
581.14	46733.48
581.30	46361.33
581.46	46445.59
581.62	46604.75
581.78	46309.84
581.94	46892.63
582.10	46698.37
582.26	46656.24
582.42	46499.42
582.58	46761.56
582.74	46328.56
582.90	46887.95
583.06	46103.87
583.22	46363.67
583.38	46504.10
583.54	46815.40
583.70	46316.86
583.86	46656.24
584.02	46412.82
584.18	46447.93
584.34	46171.75
584.50	46651.56
584.66	46553.26
584.82	46075.79
584.98	46686.67
585.14	46838.80
585.30	46246.65
585.46	46347.29
585.62	46440.91
585.78	46494.74
585.94	46124.94
586.10	46312.18
586.26	46443.25
586.42	46522.83
586.58	46504.10
586.74	46677.30
586.90	46593.04
587.06	46146.00
587.22	46696.03
587.38	46295.80
587.54	46607.09
587.70	46490.06
587.86	46284.09
588.02	46536.87
588.18	46506.44
588.34	46581.34
588.49	45904.93
588.65	45930.67
588.81	45530.44
588.97	46223.24
589.13	45876.84
589.29	45928.33
589.45	46092.17
589.61	46412.82
589.77	46457.29
589.93	46366.01
