SpectraSuite Data File
++++++++++++++++++++++++++++++++++++
Date: Fri Oct 25 10:43:57 EDT 2013
User: price-jones
Dark Spectrum Present: No
Reference Spectrum Present: No
Number of Sampled Component Spectra: 1
Spectrometers: USB2+H05261
Integration Time (usec): 100000 (USB2+H05261)
Spectra Averaged: 1 (USB2+H05261)
Boxcar Smoothing: 0 (USB2+H05261)
Correct for Electrical Dark: No (USB2+H05261)
Strobe/Lamp Enabled: No (USB2+H05261)
Correct for Detector Non-linearity: No (USB2+H05261)
Correct for Stray Light: No (USB2+H05261)
Number of Pixels in Processed Spectrum: 2048
>>>>>Begin Processed Spectral Data<<<<<
365.73	180.22
365.92	180.22
366.12	180.22
366.32	56.17
366.52	2.34
366.72	0.00
366.91	0.00
367.11	28.09
367.31	0.00
367.51	0.00
367.70	37.45
367.90	51.49
368.10	51.49
368.30	63.19
368.49	7.02
368.69	23.41
368.89	77.24
369.09	14.04
369.28	0.00
369.48	51.49
369.68	56.17
369.87	74.90
370.07	126.39
370.27	91.28
370.47	166.18
370.66	351.08
370.86	433.00
371.06	402.57
371.25	498.53
371.45	407.25
371.65	472.79
371.84	519.60
372.04	468.11
372.24	479.81
372.44	489.17
372.63	521.94
372.83	512.58
373.03	521.94
373.22	528.96
373.42	510.24
373.62	507.90
373.81	561.73
374.01	496.19
374.21	580.45
374.40	592.16
374.60	566.41
374.79	545.34
374.99	608.54
375.19	491.51
375.38	606.20
375.58	643.65
375.78	657.69
375.97	746.63
376.17	610.88
376.37	608.54
376.56	704.50
376.76	622.58
376.95	608.54
377.15	589.82
377.35	629.60
377.54	739.61
377.74	603.86
377.93	603.86
378.13	711.52
378.33	683.44
378.52	683.44
378.72	711.52
378.91	723.23
379.11	702.16
379.31	727.91
379.50	655.35
379.70	645.99
379.89	732.59
380.09	645.99
380.28	760.67
380.48	725.57
380.68	720.88
380.87	713.86
381.07	711.52
381.26	709.18
381.46	784.08
381.65	725.57
381.85	709.18
382.04	662.37
382.24	711.52
382.43	739.61
382.63	697.48
382.83	667.05
383.02	765.36
383.22	720.88
383.41	711.52
383.61	819.19
383.80	851.96
384.00	884.72
384.19	751.31
384.39	751.31
384.58	802.80
384.78	873.02
384.97	821.53
385.17	835.57
385.36	755.99
385.56	798.12
385.75	819.19
385.95	837.91
386.14	847.27
386.34	805.14
386.53	884.72
386.72	910.47
386.92	950.26
387.11	917.49
387.31	933.87
387.50	835.57
387.70	770.04
387.89	812.17
388.09	837.91
388.28	903.45
388.48	940.90
388.67	1032.18
388.86	917.49
389.06	924.51
389.25	915.15
389.45	1022.81
389.64	1015.79
389.84	938.55
390.03	1053.24
390.22	1100.05
390.42	1011.11
390.61	994.73
390.81	1020.47
391.00	1006.43
391.19	1111.75
391.39	1057.92
391.58	1062.60
391.78	1071.97
391.97	1029.84
392.16	992.39
392.36	1060.26
392.55	1004.09
392.75	1025.15
392.94	959.62
393.13	973.66
393.33	1086.01
393.52	1081.33
393.71	1057.92
393.91	1158.57
394.10	1116.44
394.29	1240.48
394.49	1184.31
394.68	1196.01
394.88	1165.59
395.07	1231.12
395.26	1226.44
395.46	1284.95
395.65	1315.38
395.84	1275.59
396.04	1221.76
396.23	1235.80
396.42	1100.05
396.62	1268.57
396.81	1188.99
397.00	1231.12
397.19	1266.23
397.39	1254.53
397.58	1366.87
397.77	1380.92
397.97	1390.28
398.16	1490.92
398.35	1549.43
398.55	1542.41
398.74	1493.26
398.93	1589.22
399.12	1591.56
399.32	1483.90
399.51	1535.39
399.70	1605.61
399.90	1612.63
400.09	1619.65
400.28	1607.95
400.47	1699.23
400.67	1657.10
400.86	1645.40
401.05	1732.00
401.24	1767.10
401.44	1710.93
401.63	1783.49
401.82	1842.00
402.01	1818.60
402.21	1872.43
402.40	1872.43
402.59	1816.26
402.78	1846.68
402.97	1809.23
403.17	1961.37
403.36	1811.57
403.55	1877.11
403.74	1856.04
403.93	1935.62
404.13	1907.54
404.32	1937.96
404.51	2017.54
404.70	2052.65
404.89	1905.20
405.09	1994.14
405.28	1928.60
405.47	2052.65
405.66	1975.41
405.85	2033.93
406.05	2057.33
406.24	2155.63
406.43	2022.22
406.62	2153.29
406.81	2122.87
407.00	2214.15
407.20	2146.27
407.39	2036.27
407.58	2321.81
407.77	2235.21
407.96	2373.30
408.15	2312.45
408.34	2385.01
408.54	2368.62
408.73	2401.39
408.92	2345.22
409.11	2368.62
409.30	2403.73
409.49	2359.26
409.68	2370.96
409.87	2331.17
410.07	2373.30
410.26	2429.48
410.45	2457.56
410.64	2401.39
410.83	2516.08
411.02	2644.81
411.21	2754.81
411.40	2710.34
411.59	2771.19
411.78	2700.98
411.98	2686.94
412.17	2801.62
412.36	2642.46
412.55	2785.24
412.74	2839.07
412.93	2881.20
413.12	2913.97
413.31	3063.76
413.50	2946.73
413.69	2857.79
413.88	3063.76
414.07	3009.93
414.26	2920.99
414.45	2930.35
414.64	3103.55
414.83	3126.96
415.02	3122.27
415.22	3169.09
415.41	3232.28
415.60	3251.00
415.79	3325.90
415.98	3272.07
416.17	3318.88
416.36	3246.32
416.55	3276.75
416.74	3307.18
416.93	3225.26
417.12	3396.12
417.31	3417.18
417.50	3487.40
417.69	3576.34
417.88	3534.21
418.07	3449.95
418.26	3435.91
418.45	3658.26
418.64	3571.66
418.83	3625.49
419.02	3695.71
419.21	3742.52
419.39	3824.44
419.58	3590.38
419.77	3728.47
419.96	3786.99
420.15	3882.95
420.34	3768.26
420.53	3840.82
420.72	3983.59
420.91	3889.97
421.10	3967.21
421.29	3983.59
421.48	3920.40
421.67	3932.10
421.86	3824.44
422.05	3918.06
422.24	3981.25
422.43	3880.61
422.61	3981.25
422.80	4028.06
422.99	4053.81
423.18	4140.41
423.37	4135.73
423.56	3920.40
423.75	4032.74
423.94	4018.70
424.13	3878.27
424.32	3978.91
424.50	4079.55
424.69	4177.86
424.88	4149.77
425.07	4126.36
425.26	3941.46
425.45	3990.61
425.64	4112.32
425.83	4079.55
426.01	4168.49
426.20	4159.13
426.39	4098.28
426.58	4142.75
426.77	4072.53
426.96	4070.19
427.15	4114.66
427.33	4201.26
427.52	4259.78
427.71	4271.48
427.90	4276.16
428.09	4306.59
428.28	4355.74
428.46	4297.22
428.65	4285.52
428.84	4318.29
429.03	4381.48
429.22	4170.83
429.40	4414.25
429.59	4201.26
429.78	4007.00
429.97	3866.56
430.16	4102.96
430.34	4142.75
430.53	4201.26
430.72	4334.67
430.91	4271.48
431.10	4484.47
431.28	4610.86
431.47	4793.42
431.66	4734.90
431.85	4655.33
432.03	4887.04
432.22	4805.12
432.41	4699.80
432.60	4765.33
432.79	4861.29
432.97	4882.36
433.16	4894.06
433.35	4793.42
433.54	4676.39
433.72	4784.06
433.91	4873.00
434.10	4880.02
434.28	4898.74
434.47	4945.55
434.66	5046.20
434.85	5121.09
435.03	5203.01
435.22	5085.98
435.41	5186.63
435.59	5163.22
435.78	5324.72
435.97	5376.21
436.16	5268.55
436.34	5233.44
436.53	5327.06
436.72	5502.60
436.90	5193.65
437.09	5348.12
437.28	5263.86
437.46	5291.95
437.65	5275.57
437.84	5348.12
438.02	5338.76
438.21	5289.61
438.40	5282.59
438.58	5385.57
438.77	5659.42
438.96	5551.75
439.14	5806.87
439.33	5867.72
439.52	5760.06
439.70	5813.89
439.89	5813.89
440.08	5713.25
440.26	5692.18
440.45	5898.15
440.63	5909.85
440.82	6169.65
441.01	6099.44
441.19	6141.57
441.38	6211.78
441.57	6289.02
441.75	6392.00
441.94	6368.60
442.12	6516.05
442.31	6438.81
442.50	6513.71
442.68	6394.34
442.87	6544.14
443.05	6389.66
443.24	6562.86
443.43	6548.82
443.61	6502.01
443.80	6848.41
443.98	6766.49
444.17	6363.92
444.35	6649.46
444.54	6803.94
444.73	6717.34
444.91	6722.02
445.10	6679.89
445.28	6658.82
445.47	6504.35
445.65	6553.50
445.84	6581.59
446.02	6792.23
446.21	6785.21
446.39	6752.45
446.58	6918.62
446.77	7005.22
446.95	6527.75
447.14	7101.19
447.32	6951.39
447.51	6832.02
447.69	6806.28
447.88	6843.73
448.06	6920.96
448.25	7002.88
448.43	7012.24
448.62	7009.90
448.80	6965.43
448.99	6939.69
449.17	7169.06
449.36	6902.24
449.54	7145.66
449.73	7318.86
449.91	7288.43
450.10	7302.47
450.28	7480.35
450.46	7201.83
450.65	7405.46
450.83	7485.03
451.02	7279.07
451.20	7384.39
451.39	7611.42
451.57	7414.82
451.76	7283.75
451.94	7349.28
452.13	7368.01
452.31	7386.73
452.49	7346.94
452.68	7396.09
452.86	7269.70
453.05	7520.14
453.23	7604.40
453.42	7517.80
453.60	7630.15
453.78	7583.34
453.97	7566.95
454.15	7709.72
454.34	7592.70
454.52	7683.98
454.70	7702.70
454.89	7613.76
455.07	7709.72
455.26	7740.15
455.44	7843.14
455.62	8023.36
455.81	7943.78
455.99	7997.61
456.17	8028.04
456.36	8339.33
456.54	8063.15
456.73	8140.38
456.91	8334.65
457.09	8362.73
457.28	8437.63
457.46	8184.85
457.64	8325.29
457.83	8308.90
458.01	8142.72
458.19	8507.85
458.38	8308.90
458.56	8461.04
458.74	8217.62
458.93	8346.35
459.11	8582.74
459.29	8535.93
459.48	8421.25
459.66	8437.63
459.84	8507.85
460.03	8741.90
460.21	8835.52
460.39	8875.31
460.57	8950.21
460.76	8926.80
460.94	8784.03
461.12	8919.78
461.31	8938.51
461.49	8924.46
461.67	8774.67
461.85	9160.86
462.04	9233.41
462.22	9312.99
462.40	8931.48
462.59	9081.28
462.77	8997.02
462.95	9273.20
463.13	9320.01
463.32	9004.04
463.50	9219.37
463.68	9327.03
463.86	9296.61
464.05	9111.71
464.23	9195.96
464.41	9226.39
464.59	9270.86
464.78	9586.83
464.96	9303.63
465.14	9378.53
465.32	9469.81
465.50	9575.13
465.69	9397.25
465.87	9357.46
466.05	9554.07
466.23	9303.63
466.41	9563.43
466.60	9781.10
466.78	9392.57
466.96	9635.99
467.14	9483.85
467.32	9493.21
467.51	9680.46
467.69	9514.28
467.87	9561.09
468.05	9628.96
468.23	9694.50
468.41	9989.41
468.60	9678.12
468.78	9937.91
468.96	9818.55
469.14	9947.28
469.32	9973.02
469.50	9823.23
469.69	10040.90
469.87	10171.97
470.05	10169.63
470.23	10061.96
470.41	9982.38
470.59	10127.50
470.77	9984.73
470.95	10076.01
471.14	10642.42
471.32	10239.84
471.50	10469.22
471.68	10609.65
471.86	10635.39
472.04	10846.04
472.22	10832.00
472.40	10450.49
472.58	10579.22
472.77	10633.05
472.95	10686.89
473.13	11080.10
473.31	10558.16
473.49	10773.49
473.67	10937.32
473.85	10796.89
474.03	11220.53
474.21	11201.80
474.39	11183.08
474.57	11442.88
474.75	11517.78
474.93	11206.48
475.12	11400.75
475.30	11618.42
475.48	11501.39
475.66	11609.06
475.84	11672.25
476.02	11637.14
476.20	11829.07
476.38	11932.05
476.56	12091.21
476.74	12304.20
476.92	12276.11
477.10	12238.66
477.28	12243.34
477.46	12278.45
477.64	12535.91
477.82	12596.76
478.00	12959.55
478.18	12922.10
478.36	12760.60
478.54	12985.29
478.72	13104.66
478.90	13334.03
479.08	13336.37
479.26	13406.59
479.44	13528.30
479.62	13509.57
479.80	13600.85
479.98	13963.64
480.16	14029.17
480.34	13855.97
480.52	14064.28
480.70	14174.28
480.88	13797.46
481.06	14436.42
481.24	14345.14
481.41	14523.02
481.59	14792.19
481.77	15030.92
481.95	14717.29
482.13	14949.00
482.31	15213.48
482.49	15248.59
482.67	15112.84
482.85	15576.27
483.03	15428.81
483.21	15693.29
483.39	15618.39
483.57	15531.80
483.74	15868.83
483.92	16011.60
484.10	16009.26
484.28	16170.76
484.46	16365.03
484.64	16589.72
484.82	16585.04
485.00	16709.08
485.18	16730.15
485.35	16826.11
485.53	16463.33
485.71	16872.92
485.89	16671.64
486.07	16865.90
486.25	16992.29
486.43	17390.18
486.61	17481.46
486.78	17633.60
486.96	17783.39
487.14	17980.00
487.32	18190.64
487.50	18408.31
487.68	18607.26
487.85	18574.49
488.03	19084.73
488.21	19073.03
488.39	18855.36
488.57	19220.48
488.75	19119.84
488.92	19405.38
489.10	20081.80
489.28	19906.26
489.46	20152.01
489.64	20086.48
489.81	20760.55
489.99	20573.31
490.17	21181.85
490.35	20833.11
490.53	20624.80
490.70	20779.28
490.88	20952.48
491.06	21455.69
491.24	21198.23
491.41	21113.97
491.59	21235.68
491.77	21022.69
491.95	21876.99
492.13	21755.28
492.30	22097.00
492.48	22263.18
492.66	22441.06
492.84	22396.59
493.01	22761.71
493.19	22576.81
493.37	22869.37
493.54	22897.46
493.72	23094.07
493.90	23075.34
494.08	23433.44
494.25	23695.58
494.43	23646.43
494.61	24086.45
494.79	24166.03
494.96	23974.11
495.14	24070.07
495.32	24533.50
495.49	24060.71
495.67	24322.85
495.85	24762.87
496.02	25132.67
496.20	24858.83
496.38	25179.48
496.55	25186.50
496.73	25689.72
496.91	25745.89
497.09	25525.88
497.26	25792.70
497.44	25996.33
497.62	25869.94
497.79	26431.67
497.97	25530.56
498.14	26087.61
498.32	26022.08
498.50	26338.05
498.67	26810.84
498.85	26541.68
499.03	27131.49
499.20	26944.25
499.38	27152.55
499.56	26977.01
499.73	27021.48
499.91	27201.71
500.08	27206.39
500.26	26951.27
500.44	27452.14
500.61	27220.43
500.79	27302.35
500.97	27845.35
501.14	27637.05
501.32	27913.23
501.49	27789.18
501.67	27852.38
501.84	27913.23
502.02	27922.59
502.20	28414.10
502.37	28601.35
502.55	28467.94
502.72	28811.99
502.90	28882.21
503.07	28849.44
503.25	28968.81
503.43	28882.21
503.60	28779.23
503.78	28816.68
503.95	28568.58
504.13	28910.30
504.30	29160.73
504.48	29205.20
504.65	29898.00
504.83	29570.33
505.01	29764.59
505.18	29605.44
505.36	29872.26
505.53	30293.55
505.71	30621.23
505.88	30572.08
506.06	30115.67
506.23	30209.29
506.41	30120.35
506.58	30377.81
506.76	30642.29
506.93	30490.16
507.11	30602.50
507.28	30567.40
507.46	30312.28
507.63	30836.56
507.81	30934.86
507.98	30649.32
508.16	30927.84
508.33	31316.37
508.50	31290.62
508.68	31377.22
508.85	31365.52
509.03	31697.88
509.20	32100.45
509.38	31864.05
509.55	31857.03
509.73	31887.46
509.90	32051.30
510.08	31908.52
510.25	31941.29
510.42	32388.33
510.60	32481.95
510.77	32680.90
510.95	32531.11
511.12	32587.28
511.30	32622.39
511.47	33336.25
511.64	33015.60
511.82	33284.76
511.99	32907.93
512.17	32875.16
512.34	33130.28
512.51	33453.28
512.69	33415.83
512.86	33621.80
513.04	33745.84
513.21	33809.04
513.38	33406.47
513.56	33736.48
513.73	33736.48
513.90	33806.70
514.08	33895.64
514.25	33579.67
514.43	33720.10
514.60	33848.83
514.77	34134.37
514.95	34625.89
515.12	34122.67
515.29	34120.33
515.47	34218.63
515.64	34754.61
515.81	34356.72
515.99	34309.91
516.16	34181.18
516.33	34195.23
516.51	34307.57
516.68	34192.89
516.85	34085.22
517.03	34012.66
517.20	34747.59
517.37	34782.70
517.54	35281.24
517.72	35012.07
517.89	34424.60
518.06	34700.78
518.24	34450.35
518.41	35002.71
518.58	35056.54
518.75	35407.62
518.93	35796.15
519.10	35466.14
519.27	35866.37
519.45	35674.45
519.62	36041.91
519.79	35632.32
519.96	36046.59
520.14	36121.49
520.31	35810.20
520.48	36224.47
520.65	36299.37
520.83	36617.68
521.00	36786.20
521.17	36495.97
521.34	36980.46
521.52	36760.45
521.69	37139.62
521.86	36847.05
522.03	36877.48
522.20	37724.75
522.38	37118.56
522.55	36973.44
522.72	37027.28
522.89	37507.08
523.07	37296.44
523.24	37095.15
523.41	37755.18
523.58	37710.71
523.75	38099.24
523.92	38087.54
524.10	38246.69
524.27	38157.75
524.44	38129.67
524.61	37830.08
524.78	38026.68
524.96	38277.12
525.13	38352.02
525.30	38665.65
525.47	38761.61
525.64	38394.15
525.81	38134.35
525.98	38256.06
526.16	37940.08
526.33	37780.93
526.50	37982.21
526.67	37682.62
526.84	38007.96
527.01	37888.59
527.18	38391.81
527.36	38543.94
527.53	39175.89
527.70	39552.71
527.87	38838.85
528.04	38930.13
528.21	39321.00
528.38	39431.01
528.55	39463.77
528.72	39440.37
528.89	39707.19
529.07	39229.72
529.24	39412.28
529.41	39501.22
529.58	39594.84
529.75	39283.55
529.92	39896.77
530.09	40051.25
530.26	40135.51
530.43	39892.09
530.60	39608.89
530.77	39974.01
530.94	40538.08
531.11	39964.65
531.28	39985.71
531.46	39873.37
531.63	40390.62
531.80	39817.19
531.97	40212.74
532.14	40304.02
532.31	39761.02
532.48	40208.06
532.65	40538.08
532.82	40268.92
532.99	40238.49
533.16	40165.93
533.33	41043.63
533.50	40903.20
533.67	40601.27
533.84	40526.38
534.01	40786.18
534.18	40744.05
534.35	41088.10
534.52	41043.63
534.69	41120.87
534.86	41247.26
535.03	41120.87
535.20	41476.63
535.37	41972.83
535.54	41830.05
535.71	41549.19
535.88	41923.68
536.05	41441.53
536.22	41703.67
536.38	41530.47
536.55	41652.17
536.72	41343.22
536.89	41226.20
537.06	41366.63
537.23	41947.08
537.40	41839.42
537.57	41933.04
537.74	41457.91
537.91	42454.98
538.08	41881.55
538.25	41954.10
538.42	41872.18
538.59	42234.97
538.75	41860.48
538.92	42176.45
539.09	42213.90
539.26	42195.18
539.43	42312.20
539.60	42089.85
539.77	42057.09
539.94	41954.10
540.11	42106.24
540.28	42150.71
540.44	42064.11
540.61	41968.15
540.78	42000.91
540.95	42337.95
541.12	42335.61
541.29	42136.66
541.46	42202.20
541.62	42792.01
541.79	43267.14
541.96	42286.46
542.13	42616.47
542.30	42745.20
542.47	42880.95
542.63	42871.59
542.80	43257.78
542.97	43253.10
543.14	43295.23
543.31	43367.79
543.48	43304.59
543.64	43772.70
543.81	43274.16
543.98	43613.54
544.15	43646.31
544.32	43945.90
544.48	43903.77
544.65	43798.44
544.82	43346.72
544.99	43803.13
545.16	43805.47
545.32	43756.32
545.49	43700.14
545.66	43880.36
545.83	44275.91
546.00	43669.72
546.16	44109.74
546.33	44069.95
546.50	43723.55
546.67	43948.24
546.83	43428.64
547.00	44107.40
547.17	43742.27
547.34	43566.73
547.50	43969.30
547.67	44435.07
547.84	44463.16
548.00	44584.86
548.17	44318.04
548.34	44238.47
548.51	44521.67
548.67	44320.38
548.84	44135.48
549.01	44650.40
549.18	44383.58
549.34	44870.41
549.51	44601.25
549.68	44755.72
549.84	44704.23
550.01	45074.04
550.18	44598.91
550.34	44449.11
550.51	44814.24
550.68	44545.08
550.84	44615.29
551.01	44744.02
551.18	45076.38
551.34	44589.55
551.51	45251.92
551.68	45345.54
551.84	44898.50
552.01	45088.08
552.18	45041.27
552.34	44683.17
552.51	45083.40
552.68	44882.11
552.84	45202.77
553.01	45399.37
553.18	45153.62
553.34	45172.34
553.51	45123.19
553.67	45191.06
553.84	45200.43
554.01	45661.51
554.17	45485.97
554.34	45397.03
554.51	45443.84
554.67	45975.14
554.84	45626.40
555.00	45090.42
555.17	45308.09
555.33	45581.93
555.50	45322.13
555.67	45340.86
555.83	45476.61
556.00	45495.33
556.16	45958.76
556.33	45610.02
556.50	45556.19
556.66	45401.71
556.83	45345.54
556.99	45757.47
557.16	45308.09
557.32	45958.76
557.49	46040.68
557.65	45551.51
557.82	45553.85
557.98	45872.16
558.15	45401.71
558.32	46122.60
558.48	45705.98
558.65	45478.95
558.81	45659.17
558.98	46190.47
559.14	45729.39
559.31	46124.94
559.47	45935.35
559.64	45930.67
559.80	45949.40
559.97	45705.98
560.13	45485.97
560.30	46068.76
560.46	45387.67
560.63	46405.80
560.79	46401.12
560.96	46698.37
561.12	45888.54
561.29	46136.64
561.45	45928.33
561.61	46127.28
561.78	45928.33
561.94	45823.01
562.11	45876.84
562.27	45949.40
562.44	46288.77
562.60	46625.81
562.77	46270.05
562.93	46314.52
563.10	46099.19
563.26	46485.38
563.42	46272.39
563.59	46012.59
563.75	46223.24
563.92	46635.17
564.08	46377.72
564.24	46141.32
564.41	46190.47
564.57	46461.97
564.74	46377.72
564.90	46106.21
565.07	46506.44
565.23	46169.41
565.39	46333.24
565.56	46344.95
565.72	46157.70
565.88	46253.67
566.05	46014.93
566.21	46464.32
566.38	46241.96
566.54	46138.98
566.70	46433.89
566.87	46969.87
567.03	46506.44
567.19	47122.01
567.36	47026.04
567.52	46148.34
567.68	46618.79
567.85	46756.88
568.01	46246.65
568.17	46424.53
568.34	46576.66
568.50	46740.50
568.66	46167.07
568.83	46405.80
568.99	46333.24
569.15	46635.17
569.32	46295.80
569.48	46286.43
569.64	46756.88
569.81	46632.83
569.97	46663.26
570.13	46478.36
570.30	46574.32
570.46	46415.16
570.62	46138.98
570.78	46169.41
570.95	46202.18
571.11	46593.04
571.27	46649.22
571.43	46389.42
571.60	46803.69
571.76	46679.64
571.92	46714.75
572.09	46653.90
572.25	46511.13
572.41	46873.91
572.57	46969.87
572.74	47206.26
572.90	46590.70
573.06	46733.48
573.22	46658.58
573.38	46461.97
573.55	46651.56
573.71	46941.78
573.87	46986.25
574.03	46405.80
574.20	46873.91
574.36	46691.35
574.52	46363.67
574.68	46850.50
574.84	46677.30
575.01	46653.90
575.17	46447.93
575.33	46291.12
575.49	46497.08
575.65	46845.82
575.82	47019.02
575.98	46656.24
576.14	47171.16
576.30	46852.84
576.46	46775.61
576.62	46485.38
576.79	46539.21
576.95	46394.10
577.11	46726.46
577.27	47138.39
577.43	46829.44
577.59	46457.29
577.75	46038.34
577.92	46403.46
578.08	46480.70
578.24	46295.80
578.40	46703.05
578.56	46534.53
578.72	46705.39
578.88	46740.50
579.04	46852.84
579.21	46611.77
579.37	46590.70
579.53	46576.66
579.69	46351.97
579.85	46712.41
580.01	46845.82
580.17	46845.82
580.33	46733.48
580.49	46820.08
580.65	47004.98
580.82	46696.03
580.98	46731.14
581.14	46789.65
581.30	47051.79
581.46	47260.10
581.62	46679.64
581.78	47264.78
581.94	47239.03
582.10	46815.40
582.26	46777.95
582.42	46689.01
582.58	46873.91
582.74	46789.65
582.90	46674.96
583.06	46920.72
583.22	46845.82
583.38	46665.60
583.54	46848.16
583.70	47171.16
583.86	46913.70
584.02	46719.43
584.18	46775.61
584.34	47000.30
584.50	46288.77
584.66	46972.21
584.82	46302.82
584.98	47323.29
585.14	47047.11
585.30	46501.76
585.46	47042.43
585.62	46700.71
585.78	46684.33
585.94	46391.76
586.10	46944.12
586.26	46476.02
586.42	47030.72
586.58	46871.57
586.74	46955.83
586.90	47047.11
587.06	46892.63
587.22	46827.10
587.38	46869.23
587.54	46731.14
587.70	46693.69
587.86	46958.17
588.02	47075.19
588.18	46953.49
588.34	46763.90
588.49	46398.78
588.65	46431.55
588.81	46141.32
588.97	46756.88
589.13	46487.72
589.29	46571.98
589.45	46447.93
589.61	46335.59
589.77	46918.38
589.93	47061.15
