SpectraSuite Data File
++++++++++++++++++++++++++++++++++++
Date: Fri Oct 25 11:23:23 EDT 2013
User: price-jones
Dark Spectrum Present: No
Reference Spectrum Present: No
Number of Sampled Component Spectra: 1
Spectrometers: USB2+H05261
Integration Time (usec): 100000 (USB2+H05261)
Spectra Averaged: 1 (USB2+H05261)
Boxcar Smoothing: 0 (USB2+H05261)
Correct for Electrical Dark: No (USB2+H05261)
Strobe/Lamp Enabled: No (USB2+H05261)
Correct for Detector Non-linearity: No (USB2+H05261)
Correct for Stray Light: No (USB2+H05261)
Number of Pixels in Processed Spectrum: 2048
>>>>>Begin Processed Spectral Data<<<<<
365.73	255.12
365.92	255.12
366.12	255.12
366.32	154.48
366.52	145.11
366.72	170.86
366.91	63.19
367.11	163.84
367.31	72.56
367.51	163.84
367.70	95.96
367.90	147.45
368.10	212.99
368.30	53.83
368.49	105.32
368.69	117.03
368.89	161.50
369.09	149.79
369.28	166.18
369.48	166.18
369.68	227.03
369.87	142.77
370.07	250.44
370.27	238.73
370.47	327.68
370.66	540.66
370.86	629.60
371.06	690.46
371.25	664.71
371.45	669.39
371.65	667.05
371.84	704.50
372.04	709.18
372.24	699.82
372.44	657.69
372.63	704.50
372.83	763.01
373.03	746.63
373.22	770.04
373.42	737.27
373.62	697.48
373.81	812.17
374.01	863.66
374.21	809.83
374.40	725.57
374.60	870.68
374.79	842.59
374.99	760.67
375.19	882.38
375.38	788.76
375.58	765.36
375.78	856.64
375.97	854.30
376.17	908.13
376.37	884.72
376.56	851.96
376.76	884.72
376.95	866.00
377.15	896.43
377.35	931.53
377.54	966.64
377.74	830.89
377.93	931.53
378.13	952.60
378.33	945.58
378.52	933.87
378.72	987.71
378.91	959.62
379.11	983.02
379.31	833.23
379.50	931.53
379.70	973.66
379.89	1036.86
380.09	854.30
380.28	976.00
380.48	968.98
380.68	966.64
380.87	997.07
381.07	978.34
381.26	1027.50
381.46	1043.88
381.65	1039.20
381.85	997.07
382.04	1015.79
382.24	1062.60
382.43	1036.86
382.63	1146.86
382.83	1011.11
383.02	1114.10
383.22	1088.35
383.41	1060.26
383.61	1107.07
383.80	1224.10
384.00	1163.25
384.19	1144.52
384.39	1144.52
384.58	1095.37
384.78	1198.35
384.97	1125.80
385.17	1086.01
385.36	1151.54
385.56	1114.10
385.75	1291.98
385.95	1224.10
386.14	1081.33
386.34	1221.76
386.53	1151.54
386.72	1203.04
386.92	1268.57
387.11	1261.55
387.31	1165.59
387.50	1219.42
387.70	1128.14
387.89	1299.00
388.09	1296.66
388.28	1348.15
388.48	1245.16
388.67	1306.02
388.86	1294.32
389.06	1390.28
389.25	1310.70
389.45	1362.19
389.64	1320.06
389.84	1343.47
390.03	1406.66
390.22	1373.89
390.42	1256.87
390.61	1334.11
390.81	1427.73
391.00	1420.71
391.19	1441.77
391.39	1448.79
391.58	1514.33
391.78	1502.62
391.97	1476.88
392.16	1486.24
392.36	1516.67
392.55	1511.99
392.75	1572.84
392.94	1523.69
393.13	1577.52
393.33	1462.83
393.52	1486.24
393.71	1575.18
393.91	1577.52
394.10	1640.72
394.29	1572.84
394.49	1542.41
394.68	1652.42
394.88	1469.86
395.07	1671.14
395.26	1680.50
395.46	1682.85
395.65	1610.29
395.84	1741.36
396.04	1713.27
396.23	1724.97
396.42	1837.32
396.62	1849.02
396.81	1774.13
397.00	1741.36
397.19	1816.26
397.39	1774.13
397.58	1856.04
397.77	1879.45
397.97	1849.02
398.16	1879.45
398.35	1961.37
398.55	1856.04
398.74	1881.79
398.93	2008.18
399.12	2012.86
399.32	1949.67
399.51	1968.39
399.70	2001.16
399.90	1987.11
400.09	2029.24
400.28	2069.03
400.47	1989.46
400.67	2101.80
400.86	2069.03
401.05	2073.71
401.24	2057.33
401.44	2073.71
401.63	2064.35
401.82	2176.70
402.01	2094.78
402.21	2026.90
402.40	2169.68
402.59	2235.21
402.78	2275.00
402.97	2249.25
403.17	2263.30
403.36	2216.49
403.55	2275.00
403.74	2338.20
403.93	2396.71
404.13	2317.13
404.32	2399.05
404.51	2317.13
404.70	2424.80
404.89	2420.11
405.09	2422.45
405.28	2452.88
405.47	2502.03
405.66	2445.86
405.85	2457.56
406.05	2476.29
406.24	2506.71
406.43	2590.97
406.62	2619.06
406.81	2663.53
407.00	2583.95
407.20	2675.23
407.39	2663.53
407.58	2602.68
407.77	2803.96
407.96	2747.79
408.15	2846.09
408.34	2682.25
408.54	2801.62
408.73	2813.32
408.92	2843.75
409.11	2942.05
409.30	2991.20
409.49	2820.35
409.68	2949.08
409.87	2850.77
410.07	2984.18
410.26	3082.49
410.45	2932.69
410.64	2963.12
410.83	3103.55
411.02	3138.66
411.21	3222.92
411.40	3185.47
411.59	3253.34
411.78	3194.83
411.98	3166.74
412.17	3262.71
412.36	3311.86
412.55	3335.26
412.74	3396.12
412.93	3260.37
413.12	3309.52
413.31	3501.44
413.50	3503.78
413.69	3520.17
413.88	3625.49
414.07	3592.72
414.26	3681.66
414.45	3585.70
414.64	3735.50
414.83	3747.20
415.02	3925.08
415.22	3918.06
415.41	3815.07
415.60	3882.95
415.79	3840.82
415.98	4004.66
416.17	3915.72
416.36	3882.95
416.55	4023.38
416.74	4100.62
416.93	4046.79
417.12	4067.85
417.31	4198.92
417.50	4180.20
417.69	4217.65
417.88	4287.86
418.07	4283.18
418.26	4236.37
418.45	4381.48
418.64	4533.62
418.83	4475.10
419.02	4390.84
419.21	4486.81
419.39	4477.44
419.58	4517.23
419.77	4486.81
419.96	4524.26
420.15	4674.05
420.34	4716.18
420.53	4685.75
420.72	4777.03
420.91	4652.98
421.10	4891.72
421.29	4791.08
421.48	4601.49
421.67	4767.67
421.86	4889.38
422.05	4880.02
422.24	4744.27
422.43	4940.87
422.61	4891.72
422.80	5022.79
422.99	4819.16
423.18	4936.19
423.37	5090.67
423.56	4980.66
423.75	4952.57
423.94	4889.38
424.13	4580.43
424.32	4912.78
424.50	4908.10
424.69	5050.88
424.88	5179.61
425.07	4980.66
425.26	4987.68
425.45	5097.69
425.64	4936.19
425.83	5050.88
426.01	5214.71
426.20	5060.24
426.39	5083.64
426.58	5102.37
426.77	5097.69
426.96	5174.92
427.15	5224.08
427.33	5266.21
427.52	5181.95
427.71	5373.87
427.90	5439.40
428.09	5252.16
428.28	5418.34
428.46	5401.96
428.65	5378.55
428.84	5643.03
429.03	5542.39
429.22	5310.68
429.40	5500.26
429.59	5453.45
429.78	5343.44
429.97	5315.36
430.16	5394.93
430.34	5504.94
430.53	5661.76
430.72	5713.25
430.91	5722.61
431.10	5610.26
431.28	5722.61
431.47	5701.54
431.66	5870.06
431.85	5748.36
432.03	5963.68
432.22	5844.32
432.41	6043.26
432.60	6078.37
432.79	6085.39
432.97	6057.31
433.16	6076.03
433.35	6043.26
433.54	5909.85
433.72	6080.71
433.91	6345.19
434.10	6092.41
434.28	6162.63
434.47	6223.48
434.66	6349.87
434.85	6394.34
435.03	6410.73
435.22	6366.26
435.41	6509.03
435.59	6408.39
435.78	6544.14
435.97	6509.03
436.16	6530.09
436.34	6466.90
436.53	6473.92
436.72	6527.75
436.90	6509.03
437.09	6712.66
437.28	6551.16
437.46	6698.61
437.65	6644.78
437.84	6960.75
438.02	6656.48
438.21	6743.08
438.40	6853.09
438.58	6988.84
438.77	7077.78
438.96	7073.10
439.14	7131.61
439.33	7105.87
439.52	7117.57
439.70	7194.81
439.89	7468.65
440.08	7440.56
440.26	7400.77
440.45	7485.03
440.63	7592.70
440.82	7623.12
441.01	7756.54
441.19	7609.08
441.38	7749.51
441.57	7772.92
441.75	7941.44
441.94	8252.73
442.12	7918.03
442.31	8159.11
442.50	8187.19
442.68	8023.36
442.87	7978.89
443.05	8070.17
443.24	8222.30
443.43	8315.92
443.61	8147.40
443.80	8517.21
443.98	8051.44
444.17	8013.99
444.35	8402.52
444.54	8390.82
444.73	8346.35
444.91	8219.96
445.10	8367.42
445.28	8353.37
445.47	8369.76
445.65	8248.05
445.84	8704.45
446.02	8678.71
446.21	8411.89
446.39	8491.46
446.58	8624.87
446.77	8582.74
446.95	8336.99
447.14	8627.21
447.32	8650.62
447.51	8519.55
447.69	8549.98
447.88	8425.93
448.06	8737.22
448.25	8482.10
448.43	8533.59
448.62	8610.83
448.80	8781.69
448.99	8645.94
449.17	8788.71
449.36	8596.79
449.54	8896.38
449.73	8891.70
449.91	9071.92
450.10	8966.59
450.28	9156.18
450.46	9210.01
450.65	8985.32
450.83	9118.73
451.02	9146.81
451.20	9317.67
451.39	9231.07
451.57	9118.73
451.76	9036.81
451.94	9399.59
452.13	9165.54
452.31	9158.52
452.49	9427.68
452.68	9455.76
452.86	9444.06
453.05	9528.32
453.23	9678.12
453.42	9355.12
453.60	9408.95
453.78	9610.24
453.97	9404.27
454.15	9673.43
454.34	9568.11
454.52	9816.21
454.70	9561.09
454.89	10010.47
455.07	9935.57
455.26	9956.64
455.44	9867.70
455.62	10073.67
455.81	9870.04
455.99	9886.42
456.17	10235.16
456.36	10366.23
456.54	10342.83
456.73	10216.44
456.91	10359.21
457.09	10394.32
457.28	10555.82
457.46	10501.98
457.64	10555.82
457.83	10647.10
458.01	10471.56
458.19	10944.34
458.38	10764.12
458.56	10630.71
458.74	10726.68
458.93	10595.61
459.11	10649.44
459.29	10850.72
459.48	10829.66
459.66	10855.40
459.84	10944.34
460.03	11197.12
460.21	11096.48
460.39	10916.26
460.57	11059.03
460.76	11164.36
460.94	11260.32
461.12	11239.25
461.31	11290.74
461.49	11101.16
461.67	11339.90
461.85	11414.79
462.04	11625.44
462.22	11618.42
462.40	11632.46
462.59	11475.65
462.77	11536.50
462.95	11559.91
463.13	11435.86
463.32	11564.59
463.50	11878.22
463.68	11775.24
463.86	11782.26
464.05	11604.38
464.23	11791.62
464.41	11976.52
464.59	11765.87
464.78	12105.25
464.96	12070.14
465.14	12018.65
465.32	12210.57
465.50	12264.41
465.69	12388.46
465.87	12219.94
466.05	12217.60
466.23	12475.06
466.41	12140.36
466.60	12365.05
466.78	12084.19
466.96	12273.77
467.14	12439.95
467.32	12416.54
467.51	12638.89
467.69	12236.32
467.87	12512.50
468.05	12690.38
468.23	12421.22
468.41	12496.12
468.60	12758.26
468.78	12886.99
468.96	12779.32
469.14	12994.65
469.32	13034.44
469.50	12559.31
469.69	13076.57
469.87	13123.38
470.05	13231.05
470.23	13083.59
470.41	13170.19
470.59	13429.99
470.77	13425.31
470.95	13254.45
471.14	13687.45
471.32	13130.41
471.50	13839.59
471.68	13551.70
471.86	13558.72
472.04	13593.83
472.22	14293.65
472.40	13762.35
472.58	14104.07
472.77	14136.84
472.95	14328.76
473.13	14836.66
473.31	14167.26
473.49	14497.28
473.67	14033.85
473.85	14516.00
474.03	14738.35
474.21	14930.28
474.39	14780.48
474.57	14808.57
474.75	15026.24
474.93	15051.99
475.12	15040.28
475.30	15243.91
475.48	15077.73
475.66	15403.07
475.84	15108.16
476.02	15487.32
476.20	15386.68
476.38	15742.44
476.56	16137.99
476.74	15939.05
476.92	15992.88
477.10	15625.42
477.28	16166.08
477.46	16060.76
477.64	16587.38
477.82	16559.29
478.00	16840.15
478.18	16891.65
478.36	17095.27
478.54	17315.28
478.72	16872.92
478.90	17198.26
479.08	17631.26
479.26	17867.65
479.44	17980.00
479.62	17851.27
479.80	18207.03
479.98	18431.72
480.16	18981.74
480.34	18530.02
480.52	18726.63
480.70	18579.17
480.88	18633.00
481.06	18871.74
481.24	19028.56
481.41	19218.14
481.59	19264.95
481.77	19370.27
481.95	19723.69
482.13	19527.09
482.31	19510.71
482.49	20229.25
482.67	20311.17
482.85	20547.56
483.03	20514.80
483.21	20748.85
483.39	21050.78
483.57	20994.61
483.74	21341.00
483.92	21380.79
484.10	21582.08
484.28	22068.91
484.46	22335.73
484.64	22443.40
484.82	21965.93
485.00	22340.41
485.18	22834.27
485.35	23056.62
485.53	23243.86
485.71	23183.01
485.89	23711.97
486.07	23534.09
486.25	23538.77
486.43	23976.45
486.61	23784.52
486.78	24561.58
486.96	24170.71
487.14	24938.41
487.32	24472.64
487.50	24774.57
487.68	25289.49
487.85	25436.94
488.03	25715.47
488.21	26033.78
488.39	25792.70
488.57	26295.92
488.75	26295.92
488.92	26721.90
489.10	26836.58
489.28	27101.06
489.46	27367.88
489.64	27056.59
489.81	27903.87
489.99	28112.17
490.17	28261.97
490.35	28437.51
490.53	28254.95
490.70	28570.92
490.88	28606.03
491.06	29179.46
491.24	29144.35
491.41	29172.44
491.59	29645.23
491.77	29364.36
491.95	29872.26
492.13	30047.80
492.30	30363.77
492.48	30008.01
492.66	30417.60
492.84	30738.26
493.01	31232.11
493.19	31091.68
493.37	31204.02
493.54	31253.17
493.72	31962.36
493.90	31639.36
494.08	31906.18
494.25	32002.14
494.43	32308.76
494.61	32673.88
494.79	32549.83
494.96	32507.70
495.14	33102.20
495.32	33315.19
495.49	33305.82
495.67	33441.57
495.85	33408.81
496.02	34094.58
496.20	34251.40
496.38	34429.28
496.55	34033.73
496.73	34944.20
496.91	34897.39
497.09	34801.43
497.26	35058.88
497.44	35222.72
497.62	35814.88
497.79	36070.00
497.97	35578.48
498.14	35906.16
498.32	36395.33
498.50	36381.29
498.67	36872.80
498.85	36615.34
499.03	36917.27
499.20	36744.07
499.38	37233.24
499.56	37111.53
499.73	37219.20
499.91	37436.87
500.08	37886.25
500.26	37546.87
500.44	37839.44
500.61	38312.23
500.79	38274.78
500.97	38356.70
501.14	38433.94
501.32	38843.53
501.49	38747.57
501.67	38745.23
501.84	39077.58
502.02	39093.97
502.20	39482.50
502.37	39356.11
502.55	39494.20
502.72	39901.45
502.90	39758.68
503.07	39672.08
503.25	40294.66
503.43	40250.19
503.60	40502.97
503.78	40130.83
503.95	40540.42
504.13	41003.85
504.30	41282.37
504.48	41015.55
504.65	41097.47
504.83	41265.99
505.01	41441.53
505.18	41605.36
505.36	41708.35
505.53	41631.11
505.71	41827.71
505.88	42499.45
506.06	41626.43
506.23	42703.07
506.41	41876.86
506.58	42054.75
506.76	42712.44
506.93	42850.53
507.11	42742.86
507.28	42974.58
507.46	42848.19
507.63	43269.48
507.81	43419.28
507.98	42965.21
508.16	43789.08
508.33	43758.66
508.50	43943.56
508.68	44329.75
508.85	44212.72
509.03	44472.52
509.20	44360.17
509.38	44821.26
509.55	44772.11
509.73	44814.24
509.90	44524.01
510.08	44748.70
510.25	45027.23
510.42	45137.23
510.60	45106.80
510.77	45516.40
510.95	45633.42
511.12	45294.05
511.30	45469.59
511.47	45806.62
511.64	45874.50
511.82	46497.08
511.99	46380.06
512.17	46089.83
512.34	45986.85
512.51	46658.58
512.69	46763.90
512.86	46775.61
513.04	46808.37
513.21	47421.59
513.38	46724.11
513.56	46906.68
513.73	47285.84
513.90	46937.10
514.08	46979.23
514.25	47721.18
514.43	47627.56
514.60	47779.70
514.77	47557.35
514.95	48023.11
515.12	47903.74
515.29	47983.32
515.47	48266.53
515.64	48692.50
515.81	48062.90
515.99	48175.25
516.16	48425.68
516.33	48413.98
516.51	48921.88
516.68	48767.40
516.85	49148.91
517.03	49092.74
517.20	49127.84
517.37	49038.90
517.54	49205.08
517.72	49413.39
517.89	49237.85
518.06	49675.53
518.24	49418.07
518.41	49752.77
518.58	49483.61
518.75	49104.44
518.93	50033.63
519.10	49815.96
519.27	50267.69
519.45	49993.84
519.62	50298.11
519.79	50178.75
519.96	50197.47
520.14	50651.53
520.31	50445.57
520.48	50808.35
520.65	50831.75
520.83	50859.84
521.00	50593.02
521.17	50688.98
521.34	50890.27
521.52	51007.29
521.69	51016.66
521.86	51110.28
522.03	51154.75
522.20	51545.62
522.38	51416.89
522.55	51632.22
522.72	51393.48
522.89	51730.52
523.07	51849.89
523.24	51562.00
523.41	52086.28
523.58	51704.77
523.75	52184.58
523.92	52011.38
524.10	52114.37
524.27	52229.05
524.44	52442.04
524.61	52718.23
524.78	52500.56
524.96	52280.55
525.13	52683.12
525.30	52516.94
525.47	52914.83
525.64	52444.38
525.81	52938.24
525.98	52601.20
526.16	53151.23
526.33	53062.29
526.50	53090.37
526.67	53162.93
526.84	53212.08
527.01	53139.52
527.18	53275.27
527.36	53324.43
527.53	53495.28
527.70	53577.20
527.87	53064.63
528.04	53380.60
528.21	53614.65
528.38	53352.51
528.55	53750.40
528.72	53656.78
528.89	53729.34
529.07	53502.31
529.24	53605.29
529.41	53792.53
529.58	53652.10
529.75	53801.89
529.92	53998.50
530.09	54026.59
530.26	54059.35
530.43	53930.62
530.60	54035.95
530.77	54089.78
530.94	54120.21
531.11	54138.93
531.28	54192.76
531.46	54583.63
531.63	54536.82
531.80	54410.43
531.97	54677.25
532.14	54436.18
532.31	54578.95
532.48	54997.91
532.65	54796.62
532.82	54789.60
532.99	54944.08
533.16	54595.34
533.33	55086.85
533.50	55222.60
533.67	54937.05
533.84	55021.31
534.01	55093.87
534.18	55079.83
534.35	55341.97
534.52	55164.09
534.69	55440.27
534.86	55559.64
535.03	55187.49
535.20	55278.77
535.37	55611.13
535.54	55571.34
535.71	55363.03
535.88	55517.51
536.05	55767.94
536.22	55861.57
536.38	55908.38
536.55	55725.81
536.72	55774.97
536.89	55676.66
537.06	55707.09
537.23	55938.80
537.40	55704.75
537.57	55955.19
537.74	55835.82
537.91	56025.40
538.08	56072.21
538.25	56074.55
538.42	56175.20
538.59	56086.26
538.75	56308.61
538.92	56067.53
539.09	56381.16
539.26	56350.74
539.43	56222.01
539.60	56439.68
539.77	56360.10
539.94	56680.75
540.11	56446.70
540.28	56720.54
540.44	56720.54
540.61	56559.05
540.78	56673.73
540.95	56776.72
541.12	56647.99
541.29	56743.95
541.46	56580.11
541.62	56673.73
541.79	56884.38
541.96	56643.30
542.13	56671.39
542.30	56896.08
542.47	56893.74
542.63	56947.57
542.80	57251.84
542.97	57270.57
543.14	57586.54
543.31	57556.11
543.48	57481.22
543.64	57432.07
543.81	57469.51
543.98	57661.44
544.15	57373.55
544.32	57717.61
544.48	57815.91
544.65	57408.66
544.82	57609.95
544.99	57628.67
545.16	57668.46
545.32	57502.28
545.49	57874.43
545.66	57982.09
545.83	57893.15
546.00	57858.04
546.16	57705.91
546.33	57715.27
546.50	57726.97
546.67	57780.81
546.83	57429.72
547.00	57958.69
547.17	57909.53
547.34	57900.17
547.50	58000.82
547.67	58305.09
547.84	58127.20
548.00	58279.34
548.17	58529.78
548.34	58436.16
548.51	58433.81
548.67	58475.94
548.84	58422.11
549.01	58080.39
549.18	58384.66
549.34	58520.41
549.51	58543.82
549.68	58595.31
549.84	58546.16
550.01	58635.10
550.18	58354.24
550.34	58567.23
550.51	58665.53
550.68	58625.74
550.84	58468.92
551.01	58866.81
551.18	58859.79
551.34	58597.65
551.51	58763.83
551.68	58749.79
551.84	58857.45
552.01	58562.54
552.18	58770.85
552.34	58747.45
552.51	58920.65
552.68	58733.40
552.84	58972.14
553.01	59100.87
553.18	58834.05
553.34	58976.82
553.51	58841.07
553.67	58831.71
553.84	59002.56
554.01	59173.42
554.17	59213.21
554.34	59217.89
554.51	58892.56
554.67	59093.85
554.84	59229.60
555.00	59337.26
555.17	59138.32
555.33	59234.28
555.50	59220.23
555.67	59072.78
555.83	59447.27
556.00	59374.71
556.16	59447.27
556.33	59494.08
556.50	59231.94
556.66	59482.37
556.83	59208.53
556.99	59458.97
557.16	59505.78
557.32	59728.13
557.49	59711.75
557.65	59491.74
557.82	59475.35
557.98	59465.99
558.15	59676.64
558.32	59564.29
558.48	59653.23
558.65	59533.87
558.81	59770.26
558.98	59812.39
559.14	59753.88
559.31	59870.90
559.47	59824.09
559.64	59803.03
559.80	59704.73
559.97	59955.16
560.13	59943.46
560.30	59999.63
560.46	60001.97
560.63	59882.61
560.79	59966.87
560.96	60207.94
561.12	60055.81
561.29	60147.09
561.45	60154.11
561.61	59800.69
561.78	60055.81
561.94	59931.76
562.11	60020.70
562.27	59941.12
562.44	60210.28
562.60	60200.92
562.77	60385.82
562.93	60107.30
563.10	60327.31
563.26	59964.52
563.42	60444.33
563.59	60097.94
563.75	60231.35
563.92	60175.17
564.08	60102.62
564.24	60261.77
564.41	60264.11
564.57	60217.30
564.74	60243.05
564.90	60622.22
565.07	60095.60
565.23	60287.52
565.39	60233.69
565.56	60193.90
565.72	60214.96
565.88	60406.89
566.05	60278.16
566.21	60369.44
566.38	60413.91
566.54	60346.03
566.70	60500.51
566.87	60575.40
567.03	60423.27
567.19	60528.59
567.36	60523.91
567.52	60385.82
567.68	60839.89
567.85	60676.05
568.01	60601.15
568.17	60287.52
568.34	60533.28
568.50	60479.44
568.66	60608.17
568.83	60495.83
568.99	60413.91
569.15	60533.28
569.32	60453.70
569.48	60654.98
569.64	60746.26
569.81	60507.53
569.97	60488.80
570.13	60580.09
570.30	60547.32
570.46	60657.32
570.62	60582.43
570.78	60706.47
570.95	60601.15
571.11	60851.59
571.27	60608.17
571.43	60746.26
571.60	60963.93
571.76	60762.65
571.92	60657.32
572.09	60713.50
572.25	60987.34
572.41	60678.39
572.57	60741.58
572.74	60856.27
572.90	60797.76
573.06	60973.30
573.22	60879.67
573.38	60842.23
573.55	60711.16
573.71	61022.45
573.87	60809.46
574.03	60547.32
574.20	60980.32
574.36	60732.22
574.52	60905.42
574.68	60952.23
574.84	60954.57
575.01	60683.07
575.17	60912.44
575.33	60741.58
575.49	60825.84
575.65	60985.00
575.82	60832.86
575.98	60783.71
576.14	61116.07
576.30	60917.12
576.46	60736.90
576.62	60886.70
576.79	60828.18
576.95	60680.73
577.11	60903.08
577.27	60905.42
577.43	61219.05
577.59	60877.33
577.75	60797.76
577.92	60793.07
578.08	60786.05
578.24	61020.11
578.40	61202.67
578.56	60985.00
578.72	60882.02
578.88	60919.46
579.04	60912.44
579.21	60994.36
579.37	60952.23
579.53	61109.05
579.69	60903.08
579.85	60884.36
580.01	61240.12
580.17	61083.30
580.33	60889.04
580.49	61024.79
580.65	61095.00
580.82	61116.07
580.98	61071.60
581.14	61055.21
581.30	61186.28
581.46	60907.76
581.62	61036.49
581.78	61055.21
581.94	61174.58
582.10	61113.73
582.26	61162.88
582.42	61069.26
582.58	61104.37
582.74	61113.73
582.90	61076.28
583.06	61097.34
583.22	60996.70
583.38	60999.04
583.54	61095.00
583.70	61139.47
583.86	61188.63
584.02	61055.21
584.18	61148.84
584.34	61223.73
584.50	61200.33
584.66	61235.44
584.82	61031.81
584.98	61254.16
585.14	61188.63
585.30	61085.64
585.46	61270.54
585.62	61251.82
585.78	61429.70
585.94	61080.96
586.10	61130.11
586.26	61251.82
586.42	61275.22
586.58	61095.00
586.74	61329.06
586.90	61268.20
587.06	61071.60
587.22	61265.86
587.38	61078.62
587.54	61188.63
587.70	61319.70
587.86	61293.95
588.02	61284.59
588.18	61322.04
588.34	61205.01
588.49	61048.19
