SpectraSuite Data File
++++++++++++++++++++++++++++++++++++
Date: Fri Oct 25 11:34:31 EDT 2013
User: price-jones
Dark Spectrum Present: No
Reference Spectrum Present: No
Number of Sampled Component Spectra: 1
Spectrometers: USB2+H05261
Integration Time (usec): 100000 (USB2+H05261)
Spectra Averaged: 1 (USB2+H05261)
Boxcar Smoothing: 0 (USB2+H05261)
Correct for Electrical Dark: No (USB2+H05261)
Strobe/Lamp Enabled: No (USB2+H05261)
Correct for Detector Non-linearity: No (USB2+H05261)
Correct for Stray Light: No (USB2+H05261)
Number of Pixels in Processed Spectrum: 2048
>>>>>Begin Processed Spectral Data<<<<<
365.73	222.35
365.92	222.35
366.12	222.35
366.32	264.48
366.52	135.75
366.72	243.42
366.91	180.22
367.11	212.99
367.31	222.35
367.51	177.88
367.70	180.22
367.90	166.18
368.10	231.71
368.30	196.60
368.49	210.65
368.69	194.26
368.89	161.50
369.09	203.63
369.28	248.10
369.48	231.71
369.68	189.58
369.87	212.99
370.07	203.63
370.27	287.89
370.47	278.52
370.66	433.00
370.86	543.00
371.06	477.47
371.25	606.20
371.45	461.09
371.65	535.98
371.84	461.09
372.04	573.43
372.24	580.45
372.44	557.05
372.63	594.50
372.83	521.94
373.03	531.30
373.22	603.86
373.42	650.67
373.62	601.52
373.81	580.45
374.01	575.77
374.21	676.41
374.40	594.50
374.60	660.03
374.79	678.76
374.99	727.91
375.19	664.71
375.38	667.05
375.58	578.11
375.78	711.52
375.97	594.50
376.17	720.88
376.37	671.73
376.56	610.88
376.76	571.09
376.95	603.86
377.15	545.34
377.35	608.54
377.54	636.63
377.74	732.59
377.93	702.16
378.13	709.18
378.33	798.12
378.52	645.99
378.72	690.46
378.91	706.84
379.11	641.31
379.31	725.57
379.50	655.35
379.70	660.03
379.89	758.33
380.09	723.23
380.28	704.50
380.48	704.50
380.68	709.18
380.87	716.20
381.07	716.20
381.26	688.12
381.46	795.78
381.65	685.78
381.85	662.37
382.04	702.16
382.24	755.99
382.43	798.12
382.63	765.36
382.83	748.97
383.02	772.38
383.22	837.91
383.41	819.19
383.61	767.70
383.80	760.67
384.00	812.17
384.19	781.74
384.39	800.46
384.58	765.36
384.78	856.64
384.97	755.99
385.17	814.51
385.36	760.67
385.56	802.80
385.75	809.83
385.95	812.17
386.14	1001.75
386.34	835.57
386.53	788.76
386.72	816.85
386.92	896.43
387.11	887.06
387.31	863.66
387.50	870.68
387.70	919.83
387.89	964.30
388.09	791.10
388.28	875.36
388.48	889.40
388.67	929.19
388.86	901.11
389.06	861.32
389.25	968.98
389.45	840.25
389.64	875.36
389.84	880.04
390.03	999.41
390.22	945.58
390.42	908.13
390.61	992.39
390.81	905.79
391.00	898.77
391.19	994.73
391.39	992.39
391.58	990.05
391.78	924.51
391.97	1069.62
392.16	997.07
392.36	1022.81
392.55	1027.50
392.75	926.85
392.94	945.58
393.13	997.07
393.33	1027.50
393.52	1022.81
393.71	1074.31
393.91	1032.18
394.10	1132.82
394.29	1034.52
394.49	1006.43
394.68	1088.35
394.88	1027.50
395.07	1135.16
395.26	1123.46
395.46	1128.14
395.65	1158.57
395.84	1053.24
396.04	1125.80
396.23	1097.71
396.42	1128.14
396.62	1135.16
396.81	1207.72
397.00	1231.12
397.19	1149.20
397.39	1128.14
397.58	1177.29
397.77	1151.54
397.97	1181.97
398.16	1256.87
398.35	1287.29
398.55	1228.78
398.74	1233.46
398.93	1224.10
399.12	1247.51
399.32	1249.85
399.51	1219.42
399.70	1299.00
399.90	1345.81
400.09	1289.64
400.28	1352.83
400.47	1287.29
400.67	1385.60
400.86	1355.17
401.05	1313.04
401.24	1350.49
401.44	1411.34
401.63	1306.02
401.82	1432.41
402.01	1369.21
402.21	1434.75
402.40	1472.20
402.59	1394.96
402.78	1430.07
402.97	1420.71
403.17	1399.64
403.36	1458.15
403.55	1432.41
403.74	1418.36
403.93	1507.30
404.13	1465.18
404.32	1561.14
404.51	1467.52
404.70	1659.44
404.89	1575.18
405.09	1572.84
405.28	1617.31
405.47	1687.53
405.66	1586.88
405.85	1605.61
406.05	1589.22
406.24	1579.86
406.43	1708.59
406.62	1650.08
406.81	1680.50
407.00	1734.34
407.20	1664.12
407.39	1767.10
407.58	1706.25
407.77	1774.13
407.96	1769.44
408.15	1893.49
408.34	1802.21
408.54	1842.00
408.73	1802.21
408.92	1825.62
409.11	1891.15
409.30	1949.67
409.49	1860.73
409.68	1935.62
409.87	1933.28
410.07	1937.96
410.26	1963.71
410.45	1987.11
410.64	1914.56
410.83	2106.48
411.02	1949.67
411.21	2015.20
411.40	2071.37
411.59	2179.04
411.78	2167.34
411.98	2122.87
412.17	2125.21
412.36	2017.54
412.55	2242.23
412.74	2258.62
412.93	2256.28
413.12	2319.47
413.31	2431.82
413.50	2258.62
413.69	2237.55
413.88	2366.28
414.07	2354.58
414.26	2356.92
414.45	2314.79
414.64	2417.77
414.83	2406.07
415.02	2520.76
415.22	2553.52
415.41	2445.86
415.60	2495.01
415.79	2607.36
415.98	2609.70
416.17	2572.25
416.36	2626.08
416.55	2747.79
416.74	2609.70
416.93	2722.04
417.12	2759.49
417.31	2663.53
417.50	2696.30
417.69	2876.52
417.88	2813.32
418.07	2752.47
418.26	2729.06
418.45	2836.73
418.64	3000.57
418.83	2932.69
419.02	3023.97
419.21	2953.76
419.39	2956.10
419.58	2885.88
419.77	3019.29
419.96	2942.05
420.15	2993.55
420.34	3098.87
420.53	2909.29
420.72	3073.12
420.91	2991.20
421.10	3119.93
421.29	3082.49
421.48	2972.48
421.67	3197.17
421.86	3091.85
422.05	3297.81
422.24	3218.24
422.43	3267.39
422.61	3286.11
422.80	3279.09
422.99	3246.32
423.18	3295.47
423.37	3297.81
423.56	3283.77
423.75	3232.28
423.94	3180.79
424.13	3119.93
424.32	3063.76
424.50	3213.56
424.69	3304.84
424.88	3407.82
425.07	3307.18
425.26	3199.51
425.45	3225.26
425.64	3314.20
425.83	3325.90
426.01	3346.97
426.20	3339.94
426.39	3281.43
426.58	3314.20
426.77	3389.10
426.96	3316.54
427.15	3372.71
427.33	3417.18
427.52	3501.44
427.71	3494.42
427.90	3346.97
428.09	3440.59
428.28	3543.57
428.46	3611.45
428.65	3536.55
428.84	3534.21
429.03	3653.58
429.22	3583.36
429.40	3548.25
429.59	3679.32
429.78	3463.99
429.97	3459.31
430.16	3646.55
430.34	3665.28
430.53	3669.96
430.72	3665.28
430.91	3761.24
431.10	3618.47
431.28	3735.50
431.47	3873.59
431.66	3833.80
431.85	3840.82
432.03	3817.41
432.22	3859.54
432.41	3751.88
432.60	3908.69
432.79	3946.14
432.97	3906.35
433.16	3964.87
433.35	3918.06
433.54	3894.65
433.72	3957.85
433.91	4058.49
434.10	3955.51
434.28	3920.40
434.47	4198.92
434.66	4142.75
434.85	4170.83
435.03	4152.11
435.22	4081.89
435.41	4119.34
435.59	4219.99
435.78	4273.82
435.97	4072.53
436.16	4140.41
436.34	4217.65
436.53	4159.13
436.72	4292.54
436.90	4208.28
437.09	4245.73
437.28	4191.90
437.46	4374.46
437.65	4170.83
437.84	4465.74
438.02	4341.69
438.21	4416.59
438.40	4353.40
438.58	4603.83
438.77	4582.77
438.96	4440.00
439.14	4685.75
439.33	4622.56
439.52	4702.14
439.70	4685.75
439.89	4865.97
440.08	4823.84
440.26	4762.99
440.45	4863.63
440.63	4889.38
440.82	5034.49
441.01	4933.85
441.19	4950.23
441.38	4990.02
441.57	4915.12
441.75	4959.60
441.94	5203.01
442.12	5184.29
442.31	5289.61
442.50	5320.04
442.68	5170.24
442.87	5247.48
443.05	5373.87
443.24	5235.78
443.43	5378.55
443.61	5394.93
443.80	5481.53
443.98	5287.27
444.17	4887.04
444.35	5266.21
444.54	5352.81
444.73	5338.76
444.91	5408.98
445.10	5390.25
445.28	5425.36
445.47	5408.98
445.65	5467.49
445.84	5376.21
446.02	5551.75
446.21	5397.28
446.39	5462.81
446.58	5465.15
446.77	5563.45
446.95	5338.76
447.14	5636.01
447.32	5455.79
447.51	5502.60
447.69	5556.43
447.88	5416.00
448.06	5467.49
448.25	5542.39
448.43	5523.66
448.62	5455.79
448.80	5416.00
448.99	5575.16
449.17	5607.92
449.36	5668.78
449.54	5596.22
449.73	5628.99
449.91	5743.67
450.10	5851.34
450.28	5818.57
450.46	5881.77
450.65	5860.70
450.83	5790.49
451.02	5738.99
451.20	5916.87
451.39	5858.36
451.57	5872.40
451.76	5940.28
451.94	5867.72
452.13	5982.41
452.31	6101.78
452.49	6040.92
452.68	6150.93
452.86	6118.16
453.05	5977.73
453.23	6085.39
453.42	6038.58
453.60	6090.07
453.78	6179.01
453.97	6113.48
454.15	6136.88
454.34	6111.14
454.52	6232.85
454.70	6382.64
454.89	6253.91
455.07	6143.91
455.26	6499.67
455.44	6408.39
455.62	6197.74
455.81	6487.96
455.99	6403.71
456.17	6436.47
456.36	6450.52
456.54	6581.59
456.73	6567.54
456.91	6663.51
457.09	6619.04
457.28	6761.81
457.46	6658.82
457.64	6689.25
457.83	6656.48
458.01	6787.55
458.19	6707.98
458.38	6782.87
458.56	6857.77
458.74	6935.01
458.93	6881.18
459.11	6916.28
459.29	6897.56
459.48	6888.20
459.66	7000.54
459.84	7056.72
460.03	7201.83
460.21	7000.54
460.39	7129.27
460.57	7094.16
460.76	7080.12
460.94	6895.22
461.12	7096.50
461.31	7124.59
461.49	7068.42
461.67	7063.74
461.85	7243.96
462.04	7213.53
462.22	7632.49
462.40	7281.41
462.59	7311.83
462.77	7370.35
462.95	7321.20
463.13	7468.65
463.32	7398.43
463.50	7424.18
463.68	7496.74
463.86	7459.29
464.05	7482.69
464.23	7644.19
464.41	7712.07
464.59	7461.63
464.78	7808.03
464.96	7695.68
465.14	7660.57
465.32	7742.49
465.50	7744.83
465.69	7770.58
465.87	7929.74
466.05	7536.52
466.23	7871.22
466.41	7597.38
466.60	7850.16
466.78	7681.64
466.96	7840.79
467.14	8002.29
467.32	7934.42
467.51	8030.38
467.69	7850.16
467.87	7894.63
468.05	8084.21
468.23	7988.25
468.41	7932.08
468.60	8032.72
468.78	8205.92
468.96	8004.63
469.14	8128.68
469.32	8329.97
469.50	7976.55
469.69	8149.75
469.87	8346.35
470.05	8283.16
470.23	8325.29
470.41	8383.80
470.59	8407.20
470.77	8463.38
470.95	8362.73
471.14	8575.72
471.32	8414.23
471.50	8622.53
471.68	8587.43
471.86	8674.03
472.04	8585.08
472.22	8854.25
472.40	8800.41
472.58	8765.31
472.77	8901.06
472.95	8872.97
473.13	9123.41
473.31	8922.12
473.49	8915.10
473.67	9055.53
473.85	9097.66
474.03	9383.21
474.21	9235.75
474.39	9366.82
474.57	9460.45
474.75	9343.42
474.93	9448.74
475.12	9418.32
475.30	9467.47
475.48	9685.14
475.66	9647.69
475.84	9476.83
476.02	9575.13
476.20	9879.40
476.38	9921.53
476.56	10040.90
476.74	10073.67
476.92	10087.71
477.10	9832.59
477.28	10284.31
477.46	10452.83
477.64	10406.02
477.82	10518.37
478.00	10623.69
478.18	10562.84
478.36	10661.14
478.54	10647.10
478.72	10951.37
478.90	10892.85
479.08	11007.54
479.26	11094.14
479.44	11075.42
479.62	11019.24
479.80	11246.27
479.98	11693.32
480.16	11569.27
480.34	11524.80
480.52	11700.34
480.70	11723.74
480.88	11494.37
481.06	11803.32
481.24	11929.71
481.41	12067.80
481.59	12088.87
481.77	12278.45
481.95	12205.89
482.13	12568.68
482.31	12262.07
482.49	12793.37
482.67	12833.16
482.85	12554.63
483.03	12748.90
483.21	13029.76
483.39	12996.99
483.57	12842.52
483.74	13109.34
483.92	13418.29
484.10	13331.69
484.28	13778.73
484.46	13427.65
484.64	13982.36
484.82	13642.98
485.00	13774.05
485.18	14150.88
485.35	14597.92
485.53	14228.12
485.71	14396.64
485.89	14649.41
486.07	14572.18
486.25	14300.67
486.43	14396.64
486.61	14822.61
486.78	15012.20
486.96	15304.76
487.14	15208.80
487.32	15220.50
487.50	15833.72
487.68	15634.78
487.85	15810.32
488.03	16025.65
488.21	16079.48
488.39	16166.08
488.57	16276.09
488.75	16231.62
488.92	16552.27
489.10	16650.57
489.28	16926.75
489.46	16709.08
489.64	16938.46
489.81	17364.43
489.99	17233.36
490.17	17095.27
490.35	17362.09
490.53	17577.42
490.70	17776.37
490.88	17710.83
491.06	18066.60
491.24	18122.77
491.41	17781.05
491.59	18366.18
491.77	17961.27
491.95	18469.17
492.13	18586.19
492.30	18373.21
492.48	18939.62
492.66	18899.83
492.84	18813.23
493.01	18984.09
493.19	19234.52
493.37	19414.74
493.54	19414.74
493.72	19508.37
493.90	19777.53
494.08	19695.61
494.25	19784.55
494.43	19983.49
494.61	19967.11
494.79	20343.94
494.96	20245.63
495.14	20475.01
495.32	20641.18
495.49	20570.97
495.67	20458.62
495.85	20870.56
496.02	20821.41
496.20	20819.07
496.38	21118.65
496.55	21341.00
496.73	21537.61
496.91	20800.34
497.09	21834.86
497.26	21469.73
497.44	21930.82
497.62	22073.59
497.79	22181.26
497.97	22265.52
498.14	22499.57
498.32	22637.66
498.50	22705.54
498.67	22960.66
498.85	22309.99
499.03	22754.69
499.20	22984.06
499.38	22710.22
499.56	23098.75
499.73	23515.36
499.91	23318.76
500.08	23630.05
500.26	23133.86
500.44	23293.01
500.61	23552.81
500.79	23466.21
500.97	23803.25
501.14	24121.56
501.32	23651.11
501.49	23761.12
501.67	24236.25
501.84	24259.65
502.02	24423.49
502.20	24161.35
502.37	24210.50
502.55	24437.53
502.72	24584.99
502.90	24849.47
503.07	24430.51
503.25	24844.79
503.43	24940.75
503.60	25139.69
503.78	25310.55
503.95	25043.73
504.13	25113.95
504.30	25390.13
504.48	25273.10
504.65	25099.90
504.83	25319.92
505.01	25689.72
505.18	25797.38
505.36	25869.94
505.53	26022.08
505.71	26047.82
505.88	26125.06
506.06	25661.63
506.23	26150.81
506.41	25923.77
506.58	26223.36
506.76	26560.40
506.93	26689.13
507.11	26576.78
507.28	26773.39
507.46	26607.21
507.63	26595.51
507.81	27019.14
507.98	26848.29
508.16	26836.58
508.33	27337.46
508.50	27065.96
508.68	27321.07
508.85	27623.00
509.03	27477.89
509.20	27580.87
509.38	27751.73
509.55	27950.68
509.73	28084.09
509.90	27866.42
510.08	27896.85
510.25	28348.57
510.42	28107.49
510.60	28226.86
510.77	28390.70
510.95	28470.28
511.12	28903.28
511.30	28500.70
511.47	28435.17
511.64	28978.17
511.82	28587.30
511.99	28467.94
512.17	28842.42
512.34	28947.75
512.51	29401.81
512.69	29013.28
512.86	29654.59
513.04	29743.53
513.21	29694.38
513.38	29603.10
513.56	29638.20
513.73	29322.23
513.90	29713.10
514.08	29259.04
514.25	29996.31
514.43	30396.54
514.60	30000.99
514.77	29680.33
514.95	29972.90
515.12	30038.44
515.29	30375.47
515.47	30071.20
515.64	30455.05
515.81	29839.49
515.99	30363.77
516.16	30604.84
516.33	30558.03
516.51	30738.26
516.68	30834.22
516.85	31016.78
517.03	30810.81
517.20	31384.24
517.37	31028.48
517.54	31126.78
517.72	31433.39
517.89	30827.20
518.06	31601.91
518.24	31103.38
518.41	31140.83
518.58	31536.38
518.75	31393.61
518.93	31695.53
519.10	31524.68
519.27	31356.16
519.45	32063.00
519.62	32100.45
519.79	32009.17
519.96	32121.51
520.14	32198.75
520.31	31812.56
520.48	32678.56
520.65	32357.91
520.83	32863.46
521.00	32470.25
521.17	32364.93
521.34	32622.39
521.52	32734.73
521.69	32886.87
521.86	33153.69
522.03	33165.39
522.20	33226.24
522.38	33324.55
522.55	33156.03
522.72	33118.58
522.89	33301.14
523.07	33785.63
523.24	33780.95
523.41	33565.62
523.58	33172.41
523.75	33528.17
523.92	33670.95
524.10	33979.90
524.27	33699.03
524.44	33736.48
524.61	34029.05
524.78	33914.36
524.96	34127.35
525.13	33748.18
525.30	34478.43
525.47	34527.58
525.64	34246.72
525.81	34740.57
525.98	34459.71
526.16	34448.00
526.33	34483.11
526.50	34499.50
526.67	34792.06
526.84	34735.89
527.01	34637.59
527.18	34684.40
527.36	34883.34
527.53	34785.04
527.70	35314.00
527.87	35342.09
528.04	35096.33
528.21	35005.05
528.38	35250.81
528.55	35314.00
528.72	35505.93
528.89	35288.26
529.07	35159.53
529.24	35201.66
529.41	35903.82
529.58	35454.44
529.75	35723.60
529.92	35405.28
530.09	35782.11
530.26	35737.64
530.43	35585.50
530.60	35805.52
530.77	35922.54
530.94	36044.25
531.11	35707.21
531.28	36105.10
531.46	36470.23
531.63	36224.47
531.80	36327.45
531.97	36191.70
532.14	36224.47
532.31	36582.57
532.48	36416.40
532.65	36765.14
532.82	36629.38
532.99	36243.20
533.16	36641.09
533.33	36566.19
533.50	36875.14
533.67	36699.60
533.84	36776.84
534.01	36811.95
534.18	36842.37
534.35	37546.87
534.52	37174.73
534.69	37296.44
534.86	37446.23
535.03	37446.23
535.20	37586.66
535.37	37881.57
535.54	37652.20
535.71	37340.91
535.88	37619.43
536.05	37284.73
536.22	37518.79
536.38	37642.84
536.55	37574.96
536.72	37649.86
536.89	37790.29
537.06	37586.66
537.23	37785.61
537.40	37743.48
537.57	38038.39
537.74	37635.81
537.91	38176.48
538.08	38178.82
538.25	37841.78
538.42	38323.93
538.59	38092.22
538.75	38204.56
538.92	38785.02
539.09	38862.26
539.26	38557.99
539.43	38345.00
539.60	38946.51
539.77	38356.70
539.94	38766.29
540.11	38522.88
540.28	39119.71
540.44	38761.61
540.61	38391.81
540.78	38976.94
540.95	39393.56
541.12	38700.76
541.29	38609.48
541.46	38988.64
541.62	39154.82
541.79	39316.32
541.96	38712.46
542.13	39152.48
542.30	39115.03
542.47	39215.68
542.63	39262.49
542.80	39615.91
542.97	39524.63
543.14	40170.61
543.31	39475.48
543.48	40020.82
543.64	39728.25
543.81	39880.39
543.98	39906.13
544.15	39974.01
544.32	40018.48
544.48	40325.09
544.65	40009.12
544.82	40299.34
544.99	39662.72
545.16	40350.84
545.32	40350.84
545.49	40573.19
545.66	40694.89
545.83	40570.85
546.00	40715.96
546.16	40488.93
546.33	40591.91
546.50	40610.64
546.67	40545.10
546.83	40196.36
547.00	40617.66
547.17	40432.75
547.34	40580.21
547.50	40713.62
547.67	40758.09
547.84	40830.65
548.00	40795.54
548.17	41024.91
548.34	41144.28
548.51	40973.42
548.67	41186.41
548.84	41186.41
549.01	41170.02
549.18	40835.33
549.34	41514.08
549.51	41446.21
549.68	41551.53
549.84	41254.28
550.01	41336.20
550.18	41390.03
550.34	41366.63
550.51	41373.65
550.68	41364.29
550.84	41102.15
551.01	41565.57
551.18	41635.79
551.34	41177.04
551.51	41790.27
551.68	41605.36
551.84	41404.08
552.01	41308.11
552.18	41841.76
552.34	41469.61
552.51	41975.17
552.68	41666.22
552.84	42122.62
553.01	42080.49
553.18	41689.62
553.34	41979.85
553.51	42232.63
553.67	41900.27
553.84	42188.16
554.01	42443.27
554.17	42052.41
554.34	42663.28
554.51	42684.35
554.67	42267.73
554.84	42405.83
555.00	42117.94
555.17	42305.18
555.33	42438.59
555.50	42459.66
555.67	42532.22
555.83	42157.73
556.00	42873.93
556.16	43241.40
556.33	42649.24
556.50	42642.22
556.66	42878.61
556.83	43037.77
556.99	43196.93
557.16	42946.49
557.32	43342.04
557.49	43445.02
557.65	42712.44
557.82	42735.84
557.98	42738.18
558.15	42817.76
558.32	43054.15
558.48	42513.49
558.65	43297.57
558.81	43061.18
558.98	43320.98
559.14	42972.24
559.31	43337.36
559.47	43117.35
559.64	43292.89
559.80	43356.08
559.97	43625.25
560.13	42920.74
560.30	43241.40
560.46	43536.30
560.63	43299.91
560.79	43332.68
560.96	44051.22
561.12	43255.44
561.29	43634.61
561.45	43463.75
561.61	43215.65
561.78	43400.55
561.94	43257.78
562.11	43491.83
562.27	43786.74
562.44	43185.22
562.60	43784.40
562.77	43772.70
562.93	43915.47
563.10	43461.41
563.26	43693.12
563.42	44051.22
563.59	43531.62
563.75	43910.79
563.92	43454.39
564.08	43901.43
564.24	43800.79
564.41	43641.63
564.57	43828.87
564.74	43608.86
564.90	43800.79
565.07	43690.78
565.23	43971.64
565.39	43922.49
565.56	44254.85
565.72	43665.03
565.88	43971.64
566.05	44076.97
566.21	43969.30
566.38	44355.49
566.54	43983.35
566.70	44182.29
566.87	44074.63
567.03	43957.60
567.19	44217.40
567.36	44105.06
567.52	43871.00
567.68	44622.31
567.85	44264.21
568.01	44292.30
568.17	43908.45
568.34	44486.56
568.50	44123.78
568.66	44201.02
568.83	44086.33
568.99	44304.00
569.15	43569.07
569.32	44091.01
569.48	44362.51
569.64	44507.63
569.81	44488.90
569.97	44395.28
570.13	44664.44
570.30	44215.06
570.46	44140.16
570.62	44339.11
570.78	44804.88
570.95	44416.35
571.11	44636.36
571.27	44264.21
571.43	44797.85
571.60	44626.99
571.76	45067.02
571.92	44224.42
572.09	44266.55
572.25	44528.69
572.41	44460.82
572.57	44268.89
572.74	44790.83
572.90	44718.28
573.06	44737.00
573.22	44603.59
573.38	45092.76
573.55	44477.20
573.71	44989.78
573.87	44877.43
574.03	44573.16
574.20	44547.42
574.36	44694.87
574.52	45008.50
574.68	44823.60
574.84	44903.18
575.01	45247.24
575.17	44875.09
575.33	44987.44
575.49	44772.11
575.65	44774.45
575.82	45097.44
575.98	45111.49
576.14	45258.94
576.30	45141.91
576.46	44807.22
576.62	44968.71
576.79	44863.39
576.95	44868.07
577.11	44694.87
577.27	44367.20
577.43	44542.74
577.59	44842.32
577.75	44573.16
577.92	44645.72
578.08	44645.72
578.24	44863.39
578.40	44905.52
578.56	45347.88
578.72	45013.18
578.88	44914.88
579.04	44912.54
579.21	45043.61
579.37	44999.14
579.53	45209.79
579.69	44811.90
579.85	44601.25
580.01	45015.52
580.17	44531.03
580.33	44996.80
580.49	45205.11
580.65	44898.50
580.82	44928.92
580.98	45010.84
581.14	44659.76
581.30	45076.38
581.46	44870.41
581.62	44566.14
581.78	44739.34
581.94	45148.93
582.10	44889.13
582.26	45076.38
582.42	45120.85
582.58	45144.25
582.74	45345.54
582.90	44746.36
583.06	45460.23
583.22	44842.32
583.38	45216.81
583.54	45155.96
583.70	45130.21
583.86	45181.70
584.02	45015.52
584.18	45799.60
584.34	45308.09
584.50	45855.78
584.66	45404.05
584.82	45640.45
584.98	45415.76
585.14	45338.52
585.30	44842.32
585.46	44935.95
585.62	45265.96
585.78	45338.52
585.94	44666.78
586.10	44975.73
586.26	44776.79
586.42	44821.26
586.58	45326.81
586.74	45408.73
586.90	45139.57
587.06	45036.59
587.22	45109.14
587.38	45120.85
587.54	45439.16
587.70	45394.69
587.86	45310.43
588.02	45380.65
588.18	45392.35
588.34	45214.47
588.49	45226.17
588.65	45017.86
588.81	45399.37
588.97	45457.88
589.13	45256.60
589.29	45132.55
589.45	45680.24
589.61	45380.65
589.77	45523.42
589.93	45408.73
590.08	45378.31
