SpectraSuite Data File
++++++++++++++++++++++++++++++++++++
Date: Fri Oct 25 10:44:06 EDT 2013
User: price-jones
Dark Spectrum Present: No
Reference Spectrum Present: No
Number of Sampled Component Spectra: 1
Spectrometers: USB2+H05261
Integration Time (usec): 100000 (USB2+H05261)
Spectra Averaged: 1 (USB2+H05261)
Boxcar Smoothing: 0 (USB2+H05261)
Correct for Electrical Dark: No (USB2+H05261)
Strobe/Lamp Enabled: No (USB2+H05261)
Correct for Detector Non-linearity: No (USB2+H05261)
Correct for Stray Light: No (USB2+H05261)
Number of Pixels in Processed Spectrum: 2048
>>>>>Begin Processed Spectral Data<<<<<
365.73	79.58
365.92	79.58
366.12	79.58
366.32	0.00
366.52	0.00
366.72	126.39
366.91	0.00
367.11	86.60
367.31	35.11
367.51	44.47
367.70	93.62
367.90	35.11
368.10	42.13
368.30	0.00
368.49	4.68
368.69	91.28
368.89	37.45
369.09	79.58
369.28	65.54
369.48	7.02
369.68	128.73
369.87	128.73
370.07	42.13
370.27	119.37
370.47	180.22
370.66	442.36
370.86	402.57
371.06	416.62
371.25	423.64
371.45	496.19
371.65	538.32
371.84	486.83
372.04	451.72
372.24	374.49
372.44	526.62
372.63	472.79
372.83	428.32
373.03	589.82
373.22	545.34
373.42	531.30
373.62	514.92
373.81	589.82
374.01	519.60
374.21	608.54
374.40	533.64
374.60	587.47
374.79	519.60
374.99	610.88
375.19	566.41
375.38	559.39
375.58	489.17
375.78	681.10
375.97	662.37
376.17	594.50
376.37	585.13
376.56	624.92
376.76	655.35
376.95	566.41
377.15	617.90
377.35	629.60
377.54	706.84
377.74	622.58
377.93	657.69
378.13	674.07
378.33	676.41
378.52	667.05
378.72	725.57
378.91	716.20
379.11	599.18
379.31	596.84
379.50	650.67
379.70	685.78
379.89	688.12
380.09	643.65
380.28	653.01
380.48	648.33
380.68	608.54
380.87	660.03
381.07	629.60
381.26	767.70
381.46	720.88
381.65	683.44
381.85	741.95
382.04	704.50
382.24	767.70
382.43	641.31
382.63	760.67
382.83	697.48
383.02	755.99
383.22	746.63
383.41	678.76
383.61	702.16
383.80	685.78
384.00	777.06
384.19	723.23
384.39	746.63
384.58	840.25
384.78	828.55
384.97	814.51
385.17	896.43
385.36	814.51
385.56	760.67
385.75	730.25
385.95	854.30
386.14	830.89
386.34	781.74
386.53	823.87
386.72	840.25
386.92	880.04
387.11	926.85
387.31	875.36
387.50	828.55
387.70	805.14
387.89	905.79
388.09	819.19
388.28	866.00
388.48	1027.50
388.67	1006.43
388.86	926.85
389.06	866.00
389.25	910.47
389.45	992.39
389.64	983.02
389.84	999.41
390.03	1062.60
390.22	961.96
390.42	1011.11
390.61	1055.58
390.81	968.98
391.00	1032.18
391.19	1097.71
391.39	1172.61
391.58	1081.33
391.78	1074.31
391.97	1025.15
392.16	1013.45
392.36	1025.15
392.55	1032.18
392.75	1018.13
392.94	1057.92
393.13	1001.75
393.33	1050.90
393.52	954.94
393.71	1163.25
393.91	1093.03
394.10	1167.93
394.29	1174.95
394.49	1121.12
394.68	1315.38
394.88	1263.89
395.07	1226.44
395.26	1212.40
395.46	1270.91
395.65	1259.21
395.84	1167.93
396.04	1151.54
396.23	1135.16
396.42	1153.88
396.62	1266.23
396.81	1217.08
397.00	1270.91
397.19	1252.19
397.39	1324.74
397.58	1310.70
397.77	1359.85
397.97	1413.68
398.16	1481.56
398.35	1514.33
398.55	1455.81
398.74	1460.49
398.93	1582.20
399.12	1476.88
399.32	1474.54
399.51	1528.37
399.70	1570.50
399.90	1593.90
400.09	1617.31
400.28	1624.33
400.47	1617.31
400.67	1722.63
400.86	1753.06
401.05	1694.55
401.24	1563.48
401.44	1762.42
401.63	1797.53
401.82	1727.32
402.01	1790.51
402.21	1680.50
402.40	1755.40
402.59	1746.04
402.78	1832.64
402.97	1760.08
403.17	1696.89
403.36	1785.83
403.55	1785.83
403.74	1935.62
403.93	1898.17
404.13	1874.77
404.32	1884.13
404.51	1909.88
404.70	1966.05
404.89	1851.36
405.09	2029.24
405.28	2062.01
405.47	1963.71
405.66	1982.43
405.85	1961.37
406.05	1947.33
406.24	1966.05
406.43	2078.40
406.62	2069.03
406.81	2202.44
407.00	1977.75
407.20	2167.34
407.39	2153.29
407.58	2176.70
407.77	2118.18
407.96	2157.97
408.15	2251.60
408.34	2209.47
408.54	2319.47
408.73	2338.20
408.92	2277.34
409.11	2335.85
409.30	2275.00
409.49	2333.51
409.68	2347.56
409.87	2310.11
410.07	2314.79
410.26	2487.99
410.45	2429.48
410.64	2389.69
410.83	2523.10
411.02	2495.01
411.21	2597.99
411.40	2548.84
411.59	2590.97
411.78	2555.86
411.98	2668.21
412.17	2675.23
412.36	2663.53
412.55	2803.96
412.74	2939.71
412.93	2782.90
413.12	2731.41
413.31	2935.03
413.50	2897.58
413.69	2876.52
413.88	2881.20
414.07	2874.18
414.26	2984.18
414.45	2977.16
414.64	2939.71
414.83	3063.76
415.02	3021.63
415.22	3136.32
415.41	3096.53
415.60	3101.21
415.79	3337.60
415.98	3309.52
416.17	3297.81
416.36	3035.67
416.55	3283.77
416.74	3281.43
416.93	3164.40
417.12	3386.76
417.31	3412.50
417.50	3316.54
417.69	3576.34
417.88	3417.18
418.07	3503.78
418.26	3445.27
418.45	3555.27
418.64	3581.02
418.83	3599.74
419.02	3723.79
419.21	3737.84
419.39	3730.81
419.58	3576.34
419.77	3557.61
419.96	3754.22
420.15	3630.17
420.34	3803.37
420.53	3658.26
420.72	3826.78
420.91	3815.07
421.10	3730.81
421.29	4002.32
421.48	3700.39
421.67	3901.67
421.86	3908.69
422.05	3885.29
422.24	3824.44
422.43	3866.56
422.61	3782.31
422.80	3871.25
422.99	3908.69
423.18	3990.61
423.37	3878.27
423.56	4067.85
423.75	3990.61
423.94	3887.63
424.13	3707.41
424.32	3824.44
424.50	3941.46
424.69	4156.79
424.88	3957.85
425.07	3815.07
425.26	3927.42
425.45	3976.57
425.64	3941.46
425.83	3857.20
426.01	4035.08
426.20	4004.66
426.39	3976.57
426.58	3925.08
426.77	4070.19
426.96	4042.11
427.15	3957.85
427.33	4051.47
427.52	4091.26
427.71	4262.12
427.90	4236.37
428.09	4292.54
428.28	4168.49
428.46	4105.30
428.65	4299.56
428.84	4290.20
429.03	4241.05
429.22	4121.68
429.40	4100.62
429.59	4081.89
429.78	3997.64
429.97	3974.23
430.16	4056.15
430.34	4086.58
430.53	4271.48
430.72	4135.73
430.91	4243.39
431.10	4372.12
431.28	4542.98
431.47	4542.98
431.66	4819.16
431.85	4638.94
432.03	4641.28
432.22	4767.67
432.41	4699.80
432.60	4589.79
432.79	4690.43
432.97	4894.06
433.16	4861.29
433.35	4561.70
433.54	4828.53
433.72	4791.08
433.91	4758.31
434.10	4723.20
434.28	4905.76
434.47	5064.92
434.66	4837.89
434.85	4945.55
435.03	5172.58
435.22	5067.26
435.41	5144.50
435.59	5055.56
435.78	5043.85
435.97	5118.75
436.16	4912.78
436.34	5207.69
436.53	5179.61
436.72	5364.51
436.90	5095.35
437.09	5151.52
437.28	5205.35
437.46	5280.25
437.65	5205.35
437.84	5139.82
438.02	5125.77
438.21	5048.54
438.40	5139.82
438.58	5401.96
438.77	5502.60
438.96	5542.39
439.14	5619.63
439.33	5792.83
439.52	5626.65
439.70	5692.18
439.89	5811.55
440.08	5872.40
440.26	5699.20
440.45	5846.66
440.63	5816.23
440.82	5996.45
441.01	6003.47
441.19	6066.67
441.38	6146.25
441.57	6284.34
441.75	6113.48
441.94	6284.34
442.12	6373.28
442.31	6394.34
442.50	6387.32
442.68	6296.04
442.87	6251.57
443.05	6382.64
443.24	6560.52
443.43	6420.09
443.61	6670.53
443.80	6682.23
443.98	6422.43
444.17	6363.92
444.35	6600.31
444.54	6532.44
444.73	6696.27
444.91	6707.98
445.10	6455.20
445.28	6537.12
445.47	6417.75
445.65	6354.55
445.84	6525.41
446.02	6607.33
446.21	6553.50
446.39	6715.00
446.58	6787.55
446.77	6656.48
446.95	6499.67
447.14	6778.19
447.32	7007.56
447.51	6703.29
447.69	6670.53
447.88	6810.96
448.06	6761.81
448.25	6668.19
448.43	6834.36
448.62	6832.02
448.80	6773.51
448.99	6832.02
449.17	6937.35
449.36	6864.79
449.54	6960.75
449.73	7112.89
449.91	7274.38
450.10	7293.11
450.28	7056.72
450.46	7368.01
450.65	7482.69
450.83	7405.46
451.02	7377.37
451.20	7370.35
451.39	7403.11
451.57	7318.86
451.76	7265.02
451.94	7316.51
452.13	7501.42
452.31	7288.43
452.49	7253.32
452.68	7286.09
452.86	7164.38
453.05	7309.49
453.23	7552.91
453.42	7311.83
453.60	7360.98
453.78	7602.06
453.97	7426.52
454.15	7592.70
454.34	7363.33
454.52	7569.29
454.70	7620.78
454.89	7557.59
455.07	7714.41
455.26	7644.19
455.44	7791.64
455.62	7808.03
455.81	7730.79
455.99	7864.20
456.17	7948.46
456.36	7927.39
456.54	7929.74
456.73	8226.98
456.91	8100.59
457.09	8404.86
457.28	8416.57
457.46	8072.51
457.64	8252.73
457.83	8287.84
458.01	8187.19
458.19	8381.46
458.38	8173.15
458.56	8238.69
458.74	8241.03
458.93	8329.97
459.11	8332.31
459.29	8362.73
459.48	8411.89
459.66	8262.09
459.84	8482.10
460.03	8351.03
460.21	8554.66
460.39	8685.73
460.57	8631.90
460.76	8875.31
460.94	8608.49
461.12	8730.20
461.31	8875.31
461.49	8678.71
461.67	8753.60
461.85	8945.53
462.04	8931.48
462.22	9547.05
462.40	9046.17
462.59	8861.27
462.77	8966.59
462.95	9060.21
463.13	9039.15
463.32	9008.72
463.50	9011.06
463.68	9181.92
463.86	9081.28
464.05	8966.59
464.23	9001.70
464.41	9083.62
464.59	8966.59
464.78	9181.92
464.96	9226.39
465.14	9132.77
465.32	9261.50
465.50	9383.21
465.69	9357.46
465.87	9310.65
466.05	9315.33
466.23	9207.67
466.41	9142.13
466.60	9692.16
466.78	9312.99
466.96	9202.99
467.14	9404.27
467.32	9523.64
467.51	9710.88
467.69	9462.79
467.87	9521.30
468.05	9525.98
468.23	9380.87
468.41	9610.24
468.60	9593.86
468.78	9654.71
468.96	9729.61
469.14	9935.57
469.32	9788.12
469.50	9668.75
469.69	9816.21
469.87	9961.32
470.05	9973.02
470.23	9851.31
470.41	9790.46
470.59	10132.18
470.77	9933.23
470.95	10101.75
471.14	10050.26
471.32	10256.23
471.50	10410.70
471.68	10539.43
471.86	10399.00
472.04	10611.99
472.22	10787.53
472.40	10406.02
472.58	10689.23
472.77	10581.56
472.95	10661.14
473.13	11026.26
473.31	10644.76
473.49	10593.26
473.67	10764.12
473.85	10647.10
474.03	11133.93
474.21	11012.22
474.39	11080.10
474.57	11077.76
474.75	11218.19
474.93	11220.53
475.12	11293.08
475.30	11365.64
475.48	11382.03
475.66	11236.91
475.84	11438.20
476.02	11536.50
476.20	11508.41
476.38	11679.27
476.56	11882.90
476.74	11889.92
476.92	11775.24
477.10	11985.88
477.28	12241.00
477.46	12002.27
477.64	12259.73
477.82	12587.40
478.00	12798.05
478.18	12498.46
478.36	12748.90
478.54	12760.60
478.72	13006.36
478.90	13076.57
479.08	13174.88
479.26	13060.19
479.44	13415.95
479.62	13603.19
479.80	13565.74
479.98	13343.39
480.16	13898.10
480.34	13717.88
480.52	13877.04
480.70	13797.46
480.88	13764.69
481.06	13980.02
481.24	13977.68
481.41	14267.91
481.59	14579.20
481.77	14494.94
481.95	14792.19
482.13	14799.21
482.31	14869.42
482.49	15009.86
482.67	15073.05
482.85	15112.84
483.03	15246.25
483.21	15302.42
483.39	15517.75
483.57	15344.55
483.74	15791.59
483.92	15803.30
484.10	15726.06
484.28	15927.35
484.46	16353.32
484.64	16362.69
484.82	15995.22
485.00	16276.09
485.18	16395.45
485.35	16795.68
485.53	16154.38
485.71	16512.48
485.89	16486.73
486.07	16823.77
486.25	16938.46
486.43	16915.05
486.61	17006.33
486.78	17429.97
486.96	17624.23
487.14	17804.46
487.32	17827.86
487.50	18001.06
487.68	18354.48
487.85	18654.07
488.03	18689.18
488.21	18721.95
488.39	18918.55
488.57	19068.34
488.75	19103.45
488.92	19358.57
489.10	19276.65
489.28	19442.83
489.46	19969.45
489.64	19857.10
489.81	20196.48
489.99	20184.78
490.17	20278.40
490.35	20926.73
490.53	20243.29
490.70	20376.70
490.88	20589.69
491.06	21177.17
491.24	20978.22
491.41	21123.33
491.59	21137.38
491.77	20929.07
491.95	21383.13
492.13	21542.29
492.30	21949.54
492.48	21977.63
492.66	22029.12
492.84	22097.00
493.01	22464.46
493.19	22352.12
493.37	22391.91
493.54	22558.08
493.72	22871.72
493.90	22705.54
494.08	23131.51
494.25	23047.26
494.43	22972.36
494.61	23459.19
494.79	23583.24
494.96	23534.09
495.14	23606.64
495.32	23910.91
495.49	23814.95
495.67	23901.55
495.85	24285.40
496.02	24484.34
496.20	24662.22
496.38	25071.82
496.55	24737.12
496.73	25202.89
496.91	24739.46
497.09	25193.53
497.26	25710.78
497.44	25401.83
497.62	25310.55
497.79	25818.45
497.97	25270.76
498.14	25656.95
498.32	25837.17
498.50	26134.42
498.67	26527.63
498.85	25982.29
499.03	26368.48
499.20	26508.91
499.38	26504.23
499.56	26803.82
499.73	26883.39
499.91	26948.93
500.08	27019.14
500.26	26497.20
500.44	26609.55
500.61	26941.91
500.79	26583.80
500.97	27115.11
501.14	27513.00
501.32	27199.37
501.49	27440.44
501.67	27536.40
501.84	27686.20
502.02	27840.67
502.20	28100.47
502.37	28170.69
502.55	28233.88
502.72	28624.75
502.90	28428.15
503.07	28456.23
503.25	28540.49
503.43	28458.57
503.60	28467.94
503.78	28666.88
503.95	28128.56
504.13	28816.68
504.30	28676.24
504.48	28624.75
504.65	28840.08
504.83	29357.34
505.01	29633.52
505.18	29263.72
505.36	29640.54
505.53	29645.23
505.71	30010.35
505.88	29935.45
506.06	29881.62
506.23	30286.53
506.41	29977.58
506.58	30115.67
506.76	30036.09
506.93	30707.83
507.11	30316.96
507.28	30225.68
507.46	30127.38
507.63	30518.25
507.81	30349.73
507.98	30506.54
508.16	30628.25
508.33	30661.02
508.50	31082.31
508.68	31012.10
508.85	31424.03
509.03	31274.24
509.20	31552.76
509.38	31407.65
509.55	31557.44
509.73	31709.58
509.90	31831.29
510.08	31475.52
510.25	31611.28
510.42	31819.58
510.60	32123.85
510.77	31971.72
510.95	32142.58
511.12	32606.00
511.30	32432.80
511.47	32723.03
511.64	32620.05
511.82	32889.21
511.99	32488.98
512.17	32732.39
512.34	32402.38
512.51	33008.58
512.69	32975.81
512.86	33139.65
513.04	33256.67
513.21	32840.06
513.38	32905.59
513.56	32999.21
513.73	32961.76
513.90	33345.61
514.08	33586.69
514.25	32896.23
514.43	33415.83
514.60	33773.93
514.77	33727.12
514.95	33982.24
515.12	33694.35
515.29	33993.94
515.47	34457.37
515.64	34347.36
515.81	34160.12
515.99	34300.55
516.16	33954.15
516.33	33649.88
516.51	34029.05
516.68	33237.95
516.85	33762.23
517.03	33937.77
517.20	34190.55
517.37	34417.58
517.54	34773.34
517.72	34747.59
517.89	34316.93
518.06	34314.59
518.24	34403.53
518.41	34593.12
518.58	34682.06
518.75	35054.20
518.93	35082.29
519.10	35234.42
519.27	35236.77
519.45	35332.73
519.62	35742.32
519.79	35786.79
519.96	35552.74
520.14	36210.43
520.31	35545.72
520.48	36137.87
520.65	36046.59
520.83	35976.37
521.00	35857.01
521.17	36086.38
521.34	36465.55
521.52	36198.73
521.69	36285.33
521.86	36641.09
522.03	36617.68
522.20	36573.21
522.38	36666.83
522.55	36678.54
522.72	36449.16
522.89	36421.08
523.07	37109.19
523.24	37010.89
523.41	37053.02
523.58	37361.97
523.75	37366.65
523.92	37900.29
524.10	37579.64
524.27	37937.74
524.44	37626.45
524.61	37607.73
524.78	37434.53
524.96	37797.31
525.13	38143.71
525.30	38590.75
525.47	38106.26
525.64	37820.72
525.81	37855.82
525.98	38122.65
526.16	37652.20
526.33	37680.28
526.50	37834.76
526.67	37518.79
526.84	37778.59
527.01	37909.66
527.18	38036.05
527.36	38195.20
527.53	38834.17
527.70	38712.46
527.87	38525.22
528.04	38618.84
528.21	38635.22
528.38	38876.30
528.55	39323.34
528.72	39428.66
528.89	39222.70
529.07	39079.92
529.24	39239.08
529.41	39206.31
529.58	39318.66
529.75	39168.87
529.92	39260.15
530.09	39402.92
530.26	39440.37
530.43	39522.29
530.60	39573.78
530.77	39597.18
530.94	40135.51
531.11	39817.19
531.28	40004.44
531.46	39974.01
531.63	39711.87
531.80	39674.42
531.97	39718.89
532.14	39885.07
532.31	39683.78
532.48	39856.98
532.65	40126.14
532.82	39702.51
532.99	40643.40
533.16	40343.81
533.33	40299.34
533.50	40575.53
533.67	40341.47
533.84	40498.29
534.01	40224.45
534.18	40343.81
534.35	40395.31
534.52	40842.35
534.69	40769.79
534.86	41013.21
535.03	40872.78
535.20	41195.77
535.37	41226.20
535.54	41312.80
535.71	41233.22
535.88	41062.36
536.05	40807.24
536.22	41263.64
536.38	41457.91
536.55	41294.07
536.72	41249.60
536.89	40994.48
537.06	40737.02
537.23	41095.13
537.40	41268.33
537.57	41249.60
537.74	41830.05
537.91	41668.56
538.08	41523.44
538.25	41364.29
538.42	41628.77
538.59	42185.82
538.75	41146.62
538.92	41258.96
539.09	41638.13
539.26	41572.60
539.43	41872.18
539.60	42017.30
539.77	41797.29
539.94	42127.30
540.11	41741.11
540.28	41738.77
540.44	41869.84
540.61	41794.95
540.78	41797.29
540.95	41790.27
541.12	41897.93
541.29	42101.56
541.46	42351.99
541.62	42349.65
541.79	41977.51
541.96	42415.19
542.13	42471.36
542.30	42522.85
542.47	42569.66
542.63	42359.02
542.80	42564.98
542.97	42859.89
543.14	43100.97
543.31	43388.85
543.48	42904.36
543.64	43374.81
543.81	43372.47
543.98	43569.07
544.15	43332.68
544.32	43330.34
544.48	44023.14
544.65	43325.66
544.82	43332.68
544.99	43098.62
545.16	43189.91
545.32	43477.79
545.49	44006.75
545.66	43622.90
545.83	43311.61
546.00	43739.93
546.16	43812.49
546.33	43182.88
546.50	43643.97
546.67	43765.68
546.83	43590.14
547.00	43861.64
547.17	43615.88
547.34	43409.92
547.50	43386.51
547.67	43889.73
547.84	43988.03
548.00	44264.21
548.17	44236.12
548.34	44208.04
548.51	44472.52
548.67	44039.52
548.84	44643.38
549.01	44367.20
549.18	43882.70
549.34	44247.83
549.51	44360.17
549.68	44030.16
549.84	44177.61
550.01	44694.87
550.18	43950.58
550.34	44076.97
550.51	44341.45
550.68	44130.80
550.84	43681.42
551.01	44208.04
551.18	44451.45
551.34	44797.85
551.51	45029.57
551.68	45013.18
551.84	44509.97
552.01	44428.05
552.18	44479.54
552.34	44470.18
552.51	44591.89
552.68	44545.08
552.84	44804.88
553.01	45031.91
553.18	44961.69
553.34	44678.49
553.51	44385.92
553.67	44575.50
553.84	45045.95
554.01	44861.05
554.17	45219.15
554.34	45322.13
554.51	44825.94
554.67	45687.26
554.84	44870.41
555.00	44938.29
555.17	45081.06
555.33	45184.04
555.50	44926.58
555.67	45170.00
555.83	44903.18
556.00	45275.32
556.16	45617.04
556.33	45165.32
556.50	44734.66
556.66	45382.99
556.83	44842.32
556.99	45614.70
557.16	45670.87
557.32	45296.39
557.49	45867.48
557.65	44942.97
557.82	45219.15
557.98	45638.11
558.15	45205.11
558.32	45312.77
558.48	45106.80
558.65	45436.82
558.81	45205.11
558.98	45315.11
559.14	45785.56
559.31	45272.98
559.47	46040.68
559.64	45890.88
559.80	45708.32
559.97	45698.96
560.13	45500.01
560.30	45572.57
560.46	45968.12
560.63	45694.28
560.79	45773.86
560.96	45904.93
561.12	45715.34
561.29	45853.44
561.45	45794.92
561.61	45783.22
561.78	45771.52
561.94	45497.67
562.11	45858.12
562.27	45507.04
562.44	45785.56
562.60	46010.25
562.77	46005.57
562.93	45457.88
563.10	46239.62
563.26	45614.70
563.42	45918.97
563.59	45549.17
563.75	46099.19
563.92	46256.01
564.08	45813.65
564.24	46433.89
564.41	46192.81
564.57	45984.51
564.74	45951.74
564.90	46202.18
565.07	45638.11
565.23	45933.01
565.39	45874.50
565.56	46246.65
565.72	45921.31
565.88	46050.04
566.05	45844.07
566.21	46368.35
566.38	45876.84
566.54	46256.01
566.70	45982.16
566.87	46445.59
567.03	46103.87
567.19	46651.56
567.36	46052.38
567.52	46190.47
567.68	46300.48
567.85	46017.27
568.01	46251.33
568.17	45888.54
568.34	46167.07
568.50	46206.86
568.66	45933.01
568.83	46363.67
568.99	45720.02
569.15	46347.29
569.32	46153.02
569.48	46138.98
569.64	46466.66
569.81	46344.95
569.97	45745.77
570.13	46319.20
570.30	46031.32
570.46	45909.61
570.62	46054.72
570.78	45776.20
570.95	45937.69
571.11	46286.43
571.27	46080.47
571.43	46010.25
571.60	45986.85
571.76	46256.01
571.92	45951.74
572.09	46213.88
572.25	46450.27
572.41	46363.67
572.57	46660.92
572.74	46529.85
572.90	46511.13
573.06	46527.51
573.22	46857.52
573.38	46466.66
573.55	46040.68
573.71	46469.00
573.87	46469.00
574.03	46387.08
574.20	46740.50
574.36	46773.27
574.52	46487.72
574.68	46588.36
574.84	46323.88
575.01	45991.53
575.17	46218.56
575.33	45825.35
575.49	45893.22
575.65	46302.82
575.82	46504.10
575.98	46010.25
576.14	46323.88
576.30	46504.10
576.46	46419.84
576.62	46075.79
576.79	46712.41
576.95	46171.75
577.11	46562.62
577.27	46553.26
577.43	46153.02
577.59	46248.99
577.75	46223.24
577.92	45773.86
578.08	46108.55
578.24	46244.30
578.40	45958.76
578.56	46667.94
578.72	46806.03
578.88	46351.97
579.04	46426.87
579.21	46485.38
579.37	46501.76
579.53	46375.37
579.69	46019.61
579.85	46036.00
580.01	46672.62
580.17	46375.37
580.33	46300.48
580.49	46363.67
580.65	46560.28
580.82	46616.45
580.98	46492.40
581.14	46291.12
581.30	46457.29
581.46	46593.04
581.62	46438.57
581.78	46351.97
581.94	47105.62
582.10	46382.40
582.26	46651.56
582.42	46696.03
582.58	46600.07
582.74	46684.33
582.90	46972.21
583.06	46742.84
583.22	46639.86
583.38	46674.96
583.54	46684.33
583.70	46564.96
583.86	47061.15
584.02	46417.50
584.18	45982.16
584.34	46291.12
584.50	46733.48
584.66	46422.19
584.82	46632.83
584.98	46562.62
585.14	46944.12
585.30	46625.81
585.46	46564.96
585.62	45907.27
585.78	46813.05
585.94	46064.08
586.10	46487.72
586.26	46387.08
586.42	46670.28
586.58	46927.74
586.74	46939.44
586.90	46356.65
587.06	46347.29
587.22	46962.85
587.38	46684.33
587.54	46639.86
587.70	46164.73
587.86	46880.93
588.02	46534.53
588.18	46630.49
588.34	46897.31
588.49	46127.28
588.65	45762.15
588.81	45923.65
588.97	46064.08
589.13	45605.34
589.29	46248.99
589.45	46539.21
589.61	46150.68
589.77	46892.63
589.93	46878.59
