SpectraSuite Data File
++++++++++++++++++++++++++++++++++++
Date: Fri Oct 25 11:23:58 EDT 2013
User: price-jones
Dark Spectrum Present: No
Reference Spectrum Present: No
Number of Sampled Component Spectra: 1
Spectrometers: USB2+H05261
Integration Time (usec): 100000 (USB2+H05261)
Spectra Averaged: 1 (USB2+H05261)
Boxcar Smoothing: 0 (USB2+H05261)
Correct for Electrical Dark: No (USB2+H05261)
Strobe/Lamp Enabled: No (USB2+H05261)
Correct for Detector Non-linearity: No (USB2+H05261)
Correct for Stray Light: No (USB2+H05261)
Number of Pixels in Processed Spectrum: 2048
>>>>>Begin Processed Spectral Data<<<<<
365.73	252.78
365.92	252.78
366.12	252.78
366.32	175.54
366.52	163.84
366.72	126.39
366.91	156.82
367.11	142.77
367.31	142.77
367.51	79.58
367.70	154.48
367.90	159.16
368.10	100.64
368.30	142.77
368.49	159.16
368.69	168.52
368.89	126.39
369.09	187.24
369.28	201.29
369.48	198.95
369.68	180.22
369.87	250.44
370.07	236.39
370.27	224.69
370.47	304.27
370.66	582.79
370.86	620.24
371.06	573.43
371.25	697.48
371.45	648.33
371.65	688.12
371.84	685.78
372.04	650.67
372.24	716.20
372.44	741.95
372.63	716.20
372.83	774.72
373.03	748.97
373.22	774.72
373.42	777.06
373.62	847.27
373.81	823.87
374.01	814.51
374.21	748.97
374.40	830.89
374.60	791.10
374.79	786.42
374.99	814.51
375.19	819.19
375.38	793.44
375.58	828.55
375.78	940.90
375.97	915.15
376.17	870.68
376.37	814.51
376.56	819.19
376.76	880.04
376.95	915.15
377.15	833.23
377.35	901.11
377.54	957.28
377.74	861.32
377.93	903.45
378.13	922.17
378.33	917.49
378.52	945.58
378.72	1004.09
378.91	917.49
379.11	926.85
379.31	952.60
379.50	863.66
379.70	987.71
379.89	1022.81
380.09	929.19
380.28	910.47
380.48	931.53
380.68	961.96
380.87	1076.65
381.07	1034.52
381.26	997.07
381.46	983.02
381.65	1022.81
381.85	1064.94
382.04	1043.88
382.24	997.07
382.43	1025.15
382.63	994.73
382.83	1053.24
383.02	1071.97
383.22	1158.57
383.41	1060.26
383.61	1132.82
383.80	1177.29
384.00	1093.03
384.19	1078.99
384.39	1128.14
384.58	1174.95
384.78	1064.94
384.97	1149.20
385.17	1170.27
385.36	1132.82
385.56	1062.60
385.75	1071.97
385.95	1160.91
386.14	1123.46
386.34	1198.35
386.53	1275.59
386.72	1158.57
386.92	1245.16
387.11	1242.82
387.31	1228.78
387.50	1181.97
387.70	1172.61
387.89	1228.78
388.09	1231.12
388.28	1291.98
388.48	1308.36
388.67	1254.53
388.86	1352.83
389.06	1350.49
389.25	1366.87
389.45	1383.26
389.64	1296.66
389.84	1327.08
390.03	1369.21
390.22	1329.42
390.42	1282.61
390.61	1378.58
390.81	1385.60
391.00	1441.77
391.19	1472.20
391.39	1446.45
391.58	1385.60
391.78	1432.41
391.97	1476.88
392.16	1479.22
392.36	1519.01
392.55	1423.05
392.75	1535.39
392.94	1476.88
393.13	1479.22
393.33	1582.20
393.52	1521.35
393.71	1519.01
393.91	1600.93
394.10	1474.54
394.29	1640.72
394.49	1521.35
394.68	1586.88
394.88	1643.06
395.07	1624.33
395.26	1675.82
395.46	1607.95
395.65	1736.68
395.84	1760.08
396.04	1886.47
396.23	1713.27
396.42	1643.06
396.62	1764.76
396.81	1830.30
397.00	1736.68
397.19	1739.02
397.39	1816.26
397.58	1865.41
397.77	1757.74
397.97	1909.88
398.16	1818.60
398.35	1954.35
398.55	1893.49
398.74	1863.07
398.93	1937.96
399.12	1961.37
399.32	1907.54
399.51	1973.07
399.70	1968.39
399.90	1856.04
400.09	1952.01
400.28	2054.99
400.47	2010.52
400.67	2104.14
400.86	2113.50
401.05	2183.72
401.24	2087.76
401.44	2057.33
401.63	2209.47
401.82	2155.63
402.01	2190.74
402.21	2179.04
402.40	2298.41
402.59	2143.93
402.78	2249.25
402.97	2246.91
403.17	2244.57
403.36	2221.17
403.55	2260.96
403.74	2429.48
403.93	2244.57
404.13	2359.26
404.32	2317.13
404.51	2408.41
404.70	2504.37
404.89	2345.22
405.09	2504.37
405.28	2527.78
405.47	2476.29
405.66	2436.50
405.85	2523.10
406.05	2567.57
406.24	2544.16
406.43	2672.89
406.62	2555.86
406.81	2658.85
407.00	2492.67
407.20	2588.63
407.39	2670.55
407.58	2715.02
407.77	2916.31
407.96	2766.51
408.15	2717.36
408.34	2649.49
408.54	2874.18
408.73	2862.48
408.92	2843.75
409.11	2953.76
409.30	2820.35
409.49	2913.97
409.68	3009.93
409.87	2932.69
410.07	3049.72
410.26	2860.13
410.45	3047.38
410.64	3052.06
410.83	3122.27
411.02	3112.91
411.21	3148.02
411.40	3112.91
411.59	3194.83
411.78	3220.58
411.98	3159.72
412.17	3363.35
412.36	3269.73
412.55	3323.56
412.74	3361.01
412.93	3412.50
413.12	3272.07
413.31	3508.46
413.50	3522.51
413.69	3597.40
413.88	3433.57
414.07	3571.66
414.26	3637.19
414.45	3681.66
414.64	3662.94
414.83	3808.05
415.02	3777.62
415.22	3824.44
415.41	3829.12
415.60	3794.01
415.79	3934.44
415.98	3955.51
416.17	3997.64
416.36	3873.59
416.55	4114.66
416.74	4175.52
416.93	4018.70
417.12	4058.49
417.31	4177.86
417.50	4243.39
417.69	4329.99
417.88	4322.97
418.07	4304.25
418.26	4414.25
418.45	4379.14
418.64	4545.32
418.83	4444.68
419.02	4510.21
419.21	4505.53
419.39	4409.57
419.58	4559.36
419.77	4468.08
419.96	4685.75
420.15	4535.96
420.34	4613.20
420.53	4711.50
420.72	4741.93
420.91	4765.33
421.10	4664.69
421.29	4685.75
421.48	4725.54
421.67	4938.53
421.86	4896.40
422.05	4912.78
422.24	4746.61
422.43	4760.65
422.61	4861.29
422.80	5083.64
422.99	4997.04
423.18	4891.72
423.37	5074.28
423.56	5011.09
423.75	4980.66
423.94	4966.62
424.13	4793.42
424.32	4760.65
424.50	5006.41
424.69	5167.90
424.88	5093.01
425.07	4894.06
425.26	4983.00
425.45	4943.21
425.64	4980.66
425.83	4954.91
426.01	5043.85
426.20	5188.97
426.39	4929.17
426.58	4910.44
426.77	5097.69
426.96	5240.46
427.15	5104.71
427.33	5231.10
427.52	5158.54
427.71	5165.56
427.90	5329.40
428.09	5385.57
428.28	5378.55
428.46	5359.83
428.65	5343.44
428.84	5430.04
429.03	5418.34
429.22	5373.87
429.40	5600.90
429.59	5572.82
429.78	5338.76
429.97	5291.95
430.16	5378.55
430.34	5579.84
430.53	5844.32
430.72	5720.27
430.91	5626.65
431.10	5659.42
431.28	5792.83
431.47	5790.49
431.66	5872.40
431.85	5891.13
432.03	5870.06
432.22	5954.32
432.41	5907.51
432.60	5816.23
432.79	6015.18
432.97	6033.90
433.16	5954.32
433.35	5963.68
433.54	6033.90
433.72	6181.35
433.91	6029.22
434.10	6230.51
434.28	6183.70
434.47	6363.92
434.66	6375.62
434.85	6305.40
435.03	6394.34
435.22	6291.36
435.41	6649.46
435.59	6307.74
435.78	6469.24
435.97	6511.37
436.16	6499.67
436.34	6200.08
436.53	6448.18
436.72	6593.29
436.90	6406.05
437.09	6684.57
437.28	6581.59
437.46	6712.66
437.65	6626.06
437.84	6726.70
438.02	6782.87
438.21	6803.94
438.40	6775.85
438.58	7040.33
438.77	7087.14
438.96	6965.43
439.14	7101.19
439.33	7185.44
439.52	7297.79
439.70	7110.55
439.89	7398.43
440.08	7377.37
440.26	7456.95
440.45	7419.50
440.63	7470.99
440.82	7803.35
441.01	7368.01
441.19	7665.25
441.38	7676.96
441.57	7838.45
441.75	7751.85
441.94	7840.79
442.12	7985.91
442.31	8056.12
442.50	8044.42
442.68	7925.05
442.87	8067.83
443.05	8121.66
443.24	8327.63
443.43	8280.82
443.61	8318.26
443.80	8442.31
443.98	8173.15
444.17	7964.84
444.35	8173.15
444.54	8372.10
444.73	8381.46
444.91	8493.80
445.10	8423.59
445.28	8292.52
445.47	8133.36
445.65	8376.78
445.84	8535.93
446.02	8381.46
446.21	8505.51
446.39	8353.37
446.58	8615.51
446.77	8542.96
446.95	8315.92
447.14	8503.17
447.32	8531.25
447.51	8524.23
447.69	8397.84
447.88	8702.11
448.06	8554.66
448.25	8695.09
448.43	8477.42
448.62	8676.37
448.80	8575.72
448.99	8697.43
449.17	8798.07
449.36	8823.82
449.54	8695.09
449.73	8947.87
449.91	9102.34
450.10	8990.00
450.28	9050.85
450.46	9109.36
450.65	9233.41
450.83	9132.77
451.02	9085.96
451.20	9305.97
451.39	9303.63
451.57	9198.31
451.76	9029.79
451.94	9310.65
452.13	9364.48
452.31	9345.76
452.49	8997.02
452.68	9273.20
452.86	9298.95
453.05	9420.66
453.23	9591.52
453.42	9596.20
453.60	9238.09
453.78	9518.96
453.97	9280.22
454.15	9570.45
454.34	9474.49
454.52	9937.91
454.70	9799.82
454.89	9544.70
455.07	9530.66
455.26	9970.68
455.44	9966.00
455.62	10012.81
455.81	10083.03
455.99	10050.26
456.17	10073.67
456.36	10127.50
456.54	10115.80
456.73	10263.25
456.91	10604.97
457.09	10415.38
457.28	10600.29
457.46	10422.41
457.64	10513.69
457.83	10399.00
458.01	10509.01
458.19	10740.72
458.38	10644.76
458.56	10810.93
458.74	10736.04
458.93	10743.06
459.11	10817.96
459.29	10841.36
459.48	10827.32
459.66	10768.80
459.84	10846.04
460.03	10953.71
460.21	11246.27
460.39	10808.59
460.57	11068.39
460.76	11016.90
460.94	11187.76
461.12	11250.96
461.31	11147.97
461.49	11232.23
461.67	11318.83
461.85	11620.76
462.04	11346.92
462.22	11363.30
462.40	11541.18
462.59	11585.65
462.77	11735.45
462.95	11733.11
463.13	11503.73
463.32	11536.50
463.50	11784.60
463.68	11981.20
463.86	12032.69
464.05	11709.70
464.23	11611.40
464.41	11871.20
464.59	11477.99
464.78	11981.20
464.96	12058.44
465.14	11934.39
465.32	12156.74
465.50	12049.08
465.69	12311.22
465.87	12320.58
466.05	12224.62
466.23	12285.47
466.41	12327.60
466.60	12461.01
466.78	12285.47
466.96	12245.68
467.14	12390.80
467.32	12369.73
467.51	12517.18
467.69	12229.30
467.87	12407.18
468.05	12634.21
468.23	12711.45
468.41	12439.95
468.60	12585.06
468.78	12566.34
468.96	12596.76
469.14	12950.18
469.32	13041.46
469.50	12505.48
469.69	13036.78
469.87	13060.19
470.05	13081.25
470.23	13233.39
470.41	13224.03
470.59	13240.41
470.77	13341.05
470.95	13317.65
471.14	13657.03
471.32	13142.11
471.50	13598.51
471.68	13532.98
471.86	13689.79
472.04	13884.06
472.22	13638.30
472.40	13570.43
472.58	14101.73
472.77	14003.43
472.95	14237.48
473.13	14600.26
473.31	14345.14
473.49	14441.11
473.67	14033.85
473.85	14382.59
474.03	14827.29
474.21	14799.21
474.39	14843.68
474.57	14803.89
474.75	14913.89
474.93	15005.17
475.12	14963.04
475.30	15042.62
475.48	15131.56
475.66	15122.20
475.84	15180.71
476.02	15506.05
476.20	15459.24
476.38	15641.80
476.56	16109.91
476.74	15957.77
476.92	15868.83
477.10	15917.98
477.28	16346.30
477.46	16163.74
477.64	16156.72
477.82	16629.51
478.00	16896.33
478.18	16980.59
478.36	16975.91
478.54	17074.21
478.72	17146.76
478.90	17336.35
479.08	17359.75
479.26	17806.80
479.44	17593.81
479.62	17694.45
479.80	18286.61
479.98	18342.78
480.16	18654.07
480.34	18356.82
480.52	18333.42
480.70	18665.77
480.88	18548.75
481.06	18974.72
481.24	18909.19
481.41	19419.42
481.59	19491.98
481.77	19587.94
481.95	19491.98
482.13	19929.66
482.31	19845.40
482.49	20009.24
482.67	20091.16
482.85	20245.63
483.03	20521.82
483.21	21135.04
483.39	20959.50
483.57	20954.82
483.74	21338.66
483.92	21333.98
484.10	21238.02
484.28	21926.14
484.46	21998.70
484.64	22401.27
484.82	22043.17
485.00	22265.52
485.18	22670.43
485.35	22897.46
485.53	22782.77
485.71	23234.50
485.89	23452.17
486.07	23225.14
486.25	23517.70
486.43	23847.72
486.61	24168.37
486.78	24404.77
486.96	24535.84
487.14	24725.42
487.32	24826.06
487.50	24758.19
487.68	25408.86
487.85	25469.71
488.03	25673.34
488.21	26319.32
488.39	26089.95
488.57	26232.72
488.75	26192.94
488.92	26649.34
489.10	26799.13
489.28	26955.95
489.46	27180.64
489.64	27056.59
489.81	27744.71
489.99	27861.74
490.17	27740.03
490.35	28184.73
490.53	28212.82
490.70	28692.63
490.88	28353.25
491.06	28868.17
491.24	28985.19
491.41	29497.77
491.59	29212.23
491.77	29343.30
491.95	29755.23
492.13	29647.57
492.30	29993.97
492.48	30258.45
492.66	30157.80
492.84	30569.74
493.01	30958.27
493.19	30394.20
493.37	31227.43
493.54	31564.46
493.72	31323.39
493.90	31630.00
494.08	31887.46
494.25	32390.67
494.43	32212.79
494.61	32259.60
494.79	32596.64
494.96	32102.79
495.14	32730.05
495.32	33296.46
495.49	33357.32
495.67	33280.08
495.85	33633.50
496.02	33947.13
496.20	34047.77
496.38	34213.95
496.55	34244.38
496.73	35040.16
496.91	34625.89
497.09	34686.74
497.26	35101.01
497.44	35049.52
497.62	35363.15
497.79	35569.12
497.97	35473.16
498.14	36128.51
498.32	36610.66
498.50	36631.72
498.67	36828.33
498.85	36680.88
499.03	37020.25
499.20	36751.09
499.38	36849.39
499.56	37170.05
499.73	36996.85
499.91	37266.01
500.08	37766.88
500.26	37474.32
500.44	38057.11
500.61	37722.41
500.79	37942.42
500.97	37837.10
501.14	39091.63
501.32	39023.75
501.49	38548.62
501.67	38429.26
501.84	38892.68
502.02	39100.99
502.20	39372.49
502.37	39751.66
502.55	39653.36
502.72	39864.00
502.90	39658.04
503.07	39765.70
503.25	39908.47
503.43	39660.38
503.60	40105.08
503.78	40149.55
503.95	40367.22
504.13	41060.02
504.30	40722.98
504.48	40388.28
504.65	40966.40
504.83	40823.62
505.01	41254.28
505.18	41167.68
505.36	41635.79
505.53	41322.16
505.71	41752.82
505.88	41670.90
506.06	41663.88
506.23	42197.52
506.41	42120.28
506.58	42146.03
506.76	42157.73
506.93	42782.65
507.11	42087.51
507.28	43000.32
507.46	43009.68
507.63	43533.96
507.81	43388.85
507.98	43131.39
508.16	43206.29
508.33	43604.18
508.50	43943.56
508.68	43861.64
508.85	44009.09
509.03	44041.86
509.20	44229.10
509.38	44612.95
509.55	44645.72
509.73	44973.39
509.90	44512.31
510.08	45251.92
510.25	44818.92
510.42	45069.36
510.60	45223.83
510.77	45500.01
510.95	45521.08
511.12	45481.29
511.30	45193.40
511.47	45572.57
511.64	45230.85
511.82	45933.01
511.99	45778.54
512.17	46251.33
512.34	46003.23
512.51	46188.13
512.69	46602.41
512.86	46625.81
513.04	46948.81
513.21	46609.43
513.38	46586.02
513.56	47199.24
513.73	46944.12
513.90	47327.97
514.08	46890.29
514.25	47452.02
514.43	47402.87
514.60	47725.86
514.77	47482.45
514.95	47618.20
515.12	47587.77
515.29	47828.85
515.47	48044.18
515.64	48346.11
515.81	48495.90
515.99	48596.54
516.16	48636.33
516.33	48919.54
516.51	48903.15
516.68	48708.89
516.85	48989.75
517.03	49081.03
517.20	48914.86
517.37	49038.90
517.54	49113.80
517.72	49017.84
517.89	49188.70
518.06	49607.65
518.24	49352.54
518.41	49389.98
518.58	49584.25
518.75	49303.38
518.93	49869.79
519.10	49525.74
519.27	49684.89
519.45	49799.58
519.62	50040.65
519.79	50122.57
519.96	50349.60
520.14	50363.65
520.31	50728.77
520.48	50492.38
520.65	50475.99
520.83	50920.70
521.00	50672.60
521.17	50562.59
521.34	50738.13
521.52	51026.02
521.69	50810.69
521.86	51079.85
522.03	51278.80
522.20	51021.34
522.38	51664.99
522.55	51433.27
522.72	51459.02
522.89	51704.77
523.07	52119.05
523.24	51580.73
523.41	51945.85
523.58	51554.98
523.75	52250.12
523.92	51660.30
524.10	52257.14
524.27	52147.14
524.44	52207.99
524.61	51831.16
524.78	52193.95
524.96	52229.05
525.13	52177.56
525.30	52615.24
525.47	52662.05
525.64	52851.64
525.81	53109.10
525.98	52999.09
526.16	52575.45
526.33	52811.85
526.50	53003.77
526.67	53048.24
526.84	52879.72
527.01	53024.84
527.18	52961.64
527.36	53029.52
527.53	53181.65
527.70	53319.74
527.87	53530.39
528.04	53326.77
528.21	53490.60
528.38	53492.94
528.55	53785.51
528.72	53200.38
528.89	53656.78
529.07	53481.24
529.24	53514.01
529.41	53783.17
529.58	53881.47
529.75	53862.75
529.92	53806.58
530.09	53815.94
530.26	54021.90
530.43	54164.68
530.60	54113.19
530.77	53970.41
530.94	54265.32
531.11	54206.81
531.28	54241.92
531.46	54087.44
531.63	54300.43
531.80	54213.83
531.97	54387.03
532.14	54581.29
532.31	54513.42
532.48	54335.54
532.65	54490.01
532.82	54717.04
532.99	54810.67
533.16	54539.16
533.33	54805.98
533.50	55065.78
533.67	54901.95
533.84	54621.08
534.01	54972.16
534.18	55128.98
534.35	55334.95
534.52	55117.28
534.69	55217.92
534.86	55402.82
535.03	55178.13
535.20	55320.90
535.37	55407.50
535.54	55585.38
535.71	55377.08
535.88	55522.19
536.05	55723.47
536.22	55664.96
536.38	55508.14
536.55	55480.06
536.72	55695.39
536.89	55765.60
537.06	55866.25
537.23	55985.61
537.40	55583.04
537.57	56177.54
537.74	55934.12
537.91	56119.02
538.08	55920.08
538.25	55545.59
538.42	56051.15
538.59	56278.18
538.75	56376.48
538.92	56357.76
539.09	56128.39
539.26	56165.84
539.43	56355.42
539.60	56339.04
539.77	56467.76
539.94	56671.39
540.11	56282.86
540.28	56556.70
540.44	56460.74
540.61	56736.93
540.78	56308.61
540.95	56397.55
541.12	56395.21
541.29	56437.34
541.46	56498.19
541.62	56746.29
541.79	56804.80
541.96	56584.79
542.13	56514.58
542.30	56701.82
542.47	56900.76
542.63	57181.63
542.80	56973.32
542.97	57162.90
543.14	57123.11
543.31	57350.15
543.48	57052.90
543.64	57549.09
543.81	57408.66
543.98	57265.89
544.15	57595.90
544.32	57698.89
544.48	57733.99
544.65	57502.28
544.82	57626.33
544.99	57495.26
545.16	57509.30
545.32	57623.99
545.49	57729.31
545.66	57949.32
545.83	57733.99
546.00	57745.70
546.16	57766.76
546.33	57642.71
546.50	57598.24
546.67	57904.85
546.83	57677.82
547.00	57858.04
547.17	57939.96
547.34	57928.26
547.50	58000.82
547.67	58461.90
547.84	57986.77
548.00	58286.36
548.17	58312.11
548.34	58073.37
548.51	58246.57
548.67	58379.98
548.84	58241.89
549.01	58225.51
549.18	58272.32
549.34	58286.36
549.51	58398.71
549.68	58426.79
549.84	58365.94
550.01	58534.46
550.18	58532.12
550.34	58532.12
550.51	58625.74
550.68	58202.10
550.84	58323.81
551.01	58773.19
551.18	58812.98
551.34	58815.32
551.51	58707.66
551.68	58583.61
551.84	58557.86
552.01	58660.85
552.18	58794.26
552.34	58599.99
552.51	58834.05
552.68	58522.76
552.84	58599.99
553.01	59131.29
553.18	58862.13
553.34	58873.84
553.51	58731.06
553.67	59201.51
553.84	59047.04
554.01	59042.35
554.17	59306.83
554.34	59201.51
554.51	59002.56
554.67	59002.56
554.84	58967.46
555.00	59269.39
555.17	59018.95
555.33	59203.85
555.50	59103.21
555.67	59100.87
555.83	59114.91
556.00	59070.44
556.16	59388.75
556.33	59381.73
556.50	59267.05
556.66	59447.27
556.83	59152.36
556.99	59477.69
557.16	59559.61
557.32	59454.29
557.49	59772.60
557.65	59538.55
557.82	59372.37
557.98	59435.56
558.15	59636.85
558.32	59723.45
558.48	59540.89
558.65	59447.27
558.81	59700.04
558.98	59805.37
559.14	59557.27
559.31	59496.42
559.47	59749.20
559.64	59758.56
559.80	59800.69
559.97	59781.96
560.13	59721.11
560.30	59695.36
560.46	59994.95
560.63	59805.37
560.79	59861.54
560.96	59980.91
561.12	59962.18
561.29	59896.65
561.45	59812.39
561.61	59943.46
561.78	60004.31
561.94	59971.55
562.11	59875.58
562.27	59950.48
562.44	60233.69
562.60	60083.89
562.77	60135.38
562.93	59929.42
563.10	60306.24
563.26	59788.98
563.42	60133.04
563.59	60020.70
563.75	60198.58
563.92	59983.25
564.08	60156.45
564.24	60268.79
564.41	60310.92
564.57	60425.61
564.74	60198.58
564.90	60165.81
565.07	60191.56
565.23	60109.64
565.39	60177.51
565.56	60423.27
565.72	60135.38
565.88	60381.14
566.05	60212.62
566.21	60313.26
566.38	60498.17
566.54	60196.24
566.70	60439.65
566.87	60397.52
567.03	60303.90
567.19	60615.19
567.36	60570.72
567.52	60282.84
567.68	60676.05
567.85	60378.80
568.01	60465.40
568.17	60322.63
568.34	60495.83
568.50	60367.10
568.66	60186.88
568.83	60596.47
568.99	60413.91
569.15	60399.86
569.32	60568.38
569.48	60500.51
569.64	60542.64
569.81	60580.09
569.97	60322.63
570.13	60537.96
570.30	60519.23
570.46	60753.29
570.62	60596.47
570.78	60317.95
570.95	60598.81
571.11	60736.90
571.27	60509.87
571.43	60591.79
571.60	60746.26
571.76	60479.44
571.92	60582.43
572.09	60669.03
572.25	60846.91
572.41	60739.24
572.57	60680.73
572.74	60807.12
572.90	60837.54
573.06	60561.36
573.22	60643.28
573.38	60676.05
573.55	60767.33
573.71	60898.40
573.87	60793.07
574.03	60640.94
574.20	60774.35
574.36	60736.90
574.52	60835.20
574.68	60814.14
574.84	60807.12
575.01	60835.20
575.17	60741.58
575.33	60839.89
575.49	60701.79
575.65	60846.91
575.82	60926.49
575.98	60837.54
576.14	61092.66
576.30	61013.08
576.46	60821.16
576.62	60694.77
576.79	60891.38
576.95	60860.95
577.11	60837.54
577.27	60924.14
577.43	60949.89
577.59	60753.29
577.75	60839.89
577.92	60715.84
578.08	60732.22
578.24	60917.12
578.40	60945.21
578.56	60924.14
578.72	61080.96
578.88	61078.62
579.04	61116.07
579.21	60975.64
579.37	61099.68
579.53	60996.70
579.69	60860.95
579.85	60872.65
580.01	60849.25
580.17	60755.63
580.33	61106.71
580.49	61034.15
580.65	61113.73
580.82	60795.42
580.98	60776.69
581.14	60910.10
581.30	60956.91
581.46	60942.87
581.62	61043.51
581.78	60987.34
581.94	61193.31
582.10	61059.90
582.26	61130.11
582.42	60970.96
582.58	61066.92
582.74	61010.74
582.90	61078.62
583.06	61015.43
583.22	61003.72
583.38	60933.51
583.54	61087.98
583.70	61052.87
583.86	61090.32
584.02	60781.37
584.18	61092.66
584.34	61092.66
584.50	61066.92
584.66	60989.68
584.82	60807.12
584.98	61153.52
585.14	61003.72
585.30	60952.23
585.46	61190.97
585.62	61202.67
585.78	61176.92
585.94	61013.08
586.10	60963.93
586.26	61144.16
586.42	61066.92
586.58	61406.30
586.74	61179.26
586.90	61118.41
587.06	61181.60
587.22	61062.24
587.38	60961.59
587.54	61265.86
587.70	61347.78
587.86	61247.14
588.02	61132.45
588.18	61277.57
588.34	61179.26
588.49	61078.62
