SpectraSuite Data File
++++++++++++++++++++++++++++++++++++
Date: Fri Oct 25 11:26:29 EDT 2013
User: price-jones
Dark Spectrum Present: No
Reference Spectrum Present: No
Number of Sampled Component Spectra: 1
Spectrometers: USB2+H05261
Integration Time (usec): 100000 (USB2+H05261)
Spectra Averaged: 1 (USB2+H05261)
Boxcar Smoothing: 0 (USB2+H05261)
Correct for Electrical Dark: No (USB2+H05261)
Strobe/Lamp Enabled: No (USB2+H05261)
Correct for Detector Non-linearity: No (USB2+H05261)
Correct for Stray Light: No (USB2+H05261)
Number of Pixels in Processed Spectrum: 2048
>>>>>Begin Processed Spectral Data<<<<<
365.73	266.82
365.92	266.82
366.12	266.82
366.32	215.33
366.52	70.22
366.72	170.86
366.91	187.24
367.11	168.52
367.31	142.77
367.51	128.73
367.70	138.09
367.90	163.84
368.10	140.43
368.30	131.07
368.49	147.45
368.69	175.54
368.89	133.41
369.09	110.01
369.28	187.24
369.48	145.11
369.68	142.77
369.87	227.03
370.07	182.56
370.27	257.46
370.47	308.95
370.66	559.39
370.86	585.13
371.06	713.86
371.25	730.25
371.45	636.63
371.65	683.44
371.84	739.61
372.04	737.27
372.24	662.37
372.44	720.88
372.63	795.78
372.83	805.14
373.03	833.23
373.22	727.91
373.42	795.78
373.62	739.61
373.81	798.12
374.01	809.83
374.21	823.87
374.40	833.23
374.60	835.57
374.79	837.91
374.99	901.11
375.19	819.19
375.38	933.87
375.58	873.02
375.78	788.76
375.97	896.43
376.17	917.49
376.37	835.57
376.56	940.90
376.76	917.49
376.95	903.45
377.15	987.71
377.35	856.64
377.54	908.13
377.74	980.68
377.93	786.42
378.13	830.89
378.33	875.36
378.52	917.49
378.72	945.58
378.91	898.77
379.11	985.37
379.31	987.71
379.50	976.00
379.70	994.73
379.89	987.71
380.09	1006.43
380.28	933.87
380.48	959.62
380.68	1022.81
380.87	940.90
381.07	1015.79
381.26	1083.67
381.46	1029.84
381.65	994.73
381.85	999.41
382.04	1046.22
382.24	1118.78
382.43	1132.82
382.63	1102.39
382.83	1022.81
383.02	1128.14
383.22	1116.44
383.41	1160.91
383.61	1146.86
383.80	1086.01
384.00	1174.95
384.19	1121.12
384.39	1057.92
384.58	1020.47
384.78	1188.99
384.97	1139.84
385.17	1245.16
385.36	1076.65
385.56	1179.63
385.75	1102.39
385.95	1177.29
386.14	1252.19
386.34	1188.99
386.53	1200.69
386.72	1228.78
386.92	1235.80
387.11	1299.00
387.31	1242.82
387.50	1212.40
387.70	1266.23
387.89	1261.55
388.09	1268.57
388.28	1196.01
388.48	1350.49
388.67	1280.27
388.86	1369.21
389.06	1338.79
389.25	1357.51
389.45	1291.98
389.64	1359.85
389.84	1387.94
390.03	1380.92
390.22	1432.41
390.42	1423.05
390.61	1371.55
390.81	1423.05
391.00	1331.76
391.19	1385.60
391.39	1441.77
391.58	1434.75
391.78	1542.41
391.97	1495.60
392.16	1504.96
392.36	1563.48
392.55	1425.39
392.75	1537.73
392.94	1462.83
393.13	1549.43
393.33	1479.22
393.52	1528.37
393.71	1605.61
393.91	1596.25
394.10	1547.09
394.29	1643.06
394.49	1636.03
394.68	1675.82
394.88	1668.80
395.07	1652.42
395.26	1624.33
395.46	1610.29
395.65	1699.23
395.84	1706.25
396.04	1839.66
396.23	1774.13
396.42	1703.91
396.62	1732.00
396.81	1699.23
397.00	1804.55
397.19	1736.68
397.39	1774.13
397.58	1842.00
397.77	1799.87
397.97	1907.54
398.16	1785.83
398.35	1921.58
398.55	1755.40
398.74	1870.09
398.93	1968.39
399.12	1973.07
399.32	1923.92
399.51	1877.11
399.70	1987.11
399.90	1881.79
400.09	1912.22
400.28	2127.55
400.47	1968.39
400.67	2085.42
400.86	2157.97
401.05	2036.27
401.24	2211.81
401.44	2176.70
401.63	2073.71
401.82	2169.68
402.01	2190.74
402.21	2183.72
402.40	2193.08
402.59	2211.81
402.78	2235.21
402.97	2214.15
403.17	2272.66
403.36	2349.90
403.55	2317.13
403.74	2352.24
403.93	2377.98
404.13	2307.77
404.32	2373.30
404.51	2359.26
404.70	2504.37
404.89	2389.69
405.09	2487.99
405.28	2464.58
405.47	2513.74
405.66	2572.25
405.85	2530.12
406.05	2480.97
406.24	2665.87
406.43	2513.74
406.62	2509.05
406.81	2621.40
407.00	2562.89
407.20	2509.05
407.39	2565.23
407.58	2808.64
407.77	2738.43
407.96	2801.62
408.15	2719.70
408.34	2822.69
408.54	2705.66
408.73	2623.74
408.92	2768.85
409.11	2729.06
409.30	2792.26
409.49	2885.88
409.68	2977.16
409.87	2839.07
410.07	3021.63
410.26	3023.97
410.45	3042.70
410.64	3084.83
410.83	2930.35
411.02	3094.19
411.21	3087.17
411.40	3119.93
411.59	3197.17
411.78	3148.02
411.98	3248.66
412.17	3260.37
412.36	3318.88
412.55	3382.07
412.74	3508.46
412.93	3323.56
413.12	3424.20
413.31	3389.10
413.50	3459.31
413.69	3442.93
413.88	3557.61
414.07	3662.94
414.26	3653.58
414.45	3674.64
414.64	3686.34
414.83	3730.81
415.02	3761.24
415.22	3826.78
415.41	3831.46
415.60	3740.18
415.79	3932.10
415.98	3995.29
416.17	3955.51
416.36	3936.78
416.55	3948.48
416.74	4100.62
416.93	4016.36
417.12	4117.00
417.31	4098.28
417.50	4194.24
417.69	4271.48
417.88	4252.75
418.07	4334.67
418.26	4299.56
418.45	4470.42
418.64	4386.16
418.83	4542.98
419.02	4421.27
419.21	4498.51
419.39	4456.38
419.58	4292.54
419.77	4435.32
419.96	4498.51
420.15	4674.05
420.34	4645.96
420.53	4554.68
420.72	4702.14
420.91	4709.16
421.10	4744.27
421.29	4774.69
421.48	4681.07
421.67	4854.27
421.86	4732.56
422.05	4856.61
422.24	4844.91
422.43	4823.84
422.61	4830.87
422.80	4873.00
422.99	5013.43
423.18	5085.98
423.37	5034.49
423.56	4891.72
423.75	4983.00
423.94	4695.11
424.13	4725.54
424.32	4765.33
424.50	4908.10
424.69	5132.79
424.88	5015.77
425.07	4926.83
425.26	4870.65
425.45	4931.51
425.64	5004.07
425.83	5109.39
426.01	5121.09
426.20	4933.85
426.39	5001.72
426.58	5032.15
426.77	5125.77
426.96	5071.94
427.15	4945.55
427.33	5174.92
427.52	5160.88
427.71	5212.37
427.90	5144.50
428.09	5247.48
428.28	5434.72
428.46	5270.89
428.65	5483.88
428.84	5479.19
429.03	5427.70
429.22	5303.65
429.40	5338.76
429.59	5469.83
429.78	5310.68
429.97	5263.86
430.16	5479.19
430.34	5598.56
430.53	5680.48
430.72	5600.90
430.91	5806.87
431.10	5701.54
431.28	5727.29
431.47	5621.97
431.66	5678.14
431.85	5776.44
432.03	6071.35
432.22	6122.84
432.41	6001.13
432.60	5717.93
432.79	6045.60
432.97	5834.96
433.16	5935.60
433.35	6017.52
433.54	5923.90
433.72	6057.31
433.91	5973.05
434.10	6155.61
434.28	5951.98
434.47	6150.93
434.66	6155.61
434.85	6401.37
435.03	6235.19
435.22	6333.49
435.41	6436.47
435.59	6129.86
435.78	6410.73
435.97	6413.07
436.16	6340.51
436.34	6490.31
436.53	6342.85
436.72	6647.12
436.90	6469.24
437.09	6509.03
437.28	6356.90
437.46	6593.29
437.65	6614.35
437.84	6754.79
438.02	6668.19
438.21	6771.17
438.40	6663.51
438.58	6892.88
438.77	6836.70
438.96	7019.27
439.14	7131.61
439.33	7098.84
439.52	7155.02
439.70	7236.94
439.89	7232.26
440.08	7208.85
440.26	7358.64
440.45	7541.21
440.63	7412.48
440.82	7798.66
441.01	7461.63
441.19	7412.48
441.38	7461.63
441.57	7632.49
441.75	7700.36
441.94	7838.45
442.12	7960.16
442.31	7885.26
442.50	8264.43
442.68	7978.89
442.87	7997.61
443.05	7878.24
443.24	8262.09
443.43	8049.10
443.61	8201.24
443.80	8365.07
443.98	7927.39
444.17	7793.98
444.35	8182.51
444.54	8175.49
444.73	8351.03
444.91	8273.79
445.10	8390.82
445.28	8194.22
445.47	8315.92
445.65	8484.44
445.84	8397.84
446.02	8446.99
446.21	8222.30
446.39	8369.76
446.58	8458.70
446.77	8552.32
446.95	8210.60
447.14	8489.12
447.32	8538.27
447.51	8533.59
447.69	8549.98
447.88	8435.29
448.06	8542.96
448.25	8411.89
448.43	8608.49
448.62	8493.80
448.80	8667.00
448.99	8505.51
449.17	8699.77
449.36	8697.43
449.54	8690.41
449.73	8966.59
449.91	8887.01
450.10	8898.72
450.28	9076.60
450.46	8912.76
450.65	8879.99
450.83	9170.22
451.02	8940.85
451.20	9102.34
451.39	9247.46
451.57	9249.80
451.76	9158.52
451.94	9146.81
452.13	9458.10
452.31	9139.79
452.49	9179.58
452.68	9240.44
452.86	9322.35
453.05	9530.66
453.23	9446.40
453.42	9298.95
453.60	9437.04
453.78	9647.69
453.97	9329.38
454.15	9561.09
454.34	9397.25
454.52	9703.86
454.70	9645.35
454.89	9708.54
455.07	9568.11
455.26	9797.48
455.44	9975.36
455.62	9540.02
455.81	9888.76
455.99	9764.72
456.17	10026.86
456.36	9998.77
456.54	10225.80
456.73	10113.45
456.91	10368.57
457.09	10427.09
457.28	10590.92
457.46	10277.29
457.64	10331.12
457.83	10347.51
458.01	10317.08
458.19	10686.89
458.38	10497.30
458.56	10614.33
458.74	10736.04
458.93	10665.82
459.11	10651.78
459.29	10743.06
459.48	10815.62
459.66	10759.44
459.84	10775.83
460.03	11143.29
460.21	10874.13
460.39	10871.79
460.57	10822.64
460.76	10824.98
460.94	10986.47
461.12	11000.52
461.31	10895.19
461.49	10998.18
461.67	11192.44
461.85	11393.73
462.04	11049.67
462.22	11910.99
462.40	11524.80
462.59	11541.18
462.77	11190.10
462.95	11735.45
463.13	11367.98
463.32	11583.31
463.50	11616.08
463.68	11686.29
463.86	11690.98
464.05	11700.34
464.23	11517.78
464.41	11899.28
464.59	11679.27
464.78	12177.81
464.96	11749.49
465.14	11667.57
465.32	12028.01
465.50	12128.66
465.69	12241.00
465.87	12273.77
466.05	12168.45
466.23	12189.51
466.41	12222.28
466.60	12346.33
466.78	12180.15
466.96	12079.50
467.14	12287.81
467.32	12306.54
467.51	12446.97
467.69	11997.59
467.87	12297.17
468.05	12552.29
468.23	12435.27
468.41	12402.50
468.60	12734.85
468.78	12767.62
468.96	12451.65
469.14	12999.34
469.32	12912.74
469.50	12519.53
469.69	13039.12
469.87	13083.59
470.05	12889.33
470.23	13034.44
470.41	13282.54
470.59	13174.88
470.77	13085.94
470.95	13209.98
471.14	13394.89
471.32	13298.92
471.50	13500.21
471.68	13565.74
471.86	13530.64
472.04	13729.58
472.22	14019.81
472.40	13558.72
472.58	13612.56
472.77	14075.98
472.95	13909.80
473.13	14516.00
473.31	14033.85
473.49	13951.93
473.67	13893.42
473.85	14326.42
474.03	14387.27
474.21	14654.09
474.39	14487.92
474.57	14609.62
474.75	14560.47
474.93	14904.53
475.12	14871.76
475.30	15309.44
475.48	14843.68
475.66	14951.34
475.84	15126.88
476.02	15122.20
476.20	15440.51
476.38	15644.14
476.56	15999.90
476.74	15686.27
476.92	15873.51
477.10	15789.25
477.28	16156.72
477.46	15960.11
477.64	16159.06
477.82	16308.85
478.00	16673.98
478.18	16702.06
478.36	16542.91
478.54	16940.80
478.72	17130.38
478.90	17497.84
479.08	17397.20
479.26	17549.34
479.44	17621.89
479.62	17703.81
479.80	18218.73
479.98	18225.75
480.16	18427.04
480.34	18099.36
480.52	18373.21
480.70	18530.02
480.88	18363.84
481.06	18754.71
481.24	18899.83
481.41	18874.08
481.59	19220.48
481.77	19381.98
481.95	19499.00
482.13	19674.54
482.31	19503.68
482.49	20285.42
482.67	20336.91
482.85	20247.97
483.03	20496.07
483.21	20549.90
483.39	20957.16
483.57	20753.53
483.74	20917.37
483.92	21252.06
484.10	21156.10
484.28	21649.96
484.46	21778.68
484.64	22092.32
484.82	21546.97
485.00	22256.15
485.18	22705.54
485.35	22890.44
485.53	22527.66
485.71	22829.59
485.89	23459.19
486.07	23075.34
486.25	23054.28
486.43	23681.54
486.61	23709.63
486.78	23939.00
486.96	24142.63
487.14	24430.51
487.32	24313.48
487.50	24470.30
487.68	24833.08
487.85	24987.56
488.03	25123.31
488.21	25804.41
488.39	25685.04
488.57	25834.83
488.75	26064.21
488.92	26120.38
489.10	26735.94
489.28	26579.12
489.46	26850.63
489.64	26859.99
489.81	27168.94
489.99	27538.74
490.17	27941.32
490.35	27967.06
490.53	28046.64
490.70	28170.69
490.88	28130.90
491.06	28823.70
491.24	28748.80
491.41	28762.84
491.59	28776.89
491.77	29427.56
491.95	29467.34
492.13	29699.06
492.30	29436.92
492.48	30125.04
492.66	30298.23
492.84	30225.68
493.01	30602.50
493.19	30478.46
493.37	30773.36
493.54	30548.67
493.72	31061.25
493.90	31475.52
494.08	31456.80
494.25	31737.66
494.43	31761.07
494.61	32339.18
494.79	32177.68
494.96	32385.99
495.14	32753.46
495.32	32699.62
495.49	32914.95
495.67	33308.16
495.85	33226.24
496.02	33673.29
496.20	33792.65
496.38	33776.27
496.55	34148.42
496.73	34595.46
496.91	34314.59
497.09	34342.68
497.26	34539.29
497.44	34763.98
497.62	34801.43
497.79	35498.91
497.97	35445.07
498.14	35962.33
498.32	36058.29
498.50	36268.94
498.67	36598.96
498.85	36292.35
499.03	36730.03
499.20	36802.58
499.38	36467.89
499.56	36975.78
499.73	36996.85
499.91	37153.66
500.08	37462.61
500.26	37233.24
500.44	38045.41
500.61	37481.34
500.79	37483.68
500.97	37986.89
501.14	38363.72
501.32	38513.52
501.49	38204.56
501.67	38096.90
501.84	38682.03
502.02	38782.68
502.20	38911.41
502.37	38775.66
502.55	38775.66
502.72	39487.18
502.90	39372.49
503.07	39306.96
503.25	39533.99
503.43	39468.45
503.60	39899.11
503.78	39768.04
503.95	40121.46
504.13	40275.94
504.30	40261.90
504.48	40098.06
504.65	40465.52
504.83	41020.23
505.01	40512.33
505.18	40891.50
505.36	41404.08
505.53	41045.97
505.71	41331.52
505.88	41399.40
506.06	41216.83
506.23	41724.73
506.41	41338.54
506.58	41811.33
506.76	41825.37
506.93	42359.02
507.11	42036.02
507.28	42513.49
507.46	42258.37
507.63	42443.27
507.81	43187.56
507.98	42710.10
508.16	43360.76
508.33	43248.42
508.50	43531.62
508.68	43510.56
508.85	43711.84
509.03	43473.11
509.20	43658.01
509.38	44547.42
509.55	44257.19
509.73	44392.94
509.90	44612.95
510.08	44423.37
510.25	44409.32
510.42	44189.31
510.60	44596.57
510.77	44729.98
510.95	45193.40
511.12	45024.89
511.30	45345.54
511.47	45247.24
511.64	45406.39
511.82	45603.00
511.99	45879.18
512.17	45415.76
512.34	45701.30
512.51	46010.25
512.69	46232.60
512.86	46160.05
513.04	46698.37
513.21	46555.60
513.38	46941.78
513.56	46473.68
513.73	46651.56
513.90	46850.50
514.08	46787.31
514.25	47189.88
514.43	47239.03
514.60	47339.68
514.77	46939.44
514.95	47299.89
515.12	47000.30
515.29	47002.64
515.47	48034.81
515.64	48011.41
515.81	47580.75
515.99	47950.56
516.16	48109.71
516.33	48406.96
516.51	48437.39
516.68	48268.87
516.85	48474.84
517.03	48830.60
517.20	48694.85
517.37	48711.23
517.54	48535.69
517.72	48540.37
517.89	49085.72
518.06	48945.28
518.24	49003.80
518.41	49158.27
518.58	48889.11
518.75	49141.89
518.93	49198.06
519.10	49701.28
519.27	49411.05
519.45	49429.77
519.62	50040.65
519.79	49834.69
519.96	49509.35
520.14	50078.10
520.31	49617.02
520.48	50047.68
520.65	50012.57
520.83	50225.56
521.00	50281.73
521.17	50426.84
521.34	50396.42
521.52	50445.57
521.69	50630.47
521.86	50782.60
522.03	50913.67
522.20	51159.43
522.38	51447.32
522.55	51147.73
522.72	50976.87
522.89	50988.57
523.07	51587.75
523.24	51426.25
523.41	51695.41
523.58	50986.23
523.75	51648.60
523.92	51463.70
524.10	51882.66
524.27	51793.71
524.44	51896.70
524.61	51976.28
524.78	52116.71
524.96	51892.02
525.13	52126.07
525.30	52046.49
525.47	52458.43
525.64	52364.81
525.81	52252.46
525.98	52573.11
526.16	52530.98
526.33	52563.75
526.50	52528.64
526.67	52715.89
526.84	52870.36
527.01	52725.25
527.18	52743.97
527.36	52844.62
527.53	52882.06
527.70	53286.98
527.87	53109.10
528.04	53029.52
528.21	52987.39
528.38	53179.31
528.55	53174.63
528.72	53090.37
528.89	53207.40
529.07	53214.42
529.24	53205.06
529.41	53656.78
529.58	53464.86
529.75	53411.02
529.92	53647.42
530.09	53488.26
530.26	53893.18
530.43	53579.54
530.60	53525.71
530.77	53595.93
530.94	54152.97
531.11	53799.55
531.28	54113.19
531.46	54314.47
531.63	54003.18
531.80	54316.81
531.97	54049.99
532.14	54267.66
532.31	54122.55
532.48	54234.89
532.65	54513.42
532.82	54492.35
532.99	54597.68
533.16	54698.32
533.33	54609.38
533.50	54831.73
533.67	54810.67
533.84	54564.91
534.01	54759.17
534.18	54813.01
534.35	55077.49
534.52	54700.66
534.69	55194.51
534.86	54993.23
535.03	54756.83
535.20	55250.69
535.37	55133.66
535.54	55215.58
535.71	55103.23
535.88	54983.86
536.05	55164.09
536.22	55405.16
536.38	55454.31
536.55	55412.18
536.72	55458.99
536.89	55489.42
537.06	55503.46
537.23	55552.62
537.40	55187.49
537.57	55590.06
537.74	55444.95
537.91	55709.43
538.08	55634.53
538.25	55491.76
538.42	55725.81
538.59	55887.31
538.75	55688.37
538.92	56147.11
539.09	56048.81
539.26	55884.97
539.43	55992.64
539.60	56191.58
539.77	56140.09
539.94	56250.09
540.11	56076.90
540.28	56086.26
540.44	56268.82
540.61	56332.01
540.78	56210.31
540.95	56310.95
541.12	56383.51
541.29	56310.95
541.46	56463.08
541.62	56460.74
541.79	56458.40
541.96	56350.74
542.13	56465.42
542.30	56706.50
542.47	57038.86
542.63	56720.54
542.80	56839.91
542.97	56870.34
543.14	57073.96
543.31	57130.14
543.48	57006.09
543.64	57216.74
543.81	57333.76
543.98	57230.78
544.15	57237.80
544.32	57518.67
544.48	57518.67
544.65	57357.17
544.82	57277.59
544.99	57183.97
545.16	57375.89
545.32	57090.35
545.49	57471.85
545.66	57694.21
545.83	57605.26
546.00	57631.01
546.16	57558.45
546.33	57317.38
546.50	57242.48
546.67	57588.88
546.83	57368.87
547.00	57609.95
547.17	57682.50
547.34	57731.65
547.50	57724.63
547.67	57935.28
547.84	57649.74
548.00	57832.30
548.17	58078.05
548.34	57984.43
548.51	58078.05
548.67	57989.11
548.84	57932.94
549.01	57900.17
549.18	58007.84
549.34	58239.55
549.51	58085.07
549.68	58274.66
549.84	58286.36
550.01	58277.00
550.18	58272.32
550.34	58157.63
550.51	58122.52
550.68	58326.15
550.84	58007.84
551.01	58295.72
551.18	58375.30
551.34	58244.23
551.51	58468.92
551.68	58513.39
551.84	58468.92
552.01	58471.26
552.18	58398.71
552.34	58211.46
552.51	58475.94
552.68	58408.07
552.84	58405.73
553.01	58618.72
553.18	58492.33
553.34	58815.32
553.51	58576.59
553.67	58438.50
553.84	58719.36
554.01	58794.26
554.17	58915.96
554.34	58873.84
554.51	58794.26
554.67	58969.80
554.84	59072.78
555.00	58892.56
555.17	58803.62
555.33	59007.25
555.50	58866.81
555.67	59002.56
555.83	58834.05
556.00	59002.56
556.16	59154.70
556.33	59121.93
556.50	58997.88
556.66	59313.86
556.83	59082.14
556.99	59358.33
557.16	59409.82
557.32	59388.75
557.49	59400.46
557.65	59131.29
557.82	59484.72
557.98	59199.17
558.15	59187.47
558.32	59292.79
558.48	59035.33
558.65	59171.08
558.81	59414.50
558.98	59444.93
559.14	59590.04
559.31	59526.84
559.47	59601.74
559.64	59505.78
559.80	59590.04
559.97	59742.17
560.13	59554.93
560.30	59526.84
560.46	59660.26
560.63	59538.55
560.79	59695.36
560.96	59657.91
561.12	59704.73
561.29	59655.57
561.45	59873.24
561.61	59709.41
561.78	59704.73
561.94	59735.15
562.11	59791.33
562.27	59737.49
562.44	59796.01
562.60	59805.37
562.77	59796.01
562.93	59798.35
563.10	60086.23
563.26	59629.83
563.42	60198.58
563.59	60037.08
563.75	59704.73
563.92	59922.40
564.08	59767.92
564.24	60053.47
564.41	60032.40
564.57	60102.62
564.74	59870.90
564.90	60095.60
565.07	59938.78
565.23	59973.89
565.39	59962.18
565.56	60074.53
565.72	59990.27
565.88	60046.44
566.05	60119.00
566.21	60023.04
566.38	60154.11
566.54	60259.43
566.70	60327.31
566.87	60137.72
567.03	60191.56
567.19	60441.99
567.36	60111.98
567.52	60219.64
567.68	60409.23
567.85	60310.92
568.01	60280.50
568.17	60271.14
568.34	60467.74
568.50	60243.05
568.66	60135.38
568.83	60322.63
568.99	60046.44
569.15	60369.44
569.32	59987.93
569.48	60343.69
569.64	60399.86
569.81	60381.14
569.97	60282.84
570.13	60331.99
570.30	60261.77
570.46	60336.67
570.62	60107.30
570.78	60182.19
570.95	60505.19
571.11	60544.98
571.27	60210.28
571.43	60446.68
571.60	60420.93
571.76	60502.85
571.92	60629.24
572.09	60434.97
572.25	60526.25
572.41	60271.14
572.57	60353.05
572.74	60619.88
572.90	60542.64
573.06	60584.77
573.22	60453.70
573.38	60556.68
573.55	60678.39
573.71	60678.39
573.87	60505.19
574.03	60420.93
574.20	60453.70
574.36	60453.70
574.52	60603.49
574.68	60563.70
574.84	60666.69
575.01	60821.16
575.17	60601.15
575.33	60392.84
575.49	60680.73
575.65	60739.24
575.82	60821.16
575.98	60556.68
576.14	60725.20
576.30	60713.50
576.46	60690.09
576.62	60610.51
576.79	60467.74
576.95	60416.25
577.11	60720.52
577.27	60746.26
577.43	60739.24
577.59	60626.90
577.75	60612.85
577.92	60514.55
578.08	60608.17
578.24	60828.18
578.40	60722.86
578.56	60786.05
578.72	60788.39
578.88	60835.20
579.04	60914.78
579.21	60502.85
579.37	60968.61
579.53	60802.44
579.69	60552.00
579.85	60514.55
580.01	60762.65
580.17	60570.72
580.33	60683.07
580.49	60870.31
580.65	60919.46
580.82	60650.30
580.98	60605.83
581.14	60591.79
581.30	60872.65
581.46	60603.49
581.62	60842.23
581.78	60816.48
581.94	60645.62
582.10	60636.26
582.26	60750.94
582.42	60694.77
582.58	60884.36
582.74	60804.78
582.90	60739.24
583.06	60781.37
583.22	60764.99
583.38	60701.79
583.54	60783.71
583.70	60867.97
583.86	60926.49
584.02	60821.16
584.18	60846.91
584.34	60622.22
584.50	60856.27
584.66	60757.97
584.82	60697.11
584.98	60954.57
585.14	61151.18
585.30	60584.77
585.46	60860.95
585.62	60900.74
585.78	60779.03
585.94	60842.23
586.10	61027.13
586.26	60945.21
586.42	60846.91
586.58	61186.28
586.74	60722.86
586.90	60849.25
587.06	60870.31
587.22	60989.68
587.38	60804.78
587.54	60992.02
587.70	61179.26
587.86	61104.37
588.02	60987.34
588.18	61008.40
588.34	60760.31
588.49	60865.63
