SpectraSuite Data File
++++++++++++++++++++++++++++++++++++
Date: Fri Oct 25 11:22:54 EDT 2013
User: price-jones
Dark Spectrum Present: No
Reference Spectrum Present: No
Number of Sampled Component Spectra: 1
Spectrometers: USB2+H05261
Integration Time (usec): 100000 (USB2+H05261)
Spectra Averaged: 1 (USB2+H05261)
Boxcar Smoothing: 0 (USB2+H05261)
Correct for Electrical Dark: No (USB2+H05261)
Strobe/Lamp Enabled: No (USB2+H05261)
Correct for Detector Non-linearity: No (USB2+H05261)
Correct for Stray Light: No (USB2+H05261)
Number of Pixels in Processed Spectrum: 2048
>>>>>Begin Processed Spectral Data<<<<<
365.73	212.99
365.92	212.99
366.12	212.99
366.32	262.14
366.52	74.90
366.72	154.48
366.91	138.09
367.11	72.56
367.31	70.22
367.51	81.92
367.70	121.71
367.90	161.50
368.10	156.82
368.30	156.82
368.49	159.16
368.69	152.13
368.89	93.62
369.09	131.07
369.28	173.20
369.48	124.05
369.68	198.95
369.87	215.33
370.07	140.43
370.27	252.78
370.47	339.38
370.66	592.16
370.86	538.32
371.06	636.63
371.25	624.92
371.45	613.22
371.65	657.69
371.84	571.09
372.04	681.10
372.24	688.12
372.44	660.03
372.63	692.80
372.83	706.84
373.03	713.86
373.22	758.33
373.42	697.48
373.62	795.78
373.81	732.59
374.01	849.61
374.21	786.42
374.40	807.48
374.60	854.30
374.79	744.29
374.99	830.89
375.19	809.83
375.38	875.36
375.58	842.59
375.78	866.00
375.97	858.98
376.17	833.23
376.37	840.25
376.56	875.36
376.76	816.85
376.95	723.23
377.15	917.49
377.35	807.48
377.54	884.72
377.74	903.45
377.93	896.43
378.13	847.27
378.33	940.90
378.52	1006.43
378.72	1015.79
378.91	901.11
379.11	943.24
379.31	954.94
379.50	966.64
379.70	961.96
379.89	1062.60
380.09	933.87
380.28	1011.11
380.48	889.40
380.68	1055.58
380.87	1041.54
381.07	966.64
381.26	1039.20
381.46	1071.97
381.65	1022.81
381.85	947.92
382.04	1004.09
382.24	1036.86
382.43	1055.58
382.63	1057.92
382.83	1020.47
383.02	1071.97
383.22	1095.37
383.41	1057.92
383.61	1086.01
383.80	1184.31
384.00	1114.10
384.19	1074.31
384.39	1097.71
384.58	1128.14
384.78	1078.99
384.97	1123.46
385.17	1128.14
385.36	1165.59
385.56	1139.84
385.75	1048.56
385.95	1151.54
386.14	1254.53
386.34	1212.40
386.53	1151.54
386.72	1233.46
386.92	1322.40
387.11	1301.34
387.31	1348.15
387.50	1238.14
387.70	1327.08
387.89	1247.51
388.09	1207.72
388.28	1306.02
388.48	1296.66
388.67	1299.00
388.86	1301.34
389.06	1289.64
389.25	1343.47
389.45	1327.08
389.64	1350.49
389.84	1345.81
390.03	1376.24
390.22	1366.87
390.42	1336.45
390.61	1425.39
390.81	1420.71
391.00	1406.66
391.19	1427.73
391.39	1383.26
391.58	1519.01
391.78	1387.94
391.97	1476.88
392.16	1516.67
392.36	1514.33
392.55	1488.58
392.75	1530.71
392.94	1483.90
393.13	1434.75
393.33	1542.41
393.52	1603.27
393.71	1577.52
393.91	1607.95
394.10	1619.65
394.29	1511.99
394.49	1586.88
394.68	1671.14
394.88	1666.46
395.07	1727.32
395.26	1659.44
395.46	1652.42
395.65	1643.06
395.84	1689.87
396.04	1788.17
396.23	1717.95
396.42	1694.55
396.62	1741.36
396.81	1724.97
397.00	1849.02
397.19	1783.49
397.39	1657.10
397.58	1802.21
397.77	1818.60
397.97	2017.54
398.16	1802.21
398.35	1961.37
398.55	1799.87
398.74	1926.26
398.93	2047.97
399.12	1975.41
399.32	1881.79
399.51	1919.24
399.70	1994.14
399.90	1881.79
400.09	2017.54
400.28	2050.31
400.47	2005.84
400.67	2019.88
400.86	2139.25
401.05	2097.12
401.24	1996.48
401.44	2069.03
401.63	2085.42
401.82	2169.68
402.01	2080.74
402.21	2153.29
402.40	2246.91
402.59	2174.36
402.78	2342.88
402.97	2214.15
403.17	2340.54
403.36	2200.10
403.55	2296.07
403.74	2345.22
403.93	2363.94
404.13	2373.30
404.32	2389.69
404.51	2237.55
404.70	2495.01
404.89	2513.74
405.09	2537.14
405.28	2513.74
405.47	2363.94
405.66	2609.70
405.85	2595.65
406.05	2600.34
406.24	2506.71
406.43	2579.27
406.62	2719.70
406.81	2628.42
407.00	2527.78
407.20	2658.85
407.39	2644.81
407.58	2738.43
407.77	2717.36
407.96	2792.26
408.15	2813.32
408.34	2836.73
408.54	2757.15
408.73	2773.53
408.92	2752.47
409.11	2857.79
409.30	2993.55
409.49	2984.18
409.68	2909.29
409.87	2935.03
410.07	2981.84
410.26	3103.55
410.45	2972.48
410.64	3089.51
410.83	3213.56
411.02	3108.23
411.21	3239.30
411.40	3131.64
411.59	3119.93
411.78	3208.87
411.98	3131.64
412.17	3232.28
412.36	3346.97
412.55	3316.54
412.74	3466.33
412.93	3372.71
413.12	3351.65
413.31	3524.85
413.50	3410.16
413.69	3578.68
413.88	3585.70
414.07	3730.81
414.26	3552.93
414.45	3569.32
414.64	3695.71
414.83	3803.37
415.02	3845.50
415.22	3810.39
415.41	3819.75
415.60	3854.86
415.79	3948.48
415.98	4046.79
416.17	3978.91
416.36	3920.40
416.55	4004.66
416.74	4051.47
416.93	4091.26
417.12	4018.70
417.31	4177.86
417.50	4229.35
417.69	4348.72
417.88	4311.27
418.07	4362.76
418.26	4393.19
418.45	4334.67
418.64	4550.00
418.83	4456.38
419.02	4552.34
419.21	4559.36
419.39	4589.79
419.58	4660.01
419.77	4512.55
419.96	4645.96
420.15	4683.41
420.34	4606.17
420.53	4582.77
420.72	4660.01
420.91	4685.75
421.10	4727.88
421.29	4816.82
421.48	4809.80
421.67	4816.82
421.86	4760.65
422.05	4861.29
422.24	4777.03
422.43	4793.42
422.61	4952.57
422.80	5186.63
422.99	5004.07
423.18	5078.96
423.37	5081.30
423.56	5004.07
423.75	4990.02
423.94	4896.40
424.13	4688.09
424.32	4812.14
424.50	4929.17
424.69	5011.09
424.88	5046.20
425.07	5039.17
425.26	5064.92
425.45	5022.79
425.64	4929.17
425.83	4950.23
426.01	5139.82
426.20	5226.42
426.39	5018.11
426.58	5078.96
426.77	5184.29
426.96	5104.71
427.15	5193.65
427.33	5266.21
427.52	5172.58
427.71	5181.95
427.90	5298.97
428.09	5537.71
428.28	5266.21
428.46	5439.40
428.65	5207.69
428.84	5547.07
429.03	5628.99
429.22	5392.59
429.40	5540.05
429.59	5533.03
429.78	5301.31
429.97	5327.06
430.16	5479.19
430.34	5607.92
430.53	5757.72
430.72	5575.16
430.91	5692.18
431.10	5621.97
431.28	5708.57
431.47	5820.91
431.66	6017.52
431.85	5954.32
432.03	6108.80
432.22	5987.09
432.41	5891.13
432.60	5994.11
432.79	6064.33
432.97	5867.72
433.16	6029.22
433.35	6071.35
433.54	6106.46
433.72	5991.77
433.91	6069.01
434.10	6132.20
434.28	6071.35
434.47	6169.65
434.66	6429.45
434.85	6319.45
435.03	6303.06
435.22	6270.30
435.41	6682.23
435.59	6408.39
435.78	6581.59
435.97	6497.33
436.16	6595.63
436.34	6497.33
436.53	6700.95
436.72	6663.51
436.90	6485.62
437.09	6644.78
437.28	6401.37
437.46	6663.51
437.65	6705.63
437.84	6736.06
438.02	6834.36
438.21	6932.67
438.40	6675.21
438.58	6876.49
438.77	7054.37
438.96	7091.82
439.14	7138.63
439.33	7300.13
439.52	7360.98
439.70	7332.90
439.89	7281.41
440.08	7480.35
440.26	7386.73
440.45	7405.46
440.63	7492.05
440.82	7569.29
441.01	7693.34
441.19	7639.51
441.38	7676.96
441.57	7801.01
441.75	7946.12
441.94	8021.02
442.12	7971.86
442.31	8177.83
442.50	8170.81
442.68	8002.29
442.87	8180.17
443.05	8182.51
443.24	8248.05
443.43	8315.92
443.61	8177.83
443.80	8468.06
443.98	8074.85
444.17	7728.45
444.35	8299.54
444.54	8439.97
444.73	8475.08
444.91	8358.05
445.10	8484.44
445.28	8278.47
445.47	8503.17
445.65	8421.25
445.84	8575.72
446.02	8540.61
446.21	8435.29
446.39	8510.19
446.58	8454.02
446.77	8404.86
446.95	8262.09
447.14	8327.63
447.32	8620.19
447.51	8521.89
447.69	8491.46
447.88	8809.78
448.06	8489.12
448.25	8669.34
448.43	8774.67
448.62	8812.12
448.80	8683.39
448.99	8622.53
449.17	8800.41
449.36	8699.77
449.54	8917.44
449.73	8971.27
449.91	9013.40
450.10	9242.78
450.28	9263.84
450.46	9041.49
450.65	9245.12
450.83	9121.07
451.02	9210.01
451.20	9355.12
451.39	9013.40
451.57	9174.90
451.76	9245.12
451.94	9324.69
452.13	9186.60
452.31	9460.45
452.49	9205.33
452.68	9568.11
452.86	9369.16
453.05	9544.70
453.23	9652.37
453.42	9528.32
453.60	9495.55
453.78	9635.99
453.97	9500.23
454.15	9521.30
454.34	9479.17
454.52	9879.40
454.70	9788.12
454.89	9699.18
455.07	9753.01
455.26	9933.23
455.44	10031.54
455.62	9893.44
455.81	10129.84
455.99	10052.60
456.17	10216.44
456.36	10073.67
456.54	10286.65
456.73	10258.57
456.91	10499.64
457.09	10424.75
457.28	10855.40
457.46	10417.72
457.64	10448.15
457.83	10574.54
458.01	10497.30
458.19	10700.93
458.38	10602.63
458.56	10672.84
458.74	10527.73
458.93	10525.39
459.11	10789.87
459.29	10946.69
459.48	10806.25
459.66	10850.72
459.84	10862.43
460.03	11166.70
460.21	11178.40
460.39	11162.01
460.57	11084.78
460.76	11028.60
460.94	11367.98
461.12	11122.23
461.31	11339.90
461.49	11314.15
461.67	11339.90
461.85	11550.54
462.04	11377.34
462.22	11988.22
462.40	11592.67
462.59	11798.64
462.77	11843.11
462.95	11587.99
463.13	11667.57
463.32	11763.53
463.50	11709.70
463.68	11941.41
463.86	12044.40
464.05	11800.98
464.23	11489.69
464.41	12121.63
464.59	11838.43
464.78	12102.91
464.96	11962.48
465.14	11918.01
465.32	11871.20
465.50	12241.00
465.69	12121.63
465.87	11903.96
466.05	12241.00
466.23	12156.74
466.41	12477.40
466.60	12437.61
466.78	12072.48
466.96	12189.51
467.14	12477.40
467.32	12439.95
467.51	12652.94
467.69	12241.00
467.87	12500.80
468.05	12746.56
468.23	12486.76
468.41	12397.82
468.60	12624.85
468.78	12919.76
468.96	12678.68
469.14	12751.24
469.32	13092.96
469.50	12767.62
469.69	13128.06
469.87	13020.40
470.05	13193.60
470.23	13139.77
470.41	13212.32
470.59	13319.99
470.77	13158.49
470.95	13453.40
471.14	13692.13
471.32	13348.08
471.50	13563.40
471.68	13757.67
471.86	13760.01
472.04	13668.73
472.22	14190.67
472.40	13692.13
472.58	13942.57
472.77	14017.47
472.95	14436.42
473.13	14677.50
473.31	14239.82
473.49	14178.97
473.67	14253.86
473.85	14326.42
474.03	14675.16
474.21	14792.19
474.39	14705.59
474.57	14871.76
474.75	14787.50
474.93	15138.58
475.12	15171.35
475.30	15349.23
475.48	15218.16
475.66	15304.76
475.84	15323.49
476.02	15339.87
476.20	15552.86
476.38	15602.01
476.56	16119.27
476.74	16084.16
476.92	15639.46
477.10	15941.39
477.28	16257.36
477.46	16222.25
477.64	16594.40
477.82	16561.63
478.00	16952.50
478.18	16994.63
478.36	17088.25
478.54	17137.40
478.72	17289.54
478.90	17497.84
479.08	17453.37
479.26	17774.03
479.44	17748.28
479.62	18015.10
479.80	18279.58
479.98	18394.27
480.16	18831.95
480.34	18883.44
480.52	18576.83
480.70	18988.77
480.88	18511.30
481.06	19136.22
481.24	19047.28
481.41	19431.13
481.59	19623.05
481.77	19676.88
481.95	19824.34
482.13	19920.30
482.31	19814.98
482.49	20505.43
482.67	20266.70
482.85	20650.55
483.03	20919.71
483.21	20924.39
483.39	21172.49
483.57	20828.43
483.74	21146.74
483.92	21593.78
484.10	21518.89
484.28	21848.90
484.46	22216.36
484.64	22576.81
484.82	22237.43
485.00	22462.12
485.18	22661.07
485.35	23253.22
485.53	23248.54
485.71	23138.54
485.89	23690.90
486.07	23651.11
486.25	23854.74
486.43	23754.10
486.61	24102.84
486.78	24437.53
486.96	24362.64
487.14	24786.27
487.32	24694.99
487.50	24657.54
487.68	25294.17
487.85	25731.85
488.03	25865.26
488.21	25930.80
488.39	25977.61
488.57	26347.41
488.75	26370.82
488.92	26618.91
489.10	27051.91
489.28	27182.98
489.46	27019.14
489.64	27566.83
489.81	27920.25
489.99	27971.74
490.17	27819.61
490.35	28306.44
490.53	28276.01
490.70	28582.62
490.88	28252.61
491.06	28734.76
491.24	29198.18
491.41	29504.79
491.59	29326.91
491.77	29560.97
491.95	29488.41
492.13	30235.04
492.30	29975.24
492.48	30618.89
492.66	30122.69
492.84	30422.28
493.01	30588.46
493.19	30579.10
493.37	31115.08
493.54	31695.53
493.72	31433.39
493.90	31789.16
494.08	31819.58
494.25	31903.84
494.43	32470.25
494.61	32783.88
494.79	32685.58
494.96	32737.07
495.14	33261.35
495.32	33495.41
495.49	33380.72
495.67	33851.17
495.85	33727.12
496.02	33907.34
496.20	33741.16
496.38	34017.35
496.55	34277.15
496.73	35438.05
496.91	34565.03
497.09	35194.64
497.26	35290.60
497.44	35351.45
497.62	35536.35
497.79	35765.73
497.97	35702.53
498.14	36463.21
498.32	36062.97
498.50	36364.90
498.67	36620.02
498.85	36961.74
499.03	36748.75
499.20	37085.79
499.38	37233.24
499.56	37273.03
499.73	37273.03
499.91	37853.48
500.08	37839.44
500.26	37874.55
500.44	38019.66
500.61	38204.56
500.79	37860.51
500.97	38609.48
501.14	39040.14
501.32	39051.84
501.49	38948.85
501.67	39040.14
501.84	39386.54
502.02	39290.57
502.20	39564.42
502.37	39634.63
502.55	39643.99
502.72	39945.92
502.90	40203.38
503.07	39871.03
503.25	40154.23
503.43	39938.90
503.60	40067.63
503.78	40311.05
503.95	40645.74
504.13	40407.01
504.30	40645.74
504.48	41104.49
504.65	41242.58
504.83	41249.60
505.01	41399.40
505.18	41443.87
505.36	42092.19
505.53	41701.32
505.71	41858.14
505.88	42052.41
506.06	41940.06
506.23	42373.06
506.41	42316.89
506.58	42618.81
506.76	42471.36
506.93	42918.40
507.11	42499.45
507.28	42878.61
507.46	43182.88
507.63	43187.56
507.81	43899.09
507.98	43330.34
508.16	43332.68
508.33	43718.87
508.50	44044.20
508.68	44123.78
508.85	44416.35
509.03	44179.95
509.20	44500.61
509.38	44027.82
509.55	44701.89
509.73	44488.90
509.90	44760.40
510.08	44648.06
510.25	44708.91
510.42	45282.34
510.60	45448.52
510.77	45420.44
510.95	45603.00
511.12	45390.01
511.30	45815.99
511.47	46131.96
511.64	45682.58
511.82	45914.29
511.99	45790.24
512.17	46106.21
512.34	46337.93
512.51	46635.17
512.69	46899.65
512.86	46738.16
513.04	47203.92
513.21	47187.54
513.38	47089.24
513.56	47426.28
513.73	47159.45
513.90	47175.84
514.08	47100.94
514.25	47288.18
514.43	47922.47
514.60	47948.21
514.77	47927.15
514.95	48219.72
515.12	47812.46
515.29	47873.32
515.47	48245.46
515.64	48481.86
515.81	48388.24
515.99	48545.05
516.16	48722.93
516.33	48395.26
516.51	49282.32
516.68	49048.27
516.85	48495.90
517.03	48699.53
517.20	49216.78
517.37	49017.84
517.54	49242.53
517.72	49289.34
517.89	49392.33
518.06	49649.78
518.24	49612.34
518.41	49378.28
518.58	49614.68
518.75	49659.15
518.93	49979.80
519.10	50007.89
519.27	50155.34
519.45	50316.84
519.62	50581.32
519.79	50209.17
519.96	50321.52
520.14	50443.23
520.31	50333.22
520.48	50761.54
520.65	50562.59
520.83	50876.22
521.00	51234.33
521.17	51192.20
521.34	50857.50
521.52	50972.19
521.69	51182.84
521.86	51009.64
522.03	51501.15
522.20	51632.22
522.38	51980.96
522.55	51688.39
522.72	51657.96
522.89	51892.02
523.07	51896.70
523.24	51613.49
523.41	52119.05
523.58	51931.81
523.75	52037.13
523.92	52109.69
524.10	52222.03
524.27	52252.46
524.44	52257.14
524.61	52631.63
524.78	52453.75
524.96	52554.39
525.13	52678.44
525.30	52917.17
525.47	52800.15
525.64	52804.83
525.81	52832.91
525.98	52851.64
526.16	52589.50
526.33	52949.94
526.50	53022.50
526.67	52807.17
526.84	52966.32
527.01	52996.75
527.18	53038.88
527.36	53146.54
527.53	53176.97
527.70	53532.73
527.87	53691.89
528.04	53539.75
528.21	53640.40
528.38	53359.53
528.55	53666.14
528.72	53591.25
528.89	53631.04
529.07	53806.58
529.24	53305.70
529.41	54223.19
529.58	53951.69
529.75	53918.92
529.92	54174.04
530.09	53986.80
530.26	54323.83
530.43	54262.98
530.60	54010.20
530.77	54085.10
530.94	54309.79
531.11	54274.68
531.28	54494.69
531.46	54288.73
531.63	54475.97
531.80	54415.11
531.97	54784.92
532.14	54864.50
532.31	54686.62
532.48	55058.76
532.65	54782.58
532.82	54880.88
532.99	54789.60
533.16	54805.98
533.33	54794.28
533.50	55063.44
533.67	54988.55
533.84	54845.77
534.01	55018.97
534.18	54969.82
534.35	55444.95
534.52	55578.36
534.69	55480.06
534.86	55236.64
535.03	55440.27
535.20	55379.42
535.37	55606.45
535.54	55784.33
535.71	55475.38
535.88	55592.40
536.05	55774.97
536.22	55891.99
536.38	55976.25
536.55	55725.81
536.72	55664.96
536.89	55831.14
537.06	55821.78
537.23	56044.13
537.40	55777.31
537.57	55920.08
537.74	55938.80
537.91	56273.50
538.08	56217.33
538.25	55985.61
538.42	55994.98
538.59	56137.75
538.75	56165.84
538.92	56226.69
539.09	56521.60
539.26	56170.52
539.43	56200.94
539.60	56453.72
539.77	56285.20
539.94	56549.68
540.11	56591.81
540.28	56629.26
540.44	56753.31
540.61	56388.19
540.78	56552.02
540.95	56638.62
541.12	56594.15
541.29	56776.72
541.46	56811.82
541.62	56701.82
541.79	56868.00
541.96	56772.03
542.13	56671.39
542.30	56975.66
542.47	56933.53
542.63	56956.94
542.80	57006.09
542.97	57401.64
543.14	57476.54
543.31	57518.67
543.48	57380.57
543.64	57593.56
543.81	57511.64
543.98	57488.24
544.15	57565.48
544.32	57623.99
544.48	57710.59
544.65	57645.05
544.82	57663.78
544.99	57237.80
545.16	57748.04
545.32	57799.53
545.49	57790.17
545.66	57991.45
545.83	58061.67
546.00	57963.37
546.16	57963.37
546.33	57797.19
546.50	57670.80
546.67	57982.09
546.83	57867.40
547.00	58068.69
547.17	57790.17
547.34	58181.04
547.50	58244.23
547.67	58185.72
547.84	58312.11
548.00	58405.73
548.17	58651.48
548.34	58267.64
548.51	58415.09
548.67	58424.45
548.84	58504.03
549.01	58403.39
549.18	58389.34
549.34	58487.65
549.51	58344.87
549.68	58625.74
549.84	58660.85
550.01	58801.28
550.18	58454.88
550.34	58518.07
550.51	58864.47
550.68	58515.73
550.84	58457.22
551.01	58635.10
551.18	58962.78
551.34	58852.77
551.51	58990.86
551.68	58733.40
551.84	58883.20
552.01	58815.32
552.18	58890.22
552.34	58843.41
552.51	58873.84
552.68	58876.18
552.84	58901.92
553.01	59100.87
553.18	59030.65
553.34	59075.12
553.51	59011.93
553.67	58941.71
553.84	59100.87
554.01	59145.34
554.17	59203.85
554.34	59318.54
554.51	59011.93
554.67	59409.82
554.84	59283.43
555.00	59091.51
555.17	59344.28
555.33	59157.04
555.50	59084.48
555.67	59292.79
555.83	59215.55
556.00	59447.27
556.16	59592.38
556.33	59337.26
556.50	59503.44
556.66	59636.85
556.83	59437.90
556.99	59840.48
557.16	59583.02
557.32	59629.83
557.49	59632.17
557.65	59653.23
557.82	59643.87
557.98	59599.40
558.15	59749.20
558.32	59676.64
558.48	59597.06
558.65	59756.22
558.81	59655.57
558.98	59571.32
559.14	59994.95
559.31	59826.43
559.47	59999.63
559.64	59985.59
559.80	59920.05
559.97	60041.76
560.13	59784.30
560.30	59800.69
560.46	60060.49
560.63	60203.26
560.79	60090.91
560.96	60226.66
561.12	60320.29
561.29	60100.28
561.45	59980.91
561.61	60023.04
561.78	59929.42
561.94	59938.78
562.11	59936.44
562.27	60081.55
562.44	60144.75
562.60	60268.79
562.77	60278.16
562.93	59915.37
563.10	60224.32
563.26	60133.04
563.42	60285.18
563.59	59964.52
563.75	60060.49
563.92	60282.84
564.08	60226.66
564.24	60299.22
564.41	60205.60
564.57	60423.27
564.74	60310.92
564.90	60247.73
565.07	60404.55
565.23	60252.41
565.39	60324.97
565.56	60437.31
565.72	60238.37
565.88	60207.94
566.05	60399.86
566.21	60238.37
566.38	60303.90
566.54	60376.46
566.70	60444.33
566.87	60629.24
567.03	60395.18
567.19	60652.64
567.36	60472.42
567.52	60481.78
567.68	60706.47
567.85	60493.49
568.01	60652.64
568.17	60495.83
568.34	60942.87
568.50	60526.25
568.66	60395.18
568.83	60584.77
568.99	60530.93
569.15	60547.32
569.32	60441.99
569.48	60547.32
569.64	60788.39
569.81	60460.72
569.97	60537.96
570.13	60612.85
570.30	60542.64
570.46	60652.64
570.62	60795.42
570.78	60488.80
570.95	60467.74
571.11	60734.56
571.27	60900.74
571.43	60669.03
571.60	60844.57
571.76	60678.39
571.92	60879.67
572.09	60896.06
572.25	60727.54
572.41	60715.84
572.57	60828.18
572.74	61298.63
572.90	60987.34
573.06	60839.89
573.22	60823.50
573.38	60992.02
573.55	60863.29
573.71	61010.74
573.87	60748.60
574.03	60563.70
574.20	61048.19
574.36	60734.56
574.52	61073.94
574.68	60931.17
574.84	60900.74
575.01	61109.05
575.17	60879.67
575.33	61036.49
575.49	60622.22
575.65	60942.87
575.82	60938.19
575.98	60903.08
576.14	61219.05
576.30	60977.98
576.46	60844.57
576.62	60673.71
576.79	60835.20
576.95	60804.78
577.11	61043.51
577.27	61127.77
577.43	60825.84
577.59	60992.02
577.75	60973.30
577.92	60673.71
578.08	60874.99
578.24	61059.90
578.40	61221.39
578.56	61102.03
578.72	61003.72
578.88	61331.40
579.04	61137.13
579.21	60999.04
579.37	61268.20
579.53	61373.53
579.69	61003.72
579.85	60786.05
580.01	61212.03
580.17	61202.67
580.33	61137.13
580.49	61167.56
580.65	61057.56
580.82	60968.61
580.98	60945.21
581.14	61043.51
581.30	61268.20
581.46	61064.58
581.62	60973.30
581.78	60912.44
581.94	61055.21
582.10	61190.97
582.26	61008.40
582.42	61188.63
582.58	61167.56
582.74	61272.88
582.90	61148.84
583.06	61127.77
583.22	61073.94
583.38	61027.13
583.54	61228.41
583.70	61181.60
583.86	61123.09
584.02	61097.34
584.18	61183.94
584.34	61331.40
584.50	61254.16
584.66	61076.28
584.82	61057.56
584.98	61268.20
585.14	61244.80
585.30	61092.66
585.46	61258.84
585.62	61272.88
585.78	61312.67
585.94	61069.26
586.10	61284.59
586.26	61158.20
586.42	61155.86
586.58	61380.55
586.74	61240.12
586.90	61251.82
587.06	61160.54
587.22	61153.52
587.38	61186.28
587.54	61324.38
587.70	61481.19
587.86	61256.50
588.02	61160.54
588.18	61329.06
588.34	61368.85
588.49	61247.14
