SpectraSuite Data File
++++++++++++++++++++++++++++++++++++
Date: Fri Oct 25 11:34:02 EDT 2013
User: price-jones
Dark Spectrum Present: No
Reference Spectrum Present: No
Number of Sampled Component Spectra: 1
Spectrometers: USB2+H05261
Integration Time (usec): 100000 (USB2+H05261)
Spectra Averaged: 1 (USB2+H05261)
Boxcar Smoothing: 0 (USB2+H05261)
Correct for Electrical Dark: No (USB2+H05261)
Strobe/Lamp Enabled: No (USB2+H05261)
Correct for Detector Non-linearity: No (USB2+H05261)
Correct for Stray Light: No (USB2+H05261)
Number of Pixels in Processed Spectrum: 2048
>>>>>Begin Processed Spectral Data<<<<<
365.73	234.05
365.92	234.05
366.12	234.05
366.32	205.97
366.52	182.56
366.72	170.86
366.91	166.18
367.11	156.82
367.31	212.99
367.51	168.52
367.70	163.84
367.90	180.22
368.10	170.86
368.30	238.73
368.49	201.29
368.69	227.03
368.89	170.86
369.09	208.31
369.28	238.73
369.48	231.71
369.68	269.16
369.87	283.20
370.07	299.59
370.27	241.08
370.47	351.08
370.66	461.09
370.86	423.64
371.06	491.51
371.25	491.51
371.45	526.62
371.65	592.16
371.84	596.84
372.04	507.90
372.24	550.03
372.44	608.54
372.63	643.65
372.83	601.52
373.03	653.01
373.22	559.39
373.42	603.86
373.62	660.03
373.81	617.90
374.01	676.41
374.21	528.96
374.40	603.86
374.60	674.07
374.79	578.11
374.99	643.65
375.19	627.26
375.38	610.88
375.58	657.69
375.78	681.10
375.97	657.69
376.17	730.25
376.37	683.44
376.56	641.31
376.76	669.39
376.95	608.54
377.15	676.41
377.35	699.82
377.54	634.29
377.74	620.24
377.93	681.10
378.13	690.46
378.33	725.57
378.52	592.16
378.72	683.44
378.91	697.48
379.11	648.33
379.31	688.12
379.50	709.18
379.70	753.65
379.89	784.08
380.09	739.61
380.28	657.69
380.48	784.08
380.68	753.65
380.87	720.88
381.07	734.93
381.26	767.70
381.46	737.27
381.65	741.95
381.85	760.67
382.04	784.08
382.24	800.46
382.43	833.23
382.63	781.74
382.83	793.44
383.02	798.12
383.22	896.43
383.41	770.04
383.61	814.51
383.80	765.36
384.00	786.42
384.19	770.04
384.39	802.80
384.58	753.65
384.78	837.91
384.97	823.87
385.17	837.91
385.36	765.36
385.56	891.74
385.75	870.68
385.95	882.38
386.14	856.64
386.34	910.47
386.53	844.93
386.72	830.89
386.92	926.85
387.11	842.59
387.31	896.43
387.50	777.06
387.70	943.24
387.89	943.24
388.09	896.43
388.28	887.06
388.48	940.90
388.67	940.90
388.86	910.47
389.06	884.72
389.25	898.77
389.45	980.68
389.64	915.15
389.84	940.90
390.03	987.71
390.22	997.07
390.42	978.34
390.61	950.26
390.81	985.37
391.00	1011.11
391.19	1121.12
391.39	929.19
391.58	1036.86
391.78	1041.54
391.97	1048.56
392.16	1034.52
392.36	1081.33
392.55	1043.88
392.75	1043.88
392.94	1076.65
393.13	1111.75
393.33	1057.92
393.52	1086.01
393.71	987.71
393.91	1022.81
394.10	1109.41
394.29	1132.82
394.49	1008.77
394.68	1170.27
394.88	1130.48
395.07	1034.52
395.26	1207.72
395.46	1095.37
395.65	1191.33
395.84	1179.63
396.04	1121.12
396.23	1193.67
396.42	1130.48
396.62	1156.22
396.81	1231.12
397.00	1252.19
397.19	1193.67
397.39	1191.33
397.58	1235.80
397.77	1219.42
397.97	1217.08
398.16	1308.36
398.35	1287.29
398.55	1212.40
398.74	1334.11
398.93	1275.59
399.12	1238.14
399.32	1306.02
399.51	1301.34
399.70	1275.59
399.90	1341.13
400.09	1275.59
400.28	1282.61
400.47	1409.00
400.67	1425.39
400.86	1390.28
401.05	1411.34
401.24	1416.02
401.44	1451.13
401.63	1432.41
401.82	1420.71
402.01	1413.68
402.21	1446.45
402.40	1507.30
402.59	1497.94
402.78	1434.75
402.97	1502.62
403.17	1526.03
403.36	1451.13
403.55	1544.75
403.74	1600.93
403.93	1579.86
404.13	1586.88
404.32	1614.97
404.51	1547.09
404.70	1650.08
404.89	1556.46
405.09	1666.46
405.28	1593.90
405.47	1643.06
405.66	1659.44
405.85	1734.34
406.05	1666.46
406.24	1724.97
406.43	1661.78
406.62	1734.34
406.81	1769.44
407.00	1788.17
407.20	1755.40
407.39	1799.87
407.58	1818.60
407.77	1909.88
407.96	1842.00
408.15	1792.85
408.34	1909.88
408.54	1748.38
408.73	1867.75
408.92	1923.92
409.11	1959.03
409.30	2087.76
409.49	1994.14
409.68	1954.35
409.87	1963.71
410.07	2031.58
410.26	2057.33
410.45	2017.54
410.64	2104.14
410.83	2228.19
411.02	2146.27
411.21	2265.64
411.40	2073.71
411.59	2146.27
411.78	2078.40
411.98	2157.97
412.17	2307.77
412.36	2162.66
412.55	2230.53
412.74	2246.91
412.93	2275.00
413.12	2193.08
413.31	2457.56
413.50	2321.81
413.69	2373.30
413.88	2401.39
414.07	2413.09
414.26	2487.99
414.45	2410.75
414.64	2452.88
414.83	2576.93
415.02	2527.78
415.22	2649.49
415.41	2722.04
415.60	2569.91
415.79	2656.51
415.98	2761.83
416.17	2682.25
416.36	2602.68
416.55	2778.22
416.74	2719.70
416.93	2775.88
417.12	2726.72
417.31	2862.48
417.50	2799.28
417.69	2836.73
417.88	3080.14
418.07	2871.84
418.26	2935.03
418.45	2906.95
418.64	2960.78
418.83	2881.20
419.02	2981.84
419.21	3150.36
419.39	3169.09
419.58	3045.04
419.77	3012.27
419.96	3059.08
420.15	3066.10
420.34	3117.59
420.53	3159.72
420.72	3255.69
420.91	3162.06
421.10	3222.92
421.29	3169.09
421.48	3260.37
421.67	3346.97
421.86	3269.73
422.05	3328.24
422.24	3206.53
422.43	3304.84
422.61	3262.71
422.80	3412.50
422.99	3330.58
423.18	3265.05
423.37	3382.07
423.56	3279.09
423.75	3248.66
423.94	3197.17
424.13	3129.30
424.32	3248.66
424.50	3323.56
424.69	3300.16
424.88	3543.57
425.07	3370.37
425.26	3375.05
425.45	3335.26
425.64	3433.57
425.83	3286.11
426.01	3412.50
426.20	3440.59
426.39	3351.65
426.58	3461.65
426.77	3438.25
426.96	3602.08
427.15	3412.50
427.33	3447.61
427.52	3595.06
427.71	3646.55
427.90	3639.53
428.09	3569.32
428.28	3550.59
428.46	3702.73
428.65	3581.02
428.84	3536.55
429.03	3808.05
429.22	3733.15
429.40	3707.41
429.59	3775.28
429.78	3630.17
429.97	3726.13
430.16	3660.60
430.34	3854.86
430.53	3850.18
430.72	3950.82
430.91	3819.75
431.10	3871.25
431.28	3918.06
431.47	3866.56
431.66	3948.48
431.85	3899.33
432.03	4009.34
432.22	4037.42
432.41	3920.40
432.60	3922.74
432.79	3889.97
432.97	4021.04
433.16	4086.58
433.35	4135.73
433.54	4095.94
433.72	4119.34
433.91	4049.13
434.10	4252.75
434.28	4072.53
434.47	4147.43
434.66	4210.62
434.85	4187.22
435.03	4304.25
435.22	4259.78
435.41	4451.70
435.59	4383.82
435.78	4231.69
435.97	4231.69
436.16	4388.50
436.34	4400.21
436.53	4418.93
436.72	4585.11
436.90	4451.70
437.09	4360.42
437.28	4376.80
437.46	4425.95
437.65	4564.04
437.84	4528.94
438.02	4475.10
438.21	4514.89
438.40	4587.45
438.58	4678.73
438.77	4643.62
438.96	4540.64
439.14	4725.54
439.33	4718.52
439.52	4847.25
439.70	4903.42
439.89	4987.68
440.08	4912.78
440.26	5006.41
440.45	4919.81
440.63	5022.79
440.82	5153.86
441.01	5097.69
441.19	5078.96
441.38	5186.63
441.57	5130.45
441.75	5341.10
441.94	5254.50
442.12	5256.84
442.31	5238.12
442.50	5336.42
442.68	5303.65
442.87	5394.93
443.05	5397.28
443.24	5518.98
443.43	5345.78
443.61	5626.65
443.80	5565.79
443.98	5315.36
444.17	5252.16
444.35	5500.26
444.54	5600.90
444.73	5453.45
444.91	5401.96
445.10	5603.24
445.28	5554.09
445.47	5596.22
445.65	5558.77
445.84	5633.67
446.02	5689.84
446.21	5596.22
446.39	5556.43
446.58	5699.20
446.77	5675.80
446.95	5507.28
447.14	5710.91
447.32	5736.65
447.51	5673.46
447.69	5544.73
447.88	5785.80
448.06	5657.07
448.25	5809.21
448.43	5755.38
448.62	5738.99
448.80	5699.20
448.99	5888.79
449.17	5778.78
449.36	5706.23
449.54	5853.68
449.73	5870.06
449.91	6026.88
450.10	6059.65
450.28	6050.28
450.46	6080.71
450.65	5834.96
450.83	6045.60
451.02	6174.33
451.20	6071.35
451.39	6092.41
451.57	6087.73
451.76	6012.84
451.94	6134.54
452.13	6347.53
452.31	6122.84
452.49	6179.01
452.68	6214.12
452.86	6094.76
453.05	6300.72
453.23	6319.45
453.42	6279.66
453.60	6097.10
453.78	6310.08
453.97	6279.66
454.15	6459.88
454.34	6291.36
454.52	6499.67
454.70	6490.31
454.89	6572.22
455.07	6331.15
455.26	6607.33
455.44	6539.46
455.62	6527.75
455.81	6658.82
455.99	6462.22
456.17	6794.58
456.36	6729.04
456.54	6789.89
456.73	6764.15
456.91	6839.05
457.09	6977.14
457.28	7037.99
457.46	6864.79
457.64	6904.58
457.83	6967.77
458.01	6808.62
458.19	7059.06
458.38	7117.57
458.56	6958.41
458.74	7021.61
458.93	6960.75
459.11	6965.43
459.29	7148.00
459.48	6967.77
459.66	7197.15
459.84	7360.98
460.03	7265.02
460.21	7447.58
460.39	7398.43
460.57	7222.89
460.76	7485.03
460.94	7337.58
461.12	7321.20
461.31	7517.80
461.49	7183.10
461.67	7375.03
461.85	7665.25
462.04	7332.90
462.22	7974.21
462.40	7595.04
462.59	7714.41
462.77	7459.29
462.95	7747.17
463.13	7456.95
463.32	7602.06
463.50	7665.25
463.68	7819.73
463.86	7782.28
464.05	7761.22
464.23	7805.69
464.41	7999.95
464.59	7740.15
464.78	7875.90
464.96	7854.84
465.14	7758.88
465.32	7782.28
465.50	7826.75
465.69	7960.16
465.87	8112.30
466.05	7906.33
466.23	7927.39
466.41	8011.65
466.60	8257.41
466.78	8107.62
466.96	8070.17
467.14	8208.26
467.32	8255.07
467.51	8138.04
467.69	8018.68
467.87	8098.25
468.05	8196.56
468.23	8145.06
468.41	8189.53
468.60	8379.12
468.78	8308.90
468.96	8285.50
469.14	8542.96
469.32	8437.63
469.50	8468.06
469.69	8528.91
469.87	8535.93
470.05	8393.16
470.23	8779.35
470.41	8634.24
470.59	8657.64
470.77	8753.60
470.95	8510.19
471.14	8854.25
471.32	8571.04
471.50	8966.59
471.68	9025.11
471.86	9029.79
472.04	9207.67
472.22	9132.77
472.40	8933.82
472.58	9022.77
472.77	9015.74
472.95	9135.11
473.13	9467.47
473.31	9247.46
473.49	9390.23
473.67	9378.53
473.85	9369.16
474.03	9530.66
474.21	9664.07
474.39	9643.01
474.57	9628.96
474.75	9476.83
474.93	9612.58
475.12	9877.06
475.30	10015.15
475.48	9914.51
475.66	9977.70
475.84	9940.26
476.02	9954.30
476.20	9895.78
476.38	10228.14
476.56	10555.82
476.74	10443.47
476.92	10427.09
477.10	10490.28
477.28	10623.69
477.46	10808.59
477.64	10546.45
477.82	10876.47
478.00	10967.75
478.18	10789.87
478.36	10853.06
478.54	11103.50
478.72	11337.56
478.90	11353.94
479.08	11470.97
479.26	11606.72
479.44	11335.21
479.62	11709.70
479.80	11728.42
479.98	11815.02
480.16	12346.33
480.34	11941.41
480.52	11906.31
480.70	11915.67
480.88	12020.99
481.06	12049.08
481.24	12409.52
481.41	12325.26
481.59	12601.44
481.77	12718.47
481.95	12643.57
482.13	12774.64
482.31	12636.55
482.49	13046.15
482.67	13102.32
482.85	13282.54
483.03	13331.69
483.21	13547.02
483.39	13542.34
483.57	13628.94
483.74	13621.92
483.92	13645.32
484.10	13748.31
484.28	14047.90
484.46	14295.99
484.64	14553.45
484.82	14345.14
485.00	14597.92
485.18	14448.13
485.35	15007.52
485.53	14714.95
485.71	14988.79
485.89	15302.42
486.07	15143.27
486.25	15272.00
486.43	15264.97
486.61	15625.42
486.78	15726.06
486.96	15602.01
487.14	16011.60
487.32	15964.79
487.50	16095.86
487.68	16119.27
487.85	16367.37
488.03	16376.73
488.21	16727.81
488.39	16793.34
488.57	16947.82
488.75	16896.33
488.92	17081.23
489.10	17390.18
489.28	17121.02
489.46	17598.49
489.64	17535.29
489.81	17994.04
489.99	17598.49
490.17	17884.03
490.35	18239.79
490.53	18424.70
490.70	18401.29
490.88	18101.70
491.06	18562.79
491.24	18501.93
491.41	18689.18
491.59	18946.64
491.77	18782.80
491.95	19204.10
492.13	19220.48
492.30	19290.70
492.48	19592.62
492.66	19332.82
492.84	19782.21
493.01	19768.16
493.19	19885.19
493.37	20053.71
493.54	20182.44
493.72	20320.53
493.90	20343.94
494.08	20339.26
494.25	20423.51
494.43	20477.35
494.61	20863.54
494.79	20847.15
494.96	20858.85
495.14	21165.46
495.32	21486.12
495.49	21221.64
495.67	21397.18
495.85	21722.51
496.02	21963.59
496.20	21832.52
496.38	21977.63
496.55	22157.85
496.73	22405.95
496.91	22249.13
497.09	22586.17
497.26	22317.01
497.44	22412.97
497.62	22548.72
497.79	22836.61
497.97	22948.95
498.14	23239.18
498.32	23016.83
498.50	23318.76
498.67	23311.74
498.85	23618.35
499.03	23431.10
499.20	23672.18
499.38	23957.72
499.56	23880.49
499.73	24105.18
499.91	24182.42
500.08	24496.05
500.26	24254.97
500.44	24458.60
500.61	24315.83
500.79	24563.92
500.97	24519.45
501.14	24954.79
501.32	24833.08
501.49	24936.07
501.67	25151.40
501.84	25118.63
502.02	24999.26
502.20	25275.45
502.37	25179.48
502.55	25359.70
502.72	25673.34
502.90	25685.04
503.07	25184.16
503.25	25916.75
503.43	25568.01
503.60	25788.02
503.78	25675.68
503.95	25703.76
504.13	26445.71
504.30	26328.69
504.48	26015.05
504.65	26396.56
504.83	26607.21
505.01	26780.41
505.18	26368.48
505.36	27234.47
505.53	26693.81
505.71	26918.50
505.88	27112.77
506.06	26862.33
506.23	27271.92
506.41	27035.53
506.58	27386.61
506.76	27702.58
506.93	27470.87
507.11	27625.34
507.28	27543.42
507.46	27868.76
507.63	28009.19
507.81	27763.43
507.98	28065.36
508.16	28421.13
508.33	28238.56
508.50	28306.44
508.68	28521.77
508.85	28652.84
509.03	28701.99
509.20	28851.78
509.38	28765.18
509.55	28683.27
509.73	28816.68
509.90	28950.09
510.08	28907.96
510.25	29230.95
510.42	28884.55
510.60	29411.17
510.77	29659.27
510.95	29350.32
511.12	29331.59
511.30	29523.52
511.47	29750.55
511.64	29731.83
511.82	29317.55
511.99	29741.19
512.17	30005.67
512.34	29818.42
512.51	30047.80
512.69	30188.23
512.86	30293.55
513.04	30548.67
513.21	30265.47
513.38	30424.62
513.56	30749.96
513.73	30771.02
513.90	30368.45
514.08	30672.72
514.25	31009.76
514.43	30998.06
514.60	31094.02
514.77	31307.01
514.95	31365.52
515.12	31243.81
515.29	31140.83
515.47	30953.58
515.64	31667.45
515.81	31232.11
515.99	31498.93
516.16	31716.60
516.33	31531.70
516.51	32095.77
516.68	31880.44
516.85	31791.50
517.03	32177.68
517.20	32182.37
517.37	32137.90
517.54	31852.35
517.72	32596.64
517.89	32156.62
518.06	32154.28
518.24	32404.72
518.41	32486.64
518.58	32371.95
518.75	33027.30
518.93	32648.13
519.10	32470.25
519.27	32503.02
519.45	33076.45
519.62	33031.98
519.79	32919.63
519.96	33596.05
520.14	33413.49
520.31	33354.97
520.48	33649.88
520.65	33659.24
520.83	34333.32
521.00	33757.55
521.17	34265.44
521.34	33525.83
521.52	33940.11
521.69	33977.56
521.86	34359.06
522.03	34298.21
522.20	34487.79
522.38	34391.83
522.55	34539.29
522.72	34389.49
522.89	34525.24
523.07	34637.59
523.24	34595.46
523.41	34480.77
523.58	34817.81
523.75	34628.23
523.92	34562.69
524.10	35126.76
524.27	35194.64
524.44	35035.48
524.61	35044.84
524.78	35454.44
524.96	35196.98
525.13	35346.77
525.30	35489.54
525.47	35742.32
525.64	35679.13
525.81	35793.81
525.98	35627.63
526.16	35599.55
526.33	36161.28
526.50	36165.96
526.67	36009.14
526.84	36381.29
527.01	35962.33
527.18	36503.00
527.36	36013.82
527.53	36634.06
527.70	36439.80
527.87	36952.38
528.04	36294.69
528.21	36362.56
528.38	36392.99
528.55	36699.60
528.72	36172.98
528.89	36446.82
529.07	36751.09
529.24	36807.26
529.41	36919.61
529.58	37013.23
529.75	37029.62
529.92	37287.07
530.09	36825.99
530.26	36793.22
530.43	37036.64
530.60	37275.37
530.77	37020.25
530.94	37488.36
531.11	36973.44
531.28	37572.62
531.46	37305.80
531.63	37670.92
531.80	37504.74
531.97	37881.57
532.14	37610.07
532.31	37558.58
532.48	38337.98
532.65	37799.65
532.82	37921.36
532.99	37933.06
533.16	37848.80
533.33	38127.33
533.50	38171.80
533.67	38096.90
533.84	38092.22
534.01	38216.27
534.18	37926.04
534.35	38728.84
534.52	38476.07
534.69	38679.69
534.86	38471.39
535.03	38719.48
535.20	38642.24
535.37	38803.74
535.54	38557.99
535.71	38920.77
535.88	38796.72
536.05	38899.70
536.22	39044.82
536.38	39232.06
536.55	39035.45
536.72	39033.11
536.89	39253.12
537.06	38726.50
537.23	39531.65
537.40	39208.65
537.57	39002.69
537.74	39232.06
537.91	39557.39
538.08	39899.11
538.25	39409.94
538.42	39316.32
538.59	39695.49
538.75	39456.75
538.92	40002.10
539.09	40257.21
539.26	39992.73
539.43	39445.05
539.60	40135.51
539.77	39791.45
539.94	40381.26
540.11	40140.19
540.28	40367.22
540.44	39908.47
540.61	40025.50
540.78	40098.06
540.95	40226.79
541.12	40334.45
541.29	39931.88
541.46	40257.21
541.62	40215.08
541.79	40863.41
541.96	39920.18
542.13	39997.41
542.30	40456.16
542.47	40313.39
542.63	40601.27
542.80	41116.19
542.97	41251.94
543.14	41230.88
543.31	41151.30
543.48	41092.79
543.64	41310.46
543.81	41574.94
543.98	41361.95
544.15	41291.73
544.32	42148.37
544.48	41926.02
544.65	41553.87
544.82	41247.26
544.99	41579.62
545.16	41268.33
545.32	41738.77
545.49	41869.84
545.66	42272.42
545.83	41844.10
546.00	41535.15
546.16	41776.22
546.33	41677.92
546.50	41516.42
546.67	41729.41
546.83	41521.10
547.00	42220.92
547.17	41799.63
547.34	41947.08
547.50	42209.22
547.67	42810.74
547.84	42129.64
548.00	42693.71
548.17	42604.77
548.34	42382.42
548.51	42639.88
548.67	42644.56
548.84	42623.50
549.01	42635.20
549.18	42256.03
549.34	42944.15
549.51	42852.87
549.68	42852.87
549.84	42527.53
550.01	43196.93
550.18	42829.46
550.34	42625.84
550.51	43105.65
550.68	42794.36
550.84	42822.44
551.01	43351.40
551.18	42684.35
551.34	42962.87
551.51	43318.64
551.68	43131.39
551.84	43054.15
552.01	43129.05
552.18	43299.91
552.34	42995.64
552.51	42969.90
552.68	43222.67
552.84	43119.69
553.01	43529.28
553.18	42880.95
553.34	43384.17
553.51	43475.45
553.67	43714.19
553.84	43901.43
554.01	44006.75
554.17	44020.80
554.34	43810.15
554.51	43515.24
554.67	44107.40
554.84	43643.97
555.00	43878.02
555.17	43636.95
555.33	44034.84
555.50	44175.27
555.67	44048.88
555.83	43718.87
556.00	43901.43
556.16	44449.11
556.33	44467.84
556.50	43831.21
556.66	44198.68
556.83	44177.61
556.99	44533.37
557.16	44767.43
557.32	44098.03
557.49	44905.52
557.65	44062.93
557.82	44435.07
557.98	44175.27
558.15	44545.08
558.32	44692.53
558.48	44479.54
558.65	44437.41
558.81	44842.32
558.98	44718.28
559.14	44299.32
559.31	44477.20
559.47	44519.33
559.64	44954.67
559.80	44563.80
559.97	44594.23
560.13	44729.98
560.30	45127.87
560.46	45041.27
560.63	44889.13
560.79	45123.19
560.96	45015.52
561.12	45160.64
561.29	44718.28
561.45	45031.91
561.61	44849.35
561.78	45380.65
561.94	44727.64
562.11	45193.40
562.27	45144.25
562.44	45296.39
562.60	45097.44
562.77	45727.05
562.93	45017.86
563.10	44957.01
563.26	45195.74
563.42	45855.78
563.59	45289.37
563.75	45043.61
563.92	45184.04
564.08	45404.05
564.24	45722.37
564.41	45333.84
564.57	45031.91
564.74	45188.72
564.90	44935.95
565.07	45450.86
565.23	45188.72
565.39	45174.68
565.56	45553.85
565.72	45317.45
565.88	45483.63
566.05	45418.10
566.21	45563.21
566.38	45647.47
566.54	45539.80
566.70	45579.59
566.87	45434.48
567.03	45455.54
567.19	45500.01
567.36	45399.37
567.52	45694.28
567.68	45687.26
567.85	45715.34
568.01	45794.92
568.17	45806.62
568.34	46089.83
568.50	46232.60
568.66	45893.22
568.83	45710.66
568.99	45813.65
569.15	46028.98
569.32	45588.95
569.48	45483.63
569.64	46061.74
569.81	46188.13
569.97	45897.91
570.13	46216.22
570.30	45675.55
570.46	45535.12
570.62	45729.39
570.78	45961.10
570.95	45710.66
571.11	46003.23
571.27	46103.87
571.43	46033.66
571.60	45825.35
571.76	45961.10
571.92	45280.00
572.09	46031.32
572.25	46143.66
572.41	45933.01
572.57	46344.95
572.74	46323.88
572.90	45918.97
573.06	46595.38
573.22	46466.66
573.38	46256.01
573.55	46157.70
573.71	46674.96
573.87	46398.78
574.03	45996.21
574.20	46672.62
574.36	46246.65
574.52	46344.95
574.68	46623.47
574.84	46394.10
575.01	46131.96
575.17	45975.14
575.33	46361.33
575.49	46129.62
575.65	46904.34
575.82	46436.23
575.98	45958.76
576.14	46787.31
576.30	46401.12
576.46	46380.06
576.62	46258.35
576.79	45918.97
576.95	46005.57
577.11	46256.01
577.27	46801.35
577.43	46649.22
577.59	46438.57
577.75	46469.00
577.92	45935.35
578.08	46630.49
578.24	46405.80
578.40	46433.89
578.56	46504.10
578.72	46560.28
578.88	46782.63
579.04	46401.12
579.21	45745.77
579.37	46600.07
579.53	46670.28
579.69	46232.60
579.85	46277.07
580.01	46153.02
580.17	46567.30
580.33	46946.47
580.49	46761.56
580.65	46218.56
580.82	46553.26
580.98	46375.37
581.14	46188.13
581.30	46513.47
581.46	46267.71
581.62	46646.88
581.78	45961.10
581.94	46667.94
582.10	46363.67
582.26	46253.67
582.42	46485.38
582.58	46761.56
582.74	46527.51
582.90	46595.38
583.06	46597.73
583.22	46593.04
583.38	46518.15
583.54	46588.36
583.70	46698.37
583.86	47049.45
584.02	46726.46
584.18	46827.10
584.34	47049.45
584.50	46623.47
584.66	46684.33
584.82	46555.60
584.98	46953.49
585.14	46663.26
585.30	46955.83
585.46	46639.86
585.62	46852.84
585.78	46740.50
585.94	46485.38
586.10	46651.56
586.26	46962.85
586.42	46794.33
586.58	46637.51
586.74	46476.02
586.90	46852.84
587.06	46728.80
587.22	46806.03
587.38	46508.79
587.54	47093.92
587.70	47213.29
587.86	47021.36
588.02	46642.20
588.18	46036.00
588.34	46782.63
588.49	47054.13
588.65	46735.82
588.81	46660.92
588.97	46981.57
589.13	46784.97
589.29	46618.79
589.45	46890.29
589.61	47110.30
589.77	47168.82
589.93	46693.69
590.08	46810.71
