SpectraSuite Data File
++++++++++++++++++++++++++++++++++++
Date: Fri Oct 25 11:23:54 EDT 2013
User: price-jones
Dark Spectrum Present: No
Reference Spectrum Present: No
Number of Sampled Component Spectra: 1
Spectrometers: USB2+H05261
Integration Time (usec): 100000 (USB2+H05261)
Spectra Averaged: 1 (USB2+H05261)
Boxcar Smoothing: 0 (USB2+H05261)
Correct for Electrical Dark: No (USB2+H05261)
Strobe/Lamp Enabled: No (USB2+H05261)
Correct for Detector Non-linearity: No (USB2+H05261)
Correct for Stray Light: No (USB2+H05261)
Number of Pixels in Processed Spectrum: 2048
>>>>>Begin Processed Spectral Data<<<<<
365.73	285.55
365.92	285.55
366.12	285.55
366.32	114.69
366.52	110.01
366.72	140.43
366.91	100.64
367.11	154.48
367.31	180.22
367.51	191.92
367.70	145.11
367.90	152.13
368.10	95.96
368.30	124.05
368.49	119.37
368.69	135.75
368.89	110.01
369.09	180.22
369.28	138.09
369.48	145.11
369.68	138.09
369.87	241.08
370.07	131.07
370.27	234.05
370.47	351.08
370.66	641.31
370.86	613.22
371.06	561.73
371.25	641.31
371.45	695.14
371.65	678.76
371.84	645.99
372.04	657.69
372.24	667.05
372.44	688.12
372.63	739.61
372.83	641.31
373.03	777.06
373.22	774.72
373.42	868.34
373.62	711.52
373.81	828.55
374.01	781.74
374.21	814.51
374.40	891.74
374.60	866.00
374.79	826.21
374.99	798.12
375.19	861.32
375.38	828.55
375.58	868.34
375.78	821.53
375.97	894.08
376.17	905.79
376.37	877.70
376.56	873.02
376.76	856.64
376.95	837.91
377.15	903.45
377.35	887.06
377.54	847.27
377.74	945.58
377.93	908.13
378.13	929.19
378.33	985.37
378.52	976.00
378.72	966.64
378.91	875.36
379.11	1015.79
379.31	950.26
379.50	898.77
379.70	973.66
379.89	917.49
380.09	985.37
380.28	950.26
380.48	957.28
380.68	973.66
380.87	903.45
381.07	1043.88
381.26	1025.15
381.46	1011.11
381.65	1022.81
381.85	1036.86
382.04	1109.41
382.24	1078.99
382.43	1050.90
382.63	1121.12
382.83	1043.88
383.02	1015.79
383.22	1043.88
383.41	999.41
383.61	1149.20
383.80	1142.18
384.00	1034.52
384.19	1172.61
384.39	1083.67
384.58	1146.86
384.78	1210.06
384.97	1149.20
385.17	1132.82
385.36	1095.37
385.56	1135.16
385.75	1111.75
385.95	1137.50
386.14	1132.82
386.34	1226.44
386.53	1217.08
386.72	1313.04
386.92	1291.98
387.11	1217.08
387.31	1228.78
387.50	1329.42
387.70	1207.72
387.89	1196.01
388.09	1214.74
388.28	1277.93
388.48	1282.61
388.67	1320.06
388.86	1334.11
389.06	1322.40
389.25	1378.58
389.45	1238.14
389.64	1336.45
389.84	1327.08
390.03	1364.53
390.22	1430.07
390.42	1399.64
390.61	1406.66
390.81	1453.47
391.00	1315.38
391.19	1383.26
391.39	1401.98
391.58	1430.07
391.78	1507.30
391.97	1404.32
392.16	1481.56
392.36	1533.05
392.55	1516.67
392.75	1448.79
392.94	1432.41
393.13	1519.01
393.33	1469.86
393.52	1598.59
393.71	1551.78
393.91	1490.92
394.10	1582.20
394.29	1568.16
394.49	1603.27
394.68	1624.33
394.88	1673.48
395.07	1666.46
395.26	1633.69
395.46	1806.89
395.65	1753.06
395.84	1687.53
396.04	1813.92
396.23	1661.78
396.42	1771.79
396.62	1741.36
396.81	1816.26
397.00	1797.53
397.19	1802.21
397.39	1778.81
397.58	1818.60
397.77	1895.83
397.97	1823.28
398.16	1816.26
398.35	1877.11
398.55	1769.44
398.74	1823.28
398.93	1956.69
399.12	1865.41
399.32	1898.17
399.51	1921.58
399.70	2050.31
399.90	2071.37
400.09	2043.29
400.28	2040.95
400.47	2019.88
400.67	2090.10
400.86	2146.27
401.05	2136.91
401.24	2005.84
401.44	2183.72
401.63	2143.93
401.82	2153.29
402.01	2139.25
402.21	2195.42
402.40	2202.44
402.59	2150.95
402.78	2193.08
402.97	2293.72
403.17	2267.98
403.36	2207.13
403.55	2291.38
403.74	2326.49
403.93	2300.75
404.13	2282.02
404.32	2422.45
404.51	2324.15
404.70	2438.84
404.89	2445.86
405.09	2506.71
405.28	2382.67
405.47	2356.92
405.66	2483.31
405.85	2415.43
406.05	2516.08
406.24	2523.10
406.43	2483.31
406.62	2553.52
406.81	2649.49
407.00	2572.25
407.20	2530.12
407.39	2675.23
407.58	2612.04
407.77	2733.75
407.96	2764.17
408.15	2780.56
408.34	2836.73
408.54	2771.19
408.73	2825.03
408.92	2850.77
409.11	2871.84
409.30	2874.18
409.49	2857.79
409.68	2935.03
409.87	2965.46
410.07	3047.38
410.26	3028.65
410.45	3047.38
410.64	3052.06
410.83	3094.19
411.02	2995.89
411.21	3096.53
411.40	3297.81
411.59	3129.30
411.78	3236.96
411.98	3199.51
412.17	3133.98
412.36	3440.59
412.55	3487.40
412.74	3384.41
412.93	3417.18
413.12	3293.13
413.31	3515.48
413.50	3552.93
413.69	3421.86
413.88	3578.68
414.07	3588.04
414.26	3674.64
414.45	3630.17
414.64	3691.02
414.83	3798.69
415.02	3695.71
415.22	3885.29
415.41	3955.51
415.60	3929.76
415.79	3836.14
415.98	3815.07
416.17	3995.29
416.36	3934.44
416.55	3904.01
416.74	4011.68
416.93	4105.30
417.12	4175.52
417.31	4114.66
417.50	4140.41
417.69	4376.80
417.88	4292.54
418.07	4285.52
418.26	4273.82
418.45	4400.21
418.64	4498.51
418.83	4407.23
419.02	4313.61
419.21	4571.07
419.39	4507.87
419.58	4613.20
419.77	4428.29
419.96	4650.64
420.15	4615.54
420.34	4554.68
420.53	4617.88
420.72	4641.28
420.91	4788.74
421.10	4781.71
421.29	4683.41
421.48	4784.06
421.67	4737.24
421.86	4657.67
422.05	4760.65
422.24	4784.06
422.43	4905.76
422.61	4809.80
422.80	4957.25
422.99	4816.82
423.18	4950.23
423.37	5142.16
423.56	4823.84
423.75	5060.24
423.94	4826.18
424.13	4608.51
424.32	4772.35
424.50	4922.15
424.69	5107.05
424.88	5050.88
425.07	4922.15
425.26	4922.15
425.45	5057.90
425.64	5088.32
425.83	4922.15
426.01	5116.41
426.20	5081.30
426.39	4945.55
426.58	5032.15
426.77	4905.76
426.96	5191.31
427.15	4966.62
427.33	5369.19
427.52	5102.37
427.71	5289.61
427.90	5191.31
428.09	5221.74
428.28	5284.93
428.46	5233.44
428.65	5390.25
428.84	5411.32
429.03	5790.49
429.22	5373.87
429.40	5462.81
429.59	5465.15
429.78	5423.02
429.97	5401.96
430.16	5500.26
430.34	5589.20
430.53	5647.71
430.72	5746.02
430.91	5547.07
431.10	5729.63
431.28	5797.51
431.47	5792.83
431.66	5909.85
431.85	5746.02
432.03	5863.04
432.22	6022.20
432.41	6019.86
432.60	5788.14
432.79	5935.60
432.97	6071.35
433.16	6043.26
433.35	5968.37
433.54	6111.14
433.72	6169.65
433.91	6120.50
434.10	6155.61
434.28	6291.36
434.47	6291.36
434.66	6207.10
434.85	6347.53
435.03	6380.30
435.22	6310.08
435.41	6469.24
435.59	6480.94
435.78	6434.13
435.97	6256.25
436.16	6448.18
436.34	6415.41
436.53	6403.71
436.72	6651.80
436.90	6429.45
437.09	6382.64
437.28	6363.92
437.46	6558.18
437.65	6661.16
437.84	6825.00
438.02	6747.76
438.21	6764.15
438.40	6710.32
438.58	7005.22
438.77	7260.34
438.96	6939.69
439.14	7056.72
439.33	7328.22
439.52	7143.32
439.70	7194.81
439.89	7323.54
440.08	7482.69
440.26	7190.13
440.45	7489.71
440.63	7555.25
440.82	7599.72
441.01	7543.55
441.19	7672.28
441.38	7765.90
441.57	7810.37
441.75	7894.63
441.94	8037.40
442.12	7960.16
442.31	8058.46
442.50	8006.97
442.68	7957.82
442.87	8070.17
443.05	8009.31
443.24	8126.34
443.43	7950.80
443.61	8152.09
443.80	8510.19
443.98	8051.44
444.17	7889.95
444.35	8219.96
444.54	8468.06
444.73	8238.69
444.91	8465.72
445.10	8292.52
445.28	8126.34
445.47	8318.26
445.65	8341.67
445.84	8589.77
446.02	8475.08
446.21	8236.35
446.39	8271.45
446.58	8465.72
446.77	8402.52
446.95	8304.22
447.14	8571.04
447.32	8685.73
447.51	8517.21
447.69	8512.53
447.88	8671.68
448.06	8514.87
448.25	8526.57
448.43	8627.21
448.62	8512.53
448.80	8393.16
448.99	8545.30
449.17	8760.63
449.36	8521.89
449.54	8814.46
449.73	8936.17
449.91	9146.81
450.10	8973.61
450.28	9029.79
450.46	9001.70
450.65	9064.89
450.83	8992.34
451.02	9020.42
451.20	9092.98
451.39	9104.68
451.57	9064.89
451.76	9074.26
451.94	9212.35
452.13	9270.86
452.31	9205.33
452.49	9263.84
452.68	9338.74
452.86	9364.48
453.05	9507.26
453.23	9488.53
453.42	9334.06
453.60	9343.42
453.78	9533.00
453.97	9490.87
454.15	9467.47
454.34	9308.31
454.52	9823.23
454.70	9654.71
454.89	9757.69
455.07	9652.37
455.26	9741.31
455.44	9776.42
455.62	9708.54
455.81	9994.09
455.99	10125.16
456.17	10045.58
456.36	9834.93
456.54	10293.68
456.73	10127.50
456.91	10452.83
457.09	10462.19
457.28	10604.97
457.46	10476.24
457.64	10469.22
457.83	10523.05
458.01	10417.72
458.19	10822.64
458.38	10693.91
458.56	10747.74
458.74	10721.99
458.93	10775.83
459.11	10628.37
459.29	10768.80
459.48	10766.46
459.66	10892.85
459.84	10965.41
460.03	11056.69
460.21	11080.10
460.39	10949.03
460.57	10892.85
460.76	11190.10
460.94	11290.74
461.12	11115.20
461.31	11405.43
461.49	11197.12
461.67	11115.20
461.85	11456.92
462.04	11255.64
462.22	11548.20
462.40	11662.89
462.59	11583.31
462.77	11405.43
462.95	11719.06
463.13	11468.62
463.32	11651.19
463.50	11646.51
463.68	11728.42
463.86	11805.66
464.05	11494.37
464.23	11627.78
464.41	11913.33
464.59	11580.97
464.78	12287.81
464.96	12079.50
465.14	11836.09
465.32	12212.92
465.50	12198.87
465.69	12301.86
465.87	12025.67
466.05	12018.65
466.23	12203.55
466.41	12248.02
466.60	12224.62
466.78	12388.46
466.96	12355.69
467.14	12549.95
467.32	12365.05
467.51	12533.57
467.69	12269.09
467.87	12376.75
468.05	12393.14
468.23	12271.43
468.41	12442.29
468.60	12823.80
468.78	12688.04
468.96	12505.48
469.14	12943.16
469.32	13032.10
469.50	12666.98
469.69	13132.75
469.87	13188.92
470.05	13071.89
470.23	12952.52
470.41	13198.28
470.59	13233.39
470.77	13142.11
470.95	13261.48
471.14	13441.70
471.32	13376.16
471.50	13502.55
471.68	13261.48
471.86	13577.45
472.04	13841.93
472.22	14031.51
472.40	13598.51
472.58	13806.82
472.77	13998.74
472.95	14230.46
473.13	14665.80
473.31	14083.00
473.49	14230.46
473.67	14153.22
473.85	14286.63
474.03	14600.26
474.21	14649.41
474.39	14768.78
474.57	14593.24
474.75	14855.38
474.93	14920.92
475.12	15016.88
475.30	15077.73
475.48	15112.84
475.66	15295.40
475.84	15094.11
476.02	15405.41
476.20	15353.91
476.38	15618.39
476.56	15992.88
476.74	15999.90
476.92	15920.32
477.10	15866.49
477.28	16170.76
477.46	16252.68
477.64	16533.54
477.82	16458.65
478.00	16893.99
478.18	16716.11
478.36	17034.42
478.54	17291.88
478.72	17301.24
478.90	17298.90
479.08	17350.39
479.26	17759.98
479.44	17703.81
479.62	17579.76
479.80	18087.66
479.98	18485.55
480.16	18686.84
480.34	18228.09
480.52	18427.04
480.70	18518.32
480.88	18417.68
481.06	18857.70
481.24	18841.31
481.41	18780.46
481.59	19276.65
481.77	19531.77
481.95	19690.93
482.13	19679.22
482.31	19625.39
482.49	19992.86
482.67	20243.29
482.85	20547.56
483.03	20549.90
483.21	20748.85
483.39	20900.98
483.57	20723.10
483.74	21277.81
483.92	21350.37
484.10	21188.87
484.28	21916.78
484.46	21928.48
484.64	22162.53
484.82	21895.71
485.00	22279.56
485.18	23056.62
485.35	22848.31
485.53	23028.53
485.71	23126.83
485.89	23632.39
486.07	23204.07
486.25	23459.19
486.43	23580.90
486.61	23735.37
486.78	23981.13
486.96	24060.71
487.14	24498.39
487.32	24535.84
487.50	25008.62
487.68	24872.87
487.85	25333.96
488.03	25525.88
488.21	25563.33
488.39	25795.04
488.57	25811.43
488.75	26333.37
488.92	26501.89
489.10	26899.78
489.28	26951.27
489.46	26878.71
489.64	26801.47
489.81	27566.83
489.99	27775.14
490.17	27889.82
490.35	27983.44
490.53	28533.47
490.70	28376.66
490.88	28250.27
491.06	28898.59
491.24	28617.73
491.41	28856.46
491.59	29102.22
491.77	29497.77
491.95	29305.85
492.13	29654.59
492.30	29947.15
492.48	30136.74
492.66	29993.97
492.84	30382.49
493.01	30651.66
493.19	30675.06
493.37	31241.47
493.54	31077.63
493.72	31129.12
493.90	31484.89
494.08	31566.81
494.25	32243.22
494.43	32107.47
494.61	32694.94
494.79	32730.05
494.96	32620.05
495.14	32973.47
495.32	32601.32
495.49	33139.65
495.67	33205.18
495.85	33085.81
496.02	33752.87
496.20	33933.09
496.38	33921.38
496.55	34134.37
496.73	34932.50
496.91	34649.29
497.09	34934.84
497.26	35030.80
497.44	34792.06
497.62	35445.07
497.79	35983.40
497.97	35627.63
498.14	35807.86
498.32	36442.14
498.50	36077.02
498.67	36591.94
498.85	36645.77
499.03	36861.10
499.20	37137.28
499.38	37233.24
499.56	36865.78
499.73	37469.64
499.91	37085.79
500.08	37621.77
500.26	37495.38
500.44	37563.26
500.61	37612.41
500.79	37596.03
500.97	38129.67
501.14	38614.16
501.32	38700.76
501.49	38452.66
501.67	38939.49
501.84	38871.62
502.02	39328.02
502.20	39009.71
502.37	39672.08
502.55	39054.18
502.72	39199.29
502.90	39564.42
503.07	39613.57
503.25	39613.57
503.43	39297.59
503.60	39992.73
503.78	39782.09
503.95	40301.68
504.13	40484.25
504.30	40701.92
504.48	40891.50
504.65	41118.53
504.83	41118.53
505.01	41240.24
505.18	41177.04
505.36	42024.32
505.53	41223.86
505.71	41860.48
505.88	41823.03
506.06	41635.79
506.23	42075.81
506.41	42363.70
506.58	42127.30
506.76	42155.39
506.93	42197.52
507.11	41808.99
507.28	42394.12
507.46	42494.77
507.63	42930.11
507.81	43239.06
507.98	42862.23
508.16	43805.47
508.33	43655.67
508.50	43611.20
508.68	43702.48
508.85	43873.34
509.03	43859.30
509.20	44158.89
509.38	44069.95
509.55	44493.58
509.73	44521.67
509.90	45003.82
510.08	44748.70
510.25	44505.29
510.42	44992.12
510.60	45034.25
510.77	45165.32
510.95	45553.85
511.12	45394.69
511.30	45460.23
511.47	45352.56
511.64	45890.88
511.82	45705.98
511.99	45366.60
512.17	45645.13
512.34	46197.49
512.51	46576.66
512.69	46300.48
512.86	46316.86
513.04	46686.67
513.21	46436.23
513.38	47206.26
513.56	47178.18
513.73	46974.55
513.90	47138.39
514.08	46937.10
514.25	47154.77
514.43	47430.96
514.60	47686.07
514.77	47466.06
514.95	47936.51
515.12	47695.44
515.29	47842.89
515.47	47758.63
515.64	47997.37
515.81	47887.36
515.99	48023.11
516.16	48746.34
516.33	48854.00
516.51	48823.58
516.68	48465.47
516.85	48739.32
517.03	48809.53
517.20	48708.89
517.37	48830.60
517.54	48980.39
517.72	48694.85
517.89	49120.82
518.06	49329.13
518.24	49654.47
518.41	49542.12
518.58	49647.44
518.75	49497.65
518.93	48996.77
519.10	49565.52
519.27	49717.66
519.45	50017.25
519.62	49546.80
519.79	50099.17
519.96	49914.26
520.14	50375.35
520.31	50248.96
520.48	50354.29
520.65	50550.89
520.83	50796.65
521.00	50965.17
521.17	50660.90
521.34	51164.11
521.52	50644.51
521.69	50791.97
521.86	51182.84
522.03	50887.93
522.20	51608.81
522.38	51508.17
522.55	51452.00
522.72	51285.82
522.89	51374.76
523.07	51737.54
523.24	51824.14
523.41	51681.37
523.58	51459.02
523.75	52135.43
523.92	51641.58
524.10	52027.77
524.27	51973.94
524.44	52074.58
524.61	52060.54
524.78	52013.73
524.96	52360.12
525.13	52030.11
525.30	52533.32
525.47	52582.48
525.64	52631.63
525.81	52577.79
525.98	52683.12
526.16	52741.63
526.33	52690.14
526.50	52877.38
526.67	52865.68
526.84	52961.64
527.01	53144.20
527.18	52994.41
527.36	52928.87
527.53	53172.29
527.70	53326.77
527.87	53399.32
528.04	53146.54
528.21	53396.98
528.38	53371.24
528.55	53535.07
528.72	53471.88
528.89	53652.10
529.07	53656.78
529.24	53371.24
529.41	53932.96
529.58	53640.40
529.75	53762.11
529.92	53874.45
530.09	53982.12
530.26	54178.72
530.43	54057.01
530.60	53851.05
530.77	54071.06
530.94	54124.89
531.11	54108.50
531.28	54075.74
531.46	54335.54
531.63	54347.24
531.80	54443.20
531.97	54459.58
532.14	54347.24
532.31	54478.31
532.48	54644.49
532.65	54637.47
532.82	54438.52
532.99	54677.25
533.16	54539.16
533.33	54852.80
533.50	55068.12
533.67	54719.38
533.84	54684.28
534.01	54824.71
534.18	54976.84
534.35	55344.31
534.52	55199.19
534.69	54927.69
534.86	55323.24
535.03	54990.89
535.20	55206.22
535.37	55262.39
535.54	55138.34
535.71	55519.85
535.88	55519.85
536.05	55384.10
536.22	55676.66
536.38	55592.40
536.55	55564.32
536.72	55536.23
536.89	55271.75
537.06	55517.51
537.23	55852.20
537.40	55543.25
537.57	55576.02
537.74	55777.31
537.91	56142.43
538.08	55810.07
538.25	55739.86
538.42	55920.08
538.59	56243.07
538.75	55948.17
538.92	56086.26
539.09	56334.35
539.26	56264.14
539.43	56282.86
539.60	56285.20
539.77	56332.01
539.94	56559.05
540.11	56495.85
540.28	56442.02
540.44	56320.31
540.61	56507.55
540.78	56470.11
540.95	56488.83
541.12	56435.00
541.29	56266.48
541.46	56449.04
541.62	56685.43
541.79	56673.73
541.96	56493.51
542.13	56629.26
542.30	56725.22
542.47	56783.74
542.63	57034.17
542.80	56860.97
542.97	56975.66
543.14	57083.33
543.31	57244.82
543.48	57277.59
543.64	57293.97
543.81	57385.25
543.98	57301.00
544.15	57329.08
544.32	57567.82
544.48	57764.42
544.65	57478.88
544.82	57640.37
544.99	57155.88
545.16	57296.31
545.32	57422.70
545.49	57614.63
545.66	57925.92
545.83	57680.16
546.00	57818.25
546.16	57628.67
546.33	57708.25
546.50	57626.33
546.67	57752.72
546.83	57399.30
547.00	57743.36
547.17	57584.20
547.34	57944.64
547.50	57982.09
547.67	58078.05
547.84	57932.94
548.00	58052.31
548.17	58279.34
548.34	58220.83
548.51	58319.13
548.67	58358.92
548.84	58054.65
549.01	58164.65
549.18	58073.37
549.34	58152.95
549.51	58314.45
549.68	58387.00
549.84	58471.26
550.01	58541.48
550.18	58164.65
550.34	58227.85
550.51	58571.91
550.68	58581.27
550.84	58443.18
551.01	58632.76
551.18	58590.63
551.34	58642.12
551.51	58602.33
551.68	58607.01
551.84	58576.59
552.01	58738.08
552.18	58658.51
552.34	58583.61
552.51	58768.51
552.68	58319.13
552.84	58599.99
553.01	58969.80
553.18	58838.73
553.34	58876.18
553.51	58721.70
553.67	58749.79
553.84	58962.78
554.01	58777.87
554.17	58969.80
554.34	59047.04
554.51	59105.55
554.67	59117.25
554.84	58972.14
555.00	58967.46
555.17	58937.03
555.33	59112.57
555.50	58993.20
555.67	59068.10
555.83	59047.04
556.00	59220.23
556.16	59494.08
556.33	59341.94
556.50	59370.03
556.66	59522.16
556.83	59339.60
556.99	59274.07
557.16	59454.29
557.32	59428.54
557.49	59618.13
557.65	59566.63
557.82	59330.24
557.98	59061.08
558.15	59519.82
558.32	59618.13
558.48	59332.58
558.65	59334.92
558.81	59657.91
558.98	59526.84
559.14	59770.26
559.31	59599.40
559.47	59508.12
559.64	59667.28
559.80	59920.05
559.97	59887.29
560.13	59732.81
560.30	59636.85
560.46	59870.90
560.63	59945.80
560.79	59772.60
560.96	59987.93
561.12	59870.90
561.29	59852.18
561.45	60081.55
561.61	59812.39
561.78	59763.24
561.94	59866.22
562.11	59821.75
562.27	59753.88
562.44	59943.46
562.60	60151.77
562.77	59901.33
562.93	59508.12
563.10	60006.65
563.26	59746.86
563.42	60287.52
563.59	60037.08
563.75	60074.53
563.92	60161.13
564.08	60088.57
564.24	60126.02
564.41	60137.72
564.57	60282.84
564.74	60203.26
564.90	60069.85
565.07	60116.66
565.23	60182.19
565.39	60170.49
565.56	60392.84
565.72	60301.56
565.88	60271.14
566.05	60233.69
566.21	59962.18
566.38	60214.96
566.54	60285.18
566.70	60278.16
566.87	60449.02
567.03	60041.76
567.19	60343.69
567.36	60474.76
567.52	60395.18
567.68	60507.53
567.85	60554.34
568.01	60500.51
568.17	60505.19
568.34	60430.29
568.50	60376.46
568.66	60156.45
568.83	60439.65
568.99	60350.71
569.15	60416.25
569.32	60357.74
569.48	60427.95
569.64	60584.77
569.81	60757.97
569.97	60488.80
570.13	60392.84
570.30	60350.71
570.46	60467.74
570.62	60427.95
570.78	60556.68
570.95	60273.48
571.11	60596.47
571.27	60624.56
571.43	60544.98
571.60	60704.13
571.76	60825.84
571.92	60767.33
572.09	60786.05
572.25	60568.38
572.41	60608.17
572.57	60739.24
572.74	60947.55
572.90	60631.58
573.06	60900.74
573.22	60570.72
573.38	60594.13
573.55	60821.16
573.71	60659.66
573.87	60757.97
574.03	60699.45
574.20	60807.12
574.36	60481.78
574.52	60669.03
574.68	60676.05
574.84	60764.99
575.01	60781.37
575.17	60788.39
575.33	60697.11
575.49	60624.56
575.65	60825.84
575.82	60722.86
575.98	60898.40
576.14	60842.23
576.30	60580.09
576.46	60830.52
576.62	60732.22
576.79	60495.83
576.95	60654.98
577.11	60816.48
577.27	60673.71
577.43	60961.59
577.59	60739.24
577.75	60650.30
577.92	60804.78
578.08	60788.39
578.24	60781.37
578.40	61038.83
578.56	60942.87
578.72	60910.10
578.88	61048.19
579.04	60968.61
579.21	61024.79
579.37	60940.53
579.53	60959.25
579.69	60699.45
579.85	60678.39
580.01	60851.59
580.17	60734.56
580.33	60891.38
580.49	60982.66
580.65	60903.08
580.82	60949.89
580.98	60629.24
581.14	60767.33
581.30	60924.14
581.46	60963.93
581.62	60931.17
581.78	61066.92
581.94	61095.00
582.10	60994.36
582.26	60858.61
582.42	60994.36
582.58	61003.72
582.74	60746.26
582.90	60933.51
583.06	60842.23
583.22	60739.24
583.38	61080.96
583.54	60973.30
583.70	60907.76
583.86	60982.66
584.02	60860.95
584.18	61132.45
584.34	61010.74
584.50	60973.30
584.66	60755.63
584.82	60896.06
584.98	61193.31
585.14	61228.41
585.30	61013.08
585.46	61151.18
585.62	61006.06
585.78	61296.29
585.94	60818.82
586.10	60992.02
586.26	61183.94
586.42	61038.83
586.58	61151.18
586.74	61221.39
586.90	61001.38
587.06	61144.16
587.22	61038.83
587.38	61132.45
587.54	61357.14
587.70	61235.44
587.86	61146.50
588.02	61127.77
588.18	61202.67
588.34	60999.04
588.49	60931.17
