SpectraSuite Data File
++++++++++++++++++++++++++++++++++++
Date: Fri Oct 25 11:26:04 EDT 2013
User: price-jones
Dark Spectrum Present: No
Reference Spectrum Present: No
Number of Sampled Component Spectra: 1
Spectrometers: USB2+H05261
Integration Time (usec): 100000 (USB2+H05261)
Spectra Averaged: 1 (USB2+H05261)
Boxcar Smoothing: 0 (USB2+H05261)
Correct for Electrical Dark: No (USB2+H05261)
Strobe/Lamp Enabled: No (USB2+H05261)
Correct for Detector Non-linearity: No (USB2+H05261)
Correct for Stray Light: No (USB2+H05261)
Number of Pixels in Processed Spectrum: 2048
>>>>>Begin Processed Spectral Data<<<<<
365.73	222.35
365.92	222.35
366.12	222.35
366.32	154.48
366.52	147.45
366.72	107.66
366.91	124.05
367.11	117.03
367.31	201.29
367.51	135.75
367.70	180.22
367.90	177.88
368.10	121.71
368.30	166.18
368.49	138.09
368.69	177.88
368.89	159.16
369.09	205.97
369.28	142.77
369.48	163.84
369.68	163.84
369.87	180.22
370.07	170.86
370.27	234.05
370.47	294.91
370.66	568.75
370.86	645.99
371.06	641.31
371.25	645.99
371.45	643.65
371.65	610.88
371.84	725.57
372.04	662.37
372.24	688.12
372.44	704.50
372.63	744.29
372.83	648.33
373.03	744.29
373.22	779.40
373.42	772.38
373.62	819.19
373.81	793.44
374.01	898.77
374.21	833.23
374.40	866.00
374.60	809.83
374.79	741.95
374.99	863.66
375.19	837.91
375.38	866.00
375.58	840.25
375.78	922.17
375.97	905.79
376.17	936.21
376.37	877.70
376.56	880.04
376.76	837.91
376.95	908.13
377.15	837.91
377.35	823.87
377.54	905.79
377.74	971.32
377.93	926.85
378.13	915.15
378.33	873.02
378.52	938.55
378.72	971.32
378.91	959.62
379.11	915.15
379.31	877.70
379.50	950.26
379.70	978.34
379.89	1034.52
380.09	1048.56
380.28	933.87
380.48	1032.18
380.68	1004.09
380.87	1027.50
381.07	985.37
381.26	1081.33
381.46	1064.94
381.65	1062.60
381.85	1067.28
382.04	1074.31
382.24	1128.14
382.43	1069.62
382.63	1086.01
382.83	1036.86
383.02	1053.24
383.22	1137.50
383.41	1090.69
383.61	1170.27
383.80	1128.14
384.00	987.71
384.19	1186.65
384.39	1104.73
384.58	1095.37
384.78	1132.82
384.97	1193.67
385.17	1196.01
385.36	1181.97
385.56	1191.33
385.75	1034.52
385.95	1210.06
386.14	1174.95
386.34	1228.78
386.53	1238.14
386.72	1217.08
386.92	1284.95
387.11	1205.38
387.31	1221.76
387.50	1198.35
387.70	1270.91
387.89	1249.85
388.09	1149.20
388.28	1329.42
388.48	1256.87
388.67	1315.38
388.86	1282.61
389.06	1343.47
389.25	1282.61
389.45	1308.36
389.64	1362.19
389.84	1380.92
390.03	1460.49
390.22	1362.19
390.42	1411.34
390.61	1427.73
390.81	1362.19
391.00	1448.79
391.19	1462.83
391.39	1504.96
391.58	1416.02
391.78	1493.26
391.97	1425.39
392.16	1493.26
392.36	1430.07
392.55	1547.09
392.75	1556.46
392.94	1511.99
393.13	1643.06
393.33	1537.73
393.52	1624.33
393.71	1629.01
393.91	1596.25
394.10	1549.43
394.29	1624.33
394.49	1507.30
394.68	1619.65
394.88	1621.99
395.07	1736.68
395.26	1629.01
395.46	1638.38
395.65	1710.93
395.84	1769.44
396.04	1741.36
396.23	1788.17
396.42	1732.00
396.62	1788.17
396.81	1715.61
397.00	1881.79
397.19	1715.61
397.39	1713.27
397.58	1884.13
397.77	1865.41
397.97	1806.89
398.16	1825.62
398.35	1823.28
398.55	1980.09
398.74	1785.83
398.93	2015.20
399.12	1888.81
399.32	1963.71
399.51	1935.62
399.70	2031.58
399.90	1968.39
400.09	1998.82
400.28	2026.90
400.47	2026.90
400.67	2012.86
400.86	2033.93
401.05	2052.65
401.24	2195.42
401.44	2087.76
401.63	2134.57
401.82	2069.03
402.01	2150.95
402.21	2165.00
402.40	2111.16
402.59	2094.78
402.78	2305.43
402.97	2202.44
403.17	2204.78
403.36	2298.41
403.55	2312.45
403.74	2394.37
403.93	2396.71
404.13	2368.62
404.32	2319.47
404.51	2415.43
404.70	2413.09
404.89	2462.24
405.09	2459.90
405.28	2609.70
405.47	2459.90
405.66	2476.29
405.85	2541.82
406.05	2621.40
406.24	2534.80
406.43	2686.94
406.62	2562.89
406.81	2628.42
407.00	2600.34
407.20	2579.27
407.39	2759.49
407.58	2754.81
407.77	2710.34
407.96	2778.22
408.15	2754.81
408.34	2700.98
408.54	2780.56
408.73	2731.41
408.92	2771.19
409.11	2930.35
409.30	2956.10
409.49	2878.86
409.68	2888.22
409.87	2855.45
410.07	2813.32
410.26	3101.21
410.45	2949.08
410.64	3002.91
410.83	2918.65
411.02	3084.83
411.21	3164.40
411.40	3087.17
411.59	3183.13
411.78	3162.06
411.98	3311.86
412.17	3220.58
412.36	3328.24
412.55	3302.50
412.74	3426.54
412.93	3318.88
413.12	3421.86
413.31	3513.14
413.50	3398.46
413.69	3384.41
413.88	3620.81
414.07	3581.02
414.26	3632.51
414.45	3630.17
414.64	3695.71
414.83	3728.47
415.02	3737.84
415.22	3782.31
415.41	3737.84
415.60	3962.53
415.79	3922.74
415.98	4037.42
416.17	3967.21
416.36	3948.48
416.55	4063.17
416.74	4112.32
416.93	4044.45
417.12	4182.54
417.31	4173.18
417.50	4166.15
417.69	4238.71
417.88	4346.37
418.07	4231.69
418.26	4212.96
418.45	4266.80
418.64	4566.39
418.83	4407.23
419.02	4449.36
419.21	4517.23
419.39	4449.36
419.58	4603.83
419.77	4496.17
419.96	4676.39
420.15	4507.87
420.34	4652.98
420.53	4643.62
420.72	4760.65
420.91	4645.96
421.10	4744.27
421.29	4798.10
421.48	4758.31
421.67	4531.28
421.86	4692.77
422.05	4781.71
422.24	4720.86
422.43	4917.47
422.61	4933.85
422.80	4966.62
422.99	4922.15
423.18	4994.70
423.37	5055.56
423.56	5015.77
423.75	4905.76
423.94	4793.42
424.13	4540.64
424.32	4741.93
424.50	4931.51
424.69	5076.62
424.88	5116.41
425.07	5011.09
425.26	4971.30
425.45	5139.82
425.64	4945.55
425.83	4964.28
426.01	5116.41
426.20	5004.07
426.39	5062.58
426.58	5081.30
426.77	4952.57
426.96	5158.54
427.15	5177.26
427.33	5226.42
427.52	5191.31
427.71	5226.42
427.90	5310.68
428.09	5217.05
428.28	5245.14
428.46	5387.91
428.65	5231.10
428.84	5437.06
429.03	5558.77
429.22	5303.65
429.40	5453.45
429.59	5556.43
429.78	5275.57
429.97	5289.61
430.16	5411.32
430.34	5701.54
430.53	5668.78
430.72	5753.04
430.91	5596.22
431.10	5582.18
431.28	5706.23
431.47	5968.37
431.66	5877.09
431.85	5748.36
432.03	5823.25
432.22	5942.62
432.41	5942.62
432.60	5923.90
432.79	5975.39
432.97	6066.67
433.16	5944.96
433.35	5987.09
433.54	6108.80
433.72	6073.69
433.91	6061.99
434.10	6099.44
434.28	6193.06
434.47	6265.61
434.66	6214.12
434.85	6267.95
435.03	6326.47
435.22	6274.98
435.41	6511.37
435.59	6232.85
435.78	6279.66
435.97	6604.99
436.16	6382.64
436.34	6384.98
436.53	6331.15
436.72	6705.63
436.90	6333.49
437.09	6668.19
437.28	6448.18
437.46	6722.02
437.65	6698.61
437.84	6817.98
438.02	6663.51
438.21	6736.06
438.40	6810.96
438.58	6925.65
438.77	6993.52
438.96	6911.60
439.14	7213.53
439.33	7180.76
439.52	7272.04
439.70	7328.22
439.89	7454.61
440.08	7433.54
440.26	7255.66
440.45	7421.84
440.63	7375.03
440.82	7449.93
441.01	7513.12
441.19	7588.02
441.38	7672.28
441.57	7810.37
441.75	7845.48
441.94	7847.82
442.12	7875.90
442.31	8131.02
442.50	7946.12
442.68	7908.67
442.87	8079.53
443.05	8145.06
443.24	8077.19
443.43	8009.31
443.61	8152.09
443.80	8421.25
443.98	8018.68
444.17	7784.62
444.35	8215.28
444.54	8491.46
444.73	8294.86
444.91	8177.83
445.10	8395.50
445.28	8489.12
445.47	8271.45
445.65	8276.13
445.84	8336.99
446.02	8521.89
446.21	8336.99
446.39	8446.99
446.58	8421.25
446.77	8571.04
446.95	8374.44
447.14	8411.89
447.32	8470.40
447.51	8470.40
447.69	8575.72
447.88	8524.23
448.06	8397.84
448.25	8493.80
448.43	8468.06
448.62	8762.97
448.80	8580.40
448.99	8678.71
449.17	8847.22
449.36	8627.21
449.54	8896.38
449.73	8950.21
449.91	8842.54
450.10	8940.85
450.28	8954.89
450.46	8826.16
450.65	8936.17
450.83	9088.30
451.02	9174.90
451.20	9228.73
451.39	9497.89
451.57	8994.68
451.76	9179.58
451.94	9156.18
452.13	9444.06
452.31	9378.53
452.49	9085.96
452.68	9455.76
452.86	9338.74
453.05	9383.21
453.23	9537.68
453.42	9451.08
453.60	9366.82
453.78	9600.88
453.97	9460.45
454.15	9628.96
454.34	9605.56
454.52	9703.86
454.70	9673.43
454.89	9650.03
455.07	9792.80
455.26	9973.02
455.44	9940.26
455.62	9975.36
455.81	9973.02
455.99	10143.88
456.17	10029.20
456.36	10019.83
456.54	10005.79
456.73	10296.02
456.91	10260.91
457.09	10501.98
457.28	10401.34
457.46	10319.42
457.64	10408.36
457.83	10551.14
458.01	10384.96
458.19	10813.28
458.38	10597.95
458.56	10698.59
458.74	10583.90
458.93	10721.99
459.11	10785.19
459.29	10736.04
459.48	10808.59
459.66	10885.83
459.84	10949.03
460.03	11061.37
460.21	11126.91
460.39	10806.25
460.57	10888.17
460.76	11119.89
460.94	11136.27
461.12	11265.00
461.31	11159.67
461.49	11098.82
461.67	11171.38
461.85	11480.33
462.04	11300.11
462.22	11510.75
462.40	11747.15
462.59	11356.28
462.77	11538.84
462.95	11531.82
463.13	11552.88
463.32	11562.25
463.50	11744.81
463.68	11789.28
463.86	12030.35
464.05	11836.09
464.23	11721.40
464.41	11934.39
464.59	11824.39
464.78	12067.80
464.96	11840.77
465.14	11798.64
465.32	12147.38
465.50	12180.15
465.69	12248.02
465.87	12006.95
466.05	12133.34
466.23	12152.06
466.41	12306.54
466.60	12699.75
466.78	12196.53
466.96	12037.38
467.14	12336.96
467.32	12184.83
467.51	12514.84
467.69	12365.05
467.87	12669.32
468.05	12690.38
468.23	12643.57
468.41	12409.52
468.60	12575.70
468.78	12891.67
468.96	12578.04
469.14	12844.86
469.32	12837.84
469.50	12575.70
469.69	13025.08
469.87	13186.58
470.05	12868.27
470.23	13118.70
470.41	13373.82
470.59	13387.86
470.77	13270.84
470.95	13214.66
471.14	13481.49
471.32	13142.11
471.50	13589.15
471.68	13612.56
471.86	13521.27
472.04	13790.44
472.22	14150.88
472.40	13947.25
472.58	13809.16
472.77	14045.55
472.95	14040.87
473.13	14743.03
473.31	13921.51
473.49	14164.92
473.67	14008.11
473.85	14436.42
474.03	14560.47
474.21	14565.15
474.39	14885.81
474.57	14768.78
474.75	14534.73
474.93	15192.42
475.12	15040.28
475.30	15218.16
475.48	15176.03
475.66	15318.81
475.84	15075.39
476.02	15377.32
476.20	15272.00
476.38	15756.49
476.56	15878.19
476.74	15953.09
476.92	15765.85
477.10	15908.62
477.28	16226.93
477.46	16278.43
477.64	16517.16
477.82	16521.84
478.00	16903.35
478.18	16671.64
478.36	16975.91
478.54	17062.51
478.72	17219.32
478.90	17308.26
479.08	17750.62
479.26	17694.45
479.44	17767.01
479.62	17811.48
479.80	17898.08
479.98	18134.47
480.16	18356.82
480.34	18340.44
480.52	18588.53
480.70	18623.64
480.88	18218.73
481.06	18553.43
481.24	18841.31
481.41	19033.24
481.59	19431.13
481.77	19616.03
481.95	19641.78
482.13	19716.67
482.31	19714.33
482.49	20559.27
482.67	20255.00
482.85	20650.55
483.03	20666.93
483.21	20793.32
483.39	20952.48
483.57	20723.10
483.74	21392.50
483.92	21254.40
484.10	21415.90
484.28	21912.10
484.46	21881.67
484.64	22555.74
484.82	21633.57
485.00	22242.11
485.18	22679.79
485.35	22948.95
485.53	23056.62
485.71	22780.43
485.89	23435.78
486.07	23185.35
486.25	23234.50
486.43	23637.07
486.61	23470.89
486.78	24135.60
486.96	24215.18
487.14	24257.31
487.32	24151.99
487.50	24753.51
487.68	24783.93
487.85	25228.63
488.03	25717.81
488.21	25633.55
488.39	25731.85
488.57	25963.56
488.75	25944.84
488.92	26838.92
489.10	26740.62
489.28	26944.25
489.46	27201.71
489.64	27028.51
489.81	27796.20
489.99	27304.69
490.17	27454.48
490.35	28493.68
490.53	27995.15
490.70	28292.40
490.88	28166.01
491.06	28493.68
491.24	29170.10
491.41	28922.00
491.59	29277.76
491.77	29359.68
491.95	29565.65
492.13	29738.85
492.30	29841.83
492.48	29986.94
492.66	30312.28
492.84	30410.58
493.01	30333.34
493.19	30679.74
493.37	30953.58
493.54	31318.71
493.72	31424.03
493.90	31569.15
494.08	31995.12
494.25	32030.23
494.43	32149.60
494.61	32158.96
494.79	32697.28
494.96	32631.75
495.14	32505.36
495.32	32505.36
495.49	32823.67
495.67	33163.05
495.85	33518.81
496.02	34022.03
496.20	34017.35
496.38	34176.50
496.55	34211.61
496.73	34869.30
496.91	34499.50
497.09	34686.74
497.26	34993.35
497.44	34728.87
497.62	35321.02
497.79	35978.72
497.97	35501.25
498.14	36140.21
498.32	36025.53
498.50	35859.35
498.67	36563.85
498.85	36158.94
499.03	36381.29
499.20	36589.59
499.38	36491.29
499.56	37041.32
499.73	37476.66
499.91	37359.63
500.08	37804.33
500.26	37319.84
500.44	37851.14
500.61	37954.13
500.79	37493.04
500.97	38167.12
501.14	38726.50
501.32	38595.43
501.49	38675.01
501.67	38293.50
501.84	38906.73
502.02	38431.60
502.20	39459.09
502.37	39255.46
502.55	39269.51
502.72	39402.92
502.90	39880.39
503.07	39349.09
503.25	39725.91
503.43	40177.64
503.60	39693.15
503.78	40437.44
503.95	40409.35
504.13	40179.98
504.30	40559.14
504.48	40910.22
504.65	40547.44
504.83	40872.78
505.01	41720.05
505.18	41205.13
505.36	41581.96
505.53	40896.18
505.71	41696.64
505.88	41729.41
506.06	41375.99
506.23	42050.06
506.41	41813.67
506.58	42052.41
506.76	42204.54
506.93	42548.60
507.11	42253.69
507.28	42239.65
507.46	42768.61
507.63	42986.28
507.81	42754.57
507.98	42597.75
508.16	43093.94
508.33	43264.80
508.50	43592.48
508.68	43611.20
508.85	43955.26
509.03	43519.92
509.20	44006.75
509.38	44275.91
509.55	44243.15
509.73	44622.31
509.90	44301.66
510.08	44580.18
510.25	44760.40
510.42	44797.85
510.60	44814.24
510.77	45298.73
510.95	45315.11
511.12	45139.57
511.30	44851.69
511.47	45743.43
511.64	45378.31
511.82	45914.29
511.99	45830.03
512.17	45769.18
512.34	45933.01
512.51	46520.49
512.69	46267.71
512.86	46469.00
513.04	46838.80
513.21	46518.15
513.38	46623.47
513.56	47044.77
513.73	46766.24
513.90	47089.24
514.08	46969.87
514.25	47327.97
514.43	47063.49
514.60	47402.87
514.77	47178.18
514.95	47952.90
515.12	47789.06
515.29	47746.93
515.47	48168.22
515.64	48044.18
515.81	48123.75
515.99	48273.55
516.16	48432.71
516.33	48516.96
516.51	48472.49
516.68	48217.38
516.85	48666.76
517.03	48910.17
517.20	49027.20
517.37	48898.47
517.54	48671.44
517.72	48896.13
517.89	49127.84
518.06	48921.88
518.24	49371.26
518.41	49525.74
518.58	49134.87
518.75	49324.45
518.93	49413.39
519.10	49542.12
519.27	49684.89
519.45	49593.61
519.62	49738.72
519.79	50394.07
519.96	50354.29
520.14	49844.05
520.31	50042.99
520.48	50293.43
520.65	50176.40
520.83	50419.82
521.00	50878.57
521.17	50150.66
521.34	50562.59
521.52	50911.33
521.69	50700.68
521.86	51014.32
522.03	50995.59
522.20	51229.65
522.38	51391.14
522.55	51295.18
522.72	51543.28
522.89	51210.92
523.07	51587.75
523.24	51622.86
523.41	51559.66
523.58	51480.08
523.75	52013.73
523.92	51655.62
524.10	51997.34
524.27	52154.16
524.44	51819.46
524.61	52088.62
524.78	52128.41
524.96	51980.96
525.13	52257.14
525.30	52252.46
525.47	52570.77
525.64	52512.26
525.81	52339.06
525.98	52823.55
526.16	52573.11
526.33	52685.46
526.50	53148.88
526.67	52949.94
526.84	53174.63
527.01	52753.33
527.18	53043.56
527.36	52788.44
527.53	53057.60
527.70	53130.16
527.87	53275.27
528.04	53055.26
528.21	53045.90
528.38	53188.67
528.55	53684.87
528.72	53628.69
528.89	53483.58
529.07	53331.45
529.24	53532.73
529.41	53741.04
529.58	53628.69
529.75	53172.29
529.92	53956.37
530.09	53841.68
530.26	53949.35
530.43	53818.28
530.60	53705.93
530.77	53986.80
530.94	54042.97
531.11	54064.03
531.28	54150.63
531.46	53993.82
531.63	54255.96
531.80	54262.98
531.97	54471.29
532.14	54518.10
532.31	54270.00
532.48	54328.52
532.65	54529.80
532.82	54335.54
532.99	54951.10
533.16	54482.99
533.33	54745.13
533.50	54740.45
533.67	54958.12
533.84	54658.53
534.01	54944.08
534.18	54766.20
534.35	55136.00
534.52	55173.45
534.69	55136.00
534.86	55285.79
535.03	55063.44
535.20	55028.34
535.37	55229.62
535.54	55379.42
535.71	55423.89
535.88	55290.48
536.05	55302.18
536.22	55468.36
536.38	55660.28
536.55	55618.15
536.72	55608.79
536.89	55391.12
537.06	55573.68
537.23	55842.84
537.40	55660.28
537.57	55531.55
537.74	55908.38
537.91	55770.28
538.08	55742.20
538.25	55753.90
538.42	55917.74
538.59	56086.26
538.75	55849.86
538.92	56168.18
539.09	56002.00
539.26	56069.87
539.43	55917.74
539.60	56294.56
539.77	56236.05
539.94	56397.55
540.11	56147.11
540.28	56385.85
540.44	56446.70
540.61	56226.69
540.78	56303.93
540.95	56474.79
541.12	56463.08
541.29	56636.28
541.46	56837.57
541.62	56406.91
541.79	56647.99
541.96	56486.49
542.13	56638.62
542.30	56638.62
542.47	56825.87
542.63	56849.27
542.80	56905.44
542.97	57202.69
543.14	57282.27
543.31	57193.33
543.48	57209.71
543.64	57616.97
543.81	57392.28
543.98	57212.06
544.15	57183.97
544.32	57392.28
544.48	57572.50
544.65	57214.40
544.82	57268.23
544.99	57228.44
545.16	57481.22
545.32	57553.77
545.49	57893.15
545.66	57474.20
545.83	57469.51
546.00	57675.48
546.16	57752.72
546.33	57462.49
546.50	57471.85
546.67	57808.89
546.83	57616.97
547.00	57649.74
547.17	57694.21
547.34	57813.57
547.50	57949.32
547.67	58056.99
547.84	57977.41
548.00	58099.12
548.17	58080.39
548.34	58026.56
548.51	58124.86
548.67	58183.38
548.84	58239.55
549.01	57949.32
549.18	58019.54
549.34	58347.21
549.51	58209.12
549.68	58073.37
549.84	58206.78
550.01	58536.80
550.18	58195.08
550.34	58415.09
550.51	58546.16
550.68	58328.49
550.84	58028.90
551.01	58639.78
551.18	58176.36
551.34	58174.02
551.51	58501.69
551.68	58546.16
551.84	58527.44
552.01	58370.62
552.18	58756.81
552.34	58588.29
552.51	58798.94
552.68	58546.16
552.84	58738.08
553.01	58824.68
553.18	58752.13
553.34	58808.30
553.51	58660.85
553.67	58930.01
553.84	59220.23
554.01	59079.80
554.17	58944.05
554.34	58958.09
554.51	59002.56
554.67	59091.51
554.84	59023.63
555.00	58969.80
555.17	58969.80
555.33	58988.52
555.50	59224.92
555.67	58918.31
555.83	58969.80
556.00	59189.81
556.16	59332.58
556.33	59262.36
556.50	59196.83
556.66	59304.49
556.83	59161.72
556.99	59505.78
557.16	59529.19
557.32	59550.25
557.49	59566.63
557.65	59480.03
557.82	59313.86
557.98	59271.73
558.15	59550.25
558.32	59646.21
558.48	59388.75
558.65	59426.20
558.81	59290.45
558.98	59489.40
559.14	59526.84
559.31	59641.53
559.47	59566.63
559.64	59618.13
559.80	59568.97
559.97	59594.72
560.13	59657.91
560.30	59451.95
560.46	59760.90
560.63	59852.18
560.79	59842.82
560.96	59793.67
561.12	59903.67
561.29	59793.67
561.45	59613.44
561.61	59803.03
561.78	59845.16
561.94	59788.98
562.11	59758.56
562.27	59700.04
562.44	59884.95
562.60	60156.45
562.77	60032.40
562.93	59763.24
563.10	60088.57
563.26	59896.65
563.42	60086.23
563.59	59959.84
563.75	59788.98
563.92	60055.81
564.08	60062.83
564.24	60266.45
564.41	60165.81
564.57	60121.34
564.74	60074.53
564.90	59983.25
565.07	60114.32
565.23	59964.52
565.39	60198.58
565.56	60219.64
565.72	60119.00
565.88	60090.91
566.05	60186.88
566.21	60133.04
566.38	60121.34
566.54	60224.32
566.70	60280.50
566.87	60306.24
567.03	60198.58
567.19	60420.93
567.36	60317.95
567.52	60165.81
567.68	60376.46
567.85	60221.98
568.01	60336.67
568.17	60327.31
568.34	60259.43
568.50	60177.51
568.66	60350.71
568.83	60463.06
568.99	60214.96
569.15	60439.65
569.32	60472.42
569.48	60537.96
569.64	60348.37
569.81	60317.95
569.97	60327.31
570.13	60416.25
570.30	60287.52
570.46	60568.38
570.62	60336.67
570.78	60521.57
570.95	60516.89
571.11	60687.75
571.27	60617.53
571.43	60622.22
571.60	60622.22
571.76	60673.71
571.92	60460.72
572.09	60530.93
572.25	60427.95
572.41	60591.79
572.57	60734.56
572.74	60535.62
572.90	60570.72
573.06	60645.62
573.22	60547.32
573.38	60521.57
573.55	60601.15
573.71	60683.07
573.87	60673.71
574.03	60643.28
574.20	60636.26
574.36	60601.15
574.52	60767.33
574.68	60764.99
574.84	60790.73
575.01	60788.39
575.17	60640.94
575.33	60687.75
575.49	60573.06
575.65	60664.35
575.82	60570.72
575.98	60830.52
576.14	60980.32
576.30	60757.97
576.46	60659.66
576.62	60669.03
576.79	60680.73
576.95	60739.24
577.11	60809.46
577.27	60750.94
577.43	60860.95
577.59	60662.00
577.75	60640.94
577.92	60776.69
578.08	60725.20
578.24	60720.52
578.40	60959.25
578.56	60963.93
578.72	60893.72
578.88	60757.97
579.04	60828.18
579.21	60954.57
579.37	61034.15
579.53	61031.81
579.69	60680.73
579.85	60664.35
580.01	60917.12
580.17	60580.09
580.33	60893.72
580.49	61001.38
580.65	61036.49
580.82	60846.91
580.98	60743.92
581.14	60809.46
581.30	61024.79
581.46	60832.86
581.62	60828.18
581.78	60891.38
581.94	60917.12
582.10	60783.71
582.26	60856.27
582.42	60797.76
582.58	61010.74
582.74	60963.93
582.90	60877.33
583.06	60924.14
583.22	60741.58
583.38	61001.38
583.54	61013.08
583.70	60896.06
583.86	61036.49
584.02	60884.36
584.18	60924.14
584.34	60839.89
584.50	60830.52
584.66	60994.36
584.82	60631.58
584.98	61092.66
585.14	61001.38
585.30	60917.12
585.46	60928.83
585.62	60914.78
585.78	61022.45
585.94	60846.91
586.10	60860.95
586.26	61090.32
586.42	61111.39
586.58	61193.31
586.74	60788.39
586.90	60968.61
587.06	60924.14
587.22	61167.56
587.38	60842.23
587.54	61151.18
587.70	61352.46
587.86	60994.36
588.02	60931.17
588.18	61240.12
588.34	61038.83
