SpectraSuite Data File
++++++++++++++++++++++++++++++++++++
Date: Fri Oct 25 11:25:13 EDT 2013
User: price-jones
Dark Spectrum Present: No
Reference Spectrum Present: No
Number of Sampled Component Spectra: 1
Spectrometers: USB2+H05261
Integration Time (usec): 100000 (USB2+H05261)
Spectra Averaged: 1 (USB2+H05261)
Boxcar Smoothing: 0 (USB2+H05261)
Correct for Electrical Dark: No (USB2+H05261)
Strobe/Lamp Enabled: No (USB2+H05261)
Correct for Detector Non-linearity: No (USB2+H05261)
Correct for Stray Light: No (USB2+H05261)
Number of Pixels in Processed Spectrum: 2048
>>>>>Begin Processed Spectral Data<<<<<
365.73	250.44
365.92	250.44
366.12	250.44
366.32	220.01
366.52	110.01
366.72	74.90
366.91	93.62
367.11	142.77
367.31	180.22
367.51	208.31
367.70	156.82
367.90	128.73
368.10	128.73
368.30	152.13
368.49	56.17
368.69	77.24
368.89	168.52
369.09	182.56
369.28	222.35
369.48	198.95
369.68	156.82
369.87	266.82
370.07	215.33
370.27	231.71
370.47	351.08
370.66	608.54
370.86	624.92
371.06	617.90
371.25	690.46
371.45	669.39
371.65	653.01
371.84	657.69
372.04	730.25
372.24	692.80
372.44	737.27
372.63	667.05
372.83	720.88
373.03	706.84
373.22	755.99
373.42	800.46
373.62	781.74
373.81	730.25
374.01	802.80
374.21	805.14
374.40	807.48
374.60	861.32
374.79	823.87
374.99	751.31
375.19	805.14
375.38	863.66
375.58	873.02
375.78	877.70
375.97	812.17
376.17	884.72
376.37	854.30
376.56	877.70
376.76	856.64
376.95	842.59
377.15	877.70
377.35	894.08
377.54	915.15
377.74	877.70
377.93	896.43
378.13	943.24
378.33	992.39
378.52	880.04
378.72	882.38
378.91	945.58
379.11	908.13
379.31	908.13
379.50	957.28
379.70	1015.79
379.89	1039.20
380.09	1088.35
380.28	973.66
380.48	1020.47
380.68	840.25
380.87	945.58
381.07	945.58
381.26	1018.13
381.46	954.94
381.65	968.98
381.85	1048.56
382.04	1048.56
382.24	1095.37
382.43	1074.31
382.63	1025.15
382.83	1018.13
383.02	1135.16
383.22	1111.75
383.41	1027.50
383.61	968.98
383.80	1027.50
384.00	1123.46
384.19	1181.97
384.39	1043.88
384.58	1097.71
384.78	1123.46
384.97	1203.04
385.17	1125.80
385.36	1123.46
385.56	1207.72
385.75	1217.08
385.95	1132.82
386.14	1249.85
386.34	1118.78
386.53	1324.74
386.72	1224.10
386.92	1231.12
387.11	1277.93
387.31	1184.31
387.50	1181.97
387.70	1172.61
387.89	1235.80
388.09	1240.48
388.28	1256.87
388.48	1348.15
388.67	1282.61
388.86	1331.76
389.06	1315.38
389.25	1301.34
389.45	1345.81
389.64	1355.17
389.84	1392.62
390.03	1437.09
390.22	1423.05
390.42	1409.00
390.61	1423.05
390.81	1362.19
391.00	1369.21
391.19	1362.19
391.39	1446.45
391.58	1448.79
391.78	1409.00
391.97	1448.79
392.16	1479.22
392.36	1469.86
392.55	1380.92
392.75	1586.88
392.94	1540.07
393.13	1537.73
393.33	1467.52
393.52	1542.41
393.71	1645.40
393.91	1551.78
394.10	1586.88
394.29	1558.80
394.49	1589.22
394.68	1652.42
394.88	1652.42
395.07	1638.38
395.26	1638.38
395.46	1650.08
395.65	1703.91
395.84	1647.74
396.04	1825.62
396.23	1664.12
396.42	1675.82
396.62	1813.92
396.81	1834.98
397.00	1724.97
397.19	1762.42
397.39	1785.83
397.58	1748.38
397.77	1717.95
397.97	1844.34
398.16	1893.49
398.35	1891.15
398.55	1834.98
398.74	1928.60
398.93	1994.14
399.12	1975.41
399.32	1837.32
399.51	1963.71
399.70	1998.82
399.90	1926.26
400.09	1970.73
400.28	2113.50
400.47	2012.86
400.67	2083.08
400.86	2108.82
401.05	1980.09
401.24	2097.12
401.44	2115.84
401.63	2225.85
401.82	2186.06
402.01	2167.34
402.21	2167.34
402.40	2136.91
402.59	2190.74
402.78	2249.25
402.97	2176.70
403.17	2195.42
403.36	2237.55
403.55	2242.23
403.74	2399.05
403.93	2335.85
404.13	2406.07
404.32	2319.47
404.51	2349.90
404.70	2485.65
404.89	2427.14
405.09	2476.29
405.28	2511.39
405.47	2424.80
405.66	2417.77
405.85	2464.58
406.05	2576.93
406.24	2455.22
406.43	2410.75
406.62	2534.80
406.81	2740.77
407.00	2513.74
407.20	2483.31
407.39	2649.49
407.58	2675.23
407.77	2733.75
407.96	2705.66
408.15	2780.56
408.34	2740.77
408.54	2822.69
408.73	2822.69
408.92	2757.15
409.11	2839.07
409.30	2829.71
409.49	2848.43
409.68	2928.01
409.87	2897.58
410.07	2888.22
410.26	2736.09
410.45	2782.90
410.64	2946.73
410.83	3052.06
411.02	3141.00
411.21	3173.77
411.40	2951.42
411.59	3077.80
411.78	3101.21
411.98	3180.79
412.17	3215.90
412.36	3197.17
412.55	3241.64
412.74	3361.01
412.93	3248.66
413.12	3213.56
413.31	3447.61
413.50	3456.97
413.69	3396.12
413.88	3557.61
414.07	3503.78
414.26	3548.25
414.45	3609.11
414.64	3538.89
414.83	3669.96
415.02	3728.47
415.22	3875.93
415.41	3829.12
415.60	3735.50
415.79	3850.18
415.98	3922.74
416.17	3985.93
416.36	3929.76
416.55	3936.78
416.74	3974.23
416.93	4107.64
417.12	4067.85
417.31	4117.00
417.50	4105.30
417.69	4227.01
417.88	4250.41
418.07	4271.48
418.26	4224.67
418.45	4290.20
418.64	4447.02
418.83	4269.14
419.02	4372.12
419.21	4493.83
419.39	4444.68
419.58	4320.63
419.77	4332.33
419.96	4528.94
420.15	4678.73
420.34	4561.70
420.53	4468.08
420.72	4692.77
420.91	4739.58
421.10	4760.65
421.29	4671.71
421.48	4643.62
421.67	4755.97
421.86	4800.44
422.05	4655.33
422.24	4844.91
422.43	4865.97
422.61	4784.06
422.80	5020.45
422.99	4730.22
423.18	4812.14
423.37	5083.64
423.56	4760.65
423.75	4973.64
423.94	4781.71
424.13	4575.75
424.32	4641.28
424.50	4922.15
424.69	5034.49
424.88	5142.16
425.07	4875.34
425.26	4912.78
425.45	4823.84
425.64	4990.02
425.83	4999.38
426.01	4959.60
426.20	5032.15
426.39	5078.96
426.58	5034.49
426.77	5013.43
426.96	5210.03
427.15	5135.14
427.33	5041.51
427.52	5015.77
427.71	5163.22
427.90	5247.48
428.09	5231.10
428.28	5224.08
428.46	5394.93
428.65	5315.36
428.84	5572.82
429.03	5451.11
429.22	5303.65
429.40	5521.32
429.59	5504.94
429.78	5252.16
429.97	5268.55
430.16	5301.31
430.34	5497.92
430.53	5715.59
430.72	5605.58
430.91	5488.56
431.10	5439.40
431.28	5731.97
431.47	5729.63
431.66	5809.21
431.85	5687.50
432.03	5603.24
432.22	5785.80
432.41	5898.15
432.60	5867.72
432.79	5912.19
432.97	5905.17
433.16	5832.62
433.35	5968.37
433.54	6146.25
433.72	6118.16
433.91	6040.92
434.10	6150.93
434.28	5996.45
434.47	6066.67
434.66	6106.46
434.85	6331.15
435.03	6310.08
435.22	6125.18
435.41	6399.02
435.59	6277.32
435.78	6464.56
435.97	6333.49
436.16	6452.86
436.34	6293.70
436.53	6251.57
436.72	6637.76
436.90	6553.50
437.09	6586.27
437.28	6389.66
437.46	6499.67
437.65	6560.52
437.84	6684.57
438.02	6457.54
438.21	6729.04
438.40	6696.27
438.58	6885.86
438.77	6951.39
438.96	6909.26
439.14	6993.52
439.33	7080.12
439.52	7126.93
439.70	7002.88
439.89	7241.62
440.08	7145.66
440.26	7229.91
440.45	7140.97
440.63	7318.86
440.82	7398.43
441.01	7283.75
441.19	7517.80
441.38	7541.21
441.57	7548.23
441.75	7742.49
441.94	7691.00
442.12	7847.82
442.31	7911.01
442.50	7850.16
442.68	7646.53
442.87	7992.93
443.05	7969.52
443.24	8187.19
443.43	8133.36
443.61	8170.81
443.80	8411.89
443.98	8028.04
444.17	7810.37
444.35	8121.66
444.54	8250.39
444.73	8161.45
444.91	8194.22
445.10	8283.16
445.28	8269.11
445.47	8116.98
445.65	8287.84
445.84	8297.20
446.02	8442.31
446.21	8306.56
446.39	8180.17
446.58	8358.05
446.77	8262.09
446.95	8161.45
447.14	8549.98
447.32	8622.53
447.51	8510.19
447.69	8294.86
447.88	8299.54
448.06	8458.70
448.25	8599.13
448.43	8421.25
448.62	8638.92
448.80	8439.97
448.99	8706.79
449.17	8599.13
449.36	8561.68
449.54	8711.47
449.73	8767.65
449.91	9085.96
450.10	8779.35
450.28	9071.92
450.46	9067.24
450.65	9029.79
450.83	8954.89
451.02	8884.67
451.20	8961.91
451.39	9055.53
451.57	9266.18
451.76	8961.91
451.94	9198.31
452.13	9242.78
452.31	9235.75
452.49	9139.79
452.68	9350.44
452.86	9228.73
453.05	9224.05
453.23	9366.82
453.42	9446.40
453.60	9170.22
453.78	9465.13
453.97	9315.33
454.15	9462.79
454.34	9509.60
454.52	9734.29
454.70	9575.13
454.89	9710.88
455.07	9870.04
455.26	9626.62
455.44	9699.18
455.62	9582.15
455.81	9839.61
455.99	9949.62
456.17	9830.25
456.36	9830.25
456.54	9912.17
456.73	10001.11
456.91	10359.21
457.09	10190.69
457.28	10478.58
457.46	10183.67
457.64	10455.17
457.83	10621.35
458.01	10448.15
458.19	10609.65
458.38	10366.23
458.56	10576.88
458.74	10768.80
458.93	10621.35
459.11	10822.64
459.29	10759.44
459.48	10738.38
459.66	10743.06
459.84	10759.44
460.03	10881.15
460.21	10878.81
460.39	10862.43
460.57	10939.66
460.76	10981.79
460.94	10927.96
461.12	11098.82
461.31	11115.20
461.49	11140.95
461.67	11229.89
461.85	11281.38
462.04	11337.56
462.22	11730.76
462.40	11679.27
462.59	11213.51
462.77	11328.19
462.95	11634.80
463.13	11616.08
463.32	11330.53
463.50	11564.59
463.68	11712.04
463.86	11815.02
464.05	11534.16
464.23	11527.14
464.41	11775.24
464.59	11623.10
464.78	12159.08
464.96	11852.47
465.14	11564.59
465.32	11957.80
465.50	12084.19
465.69	11705.02
465.87	11913.33
466.05	11950.78
466.23	11943.75
466.41	11899.28
466.60	12505.48
466.78	12063.12
466.96	12252.70
467.14	12105.25
467.32	11918.01
467.51	12545.27
467.69	12187.17
467.87	12379.09
468.05	12411.86
468.23	12311.22
468.41	12564.00
468.60	12554.63
468.78	12725.49
468.96	12601.44
469.14	12505.48
469.32	12809.75
469.50	12659.96
469.69	12975.93
469.87	12905.71
470.05	12973.59
470.23	13048.49
470.41	12884.65
470.59	13043.81
470.77	12961.89
470.95	13261.48
471.14	13373.82
471.32	12952.52
471.50	13488.51
471.68	13664.05
471.86	13708.52
472.04	13549.36
472.22	13865.33
472.40	13532.98
472.58	13500.21
472.77	13886.40
472.95	14073.64
473.13	14398.98
473.31	13909.80
473.49	14008.11
473.67	14178.97
473.85	14127.47
474.03	14389.61
474.21	14101.73
474.39	14476.21
474.57	14476.21
474.75	14878.79
474.93	14803.89
475.12	14855.38
475.30	14984.11
475.48	14904.53
475.66	14902.19
475.84	14745.38
476.02	15365.62
476.20	15360.94
476.38	15487.32
476.56	16156.72
476.74	15815.00
476.92	15709.68
477.10	15393.70
477.28	15957.77
477.46	16011.60
477.64	16077.14
477.82	16285.45
478.00	16781.64
478.18	16645.89
478.36	16320.56
478.54	16704.40
478.72	16893.99
478.90	17221.66
479.08	17563.38
479.26	17378.48
479.44	17308.26
479.62	17853.61
479.80	17813.82
479.98	17987.02
480.16	18370.86
480.34	18101.70
480.52	18377.89
480.70	18623.64
480.88	18106.38
481.06	18693.86
481.24	18867.06
481.41	19019.19
481.59	19206.44
481.77	19147.92
481.95	19658.16
482.13	19644.12
482.31	19302.40
482.49	19992.86
482.67	19775.19
482.85	20107.54
483.03	20210.53
483.21	20678.63
483.39	20753.53
483.57	20760.55
483.74	21060.14
483.92	20900.98
484.10	20711.40
484.28	21338.66
484.46	21825.50
484.64	22108.70
484.82	22092.32
485.00	22284.24
485.18	22298.28
485.35	22714.90
485.53	22726.60
485.71	22899.80
485.89	23285.99
486.07	23098.75
486.25	23274.29
486.43	23370.25
486.61	23655.79
486.78	24011.56
486.96	24311.14
487.14	24067.73
487.32	24336.89
487.50	24587.33
487.68	24943.09
487.85	25092.88
488.03	25308.21
488.21	25427.58
488.39	25476.73
488.57	25823.13
488.75	25986.97
488.92	26230.38
489.10	26504.23
489.28	26902.12
489.46	27253.20
489.64	26670.40
489.81	27136.17
489.99	27084.68
490.17	27641.73
490.35	27625.34
490.53	27913.23
490.70	28044.30
490.88	27957.70
491.06	28751.14
491.24	28709.01
491.41	28950.09
491.59	28868.17
491.77	29219.25
491.95	29476.71
492.13	29710.76
492.30	29993.97
492.48	29818.42
492.66	29766.93
492.84	30050.14
493.01	30176.53
493.19	30403.56
493.37	30771.02
493.54	30960.61
493.72	31182.96
493.90	31058.91
494.08	31442.76
494.25	31901.50
494.43	31435.74
494.61	31711.92
494.79	32280.67
494.96	32481.95
495.14	32584.94
495.32	33362.00
495.49	32758.14
495.67	33024.96
495.85	33261.35
496.02	33476.68
496.20	33677.97
496.38	33600.73
496.55	33783.29
496.73	34588.44
496.91	34464.39
497.09	34326.30
497.26	34630.57
497.44	34771.00
497.62	35026.12
497.79	35171.23
497.97	34932.50
498.14	35388.90
498.32	36114.47
498.50	35894.46
498.67	36290.01
498.85	36364.90
499.03	36116.81
499.20	36198.73
499.38	36208.09
499.56	36486.61
499.73	36701.94
499.91	36631.72
500.08	37216.86
500.26	37125.58
500.44	37284.73
500.61	37340.91
500.79	37001.53
500.97	37783.27
501.14	38038.39
501.32	37890.93
501.49	37956.47
501.67	38274.78
501.84	38639.90
502.02	38607.14
502.20	38518.20
502.37	39117.37
502.55	38841.19
502.72	39260.15
502.90	38958.22
503.07	38955.88
503.25	39164.18
503.43	39709.53
503.60	39587.82
503.78	40226.79
503.95	39981.03
504.13	40568.51
504.30	40191.68
504.48	39924.86
504.65	40374.24
504.83	40554.46
505.01	41036.61
505.18	41141.94
505.36	41141.94
505.53	41130.23
505.71	40905.54
505.88	41558.55
506.06	41226.20
506.23	41776.22
506.41	41708.35
506.58	41560.89
506.76	41591.32
506.93	42267.73
507.11	41848.78
507.28	41926.02
507.46	42281.78
507.63	42380.08
507.81	42321.57
507.98	42316.89
508.16	42700.73
508.33	42981.60
508.50	43168.84
508.68	43189.91
508.85	43573.75
509.03	43714.19
509.20	43571.41
509.38	43878.02
509.55	43882.70
509.73	44594.23
509.90	44149.53
510.08	44210.38
510.25	44034.84
510.42	44624.65
510.60	44320.38
510.77	44952.33
510.95	45502.35
511.12	44673.81
511.30	45050.63
511.47	45186.38
511.64	45230.85
511.82	45333.84
511.99	45628.74
512.17	45745.77
512.34	45488.31
512.51	46136.64
512.69	45921.31
512.86	45998.55
513.04	46288.77
513.21	46089.83
513.38	46316.86
513.56	46504.10
513.73	46859.87
513.90	46894.97
514.08	46691.35
514.25	46789.65
514.43	47082.22
514.60	46986.25
514.77	46841.14
514.95	47405.21
515.12	47213.29
515.29	47234.35
515.47	47318.61
515.64	47419.25
515.81	47782.04
515.99	48011.41
516.16	47878.00
516.33	47852.25
516.51	48231.42
516.68	47889.70
516.85	48081.63
517.03	48523.99
517.20	48547.39
517.37	48421.00
517.54	48690.16
517.72	48753.36
517.89	48704.21
518.06	49268.28
518.24	49132.53
518.41	48910.17
518.58	49207.42
518.75	48961.67
518.93	49291.68
519.10	48900.81
519.27	49607.65
519.45	49303.38
519.62	49610.00
519.79	49755.11
519.96	49925.97
520.14	49998.52
520.31	49879.16
520.48	50021.93
520.65	49907.24
520.83	50188.11
521.00	50763.88
521.17	50286.41
521.34	50127.25
521.52	50387.05
521.69	50487.70
521.86	50532.17
522.03	50747.50
522.20	51126.66
522.38	51126.66
522.55	51086.87
522.72	51040.06
522.89	51192.20
523.07	51718.82
523.24	51351.35
523.41	51150.07
523.58	51168.79
523.75	51519.87
523.92	51306.88
524.10	51564.34
524.27	51728.18
524.44	51847.55
524.61	51952.87
524.78	51948.19
524.96	52210.33
525.13	51707.12
525.30	52212.67
525.47	52212.67
525.64	52112.03
525.81	52182.24
525.98	52278.21
526.16	52121.39
526.33	52446.72
526.50	52851.64
526.67	52467.79
526.84	52587.16
527.01	52362.46
527.18	52640.99
527.36	52669.08
527.53	52725.25
527.70	52975.69
527.87	52928.87
528.04	52875.04
528.21	53071.65
528.38	52928.87
528.55	52933.56
528.72	52949.94
528.89	52971.00
529.07	53050.58
529.24	53380.60
529.41	53621.67
529.58	53446.13
529.75	53404.00
529.92	53467.20
530.09	53724.66
530.26	53488.26
530.43	53839.34
530.60	53141.86
530.77	53560.82
530.94	53829.98
531.11	53780.83
531.28	53890.83
531.46	54080.42
531.63	54042.97
531.80	53811.26
531.97	54171.70
532.14	54211.49
532.31	54382.35
532.48	54522.78
532.65	54497.03
532.82	54234.89
532.99	54377.67
533.16	54232.55
533.33	54464.27
533.50	54700.66
533.67	54578.95
533.84	54501.71
534.01	54794.28
534.18	54564.91
534.35	54990.89
534.52	54915.99
534.69	55084.51
534.86	54859.82
535.03	55042.38
535.20	55023.65
535.37	54960.46
535.54	55196.85
535.71	54941.74
535.88	55075.15
536.05	54899.61
536.22	55440.27
536.38	55487.08
536.55	55377.08
536.72	55519.85
536.89	55128.98
537.06	55831.14
537.23	55622.83
537.40	55519.85
537.57	55515.17
537.74	55585.38
537.91	55636.87
538.08	55653.26
538.25	55407.50
538.42	55728.16
538.59	55856.88
538.75	55636.87
538.92	55655.60
539.09	55994.98
539.26	55913.06
539.43	55737.52
539.60	55987.95
539.77	55810.07
539.94	56334.35
540.11	55896.67
540.28	56388.19
540.44	56006.68
540.61	56095.62
540.78	56086.26
540.95	56076.90
541.12	56065.19
541.29	56205.62
541.46	56530.96
541.62	56346.06
541.79	56343.72
541.96	56072.21
542.13	56320.31
542.30	56507.55
542.47	56451.38
542.63	56364.78
542.80	56467.76
542.97	56992.04
543.14	56680.75
543.31	56755.65
543.48	56818.84
543.64	57219.08
543.81	57209.71
543.98	57282.27
544.15	56889.06
544.32	57403.98
544.48	57382.91
544.65	57013.11
544.82	57221.42
544.99	57050.56
545.16	57202.69
545.32	57244.82
545.49	57272.91
545.66	57558.45
545.83	57312.70
546.00	57471.85
546.16	57183.97
546.33	57387.60
546.50	57492.92
546.67	57504.62
546.83	57298.65
547.00	57598.24
547.17	57371.21
547.34	57588.88
547.50	57703.57
547.67	57879.11
547.84	57844.00
548.00	57659.10
548.17	57860.38
548.34	57883.79
548.51	57972.73
548.67	57951.66
548.84	57846.34
549.01	58010.18
549.18	57975.07
549.34	58092.10
549.51	58178.70
549.68	58106.14
549.84	57886.13
550.01	58080.39
550.18	58141.25
550.34	58333.17
550.51	58258.27
550.68	58262.96
550.84	58204.44
551.01	58183.38
551.18	58038.26
551.34	58379.98
551.51	58202.10
551.68	58508.71
551.84	58166.99
552.01	58410.41
552.18	58370.62
552.34	58255.93
552.51	58653.82
552.68	58379.98
552.84	58489.99
553.01	58763.83
553.18	58642.12
553.34	58644.46
553.51	58515.73
553.67	58677.23
553.84	58836.39
554.01	58796.60
554.17	58834.05
554.34	58695.95
554.51	58820.00
554.67	58958.09
554.84	58766.17
555.00	58784.90
555.17	58712.34
555.33	58904.26
555.50	58457.22
555.67	58616.38
555.83	58630.42
556.00	58976.82
556.16	59285.77
556.33	58981.50
556.50	59227.26
556.66	59168.74
556.83	59100.87
556.99	59540.89
557.16	59332.58
557.32	59262.36
557.49	59437.90
557.65	58990.86
557.82	59217.89
557.98	59135.98
558.15	59068.10
558.32	59360.67
558.48	59025.97
558.65	59316.20
558.81	59245.98
558.98	59299.81
559.14	59320.88
559.31	59416.84
559.47	59559.61
559.64	59508.12
559.80	59442.59
559.97	59515.14
560.13	59503.44
560.30	59367.69
560.46	59571.32
560.63	59412.16
560.79	59519.82
560.96	59561.95
561.12	59742.17
561.29	59564.29
561.45	59819.41
561.61	59395.77
561.78	59676.64
561.94	59501.10
562.11	59606.42
562.27	59662.60
562.44	59732.81
562.60	59753.88
562.77	59718.77
562.93	59653.23
563.10	59978.57
563.26	59653.23
563.42	59992.61
563.59	59987.93
563.75	59845.16
563.92	59821.75
564.08	59849.84
564.24	59810.05
564.41	59814.73
564.57	59884.95
564.74	59880.27
564.90	59814.73
565.07	59922.40
565.23	59887.29
565.39	59831.11
565.56	60041.76
565.72	59868.56
565.88	59798.35
566.05	59929.42
566.21	60219.64
566.38	59992.61
566.54	60055.81
566.70	59992.61
566.87	59999.63
567.03	59966.87
567.19	60420.93
567.36	59976.23
567.52	60034.74
567.68	60460.72
567.85	60200.92
568.01	60273.48
568.17	60163.47
568.34	60320.29
568.50	60203.26
568.66	60303.90
568.83	60191.56
568.99	60140.07
569.15	60250.07
569.32	60200.92
569.48	60023.04
569.64	60285.18
569.81	60186.88
569.97	60119.00
570.13	60275.82
570.30	60074.53
570.46	60161.13
570.62	60259.43
570.78	60111.98
570.95	60156.45
571.11	60619.88
571.27	60268.79
571.43	60268.79
571.60	60381.14
571.76	60392.84
571.92	60357.74
572.09	60346.03
572.25	60303.90
572.41	60512.21
572.57	60236.03
572.74	60439.65
572.90	60360.08
573.06	60582.43
573.22	60500.51
573.38	60346.03
573.55	60371.78
573.71	60514.55
573.87	60441.99
574.03	60465.40
574.20	60610.51
574.36	60322.63
574.52	60619.88
574.68	60657.32
574.84	60727.54
575.01	60673.71
575.17	60308.58
575.33	60493.49
575.49	60257.09
575.65	60509.87
575.82	60486.46
575.98	60776.69
576.14	60893.72
576.30	60559.02
576.46	60367.10
576.62	60537.96
576.79	60615.19
576.95	60413.91
577.11	60535.62
577.27	60837.54
577.43	60626.90
577.59	60664.35
577.75	60559.02
577.92	60671.37
578.08	60671.37
578.24	60727.54
578.40	60795.42
578.56	60662.00
578.72	60898.40
578.88	60781.37
579.04	60917.12
579.21	60662.00
579.37	60837.54
579.53	60507.53
579.69	60563.70
579.85	60472.42
580.01	60612.85
580.17	60420.93
580.33	60636.26
580.49	60992.02
580.65	60645.62
580.82	60739.24
580.98	60638.60
581.14	60505.19
581.30	60973.30
581.46	60720.52
581.62	60559.02
581.78	60626.90
581.94	60783.71
582.10	60708.82
582.26	60821.16
582.42	60692.43
582.58	60788.39
582.74	60694.77
582.90	60633.92
583.06	60860.95
583.22	60409.23
583.38	60715.84
583.54	60793.07
583.70	60502.85
583.86	60762.65
584.02	60673.71
584.18	60811.80
584.34	60966.27
584.50	60694.77
584.66	60638.60
584.82	60673.71
584.98	60987.34
585.14	60762.65
585.30	60776.69
585.46	60757.97
585.62	60884.36
585.78	61022.45
585.94	60732.22
586.10	60762.65
586.26	60856.27
586.42	60919.46
586.58	60985.00
586.74	60767.33
586.90	60636.26
587.06	60722.86
587.22	60790.73
587.38	60910.10
587.54	60844.57
587.70	60961.59
587.86	60769.67
588.02	60828.18
588.18	60917.12
588.34	60949.89
588.49	60926.49
