SpectraSuite Data File
++++++++++++++++++++++++++++++++++++
Date: Fri Oct 25 10:47:44 EDT 2013
User: price-jones
Dark Spectrum Present: No
Reference Spectrum Present: No
Number of Sampled Component Spectra: 1
Spectrometers: USB2+H05261
Integration Time (usec): 100000 (USB2+H05261)
Spectra Averaged: 1 (USB2+H05261)
Boxcar Smoothing: 0 (USB2+H05261)
Correct for Electrical Dark: No (USB2+H05261)
Strobe/Lamp Enabled: No (USB2+H05261)
Correct for Detector Non-linearity: No (USB2+H05261)
Correct for Stray Light: No (USB2+H05261)
Number of Pixels in Processed Spectrum: 2048
>>>>>Begin Processed Spectral Data<<<<<
365.73	224.69
365.92	224.69
366.12	224.69
366.32	100.64
366.52	25.75
366.72	77.24
366.91	32.77
367.11	30.43
367.31	46.81
367.51	18.72
367.70	39.79
367.90	53.83
368.10	14.04
368.30	0.00
368.49	0.00
368.69	107.66
368.89	4.68
369.09	28.09
369.28	28.09
369.48	28.09
369.68	44.47
369.87	112.35
370.07	28.09
370.27	191.92
370.47	191.92
370.66	325.33
370.86	442.36
371.06	456.40
371.25	507.90
371.45	416.62
371.65	491.51
371.84	402.57
372.04	456.40
372.24	535.98
372.44	407.25
372.63	503.22
372.83	484.49
373.03	433.00
373.22	486.83
373.42	545.34
373.62	547.69
373.81	603.86
374.01	524.28
374.21	587.47
374.40	507.90
374.60	580.45
374.79	500.87
374.99	599.18
375.19	538.32
375.38	561.73
375.58	599.18
375.78	631.94
375.97	636.63
376.17	615.56
376.37	578.11
376.56	564.07
376.76	599.18
376.95	521.94
377.15	613.22
377.35	601.52
377.54	592.16
377.74	528.96
377.93	610.88
378.13	613.22
378.33	655.35
378.52	589.82
378.72	657.69
378.91	662.37
379.11	578.11
379.31	650.67
379.50	648.33
379.70	657.69
379.89	690.46
380.09	585.13
380.28	587.47
380.48	568.75
380.68	634.29
380.87	601.52
381.07	622.58
381.26	669.39
381.46	653.01
381.65	664.71
381.85	695.14
382.04	641.31
382.24	641.31
382.43	706.84
382.63	695.14
382.83	685.78
383.02	709.18
383.22	734.93
383.41	727.91
383.61	669.39
383.80	669.39
384.00	755.99
384.19	727.91
384.39	725.57
384.58	683.44
384.78	744.29
384.97	716.20
385.17	805.14
385.36	720.88
385.56	713.86
385.75	760.67
385.95	774.72
386.14	793.44
386.34	816.85
386.53	798.12
386.72	751.31
386.92	786.42
387.11	805.14
387.31	748.97
387.50	781.74
387.70	781.74
387.89	798.12
388.09	814.51
388.28	798.12
388.48	830.89
388.67	816.85
388.86	844.93
389.06	842.59
389.25	793.44
389.45	919.83
389.64	809.83
389.84	968.98
390.03	936.21
390.22	938.55
390.42	910.47
390.61	802.80
390.81	823.87
391.00	1001.75
391.19	997.07
391.39	952.60
391.58	1034.52
391.78	1027.50
391.97	945.58
392.16	999.41
392.36	1034.52
392.55	992.39
392.75	1001.75
392.94	961.96
393.13	1013.45
393.33	973.66
393.52	945.58
393.71	987.71
393.91	1034.52
394.10	987.71
394.29	1006.43
394.49	994.73
394.68	1018.13
394.88	1048.56
395.07	1041.54
395.26	1078.99
395.46	1151.54
395.65	1090.69
395.84	1130.48
396.04	1165.59
396.23	1029.84
396.42	1036.86
396.62	1093.03
396.81	1104.73
397.00	1249.85
397.19	1198.35
397.39	1121.12
397.58	1224.10
397.77	1242.82
397.97	1139.84
398.16	1203.04
398.35	1259.21
398.55	1289.64
398.74	1261.55
398.93	1294.32
399.12	1287.29
399.32	1383.26
399.51	1228.78
399.70	1437.09
399.90	1329.42
400.09	1392.62
400.28	1476.88
400.47	1345.81
400.67	1467.52
400.86	1348.15
401.05	1441.77
401.24	1437.09
401.44	1448.79
401.63	1511.99
401.82	1439.43
402.01	1432.41
402.21	1493.26
402.40	1493.26
402.59	1497.94
402.78	1455.81
402.97	1570.50
403.17	1540.07
403.36	1572.84
403.55	1455.81
403.74	1605.61
403.93	1584.54
404.13	1755.40
404.32	1575.18
404.51	1589.22
404.70	1621.99
404.89	1678.16
405.09	1685.19
405.28	1724.97
405.47	1834.98
405.66	1689.87
405.85	1710.93
406.05	1732.00
406.24	1846.68
406.43	1741.36
406.62	1858.39
406.81	1849.02
407.00	1827.96
407.20	1795.19
407.39	1790.51
407.58	1891.15
407.77	1820.94
407.96	1844.34
408.15	1884.13
408.34	1886.47
408.54	1949.67
408.73	2057.33
408.92	1970.73
409.11	2015.20
409.30	2012.86
409.49	2087.76
409.68	2008.18
409.87	1963.71
410.07	1970.73
410.26	2148.61
410.45	2019.88
410.64	2225.85
410.83	2129.89
411.02	2296.07
411.21	2211.81
411.40	2246.91
411.59	2190.74
411.78	2312.45
411.98	2368.62
412.17	2352.24
412.36	2289.04
412.55	2385.01
412.74	2473.95
412.93	2441.18
413.12	2363.94
413.31	2478.63
413.50	2396.71
413.69	2565.23
413.88	2527.78
414.07	2581.61
414.26	2513.74
414.45	2546.50
414.64	2621.40
414.83	2492.67
415.02	2609.70
415.22	2705.66
415.41	2731.41
415.60	2675.23
415.79	2778.22
415.98	2825.03
416.17	2731.41
416.36	2843.75
416.55	2780.56
416.74	2848.43
416.93	2857.79
417.12	2895.24
417.31	2988.86
417.50	2810.98
417.69	3002.91
417.88	3059.08
418.07	2988.86
418.26	3028.65
418.45	3066.10
418.64	3220.58
418.83	3077.80
419.02	3016.95
419.21	3173.77
419.39	3131.64
419.58	3269.73
419.77	3171.43
419.96	3243.98
420.15	3258.03
420.34	3178.45
420.53	3253.34
420.72	3260.37
420.91	3363.35
421.10	3302.50
421.29	3466.33
421.48	3293.13
421.67	3330.58
421.86	3311.86
422.05	3391.44
422.24	3351.65
422.43	3300.16
422.61	3431.23
422.80	3494.42
422.99	3489.74
423.18	3499.10
423.37	3501.44
423.56	3445.27
423.75	3496.76
423.94	3442.93
424.13	3342.28
424.32	3349.31
424.50	3442.93
424.69	3435.91
424.88	3595.06
425.07	3431.23
425.26	3445.27
425.45	3461.65
425.64	3482.72
425.83	3604.42
426.01	3688.68
426.20	3609.11
426.39	3550.59
426.58	3538.89
426.77	3550.59
426.96	3609.11
427.15	3545.91
427.33	3630.17
427.52	3698.05
427.71	3669.96
427.90	3684.00
428.09	3641.87
428.28	3749.54
428.46	3688.68
428.65	3726.13
428.84	3791.67
429.03	3836.14
429.22	3768.26
429.40	3763.58
429.59	3707.41
429.78	3644.21
429.97	3487.40
430.16	3819.75
430.34	3817.41
430.53	3805.71
430.72	3798.69
430.91	3845.50
431.10	3836.14
431.28	4009.34
431.47	4117.00
431.66	4060.83
431.85	4037.42
432.03	4264.46
432.22	4053.81
432.41	4084.23
432.60	4030.40
432.79	4145.09
432.97	4189.56
433.16	4269.14
433.35	4133.39
433.54	4070.19
433.72	4234.03
433.91	4208.28
434.10	4161.47
434.28	4283.18
434.47	4374.46
434.66	4379.14
434.85	4334.67
435.03	4341.69
435.22	4437.66
435.41	4491.49
435.59	4440.00
435.78	4538.30
435.97	4414.25
436.16	4582.77
436.34	4500.85
436.53	4475.10
436.72	4676.39
436.90	4552.34
437.09	4589.79
437.28	4535.96
437.46	4472.76
437.65	4744.27
437.84	4601.49
438.02	4688.09
438.21	4793.42
438.40	4725.54
438.58	4784.06
438.77	4784.06
438.96	4847.25
439.14	4863.63
439.33	4997.04
439.52	4999.38
439.70	4861.29
439.89	5022.79
440.08	5226.42
440.26	5067.26
440.45	5001.72
440.63	5041.51
440.82	5336.42
441.01	5303.65
441.19	5240.46
441.38	5273.23
441.57	5352.81
441.75	5460.47
441.94	5483.88
442.12	5579.84
442.31	5643.03
442.50	5664.10
442.68	5591.54
442.87	5640.69
443.05	5748.36
443.24	5720.27
443.43	5731.97
443.61	5654.73
443.80	5937.94
443.98	5598.56
444.17	5715.59
444.35	5753.04
444.54	5919.21
444.73	5795.17
444.91	5774.10
445.10	5771.76
445.28	5647.71
445.47	5717.93
445.65	5746.02
445.84	5767.08
446.02	5788.14
446.21	5980.07
446.39	5797.51
446.58	5914.53
446.77	5856.02
446.95	5680.48
447.14	5991.77
447.32	5980.07
447.51	5860.70
447.69	5771.76
447.88	5884.11
448.06	5881.77
448.25	5970.71
448.43	6148.59
448.62	5966.03
448.80	6045.60
448.99	6153.27
449.17	6108.80
449.36	6017.52
449.54	6090.07
449.73	6274.98
449.91	6366.26
450.10	6354.55
450.28	6279.66
450.46	6312.42
450.65	6333.49
450.83	6118.16
451.02	6282.00
451.20	6406.05
451.39	6502.01
451.57	6324.13
451.76	6242.21
451.94	6389.66
452.13	6476.26
452.31	6359.24
452.49	6506.69
452.68	6471.58
452.86	6321.79
453.05	6628.40
453.23	6696.27
453.42	6443.49
453.60	6389.66
453.78	6654.14
453.97	6459.88
454.15	6586.27
454.34	6471.58
454.52	6607.33
454.70	6698.61
454.89	6597.97
455.07	6644.78
455.26	6796.92
455.44	6754.79
455.62	6752.45
455.81	6864.79
455.99	6923.30
456.17	7140.97
456.36	7000.54
456.54	7124.59
456.73	6986.50
456.91	7190.13
457.09	7059.06
457.28	7323.54
457.46	7045.01
457.64	7288.43
457.83	7236.94
458.01	7094.16
458.19	7328.22
458.38	7030.97
458.56	7456.95
458.74	7410.14
458.93	7342.26
459.11	7339.92
459.29	7449.93
459.48	7527.16
459.66	7339.92
459.84	7445.24
460.03	7555.25
460.21	7506.10
460.39	7611.42
460.57	7398.43
460.76	7581.00
460.94	7707.38
461.12	7590.36
461.31	7639.51
461.49	7719.09
461.67	7667.60
461.85	7796.32
462.04	7751.85
462.22	8332.31
462.40	7896.97
462.59	7969.52
462.77	7871.22
462.95	7817.39
463.13	7803.35
463.32	7833.77
463.50	7960.16
463.68	8100.59
463.86	7913.35
464.05	7971.86
464.23	7997.61
464.41	8159.11
464.59	8039.74
464.78	8072.51
464.96	8280.82
465.14	7925.05
465.32	8102.93
465.50	8173.15
465.69	8400.18
465.87	8210.60
466.05	8327.63
466.23	8217.62
466.41	8248.05
466.60	8238.69
466.78	8294.86
466.96	8147.40
467.14	8376.78
467.32	8458.70
467.51	8444.65
467.69	8128.68
467.87	8379.12
468.05	8390.82
468.23	8266.77
468.41	8533.59
468.60	8257.41
468.78	8542.96
468.96	8760.63
469.14	8648.28
469.32	8685.73
469.50	8542.96
469.69	8709.13
469.87	8793.39
470.05	8786.37
470.23	8727.86
470.41	8816.80
470.59	8964.25
470.77	8816.80
470.95	9013.40
471.14	9146.81
471.32	8919.78
471.50	9219.37
471.68	9294.27
471.86	9312.99
472.04	9327.03
472.22	9399.59
472.40	9184.26
472.58	9458.10
472.77	9359.80
472.95	9495.55
473.13	9816.21
473.31	9305.97
473.49	9530.66
473.67	9423.00
473.85	9521.30
474.03	9860.68
474.21	9673.43
474.39	9804.50
474.57	10064.30
474.75	10164.95
474.93	9914.51
475.12	10345.17
475.30	10139.20
475.48	9970.68
475.66	10223.46
475.84	10054.94
476.02	10319.42
476.20	10312.40
476.38	10626.03
476.56	10771.15
476.74	10684.55
476.92	10516.03
477.10	10789.87
477.28	10953.71
477.46	10829.66
477.64	10911.58
477.82	11075.42
478.00	11159.67
478.18	11274.36
478.36	11370.32
478.54	11372.66
478.72	11403.09
478.90	11417.13
479.08	11712.04
479.26	11847.79
479.44	11761.19
479.62	12067.80
479.80	11920.35
479.98	11854.81
480.16	12152.06
480.34	12210.57
480.52	12418.88
480.70	12159.08
480.88	12133.34
481.06	12416.54
481.24	12517.18
481.41	12767.62
481.59	12671.66
481.77	12919.76
481.95	12915.08
482.13	13158.49
482.31	13121.04
482.49	13390.20
482.67	13413.61
482.85	13249.77
483.03	13666.39
483.21	13760.01
483.39	13500.21
483.57	13774.05
483.74	13947.25
483.92	14181.31
484.10	13944.91
484.28	14375.57
484.46	14324.08
484.64	14860.06
484.82	14565.15
485.00	14841.34
485.18	14927.94
485.35	15066.03
485.53	15021.56
485.71	15143.27
485.89	15213.48
486.07	14906.87
486.25	15246.25
486.43	15587.97
486.61	15590.31
486.78	15726.06
486.96	15857.13
487.14	16093.52
487.32	16112.25
487.50	16177.78
487.68	16425.88
487.85	16599.08
488.03	16704.40
488.21	16772.28
488.39	17083.57
488.57	17273.15
488.75	17060.16
488.92	17319.96
489.10	17392.52
489.28	17736.58
489.46	17951.91
489.64	17731.90
489.81	18127.45
489.99	18169.58
490.17	18176.60
490.35	18712.58
490.53	18368.52
490.70	18785.14
490.88	18871.74
491.06	19054.30
491.24	18616.62
491.41	18927.91
491.59	19066.00
491.77	19023.87
491.95	19302.40
492.13	19302.40
492.30	19697.95
492.48	19695.61
492.66	19906.26
492.84	19697.95
493.01	20105.20
493.19	20020.94
493.37	20194.14
493.54	20393.09
493.72	20444.58
493.90	20783.96
494.08	20695.02
494.25	21198.23
494.43	20891.62
494.61	21816.13
494.79	21408.88
494.96	21362.07
495.14	21455.69
495.32	21654.64
495.49	21607.83
495.67	21619.53
495.85	21996.35
496.02	21851.24
496.20	22331.05
496.38	21907.41
496.55	22174.24
496.73	22640.00
496.91	22586.17
497.09	22815.54
497.26	22661.07
497.44	22761.71
497.62	22955.97
497.79	23388.97
497.97	22981.72
498.14	23538.77
498.32	23459.19
498.50	23456.85
498.67	23520.04
498.85	23550.47
499.03	23988.15
499.20	24091.13
499.38	23985.81
499.56	24067.73
499.73	24491.37
499.91	24257.31
500.08	24397.74
500.26	24137.94
500.44	24505.41
500.61	24659.88
500.79	24159.01
500.97	24528.81
501.14	25142.03
501.32	24823.72
501.49	24730.10
501.67	24973.52
501.84	24943.09
502.02	25240.34
502.20	25469.71
502.37	25610.14
502.55	25535.24
502.72	25500.14
502.90	25336.30
503.07	25549.29
503.25	25689.72
503.43	25867.60
503.60	26101.65
503.78	25788.02
503.95	26153.15
504.13	26263.15
504.30	26258.47
504.48	26412.95
504.65	26244.43
504.83	26747.64
505.01	26728.92
505.18	26398.90
505.36	26838.92
505.53	26567.42
505.71	26998.08
505.88	27417.04
506.06	27028.51
506.23	27307.03
506.41	27309.37
506.58	27571.51
506.76	27278.94
506.93	27615.98
507.11	27487.25
507.28	27587.89
507.46	27735.35
507.63	27894.50
507.81	27938.97
507.98	27840.67
508.16	28130.90
508.33	27957.70
508.50	28212.82
508.68	28496.02
508.85	28421.13
509.03	28720.71
509.20	28636.45
509.38	28903.28
509.55	28669.22
509.73	28648.16
509.90	28531.13
510.08	28980.51
510.25	28725.39
510.42	29422.87
510.60	29151.37
510.77	29441.60
510.95	29357.34
511.12	29411.17
511.30	29680.33
511.47	29462.66
511.64	29572.67
511.82	29923.75
511.99	29809.06
512.17	29818.42
512.34	29823.11
512.51	30258.45
512.69	30387.18
512.86	30455.05
513.04	30024.39
513.21	30586.12
513.38	30195.25
513.56	30487.82
513.73	30256.11
513.90	30534.63
514.08	30422.28
514.25	30520.59
514.43	30726.55
514.60	30988.69
514.77	30618.89
514.95	31271.90
515.12	30927.84
515.29	31051.89
515.47	31477.86
515.64	31405.31
515.81	31658.09
515.99	31096.36
516.16	31814.90
516.33	31370.20
516.51	31578.51
516.68	31281.26
516.85	31227.43
517.03	31775.11
517.20	31644.04
517.37	32016.19
517.54	32147.26
517.72	32292.37
517.89	32320.46
518.06	32109.81
518.24	31615.96
518.41	31756.39
518.58	32210.45
518.75	32287.69
518.93	32240.88
519.10	32390.67
519.27	32608.34
519.45	32421.10
519.62	32816.65
519.79	32603.66
519.96	32797.93
520.14	33092.83
520.31	32842.40
520.48	33074.11
520.65	32732.39
520.83	33132.62
521.00	33766.91
521.17	33223.90
521.34	33350.29
521.52	33385.40
521.69	33589.03
521.86	34117.99
522.03	34185.86
522.20	33696.69
522.38	34237.36
522.55	34125.01
522.72	33982.24
522.89	34108.63
523.07	33762.23
523.24	34052.45
523.41	34256.08
523.58	34230.33
523.75	34298.21
523.92	34270.12
524.10	34253.74
524.27	34909.09
524.44	35009.73
524.61	34888.03
524.78	34677.38
524.96	34787.38
525.13	35072.93
525.30	35335.07
525.47	35531.67
525.64	35285.92
525.81	35206.34
525.98	35019.10
526.16	35035.48
526.33	35021.44
526.50	35229.74
526.67	35119.74
526.84	35314.00
527.01	35519.97
527.18	35234.42
527.36	35655.72
527.53	35974.03
527.70	36369.58
527.87	36081.70
528.04	35924.88
528.21	35931.90
528.38	36222.13
528.55	36140.21
528.72	35959.99
528.89	36671.51
529.07	36411.71
529.24	36430.44
529.41	36154.26
529.58	36208.09
529.75	35995.10
529.92	36641.09
530.09	36264.26
530.26	36556.83
530.43	36704.28
530.60	36271.28
530.77	36552.15
530.94	37205.16
531.11	36779.18
531.28	36825.99
531.46	37062.38
531.63	37120.90
531.80	37352.61
531.97	36765.14
532.14	37017.91
532.31	36987.49
532.48	37315.16
532.65	37385.38
532.82	37462.61
532.99	37626.45
533.16	37113.87
533.33	37015.57
533.50	38066.47
533.67	37099.83
533.84	37361.97
534.01	37347.93
534.18	37769.22
534.35	37799.65
534.52	37347.93
534.69	37378.36
534.86	37581.98
535.03	37717.73
535.20	37603.05
535.37	38363.72
535.54	38129.67
535.71	38302.87
535.88	38349.68
536.05	38167.12
536.22	38539.26
536.38	38286.48
536.55	38803.74
536.72	38749.91
536.89	37897.95
537.06	38127.33
537.23	38487.77
537.40	38368.40
537.57	38735.87
537.74	38485.43
537.91	39133.76
538.08	38579.05
538.25	38377.76
538.42	38541.60
538.59	38799.06
538.75	38307.55
538.92	38939.49
539.09	39431.01
539.26	39016.73
539.43	39175.89
539.60	39257.81
539.77	39262.49
539.94	39222.70
540.11	39061.20
540.28	38773.31
540.44	39243.76
540.61	39407.60
540.78	39203.97
540.95	39103.33
541.12	39328.02
541.29	39466.11
541.46	39536.33
541.62	39400.58
541.79	39625.27
541.96	39447.39
542.13	39346.75
542.30	39342.06
542.47	39615.91
542.63	39608.89
542.80	39723.57
542.97	40493.61
543.14	39784.43
543.31	40718.30
543.48	40479.57
543.64	40409.35
543.81	40451.48
543.98	40428.07
544.15	39971.67
544.32	40432.75
544.48	41024.91
544.65	40399.99
544.82	40481.91
544.99	40238.49
545.16	40542.76
545.32	40760.43
545.49	40542.76
545.66	40947.67
545.83	41055.34
546.00	41607.70
546.16	41102.15
546.33	40861.07
546.50	40561.48
546.67	40643.40
546.83	40360.20
547.00	41212.15
547.17	41069.38
547.34	40722.98
547.50	41310.46
547.67	41446.21
547.84	40999.16
548.00	40987.46
548.17	41399.40
548.34	41214.49
548.51	41411.10
548.67	41518.76
548.84	41359.61
549.01	41476.63
549.18	41221.52
549.34	41450.89
549.51	41303.43
549.68	41804.31
549.84	41617.07
550.01	41808.99
550.18	41305.77
550.34	41720.05
550.51	41656.85
550.68	41855.80
550.84	41443.87
551.01	41476.63
551.18	41205.13
551.34	42143.69
551.51	42333.27
551.68	41911.97
551.84	41923.68
552.01	41684.94
552.18	42249.01
552.34	41951.76
552.51	41914.31
552.68	42216.24
552.84	42141.35
553.01	42572.00
553.18	42270.08
553.34	41926.02
553.51	42101.56
553.67	42291.14
553.84	42581.37
554.01	42469.02
554.17	43077.56
554.34	42607.11
554.51	42539.24
554.67	42951.17
554.84	42511.15
555.00	42401.14
555.17	41862.82
555.33	42471.36
555.50	42560.30
555.67	42941.81
555.83	42588.39
556.00	42721.80
556.16	42958.19
556.33	42916.06
556.50	42806.06
556.66	42951.17
556.83	42618.81
556.99	43194.59
557.16	43206.29
557.32	43201.61
557.49	42859.89
557.65	42932.45
557.82	42913.72
557.98	42880.95
558.15	42944.15
558.32	43028.41
558.48	43110.33
558.65	43084.58
558.81	43084.58
558.98	43030.75
559.14	43299.91
559.31	43351.40
559.47	43122.03
559.64	43606.52
559.80	43840.57
559.97	43515.24
560.13	42920.74
560.30	42887.98
560.46	43363.11
560.63	43426.30
560.79	43409.92
560.96	43894.41
561.12	43529.28
561.29	43320.98
561.45	43072.88
561.61	43248.42
561.78	43625.25
561.94	43236.72
562.11	43459.07
562.27	43482.47
562.44	43243.74
562.60	43737.59
562.77	43917.81
562.93	43620.56
563.10	43739.93
563.26	43217.99
563.42	43859.30
563.59	43540.99
563.75	43426.30
563.92	43658.01
564.08	43653.33
564.24	43889.73
564.41	43917.81
564.57	43454.39
564.74	43594.82
564.90	43779.72
565.07	43789.08
565.23	43562.05
565.39	43435.66
565.56	43892.07
565.72	43959.94
565.88	43468.43
566.05	43819.51
566.21	43943.56
566.38	43583.12
566.54	43889.73
566.70	43959.94
566.87	44505.29
567.03	43917.81
567.19	44460.82
567.36	43995.05
567.52	43950.58
567.68	43629.93
567.85	44133.14
568.01	43962.28
568.17	43569.07
568.34	43927.17
568.50	44053.56
568.66	43775.04
568.83	44116.76
568.99	43826.53
569.15	44095.69
569.32	43697.80
569.48	43517.58
569.64	43988.03
569.81	44261.87
569.97	43849.94
570.13	43927.17
570.30	43721.21
570.46	44020.80
570.62	43901.43
570.78	43562.05
570.95	44002.07
571.11	43819.51
571.27	44285.28
571.43	44282.94
571.60	44435.07
571.76	43988.03
571.92	44072.29
572.09	44020.80
572.25	44184.63
572.41	44154.21
572.57	44460.82
572.74	44856.37
572.90	44119.10
573.06	44208.04
573.22	44114.42
573.38	44559.12
573.55	43562.05
573.71	44449.11
573.87	44102.71
574.03	44072.29
574.20	44406.98
574.36	44371.88
574.52	44140.16
574.68	44109.74
574.84	44406.98
575.01	44348.47
575.17	44704.23
575.33	44217.40
575.49	43981.01
575.65	44261.87
575.82	44933.60
575.98	44346.13
576.14	44488.90
576.30	44451.45
576.46	43819.51
576.62	44697.21
576.79	44254.85
576.95	43779.72
577.11	44334.43
577.27	44121.44
577.43	44186.97
577.59	44725.30
577.75	44268.89
577.92	44020.80
578.08	44013.77
578.24	44308.68
578.40	44172.93
578.56	44109.74
578.72	44521.67
578.88	44657.42
579.04	44435.07
579.21	44357.83
579.37	44212.72
579.53	44325.07
579.69	44636.36
579.85	44186.97
580.01	44388.26
580.17	44816.58
580.33	44907.86
580.49	44622.31
580.65	44528.69
580.82	44568.48
580.98	44481.88
581.14	44186.97
581.30	44669.12
581.46	44383.58
581.62	44519.33
581.78	44772.11
581.94	44938.29
582.10	44388.26
582.26	44622.31
582.42	44528.69
582.58	44320.38
582.74	44268.89
582.90	44729.98
583.06	44442.09
583.22	44512.31
583.38	44781.47
583.54	44432.73
583.70	44631.68
583.86	44395.28
584.02	44144.84
584.18	44222.08
584.34	44135.48
584.50	45017.86
584.66	44657.42
584.82	44687.85
584.98	44568.48
585.14	44163.57
585.30	44275.91
585.46	44652.74
585.62	44205.70
585.78	44304.00
585.94	43716.53
586.10	44133.14
586.26	44563.80
586.42	44392.94
586.58	44615.29
586.74	44411.67
586.90	44329.75
587.06	44418.69
587.22	44985.10
587.38	44112.08
587.54	44755.72
587.70	44439.75
587.86	44584.86
588.02	44561.46
588.18	44938.29
588.34	44776.79
588.49	44732.32
588.65	44186.97
588.81	44154.21
588.97	44444.43
589.13	44292.30
589.29	44659.76
589.45	44772.11
589.61	44875.09
589.77	44779.13
589.93	44531.03
590.08	44697.21
590.24	44790.83
