SpectraSuite Data File
++++++++++++++++++++++++++++++++++++
Date: Fri Oct 25 11:22:41 EDT 2013
User: price-jones
Dark Spectrum Present: No
Reference Spectrum Present: No
Number of Sampled Component Spectra: 1
Spectrometers: USB2+H05261
Integration Time (usec): 100000 (USB2+H05261)
Spectra Averaged: 1 (USB2+H05261)
Boxcar Smoothing: 0 (USB2+H05261)
Correct for Electrical Dark: No (USB2+H05261)
Strobe/Lamp Enabled: No (USB2+H05261)
Correct for Detector Non-linearity: No (USB2+H05261)
Correct for Stray Light: No (USB2+H05261)
Number of Pixels in Processed Spectrum: 2048
>>>>>Begin Processed Spectral Data<<<<<
365.73	203.63
365.92	203.63
366.12	203.63
366.32	145.11
366.52	135.75
366.72	182.56
366.91	100.64
367.11	88.94
367.31	126.39
367.51	175.54
367.70	191.92
367.90	163.84
368.10	95.96
368.30	79.58
368.49	131.07
368.69	133.41
368.89	138.09
369.09	49.15
369.28	161.50
369.48	149.79
369.68	201.29
369.87	147.45
370.07	220.01
370.27	264.48
370.47	283.20
370.66	627.26
370.86	615.56
371.06	657.69
371.25	763.01
371.45	603.86
371.65	617.90
371.84	713.86
372.04	713.86
372.24	711.52
372.44	697.48
372.63	706.84
372.83	730.25
373.03	795.78
373.22	723.23
373.42	755.99
373.62	737.27
373.81	767.70
374.01	835.57
374.21	795.78
374.40	774.72
374.60	875.36
374.79	795.78
374.99	840.25
375.19	873.02
375.38	887.06
375.58	898.77
375.78	835.57
375.97	854.30
376.17	947.92
376.37	788.76
376.56	903.45
376.76	866.00
376.95	830.89
377.15	901.11
377.35	884.72
377.54	959.62
377.74	866.00
377.93	917.49
378.13	779.40
378.33	950.26
378.52	891.74
378.72	1001.75
378.91	985.37
379.11	952.60
379.31	912.81
379.50	976.00
379.70	1018.13
379.89	945.58
380.09	968.98
380.28	912.81
380.48	1018.13
380.68	931.53
380.87	945.58
381.07	1004.09
381.26	1011.11
381.46	999.41
381.65	1011.11
381.85	1048.56
382.04	992.39
382.24	1125.80
382.43	1069.62
382.63	1043.88
382.83	1027.50
383.02	1090.69
383.22	1186.65
383.41	1125.80
383.61	1100.05
383.80	1170.27
384.00	1100.05
384.19	1107.07
384.39	1086.01
384.58	1198.35
384.78	1109.41
384.97	1240.48
385.17	1188.99
385.36	1167.93
385.56	1212.40
385.75	1139.84
385.95	1146.86
386.14	1198.35
386.34	1163.25
386.53	1177.29
386.72	1118.78
386.92	1254.53
387.11	1200.69
387.31	1193.67
387.50	1193.67
387.70	1331.76
387.89	1331.76
388.09	1303.68
388.28	1224.10
388.48	1336.45
388.67	1238.14
388.86	1327.08
389.06	1420.71
389.25	1338.79
389.45	1380.92
389.64	1294.32
389.84	1378.58
390.03	1348.15
390.22	1320.06
390.42	1313.04
390.61	1364.53
390.81	1385.60
391.00	1313.04
391.19	1481.56
391.39	1488.58
391.58	1519.01
391.78	1467.52
391.97	1481.56
392.16	1441.77
392.36	1500.28
392.55	1572.84
392.75	1558.80
392.94	1558.80
393.13	1570.50
393.33	1486.24
393.52	1521.35
393.71	1556.46
393.91	1645.40
394.10	1565.82
394.29	1568.16
394.49	1448.79
394.68	1671.14
394.88	1661.78
395.07	1633.69
395.26	1689.87
395.46	1661.78
395.65	1837.32
395.84	1610.29
396.04	1853.70
396.23	1654.76
396.42	1755.40
396.62	1795.19
396.81	1771.79
397.00	1832.64
397.19	1834.98
397.39	1884.13
397.58	1781.15
397.77	1900.52
397.97	1867.75
398.16	1879.45
398.35	1898.17
398.55	1874.77
398.74	1935.62
398.93	1905.20
399.12	1902.86
399.32	1895.83
399.51	1973.07
399.70	2101.80
399.90	2026.90
400.09	2001.16
400.28	1923.92
400.47	2108.82
400.67	2134.57
400.86	2094.78
401.05	2115.84
401.24	2083.08
401.44	2148.61
401.63	2115.84
401.82	2190.74
402.01	2090.10
402.21	2153.29
402.40	2260.96
402.59	2235.21
402.78	2244.57
402.97	2232.87
403.17	2251.60
403.36	2249.25
403.55	2298.41
403.74	2359.26
403.93	2352.24
404.13	2342.88
404.32	2363.94
404.51	2356.92
404.70	2502.03
404.89	2387.35
405.09	2485.65
405.28	2527.78
405.47	2555.86
405.66	2506.71
405.85	2495.01
406.05	2455.22
406.24	2537.14
406.43	2581.61
406.62	2590.97
406.81	2724.38
407.00	2539.48
407.20	2686.94
407.39	2803.96
407.58	2703.32
407.77	2722.04
407.96	2679.91
408.15	2733.75
408.34	2759.49
408.54	2867.16
408.73	2738.43
408.92	2860.13
409.11	2890.56
409.30	2899.92
409.49	2871.84
409.68	2956.10
409.87	2967.80
410.07	3030.99
410.26	3094.19
410.45	2993.55
410.64	3068.44
410.83	3143.34
411.02	3052.06
411.21	3192.49
411.40	3169.09
411.59	3269.73
411.78	3243.98
411.98	3119.93
412.17	3295.47
412.36	3246.32
412.55	3288.45
412.74	3365.69
412.93	3332.92
413.12	3272.07
413.31	3588.04
413.50	3557.61
413.69	3585.70
413.88	3515.48
414.07	3513.14
414.26	3702.73
414.45	3620.81
414.64	3740.18
414.83	3763.58
415.02	3880.61
415.22	3803.37
415.41	3868.91
415.60	3927.42
415.79	3873.59
415.98	3929.76
416.17	4105.30
416.36	3887.63
416.55	3868.91
416.74	4035.08
416.93	4093.60
417.12	4222.33
417.31	4147.43
417.50	4152.11
417.69	4372.12
417.88	4292.54
418.07	4369.78
418.26	4287.86
418.45	4440.00
418.64	4519.57
418.83	4397.87
419.02	4416.59
419.21	4463.40
419.39	4592.13
419.58	4552.34
419.77	4526.60
419.96	4449.36
420.15	4599.15
420.34	4638.94
420.53	4645.96
420.72	4699.80
420.91	4697.46
421.10	4695.11
421.29	4865.97
421.48	4690.43
421.67	4854.27
421.86	4744.27
422.05	4723.20
422.24	4741.93
422.43	4849.59
422.61	4933.85
422.80	4940.87
422.99	5085.98
423.18	5027.47
423.37	5027.47
423.56	4863.63
423.75	5125.77
423.94	4915.12
424.13	4603.83
424.32	4802.78
424.50	5032.15
424.69	4908.10
424.88	5114.07
425.07	4973.64
425.26	4837.89
425.45	4997.04
425.64	5015.77
425.83	4905.76
426.01	4943.21
426.20	4971.30
426.39	5104.71
426.58	5093.01
426.77	5090.67
426.96	5114.07
427.15	5275.57
427.33	5170.24
427.52	5132.79
427.71	5301.31
427.90	5305.99
428.09	5458.13
428.28	5455.79
428.46	5341.10
428.65	5493.24
428.84	5530.69
429.03	5493.24
429.22	5439.40
429.40	5441.75
429.59	5523.66
429.78	5310.68
429.97	5355.15
430.16	5544.73
430.34	5746.02
430.53	5783.46
430.72	5708.57
430.91	5865.38
431.10	5579.84
431.28	5811.55
431.47	5905.17
431.66	5902.83
431.85	6019.86
432.03	5825.59
432.22	6031.56
432.41	6069.01
432.60	5919.21
432.79	6024.54
432.97	5987.09
433.16	6115.82
433.35	6087.73
433.54	6017.52
433.72	6176.67
433.91	6141.57
434.10	6164.97
434.28	6218.80
434.47	6310.08
434.66	6246.89
434.85	6399.02
435.03	6347.53
435.22	6244.55
435.41	6576.91
435.59	6462.22
435.78	6246.89
435.97	6574.56
436.16	6462.22
436.34	6375.62
436.53	6476.26
436.72	6731.38
436.90	6565.20
437.09	6612.01
437.28	6483.28
437.46	6497.33
437.65	6963.09
437.84	6953.73
438.02	6768.83
438.21	6745.42
438.40	6670.53
438.58	7037.99
438.77	7054.37
438.96	6834.36
439.14	7194.81
439.33	7110.55
439.52	7358.64
439.70	7370.35
439.89	7276.73
440.08	7314.17
440.26	7279.07
440.45	7353.96
440.63	7564.61
440.82	7712.07
441.01	7508.44
441.19	7559.93
441.38	7850.16
441.57	7639.51
441.75	7751.85
441.94	7896.97
442.12	7974.21
442.31	7960.16
442.50	8046.76
442.68	8142.72
442.87	7941.44
443.05	8184.85
443.24	8264.43
443.43	8194.22
443.61	8196.56
443.80	8486.78
443.98	8044.42
444.17	7999.95
444.35	8400.18
444.54	8564.02
444.73	8355.71
444.91	8196.56
445.10	8170.81
445.28	8355.71
445.47	8184.85
445.65	8493.80
445.84	8463.38
446.02	8388.48
446.21	8470.40
446.39	8313.58
446.58	8692.75
446.77	8521.89
446.95	8283.16
447.14	8395.50
447.32	8624.87
447.51	8381.46
447.69	8585.08
447.88	8500.83
448.06	8439.97
448.25	8650.62
448.43	8699.77
448.62	8723.18
448.80	8681.05
448.99	8856.59
449.17	8690.41
449.36	8725.52
449.54	8835.52
449.73	8861.27
449.91	8992.34
450.10	8950.21
450.28	9345.76
450.46	9067.24
450.65	9212.35
450.83	9170.22
451.02	8975.95
451.20	9200.65
451.39	9149.15
451.57	9289.59
451.76	9298.95
451.94	9235.75
452.13	9341.08
452.31	9497.89
452.49	8978.30
452.68	9275.54
452.86	9282.56
453.05	9535.34
453.23	9561.09
453.42	9434.70
453.60	9511.94
453.78	9671.09
453.97	9713.22
454.15	9334.06
454.34	9359.80
454.52	9612.58
454.70	9804.50
454.89	9624.28
455.07	9680.46
455.26	9975.36
455.44	9973.02
455.62	9909.83
455.81	10141.54
455.99	10153.24
456.17	10263.25
456.36	10167.29
456.54	9998.77
456.73	10214.10
456.91	10490.28
457.09	10494.96
457.28	10574.54
457.46	10361.55
457.64	10569.86
457.83	10700.93
458.01	10607.31
458.19	10850.72
458.38	10740.72
458.56	10906.90
458.74	10815.62
458.93	10813.28
459.11	10878.81
459.29	10803.91
459.48	10827.32
459.66	10829.66
459.84	10869.45
460.03	11101.16
460.21	11063.71
460.39	11110.52
460.57	11042.65
460.76	11187.76
460.94	11192.44
461.12	11077.76
461.31	11232.23
461.49	11398.41
461.67	11309.47
461.85	11580.97
462.04	11351.60
462.22	11784.60
462.40	11672.25
462.59	11515.44
462.77	11587.99
462.95	11798.64
463.13	11632.46
463.32	11611.40
463.50	11854.81
463.68	11953.12
463.86	12006.95
464.05	11513.10
464.23	11695.66
464.41	12086.53
464.59	11833.75
464.78	12114.61
464.96	11920.35
465.14	12004.61
465.32	12203.55
465.50	12238.66
465.69	12149.72
465.87	12126.32
466.05	12198.87
466.23	11995.25
466.41	12271.43
466.60	12620.17
466.78	12159.08
466.96	12067.80
467.14	12432.93
467.32	12690.38
467.51	12695.07
467.69	12264.41
467.87	12596.76
468.05	12793.37
468.23	12475.06
468.41	12524.21
468.60	12753.58
468.78	12828.48
468.96	12674.00
469.14	12861.24
469.32	13013.38
469.50	12669.32
469.69	13001.68
469.87	13242.75
470.05	13055.51
470.23	13209.98
470.41	13291.90
470.59	13146.79
470.77	13083.59
470.95	13462.76
471.14	13469.78
471.32	13315.31
471.50	13701.50
471.68	13689.79
471.86	13628.94
472.04	13804.48
472.22	13977.68
472.40	13778.73
472.58	14113.43
472.77	14005.77
472.95	14153.22
473.13	14633.03
473.31	14010.45
473.49	14293.65
473.67	14001.08
473.85	14338.12
474.03	14927.94
474.21	14614.30
474.39	14862.40
474.57	14691.54
474.75	15133.90
474.93	14960.70
475.12	14958.36
475.30	15178.37
475.48	15297.74
475.66	15407.75
475.84	15124.54
476.02	15222.84
476.20	15414.77
476.38	15632.44
476.56	15999.90
476.74	16002.24
476.92	16301.83
477.10	16002.24
477.28	16301.83
477.46	16313.53
477.64	16568.65
477.82	16519.50
478.00	17163.15
478.18	16868.24
478.36	17179.53
478.54	17579.76
478.72	17488.48
478.90	17579.76
479.08	17797.43
479.26	17715.51
479.44	17596.15
479.62	18111.07
479.80	18204.69
479.98	18356.82
480.16	18525.34
480.34	18466.83
480.52	18408.31
480.70	18569.81
480.88	18448.10
481.06	18696.20
481.24	18941.96
481.41	18984.09
481.59	19590.28
481.77	19529.43
481.95	19887.53
482.13	19749.44
482.31	19625.39
482.49	20280.74
482.67	20388.41
482.85	20343.94
483.03	20898.64
483.21	20947.79
483.39	20868.22
483.57	21205.25
483.74	21322.28
483.92	21359.73
484.10	21359.73
484.28	21909.75
484.46	22153.17
484.64	22588.51
484.82	22244.45
485.00	22279.56
485.18	22796.82
485.35	23307.05
485.53	23073.00
485.71	23150.24
485.89	23747.08
486.07	23302.37
486.25	23424.08
486.43	23838.36
486.61	24074.75
486.78	24219.86
486.96	24191.78
487.14	24758.19
487.32	24961.81
487.50	24978.20
487.68	25209.91
487.85	25202.89
488.03	25788.02
488.21	25876.96
488.39	26024.42
488.57	26214.00
488.75	26424.65
488.92	26792.11
489.10	26916.16
489.28	27028.51
489.46	27304.69
489.64	27182.98
489.81	27431.08
489.99	27880.46
490.17	28013.87
490.35	28587.30
490.53	28439.85
490.70	28788.59
490.88	28362.61
491.06	29291.80
491.24	29017.96
491.41	29076.48
491.59	29350.32
491.77	29544.58
491.95	29699.06
492.13	29947.15
492.30	30630.59
492.48	30136.74
492.66	30719.53
492.84	30485.48
493.01	30976.99
493.19	30967.63
493.37	31307.01
493.54	31337.43
493.72	32091.09
493.90	32044.27
494.08	32161.30
494.25	32407.06
494.43	32247.90
494.61	33017.94
494.79	32610.68
494.96	33120.92
495.14	32849.42
495.32	33795.00
495.49	33656.90
495.67	33532.86
495.85	33631.16
496.02	34204.59
496.20	33989.26
496.38	34068.84
496.55	34529.92
496.73	34976.97
496.91	34845.90
497.09	35030.80
497.26	35306.98
497.44	35262.51
497.62	35325.71
497.79	36301.71
497.97	36081.70
498.14	36048.93
498.32	36226.81
498.50	36748.75
498.67	36624.70
498.85	36645.77
499.03	37151.32
499.20	37179.41
499.38	36928.97
499.56	37537.51
499.73	37097.49
499.91	37720.07
500.08	38064.13
500.26	37507.08
500.44	38227.97
500.61	38148.39
500.79	38274.78
500.97	38452.66
501.14	38553.30
501.32	38696.08
501.49	38902.04
501.67	38965.24
501.84	39215.68
502.02	39077.58
502.20	39234.40
502.37	39805.49
502.55	39168.87
502.72	39328.02
502.90	39793.79
503.07	40116.78
503.25	40170.61
503.43	39854.64
503.60	40570.85
503.78	40432.75
503.95	40517.01
504.13	40868.09
504.30	40818.94
504.48	40402.33
504.65	41371.31
504.83	41294.07
505.01	41249.60
505.18	41471.95
505.36	41745.80
505.53	41242.58
505.71	42064.11
505.88	42314.55
506.06	41776.22
506.23	41947.08
506.41	42075.81
506.58	42351.99
506.76	42323.91
506.93	43063.52
507.11	42508.81
507.28	42564.98
507.46	42766.27
507.63	43213.31
507.81	43510.56
507.98	43330.34
508.16	43531.62
508.33	44107.40
508.50	43391.19
508.68	44083.99
508.85	44397.62
509.03	44561.46
509.20	44318.04
509.38	44582.52
509.55	44683.17
509.73	45102.12
509.90	44671.46
510.08	44449.11
510.25	44835.30
510.42	45071.70
510.60	45228.51
510.77	45139.57
510.95	45558.53
511.12	45420.44
511.30	45673.21
511.47	45457.88
511.64	46115.58
511.82	46312.18
511.99	45890.88
512.17	46213.88
512.34	46260.69
512.51	46454.95
512.69	46625.81
512.86	46373.03
513.04	47318.61
513.21	47084.56
513.38	47117.32
513.56	47569.05
513.73	47089.24
513.90	47667.35
514.08	47276.48
514.25	47777.36
514.43	47442.66
514.60	47681.39
514.77	47999.71
514.95	47887.36
515.12	47611.18
515.29	47784.38
515.47	47861.61
515.64	48364.83
515.81	48339.08
515.99	48313.34
516.16	49015.50
516.33	48816.55
516.51	49059.97
516.68	49029.54
516.85	48961.67
517.03	49261.26
517.20	48877.41
517.37	49050.61
517.54	49617.02
517.72	49294.02
517.89	49439.14
518.06	49333.81
518.24	49668.51
518.41	49724.68
518.58	49298.70
518.75	49647.44
518.93	49820.64
519.10	49780.85
519.27	50021.93
519.45	49965.76
519.62	50073.42
519.79	50403.44
519.96	50377.69
520.14	50127.25
520.31	50440.89
520.48	50541.53
520.65	50546.21
520.83	50742.81
521.00	51100.92
521.17	50827.07
521.34	50703.03
521.52	50876.22
521.69	51372.42
521.86	51292.84
522.03	51246.03
522.20	51288.16
522.38	51889.68
522.55	51807.76
522.72	51538.60
522.89	51473.06
523.07	51964.57
523.24	51622.86
523.41	52086.28
523.58	51442.63
523.75	52020.75
523.92	52004.36
524.10	52123.73
524.27	52282.89
524.44	52341.40
524.61	52182.24
524.78	52362.46
524.96	52285.23
525.13	52467.79
525.30	52935.90
525.47	52432.68
525.64	52896.11
525.81	52762.70
525.98	52795.46
526.16	52381.19
526.33	52797.80
526.50	53123.14
526.67	53036.54
526.84	53389.96
527.01	52963.98
527.18	53059.94
527.36	53308.04
527.53	53448.47
527.70	53474.22
527.87	53766.79
528.04	53474.22
528.21	53738.70
528.38	53724.66
528.55	53628.69
528.72	53446.13
528.89	53497.62
529.07	53481.24
529.24	53570.18
529.41	53928.28
529.58	53947.01
529.75	53694.23
529.92	53944.67
530.09	54078.08
530.26	54026.59
530.43	54330.86
530.60	53951.69
530.77	54152.97
530.94	54384.69
531.11	54246.60
531.28	54190.42
531.46	54342.56
531.63	54330.86
531.80	54415.11
531.97	54651.51
532.14	54660.87
532.31	54532.14
532.48	54927.69
532.65	54887.90
532.82	54719.38
532.99	54993.23
533.16	54691.30
533.33	54901.95
533.50	55276.43
533.67	54855.14
533.84	54759.17
534.01	55035.36
534.18	54871.52
534.35	55489.42
534.52	55482.40
534.69	55381.76
534.86	55278.77
535.03	55491.76
535.20	55538.57
535.37	55437.93
535.54	55463.67
535.71	55334.95
535.88	55632.19
536.05	55388.78
536.22	55786.67
536.38	55704.75
536.55	55744.54
536.72	55931.78
536.89	55625.17
537.06	55742.20
537.23	56030.08
537.40	55763.26
537.57	55870.93
537.74	55882.63
537.91	56341.38
538.08	56074.55
538.25	55950.51
538.42	56222.01
538.59	56629.26
538.75	56067.53
538.92	56280.52
539.09	56378.82
539.26	56355.42
539.43	56266.48
539.60	56556.70
539.77	56442.02
539.94	56776.72
540.11	56645.65
540.28	56617.56
540.44	56622.24
540.61	56563.73
540.78	56757.99
540.95	56535.64
541.12	56512.23
541.29	56790.76
541.46	56645.65
541.62	56823.53
541.79	57038.86
541.96	56650.33
542.13	56868.00
542.30	56804.80
542.47	57080.98
542.63	56870.34
542.80	57099.71
542.97	57284.61
543.14	57382.91
543.31	57181.63
543.48	57415.68
543.64	57549.09
543.81	57359.51
543.98	57403.98
544.15	57694.21
544.32	57682.50
544.48	57925.92
544.65	57441.43
544.82	57521.01
544.99	57511.64
545.16	57750.38
545.32	57675.48
545.49	57804.21
545.66	57879.11
545.83	57879.11
546.00	58007.84
546.16	57998.48
546.33	57764.42
546.50	57549.09
546.67	57808.89
546.83	57551.43
547.00	57935.28
547.17	57778.46
547.34	57893.15
547.50	58192.74
547.67	58211.46
547.84	58174.02
548.00	58365.94
548.17	58508.71
548.34	58335.51
548.51	58302.74
548.67	58314.45
548.84	58394.03
549.01	58202.10
549.18	58260.62
549.34	58436.16
549.51	58344.87
549.68	58726.38
549.84	58562.54
550.01	58644.46
550.18	58422.11
550.34	58761.49
550.51	58651.48
550.68	58576.59
550.84	58379.98
551.01	58599.99
551.18	58607.01
551.34	58712.34
551.51	58726.38
551.68	58698.30
551.84	58761.49
552.01	58576.59
552.18	59007.25
552.34	58651.48
552.51	59084.48
552.68	58782.55
552.84	58766.17
553.01	58946.39
553.18	59082.14
553.34	58958.09
553.51	58885.54
553.67	59002.56
553.84	58969.80
554.01	58904.26
554.17	59107.89
554.34	59175.76
554.51	59267.05
554.67	59334.92
554.84	59220.23
555.00	59199.17
555.17	59032.99
555.33	59105.55
555.50	59217.89
555.67	59121.93
555.83	59105.55
556.00	59367.69
556.16	59578.34
556.33	59531.53
556.50	59269.39
556.66	59524.50
556.83	59281.09
556.99	59592.38
557.16	59763.24
557.32	59676.64
557.49	59826.43
557.65	59723.45
557.82	59573.66
557.98	59641.53
558.15	59718.77
558.32	59669.62
558.48	59536.21
558.65	59781.96
558.81	59639.19
558.98	59854.52
559.14	59765.58
559.31	59760.90
559.47	59770.26
559.64	60025.38
559.80	59863.88
559.97	60093.25
560.13	59625.15
560.30	60001.97
560.46	59950.48
560.63	60041.76
560.79	59920.05
560.96	60172.83
561.12	60069.85
561.29	60001.97
561.45	59934.10
561.61	60034.74
561.78	60030.06
561.94	60016.02
562.11	60076.87
562.27	60060.49
562.44	60378.80
562.60	59945.80
562.77	60154.11
562.93	60175.17
563.10	60189.22
563.26	60186.88
563.42	60343.69
563.59	60158.79
563.75	60313.26
563.92	60271.14
564.08	60329.65
564.24	60121.34
564.41	60189.22
564.57	60285.18
564.74	60147.09
564.90	60308.58
565.07	60121.34
565.23	60512.21
565.39	60301.56
565.56	60484.12
565.72	60264.11
565.88	60479.44
566.05	60397.52
566.21	60512.21
566.38	60456.04
566.54	60537.96
566.70	60523.91
566.87	60589.45
567.03	60526.25
567.19	60477.10
567.36	60542.64
567.52	60364.76
567.68	60664.35
567.85	60484.12
568.01	60397.52
568.17	60530.93
568.34	60577.75
568.50	60676.05
568.66	60561.36
568.83	60362.42
568.99	60374.12
569.15	60701.79
569.32	60556.68
569.48	60617.53
569.64	60608.17
569.81	60519.23
569.97	60612.85
570.13	60692.43
570.30	60505.19
570.46	60528.59
570.62	60797.76
570.78	60676.05
570.95	60669.03
571.11	60741.58
571.27	60561.36
571.43	60676.05
571.60	60970.96
571.76	60711.16
571.92	60610.51
572.09	60839.89
572.25	60807.12
572.41	60830.52
572.57	60980.32
572.74	60762.65
572.90	60797.76
573.06	60793.07
573.22	60804.78
573.38	60900.74
573.55	60729.88
573.71	61165.22
573.87	60989.68
574.03	60650.30
574.20	60844.57
574.36	60835.20
574.52	60989.68
574.68	60727.54
574.84	60879.67
575.01	60879.67
575.17	61010.74
575.33	60790.73
575.49	60893.72
575.65	61083.30
575.82	60947.55
575.98	61083.30
576.14	61130.11
576.30	61139.47
576.46	60963.93
576.62	60910.10
576.79	60903.08
576.95	60786.05
577.11	61031.81
577.27	60837.54
577.43	60992.02
577.59	60889.04
577.75	61038.83
577.92	60907.76
578.08	61062.24
578.24	61095.00
578.40	61073.94
578.56	61132.45
578.72	60926.49
578.88	61162.88
579.04	61202.67
579.21	61099.68
579.37	61258.84
579.53	61080.96
579.69	60912.44
579.85	61127.77
580.01	60982.66
580.17	60966.27
580.33	61258.84
580.49	61001.38
580.65	61151.18
580.82	60917.12
580.98	60982.66
581.14	61085.64
581.30	61013.08
581.46	60912.44
581.62	61240.12
581.78	61066.92
581.94	61158.20
582.10	61109.05
582.26	61169.90
582.42	61148.84
582.58	60977.98
582.74	61057.56
582.90	61137.13
583.06	61111.39
583.22	60912.44
583.38	61036.49
583.54	61403.95
583.70	61134.79
583.86	61134.79
584.02	61034.15
584.18	61214.37
584.34	61092.66
584.50	61120.75
584.66	61020.11
584.82	60884.36
584.98	61240.12
585.14	61345.44
585.30	60947.55
585.46	60912.44
585.62	61013.08
585.78	61478.85
585.94	61127.77
586.10	61027.13
586.26	61221.39
586.42	61064.58
586.58	61399.27
586.74	61202.67
586.90	61148.84
587.06	60982.66
587.22	61272.88
587.38	61188.63
587.54	61532.68
587.70	61343.10
587.86	61123.09
588.02	61223.73
588.18	61338.42
588.34	61312.67
588.49	61207.35
