SpectraSuite Data File
++++++++++++++++++++++++++++++++++++
Date: Fri Oct 25 10:47:56 EDT 2013
User: price-jones
Dark Spectrum Present: No
Reference Spectrum Present: No
Number of Sampled Component Spectra: 1
Spectrometers: USB2+H05261
Integration Time (usec): 100000 (USB2+H05261)
Spectra Averaged: 1 (USB2+H05261)
Boxcar Smoothing: 0 (USB2+H05261)
Correct for Electrical Dark: No (USB2+H05261)
Strobe/Lamp Enabled: No (USB2+H05261)
Correct for Detector Non-linearity: No (USB2+H05261)
Correct for Stray Light: No (USB2+H05261)
Number of Pixels in Processed Spectrum: 2048
>>>>>Begin Processed Spectral Data<<<<<
365.73	131.07
365.92	131.07
366.12	131.07
366.32	46.81
366.52	0.00
366.72	51.49
366.91	46.81
367.11	58.51
367.31	0.00
367.51	88.94
367.70	70.22
367.90	67.88
368.10	37.45
368.30	102.98
368.49	65.54
368.69	49.15
368.89	105.32
369.09	0.00
369.28	112.35
369.48	72.56
369.68	84.26
369.87	81.92
370.07	166.18
370.27	124.05
370.47	191.92
370.66	411.93
370.86	348.74
371.06	416.62
371.25	416.62
371.45	428.32
371.65	489.17
371.84	416.62
372.04	428.32
372.24	442.36
372.44	451.72
372.63	535.98
372.83	517.26
373.03	482.15
373.22	510.24
373.42	475.13
373.62	491.51
373.81	491.51
374.01	589.82
374.21	503.22
374.40	561.73
374.60	521.94
374.79	510.24
374.99	550.03
375.19	519.60
375.38	589.82
375.58	498.53
375.78	559.39
375.97	617.90
376.17	543.00
376.37	564.07
376.56	587.47
376.76	620.24
376.95	603.86
377.15	554.71
377.35	608.54
377.54	606.20
377.74	599.18
377.93	685.78
378.13	573.43
378.33	650.67
378.52	631.94
378.72	638.97
378.91	653.01
379.11	655.35
379.31	678.76
379.50	617.90
379.70	627.26
379.89	634.29
380.09	709.18
380.28	676.41
380.48	669.39
380.68	599.18
380.87	603.86
381.07	645.99
381.26	674.07
381.46	650.67
381.65	704.50
381.85	674.07
382.04	662.37
382.24	645.99
382.43	648.33
382.63	657.69
382.83	643.65
383.02	678.76
383.22	795.78
383.41	683.44
383.61	727.91
383.80	791.10
384.00	725.57
384.19	695.14
384.39	805.14
384.58	744.29
384.78	720.88
384.97	718.54
385.17	734.93
385.36	751.31
385.56	744.29
385.75	763.01
385.95	847.27
386.14	788.76
386.34	805.14
386.53	760.67
386.72	760.67
386.92	788.76
387.11	847.27
387.31	807.48
387.50	727.91
387.70	819.19
387.89	863.66
388.09	847.27
388.28	863.66
388.48	826.21
388.67	840.25
388.86	784.08
389.06	887.06
389.25	844.93
389.45	903.45
389.64	880.04
389.84	894.08
390.03	915.15
390.22	952.60
390.42	940.90
390.61	959.62
390.81	868.34
391.00	971.32
391.19	973.66
391.39	978.34
391.58	938.55
391.78	1039.20
391.97	954.94
392.16	917.49
392.36	1004.09
392.55	966.64
392.75	997.07
392.94	922.17
393.13	952.60
393.33	987.71
393.52	987.71
393.71	1064.94
393.91	1039.20
394.10	1081.33
394.29	1093.03
394.49	1153.88
394.68	1093.03
394.88	1088.35
395.07	1142.18
395.26	1064.94
395.46	1081.33
395.65	1139.84
395.84	1109.41
396.04	1226.44
396.23	1097.71
396.42	1179.63
396.62	1137.50
396.81	1111.75
397.00	1247.51
397.19	1203.04
397.39	1142.18
397.58	1240.48
397.77	1266.23
397.97	1357.51
398.16	1303.68
398.35	1212.40
398.55	1226.44
398.74	1254.53
398.93	1301.34
399.12	1277.93
399.32	1366.87
399.51	1296.66
399.70	1313.04
399.90	1261.55
400.09	1378.58
400.28	1404.32
400.47	1390.28
400.67	1446.45
400.86	1385.60
401.05	1455.81
401.24	1483.90
401.44	1448.79
401.63	1610.29
401.82	1425.39
402.01	1493.26
402.21	1504.96
402.40	1516.67
402.59	1519.01
402.78	1598.59
402.97	1502.62
403.17	1577.52
403.36	1638.38
403.55	1556.46
403.74	1619.65
403.93	1570.50
404.13	1650.08
404.32	1603.27
404.51	1568.16
404.70	1614.97
404.89	1755.40
405.09	1713.27
405.28	1577.52
405.47	1605.61
405.66	1844.34
405.85	1797.53
406.05	1757.74
406.24	1760.08
406.43	1795.19
406.62	1881.79
406.81	1891.15
407.00	1806.89
407.20	1788.17
407.39	1865.41
407.58	1849.02
407.77	1991.80
407.96	1996.48
408.15	1994.14
408.34	1991.80
408.54	1966.05
408.73	1940.30
408.92	1954.35
409.11	2052.65
409.30	2038.61
409.49	2071.37
409.68	2029.24
409.87	2078.40
410.07	2054.99
410.26	2214.15
410.45	2085.42
410.64	2120.53
410.83	2134.57
411.02	2246.91
411.21	2296.07
411.40	2289.04
411.59	2256.28
411.78	2298.41
411.98	2345.22
412.17	2410.75
412.36	2438.84
412.55	2356.92
412.74	2436.50
412.93	2471.61
413.12	2345.22
413.31	2504.37
413.50	2427.14
413.69	2443.52
413.88	2527.78
414.07	2518.42
414.26	2560.55
414.45	2516.08
414.64	2586.29
414.83	2626.08
415.02	2609.70
415.22	2733.75
415.41	2806.30
415.60	2789.92
415.79	2705.66
415.98	2806.30
416.17	2876.52
416.36	2960.78
416.55	2911.63
416.74	2871.84
416.93	2949.08
417.12	2895.24
417.31	2909.29
417.50	2892.90
417.69	3143.34
417.88	3066.10
418.07	3028.65
418.26	3073.12
418.45	3023.97
418.64	3159.72
418.83	3377.39
419.02	3138.66
419.21	3201.85
419.39	3258.03
419.58	3243.98
419.77	3187.81
419.96	3293.13
420.15	3335.26
420.34	3243.98
420.53	3377.39
420.72	3351.65
420.91	3363.35
421.10	3251.00
421.29	3492.08
421.48	3384.41
421.67	3541.23
421.86	3461.65
422.05	3400.80
422.24	3393.78
422.43	3459.31
422.61	3433.57
422.80	3410.16
422.99	3449.95
423.18	3550.59
423.37	3595.06
423.56	3487.40
423.75	3623.15
423.94	3398.46
424.13	3290.79
424.32	3253.34
424.50	3613.79
424.69	3616.13
424.88	3669.96
425.07	3639.53
425.26	3496.76
425.45	3541.23
425.64	3431.23
425.83	3602.08
426.01	3508.46
426.20	3585.70
426.39	3616.13
426.58	3667.62
426.77	3463.99
426.96	3637.19
427.15	3590.38
427.33	3700.39
427.52	3641.87
427.71	3770.60
427.90	3648.90
428.09	3744.86
428.28	3712.09
428.46	3838.48
428.65	3691.02
428.84	3775.28
429.03	3997.64
429.22	3726.13
429.40	3801.03
429.59	3658.26
429.78	3768.26
429.97	3733.15
430.16	3684.00
430.34	3810.39
430.53	3875.93
430.72	3946.14
430.91	3822.09
431.10	3913.38
431.28	4241.05
431.47	4025.72
431.66	4152.11
431.85	4044.45
432.03	4124.02
432.22	4271.48
432.41	4030.40
432.60	4205.94
432.79	4219.99
432.97	4208.28
433.16	4168.49
433.35	4152.11
433.54	4161.47
433.72	4337.01
433.91	4074.87
434.10	4121.68
434.28	4205.94
434.47	4292.54
434.66	4407.23
434.85	4397.87
435.03	4437.66
435.22	4332.33
435.41	4622.56
435.59	4411.91
435.78	4587.45
435.97	4535.96
436.16	4599.15
436.34	4610.86
436.53	4667.03
436.72	4760.65
436.90	4610.86
437.09	4791.08
437.28	4582.77
437.46	4671.71
437.65	4732.56
437.84	4594.47
438.02	4531.28
438.21	4535.96
438.40	4664.69
438.58	4865.97
438.77	4931.51
438.96	4985.34
439.14	4903.42
439.33	5156.20
439.52	5048.54
439.70	5032.15
439.89	5123.43
440.08	5114.07
440.26	5095.35
440.45	5074.28
440.63	5296.63
440.82	5198.33
441.01	5259.18
441.19	5327.06
441.38	5619.63
441.57	5392.59
441.75	5589.20
441.94	5640.69
442.12	5446.43
442.31	5699.20
442.50	5598.56
442.68	5600.90
442.87	5708.57
443.05	5699.20
443.24	5724.95
443.43	5795.17
443.61	5776.44
443.80	5959.00
443.98	5654.73
444.17	5369.19
444.35	5987.09
444.54	5884.11
444.73	5661.76
444.91	5694.52
445.10	5832.62
445.28	5809.21
445.47	5692.18
445.65	5743.67
445.84	5900.49
446.02	5977.73
446.21	5851.34
446.39	5898.15
446.58	5916.87
446.77	5851.34
446.95	5806.87
447.14	5785.80
447.32	6047.94
447.51	6010.50
447.69	5907.51
447.88	6104.12
448.06	6019.86
448.25	5921.56
448.43	6148.59
448.62	6054.97
448.80	6043.26
448.99	6066.67
449.17	5994.11
449.36	5975.39
449.54	6291.36
449.73	6291.36
449.91	6427.11
450.10	6396.68
450.28	6438.81
450.46	6340.51
450.65	6466.90
450.83	6377.96
451.02	6413.07
451.20	6291.36
451.39	6569.88
451.57	6382.64
451.76	6200.08
451.94	6450.52
452.13	6569.88
452.31	6497.33
452.49	6413.07
452.68	6539.46
452.86	6347.53
453.05	6527.75
453.23	6604.99
453.42	6347.53
453.60	6539.46
453.78	6757.13
453.97	6485.62
454.15	6773.51
454.34	6661.16
454.52	6705.63
454.70	6792.23
454.89	6836.70
455.07	6740.74
455.26	6848.41
455.44	7002.88
455.62	6979.48
455.81	6909.26
455.99	7059.06
456.17	6913.94
456.36	6885.86
456.54	7101.19
456.73	7052.03
456.91	7201.83
457.09	7129.27
457.28	7393.75
457.46	7105.87
457.64	7325.88
457.83	7286.09
458.01	7265.02
458.19	7396.09
458.38	7279.07
458.56	7382.05
458.74	7368.01
458.93	7459.29
459.11	7562.27
459.29	7515.46
459.48	7517.80
459.66	7508.44
459.84	7590.36
460.03	7534.18
460.21	7555.25
460.39	7695.68
460.57	7489.71
460.76	7595.04
460.94	7826.75
461.12	7742.49
461.31	7742.49
461.49	7588.02
461.67	7632.49
461.85	7967.18
462.04	7756.54
462.22	8231.66
462.40	8039.74
462.59	8013.99
462.77	7843.14
462.95	8039.74
463.13	8016.33
463.32	8088.89
463.50	8175.49
463.68	8322.94
463.86	8079.53
464.05	7903.99
464.23	8053.78
464.41	8311.24
464.59	7871.22
464.78	8348.69
464.96	8231.66
465.14	8070.17
465.32	8252.73
465.50	8205.92
465.69	8355.71
465.87	8266.77
466.05	8318.26
466.23	8421.25
466.41	8514.87
466.60	8425.93
466.78	8173.15
466.96	8219.96
467.14	8655.30
467.32	8458.70
467.51	8638.92
467.69	8344.01
467.87	8542.96
468.05	8793.39
468.23	8517.21
468.41	8526.57
468.60	8861.27
468.78	8779.35
468.96	8634.24
469.14	8894.04
469.32	8774.67
469.50	8769.99
469.69	8814.46
469.87	8884.67
470.05	8725.52
470.23	9018.08
470.41	8798.07
470.59	8739.56
470.77	9001.70
470.95	8910.42
471.14	9186.60
471.32	9097.66
471.50	9170.22
471.68	9324.69
471.86	9212.35
472.04	9256.82
472.22	9408.95
472.40	9298.95
472.58	9334.06
472.77	9523.64
472.95	9458.10
473.13	9802.16
473.31	9413.63
473.49	9490.87
473.67	9516.62
473.85	9680.46
474.03	9640.67
474.21	9790.46
474.39	10003.45
474.57	10052.60
474.75	10174.31
474.93	9872.38
475.12	10078.35
475.30	10176.65
475.48	10391.98
475.66	10176.65
475.84	10462.19
476.02	10410.70
476.20	10375.59
476.38	10387.30
476.56	10806.25
476.74	10600.29
476.92	10813.28
477.10	10630.71
477.28	10799.23
477.46	10860.09
477.64	11068.39
477.82	11267.34
478.00	11328.19
478.18	11239.25
478.36	11709.70
478.54	11302.45
478.72	11353.94
478.90	11679.27
479.08	11810.34
479.26	12109.93
479.44	12011.63
479.62	11861.84
479.80	11985.88
479.98	12175.47
480.16	12552.29
480.34	12280.79
480.52	12435.27
480.70	12695.07
480.88	12444.63
481.06	12767.62
481.24	12365.05
481.41	12861.24
481.59	12987.63
481.77	13193.60
481.95	13062.53
482.13	13081.25
482.31	13193.60
482.49	13518.93
482.67	13245.09
482.85	13633.62
483.03	13610.22
483.21	13774.05
483.39	13898.10
483.57	14071.30
483.74	14279.61
483.92	14090.02
484.10	14185.99
484.28	14590.90
484.46	14611.96
484.64	14839.00
484.82	14504.30
485.00	14448.13
485.18	14993.47
485.35	15103.48
485.53	14768.78
485.71	15042.62
485.89	15365.62
486.07	15279.02
486.25	15398.38
486.43	15630.10
486.61	15723.72
486.78	16006.92
486.96	15819.68
487.14	16264.38
487.32	16020.97
487.50	16318.22
487.68	16437.58
487.85	16638.87
488.03	17099.95
488.21	16776.96
488.39	17022.72
488.57	17329.33
488.75	17191.23
488.92	17214.64
489.10	17680.41
489.28	17827.86
489.46	17961.27
489.64	17792.75
489.81	18139.15
489.99	18651.73
490.17	18476.19
490.35	18560.45
490.53	18534.70
490.70	18930.25
490.88	18654.07
491.06	18937.27
491.24	18841.31
491.41	18899.83
491.59	18960.68
491.77	19199.41
491.95	19339.85
492.13	19562.20
492.30	19683.91
492.48	19782.21
492.66	20215.21
492.84	20053.71
493.01	20039.67
493.19	20149.67
493.37	20212.87
493.54	20226.91
493.72	21015.67
493.90	20577.99
494.08	21022.69
494.25	21144.40
494.43	21104.61
494.61	21355.05
494.79	21448.67
494.96	21420.58
495.14	21443.99
495.32	21467.39
495.49	21781.03
495.67	21652.30
495.85	21935.50
496.02	22113.38
496.20	22087.64
496.38	22101.68
496.55	22263.18
496.73	23084.70
496.91	22787.46
497.09	22845.97
497.26	22710.22
497.44	22719.58
497.62	22958.31
497.79	23243.86
497.97	23211.09
498.14	23506.00
498.32	23426.42
498.50	23213.43
498.67	23690.90
498.85	24002.19
499.03	24360.30
499.20	24196.46
499.38	24446.90
499.56	24402.43
499.73	24149.65
499.91	24570.94
500.08	24624.78
500.26	24723.08
500.44	24694.99
500.61	24933.73
500.79	24716.06
500.97	24727.76
501.14	25165.44
501.32	25032.03
501.49	25528.22
501.67	25020.33
501.84	25385.45
502.02	25266.08
502.20	25539.93
502.37	25605.46
502.55	25640.57
502.72	25933.14
502.90	25619.50
503.07	25965.90
503.25	25979.95
503.43	25982.29
503.60	26188.25
503.78	26143.78
503.95	26305.28
504.13	26333.37
504.30	26635.30
504.48	26527.63
504.65	26817.86
504.83	26937.23
505.01	26960.63
505.18	26672.74
505.36	27164.26
505.53	27147.87
505.71	27510.66
505.88	27353.84
506.06	27288.31
506.23	27339.80
506.41	27129.15
506.58	27793.86
506.76	27508.32
506.93	27653.43
507.11	27630.02
507.28	27772.80
507.46	27934.29
507.63	27889.82
507.81	28315.80
507.98	27850.03
508.16	28383.68
508.33	28542.83
508.50	28250.27
508.68	28779.23
508.85	28556.88
509.03	28444.53
509.20	28856.46
509.38	28535.81
509.55	28989.88
509.73	28886.89
509.90	29034.35
510.08	29142.01
510.25	29001.58
510.42	28924.34
510.60	29479.05
510.77	29626.50
510.95	29806.72
511.12	29687.36
511.30	29748.21
511.47	29965.88
511.64	30024.39
511.82	30206.95
511.99	29961.20
512.17	29993.97
512.34	29928.43
512.51	30223.34
512.69	30258.45
512.86	30230.36
513.04	30974.65
513.21	30745.28
513.38	30478.46
513.56	30684.42
513.73	30691.44
513.90	30574.42
514.08	30494.84
514.25	30902.09
514.43	30916.14
514.60	30902.09
514.77	31103.38
514.95	31108.06
515.12	31512.97
515.29	31211.04
515.47	31618.30
515.64	31894.48
515.81	31246.15
515.99	31262.54
516.16	31761.07
516.33	31901.50
516.51	31840.65
516.68	31590.21
516.85	31496.59
517.03	31892.14
517.20	31800.86
517.37	32060.66
517.54	31817.24
517.72	32149.60
517.89	32320.46
518.06	32236.20
518.24	32011.51
518.41	32238.54
518.58	32657.49
518.75	32503.02
518.93	32245.56
519.10	32680.90
519.27	32594.30
519.45	32776.86
519.62	33160.71
519.79	32533.45
519.96	33387.74
520.14	33670.95
520.31	33116.24
520.48	33289.44
520.65	33287.10
520.83	33439.23
521.00	33457.96
521.17	33811.38
521.34	33469.66
521.52	33509.45
521.69	33921.38
521.86	34017.35
522.03	33837.12
522.20	34373.11
522.38	34019.69
522.55	34359.06
522.72	34139.05
522.89	34019.69
523.07	34171.82
523.24	34160.12
523.41	34618.86
523.58	34576.73
523.75	34890.37
523.92	34492.47
524.10	35505.93
524.27	35138.46
524.44	34904.41
524.61	35072.93
524.78	35150.17
524.96	35515.29
525.13	35431.03
525.30	35608.91
525.47	35503.59
525.64	34998.03
525.81	35679.13
525.98	35346.77
526.16	35337.41
526.33	35016.75
526.50	35285.92
526.67	35206.34
526.84	35386.56
527.01	35688.49
527.18	35454.44
527.36	35669.76
527.53	36184.68
527.70	36371.92
527.87	36018.50
528.04	35637.00
528.21	36381.29
528.38	36119.15
528.55	36390.65
528.72	36388.31
528.89	36507.68
529.07	36318.09
529.24	36463.21
529.41	36734.71
529.58	36088.72
529.75	36397.67
529.92	36835.35
530.09	36718.32
530.26	36423.42
530.43	36538.10
530.60	36744.07
530.77	36510.02
530.94	37251.97
531.11	37200.47
531.28	37258.99
531.46	37280.05
531.63	37338.57
531.80	37214.52
531.97	37275.37
532.14	37074.09
532.31	37120.90
532.48	37376.01
532.65	37883.91
532.82	37457.93
532.99	37809.01
533.16	37425.17
533.33	37357.29
533.50	37724.75
533.67	37996.26
533.84	37411.12
534.01	37605.39
534.18	37574.96
534.35	38366.06
534.52	37799.65
534.69	38036.05
534.86	38602.46
535.03	38045.41
535.20	38653.95
535.37	38305.21
535.54	38244.35
535.71	38089.88
535.88	38565.01
536.05	38335.63
536.22	38426.92
536.38	38555.64
536.55	38557.99
536.72	38721.82
536.89	38249.03
537.06	38443.30
537.23	38569.69
537.40	38326.27
537.57	38703.10
537.74	38979.28
537.91	38904.38
538.08	39438.03
538.25	38988.64
538.42	38490.11
538.59	39007.37
538.75	38424.57
538.92	38909.07
539.09	39316.32
539.26	39108.01
539.43	39447.39
539.60	39433.35
539.77	38923.11
539.94	39257.81
540.11	39014.39
540.28	39379.51
540.44	39552.71
540.61	39241.42
540.78	39421.64
540.95	39599.52
541.12	39246.10
541.29	39468.45
541.46	39597.18
541.62	39646.33
541.79	39929.54
541.96	39634.63
542.13	39859.32
542.30	39599.52
542.47	40048.91
542.63	39459.09
542.80	40093.38
542.97	40407.01
543.14	40437.44
543.31	40458.50
543.48	40432.75
543.64	40858.73
543.81	40945.33
543.98	40851.71
544.15	40666.81
544.32	40648.08
544.48	41031.93
544.65	40758.09
544.82	40774.47
544.99	40374.24
545.16	40779.15
545.32	40692.55
545.49	41083.42
545.66	40774.47
545.83	41181.73
546.00	41291.73
546.16	40870.43
546.33	41085.76
546.50	40727.66
546.67	41034.27
546.83	40957.03
547.00	41301.09
547.17	40954.69
547.34	41209.81
547.50	41165.34
547.67	41684.94
547.84	41347.90
548.00	41315.14
548.17	41397.06
548.34	41642.81
548.51	42185.82
548.67	41886.23
548.84	42054.75
549.01	41593.66
549.18	41645.15
549.34	41951.76
549.51	41893.25
549.68	42031.34
549.84	42014.96
550.01	42225.60
550.18	41687.28
550.34	42136.66
550.51	41787.92
550.68	41483.66
550.84	41261.30
551.01	41879.21
551.18	42059.43
551.34	41591.32
551.51	42192.84
551.68	42356.67
551.84	42061.77
552.01	42382.42
552.18	42021.98
552.34	42232.63
552.51	42586.05
552.68	42019.64
552.84	42408.17
553.01	42522.85
553.18	42344.97
553.34	42623.50
553.51	42337.95
553.67	42361.36
553.84	42436.25
554.01	42745.20
554.17	42660.94
554.34	43079.90
554.51	42543.92
554.67	42752.23
554.84	42532.22
555.00	42405.83
555.17	42698.39
555.33	42752.23
555.50	42483.06
555.67	42918.40
555.83	43077.56
556.00	42562.64
556.16	43285.87
556.33	43100.97
556.50	43103.31
556.66	43089.26
556.83	43297.57
556.99	42974.58
557.16	43386.51
557.32	43089.26
557.49	43288.21
557.65	43133.73
557.82	42904.36
557.98	43152.46
558.15	42930.11
558.32	43526.94
558.48	43426.30
558.65	43335.02
558.81	43353.74
558.98	43419.28
559.14	43585.46
559.31	43049.47
559.47	43634.61
559.64	43445.02
559.80	43360.76
559.97	43688.44
560.13	43358.42
560.30	43433.32
560.46	43519.92
560.63	43119.69
560.79	43849.94
560.96	43852.28
561.12	43686.10
561.29	43681.42
561.45	43643.97
561.61	43599.50
561.78	43454.39
561.94	43274.16
562.11	43583.12
562.27	43569.07
562.44	43871.00
562.60	43761.00
562.77	43856.96
562.93	43938.88
563.10	43775.04
563.26	43323.32
563.42	44016.11
563.59	43571.41
563.75	43908.45
563.92	44048.88
564.08	44149.53
564.24	43997.39
564.41	43824.19
564.57	43871.00
564.74	44194.00
564.90	44107.40
565.07	44060.58
565.23	43707.16
565.39	43966.96
565.56	44367.20
565.72	43840.57
565.88	43990.37
566.05	44266.55
566.21	44334.43
566.38	43548.01
566.54	44278.25
566.70	43922.49
566.87	44353.15
567.03	44285.28
567.19	44626.99
567.36	44535.71
567.52	43868.66
567.68	44140.16
567.85	43779.72
568.01	44245.49
568.17	43845.26
568.34	43842.92
568.50	44112.08
568.66	43964.62
568.83	43693.12
568.99	44222.08
569.15	43990.37
569.32	44392.94
569.48	44133.14
569.64	44463.16
569.81	44027.82
569.97	44030.16
570.13	43978.67
570.30	44154.21
570.46	44046.54
570.62	44186.97
570.78	43985.69
570.95	44327.41
571.11	44903.18
571.27	44430.39
571.43	44411.67
571.60	44498.26
571.76	44748.70
571.92	44030.16
572.09	44259.53
572.25	44460.82
572.41	44041.86
572.57	44215.06
572.74	44624.65
572.90	44282.94
573.06	44083.99
573.22	44348.47
573.38	44856.37
573.55	44116.76
573.71	44769.77
573.87	44278.25
574.03	44460.82
574.20	44130.80
574.36	44215.06
574.52	44442.09
574.68	44641.04
574.84	44414.01
575.01	44348.47
575.17	44493.58
575.33	43988.03
575.49	44498.26
575.65	45153.62
575.82	44931.26
575.98	44341.45
576.14	44596.57
576.30	44479.54
576.46	44123.78
576.62	44350.81
576.79	44563.80
576.95	44304.00
577.11	44112.08
577.27	44514.65
577.43	44360.17
577.59	44336.77
577.75	44924.24
577.92	44580.18
578.08	44460.82
578.24	43840.57
578.40	44605.93
578.56	44772.11
578.72	43861.64
578.88	44589.55
579.04	44790.83
579.21	44414.01
579.37	44240.81
579.53	44552.10
579.69	44502.95
579.85	44701.89
580.01	44863.39
580.17	44498.26
580.33	44788.49
580.49	44446.77
580.65	44903.18
580.82	44425.71
580.98	44505.29
581.14	44165.91
581.30	44360.17
581.46	44905.52
581.62	44524.01
581.78	44629.34
581.94	45174.68
582.10	44722.96
582.26	44900.84
582.42	44708.91
582.58	44795.51
582.74	44868.07
582.90	44889.13
583.06	44949.99
583.22	44715.93
583.38	44690.19
583.54	45111.49
583.70	44449.11
583.86	44514.65
584.02	44376.56
584.18	44814.24
584.34	44804.88
584.50	44879.77
584.66	44374.22
584.82	44615.29
584.98	45102.12
585.14	44914.88
585.30	44402.30
585.46	44491.24
585.62	44306.34
585.78	44762.75
585.94	44624.65
586.10	44692.53
586.26	44758.06
586.42	45055.31
586.58	44781.47
586.74	44727.64
586.90	44421.03
587.06	44584.86
587.22	44722.96
587.38	44081.65
587.54	45170.00
587.70	45048.29
587.86	44837.64
588.02	44959.35
588.18	45081.06
588.34	44554.44
588.49	44250.17
588.65	44306.34
588.81	44133.14
588.97	44479.54
589.13	44231.44
589.29	44842.32
589.45	44786.15
589.61	44500.61
589.77	45256.60
589.93	44486.56
590.08	45137.23
590.24	45158.30
