SpectraSuite Data File
++++++++++++++++++++++++++++++++++++
Date: Fri Oct 25 11:24:09 EDT 2013
User: price-jones
Dark Spectrum Present: No
Reference Spectrum Present: No
Number of Sampled Component Spectra: 1
Spectrometers: USB2+H05261
Integration Time (usec): 100000 (USB2+H05261)
Spectra Averaged: 1 (USB2+H05261)
Boxcar Smoothing: 0 (USB2+H05261)
Correct for Electrical Dark: No (USB2+H05261)
Strobe/Lamp Enabled: No (USB2+H05261)
Correct for Detector Non-linearity: No (USB2+H05261)
Correct for Stray Light: No (USB2+H05261)
Number of Pixels in Processed Spectrum: 2048
>>>>>Begin Processed Spectral Data<<<<<
365.73	198.95
365.92	198.95
366.12	198.95
366.32	191.92
366.52	145.11
366.72	191.92
366.91	138.09
367.11	198.95
367.31	107.66
367.51	203.63
367.70	114.69
367.90	121.71
368.10	189.58
368.30	124.05
368.49	170.86
368.69	156.82
368.89	156.82
369.09	163.84
369.28	215.33
369.48	175.54
369.68	184.90
369.87	191.92
370.07	215.33
370.27	220.01
370.47	341.72
370.66	587.47
370.86	613.22
371.06	638.97
371.25	669.39
371.45	643.65
371.65	697.48
371.84	660.03
372.04	695.14
372.24	734.93
372.44	676.41
372.63	793.44
372.83	784.08
373.03	758.33
373.22	713.86
373.42	763.01
373.62	734.93
373.81	873.02
374.01	901.11
374.21	807.48
374.40	781.74
374.60	755.99
374.79	805.14
374.99	823.87
375.19	765.36
375.38	814.51
375.58	924.51
375.78	842.59
375.97	770.04
376.17	940.90
376.37	856.64
376.56	936.21
376.76	889.40
376.95	898.77
377.15	968.98
377.35	924.51
377.54	959.62
377.74	936.21
377.93	947.92
378.13	973.66
378.33	924.51
378.52	905.79
378.72	966.64
378.91	924.51
379.11	903.45
379.31	987.71
379.50	882.38
379.70	1008.77
379.89	1071.97
380.09	945.58
380.28	1015.79
380.48	1006.43
380.68	1039.20
380.87	1041.54
381.07	1036.86
381.26	1071.97
381.46	1001.75
381.65	1046.22
381.85	994.73
382.04	1071.97
382.24	1078.99
382.43	1111.75
382.63	1088.35
382.83	1062.60
383.02	1048.56
383.22	1107.07
383.41	1027.50
383.61	1135.16
383.80	1174.95
384.00	1146.86
384.19	1135.16
384.39	1160.91
384.58	1100.05
384.78	1224.10
384.97	1132.82
385.17	1174.95
385.36	1111.75
385.56	1224.10
385.75	1240.48
385.95	1160.91
386.14	1200.69
386.34	1177.29
386.53	1261.55
386.72	1221.76
386.92	1233.46
387.11	1252.19
387.31	1240.48
387.50	1294.32
387.70	1212.40
387.89	1294.32
388.09	1338.79
388.28	1273.25
388.48	1296.66
388.67	1310.70
388.86	1320.06
389.06	1392.62
389.25	1313.04
389.45	1404.32
389.64	1359.85
389.84	1376.24
390.03	1413.68
390.22	1394.96
390.42	1331.76
390.61	1392.62
390.81	1411.34
391.00	1392.62
391.19	1488.58
391.39	1303.68
391.58	1469.86
391.78	1486.24
391.97	1500.28
392.16	1451.13
392.36	1514.33
392.55	1551.78
392.75	1682.85
392.94	1544.75
393.13	1603.27
393.33	1554.12
393.52	1600.93
393.71	1624.33
393.91	1577.52
394.10	1558.80
394.29	1598.59
394.49	1640.72
394.68	1722.63
394.88	1631.35
395.07	1685.19
395.26	1722.63
395.46	1654.76
395.65	1724.97
395.84	1783.49
396.04	1790.51
396.23	1741.36
396.42	1696.89
396.62	1846.68
396.81	1739.02
397.00	1678.16
397.19	1687.53
397.39	1884.13
397.58	1734.34
397.77	1865.41
397.97	1914.56
398.16	1867.75
398.35	1802.21
398.55	1778.81
398.74	1895.83
398.93	1914.56
399.12	1973.07
399.32	1870.09
399.51	1963.71
399.70	2038.61
399.90	1984.77
400.09	1954.35
400.28	1970.73
400.47	1944.99
400.67	2101.80
400.86	2019.88
401.05	2174.36
401.24	2083.08
401.44	2125.21
401.63	2256.28
401.82	2204.78
402.01	2029.24
402.21	2183.72
402.40	2214.15
402.59	2129.89
402.78	2183.72
402.97	2284.36
403.17	2359.26
403.36	2310.11
403.55	2225.85
403.74	2347.56
403.93	2300.75
404.13	2352.24
404.32	2429.48
404.51	2310.11
404.70	2417.77
404.89	2389.69
405.09	2401.39
405.28	2485.65
405.47	2429.48
405.66	2441.18
405.85	2537.14
406.05	2537.14
406.24	2663.53
406.43	2513.74
406.62	2541.82
406.81	2684.59
407.00	2628.42
407.20	2602.68
407.39	2605.02
407.58	2757.15
407.77	2663.53
407.96	2679.91
408.15	2750.13
408.34	2738.43
408.54	2857.79
408.73	2754.81
408.92	2920.99
409.11	2890.56
409.30	2890.56
409.49	2881.20
409.68	3007.59
409.87	2892.90
410.07	2939.71
410.26	3038.02
410.45	3016.95
410.64	3119.93
410.83	3035.67
411.02	3098.87
411.21	3143.34
411.40	3112.91
411.59	3295.47
411.78	3197.17
411.98	3290.79
412.17	3218.24
412.36	3332.92
412.55	3330.58
412.74	3375.05
412.93	3485.06
413.12	3410.16
413.31	3569.32
413.50	3475.70
413.69	3428.88
413.88	3634.85
414.07	3606.77
414.26	3730.81
414.45	3595.06
414.64	3721.45
414.83	3691.02
415.02	3981.25
415.22	3906.35
415.41	3805.71
415.60	3904.01
415.79	3864.22
415.98	3953.16
416.17	3934.44
416.36	3915.72
416.55	4056.15
416.74	4051.47
416.93	4077.21
417.12	4156.79
417.31	4259.78
417.50	4292.54
417.69	4346.37
417.88	4285.52
418.07	4325.31
418.26	4372.12
418.45	4332.33
418.64	4496.17
418.83	4461.06
419.02	4519.57
419.21	4538.30
419.39	4482.13
419.58	4575.75
419.77	4486.81
419.96	4592.13
420.15	4603.83
420.34	4676.39
420.53	4657.67
420.72	4823.84
420.91	4662.35
421.10	4788.74
421.29	4926.83
421.48	4767.67
421.67	4777.03
421.86	4751.29
422.05	4882.36
422.24	4816.82
422.43	4856.61
422.61	4903.42
422.80	4940.87
422.99	4975.98
423.18	5060.24
423.37	5114.07
423.56	5090.67
423.75	5013.43
423.94	4880.02
424.13	4592.13
424.32	4889.38
424.50	4966.62
424.69	5207.69
424.88	5135.14
425.07	5090.67
425.26	4936.19
425.45	4905.76
425.64	5095.35
425.83	4924.49
426.01	4938.53
426.20	5170.24
426.39	5146.84
426.58	5060.24
426.77	5029.81
426.96	5233.44
427.15	5130.45
427.33	5203.01
427.52	5177.26
427.71	5219.39
427.90	5399.62
428.09	5507.28
428.28	5348.12
428.46	5416.00
428.65	5551.75
428.84	5572.82
429.03	5589.20
429.22	5467.49
429.40	5673.46
429.59	5518.98
429.78	5411.32
429.97	5411.32
430.16	5460.47
430.34	5664.10
430.53	5713.25
430.72	5551.75
430.91	5652.39
431.10	5586.86
431.28	5664.10
431.47	5795.17
431.66	5935.60
431.85	5715.59
432.03	5930.92
432.22	5954.32
432.41	6017.52
432.60	6097.10
432.79	5900.49
432.97	6076.03
433.16	5982.41
433.35	5963.68
433.54	6221.14
433.72	6174.33
433.91	6029.22
434.10	6263.27
434.28	6176.67
434.47	6230.51
434.66	6263.27
434.85	6389.66
435.03	6296.04
435.22	6216.46
435.41	6590.95
435.59	6597.97
435.78	6539.46
435.97	6478.60
436.16	6516.05
436.34	6621.38
436.53	6583.93
436.72	6726.70
436.90	6586.27
437.09	6736.06
437.28	6534.78
437.46	6654.14
437.65	6682.23
437.84	6946.71
438.02	6792.23
438.21	6881.18
438.40	6738.40
438.58	7124.59
438.77	6904.58
438.96	6899.90
439.14	7155.02
439.33	7274.38
439.52	7206.51
439.70	7330.56
439.89	7449.93
440.08	7344.60
440.26	7641.85
440.45	7356.30
440.63	7510.78
440.82	7597.38
441.01	7578.65
441.19	7623.12
441.38	7810.37
441.57	7911.01
441.75	7932.08
441.94	8030.38
442.12	8046.76
442.31	8006.97
442.50	8175.49
442.68	7971.86
442.87	8138.04
443.05	8208.26
443.24	8320.60
443.43	8248.05
443.61	8149.75
443.80	8585.08
443.98	7978.89
444.17	7882.92
444.35	8259.75
444.54	8381.46
444.73	8187.19
444.91	8500.83
445.10	8252.73
445.28	8475.08
445.47	8400.18
445.65	8320.60
445.84	8662.32
446.02	8491.46
446.21	8395.50
446.39	8568.70
446.58	8430.61
446.77	8407.20
446.95	8327.63
447.14	8657.64
447.32	8692.75
447.51	8652.96
447.69	8423.59
447.88	8547.64
448.06	8528.91
448.25	8568.70
448.43	8510.19
448.62	8559.34
448.80	8568.70
448.99	8655.30
449.17	8774.67
449.36	8503.17
449.54	8865.95
449.73	9076.60
449.91	9046.17
450.10	8968.93
450.28	9039.15
450.46	9233.41
450.65	8982.98
450.83	9282.56
451.02	9118.73
451.20	9163.20
451.39	9200.65
451.57	9242.78
451.76	9334.06
451.94	9355.12
452.13	9488.53
452.31	9589.17
452.49	9235.75
452.68	9343.42
452.86	9481.51
453.05	9619.60
453.23	9540.02
453.42	9643.01
453.60	9518.96
453.78	9722.59
453.97	9607.90
454.15	9542.36
454.34	9544.70
454.52	9844.29
454.70	9643.01
454.89	9797.48
455.07	9886.42
455.26	9792.80
455.44	10267.93
455.62	10097.07
455.81	10101.75
455.99	10033.88
456.17	10207.08
456.36	10174.31
456.54	10260.91
456.73	10083.03
456.91	10630.71
457.09	10445.81
457.28	10782.85
457.46	10363.89
457.64	10614.33
457.83	10511.35
458.01	10562.84
458.19	11028.60
458.38	10679.86
458.56	10956.05
458.74	10864.77
458.93	10473.90
459.11	10740.72
459.29	10906.90
459.48	11007.54
459.66	10937.32
459.84	10960.73
460.03	11456.92
460.21	11040.31
460.39	11143.29
460.57	10895.19
460.76	11346.92
460.94	11337.56
461.12	11356.28
461.31	11269.68
461.49	11194.78
461.67	11510.75
461.85	11419.47
462.04	11257.98
462.22	11854.81
462.40	11583.31
462.59	11709.70
462.77	11513.10
462.95	11889.92
463.13	11648.85
463.32	11992.90
463.50	12114.61
463.68	11941.41
463.86	12257.39
464.05	11639.48
464.23	11754.17
464.41	12032.69
464.59	11875.88
464.78	12339.30
464.96	12133.34
465.14	11939.07
465.32	12325.26
465.50	12191.85
465.69	12269.09
465.87	12203.55
466.05	12248.02
466.23	12187.17
466.41	12489.10
466.60	12638.89
466.78	12152.06
466.96	12187.17
467.14	12241.00
467.32	12414.20
467.51	12891.67
467.69	12276.11
467.87	12645.91
468.05	12641.23
468.23	12343.99
468.41	12407.18
468.60	12578.04
468.78	12746.56
468.96	12830.82
469.14	12823.80
469.32	12943.16
469.50	12767.62
469.69	13050.83
469.87	13277.86
470.05	13289.56
470.23	13315.31
470.41	13219.35
470.59	13633.62
470.77	13261.48
470.95	13376.16
471.14	13790.44
471.32	13238.07
471.50	13713.20
471.68	13722.56
471.86	13944.91
472.04	13870.01
472.22	14190.67
472.40	13881.72
472.58	14115.77
472.77	13895.76
472.95	14420.04
473.13	14548.77
473.31	14209.39
473.49	14476.21
473.67	14314.72
473.85	14305.35
474.03	14754.74
474.21	14658.78
474.39	14878.79
474.57	15030.92
474.75	15176.03
474.93	15138.58
475.12	14871.76
475.30	15112.84
475.48	15185.40
475.66	15286.04
475.84	15372.64
476.02	15445.20
476.20	15609.03
476.38	15676.91
476.56	16238.64
476.74	15976.50
476.92	16140.33
477.10	16145.02
477.28	16208.21
477.46	16208.21
477.64	16475.03
477.82	16704.40
478.00	17345.71
478.18	16688.02
478.36	16865.90
478.54	17212.30
478.72	17453.37
478.90	17657.00
479.08	17516.57
479.26	17771.69
479.44	17535.29
479.62	17825.52
479.80	18192.98
479.98	18349.80
480.16	18906.85
480.34	18122.77
480.52	18679.82
480.70	18780.46
480.88	18593.22
481.06	18773.44
481.24	18925.57
481.41	19335.17
481.59	19569.22
481.77	19726.04
481.95	19704.97
482.13	20100.52
482.31	19508.37
482.49	20404.79
482.67	19992.86
482.85	20692.68
483.03	21001.63
483.21	21172.49
483.39	21216.96
483.57	21193.55
483.74	21497.82
483.92	21165.46
484.10	21137.38
484.28	21886.35
484.46	22209.34
484.64	22541.70
484.82	21928.48
485.00	22647.02
485.18	22850.65
485.35	23211.09
485.53	22972.36
485.71	23274.29
485.89	23667.50
486.07	23513.02
486.25	23555.15
486.43	24423.49
486.61	24088.79
486.78	24357.96
486.96	24503.07
487.14	24966.49
487.32	24788.61
487.50	24929.05
487.68	25090.54
487.85	25820.79
488.03	26085.27
488.21	26026.76
488.39	26267.83
488.57	26546.36
488.75	26459.76
488.92	26679.77
489.10	26799.13
489.28	27117.45
489.46	27267.24
489.64	27325.75
489.81	27779.82
489.99	27714.28
490.17	27941.32
490.35	28491.34
490.53	28395.38
490.70	28914.98
490.88	28617.73
491.06	29149.03
491.24	29064.77
491.41	29202.86
491.59	29153.71
491.77	29497.77
491.95	30050.14
492.13	30216.32
492.30	30190.57
492.48	30328.66
492.66	30323.98
492.84	30635.27
493.01	31094.02
493.19	30759.32
493.37	31660.43
493.54	31522.34
493.72	31634.68
493.90	31367.86
494.08	32254.92
494.25	32348.54
494.43	32184.71
494.61	32748.78
494.79	32666.86
494.96	32655.15
495.14	32996.87
495.32	33886.28
495.49	33013.26
495.67	33572.64
495.85	33479.02
496.02	34054.79
496.20	34038.41
496.38	34110.97
496.55	34845.90
496.73	35299.96
496.91	34927.81
497.09	35365.49
497.26	35641.68
497.44	34937.18
497.62	35840.62
497.79	35978.72
497.97	36006.80
498.14	36657.47
498.32	36378.95
498.50	36453.84
498.67	36849.39
498.85	36809.61
499.03	36741.73
499.20	37097.49
499.38	37214.52
499.56	37312.82
499.73	37443.89
499.91	37612.41
500.08	38089.88
500.26	37319.84
500.44	38244.35
500.61	38024.34
500.79	37764.54
500.97	38607.14
501.14	39000.35
501.32	38679.69
501.49	38696.08
501.67	39096.31
501.84	39512.92
502.02	39641.65
502.20	39463.77
502.37	39704.85
502.55	38995.67
502.72	39931.88
502.90	39971.67
503.07	39992.73
503.25	40208.06
503.43	39924.86
503.60	40399.99
503.78	40772.13
503.95	40502.97
504.13	40816.60
504.30	40718.30
504.48	41109.17
504.65	41265.99
504.83	41195.77
505.01	42014.96
505.18	41315.14
505.36	41799.63
505.53	41689.62
505.71	42164.75
505.88	41855.80
506.06	42061.77
506.23	42066.45
506.41	42068.79
506.58	42485.40
506.76	43005.00
506.93	42316.89
507.11	43005.00
507.28	42738.18
507.46	43040.11
507.63	43086.92
507.81	43866.32
507.98	43026.07
508.16	43325.66
508.33	43988.03
508.50	44095.69
508.68	43826.53
508.85	44074.63
509.03	44390.60
509.20	44240.81
509.38	44898.50
509.55	44718.28
509.73	44748.70
509.90	44912.54
510.08	44856.37
510.25	44687.85
510.42	45689.60
510.60	45219.15
510.77	45808.96
510.95	45986.85
511.12	45209.79
511.30	45640.45
511.47	46012.59
511.64	45820.67
511.82	46239.62
511.99	46169.41
512.17	46478.36
512.34	45729.39
512.51	46574.32
512.69	46799.01
512.86	46990.94
513.04	47103.28
513.21	46955.83
513.38	47063.49
513.56	47086.90
513.73	47402.87
513.90	47831.19
514.08	47398.19
514.25	47702.46
514.43	48034.81
514.60	47697.78
514.77	47669.69
514.95	47948.21
515.12	48158.86
515.29	48086.31
515.47	48266.53
515.64	48285.25
515.81	48116.73
515.99	48582.50
516.16	48729.95
516.33	48800.17
516.51	49301.04
516.68	48793.15
516.85	48704.21
517.03	49078.69
517.20	48713.57
517.37	49387.64
517.54	49373.60
517.72	49263.60
517.89	49111.46
518.06	49584.25
518.24	49469.56
518.41	49577.23
518.58	49811.28
518.75	49741.06
518.93	49825.32
519.10	49806.60
519.27	50085.12
519.45	50089.80
519.62	50279.39
519.79	50454.93
519.96	50014.91
520.14	50700.68
520.31	50389.39
520.48	50667.92
520.65	50560.25
520.83	51136.02
521.00	51049.42
521.17	50562.59
521.34	50679.62
521.52	51117.30
521.69	50920.70
521.86	51035.38
522.03	51147.73
522.20	51601.79
522.38	51597.11
522.55	51852.23
522.72	51669.67
522.89	51746.90
523.07	51906.06
523.24	51885.00
523.41	52107.35
523.58	51550.30
523.75	52257.14
523.92	52205.65
524.10	52093.30
524.27	52273.52
524.44	52280.55
524.61	52308.63
524.78	52472.47
524.96	52570.77
525.13	52643.33
525.30	52734.61
525.47	52884.40
525.64	52865.68
525.81	52861.00
525.98	53010.79
526.16	52861.00
526.33	52940.58
526.50	53413.37
526.67	53104.41
526.84	53289.32
527.01	52954.62
527.18	53408.68
527.36	53511.67
527.53	53574.86
527.70	53729.34
527.87	53757.42
528.04	53357.19
528.21	53844.02
528.38	53642.74
528.55	53998.50
528.72	53773.81
528.89	53661.46
529.07	53886.15
529.24	53743.38
529.41	54143.61
529.58	54106.16
529.75	53858.07
529.92	54021.90
530.09	54197.44
530.26	54258.30
530.43	54176.38
530.60	53914.24
530.77	54106.16
530.94	54358.94
531.11	54174.04
531.28	54333.20
531.46	54541.50
531.63	54646.83
531.80	54431.50
531.97	54607.04
532.14	54904.29
532.31	54974.50
532.48	54452.56
532.65	54948.76
532.82	54684.28
532.99	54974.50
533.16	54637.47
533.33	55009.61
533.50	55159.41
533.67	54719.38
533.84	54937.05
534.01	55051.74
534.18	55178.13
534.35	55370.05
534.52	55351.33
534.69	55473.04
534.86	55470.70
535.03	55173.45
535.20	55414.52
535.37	55503.46
535.54	55669.64
535.71	55461.33
535.88	55810.07
536.05	55735.18
536.22	55702.41
536.38	55803.05
536.55	55798.37
536.72	56025.40
536.89	55543.25
537.06	55632.19
537.23	55973.91
537.40	55901.36
537.57	56095.62
537.74	56191.58
537.91	56310.95
538.08	56065.19
538.25	56102.64
538.42	55943.48
538.59	56526.28
538.75	55875.61
538.92	56271.16
539.09	56259.46
539.26	56348.40
539.43	56203.28
539.60	56399.89
539.77	56615.22
539.94	56736.93
540.11	56203.28
540.28	56685.43
540.44	56664.37
540.61	56610.54
540.78	56491.17
540.95	56704.16
541.12	56528.62
541.29	56757.99
541.46	56423.29
541.62	56708.84
541.79	56811.82
541.96	56659.69
542.13	56912.47
542.30	56797.78
542.47	56905.44
542.63	57017.79
542.80	57085.67
542.97	57202.69
543.14	57516.32
543.31	57338.44
543.48	57471.85
543.64	57698.89
543.81	57574.84
543.98	57324.40
544.15	57532.71
544.32	57797.19
544.48	57726.97
544.65	57584.20
544.82	57642.71
544.99	57497.60
545.16	57762.08
545.32	57701.23
545.49	57804.21
545.66	57982.09
545.83	57839.32
546.00	57909.53
546.16	57865.06
546.33	57851.02
546.50	57867.40
546.67	57909.53
546.83	57691.86
547.00	57822.93
547.17	57968.05
547.34	57963.37
547.50	57930.60
547.67	58225.51
547.84	58239.55
548.00	58354.24
548.17	58234.87
548.34	58141.25
548.51	58269.98
548.67	58422.11
548.84	58361.26
549.01	58190.40
549.18	58403.39
549.34	58562.54
549.51	58639.78
549.68	58459.56
549.84	58602.33
550.01	58752.13
550.18	58541.48
550.34	58752.13
550.51	58679.57
550.68	58464.24
550.84	58511.05
551.01	58733.40
551.18	58817.66
551.34	58775.53
551.51	58742.77
551.68	58787.24
551.84	59000.22
552.01	58625.74
552.18	58906.60
552.34	58759.15
552.51	58988.52
552.68	58770.85
552.84	58820.00
553.01	59114.91
553.18	58986.18
553.34	58960.44
553.51	59171.08
553.67	59044.69
553.84	59159.38
554.01	59114.91
554.17	59171.08
554.34	59292.79
554.51	59189.81
554.67	59344.28
554.84	59070.44
555.00	59180.45
555.17	59224.92
555.33	59215.55
555.50	59093.85
555.67	59154.70
555.83	59360.67
556.00	59367.69
556.16	59641.53
556.33	59571.32
556.50	59540.89
556.66	59508.12
556.83	59358.33
556.99	59597.06
557.16	59704.73
557.32	59739.83
557.49	59793.67
557.65	59480.03
557.82	59522.16
557.98	59550.25
558.15	59664.94
558.32	59611.10
558.48	59477.69
558.65	59625.15
558.81	59763.24
558.98	59751.54
559.14	59894.31
559.31	59917.71
559.47	59891.97
559.64	59817.07
559.80	59966.87
559.97	59849.84
560.13	59948.14
560.30	59859.20
560.46	60053.47
560.63	59983.25
560.79	59966.87
560.96	60182.19
561.12	60100.28
561.29	60224.32
561.45	60109.64
561.61	60016.02
561.78	60097.94
561.94	59922.40
562.11	60158.79
562.27	60027.72
562.44	60233.69
562.60	60198.58
562.77	60027.72
562.93	60126.02
563.10	60411.57
563.26	60058.15
563.42	60467.74
563.59	60198.58
563.75	60259.43
563.92	60168.15
564.08	60023.04
564.24	60172.83
564.41	60324.97
564.57	60388.16
564.74	60423.27
564.90	60441.99
565.07	60154.11
565.23	60446.68
565.39	60294.54
565.56	60519.23
565.72	60441.99
565.88	60573.06
566.05	60154.11
566.21	60441.99
566.38	60563.70
566.54	60568.38
566.70	60720.52
566.87	60608.17
567.03	60355.39
567.19	60549.66
567.36	60477.10
567.52	60598.81
567.68	60720.52
567.85	60566.04
568.01	60535.62
568.17	60584.77
568.34	60676.05
568.50	60582.43
568.66	60444.33
568.83	60430.29
568.99	60659.66
569.15	60444.33
569.32	60734.56
569.48	60547.32
569.64	60786.05
569.81	60584.77
569.97	60505.19
570.13	60720.52
570.30	60376.46
570.46	60748.60
570.62	60725.20
570.78	60790.73
570.95	60636.26
571.11	60966.27
571.27	60622.22
571.43	60484.12
571.60	60994.36
571.76	60701.79
571.92	60823.50
572.09	60732.22
572.25	60865.63
572.41	60769.67
572.57	60718.18
572.74	61043.51
572.90	60863.29
573.06	60970.96
573.22	60865.63
573.38	60928.83
573.55	60905.42
573.71	61272.88
573.87	60949.89
574.03	60851.59
574.20	60783.71
574.36	60877.33
574.52	60811.80
574.68	61111.39
574.84	60945.21
575.01	60996.70
575.17	60903.08
575.33	60790.73
575.49	60776.69
575.65	60949.89
575.82	61104.37
575.98	60938.19
576.14	61151.18
576.30	61073.94
576.46	60816.48
576.62	61034.15
576.79	61027.13
576.95	60917.12
577.11	60949.89
577.27	61052.87
577.43	60926.49
577.59	60903.08
577.75	61050.53
577.92	60877.33
578.08	60860.95
578.24	60903.08
578.40	61350.12
578.56	61130.11
578.72	61113.73
578.88	61242.46
579.04	61127.77
579.21	61123.09
579.37	61317.35
579.53	61193.31
579.69	60992.02
579.85	60837.54
580.01	61120.75
580.17	60914.78
580.33	61186.28
580.49	61160.54
580.65	60992.02
580.82	60938.19
580.98	60863.29
581.14	60945.21
581.30	61057.56
581.46	61148.84
581.62	61200.33
581.78	60938.19
581.94	61165.22
582.10	61420.34
582.26	61155.86
582.42	61106.71
582.58	61139.47
582.74	61139.47
582.90	61195.65
583.06	61029.47
583.22	61022.45
583.38	61240.12
583.54	61251.82
583.70	61209.69
583.86	61130.11
584.02	61242.46
584.18	61413.32
584.34	61373.53
584.50	61109.05
584.66	61043.51
584.82	60992.02
584.98	61083.30
585.14	61261.18
585.30	61212.03
585.46	61364.17
585.62	61418.00
585.78	61216.71
585.94	60980.32
586.10	61237.78
586.26	61031.81
586.42	61256.50
586.58	61181.60
586.74	61244.80
586.90	61352.46
587.06	61029.47
587.22	61455.45
587.38	61146.50
587.54	61296.29
587.70	61422.68
587.86	61324.38
588.02	61366.51
588.18	61345.44
588.34	61181.60
