SpectraSuite Data File
++++++++++++++++++++++++++++++++++++
Date: Fri Oct 25 11:25:18 EDT 2013
User: price-jones
Dark Spectrum Present: No
Reference Spectrum Present: No
Number of Sampled Component Spectra: 1
Spectrometers: USB2+H05261
Integration Time (usec): 100000 (USB2+H05261)
Spectra Averaged: 1 (USB2+H05261)
Boxcar Smoothing: 0 (USB2+H05261)
Correct for Electrical Dark: No (USB2+H05261)
Strobe/Lamp Enabled: No (USB2+H05261)
Correct for Detector Non-linearity: No (USB2+H05261)
Correct for Stray Light: No (USB2+H05261)
Number of Pixels in Processed Spectrum: 2048
>>>>>Begin Processed Spectral Data<<<<<
365.73	203.63
365.92	203.63
366.12	203.63
366.32	198.95
366.52	119.37
366.72	74.90
366.91	128.73
367.11	81.92
367.31	159.16
367.51	128.73
367.70	222.35
367.90	112.35
368.10	102.98
368.30	175.54
368.49	74.90
368.69	177.88
368.89	133.41
369.09	159.16
369.28	166.18
369.48	156.82
369.68	166.18
369.87	210.65
370.07	229.37
370.27	294.91
370.47	341.72
370.66	524.28
370.86	557.05
371.06	608.54
371.25	660.03
371.45	629.60
371.65	592.16
371.84	765.36
372.04	664.71
372.24	744.29
372.44	720.88
372.63	695.14
372.83	699.82
373.03	765.36
373.22	823.87
373.42	767.70
373.62	779.40
373.81	816.85
374.01	777.06
374.21	800.46
374.40	727.91
374.60	786.42
374.79	730.25
374.99	767.70
375.19	826.21
375.38	826.21
375.58	905.79
375.78	844.93
375.97	868.34
376.17	919.83
376.37	809.83
376.56	908.13
376.76	840.25
376.95	889.40
377.15	873.02
377.35	887.06
377.54	931.53
377.74	917.49
377.93	950.26
378.13	940.90
378.33	933.87
378.52	945.58
378.72	983.02
378.91	919.83
379.11	950.26
379.31	922.17
379.50	863.66
379.70	1034.52
379.89	917.49
380.09	983.02
380.28	915.15
380.48	987.71
380.68	971.32
380.87	971.32
381.07	1020.47
381.26	1046.22
381.46	891.74
381.65	1015.79
381.85	985.37
382.04	997.07
382.24	1114.10
382.43	999.41
382.63	866.00
382.83	1057.92
383.02	1083.67
383.22	1153.88
383.41	1078.99
383.61	1111.75
383.80	1144.52
384.00	1090.69
384.19	1111.75
384.39	1153.88
384.58	1114.10
384.78	1212.40
384.97	1137.50
385.17	1097.71
385.36	1188.99
385.56	1144.52
385.75	1064.94
385.95	1252.19
386.14	1221.76
386.34	1266.23
386.53	1266.23
386.72	1200.69
386.92	1224.10
387.11	1163.25
387.31	1188.99
387.50	1224.10
387.70	1214.74
387.89	1217.08
388.09	1284.95
388.28	1345.81
388.48	1296.66
388.67	1324.74
388.86	1247.51
389.06	1315.38
389.25	1376.24
389.45	1320.06
389.64	1336.45
389.84	1362.19
390.03	1474.54
390.22	1404.32
390.42	1380.92
390.61	1350.49
390.81	1385.60
391.00	1399.64
391.19	1453.47
391.39	1416.02
391.58	1474.54
391.78	1467.52
391.97	1474.54
392.16	1446.45
392.36	1500.28
392.55	1516.67
392.75	1584.54
392.94	1577.52
393.13	1488.58
393.33	1544.75
393.52	1565.82
393.71	1556.46
393.91	1619.65
394.10	1551.78
394.29	1605.61
394.49	1582.20
394.68	1706.25
394.88	1589.22
395.07	1621.99
395.26	1640.72
395.46	1673.48
395.65	1661.78
395.84	1769.44
396.04	1678.16
396.23	1643.06
396.42	1706.25
396.62	1776.47
396.81	1710.93
397.00	1724.97
397.19	1776.47
397.39	1767.10
397.58	1891.15
397.77	1769.44
397.97	1923.92
398.16	1767.10
398.35	1769.44
398.55	1937.96
398.74	1928.60
398.93	1949.67
399.12	1961.37
399.32	1963.71
399.51	1961.37
399.70	1952.01
399.90	1907.54
400.09	2012.86
400.28	1954.35
400.47	2062.01
400.67	2059.67
400.86	2043.29
401.05	2052.65
401.24	2029.24
401.44	2057.33
401.63	2172.02
401.82	2197.76
402.01	2099.46
402.21	2108.82
402.40	2181.38
402.59	2200.10
402.78	2204.78
402.97	2239.89
403.17	2214.15
403.36	2218.83
403.55	2284.36
403.74	2326.49
403.93	2466.92
404.13	2342.88
404.32	2345.22
404.51	2436.50
404.70	2476.29
404.89	2471.61
405.09	2363.94
405.28	2373.30
405.47	2373.30
405.66	2438.84
405.85	2448.20
406.05	2480.97
406.24	2487.99
406.43	2600.34
406.62	2705.66
406.81	2609.70
407.00	2509.05
407.20	2546.50
407.39	2670.55
407.58	2567.57
407.77	2740.77
407.96	2782.90
408.15	2759.49
408.34	2789.92
408.54	2796.94
408.73	2686.94
408.92	2705.66
409.11	2857.79
409.30	2843.75
409.49	2869.50
409.68	2843.75
409.87	3021.63
410.07	2932.69
410.26	2967.80
410.45	2986.52
410.64	3045.04
410.83	3138.66
411.02	3068.44
411.21	3152.70
411.40	3049.72
411.59	3115.25
411.78	3148.02
411.98	3162.06
412.17	3248.66
412.36	3164.40
412.55	3274.41
412.74	3353.99
412.93	3456.97
413.12	3349.31
413.31	3471.01
413.50	3400.80
413.69	3400.80
413.88	3550.59
414.07	3527.19
414.26	3576.34
414.45	3655.92
414.64	3644.21
414.83	3693.37
415.02	3695.71
415.22	3808.05
415.41	3754.22
415.60	3740.18
415.79	3749.54
415.98	3899.33
416.17	3925.08
416.36	3892.31
416.55	3880.61
416.74	4084.23
416.93	3990.61
417.12	4074.87
417.31	4131.05
417.50	4114.66
417.69	4250.41
417.88	4259.78
418.07	4231.69
418.26	4379.14
418.45	4311.27
418.64	4327.65
418.83	4402.55
419.02	4322.97
419.21	4367.44
419.39	4559.36
419.58	4360.42
419.77	4500.85
419.96	4615.54
420.15	4456.38
420.34	4575.75
420.53	4554.68
420.72	4421.27
420.91	4606.17
421.10	4688.09
421.29	4713.84
421.48	4550.00
421.67	4709.16
421.86	4517.23
422.05	4713.84
422.24	4620.22
422.43	4718.52
422.61	4725.54
422.80	4819.16
422.99	4777.03
423.18	4947.89
423.37	4887.04
423.56	4990.02
423.75	4858.95
423.94	4865.97
424.13	4521.92
424.32	4685.75
424.50	4772.35
424.69	5081.30
424.88	5050.88
425.07	5029.81
425.26	4816.82
425.45	4973.64
425.64	4842.57
425.83	4910.44
426.01	4994.70
426.20	5043.85
426.39	4875.34
426.58	5076.62
426.77	5071.94
426.96	5008.75
427.15	5104.71
427.33	5121.09
427.52	5174.92
427.71	5320.04
427.90	5242.80
428.09	5270.89
428.28	5233.44
428.46	5322.38
428.65	5357.49
428.84	5366.85
429.03	5390.25
429.22	5193.65
429.40	5441.75
429.59	5462.81
429.78	5380.89
429.97	5268.55
430.16	5479.19
430.34	5584.52
430.53	5458.13
430.72	5671.12
430.91	5579.84
431.10	5416.00
431.28	5774.10
431.47	5621.97
431.66	5858.36
431.85	5640.69
432.03	5998.79
432.22	5888.79
432.41	5930.92
432.60	5872.40
432.79	5748.36
432.97	5909.85
433.16	5926.24
433.35	5937.94
433.54	5937.94
433.72	6106.46
433.91	6043.26
434.10	6197.74
434.28	6099.44
434.47	6090.07
434.66	6267.95
434.85	6258.59
435.03	6284.34
435.22	6108.80
435.41	6506.69
435.59	6396.68
435.78	6366.26
435.97	6349.87
436.16	6267.95
436.34	6359.24
436.53	6593.29
436.72	6506.69
436.90	6291.36
437.09	6665.85
437.28	6410.73
437.46	6569.88
437.65	6588.61
437.84	6724.36
438.02	6647.12
438.21	6799.26
438.40	6560.52
438.58	6897.56
438.77	6944.37
438.96	6761.81
439.14	6909.26
439.33	7234.60
439.52	7096.50
439.70	7049.69
439.89	7176.08
440.08	7145.66
440.26	7302.47
440.45	7344.60
440.63	7391.41
440.82	7447.58
441.01	7510.78
441.19	7630.15
441.38	7691.00
441.57	7646.53
441.75	7763.56
441.94	7868.88
442.12	7686.32
442.31	7953.14
442.50	7896.97
442.68	7894.63
442.87	8058.46
443.05	8086.55
443.24	8079.53
443.43	8102.93
443.61	8039.74
443.80	8463.38
443.98	7903.99
444.17	7812.71
444.35	8058.46
444.54	8243.37
444.73	8276.13
444.91	8159.11
445.10	8257.41
445.28	8257.41
445.47	8119.32
445.65	8205.92
445.84	8299.54
446.02	8386.14
446.21	8332.31
446.39	8395.50
446.58	8645.94
446.77	8465.72
446.95	8166.13
447.14	8278.47
447.32	8500.83
447.51	8376.78
447.69	8585.08
447.88	8514.87
448.06	8531.25
448.25	8411.89
448.43	8683.39
448.62	8404.86
448.80	8500.83
448.99	8655.30
449.17	8793.39
449.36	8458.70
449.54	8765.31
449.73	9069.58
449.91	8868.29
450.10	8872.97
450.28	9146.81
450.46	9039.15
450.65	8926.80
450.83	9088.30
451.02	8816.80
451.20	9172.56
451.39	8966.59
451.57	8971.27
451.76	9088.30
451.94	9060.21
452.13	9273.20
452.31	9109.36
452.49	9090.64
452.68	9350.44
452.86	9200.65
453.05	9172.56
453.23	9266.18
453.42	9202.99
453.60	9184.26
453.78	9572.79
453.97	9390.23
454.15	9399.59
454.34	9355.12
454.52	9593.86
454.70	9753.01
454.89	9633.64
455.07	9701.52
455.26	9731.95
455.44	9909.83
455.62	9678.12
455.81	9827.91
455.99	9724.93
456.17	10150.90
456.36	10017.49
456.54	9909.83
456.73	10223.46
456.91	10504.32
457.09	10162.61
457.28	10424.75
457.46	10340.49
457.64	10391.98
457.83	10394.32
458.01	10188.35
458.19	10649.44
458.38	10523.05
458.56	10422.41
458.74	10501.98
458.93	10607.31
459.11	10780.51
459.29	10623.69
459.48	10731.36
459.66	10773.49
459.84	10913.92
460.03	10890.51
460.21	10890.51
460.39	10719.65
460.57	11014.56
460.76	10918.60
460.94	11255.64
461.12	11002.86
461.31	11154.99
461.49	10993.50
461.67	10993.50
461.85	11386.71
462.04	11417.13
462.22	11829.07
462.40	11272.02
462.59	11623.10
462.77	11438.20
462.95	11555.22
463.13	11616.08
463.32	11375.00
463.50	11602.04
463.68	11763.53
463.86	11737.79
464.05	11442.88
464.23	11620.76
464.41	11800.98
464.59	11442.88
464.78	12060.78
464.96	11829.07
465.14	11887.58
465.32	12032.69
465.50	12123.98
465.69	11871.20
465.87	11913.33
466.05	12149.72
466.23	12053.76
466.41	12336.96
466.60	12224.62
466.78	11896.94
466.96	12105.25
467.14	12084.19
467.32	12311.22
467.51	12453.99
467.69	12058.44
467.87	12446.97
468.05	12461.01
468.23	12388.46
468.41	12346.33
468.60	12659.96
468.78	12514.84
468.96	12578.04
469.14	12643.57
469.32	13015.72
469.50	12285.47
469.69	12709.11
469.87	12989.97
470.05	12978.27
470.23	13048.49
470.41	13109.34
470.59	13123.38
470.77	12901.03
470.95	13111.68
471.14	13315.31
471.32	13092.96
471.50	13207.64
471.68	13448.72
471.86	13493.19
472.04	13661.71
472.22	13790.44
472.40	13420.63
472.58	13727.24
472.77	13907.46
472.95	13774.05
473.13	14384.93
473.31	13942.57
473.49	13909.80
473.67	13954.27
473.85	14317.06
474.03	14523.02
474.21	14586.22
474.39	14757.08
474.57	14546.43
474.75	14679.84
474.93	14780.48
475.12	14888.15
475.30	14677.50
475.48	14768.78
475.66	14979.43
475.84	14991.13
476.02	15307.10
476.20	15122.20
476.38	15620.74
476.56	15655.84
476.74	15559.88
476.92	15627.76
477.10	15800.96
477.28	15936.71
477.46	16016.29
477.64	16243.32
477.82	16460.99
478.00	16690.36
478.18	16732.49
478.36	16964.20
478.54	16989.95
478.72	17125.70
478.90	17252.09
479.08	17390.18
479.26	17605.51
479.44	17497.84
479.62	17467.42
479.80	17867.65
479.98	18178.94
480.16	18611.94
480.34	18244.48
480.52	18438.74
480.70	18548.75
480.88	18225.75
481.06	18286.61
481.24	18658.75
481.41	18562.79
481.59	18937.27
481.77	19199.41
481.95	19419.42
482.13	19573.90
482.31	19576.24
482.49	20163.72
482.67	20252.66
482.85	20360.32
483.03	20449.26
483.21	20577.99
483.39	20526.50
483.57	20727.78
483.74	21104.61
483.92	21118.65
484.10	20896.30
484.28	21476.76
484.46	21834.86
484.64	22317.01
484.82	21441.65
485.00	22108.70
485.18	22445.74
485.35	22740.64
485.53	22380.20
485.71	22705.54
485.89	23019.17
486.07	23080.02
486.25	23391.31
486.43	23293.01
486.61	23124.49
486.78	23772.82
486.96	24292.42
487.14	24292.42
487.32	24170.71
487.50	24659.88
487.68	24741.80
487.85	24877.55
488.03	25113.95
488.21	25858.24
488.39	25401.83
488.57	25921.43
488.75	25743.55
488.92	26209.32
489.10	26412.95
489.28	26597.85
489.46	26850.63
489.64	26859.99
489.81	27400.65
489.99	27381.93
490.17	27520.02
490.35	28046.64
490.53	27765.78
490.70	28161.33
490.88	27950.68
491.06	28690.29
491.24	28666.88
491.41	28666.88
491.59	29130.31
491.77	29212.23
491.95	29252.02
492.13	29621.82
492.30	29584.37
492.48	29759.91
492.66	29905.02
492.84	29961.20
493.01	30050.14
493.19	30288.87
493.37	30962.95
493.54	30761.66
493.72	31384.24
493.90	31199.34
494.08	31606.59
494.25	31821.92
494.43	31819.58
494.61	31936.61
494.79	32252.58
494.96	32580.26
495.14	32409.40
495.32	32870.48
495.49	33062.41
495.67	32788.56
495.85	33666.27
496.02	33338.59
496.20	33727.12
496.38	33909.68
496.55	33851.17
496.73	34663.33
496.91	34125.01
497.09	34759.30
497.26	34983.99
497.44	34595.46
497.62	34733.55
497.79	35545.72
497.97	34822.49
498.14	35758.70
498.32	35999.78
498.50	35477.84
498.67	36048.93
498.85	36180.00
499.03	36381.29
499.20	36329.80
499.38	36348.52
499.56	36540.44
499.73	36577.89
499.91	37141.96
500.08	37352.61
500.26	36940.68
500.44	37099.83
500.61	37310.48
500.79	37411.12
500.97	37797.31
501.14	38284.14
501.32	38337.98
501.49	38401.17
501.67	38167.12
501.84	38553.30
502.02	38501.81
502.20	39105.67
502.37	38752.25
502.55	38810.76
502.72	39356.11
502.90	39171.21
503.07	39538.67
503.25	39447.39
503.43	39061.20
503.60	39768.04
503.78	40170.61
503.95	40086.36
504.13	39889.75
504.30	40362.54
504.48	39955.29
504.65	39934.22
504.83	40863.41
505.01	40919.59
505.18	40662.13
505.36	41111.51
505.53	40774.47
505.71	41432.16
505.88	41464.93
506.06	40938.31
506.23	41591.32
506.41	41720.05
506.58	41507.06
506.76	41865.16
506.93	41972.83
507.11	41715.37
507.28	41897.93
507.46	42122.62
507.63	42344.97
507.81	42869.25
507.98	42508.81
508.16	42667.97
508.33	43075.22
508.50	43255.44
508.68	43264.80
508.85	43613.54
509.03	43805.47
509.20	43056.50
509.38	44186.97
509.55	44093.35
509.73	44175.27
509.90	44418.69
510.08	44285.28
510.25	44395.28
510.42	44421.03
510.60	44910.20
510.77	45013.18
510.95	44865.73
511.12	44692.53
511.30	44839.98
511.47	45256.60
511.64	45294.05
511.82	45186.38
511.99	45155.96
512.17	45507.04
512.34	45357.24
512.51	45916.63
512.69	46148.34
512.86	45991.53
513.04	46141.32
513.21	46373.03
513.38	46480.70
513.56	46719.43
513.73	46438.57
513.90	46635.17
514.08	46710.07
514.25	46829.44
514.43	46866.89
514.60	47065.83
514.77	46791.99
514.95	47232.01
515.12	47124.35
515.29	46958.17
515.47	47110.30
515.64	47545.64
515.81	47437.98
515.99	47519.90
516.16	48212.70
516.33	48067.58
516.51	48130.78
516.68	48025.45
516.85	48463.13
517.03	48521.65
517.20	48264.19
517.37	48811.87
517.54	48512.28
517.72	48645.69
517.89	48809.53
518.06	48802.51
518.24	48830.60
518.41	48961.67
518.58	49099.76
518.75	48994.43
518.93	49083.37
519.10	48966.35
519.27	49279.98
519.45	49181.68
519.62	49801.92
519.79	49436.80
519.96	49628.72
520.14	49748.09
520.31	49661.49
520.48	50050.02
520.65	49815.96
520.83	50237.26
521.00	50408.12
521.17	50040.65
521.34	50590.68
521.52	50688.98
521.69	50424.50
521.86	50499.40
522.03	51014.32
522.20	50581.32
522.38	51154.75
522.55	51054.11
522.72	51021.34
522.89	50969.85
523.07	51126.66
523.24	51231.99
523.41	51285.82
523.58	51386.46
523.75	51730.52
523.92	51533.92
524.10	51702.43
524.27	51606.47
524.44	51627.54
524.61	51779.67
524.78	51849.89
524.96	51847.55
525.13	51983.30
525.30	52048.83
525.47	52463.11
525.64	52275.87
525.81	52505.24
525.98	52505.24
526.16	52303.95
526.33	52594.18
526.50	52577.79
526.67	52390.55
526.84	52931.22
527.01	52547.37
527.18	52502.90
527.36	52765.04
527.53	52940.58
527.70	53141.86
527.87	53109.10
528.04	52947.60
528.21	52678.44
528.38	53361.87
528.55	53631.04
528.72	53289.32
528.89	53069.31
529.07	52980.37
529.24	53226.12
529.41	53303.36
529.58	53286.98
529.75	53371.24
529.92	53432.09
530.09	53336.13
530.26	53703.59
530.43	53607.63
530.60	53530.39
530.77	53717.64
530.94	53717.64
531.11	54003.18
531.28	53710.61
531.46	54057.01
531.63	54007.86
531.80	53911.90
531.97	53930.62
532.14	54412.77
532.31	54183.40
532.48	54426.82
532.65	54241.92
532.82	54265.32
532.99	54499.37
533.16	54396.39
533.33	54541.50
533.50	54429.16
533.67	54576.61
533.84	54262.98
534.01	54616.40
534.18	54721.72
534.35	55007.27
534.52	54623.42
534.69	54698.32
534.86	54951.10
535.03	54777.90
535.20	54651.51
535.37	55220.26
535.54	55241.32
535.71	55004.93
535.88	55009.61
536.05	55320.90
536.22	55384.10
536.38	55180.47
536.55	55491.76
536.72	55557.30
536.89	55189.83
537.06	55508.14
537.23	55458.99
537.40	55260.05
537.57	55566.66
537.74	55646.24
537.91	55554.96
538.08	55515.17
538.25	55547.93
538.42	55657.94
538.59	55924.76
538.75	55826.46
538.92	55861.57
539.09	55796.03
539.26	55976.25
539.43	55767.94
539.60	56100.30
539.77	55899.01
539.94	56275.84
540.11	55920.08
540.28	55964.55
540.44	56074.55
540.61	56210.31
540.78	56013.70
540.95	56189.24
541.12	56006.68
541.29	56442.02
541.46	56339.04
541.62	56346.06
541.79	56334.35
541.96	56060.51
542.13	56243.07
542.30	56432.66
542.47	56523.94
542.63	56474.79
542.80	56589.47
542.97	56832.89
543.14	57064.60
543.31	56898.42
543.48	57064.60
543.64	57336.10
543.81	57029.49
543.98	57151.20
544.15	57017.79
544.32	57088.01
544.48	57471.85
544.65	57017.79
544.82	57130.14
544.99	57052.90
545.16	57275.25
545.32	56914.81
545.49	57373.55
545.66	57623.99
545.83	57485.90
546.00	57471.85
546.16	57359.51
546.33	57324.40
546.50	57017.79
546.67	57521.01
546.83	57219.08
547.00	57415.68
547.17	57244.82
547.34	57553.77
547.50	57708.25
547.67	57865.06
547.84	57813.57
548.00	57972.73
548.17	58213.80
548.34	57860.38
548.51	57970.39
548.67	58007.84
548.84	58040.60
549.01	57937.62
549.18	57914.22
549.34	58087.42
549.51	58157.63
549.68	58305.09
549.84	58195.08
550.01	58309.77
550.18	58181.04
550.34	58354.24
550.51	57855.70
550.68	58143.59
550.84	58031.24
551.01	58370.62
551.18	58152.95
551.34	58337.85
551.51	58340.19
551.68	58319.13
551.84	58340.19
552.01	58127.20
552.18	58410.41
552.34	58227.85
552.51	58511.05
552.68	58347.21
552.84	58391.68
553.01	58742.77
553.18	58408.07
553.34	58740.42
553.51	58672.55
553.67	58894.90
553.84	58607.01
554.01	58726.38
554.17	58841.07
554.34	58894.90
554.51	58808.30
554.67	58674.89
554.84	58843.41
555.00	58897.24
555.17	58754.47
555.33	58836.39
555.50	58674.89
555.67	58700.64
555.83	58618.72
556.00	58670.21
556.16	59185.13
556.33	59114.91
556.50	58969.80
556.66	59194.49
556.83	58787.24
556.99	59250.66
557.16	59281.09
557.32	59110.23
557.49	59592.38
557.65	59068.10
557.82	59304.49
557.98	59253.00
558.15	59089.16
558.32	59241.30
558.48	59042.35
558.65	59131.29
558.81	59264.70
558.98	59278.75
559.14	59451.95
559.31	59236.62
559.47	59463.65
559.64	59465.99
559.80	59341.94
559.97	59482.37
560.13	59353.65
560.30	59627.49
560.46	59583.02
560.63	59468.33
560.79	59372.37
560.96	59678.98
561.12	59601.74
561.29	59627.49
561.45	59578.34
561.61	59627.49
561.78	59709.41
561.94	59564.29
562.11	59697.70
562.27	59592.38
562.44	59861.54
562.60	59821.75
562.77	59805.37
562.93	59646.21
563.10	59831.11
563.26	59533.87
563.42	59927.08
563.59	59702.38
563.75	59568.97
563.92	59817.07
564.08	59601.74
564.24	59922.40
564.41	59746.86
564.57	59962.18
564.74	59821.75
564.90	59994.95
565.07	59863.88
565.23	60095.60
565.39	59896.65
565.56	59952.82
565.72	60081.55
565.88	59959.84
566.05	59845.16
566.21	59824.09
566.38	60039.42
566.54	60109.64
566.70	60156.45
566.87	60062.83
567.03	59906.01
567.19	60252.41
567.36	60252.41
567.52	59866.22
567.68	60245.39
567.85	59910.69
568.01	60322.63
568.17	60229.01
568.34	60109.64
568.50	60142.41
568.66	59852.18
568.83	60313.26
568.99	60147.09
569.15	60210.28
569.32	60149.43
569.48	60093.25
569.64	60404.55
569.81	59983.25
569.97	59966.87
570.13	60224.32
570.30	60142.41
570.46	60343.69
570.62	60210.28
570.78	60207.94
570.95	60303.90
571.11	60425.61
571.27	60364.76
571.43	60247.73
571.60	60385.82
571.76	60343.69
571.92	60182.19
572.09	60458.38
572.25	60320.29
572.41	60446.68
572.57	60287.52
572.74	60556.68
572.90	60336.67
573.06	60605.83
573.22	60446.68
573.38	60404.55
573.55	60289.86
573.71	60495.83
573.87	60474.76
574.03	60519.23
574.20	60453.70
574.36	60420.93
574.52	60575.40
574.68	60397.52
574.84	60617.53
575.01	60516.89
575.17	60339.01
575.33	60324.97
575.49	60488.80
575.65	60589.45
575.82	60727.54
575.98	60729.88
576.14	60676.05
576.30	60643.28
576.46	60449.02
576.62	60547.32
576.79	60573.06
576.95	60523.91
577.11	60530.93
577.27	60610.51
577.43	60608.17
577.59	60458.38
577.75	60563.70
577.92	60687.75
578.08	60699.45
578.24	60697.11
578.40	60764.99
578.56	60729.88
578.72	60559.02
578.88	60839.89
579.04	60767.33
579.21	60622.22
579.37	60608.17
579.53	60942.87
579.69	60580.09
579.85	60512.21
580.01	60463.06
580.17	60636.26
580.33	60509.87
580.49	60685.41
580.65	60626.90
580.82	60802.44
580.98	60610.51
581.14	60622.22
581.30	60580.09
581.46	60671.37
581.62	60671.37
581.78	60624.56
581.94	61029.47
582.10	60729.88
582.26	60753.29
582.42	60472.42
582.58	60774.35
582.74	60865.63
582.90	60825.84
583.06	60767.33
583.22	60413.91
583.38	60542.64
583.54	60779.03
583.70	60821.16
583.86	60715.84
584.02	60725.20
584.18	60968.61
584.34	60715.84
584.50	60772.01
584.66	60617.53
584.82	60552.00
584.98	61111.39
585.14	60835.20
585.30	60612.85
585.46	60863.29
585.62	60746.26
585.78	60891.38
585.94	60732.22
586.10	60898.40
586.26	60786.05
586.42	60753.29
586.58	60743.92
586.74	60615.19
586.90	60882.02
587.06	60685.41
587.22	61017.77
587.38	60863.29
587.54	60973.30
587.70	61059.90
587.86	60804.78
588.02	60720.52
588.18	61045.85
588.34	60839.89
588.49	60830.52
