SpectraSuite Data File
++++++++++++++++++++++++++++++++++++
Date: Fri Oct 25 11:25:56 EDT 2013
User: price-jones
Dark Spectrum Present: No
Reference Spectrum Present: No
Number of Sampled Component Spectra: 1
Spectrometers: USB2+H05261
Integration Time (usec): 100000 (USB2+H05261)
Spectra Averaged: 1 (USB2+H05261)
Boxcar Smoothing: 0 (USB2+H05261)
Correct for Electrical Dark: No (USB2+H05261)
Strobe/Lamp Enabled: No (USB2+H05261)
Correct for Detector Non-linearity: No (USB2+H05261)
Correct for Stray Light: No (USB2+H05261)
Number of Pixels in Processed Spectrum: 2048
>>>>>Begin Processed Spectral Data<<<<<
365.73	255.12
365.92	255.12
366.12	255.12
366.32	175.54
366.52	156.82
366.72	187.24
366.91	95.96
367.11	124.05
367.31	60.85
367.51	117.03
367.70	149.79
367.90	203.63
368.10	168.52
368.30	180.22
368.49	147.45
368.69	238.73
368.89	175.54
369.09	105.32
369.28	117.03
369.48	107.66
369.68	180.22
369.87	212.99
370.07	184.90
370.27	266.82
370.47	351.08
370.66	540.66
370.86	657.69
371.06	711.52
371.25	711.52
371.45	713.86
371.65	685.78
371.84	676.41
372.04	674.07
372.24	664.71
372.44	734.93
372.63	702.16
372.83	737.27
373.03	727.91
373.22	828.55
373.42	812.17
373.62	805.14
373.81	826.21
374.01	774.72
374.21	844.93
374.40	837.91
374.60	800.46
374.79	805.14
374.99	755.99
375.19	873.02
375.38	926.85
375.58	870.68
375.78	863.66
375.97	849.61
376.17	938.55
376.37	814.51
376.56	851.96
376.76	863.66
376.95	863.66
377.15	908.13
377.35	847.27
377.54	959.62
377.74	837.91
377.93	908.13
378.13	910.47
378.33	971.32
378.52	980.68
378.72	978.34
378.91	915.15
379.11	954.94
379.31	964.30
379.50	936.21
379.70	896.43
379.89	926.85
380.09	945.58
380.28	943.24
380.48	1034.52
380.68	905.79
380.87	940.90
381.07	1071.97
381.26	1083.67
381.46	1069.62
381.65	992.39
381.85	1088.35
382.04	1022.81
382.24	1015.79
382.43	1083.67
382.63	1004.09
382.83	1057.92
383.02	1093.03
383.22	1121.12
383.41	1043.88
383.61	1100.05
383.80	1158.57
384.00	1130.48
384.19	1083.67
384.39	1188.99
384.58	1151.54
384.78	1100.05
384.97	1158.57
385.17	1158.57
385.36	1188.99
385.56	1170.27
385.75	1118.78
385.95	1184.31
386.14	1181.97
386.34	1153.88
386.53	1249.85
386.72	1238.14
386.92	1277.93
387.11	1172.61
387.31	1277.93
387.50	1313.04
387.70	1341.13
387.89	1219.42
388.09	1280.27
388.28	1224.10
388.48	1348.15
388.67	1409.00
388.86	1277.93
389.06	1385.60
389.25	1282.61
389.45	1263.89
389.64	1413.68
389.84	1387.94
390.03	1322.40
390.22	1329.42
390.42	1343.47
390.61	1390.28
390.81	1404.32
391.00	1352.83
391.19	1474.54
391.39	1399.64
391.58	1488.58
391.78	1430.07
391.97	1519.01
392.16	1467.52
392.36	1579.86
392.55	1540.07
392.75	1544.75
392.94	1593.90
393.13	1547.09
393.33	1497.94
393.52	1533.05
393.71	1647.74
393.91	1565.82
394.10	1528.37
394.29	1668.80
394.49	1572.84
394.68	1598.59
394.88	1633.69
395.07	1621.99
395.26	1586.88
395.46	1617.31
395.65	1647.74
395.84	1675.82
396.04	1795.19
396.23	1741.36
396.42	1746.04
396.62	1858.39
396.81	1806.89
397.00	1755.40
397.19	1741.36
397.39	1792.85
397.58	1809.23
397.77	1851.36
397.97	1818.60
398.16	1851.36
398.35	1874.77
398.55	1891.15
398.74	1856.04
398.93	1877.11
399.12	1921.58
399.32	1820.94
399.51	1954.35
399.70	1954.35
399.90	1947.33
400.09	2029.24
400.28	2092.44
400.47	2076.06
400.67	2111.16
400.86	2003.50
401.05	2097.12
401.24	2115.84
401.44	2085.42
401.63	2167.34
401.82	2223.51
402.01	2101.80
402.21	2183.72
402.40	2099.46
402.59	2188.40
402.78	2349.90
402.97	2153.29
403.17	2310.11
403.36	2265.64
403.55	2169.68
403.74	2326.49
403.93	2305.43
404.13	2300.75
404.32	2349.90
404.51	2382.67
404.70	2420.11
404.89	2256.28
405.09	2455.22
405.28	2457.56
405.47	2363.94
405.66	2597.99
405.85	2558.21
406.05	2462.24
406.24	2441.18
406.43	2487.99
406.62	2665.87
406.81	2642.46
407.00	2612.04
407.20	2642.46
407.39	2661.19
407.58	2630.76
407.77	2750.13
407.96	2747.79
408.15	2775.88
408.34	2644.81
408.54	2738.43
408.73	2747.79
408.92	2710.34
409.11	2864.82
409.30	2946.73
409.49	2885.88
409.68	2930.35
409.87	2925.67
410.07	2984.18
410.26	2958.44
410.45	2949.08
410.64	3049.72
410.83	3150.36
411.02	3185.47
411.21	3082.49
411.40	3255.69
411.59	3391.44
411.78	3222.92
411.98	3084.83
412.17	3215.90
412.36	3265.05
412.55	3375.05
412.74	3489.74
412.93	3393.78
413.12	3396.12
413.31	3588.04
413.50	3400.80
413.69	3482.72
413.88	3529.53
414.07	3529.53
414.26	3679.32
414.45	3604.42
414.64	3625.49
414.83	3721.45
415.02	3822.09
415.22	3957.85
415.41	3857.20
415.60	3833.80
415.79	3934.44
415.98	3819.75
416.17	3936.78
416.36	3953.16
416.55	4009.34
416.74	4049.13
416.93	4051.47
417.12	4145.09
417.31	4049.13
417.50	4290.20
417.69	4301.90
417.88	4266.80
418.07	4346.37
418.26	4297.22
418.45	4222.33
418.64	4458.72
418.83	4461.06
419.02	4372.12
419.21	4463.40
419.39	4535.96
419.58	4447.02
419.77	4390.84
419.96	4557.02
420.15	4517.23
420.34	4418.93
420.53	4550.00
420.72	4772.35
420.91	4674.05
421.10	4699.80
421.29	4779.37
421.48	4652.98
421.67	4767.67
421.86	4744.27
422.05	4748.95
422.24	4713.84
422.43	4847.25
422.61	4833.21
422.80	4835.55
422.99	4865.97
423.18	4814.48
423.37	4990.02
423.56	4959.60
423.75	4905.76
423.94	4837.89
424.13	4547.66
424.32	4739.58
424.50	4980.66
424.69	4945.55
424.88	5011.09
425.07	4922.15
425.26	4938.53
425.45	4980.66
425.64	4994.70
425.83	4880.02
426.01	5069.60
426.20	5142.16
426.39	5100.03
426.58	5142.16
426.77	5132.79
426.96	5116.41
427.15	5128.11
427.33	5158.54
427.52	5048.54
427.71	5093.01
427.90	5085.98
428.09	5418.34
428.28	5329.40
428.46	5313.02
428.65	5315.36
428.84	5497.92
429.03	5643.03
429.22	5366.85
429.40	5404.30
429.59	5437.06
429.78	5364.51
429.97	5174.92
430.16	5631.33
430.34	5504.94
430.53	5717.93
430.72	5636.01
430.91	5614.95
431.10	5577.50
431.28	5692.18
431.47	5846.66
431.66	5874.74
431.85	5832.62
432.03	5942.62
432.22	5914.53
432.41	5872.40
432.60	5846.66
432.79	6001.13
432.97	5954.32
433.16	6015.18
433.35	5846.66
433.54	6024.54
433.72	6078.37
433.91	6038.58
434.10	5930.92
434.28	6129.86
434.47	6160.29
434.66	6211.78
434.85	6181.35
435.03	6415.41
435.22	6363.92
435.41	6410.73
435.59	6310.08
435.78	6436.47
435.97	6490.31
436.16	6382.64
436.34	6260.93
436.53	6401.37
436.72	6733.72
436.90	6410.73
437.09	6441.15
437.28	6520.73
437.46	6684.57
437.65	6569.88
437.84	6855.43
438.02	6684.57
438.21	6722.02
438.40	6544.14
438.58	6862.45
438.77	7021.61
438.96	6733.72
439.14	6967.77
439.33	7070.76
439.52	7227.57
439.70	7138.63
439.89	7300.13
440.08	7293.11
440.26	7241.62
440.45	7243.96
440.63	7382.05
440.82	7576.31
441.01	7536.52
441.19	7604.40
441.38	7522.48
441.57	7646.53
441.75	7791.64
441.94	7927.39
442.12	7922.71
442.31	7997.61
442.50	7852.50
442.68	7908.67
442.87	7887.61
443.05	8231.66
443.24	8161.45
443.43	8126.34
443.61	8159.11
443.80	8472.74
443.98	7995.27
444.17	7850.16
444.35	8058.46
444.54	8264.43
444.73	8315.92
444.91	8327.63
445.10	8540.61
445.28	8414.23
445.47	8079.53
445.65	8418.91
445.84	8294.86
446.02	8554.66
446.21	8748.92
446.39	8138.04
446.58	8435.29
446.77	8477.42
446.95	8226.98
447.14	8416.57
447.32	8634.24
447.51	8439.97
447.69	8510.19
447.88	8514.87
448.06	8425.93
448.25	8496.14
448.43	8692.75
448.62	8575.72
448.80	8496.14
448.99	8475.08
449.17	8676.37
449.36	8648.28
449.54	8762.97
449.73	8851.91
449.91	8961.91
450.10	8898.72
450.28	8994.68
450.46	9025.11
450.65	9039.15
450.83	8992.34
451.02	9006.38
451.20	9186.60
451.39	9142.13
451.57	9039.15
451.76	9036.81
451.94	9249.80
452.13	9207.67
452.31	9231.07
452.49	9282.56
452.68	9132.77
452.86	9329.38
453.05	9329.38
453.23	9640.67
453.42	9350.44
453.60	9320.01
453.78	9540.02
453.97	9357.46
454.15	9507.26
454.34	9434.70
454.52	9760.03
454.70	9570.45
454.89	9680.46
455.07	9762.37
455.26	9771.74
455.44	9762.37
455.62	9825.57
455.81	9750.67
455.99	10242.18
456.17	10001.11
456.36	10047.92
456.54	10181.33
456.73	10354.53
456.91	10450.49
457.09	10368.57
457.28	10616.67
457.46	10321.76
457.64	10651.78
457.83	10490.28
458.01	10216.44
458.19	10651.78
458.38	10583.90
458.56	10616.67
458.74	10670.50
458.93	10764.12
459.11	10602.63
459.29	10611.99
459.48	10710.29
459.66	10724.33
459.84	10672.84
460.03	11112.86
460.21	10885.83
460.39	10881.15
460.57	10993.50
460.76	11199.46
460.94	11147.97
461.12	11143.29
461.31	11049.67
461.49	11171.38
461.67	11159.67
461.85	11477.99
462.04	11337.56
462.22	11705.02
462.40	11630.12
462.59	11480.33
462.77	11328.19
462.95	11632.46
463.13	11515.44
463.32	11648.85
463.50	11693.32
463.68	11789.28
463.86	11859.49
464.05	11763.53
464.23	11681.61
464.41	11796.30
464.59	11887.58
464.78	12138.02
464.96	11894.60
465.14	11707.36
465.32	12105.25
465.50	12203.55
465.69	12152.06
465.87	12109.93
466.05	12084.19
466.23	12119.29
466.41	12138.02
466.60	12533.57
466.78	12184.83
466.96	12212.92
467.14	12159.08
467.32	12231.64
467.51	12369.73
467.69	12187.17
467.87	12315.90
468.05	12547.61
468.23	12453.99
468.41	12496.12
468.60	12709.11
468.78	12791.03
468.96	12367.39
469.14	12606.13
469.32	12823.80
469.50	12655.28
469.69	12926.78
469.87	13001.68
470.05	13050.83
470.23	13139.77
470.41	12926.78
470.59	13392.55
470.77	12950.18
470.95	13153.81
471.14	13563.40
471.32	13193.60
471.50	13621.92
471.68	13476.80
471.86	13474.46
472.04	13734.26
472.22	13706.18
472.40	13610.22
472.58	13813.84
472.77	14026.83
472.95	14104.07
473.13	14565.15
473.31	13909.80
473.49	14125.13
473.67	14108.75
473.85	14087.68
474.03	14497.28
474.21	14410.68
474.39	14548.77
474.57	14733.67
474.75	14874.10
474.93	14712.61
475.12	14630.69
475.30	15248.59
475.48	15047.30
475.66	15007.52
475.84	15211.14
476.02	15784.57
476.20	15243.91
476.38	15686.27
476.56	16056.08
476.74	15988.20
476.92	15693.29
477.10	15829.04
477.28	15950.75
477.46	16348.64
477.64	16201.19
477.82	16210.55
478.00	16601.42
478.18	16821.43
478.36	16912.71
478.54	17003.99
478.72	17074.21
478.90	17177.19
479.08	17729.56
479.26	17797.43
479.44	17605.51
479.62	17792.75
479.80	18090.00
479.98	18108.72
480.16	18331.08
480.34	18040.85
480.52	18693.86
480.70	18806.20
480.88	18478.53
481.06	18586.19
481.24	18899.83
481.41	18981.74
481.59	19590.28
481.77	19145.58
481.95	19737.74
482.13	19660.50
482.31	19845.40
482.49	20430.54
482.67	20121.59
482.85	20154.35
483.03	20547.56
483.21	20589.69
483.39	20746.51
483.57	20748.85
483.74	21050.78
483.92	21324.62
484.10	21172.49
484.28	21245.04
484.46	21764.64
484.64	22530.00
484.82	21797.41
485.00	22419.99
485.18	22497.23
485.35	23206.41
485.53	22710.22
485.71	23119.81
485.89	23491.96
486.07	23175.98
486.25	23234.50
486.43	23328.12
486.61	23803.25
486.78	24203.48
486.96	24297.10
487.14	24655.20
487.32	24617.75
487.50	24662.22
487.68	24727.76
487.85	25336.30
488.03	25137.35
488.21	25919.09
488.39	25666.31
488.57	25984.63
488.75	26235.06
488.92	26082.93
489.10	26862.33
489.28	26668.06
489.46	27028.51
489.64	27168.94
489.81	27800.88
489.99	27559.81
490.17	27222.77
490.35	27857.06
490.53	28105.15
490.70	28198.77
490.88	28339.21
491.06	29027.32
491.24	28713.69
491.41	29032.00
491.59	29064.77
491.77	29088.18
491.95	29715.44
492.13	29652.25
492.30	30031.41
492.48	29708.42
492.66	29874.60
492.84	30422.28
493.01	30331.00
493.19	30464.41
493.37	30654.00
493.54	31328.07
493.72	31559.78
493.90	31089.34
494.08	31585.53
494.25	31922.57
494.43	31807.88
494.61	32168.32
494.79	32498.34
494.96	32528.77
495.14	32275.99
495.32	33097.52
495.49	32980.49
495.67	33343.27
495.85	33624.14
496.02	33631.16
496.20	33724.78
496.38	33851.17
496.55	33942.45
496.73	34672.70
496.91	34291.19
497.09	34600.14
497.26	34941.86
497.44	35122.08
497.62	34913.77
497.79	35906.16
497.97	35173.57
498.14	35737.64
498.32	36224.47
498.50	36016.16
498.67	36360.22
498.85	36285.33
499.03	36723.01
499.20	36704.28
499.38	36442.14
499.56	37036.64
499.73	36975.78
499.91	36914.93
500.08	37656.88
500.26	37193.45
500.44	37502.40
500.61	37694.33
500.79	37502.40
500.97	38176.48
501.14	38778.00
501.32	38394.15
501.49	38288.82
501.67	38930.13
501.84	38782.68
502.02	38197.54
502.20	38646.93
502.37	39295.25
502.55	39239.08
502.72	39248.44
502.90	39152.48
503.07	39463.77
503.25	39569.10
503.43	39318.66
503.60	39674.42
503.78	39828.90
503.95	40076.99
504.13	40030.18
504.30	40577.87
504.48	40847.03
504.65	40507.65
504.83	40818.94
505.01	41333.86
505.18	41118.53
505.36	41263.64
505.53	41474.29
505.71	41509.40
505.88	41720.05
506.06	41567.91
506.23	41790.27
506.41	42169.43
506.58	41645.15
506.76	42110.92
506.93	42604.77
507.11	42171.77
507.28	42422.21
507.46	42904.36
507.63	42703.07
507.81	42962.87
507.98	42902.02
508.16	43215.65
508.33	43496.52
508.50	43182.88
508.68	43229.69
508.85	43819.51
509.03	43604.18
509.20	43559.71
509.38	44374.22
509.55	43901.43
509.73	44318.04
509.90	44650.40
510.08	44257.19
510.25	44591.89
510.42	44629.34
510.60	44783.81
510.77	45083.40
510.95	45071.70
511.12	45031.91
511.30	44694.87
511.47	45265.96
511.64	45443.84
511.82	45993.87
511.99	45834.71
512.17	45921.31
512.34	45626.40
512.51	46377.72
512.69	46101.53
512.86	46494.74
513.04	46122.60
513.21	46375.37
513.38	46494.74
513.56	47028.38
513.73	46766.24
513.90	46838.80
514.08	46618.79
514.25	46990.94
514.43	47241.37
514.60	47028.38
514.77	47035.41
514.95	47129.03
515.12	47054.13
515.29	47274.14
515.47	47929.49
515.64	47906.08
515.81	47866.30
515.99	48179.93
516.16	48526.33
516.33	47971.62
516.51	48491.22
516.68	48130.78
516.85	48296.95
517.03	48615.27
517.20	48755.70
517.37	49097.42
517.54	48708.89
517.72	48708.89
517.89	48863.36
518.06	49074.01
518.24	49240.19
518.41	49177.00
518.58	48956.99
518.75	48879.75
518.93	49256.57
519.10	49188.70
519.27	49649.78
519.45	49490.63
519.62	49621.70
519.79	49944.69
519.96	50007.89
520.14	50064.06
520.31	49853.41
520.48	50330.88
520.65	50108.53
520.83	50630.47
521.00	50405.78
521.17	50103.85
521.34	50321.52
521.52	50553.23
521.69	50953.46
521.86	50953.46
522.03	50822.39
522.20	51091.55
522.38	51349.01
522.55	51332.63
522.72	51121.98
522.89	50920.70
523.07	51660.30
523.24	51473.06
523.41	51480.08
523.58	51494.13
523.75	51349.01
523.92	51629.88
524.10	51847.55
524.27	52053.51
524.44	51765.63
524.61	52076.92
524.78	51758.61
524.96	51971.60
525.13	52252.46
525.30	52449.06
525.47	52086.28
525.64	52072.24
525.81	52718.23
525.98	52282.89
526.16	52893.77
526.33	52460.77
526.50	52872.70
526.67	52839.93
526.84	52669.08
527.01	53055.26
527.18	52790.78
527.36	52853.98
527.53	53097.39
527.70	53200.38
527.87	53368.90
528.04	52963.98
528.21	53308.04
528.38	53375.92
528.55	53619.33
528.72	53514.01
528.89	53448.47
529.07	53272.93
529.24	53254.21
529.41	53731.68
529.58	53518.69
529.75	53347.83
529.92	53490.60
530.09	53640.40
530.26	53797.21
530.43	54344.90
530.60	53670.82
530.77	53731.68
530.94	53923.60
531.11	53881.47
531.28	54176.38
531.46	54014.88
531.63	54054.67
531.80	53776.15
531.97	54244.26
532.14	54270.00
532.31	54426.82
532.48	54555.55
532.65	54525.12
532.82	54312.13
532.99	54766.20
533.16	54506.40
533.33	54674.91
533.50	54803.64
533.67	54567.25
533.84	54490.01
534.01	54824.71
534.18	54953.44
534.35	54951.10
534.52	55157.06
534.69	55058.76
534.86	55208.56
535.03	54906.63
535.20	55037.70
535.37	55201.53
535.54	55316.22
535.71	55007.27
535.88	55430.91
536.05	55068.12
536.22	55526.87
536.38	55648.58
536.55	55604.11
536.72	55491.76
536.89	55068.12
537.06	55461.33
537.23	55435.59
537.40	55597.09
537.57	55547.93
537.74	55480.06
537.91	55861.57
538.08	55725.81
538.25	55480.06
538.42	55702.41
538.59	55962.21
538.75	55840.50
538.92	55927.10
539.09	56081.58
539.26	55994.98
539.43	56023.06
539.60	56128.39
539.77	56079.24
539.94	56144.77
540.11	56390.53
540.28	56465.42
540.44	56299.25
540.61	56324.99
540.78	56079.24
540.95	56278.18
541.12	56271.16
541.29	56533.30
541.46	56467.76
541.62	56481.81
541.79	56767.35
541.96	56343.72
542.13	56561.39
542.30	56678.41
542.47	56853.95
542.63	56549.68
542.80	56865.66
542.97	57088.01
543.14	57212.06
543.31	57069.28
543.48	57043.54
543.64	57411.00
543.81	57347.81
543.98	57226.10
544.15	57230.78
544.32	57551.43
544.48	57471.85
544.65	57347.81
544.82	57202.69
544.99	57085.67
545.16	57680.16
545.32	57169.93
545.49	57715.27
545.66	57621.65
545.83	57455.47
546.00	57614.63
546.16	57448.45
546.33	57422.70
546.50	57488.24
546.67	57626.33
546.83	57439.09
547.00	57518.67
547.17	57586.54
547.34	57818.25
547.50	57813.57
547.67	58164.65
547.84	58028.90
548.00	57799.53
548.17	57911.88
548.34	57858.04
548.51	58255.93
548.67	57869.75
548.84	57949.32
549.01	58049.97
549.18	57951.66
549.34	58136.57
549.51	58174.02
549.68	58218.49
549.84	58045.29
550.01	58445.52
550.18	58216.14
550.34	58391.68
550.51	58085.07
550.68	58204.44
550.84	58181.04
551.01	58461.90
551.18	58548.50
551.34	58344.87
551.51	58482.97
551.68	58415.09
551.84	58494.67
552.01	58284.02
552.18	58511.05
552.34	58340.19
552.51	58670.21
552.68	58501.69
552.84	58717.02
553.01	58805.96
553.18	58752.13
553.34	58885.54
553.51	58628.08
553.67	58642.12
553.84	58820.00
554.01	58894.90
554.17	58913.62
554.34	59054.06
554.51	58920.65
554.67	59002.56
554.84	58845.75
555.00	58979.16
555.17	58911.28
555.33	58922.99
555.50	58871.49
555.67	59091.51
555.83	58784.90
556.00	59110.23
556.16	59437.90
556.33	59245.98
556.50	59063.42
556.66	59063.42
556.83	59016.61
556.99	59374.71
557.16	59456.63
557.32	59311.52
557.49	59597.06
557.65	59473.01
557.82	59182.79
557.98	59580.68
558.15	59124.27
558.32	59309.18
558.48	59084.48
558.65	59367.69
558.81	59299.81
558.98	59536.21
559.14	59302.15
559.31	59524.50
559.47	59402.80
559.64	59641.53
559.80	59489.40
559.97	59597.06
560.13	59533.87
560.30	59590.04
560.46	59718.77
560.63	59784.30
560.79	59709.41
560.96	59840.48
561.12	59758.56
561.29	59856.86
561.45	59693.02
561.61	59903.67
561.78	59870.90
561.94	59854.52
562.11	59884.95
562.27	59714.09
562.44	60020.70
562.60	60088.57
562.77	59875.58
562.93	59674.30
563.10	59976.23
563.26	59826.43
563.42	60044.10
563.59	59833.46
563.75	59772.60
563.92	60065.17
564.08	59943.46
564.24	60168.15
564.41	60093.25
564.57	60102.62
564.74	59990.27
564.90	60144.75
565.07	60001.97
565.23	60121.34
565.39	60102.62
565.56	60083.89
565.72	60032.40
565.88	60104.96
566.05	60016.02
566.21	60027.72
566.38	59891.97
566.54	60149.43
566.70	60165.81
566.87	60313.26
567.03	60095.60
567.19	60451.36
567.36	60350.71
567.52	60308.58
567.68	60411.57
567.85	60154.11
568.01	60430.29
568.17	60278.16
568.34	60315.61
568.50	60292.20
568.66	60310.92
568.83	60301.56
568.99	60294.54
569.15	60580.09
569.32	60210.28
569.48	60554.34
569.64	60416.25
569.81	60549.66
569.97	60217.30
570.13	60523.91
570.30	60182.19
570.46	60264.11
570.62	60339.01
570.78	60474.76
570.95	60617.53
571.11	60491.15
571.27	60392.84
571.43	60664.35
571.60	60425.61
571.76	60404.55
571.92	60591.79
572.09	60526.25
572.25	60481.78
572.41	60491.15
572.57	60460.72
572.74	60659.66
572.90	60444.33
573.06	60591.79
573.22	60449.02
573.38	60491.15
573.55	60713.50
573.71	60573.06
573.87	60336.67
574.03	60280.50
574.20	60736.90
574.36	60523.91
574.52	60664.35
574.68	60596.47
574.84	60622.22
575.01	60809.46
575.17	60594.13
575.33	60528.59
575.49	60596.47
575.65	60870.31
575.82	60921.80
575.98	60664.35
576.14	60994.36
576.30	60662.00
576.46	60697.11
576.62	60748.60
576.79	60732.22
576.95	60362.42
577.11	60647.96
577.27	60818.82
577.43	60804.78
577.59	60577.75
577.75	60783.71
577.92	60617.53
578.08	60935.85
578.24	60643.28
578.40	60945.21
578.56	60917.12
578.72	60570.72
578.88	60938.19
579.04	60874.99
579.21	60746.26
579.37	60893.72
579.53	60816.48
579.69	60619.88
579.85	60704.13
580.01	60699.45
580.17	60619.88
580.33	60774.35
580.49	60912.44
580.65	61050.53
580.82	60842.23
580.98	60793.07
581.14	60879.67
581.30	61076.28
581.46	60788.39
581.62	61027.13
581.78	60851.59
581.94	60910.10
582.10	60715.84
582.26	60542.64
582.42	60697.11
582.58	60865.63
582.74	60523.91
582.90	60797.76
583.06	60839.89
583.22	60736.90
583.38	60870.31
583.54	60748.60
583.70	60788.39
583.86	60893.72
584.02	60739.24
584.18	61036.49
584.34	60985.00
584.50	61017.77
584.66	60907.76
584.82	60860.95
584.98	60992.02
585.14	61127.77
585.30	60788.39
585.46	60795.42
585.62	60917.12
585.78	60853.93
585.94	60701.79
586.10	60781.37
586.26	60839.89
586.42	60912.44
586.58	60977.98
586.74	60928.83
586.90	60774.35
587.06	60912.44
587.22	61048.19
587.38	60846.91
587.54	60996.70
587.70	61230.75
587.86	60767.33
588.02	60905.42
588.18	61134.79
588.34	60898.40
588.49	60877.33
