SpectraSuite Data File
++++++++++++++++++++++++++++++++++++
Date: Fri Oct 25 10:47:51 EDT 2013
User: price-jones
Dark Spectrum Present: No
Reference Spectrum Present: No
Number of Sampled Component Spectra: 1
Spectrometers: USB2+H05261
Integration Time (usec): 100000 (USB2+H05261)
Spectra Averaged: 1 (USB2+H05261)
Boxcar Smoothing: 0 (USB2+H05261)
Correct for Electrical Dark: No (USB2+H05261)
Strobe/Lamp Enabled: No (USB2+H05261)
Correct for Detector Non-linearity: No (USB2+H05261)
Correct for Stray Light: No (USB2+H05261)
Number of Pixels in Processed Spectrum: 2048
>>>>>Begin Processed Spectral Data<<<<<
365.73	88.94
365.92	88.94
366.12	88.94
366.32	32.77
366.52	32.77
366.72	145.11
366.91	35.11
367.11	81.92
367.31	30.43
367.51	65.54
367.70	37.45
367.90	60.85
368.10	105.32
368.30	7.02
368.49	9.36
368.69	74.90
368.89	112.35
369.09	95.96
369.28	58.51
369.48	53.83
369.68	145.11
369.87	91.28
370.07	187.24
370.27	124.05
370.47	168.52
370.66	402.57
370.86	383.85
371.06	447.04
371.25	472.79
371.45	418.96
371.65	442.36
371.84	393.21
372.04	425.98
372.24	533.64
372.44	461.09
372.63	477.47
372.83	535.98
373.03	517.26
373.22	458.74
373.42	482.15
373.62	554.71
373.81	475.13
374.01	517.26
374.21	564.07
374.40	517.26
374.60	575.77
374.79	610.88
374.99	547.69
375.19	573.43
375.38	500.87
375.58	627.26
375.78	638.97
375.97	643.65
376.17	653.01
376.37	503.22
376.56	601.52
376.76	568.75
376.95	528.96
377.15	599.18
377.35	580.45
377.54	650.67
377.74	594.50
377.93	653.01
378.13	606.20
378.33	587.47
378.52	578.11
378.72	660.03
378.91	638.97
379.11	606.20
379.31	662.37
379.50	582.79
379.70	631.94
379.89	751.31
380.09	641.31
380.28	678.76
380.48	720.88
380.68	650.67
380.87	615.56
381.07	645.99
381.26	664.71
381.46	578.11
381.65	599.18
381.85	653.01
382.04	662.37
382.24	718.54
382.43	664.71
382.63	671.73
382.83	718.54
383.02	690.46
383.22	746.63
383.41	664.71
383.61	713.86
383.80	788.76
384.00	746.63
384.19	734.93
384.39	763.01
384.58	786.42
384.78	727.91
384.97	772.38
385.17	770.04
385.36	777.06
385.56	779.40
385.75	823.87
385.95	847.27
386.14	826.21
386.34	856.64
386.53	671.73
386.72	795.78
386.92	793.44
387.11	828.55
387.31	816.85
387.50	802.80
387.70	770.04
387.89	863.66
388.09	816.85
388.28	763.01
388.48	854.30
388.67	823.87
388.86	837.91
389.06	809.83
389.25	976.00
389.45	912.81
389.64	816.85
389.84	903.45
390.03	917.49
390.22	903.45
390.42	889.40
390.61	873.02
390.81	882.38
391.00	933.87
391.19	931.53
391.39	903.45
391.58	966.64
391.78	947.92
391.97	997.07
392.16	980.68
392.36	1027.50
392.55	973.66
392.75	924.51
392.94	992.39
393.13	1020.47
393.33	968.98
393.52	973.66
393.71	985.37
393.91	1086.01
394.10	1046.22
394.29	1048.56
394.49	1067.28
394.68	1226.44
394.88	1172.61
395.07	1060.26
395.26	1055.58
395.46	1186.65
395.65	1186.65
395.84	1193.67
396.04	1196.01
396.23	1064.94
396.42	1160.91
396.62	1132.82
396.81	1179.63
397.00	1123.46
397.19	1142.18
397.39	1170.27
397.58	1270.91
397.77	1219.42
397.97	1277.93
398.16	1240.48
398.35	1336.45
398.55	1221.76
398.74	1240.48
398.93	1352.83
399.12	1284.95
399.32	1231.12
399.51	1324.74
399.70	1420.71
399.90	1387.94
400.09	1373.89
400.28	1409.00
400.47	1430.07
400.67	1446.45
400.86	1394.96
401.05	1502.62
401.24	1352.83
401.44	1509.65
401.63	1474.54
401.82	1432.41
402.01	1570.50
402.21	1540.07
402.40	1514.33
402.59	1526.03
402.78	1476.88
402.97	1589.22
403.17	1542.41
403.36	1535.39
403.55	1631.35
403.74	1652.42
403.93	1572.84
404.13	1724.97
404.32	1659.44
404.51	1640.72
404.70	1621.99
404.89	1645.40
405.09	1694.55
405.28	1818.60
405.47	1710.93
405.66	1647.74
405.85	1729.66
406.05	1654.76
406.24	1724.97
406.43	1785.83
406.62	1816.26
406.81	1856.04
407.00	1809.23
407.20	1783.49
407.39	1940.30
407.58	1891.15
407.77	1900.52
407.96	1947.33
408.15	1902.86
408.34	1933.28
408.54	2085.42
408.73	2057.33
408.92	2104.14
409.11	2069.03
409.30	2001.16
409.49	2010.52
409.68	2050.31
409.87	2038.61
410.07	2162.66
410.26	2176.70
410.45	2090.10
410.64	2153.29
410.83	2249.25
411.02	2251.60
411.21	2310.11
411.40	2235.21
411.59	2293.72
411.78	2291.38
411.98	2265.64
412.17	2354.58
412.36	2385.01
412.55	2392.03
412.74	2361.60
412.93	2459.90
413.12	2356.92
413.31	2546.50
413.50	2569.91
413.69	2560.55
413.88	2626.08
414.07	2605.02
414.26	2567.57
414.45	2619.06
414.64	2558.21
414.83	2708.00
415.02	2703.32
415.22	2759.49
415.41	2808.64
415.60	2726.72
415.79	2794.60
415.98	2813.32
416.17	2832.05
416.36	2862.48
416.55	2832.05
416.74	2827.37
416.93	2918.65
417.12	2878.86
417.31	2878.86
417.50	3028.65
417.69	3040.36
417.88	3103.55
418.07	3094.19
418.26	3014.61
418.45	3082.49
418.64	3255.69
418.83	3112.91
419.02	3302.50
419.21	3169.09
419.39	3325.90
419.58	3141.00
419.77	3124.62
419.96	3293.13
420.15	3405.48
420.34	3260.37
420.53	3368.03
420.72	3346.97
420.91	3447.61
421.10	3400.80
421.29	3438.25
421.48	3309.52
421.67	3426.54
421.86	3370.37
422.05	3499.10
422.24	3335.26
422.43	3400.80
422.61	3400.80
422.80	3407.82
422.99	3487.40
423.18	3351.65
423.37	3541.23
423.56	3571.66
423.75	3471.01
423.94	3454.63
424.13	3325.90
424.32	3403.14
424.50	3590.38
424.69	3613.79
424.88	3611.45
425.07	3529.53
425.26	3489.74
425.45	3510.80
425.64	3550.59
425.83	3548.25
426.01	3618.47
426.20	3585.70
426.39	3496.76
426.58	3644.21
426.77	3630.17
426.96	3438.25
427.15	3646.55
427.33	3625.49
427.52	3653.58
427.71	3644.21
427.90	3578.68
428.09	3702.73
428.28	3847.84
428.46	3721.45
428.65	3644.21
428.84	3880.61
429.03	3887.63
429.22	3768.26
429.40	3803.37
429.59	3779.97
429.78	3691.02
429.97	3758.90
430.16	3749.54
430.34	3789.33
430.53	4025.72
430.72	3693.37
430.91	3810.39
431.10	3829.12
431.28	4063.17
431.47	4051.47
431.66	4372.12
431.85	4156.79
432.03	4011.68
432.22	4126.36
432.41	4112.32
432.60	4255.09
432.79	4140.41
432.97	4161.47
433.16	4381.48
433.35	4236.37
433.54	4149.77
433.72	4287.86
433.91	4168.49
434.10	4327.65
434.28	4374.46
434.47	4482.13
434.66	4421.27
434.85	4550.00
435.03	4409.57
435.22	4573.41
435.41	4554.68
435.59	4566.39
435.78	4599.15
435.97	4561.70
436.16	4718.52
436.34	4456.38
436.53	4603.83
436.72	4697.46
436.90	4458.72
437.09	4608.51
437.28	4617.88
437.46	4636.60
437.65	4596.81
437.84	4704.48
438.02	4784.06
438.21	4681.07
438.40	4695.11
438.58	4840.23
438.77	4788.74
438.96	5004.07
439.14	5088.32
439.33	5128.11
439.52	5100.03
439.70	5036.83
439.89	5116.41
440.08	5181.95
440.26	5104.71
440.45	5179.61
440.63	5240.46
440.82	5273.23
441.01	5406.64
441.19	5291.95
441.38	5495.58
441.57	5404.30
441.75	5572.82
441.94	5437.06
442.12	5427.70
442.31	5743.67
442.50	5610.26
442.68	5638.35
442.87	5837.30
443.05	5678.14
443.24	5720.27
443.43	5596.22
443.61	5921.56
443.80	5846.66
443.98	5682.82
444.17	5504.94
444.35	6045.60
444.54	5914.53
444.73	5853.68
444.91	5886.45
445.10	5863.04
445.28	5788.14
445.47	5909.85
445.65	5933.26
445.84	5867.72
446.02	5851.34
446.21	5902.83
446.39	5949.64
446.58	6036.24
446.77	5870.06
446.95	5720.27
447.14	5942.62
447.32	6122.84
447.51	6087.73
447.69	5923.90
447.88	5919.21
448.06	5898.15
448.25	6036.24
448.43	6085.39
448.62	5991.77
448.80	6087.73
448.99	6059.65
449.17	6118.16
449.36	6073.69
449.54	6244.55
449.73	6340.51
449.91	6274.98
450.10	6200.08
450.28	6431.79
450.46	6448.18
450.65	6392.00
450.83	6394.34
451.02	6279.66
451.20	6450.52
451.39	6612.01
451.57	6448.18
451.76	6450.52
451.94	6504.35
452.13	6705.63
452.31	6427.11
452.49	6431.79
452.68	6494.99
452.86	6516.05
453.05	6614.35
453.23	6750.10
453.42	6509.03
453.60	6497.33
453.78	6752.45
453.97	6675.21
454.15	6729.04
454.34	6691.59
454.52	6862.45
454.70	6649.46
454.89	6738.40
455.07	6740.74
455.26	6850.75
455.44	6906.92
455.62	7021.61
455.81	6848.41
455.99	7077.78
456.17	6946.71
456.36	7009.90
456.54	7049.69
456.73	7087.14
456.91	7173.74
457.09	7206.51
457.28	7543.55
457.46	7005.22
457.64	7515.46
457.83	7325.88
458.01	7164.38
458.19	7517.80
458.38	7330.56
458.56	7368.01
458.74	7199.49
458.93	7260.34
459.11	7632.49
459.29	7183.10
459.48	7585.68
459.66	7393.75
459.84	7405.46
460.03	7688.66
460.21	7543.55
460.39	7726.11
460.57	7686.32
460.76	7714.41
460.94	7721.43
461.12	7714.41
461.31	7885.26
461.49	7646.53
461.67	7770.58
461.85	7969.52
462.04	7714.41
462.22	8344.01
462.40	8021.02
462.59	7873.56
462.77	7801.01
462.95	8088.89
463.13	8023.36
463.32	8138.04
463.50	8168.47
463.68	8208.26
463.86	8049.10
464.05	8074.85
464.23	7969.52
464.41	8280.82
464.59	8329.97
464.78	8283.16
464.96	8198.90
465.14	8093.57
465.32	8336.99
465.50	8482.10
465.69	8339.33
465.87	8271.45
466.05	8372.10
466.23	8407.20
466.41	8322.94
466.60	8528.91
466.78	8306.56
466.96	8311.24
467.14	8374.44
467.32	8599.13
467.51	8767.65
467.69	8315.92
467.87	8482.10
468.05	8863.61
468.23	8386.14
468.41	8393.16
468.60	8692.75
468.78	8748.92
468.96	8667.00
469.14	8667.00
469.32	8788.71
469.50	8587.43
469.69	8837.86
469.87	8879.99
470.05	8924.46
470.23	8961.91
470.41	8812.12
470.59	8943.19
470.77	9036.81
470.95	9053.19
471.14	9172.56
471.32	9142.13
471.50	9352.78
471.68	9224.05
471.86	9336.40
472.04	9493.21
472.22	9528.32
472.40	9233.41
472.58	9277.88
472.77	9392.57
472.95	9767.06
473.13	9961.32
473.31	9589.17
473.49	9650.03
473.67	9467.47
473.85	9603.22
474.03	9947.28
474.21	9949.62
474.39	9867.70
474.57	9954.30
474.75	10361.55
474.93	10178.99
475.12	10022.17
475.30	10242.18
475.48	10099.41
475.66	10108.77
475.84	10399.00
476.02	10305.38
476.20	10396.66
476.38	10588.58
476.56	10766.46
476.74	10736.04
476.92	10647.10
477.10	10747.74
477.28	10946.69
477.46	10768.80
477.64	11012.22
477.82	11201.80
478.00	11389.05
478.18	11307.13
478.36	11367.98
478.54	11442.88
478.72	11604.38
478.90	11424.15
479.08	11885.24
479.26	11875.88
479.44	12042.06
479.62	11943.75
479.80	12222.28
479.98	12102.91
480.16	12177.81
480.34	12313.56
480.52	12374.41
480.70	12458.67
480.88	12400.16
481.06	12657.62
481.24	12856.56
481.41	13050.83
481.59	13121.04
481.77	12854.22
481.95	13149.13
482.13	13242.75
482.31	13074.23
482.49	13495.53
482.67	13600.85
482.85	13467.44
483.03	13692.13
483.21	13930.87
483.39	13806.82
483.57	13771.71
483.74	14209.39
483.92	14310.04
484.10	14195.35
484.28	14565.15
484.46	14429.40
484.64	15044.96
484.82	14539.41
485.00	14810.91
485.18	14974.75
485.35	15286.04
485.53	14717.29
485.71	15131.56
485.89	15384.34
486.07	15084.75
486.25	15091.77
486.43	15655.84
486.61	15695.63
486.78	15899.26
486.96	15999.90
487.14	16140.33
487.32	16343.96
487.50	16547.59
487.68	16622.48
487.85	16772.28
488.03	16746.53
488.21	16931.44
488.39	16989.95
488.57	17106.98
488.75	17394.86
488.92	17577.42
489.10	17811.48
489.28	17724.88
489.46	18274.90
489.64	17937.87
489.81	18539.38
489.99	18520.66
490.17	18679.82
490.35	18398.95
490.53	18623.64
490.70	18813.23
490.88	18611.94
491.06	18911.53
491.24	18689.18
491.41	19119.84
491.59	19410.06
491.77	19374.95
491.95	19452.19
492.13	19733.06
492.30	19822.00
492.48	19957.75
492.66	19861.79
492.84	20105.20
493.01	20329.89
493.19	20147.33
493.37	20386.07
493.54	20566.29
493.72	20844.81
493.90	20620.12
494.08	20863.54
494.25	21088.23
494.43	21326.96
494.61	21553.99
494.79	21425.26
494.96	21633.57
495.14	21509.52
495.32	21869.97
495.49	21813.79
495.67	21741.24
495.85	22305.31
496.02	22157.85
496.20	22286.58
496.38	22632.98
496.55	22567.45
496.73	22913.84
496.91	22555.74
497.09	22700.86
497.26	22991.08
497.44	23143.22
497.62	23044.91
497.79	23346.84
497.97	23222.80
498.14	23714.31
498.32	23611.32
498.50	23793.89
498.67	23854.74
498.85	23810.27
499.03	23852.40
499.20	24011.56
499.38	24208.16
499.56	24240.93
499.73	24322.85
499.91	24517.11
500.08	24503.07
500.26	24404.77
500.44	24538.18
500.61	24563.92
500.79	24423.49
500.97	25067.14
501.14	24938.41
501.32	25118.63
501.49	25301.19
501.67	25025.01
501.84	25277.79
502.02	25425.24
502.20	25612.48
502.37	25834.83
502.55	25750.57
502.72	25816.11
502.90	26052.50
503.07	25596.10
503.25	26075.91
503.43	26040.80
503.60	26118.04
503.78	25949.52
503.95	26118.04
504.13	26555.72
504.30	26452.73
504.48	26134.42
504.65	26948.93
504.83	26593.17
505.01	27147.87
505.18	27072.98
505.36	27122.13
505.53	27225.11
505.71	27679.18
505.88	27555.13
506.06	27302.35
506.23	27234.47
506.41	27484.91
506.58	27489.59
506.76	27971.74
506.93	27730.67
507.11	27768.12
507.28	28044.30
507.46	27669.81
507.63	27990.47
507.81	27723.65
507.98	28016.21
508.16	28439.85
508.33	28362.61
508.50	28229.20
508.68	28687.95
508.85	28982.85
509.03	28673.90
509.20	29006.26
509.38	28879.87
509.55	28912.64
509.73	28907.96
509.90	28863.49
510.08	28985.19
510.25	29130.31
510.42	29310.53
510.60	29535.22
510.77	29516.50
510.95	30099.29
511.12	29553.94
511.30	29780.98
511.47	29661.61
511.64	30375.47
511.82	30370.79
511.99	29806.72
512.17	30061.84
512.34	30089.93
512.51	30401.22
512.69	30548.67
512.86	30731.23
513.04	30785.07
513.21	30567.40
513.38	30724.21
513.56	30366.11
513.73	30726.55
513.90	31061.25
514.08	30728.89
514.25	30892.73
514.43	30817.83
514.60	31285.94
514.77	31164.23
514.95	31243.81
515.12	31482.55
515.29	31466.16
515.47	31702.56
515.64	31861.71
515.81	31639.36
515.99	31800.86
516.16	32158.96
516.33	31672.13
516.51	31580.85
516.68	31952.99
516.85	31452.12
517.03	31892.14
517.20	31938.95
517.37	32140.24
517.54	32744.09
517.72	32271.31
517.89	32390.67
518.06	32498.34
518.24	31693.19
518.41	32467.91
518.58	32364.93
518.75	32477.27
518.93	32870.48
519.10	32826.01
519.27	32711.33
519.45	32739.41
519.62	33277.74
519.79	33095.18
519.96	33488.38
520.14	33518.81
520.31	33177.09
520.48	33392.42
520.65	33373.70
520.83	33464.98
521.00	33673.29
521.17	33869.89
521.34	33509.45
521.52	34029.05
521.69	33713.08
521.86	34209.27
522.03	34185.86
522.20	34246.72
522.38	34230.33
522.55	34206.93
522.72	34120.33
522.89	34600.14
523.07	34424.60
523.24	33961.17
523.41	34541.63
523.58	34330.98
523.75	34902.07
523.92	34768.66
524.10	35021.44
524.27	34976.97
524.44	34932.50
524.61	34824.83
524.78	35227.40
524.96	35281.24
525.13	35508.27
525.30	35688.49
525.47	35571.46
525.64	35681.47
525.81	35372.52
525.98	35323.36
526.16	35175.91
526.33	35414.65
526.50	35742.32
526.67	35756.36
526.84	35697.85
527.01	35189.95
527.18	35587.85
527.36	35442.73
527.53	36044.25
527.70	36245.54
527.87	36641.09
528.04	36156.60
528.21	36156.60
528.38	36067.66
528.55	36388.31
528.72	36123.83
528.89	36325.11
529.07	36823.65
529.24	36608.32
529.41	36568.53
529.58	36629.38
529.75	36804.92
529.92	36966.42
530.09	36772.16
530.26	36741.73
530.43	37446.23
530.60	36884.50
530.77	36643.43
530.94	37167.71
531.11	37116.22
531.28	37350.27
531.46	37603.05
531.63	37123.24
531.80	37092.81
531.97	37319.84
532.14	37392.40
532.31	37244.94
532.48	37287.07
532.65	37830.08
532.82	37347.93
532.99	37366.65
533.16	37722.41
533.33	37729.44
533.50	37773.91
533.67	38071.15
533.84	37785.61
534.01	38234.99
534.18	38024.34
534.35	38040.73
534.52	38059.45
534.69	38136.69
534.86	38019.66
535.03	38330.95
535.20	38679.69
535.37	38190.52
535.54	38415.21
535.71	38234.99
535.88	38492.45
536.05	38642.24
536.22	38511.17
536.38	38738.21
536.55	38476.07
536.72	38696.08
536.89	38022.00
537.06	39005.03
537.23	38529.90
537.40	38667.99
537.57	39077.58
537.74	38452.66
537.91	39180.57
538.08	39339.72
538.25	38724.16
538.42	38815.44
538.59	39321.00
538.75	39035.45
538.92	38651.61
539.09	39353.77
539.26	39229.72
539.43	39459.09
539.60	39164.18
539.77	39339.72
539.94	39299.94
540.11	39260.15
540.28	39335.04
540.44	39269.51
540.61	39264.83
540.78	39599.52
540.95	39597.18
541.12	39702.51
541.29	39466.11
541.46	39381.85
541.62	40018.48
541.79	40119.12
541.96	39742.30
542.13	39924.86
542.30	40076.99
542.47	40212.74
542.63	40165.93
542.80	40121.46
542.97	40491.27
543.14	40711.28
543.31	40371.90
543.48	40697.24
543.64	40678.51
543.81	40374.24
543.98	40474.88
544.15	40456.16
544.32	40837.67
544.48	41060.02
544.65	40755.75
544.82	40549.78
544.99	40484.25
545.16	40879.80
545.32	40683.19
545.49	41322.16
545.66	41354.93
545.83	41235.56
546.00	41050.66
546.16	40882.14
546.33	40783.83
546.50	40924.27
546.67	41158.32
546.83	40524.04
547.00	41137.26
547.17	41352.58
547.34	41347.90
547.50	41408.76
547.67	41757.50
547.84	41780.90
548.00	41921.34
548.17	41776.22
548.34	41696.64
548.51	41654.51
548.67	41682.60
548.84	42241.99
549.01	41539.83
549.18	42143.69
549.34	41792.61
549.51	41626.43
549.68	42478.38
549.84	41823.03
550.01	41801.97
550.18	41926.02
550.34	41968.15
550.51	41991.55
550.68	41691.96
550.84	41600.68
551.01	41659.20
551.18	42036.02
551.34	42377.74
551.51	42204.54
551.68	42356.67
551.84	42501.79
552.01	41654.51
552.18	42525.19
552.34	42220.92
552.51	41834.74
552.68	42050.06
552.84	42253.69
553.01	43016.71
553.18	42389.44
553.34	42295.82
553.51	42075.81
553.67	42244.33
553.84	42541.58
554.01	42747.54
554.17	43072.88
554.34	43133.73
554.51	42717.12
554.67	43157.14
554.84	43037.77
555.00	42572.00
555.17	42824.78
555.33	42871.59
555.50	42813.08
555.67	42817.76
555.83	43192.25
556.00	43096.28
556.16	43489.49
556.33	43337.36
556.50	43208.63
556.66	42801.38
556.83	42763.93
556.99	43309.27
557.16	43409.92
557.32	43576.09
557.49	43461.41
557.65	43173.52
557.82	43292.89
557.98	42951.17
558.15	43398.21
558.32	43995.05
558.48	43391.19
558.65	43330.34
558.81	43248.42
558.98	43349.06
559.14	43171.18
559.31	43374.81
559.47	43449.70
559.64	43906.11
559.80	44083.99
559.97	43894.41
560.13	43515.24
560.30	43496.52
560.46	43482.47
560.63	43075.22
560.79	43433.32
560.96	43587.80
561.12	43917.81
561.29	43636.95
561.45	43533.96
561.61	43966.96
561.78	43061.18
561.94	43449.70
562.11	43655.67
562.27	43833.55
562.44	43194.59
562.60	43950.58
562.77	44135.48
562.93	43936.54
563.10	44179.95
563.26	43416.94
563.42	44329.75
563.59	43517.58
563.75	43761.00
563.92	43934.20
564.08	43997.39
564.24	44184.63
564.41	43824.19
564.57	44002.07
564.74	44067.61
564.90	44320.38
565.07	44079.31
565.23	43606.52
565.39	43976.33
565.56	43938.88
565.72	44299.32
565.88	43936.54
566.05	44247.83
566.21	43777.38
566.38	44210.38
566.54	44144.84
566.70	43924.83
566.87	44949.99
567.03	44130.80
567.19	44612.95
567.36	44006.75
567.52	43990.37
567.68	44547.42
567.85	44311.02
568.01	44706.57
568.17	44058.24
568.34	44552.10
568.50	44208.04
568.66	44268.89
568.83	44584.86
568.99	44076.97
569.15	44589.55
569.32	43999.73
569.48	44009.09
569.64	44636.36
569.81	44353.15
569.97	44149.53
570.13	44531.03
570.30	44013.77
570.46	44568.48
570.62	44055.90
570.78	44020.80
570.95	44318.04
571.11	44142.50
571.27	43964.62
571.43	44273.57
571.60	44603.59
571.76	44051.22
571.92	44751.04
572.09	44779.13
572.25	44432.73
572.41	43817.17
572.57	44711.25
572.74	44870.41
572.90	44804.88
573.06	44664.44
573.22	44516.99
573.38	44608.27
573.55	44320.38
573.71	44601.25
573.87	44624.65
574.03	44201.02
574.20	44296.98
574.36	44287.62
574.52	44816.58
574.68	44814.24
574.84	44797.85
575.01	44278.25
575.17	44406.98
575.33	44350.81
575.49	44203.36
575.65	44816.58
575.82	44971.05
575.98	44121.44
576.14	44694.87
576.30	44390.60
576.46	44105.06
576.62	44357.83
576.79	44446.77
576.95	44004.41
577.11	44748.70
577.27	44729.98
577.43	44397.62
577.59	44512.31
577.75	45017.86
577.92	44329.75
578.08	44322.72
578.24	44411.67
578.40	44184.63
578.56	44662.10
578.72	44877.43
578.88	44655.08
579.04	44554.44
579.21	44402.30
579.37	44701.89
579.53	44502.95
579.69	44552.10
579.85	44711.25
580.01	44711.25
580.17	44615.29
580.33	44762.75
580.49	44678.49
580.65	44542.74
580.82	44942.97
580.98	44587.21
581.14	44701.89
581.30	44491.24
581.46	44615.29
581.62	44512.31
581.78	44739.34
581.94	44760.40
582.10	44589.55
582.26	44765.09
582.42	44554.44
582.58	44825.94
582.74	44694.87
582.90	44875.09
583.06	45137.23
583.22	44949.99
583.38	44863.39
583.54	44280.60
583.70	44839.98
583.86	44835.30
584.02	44346.13
584.18	44641.04
584.34	44879.77
584.50	44582.52
584.66	44636.36
584.82	44367.20
584.98	44725.30
585.14	44514.65
585.30	44502.95
585.46	45165.32
585.62	44409.32
585.78	44512.31
585.94	44573.16
586.10	44414.01
586.26	44587.21
586.42	44748.70
586.58	44856.37
586.74	45006.16
586.90	44575.50
587.06	44376.56
587.22	45050.63
587.38	44217.40
587.54	45202.77
587.70	45361.92
587.86	45158.30
588.02	45120.85
588.18	45029.57
588.34	44666.78
588.49	44421.03
588.65	44818.92
588.81	44458.48
588.97	44516.99
589.13	44236.12
589.29	44751.04
589.45	44500.61
589.61	45455.54
589.77	45371.28
589.93	45020.20
590.08	44978.07
590.24	45132.55
