SpectraSuite Data File
++++++++++++++++++++++++++++++++++++
Date: Fri Oct 25 11:33:13 EDT 2013
User: price-jones
Dark Spectrum Present: No
Reference Spectrum Present: No
Number of Sampled Component Spectra: 1
Spectrometers: USB2+H05261
Integration Time (usec): 100000 (USB2+H05261)
Spectra Averaged: 1 (USB2+H05261)
Boxcar Smoothing: 0 (USB2+H05261)
Correct for Electrical Dark: No (USB2+H05261)
Strobe/Lamp Enabled: No (USB2+H05261)
Correct for Detector Non-linearity: No (USB2+H05261)
Correct for Stray Light: No (USB2+H05261)
Number of Pixels in Processed Spectrum: 2048
>>>>>Begin Processed Spectral Data<<<<<
365.73	301.93
365.92	301.93
366.12	301.93
366.32	201.29
366.52	222.35
366.72	191.92
366.91	177.88
367.11	177.88
367.31	124.05
367.51	196.60
367.70	161.50
367.90	161.50
368.10	189.58
368.30	175.54
368.49	201.29
368.69	238.73
368.89	170.86
369.09	140.43
369.28	140.43
369.48	215.33
369.68	248.10
369.87	250.44
370.07	238.73
370.27	245.76
370.47	318.31
370.66	433.00
370.86	512.58
371.06	564.07
371.25	582.79
371.45	505.56
371.65	636.63
371.84	582.79
372.04	524.28
372.24	608.54
372.44	538.32
372.63	636.63
372.83	585.13
373.03	606.20
373.22	594.50
373.42	601.52
373.62	645.99
373.81	643.65
374.01	648.33
374.21	676.41
374.40	702.16
374.60	711.52
374.79	641.31
374.99	622.58
375.19	662.37
375.38	608.54
375.58	683.44
375.78	653.01
375.97	667.05
376.17	671.73
376.37	683.44
376.56	657.69
376.76	706.84
376.95	704.50
377.15	763.01
377.35	664.71
377.54	613.22
377.74	662.37
377.93	622.58
378.13	713.86
378.33	734.93
378.52	737.27
378.72	690.46
378.91	699.82
379.11	732.59
379.31	767.70
379.50	631.94
379.70	760.67
379.89	727.91
380.09	807.48
380.28	723.23
380.48	727.91
380.68	603.86
380.87	723.23
381.07	856.64
381.26	819.19
381.46	847.27
381.65	741.95
381.85	755.99
382.04	734.93
382.24	755.99
382.43	793.44
382.63	798.12
382.83	704.50
383.02	844.93
383.22	854.30
383.41	837.91
383.61	816.85
383.80	786.42
384.00	720.88
384.19	779.40
384.39	751.31
384.58	858.98
384.78	854.30
384.97	791.10
385.17	823.87
385.36	840.25
385.56	828.55
385.75	826.21
385.95	779.40
386.14	833.23
386.34	828.55
386.53	912.81
386.72	870.68
386.92	954.94
387.11	915.15
387.31	945.58
387.50	889.40
387.70	873.02
387.89	966.64
388.09	837.91
388.28	854.30
388.48	898.77
388.67	947.92
388.86	1046.22
389.06	973.66
389.25	952.60
389.45	924.51
389.64	929.19
389.84	1004.09
390.03	945.58
390.22	933.87
390.42	926.85
390.61	959.62
390.81	1018.13
391.00	952.60
391.19	987.71
391.39	985.37
391.58	1050.90
391.78	1078.99
391.97	1004.09
392.16	1076.65
392.36	1027.50
392.55	997.07
392.75	1036.86
392.94	1050.90
393.13	1069.62
393.33	1116.44
393.52	1146.86
393.71	1076.65
393.91	1125.80
394.10	1015.79
394.29	1109.41
394.49	1104.73
394.68	1088.35
394.88	1170.27
395.07	1226.44
395.26	1146.86
395.46	1144.52
395.65	1228.78
395.84	1172.61
396.04	1212.40
396.23	1238.14
396.42	1186.65
396.62	1249.85
396.81	1275.59
397.00	1198.35
397.19	1296.66
397.39	1310.70
397.58	1247.51
397.77	1191.33
397.97	1224.10
398.16	1306.02
398.35	1322.40
398.55	1394.96
398.74	1336.45
398.93	1313.04
399.12	1331.76
399.32	1263.89
399.51	1235.80
399.70	1390.28
399.90	1324.74
400.09	1427.73
400.28	1416.02
400.47	1451.13
400.67	1451.13
400.86	1362.19
401.05	1406.66
401.24	1465.18
401.44	1451.13
401.63	1448.79
401.82	1458.15
402.01	1432.41
402.21	1420.71
402.40	1488.58
402.59	1474.54
402.78	1516.67
402.97	1577.52
403.17	1537.73
403.36	1591.56
403.55	1547.09
403.74	1724.97
403.93	1643.06
404.13	1598.59
404.32	1607.95
404.51	1638.38
404.70	1664.12
404.89	1659.44
405.09	1715.61
405.28	1755.40
405.47	1673.48
405.66	1722.63
405.85	1703.91
406.05	1732.00
406.24	1727.32
406.43	1741.36
406.62	1916.90
406.81	1849.02
407.00	1865.41
407.20	1783.49
407.39	1881.79
407.58	1884.13
407.77	1881.79
407.96	1921.58
408.15	1980.09
408.34	1923.92
408.54	1849.02
408.73	1916.90
408.92	1984.77
409.11	1956.69
409.30	1961.37
409.49	2024.56
409.68	2003.50
409.87	1966.05
410.07	2141.59
410.26	2087.76
410.45	2052.65
410.64	2078.40
410.83	2190.74
411.02	2146.27
411.21	2209.47
411.40	2188.40
411.59	2289.04
411.78	2141.59
411.98	2291.38
412.17	2165.00
412.36	2335.85
412.55	2200.10
412.74	2487.99
412.93	2422.45
413.12	2286.70
413.31	2438.84
413.50	2452.88
413.69	2431.82
413.88	2450.54
414.07	2530.12
414.26	2495.01
414.45	2527.78
414.64	2450.54
414.83	2633.10
415.02	2738.43
415.22	2626.08
415.41	2637.78
415.60	2560.55
415.79	2717.36
415.98	2696.30
416.17	2766.51
416.36	2773.53
416.55	2806.30
416.74	2853.11
416.93	2897.58
417.12	2803.96
417.31	2930.35
417.50	2897.58
417.69	2890.56
417.88	2839.07
418.07	2918.65
418.26	3038.02
418.45	3012.27
418.64	3108.23
418.83	3026.31
419.02	3138.66
419.21	3087.17
419.39	3227.60
419.58	3112.91
419.77	3045.04
419.96	3318.88
420.15	3204.19
420.34	3236.96
420.53	3241.64
420.72	3190.15
420.91	3260.37
421.10	3330.58
421.29	3293.13
421.48	3239.30
421.67	3353.99
421.86	3337.60
422.05	3311.86
422.24	3234.62
422.43	3351.65
422.61	3515.48
422.80	3506.12
422.99	3461.65
423.18	3459.31
423.37	3513.14
423.56	3428.88
423.75	3449.95
423.94	3337.60
424.13	3241.64
424.32	3386.76
424.50	3482.72
424.69	3660.60
424.88	3592.72
425.07	3466.33
425.26	3452.29
425.45	3452.29
425.64	3438.25
425.83	3576.34
426.01	3595.06
426.20	3545.91
426.39	3534.21
426.58	3433.57
426.77	3473.36
426.96	3627.83
427.15	3515.48
427.33	3700.39
427.52	3461.65
427.71	3758.90
427.90	3506.12
428.09	3737.84
428.28	3702.73
428.46	3646.55
428.65	3611.45
428.84	3749.54
429.03	3808.05
429.22	3691.02
429.40	3770.60
429.59	3873.59
429.78	3735.50
429.97	3707.41
430.16	3688.68
430.34	3911.04
430.53	3892.31
430.72	3983.59
430.91	3803.37
431.10	3943.80
431.28	4028.06
431.47	4058.49
431.66	3908.69
431.85	3950.82
432.03	4049.13
432.22	4205.94
432.41	4198.92
432.60	3936.78
432.79	4098.28
432.97	4184.88
433.16	4170.83
433.35	4198.92
433.54	4145.09
433.72	4255.09
433.91	4175.52
434.10	4297.22
434.28	4262.12
434.47	4278.50
434.66	4353.40
434.85	4404.89
435.03	4269.14
435.22	4362.76
435.41	4407.23
435.59	4173.18
435.78	4493.83
435.97	4404.89
436.16	4369.78
436.34	4428.29
436.53	4500.85
436.72	4608.51
436.90	4512.55
437.09	4617.88
437.28	4486.81
437.46	4503.19
437.65	4479.79
437.84	4638.94
438.02	4592.13
438.21	4805.12
438.40	4582.77
438.58	4870.65
438.77	4858.95
438.96	4835.55
439.14	5027.47
439.33	5018.11
439.52	4952.57
439.70	5020.45
439.89	5029.81
440.08	5053.22
440.26	5186.63
440.45	5151.52
440.63	5200.67
440.82	5050.88
441.01	5172.58
441.19	5146.84
441.38	5352.81
441.57	5144.50
441.75	5235.78
441.94	5497.92
442.12	5497.92
442.31	5577.50
442.50	5731.97
442.68	5490.90
442.87	5486.22
443.05	5626.65
443.24	5516.64
443.43	5502.60
443.61	5612.60
443.80	5722.61
443.98	5563.45
444.17	5343.44
444.35	5526.00
444.54	5701.54
444.73	5603.24
444.91	5818.57
445.10	5788.14
445.28	5584.52
445.47	5607.92
445.65	5755.38
445.84	5940.28
446.02	5802.19
446.21	5940.28
446.39	5839.64
446.58	5874.74
446.77	5778.78
446.95	5743.67
447.14	5774.10
447.32	5844.32
447.51	5863.04
447.69	5837.30
447.88	5860.70
448.06	5907.51
448.25	5837.30
448.43	5968.37
448.62	5947.30
448.80	5956.66
448.99	5909.85
449.17	5884.11
449.36	5940.28
449.54	6108.80
449.73	6052.63
449.91	6155.61
450.10	6122.84
450.28	6101.78
450.46	6251.57
450.65	6354.55
450.83	6073.69
451.02	6202.42
451.20	6279.66
451.39	6239.87
451.57	6157.95
451.76	6211.78
451.94	6256.25
452.13	6422.43
452.31	6223.48
452.49	6258.59
452.68	6459.88
452.86	6502.01
453.05	6347.53
453.23	6530.09
453.42	6291.36
453.60	6408.39
453.78	6445.84
453.97	6305.40
454.15	6619.04
454.34	6473.92
454.52	6647.12
454.70	6595.63
454.89	6623.72
455.07	6698.61
455.26	6640.10
455.44	6743.08
455.62	6682.23
455.81	6876.49
455.99	6787.55
456.17	6750.10
456.36	6738.40
456.54	6820.32
456.73	6958.41
456.91	7007.56
457.09	7103.53
457.28	7148.00
457.46	7131.61
457.64	7208.85
457.83	7056.72
458.01	7040.33
458.19	7265.02
458.38	7213.53
458.56	7265.02
458.74	7253.32
458.93	7246.30
459.11	7536.52
459.29	7279.07
459.48	7227.57
459.66	7393.75
459.84	7379.71
460.03	7492.05
460.21	7461.63
460.39	7283.75
460.57	7599.72
460.76	7400.77
460.94	7669.94
461.12	7588.02
461.31	7456.95
461.49	7578.65
461.67	7662.91
461.85	7702.70
462.04	7756.54
462.22	8032.72
462.40	7784.62
462.59	7854.84
462.77	7765.90
462.95	8046.76
463.13	7887.61
463.32	7906.33
463.50	7927.39
463.68	7864.20
463.86	8154.43
464.05	7981.23
464.23	7826.75
464.41	8079.53
464.59	7992.93
464.78	8173.15
464.96	8147.40
465.14	7946.12
465.32	8187.19
465.50	8114.64
465.69	8276.13
465.87	8262.09
466.05	8226.98
466.23	8252.73
466.41	8203.58
466.60	8482.10
466.78	8271.45
466.96	8201.24
467.14	8168.47
467.32	8397.84
467.51	8332.31
467.69	8278.47
467.87	8535.93
468.05	8489.12
468.23	8538.27
468.41	8262.09
468.60	8596.79
468.78	8575.72
468.96	8528.91
469.14	8676.37
469.32	8655.30
469.50	8645.94
469.69	8751.26
469.87	8917.44
470.05	8781.69
470.23	8908.08
470.41	8805.10
470.59	8931.48
470.77	8814.46
470.95	8795.73
471.14	8999.36
471.32	9001.70
471.50	9041.49
471.68	9158.52
471.86	9303.63
472.04	9376.19
472.22	9373.85
472.40	9172.56
472.58	9125.75
472.77	9334.06
472.95	9376.19
473.13	9654.71
473.31	9371.50
473.49	9577.47
473.67	9448.74
473.85	9645.35
474.03	9804.50
474.21	9820.89
474.39	10043.24
474.57	9982.38
474.75	9942.60
474.93	10066.64
475.12	10127.50
475.30	10270.27
475.48	10183.67
475.66	10401.34
475.84	10289.00
476.02	10059.62
476.20	10384.96
476.38	10604.97
476.56	10586.24
476.74	10787.53
476.92	10471.56
477.10	10595.61
477.28	11000.52
477.46	10808.59
477.64	10815.62
477.82	11019.24
478.00	11520.12
478.18	11171.38
478.36	11227.55
478.54	11332.87
478.72	11372.66
478.90	11646.51
479.08	11620.76
479.26	11763.53
479.44	11925.03
479.62	11999.93
479.80	12079.50
479.98	12032.69
480.16	12243.34
480.34	12072.48
480.52	12266.75
480.70	12437.61
480.88	12414.20
481.06	12479.74
481.24	12571.02
481.41	12795.71
481.59	12943.16
481.77	12898.69
481.95	12844.86
482.13	13008.70
482.31	13142.11
482.49	13610.22
482.67	13696.82
482.85	13479.15
483.03	13834.91
483.21	13769.37
483.39	13841.93
483.57	13799.80
483.74	13853.63
483.92	14031.51
484.10	14146.20
484.28	14464.51
484.46	14806.23
484.64	15019.22
484.82	14525.36
485.00	14878.79
485.18	14785.16
485.35	15396.04
485.53	15379.66
485.71	15372.64
485.89	15391.36
486.07	15587.97
486.25	15616.05
486.43	15871.17
486.61	15627.76
486.78	16182.46
486.96	16163.74
487.14	16353.32
487.32	16552.27
487.50	16460.99
487.68	16779.30
487.85	16699.72
488.03	17156.13
488.21	17167.83
488.39	17043.78
488.57	17165.49
488.75	17151.45
488.92	17277.83
489.10	17671.04
489.28	17855.95
489.46	18387.25
489.64	17771.69
489.81	18104.04
489.99	18501.93
490.17	18448.10
490.35	18651.73
490.53	18611.94
490.70	18799.18
490.88	18473.85
491.06	18991.11
491.24	19094.09
491.41	19463.90
491.59	19564.54
491.77	19318.78
491.95	19396.02
492.13	19922.64
492.30	19775.19
492.48	19913.28
492.66	19981.15
492.84	20334.57
493.01	20451.60
493.19	20446.92
493.37	20650.55
493.54	20556.93
493.72	21097.59
493.90	20748.85
494.08	20762.89
494.25	21259.09
494.43	21324.62
494.61	21149.08
494.79	21455.69
494.96	21582.08
495.14	21715.49
495.32	21874.65
495.49	21825.50
495.67	22099.34
495.85	22223.39
496.02	22448.08
496.20	22370.84
496.38	22623.62
496.55	22518.29
496.73	23271.95
496.91	22916.19
497.09	23016.83
497.26	23070.66
497.44	23250.88
497.62	23456.85
497.79	23365.57
497.97	23559.83
498.14	23789.20
498.32	23824.31
498.50	24189.44
498.67	24201.14
498.85	24128.58
499.03	24135.60
499.20	24098.16
499.38	24334.55
499.56	24702.01
499.73	24762.87
499.91	25010.96
500.08	24973.52
500.26	25177.14
500.44	25149.06
500.61	25099.90
500.79	24854.15
500.97	25404.17
501.14	25373.75
501.32	25680.36
501.49	25385.45
501.67	25570.35
501.84	26185.91
502.02	26082.93
502.20	25771.64
502.37	26373.16
502.55	25722.49
502.72	26375.50
502.90	26291.24
503.07	26066.55
503.25	26473.80
503.43	26092.29
503.60	26525.29
503.78	26600.19
503.95	26806.16
504.13	26747.64
504.30	27080.00
504.48	26941.91
504.65	27171.28
504.83	27236.81
505.01	27274.26
505.18	27140.85
505.36	27608.96
505.53	27723.65
505.71	27840.67
505.88	27660.45
506.06	27590.24
506.23	27707.26
506.41	27852.38
506.58	27997.49
506.76	28229.20
506.93	28292.40
507.11	28283.03
507.28	28458.57
507.46	28346.23
507.63	28645.82
507.81	28421.13
507.98	28540.49
508.16	28753.48
508.33	28814.34
508.50	28933.70
508.68	29130.31
508.85	28964.13
509.03	28910.30
509.20	29479.05
509.38	29514.16
509.55	29839.49
509.73	29827.79
509.90	29687.36
510.08	29762.25
510.25	29673.31
510.42	29975.24
510.60	29848.85
510.77	30553.35
510.95	30429.30
511.12	30239.72
511.30	30445.69
511.47	30125.04
511.64	30618.89
511.82	30644.63
511.99	30331.00
512.17	30904.43
512.34	30581.44
512.51	31218.07
512.69	31225.09
512.86	31171.25
513.04	31412.33
513.21	31290.62
513.38	31648.72
513.56	32030.23
513.73	31353.82
513.90	31435.74
514.08	31515.31
514.25	31999.80
514.43	31669.79
514.60	31805.54
514.77	31927.25
514.95	32055.98
515.12	32128.53
515.29	32173.00
515.47	32165.98
515.64	32662.18
515.81	32194.07
515.99	32409.40
516.16	32793.25
516.33	32739.41
516.51	32788.56
516.68	32687.92
516.85	33048.36
517.03	33123.26
517.20	33188.80
517.37	32959.42
517.54	33369.02
517.72	33109.22
517.89	33214.54
518.06	33507.11
518.24	33214.54
518.41	33535.20
518.58	33525.83
518.75	33549.24
518.93	33642.86
519.10	33872.23
519.27	33734.14
519.45	33832.44
519.62	34450.35
519.79	33963.51
519.96	34007.98
520.14	34354.38
520.31	34108.63
520.48	34679.72
520.65	34534.60
520.83	34558.01
521.00	34614.18
521.17	34265.44
521.34	34476.09
521.52	34796.74
521.69	34787.38
521.86	35316.34
522.03	35189.95
522.20	34986.33
522.38	35391.24
522.55	35363.15
522.72	35283.58
522.89	35337.41
523.07	35849.99
523.24	35882.75
523.41	36088.72
523.58	35690.83
523.75	36027.87
523.92	35763.39
524.10	36067.66
524.27	36011.48
524.44	35955.31
524.61	36449.16
524.78	35814.88
524.96	36287.67
525.13	36292.35
525.30	36357.88
525.47	36390.65
525.64	36589.59
525.81	36596.62
525.98	36474.91
526.16	36683.22
526.33	36547.47
526.50	37153.66
526.67	36659.81
526.84	36891.52
527.01	36933.65
527.18	37022.59
527.36	37228.56
527.53	37427.51
527.70	37680.28
527.87	37212.18
528.04	37202.82
528.21	37350.27
528.38	37563.26
528.55	37703.69
528.72	37640.50
528.89	37556.24
529.07	37099.83
529.24	37392.40
529.41	38024.34
529.58	37689.65
529.75	38335.63
529.92	38181.16
530.09	38003.28
530.26	38256.06
530.43	38553.30
530.60	37970.51
530.77	38045.41
530.94	38469.04
531.11	38258.40
531.28	38401.17
531.46	38394.15
531.63	38588.41
531.80	38902.04
531.97	38724.16
532.14	38473.73
532.31	38941.83
532.48	38878.64
532.65	39136.10
532.82	38810.76
532.99	38775.66
533.16	38897.36
533.33	39241.42
533.50	39405.26
533.67	39330.36
533.84	39014.39
534.01	39311.64
534.18	39606.55
534.35	40198.70
534.52	39728.25
534.69	40222.11
534.86	39552.71
535.03	39690.80
535.20	39835.92
535.37	40238.49
535.54	40353.18
535.71	39814.85
535.88	40048.91
536.05	39674.42
536.22	39634.63
536.38	40238.49
536.55	39807.83
536.72	40542.76
536.89	40027.84
537.06	39990.39
537.23	40229.13
537.40	40175.30
537.57	40091.04
537.74	40062.95
537.91	41006.19
538.08	40306.37
538.25	40072.31
538.42	40355.52
538.59	41013.21
538.75	40720.64
538.92	41060.02
539.09	40861.07
539.26	41020.23
539.43	40856.39
539.60	41151.30
539.77	40744.05
539.94	41392.37
540.11	41155.98
540.28	41163.00
540.44	41263.64
540.61	40966.40
540.78	41120.87
540.95	41188.75
541.12	41495.36
541.29	41401.74
541.46	41434.50
541.62	41684.94
541.79	42298.16
541.96	41645.15
542.13	41811.33
542.30	41638.13
542.47	41970.49
542.63	41808.99
542.80	41956.44
542.97	42674.99
543.14	42351.99
543.31	42429.23
543.48	42181.13
543.64	42572.00
543.81	42986.28
543.98	42389.44
544.15	42452.64
544.32	42508.81
544.48	43044.79
544.65	42794.36
544.82	42895.00
544.99	42415.19
545.16	42574.34
545.32	42869.25
545.49	42852.87
545.66	43037.77
545.83	43044.79
546.00	43012.02
546.16	43196.93
546.33	42745.20
546.50	42965.21
546.67	42904.36
546.83	43054.15
547.00	43016.71
547.17	43299.91
547.34	43381.83
547.50	43372.47
547.67	43791.42
547.84	43646.31
548.00	43959.94
548.17	43831.21
548.34	43536.30
548.51	43880.36
548.67	43744.61
548.84	43854.62
549.01	43501.20
549.18	43871.00
549.34	43842.92
549.51	43894.41
549.68	43880.36
549.84	43594.82
550.01	44069.95
550.18	43875.68
550.34	43990.37
550.51	44416.35
550.68	44739.34
550.84	43700.14
551.01	44296.98
551.18	44142.50
551.34	43501.20
551.51	44247.83
551.68	44566.14
551.84	44322.72
552.01	44109.74
552.18	44659.76
552.34	43957.60
552.51	44109.74
552.68	44027.82
552.84	44154.21
553.01	44570.82
553.18	44570.82
553.34	44987.44
553.51	44388.26
553.67	44760.40
553.84	44973.39
554.01	45254.26
554.17	44842.32
554.34	44987.44
554.51	44849.35
554.67	45144.25
554.84	45064.67
555.00	45296.39
555.17	45216.81
555.33	45209.79
555.50	45441.50
555.67	45485.97
555.83	45399.37
556.00	45392.35
556.16	45869.82
556.33	45050.63
556.50	45563.21
556.66	45464.91
556.83	44762.75
556.99	45619.38
557.16	45635.77
557.32	45514.06
557.49	45715.34
557.65	45366.60
557.82	45492.99
557.98	45563.21
558.15	45757.47
558.32	45745.77
558.48	45425.12
558.65	45551.51
558.81	45710.66
558.98	45542.14
559.14	45738.75
559.31	45745.77
559.47	45766.84
559.64	45837.05
559.80	45701.30
559.97	45914.29
560.13	45935.35
560.30	45918.97
560.46	45830.03
560.63	46028.98
560.79	46284.09
560.96	46024.29
561.12	46136.64
561.29	45900.25
561.45	46223.24
561.61	45883.86
561.78	46239.62
561.94	46183.45
562.11	46260.69
562.27	46017.27
562.44	45900.25
562.60	46263.03
562.77	46307.50
562.93	45972.80
563.10	46398.78
563.26	46445.59
563.42	47012.00
563.59	45888.54
563.75	46457.29
563.92	46560.28
564.08	46660.92
564.24	46342.61
564.41	46312.18
564.57	45773.86
564.74	46403.46
564.90	46518.15
565.07	46497.08
565.23	46412.82
565.39	46438.57
565.56	46864.55
565.72	46438.57
565.88	46281.75
566.05	46642.20
566.21	46382.40
566.38	46581.34
566.54	46735.82
566.70	46536.87
566.87	46597.73
567.03	46583.68
567.19	46763.90
567.36	46237.28
567.52	46583.68
567.68	46902.00
567.85	47082.22
568.01	46894.97
568.17	46902.00
568.34	47126.69
568.50	47164.14
568.66	46773.27
568.83	47002.64
568.99	46845.82
569.15	47356.06
569.32	46656.24
569.48	47030.72
569.64	47421.59
569.81	47056.47
569.97	47358.40
570.13	47201.58
570.30	46581.34
570.46	47342.02
570.62	46932.42
570.78	47292.86
570.95	46801.35
571.11	47372.44
571.27	46937.10
571.43	47122.01
571.60	47150.09
571.76	46728.80
571.92	47105.62
572.09	46902.00
572.25	46909.02
572.41	46983.91
572.57	47334.99
572.74	47718.84
572.90	46878.59
573.06	47304.57
573.22	47334.99
573.38	47501.17
573.55	47344.36
573.71	47569.05
573.87	47278.82
574.03	47229.67
574.20	47447.34
574.36	47133.71
574.52	47611.18
574.68	47269.46
574.84	47718.84
575.01	47470.75
575.17	47674.37
575.33	47899.06
575.49	47346.70
575.65	47597.13
575.82	47718.84
575.98	47154.77
576.14	47215.63
576.30	47938.85
576.46	47704.80
576.62	47440.32
576.79	47510.53
576.95	47285.84
577.11	47583.09
577.27	47180.52
577.43	47562.03
577.59	47416.91
577.75	47229.67
577.92	47316.27
578.08	47096.26
578.24	47650.97
578.40	47882.68
578.56	47711.82
578.72	47342.02
578.88	47618.20
579.04	47636.92
579.21	47201.58
579.37	47447.34
579.53	47700.12
579.69	47342.02
579.85	47601.82
580.01	47342.02
580.17	47543.30
580.33	47976.30
580.49	47562.03
580.65	47793.74
580.82	47526.92
580.98	47332.65
581.14	47084.56
581.30	47573.73
581.46	48030.13
581.62	47653.31
581.78	47337.33
581.94	47648.63
582.10	47739.91
582.26	47742.25
582.42	47627.56
582.58	47735.23
582.74	47643.94
582.90	47423.93
583.06	48053.54
583.22	47870.98
583.38	47643.94
583.54	47473.09
583.70	48048.86
583.86	47880.34
584.02	47168.82
584.18	47835.87
584.34	47988.00
584.50	47980.98
584.66	47931.83
584.82	47728.20
584.98	48128.44
585.14	48196.31
585.30	47601.82
585.46	47716.50
585.62	47973.96
585.78	47618.20
585.94	47833.53
586.10	47611.18
586.26	47384.15
586.42	47777.36
586.58	47980.98
586.74	47927.15
586.90	47765.65
587.06	47847.57
587.22	48116.73
587.38	48023.11
587.54	48285.25
587.70	48392.92
587.86	47826.51
588.02	47992.68
588.18	47686.07
588.34	47955.24
588.49	47983.32
588.65	47449.68
588.81	47569.05
588.97	47805.44
589.13	47950.56
589.29	48112.05
589.45	48191.63
589.61	47896.72
589.77	48189.29
589.93	48196.31
