SpectraSuite Data File
++++++++++++++++++++++++++++++++++++
Date: Fri Oct 25 11:33:17 EDT 2013
User: price-jones
Dark Spectrum Present: No
Reference Spectrum Present: No
Number of Sampled Component Spectra: 1
Spectrometers: USB2+H05261
Integration Time (usec): 100000 (USB2+H05261)
Spectra Averaged: 1 (USB2+H05261)
Boxcar Smoothing: 0 (USB2+H05261)
Correct for Electrical Dark: No (USB2+H05261)
Strobe/Lamp Enabled: No (USB2+H05261)
Correct for Detector Non-linearity: No (USB2+H05261)
Correct for Stray Light: No (USB2+H05261)
Number of Pixels in Processed Spectrum: 2048
>>>>>Begin Processed Spectral Data<<<<<
365.73	238.73
365.92	238.73
366.12	238.73
366.32	248.10
366.52	126.39
366.72	173.20
366.91	203.63
367.11	229.37
367.31	236.39
367.51	168.52
367.70	135.75
367.90	102.98
368.10	182.56
368.30	189.58
368.49	177.88
368.69	224.69
368.89	210.65
369.09	201.29
369.28	257.46
369.48	217.67
369.68	191.92
369.87	271.50
370.07	257.46
370.27	266.82
370.47	360.44
370.66	550.03
370.86	521.94
371.06	561.73
371.25	510.24
371.45	505.56
371.65	428.32
371.84	519.60
372.04	559.39
372.24	554.71
372.44	540.66
372.63	664.71
372.83	566.41
373.03	601.52
373.22	575.77
373.42	587.47
373.62	575.77
373.81	587.47
374.01	648.33
374.21	624.92
374.40	634.29
374.60	674.07
374.79	653.01
374.99	695.14
375.19	720.88
375.38	662.37
375.58	603.86
375.78	660.03
375.97	678.76
376.17	730.25
376.37	709.18
376.56	631.94
376.76	699.82
376.95	629.60
377.15	748.97
377.35	683.44
377.54	667.05
377.74	688.12
377.93	727.91
378.13	702.16
378.33	690.46
378.52	706.84
378.72	671.73
378.91	695.14
379.11	624.92
379.31	613.22
379.50	739.61
379.70	748.97
379.89	732.59
380.09	676.41
380.28	758.33
380.48	748.97
380.68	793.44
380.87	765.36
381.07	723.23
381.26	730.25
381.46	727.91
381.65	793.44
381.85	732.59
382.04	793.44
382.24	795.78
382.43	821.53
382.63	737.27
382.83	763.01
383.02	805.14
383.22	795.78
383.41	793.44
383.61	753.65
383.80	777.06
384.00	830.89
384.19	805.14
384.39	844.93
384.58	866.00
384.78	833.23
384.97	826.21
385.17	828.55
385.36	868.34
385.56	908.13
385.75	798.12
385.95	884.72
386.14	863.66
386.34	842.59
386.53	877.70
386.72	802.80
386.92	844.93
387.11	992.39
387.31	926.85
387.50	884.72
387.70	887.06
387.89	884.72
388.09	894.08
388.28	863.66
388.48	837.91
388.67	926.85
388.86	943.24
389.06	891.74
389.25	919.83
389.45	903.45
389.64	980.68
389.84	1046.22
390.03	966.64
390.22	961.96
390.42	968.98
390.61	980.68
390.81	1022.81
391.00	1048.56
391.19	1015.79
391.39	1055.58
391.58	1029.84
391.78	1015.79
391.97	1046.22
392.16	994.73
392.36	1144.52
392.55	1055.58
392.75	1041.54
392.94	1125.80
393.13	1022.81
393.33	973.66
393.52	1064.94
393.71	1027.50
393.91	1137.50
394.10	1041.54
394.29	1137.50
394.49	1142.18
394.68	1102.39
394.88	1153.88
395.07	1193.67
395.26	1086.01
395.46	1196.01
395.65	1149.20
395.84	1196.01
396.04	1268.57
396.23	1252.19
396.42	1193.67
396.62	1207.72
396.81	1226.44
397.00	1273.25
397.19	1219.42
397.39	1181.97
397.58	1245.16
397.77	1268.57
397.97	1336.45
398.16	1205.38
398.35	1235.80
398.55	1296.66
398.74	1322.40
398.93	1341.13
399.12	1336.45
399.32	1214.74
399.51	1261.55
399.70	1371.55
399.90	1336.45
400.09	1308.36
400.28	1451.13
400.47	1348.15
400.67	1430.07
400.86	1423.05
401.05	1448.79
401.24	1486.24
401.44	1479.22
401.63	1446.45
401.82	1469.86
402.01	1385.60
402.21	1465.18
402.40	1502.62
402.59	1453.47
402.78	1540.07
402.97	1533.05
403.17	1570.50
403.36	1504.96
403.55	1540.07
403.74	1570.50
403.93	1565.82
404.13	1540.07
404.32	1612.63
404.51	1511.99
404.70	1633.69
404.89	1661.78
405.09	1736.68
405.28	1724.97
405.47	1675.82
405.66	1734.34
405.85	1654.76
406.05	1717.95
406.24	1781.15
406.43	1816.26
406.62	1732.00
406.81	1818.60
407.00	1790.51
407.20	1825.62
407.39	1884.13
407.58	1846.68
407.77	1856.04
407.96	1905.20
408.15	1952.01
408.34	1825.62
408.54	1900.52
408.73	1930.94
408.92	1959.03
409.11	1989.46
409.30	2080.74
409.49	2085.42
409.68	2019.88
409.87	2024.56
410.07	2097.12
410.26	2085.42
410.45	2043.29
410.64	2101.80
410.83	2097.12
411.02	2118.18
411.21	2169.68
411.40	2160.31
411.59	2127.55
411.78	2286.70
411.98	2246.91
412.17	2260.96
412.36	2319.47
412.55	2291.38
412.74	2249.25
412.93	2347.56
413.12	2335.85
413.31	2401.39
413.50	2354.58
413.69	2396.71
413.88	2518.42
414.07	2431.82
414.26	2651.83
414.45	2609.70
414.64	2572.25
414.83	2490.33
415.02	2593.31
415.22	2715.02
415.41	2661.19
415.60	2574.59
415.79	2743.11
415.98	2766.51
416.17	2738.43
416.36	2747.79
416.55	2698.64
416.74	2747.79
416.93	2803.96
417.12	2813.32
417.31	2813.32
417.50	2953.76
417.69	2850.77
417.88	2949.08
418.07	2890.56
418.26	3009.93
418.45	2958.44
418.64	3103.55
418.83	3028.65
419.02	3056.74
419.21	3152.70
419.39	3096.53
419.58	3155.04
419.77	3091.85
419.96	3180.79
420.15	3164.40
420.34	3225.26
420.53	3323.56
420.72	3155.04
420.91	3218.24
421.10	3082.49
421.29	3321.22
421.48	3234.62
421.67	3323.56
421.86	3344.63
422.05	3368.03
422.24	3344.63
422.43	3368.03
422.61	3372.71
422.80	3349.31
422.99	3473.36
423.18	3246.32
423.37	3569.32
423.56	3452.29
423.75	3513.14
423.94	3248.66
424.13	3304.84
424.32	3358.67
424.50	3424.20
424.69	3487.40
424.88	3454.63
425.07	3588.04
425.26	3527.19
425.45	3449.95
425.64	3370.37
425.83	3349.31
426.01	3618.47
426.20	3557.61
426.39	3456.97
426.58	3414.84
426.77	3433.57
426.96	3578.68
427.15	3506.12
427.33	3632.51
427.52	3562.30
427.71	3595.06
427.90	3707.41
428.09	3662.94
428.28	3665.28
428.46	3728.47
428.65	3775.28
428.84	3831.46
429.03	3850.18
429.22	3831.46
429.40	3784.65
429.59	3824.44
429.78	3735.50
429.97	3557.61
430.16	3932.10
430.34	3950.82
430.53	3915.72
430.72	4011.68
430.91	3941.46
431.10	3871.25
431.28	3889.97
431.47	3932.10
431.66	4046.79
431.85	4016.36
432.03	4051.47
432.22	4145.09
432.41	4182.54
432.60	4135.73
432.79	4124.02
432.97	4159.13
433.16	4269.14
433.35	4231.69
433.54	4189.56
433.72	4212.96
433.91	4170.83
434.10	4212.96
434.28	4159.13
434.47	4280.84
434.66	4269.14
434.85	4304.25
435.03	4489.15
435.22	4400.21
435.41	4554.68
435.59	4482.13
435.78	4337.01
435.97	4496.17
436.16	4484.47
436.34	4456.38
436.53	4589.79
436.72	4451.70
436.90	4575.75
437.09	4512.55
437.28	4425.95
437.46	4557.02
437.65	4620.22
437.84	4648.30
438.02	4573.41
438.21	4685.75
438.40	4650.64
438.58	4704.48
438.77	4800.44
438.96	4826.18
439.14	4952.57
439.33	4975.98
439.52	5046.20
439.70	5055.56
439.89	5114.07
440.08	5022.79
440.26	5093.01
440.45	4997.04
440.63	4983.00
440.82	5373.87
441.01	5160.88
441.19	5263.86
441.38	5303.65
441.57	5219.39
441.75	5465.15
441.94	5474.51
442.12	5324.72
442.31	5537.71
442.50	5432.38
442.68	5343.44
442.87	5511.96
443.05	5448.77
443.24	5701.54
443.43	5638.35
443.61	5694.52
443.80	5741.33
443.98	5327.06
444.17	5427.70
444.35	5572.82
444.54	5610.26
444.73	5682.82
444.91	5755.38
445.10	5628.99
445.28	5692.18
445.47	5673.46
445.65	5715.59
445.84	6017.52
446.02	5781.12
446.21	5680.48
446.39	5617.29
446.58	5858.36
446.77	5771.76
446.95	5537.71
447.14	5764.74
447.32	5748.36
447.51	5959.00
447.69	5713.25
447.88	5722.61
448.06	5867.72
448.25	5762.40
448.43	5877.09
448.62	5736.65
448.80	5968.37
448.99	5881.77
449.17	6066.67
449.36	5877.09
449.54	5935.60
449.73	5984.75
449.91	6040.92
450.10	6090.07
450.28	6160.29
450.46	6113.48
450.65	6054.97
450.83	6036.24
451.02	6083.05
451.20	6333.49
451.39	6293.70
451.57	6265.61
451.76	6324.13
451.94	6298.38
452.13	6384.98
452.31	6525.41
452.49	6277.32
452.68	6396.68
452.86	6282.00
453.05	6396.68
453.23	6377.96
453.42	6441.15
453.60	6415.41
453.78	6417.75
453.97	6338.17
454.15	6649.46
454.34	6539.46
454.52	6616.69
454.70	6651.80
454.89	6502.01
455.07	6602.65
455.26	6832.02
455.44	6813.30
455.62	6820.32
455.81	6668.19
455.99	6862.45
456.17	6782.87
456.36	6888.20
456.54	6752.45
456.73	6960.75
456.91	7157.36
457.09	7012.24
457.28	7030.97
457.46	6902.24
457.64	7054.37
457.83	7157.36
458.01	6974.80
458.19	7368.01
458.38	6998.20
458.56	7157.36
458.74	7314.17
458.93	7197.15
459.11	7452.27
459.29	7293.11
459.48	7330.56
459.66	7330.56
459.84	7438.22
460.03	7510.78
460.21	7295.45
460.39	7564.61
460.57	7391.41
460.76	7733.13
460.94	7651.21
461.12	7627.81
461.31	7552.91
461.49	7611.42
461.67	7433.54
461.85	7889.95
462.04	7524.82
462.22	8152.09
462.40	7815.05
462.59	7964.84
462.77	7815.05
462.95	7866.54
463.13	7903.99
463.32	7967.18
463.50	8112.30
463.68	8058.46
463.86	8119.32
464.05	7925.05
464.23	8056.12
464.41	8138.04
464.59	7885.26
464.78	8133.36
464.96	8236.35
465.14	8180.17
465.32	8168.47
465.50	8088.89
465.69	8205.92
465.87	8046.76
466.05	8348.69
466.23	8205.92
466.41	8292.52
466.60	8475.08
466.78	8313.58
466.96	8252.73
467.14	8262.09
467.32	8421.25
467.51	8439.97
467.69	8159.11
467.87	8468.06
468.05	8547.64
468.23	8554.66
468.41	8624.87
468.60	8425.93
468.78	8683.39
468.96	8561.68
469.14	8549.98
469.32	8716.16
469.50	8526.57
469.69	8613.17
469.87	8868.29
470.05	8636.58
470.23	9008.72
470.41	8887.01
470.59	8702.11
470.77	8973.61
470.95	9055.53
471.14	9125.75
471.32	8919.78
471.50	9322.35
471.68	9128.09
471.86	9195.96
472.04	9004.04
472.22	9308.31
472.40	9242.78
472.58	9336.40
472.77	9423.00
472.95	9556.41
473.13	9930.89
473.31	9427.68
473.49	9577.47
473.67	9497.89
473.85	9745.99
474.03	9860.68
474.21	9783.44
474.39	9968.34
474.57	9872.38
474.75	9767.06
474.93	10078.35
475.12	10052.60
475.30	10139.20
475.48	10195.37
475.66	10253.89
475.84	10363.89
476.02	10413.04
476.20	10319.42
476.38	10443.47
476.56	10806.25
476.74	10595.61
476.92	10520.71
477.10	10478.58
477.28	10855.40
477.46	10764.12
477.64	10965.41
477.82	10803.91
478.00	11243.93
478.18	11190.10
478.36	11276.70
478.54	11363.30
478.72	11417.13
478.90	11573.95
479.08	11723.74
479.26	11873.54
479.44	12023.33
479.62	11997.59
479.80	12060.78
479.98	12049.08
480.16	12369.73
480.34	12332.28
480.52	12273.77
480.70	12397.82
480.88	12304.20
481.06	12339.30
481.24	12482.08
481.41	12547.61
481.59	12774.64
481.77	12994.65
481.95	13064.87
482.13	13266.16
482.31	12943.16
482.49	13621.92
482.67	13310.63
482.85	13593.83
483.03	13675.75
483.21	13692.13
483.39	13951.93
483.57	13748.31
483.74	13921.51
483.92	14253.86
484.10	14403.66
484.28	14534.73
484.46	14586.22
484.64	14916.23
484.82	14696.22
485.00	14883.47
485.18	14918.57
485.35	15370.30
485.53	15147.95
485.71	15517.75
485.89	15508.39
486.07	15492.01
486.25	15803.30
486.43	15726.06
486.61	15861.81
486.78	16006.92
486.96	16091.18
487.14	16187.14
487.32	16442.26
487.50	16280.77
487.68	16580.36
487.85	16830.79
488.03	17135.06
488.21	17135.06
488.39	17029.74
488.57	17294.22
488.75	17195.92
488.92	17455.72
489.10	17528.27
489.28	17556.36
489.46	17757.64
489.64	17869.99
489.81	18216.39
489.99	18242.14
490.17	18565.13
490.35	18581.51
490.53	18637.69
490.70	18838.97
490.88	18714.92
491.06	19026.21
491.24	19150.26
491.41	19058.98
491.59	19531.77
491.77	19185.37
491.95	19543.47
492.13	19527.09
492.30	20084.14
492.48	19676.88
492.66	20074.77
492.84	20119.24
493.01	20362.66
493.19	20486.71
493.37	20587.35
493.54	20851.83
493.72	20926.73
493.90	20734.81
494.08	20961.84
494.25	21235.68
494.43	21104.61
494.61	21366.75
494.79	21671.02
494.96	21664.00
495.14	21474.42
495.32	22221.05
495.49	21811.45
495.67	22075.93
495.85	22199.98
496.02	22518.29
496.20	22607.23
496.38	22445.74
496.55	22656.39
496.73	23274.29
496.91	22892.78
497.09	22808.52
497.26	23091.73
497.44	23077.68
497.62	23108.11
497.79	23892.19
497.97	23470.89
498.14	23716.65
498.32	24039.64
498.50	23718.99
498.67	24002.19
498.85	24156.67
499.03	24182.42
499.20	24367.32
499.38	24987.56
499.56	24659.88
499.73	24671.59
499.91	24690.31
500.08	25029.69
500.26	24999.26
500.44	24964.15
500.61	24783.93
500.79	25069.48
500.97	24989.90
501.14	25556.31
501.32	25439.28
501.49	25605.46
501.67	25493.12
501.84	25886.32
502.02	25954.20
502.20	25975.27
502.37	26167.19
502.55	26204.64
502.72	26029.10
502.90	26106.34
503.07	26136.76
503.25	26511.25
503.43	26029.10
503.60	26878.71
503.78	26377.84
503.95	26345.07
504.13	26635.30
504.30	26801.47
504.48	26948.93
504.65	27007.44
504.83	27417.04
505.01	27517.68
505.18	27421.72
505.36	27934.29
505.53	27655.77
505.71	28086.43
505.88	27377.25
506.06	27536.40
506.23	27889.82
506.41	27751.73
506.58	28276.01
506.76	28233.88
506.93	28173.03
507.11	28285.37
507.28	28449.21
507.46	28343.89
507.63	28573.26
507.81	28779.23
507.98	28671.56
508.16	28863.49
508.33	29041.37
508.50	28903.28
508.68	29188.82
508.85	29216.91
509.03	28966.47
509.20	29291.80
509.38	29401.81
509.55	29577.35
509.73	29591.39
509.90	29670.97
510.08	29942.47
510.25	29951.84
510.42	30108.65
510.60	29855.87
510.77	30122.69
510.95	30277.17
511.12	30221.00
511.30	30068.86
511.47	30183.55
511.64	30792.09
511.82	31154.87
511.99	30712.51
512.17	30586.12
512.34	30305.26
512.51	31152.53
512.69	31175.94
512.86	31346.79
513.04	31573.83
513.21	31337.43
513.38	31409.99
513.56	31592.55
513.73	31211.04
513.90	31405.31
514.08	31489.57
514.25	32018.53
514.43	31772.77
514.60	31442.76
514.77	31749.37
514.95	32006.83
515.12	31983.42
515.29	31985.76
515.47	32503.02
515.64	32341.52
515.81	32521.74
515.99	32627.07
516.16	33092.83
516.33	32720.69
516.51	33024.96
516.68	32554.51
516.85	32671.54
517.03	33102.20
517.20	33146.67
517.37	33003.89
517.54	33193.48
517.72	33495.41
517.89	33390.08
518.06	33514.13
518.24	33312.84
518.41	33500.09
518.58	33942.45
518.75	33247.31
518.93	33844.15
519.10	33635.84
519.27	33699.03
519.45	33867.55
519.62	33834.78
519.79	34235.02
519.96	34096.92
520.14	34492.47
520.31	34239.70
520.48	34448.00
520.65	34148.42
520.83	34916.11
521.00	34965.26
521.17	34483.11
521.34	34738.23
521.52	34522.90
521.69	34698.44
521.86	34829.51
522.03	34916.11
522.20	35498.91
522.38	35241.45
522.55	35187.61
522.72	35356.13
522.89	35426.35
523.07	35842.96
523.24	35409.96
523.41	35849.99
523.58	35632.32
523.75	36266.60
523.92	36051.27
524.10	35981.06
524.27	36294.69
524.44	36051.27
524.61	36107.44
524.78	36025.53
524.96	36233.83
525.13	36374.27
525.30	36521.72
525.47	36446.82
525.64	36863.44
525.81	36814.29
525.98	36802.58
526.16	36598.96
526.33	36540.44
526.50	37319.84
526.67	36526.40
526.84	37003.87
527.01	37193.45
527.18	37001.53
527.36	37408.78
527.53	37228.56
527.70	37209.84
527.87	37523.47
528.04	37001.53
528.21	37689.65
528.38	37574.96
528.55	37776.25
528.72	37523.47
528.89	37359.63
529.07	37532.83
529.24	37900.29
529.41	37820.72
529.58	37481.34
529.75	37691.99
529.92	37727.10
530.09	38092.22
530.26	37883.91
530.43	38227.97
530.60	37825.40
530.77	38183.50
530.94	38307.55
531.11	38136.69
531.28	38363.72
531.46	37949.45
531.63	38443.30
531.80	38499.47
531.97	38466.70
532.14	38604.80
532.31	38380.10
532.48	38918.43
532.65	39548.03
532.82	39082.27
532.99	39407.60
533.16	39115.03
533.33	39110.35
533.50	39250.78
533.67	38897.36
533.84	39026.09
534.01	39119.71
534.18	39028.43
534.35	39688.46
534.52	39515.26
534.69	39878.05
534.86	39714.21
535.03	39679.10
535.20	39959.97
535.37	40062.95
535.54	39847.62
535.71	40016.14
535.88	39814.85
536.05	40020.82
536.22	39730.59
536.38	40360.20
536.55	39871.03
536.72	40154.23
536.89	39714.21
537.06	39847.62
537.23	40210.40
537.40	40376.58
537.57	40329.77
537.74	40098.06
537.91	40704.26
538.08	40624.68
538.25	40175.30
538.42	40493.61
538.59	40678.51
538.75	40732.34
538.92	40917.25
539.09	41399.40
539.26	41127.89
539.43	40744.05
539.60	40809.58
539.77	41045.97
539.94	41078.74
540.11	41298.75
540.28	40573.19
540.44	41427.48
540.61	41095.13
540.78	41273.01
540.95	41038.95
541.12	41406.42
541.29	41062.36
541.46	41329.18
541.62	41216.83
541.79	41626.43
541.96	41102.15
542.13	41654.51
542.30	41312.80
542.47	41677.92
542.63	42005.59
542.80	41991.55
542.97	42085.17
543.14	42300.50
543.31	42225.60
543.48	42167.09
543.64	42820.10
543.81	42562.64
543.98	42424.55
544.15	42417.53
544.32	42693.71
544.48	43089.26
544.65	42679.67
544.82	42672.65
544.99	42607.11
545.16	42689.03
545.32	42518.17
545.49	43129.05
545.66	43248.42
545.83	43028.41
546.00	42742.86
546.16	42965.21
546.33	43007.34
546.50	42883.30
546.67	43119.69
546.83	42639.88
547.00	42904.36
547.17	42705.41
547.34	43328.00
547.50	43384.17
547.67	43363.11
547.84	43459.07
548.00	43976.33
548.17	43791.42
548.34	43358.42
548.51	44016.11
548.67	43805.47
548.84	43840.57
549.01	43636.95
549.18	43952.92
549.34	43969.30
549.51	44055.90
549.68	44278.25
549.84	43737.59
550.01	44505.29
550.18	43782.06
550.34	44205.70
550.51	44149.53
550.68	44156.55
550.84	43711.84
551.01	44334.43
551.18	44058.24
551.34	44100.37
551.51	44182.29
551.68	43983.35
551.84	44266.55
552.01	44486.56
552.18	44643.38
552.34	44069.95
552.51	44332.09
552.68	44329.75
552.84	44215.06
553.01	44428.05
553.18	44481.88
553.34	44788.49
553.51	44486.56
553.67	45001.48
553.84	44989.78
554.01	45041.27
554.17	44715.93
554.34	44985.10
554.51	44790.83
554.67	45212.13
554.84	44856.37
555.00	44804.88
555.17	44751.04
555.33	45275.32
555.50	45102.12
555.67	44978.07
555.83	45179.36
556.00	45368.94
556.16	45521.08
556.33	45148.93
556.50	45359.58
556.66	45071.70
556.83	45270.64
556.99	45701.30
557.16	45244.90
557.32	45621.72
557.49	45745.77
557.65	45010.84
557.82	45406.39
557.98	45226.17
558.15	45771.52
558.32	45853.44
558.48	45368.94
558.65	45642.79
558.81	45827.69
558.98	45504.70
559.14	45710.66
559.31	45455.54
559.47	45624.06
559.64	45890.88
559.80	45717.68
559.97	46075.79
560.13	45916.63
560.30	45514.06
560.46	45921.31
560.63	46080.47
560.79	46075.79
560.96	46185.79
561.12	46153.02
561.29	46408.14
561.45	46492.40
561.61	46148.34
561.78	45933.01
561.94	45553.85
562.11	46281.75
562.27	46101.53
562.44	46099.19
562.60	46183.45
562.77	46642.20
562.93	45806.62
563.10	46391.76
563.26	46068.76
563.42	46389.42
563.59	46513.47
563.75	46429.21
563.92	46426.87
564.08	46284.09
564.24	46770.93
564.41	46562.62
564.57	45963.44
564.74	46864.55
564.90	46871.57
565.07	46637.51
565.23	46412.82
565.39	46670.28
565.56	46824.76
565.72	46160.05
565.88	46347.29
566.05	46363.67
566.21	46368.35
566.38	46410.48
566.54	46810.71
566.70	46909.02
566.87	46632.83
567.03	46129.62
567.19	46719.43
567.36	46660.92
567.52	46890.29
567.68	47491.81
567.85	46712.41
568.01	46969.87
568.17	46923.06
568.34	47096.26
568.50	46600.07
568.66	46927.74
568.83	46962.85
568.99	46724.11
569.15	47250.74
569.32	46871.57
569.48	46904.34
569.64	47133.71
569.81	47049.45
569.97	47510.53
570.13	47180.52
570.30	46859.87
570.46	47002.64
570.62	47381.80
570.78	46850.50
570.95	47351.38
571.11	46724.11
571.27	46454.95
571.43	46997.96
571.60	47302.23
571.76	47498.83
571.92	47112.64
572.09	46951.15
572.25	47489.47
572.41	47129.03
572.57	47187.54
572.74	47477.77
572.90	47182.86
573.06	47437.98
573.22	47199.24
573.38	47255.42
573.55	47220.31
573.71	47536.28
573.87	47117.32
574.03	47564.37
574.20	47536.28
574.36	47217.97
574.52	47515.22
574.68	47384.15
574.84	47775.02
575.01	47559.69
575.17	47718.84
575.33	47306.91
575.49	47412.23
575.65	47679.05
575.82	47496.49
575.98	47114.98
576.14	47199.24
576.30	47721.18
576.46	47292.86
576.62	47395.85
576.79	47653.31
576.95	46885.61
577.11	47339.68
577.27	47030.72
577.43	47236.69
577.59	47494.15
577.75	47339.68
577.92	46967.53
578.08	47576.07
578.24	47379.46
578.40	47791.40
578.56	47435.64
578.72	47597.13
578.88	47323.29
579.04	47753.95
579.21	47501.17
579.37	47847.57
579.53	47482.45
579.69	47714.16
579.85	47000.30
580.01	47796.08
580.17	47482.45
580.33	47526.92
580.49	47611.18
580.65	47580.75
580.82	47409.89
580.98	47594.79
581.14	47498.83
581.30	47540.96
581.46	47313.93
581.62	47206.26
581.78	47285.84
581.94	47875.66
582.10	47370.10
582.26	47555.00
582.42	47311.59
582.58	48013.75
582.74	48016.09
582.90	47800.76
583.06	47875.66
583.22	47421.59
583.38	47800.76
583.54	47880.34
583.70	47463.72
583.86	47859.27
584.02	47777.36
584.18	48020.77
584.34	47906.08
584.50	48306.32
584.66	47515.22
584.82	48006.73
584.98	48039.50
585.14	48151.84
585.30	47395.85
585.46	47807.78
585.62	47688.42
585.78	47899.06
585.94	47480.11
586.10	47672.03
586.26	47728.20
586.42	47688.42
586.58	47646.29
586.74	47807.78
586.90	47999.71
587.06	47941.19
587.22	47735.23
587.38	47629.90
587.54	47924.81
587.70	48179.93
587.86	47959.92
588.02	47540.96
588.18	47819.49
588.34	48158.86
588.49	48055.88
588.65	47704.80
588.81	48067.58
588.97	48388.24
589.13	47988.00
589.29	48140.14
589.45	48189.29
589.61	48411.64
589.77	47889.70
589.93	48053.54
