SpectraSuite Data File
++++++++++++++++++++++++++++++++++++
Date: Fri Oct 25 11:23:59 EDT 2013
User: price-jones
Dark Spectrum Present: No
Reference Spectrum Present: No
Number of Sampled Component Spectra: 1
Spectrometers: USB2+H05261
Integration Time (usec): 100000 (USB2+H05261)
Spectra Averaged: 1 (USB2+H05261)
Boxcar Smoothing: 0 (USB2+H05261)
Correct for Electrical Dark: No (USB2+H05261)
Strobe/Lamp Enabled: No (USB2+H05261)
Correct for Detector Non-linearity: No (USB2+H05261)
Correct for Stray Light: No (USB2+H05261)
Number of Pixels in Processed Spectrum: 2048
>>>>>Begin Processed Spectral Data<<<<<
365.73	262.14
365.92	262.14
366.12	262.14
366.32	194.26
366.52	194.26
366.72	65.54
366.91	117.03
367.11	159.16
367.31	133.41
367.51	121.71
367.70	198.95
367.90	135.75
368.10	149.79
368.30	203.63
368.49	114.69
368.69	163.84
368.89	238.73
369.09	149.79
369.28	135.75
369.48	203.63
369.68	248.10
369.87	184.90
370.07	210.65
370.27	203.63
370.47	346.40
370.66	566.41
370.86	596.84
371.06	690.46
371.25	695.14
371.45	638.97
371.65	704.50
371.84	732.59
372.04	685.78
372.24	770.04
372.44	688.12
372.63	734.93
372.83	690.46
373.03	763.01
373.22	685.78
373.42	798.12
373.62	786.42
373.81	821.53
374.01	774.72
374.21	805.14
374.40	791.10
374.60	842.59
374.79	741.95
374.99	854.30
375.19	894.08
375.38	840.25
375.58	842.59
375.78	912.81
375.97	866.00
376.17	945.58
376.37	816.85
376.56	894.08
376.76	903.45
376.95	887.06
377.15	926.85
377.35	922.17
377.54	903.45
377.74	968.98
377.93	847.27
378.13	821.53
378.33	980.68
378.52	861.32
378.72	980.68
378.91	964.30
379.11	992.39
379.31	987.71
379.50	840.25
379.70	1008.77
379.89	1050.90
380.09	915.15
380.28	910.47
380.48	1095.37
380.68	1011.11
380.87	1004.09
381.07	1116.44
381.26	1001.75
381.46	926.85
381.65	1088.35
381.85	1060.26
382.04	1048.56
382.24	1039.20
382.43	1013.45
382.63	1074.31
382.83	1078.99
383.02	1090.69
383.22	1116.44
383.41	1111.75
383.61	1022.81
383.80	1090.69
384.00	1125.80
384.19	1083.67
384.39	1135.16
384.58	1146.86
384.78	1100.05
384.97	1184.31
385.17	1111.75
385.36	1177.29
385.56	1174.95
385.75	1151.54
385.95	1226.44
386.14	1179.63
386.34	1132.82
386.53	1235.80
386.72	1259.21
386.92	1240.48
387.11	1254.53
387.31	1219.42
387.50	1280.27
387.70	1233.46
387.89	1219.42
388.09	1256.87
388.28	1252.19
388.48	1306.02
388.67	1291.98
388.86	1301.34
389.06	1287.29
389.25	1350.49
389.45	1310.70
389.64	1390.28
389.84	1364.53
390.03	1345.81
390.22	1366.87
390.42	1413.68
390.61	1462.83
390.81	1313.04
391.00	1348.15
391.19	1533.05
391.39	1455.81
391.58	1481.56
391.78	1476.88
391.97	1474.54
392.16	1540.07
392.36	1486.24
392.55	1556.46
392.75	1467.52
392.94	1500.28
393.13	1556.46
393.33	1610.29
393.52	1565.82
393.71	1549.43
393.91	1682.85
394.10	1554.12
394.29	1586.88
394.49	1537.73
394.68	1645.40
394.88	1664.12
395.07	1717.95
395.26	1614.97
395.46	1743.70
395.65	1673.48
395.84	1753.06
396.04	1757.74
396.23	1762.42
396.42	1739.02
396.62	1809.23
396.81	1799.87
397.00	1858.39
397.19	1834.98
397.39	1874.77
397.58	1853.70
397.77	1783.49
397.97	1858.39
398.16	1853.70
398.35	1982.43
398.55	1867.75
398.74	1961.37
398.93	1947.33
399.12	1902.86
399.32	1834.98
399.51	1975.41
399.70	2059.67
399.90	1961.37
400.09	2094.78
400.28	2097.12
400.47	1937.96
400.67	2080.74
400.86	1977.75
401.05	2094.78
401.24	2087.76
401.44	2214.15
401.63	2183.72
401.82	2033.93
402.01	2179.04
402.21	2228.19
402.40	2127.55
402.59	2260.96
402.78	2253.94
402.97	2286.70
403.17	2221.17
403.36	2373.30
403.55	2246.91
403.74	2380.32
403.93	2436.50
404.13	2471.61
404.32	2492.67
404.51	2399.05
404.70	2380.32
404.89	2457.56
405.09	2523.10
405.28	2469.27
405.47	2546.50
405.66	2581.61
405.85	2586.29
406.05	2511.39
406.24	2597.99
406.43	2607.36
406.62	2719.70
406.81	2766.51
407.00	2565.23
407.20	2628.42
407.39	2649.49
407.58	2712.68
407.77	2803.96
407.96	2834.39
408.15	2705.66
408.34	2761.83
408.54	2836.73
408.73	2813.32
408.92	2832.05
409.11	2913.97
409.30	2930.35
409.49	2899.92
409.68	2942.05
409.87	2956.10
410.07	2998.23
410.26	3080.14
410.45	2909.29
410.64	2993.55
410.83	3094.19
411.02	3009.93
411.21	3267.39
411.40	3236.96
411.59	3229.94
411.78	3225.26
411.98	3171.43
412.17	3185.47
412.36	3166.74
412.55	3314.20
412.74	3412.50
412.93	3215.90
413.12	3353.99
413.31	3648.90
413.50	3538.89
413.69	3499.10
413.88	3515.48
414.07	3480.38
414.26	3595.06
414.45	3754.22
414.64	3730.81
414.83	3798.69
415.02	3700.39
415.22	3817.41
415.41	3857.20
415.60	3843.16
415.79	3920.40
415.98	3936.78
416.17	3999.98
416.36	3950.82
416.55	4060.83
416.74	4004.66
416.93	3974.23
417.12	4271.48
417.31	4264.46
417.50	4287.86
417.69	4339.35
417.88	4318.29
418.07	4217.65
418.26	4175.52
418.45	4353.40
418.64	4489.15
418.83	4479.79
419.02	4425.95
419.21	4521.92
419.39	4503.19
419.58	4533.62
419.77	4524.26
419.96	4713.84
420.15	4568.73
420.34	4723.20
420.53	4655.33
420.72	4716.18
420.91	4772.35
421.10	4849.59
421.29	4894.06
421.48	4809.80
421.67	4697.46
421.86	4877.68
422.05	4985.34
422.24	4767.67
422.43	4847.25
422.61	4896.40
422.80	4933.85
422.99	4868.31
423.18	4978.32
423.37	5085.98
423.56	4980.66
423.75	4947.89
423.94	4884.70
424.13	4606.17
424.32	4727.88
424.50	4961.94
424.69	5053.22
424.88	5100.03
425.07	5008.75
425.26	4952.57
425.45	4891.72
425.64	4966.62
425.83	4887.04
426.01	5078.96
426.20	5022.79
426.39	5067.26
426.58	5125.77
426.77	4957.25
426.96	5114.07
427.15	5022.79
427.33	5214.71
427.52	5263.86
427.71	5392.59
427.90	5282.59
428.09	5275.57
428.28	5373.87
428.46	5446.43
428.65	5289.61
428.84	5518.98
429.03	5547.07
429.22	5490.90
429.40	5526.00
429.59	5488.56
429.78	5448.77
429.97	5266.21
430.16	5547.07
430.34	5673.46
430.53	5633.67
430.72	5743.67
430.91	5600.90
431.10	5678.14
431.28	5736.65
431.47	5790.49
431.66	5853.68
431.85	5867.72
432.03	5853.68
432.22	5989.43
432.41	5853.68
432.60	5792.83
432.79	6050.28
432.97	6001.13
433.16	6176.67
433.35	6080.71
433.54	6087.73
433.72	6174.33
433.91	6118.16
434.10	6204.76
434.28	6146.25
434.47	6249.23
434.66	6282.00
434.85	6324.13
435.03	6347.53
435.22	6251.57
435.41	6513.71
435.59	6483.28
435.78	6560.52
435.97	6574.56
436.16	6560.52
436.34	6511.37
436.53	6469.24
436.72	6665.85
436.90	6366.26
437.09	6743.08
437.28	6387.32
437.46	6670.53
437.65	6588.61
437.84	6827.34
438.02	6869.47
438.21	6801.60
438.40	6825.00
438.58	6876.49
438.77	7164.38
438.96	6876.49
439.14	7098.84
439.33	7272.04
439.52	7332.90
439.70	7248.64
439.89	7344.60
440.08	7583.34
440.26	7475.67
440.45	7389.07
440.63	7569.29
440.82	7522.48
441.01	7545.89
441.19	7597.38
441.38	7859.52
441.57	7784.62
441.75	7882.92
441.94	7810.37
442.12	7950.80
442.31	8156.77
442.50	8023.36
442.68	7911.01
442.87	8124.00
443.05	8056.12
443.24	8257.41
443.43	8257.41
443.61	8184.85
443.80	8390.82
443.98	7999.95
444.17	7866.54
444.35	8208.26
444.54	8379.12
444.73	8355.71
444.91	8142.72
445.10	8470.40
445.28	8346.35
445.47	8262.09
445.65	8367.42
445.84	8514.87
446.02	8416.57
446.21	8500.83
446.39	8631.90
446.58	8517.21
446.77	8549.98
446.95	8341.67
447.14	8678.71
447.32	8568.70
447.51	8585.08
447.69	8571.04
447.88	8589.77
448.06	8496.14
448.25	8259.75
448.43	8585.08
448.62	8603.81
448.80	8734.88
448.99	8718.50
449.17	8739.56
449.36	8575.72
449.54	8826.16
449.73	8990.00
449.91	9064.89
450.10	9004.04
450.28	9067.24
450.46	9104.68
450.65	9034.47
450.83	9261.50
451.02	9013.40
451.20	9394.91
451.39	9214.69
451.57	9254.48
451.76	9224.05
451.94	9217.03
452.13	9252.14
452.31	9507.26
452.49	9310.65
452.68	9509.60
452.86	9282.56
453.05	9643.01
453.23	9390.23
453.42	9350.44
453.60	9479.17
453.78	9687.48
453.97	9643.01
454.15	9657.05
454.34	9467.47
454.52	9856.00
454.70	9537.68
454.89	9816.21
455.07	10127.50
455.26	9874.72
455.44	10001.11
455.62	9860.68
455.81	10188.35
455.99	9895.78
456.17	10291.34
456.36	9970.68
456.54	10401.34
456.73	10391.98
456.91	10579.22
457.09	10478.58
457.28	10602.63
457.46	10403.68
457.64	10642.42
457.83	10317.08
458.01	10413.04
458.19	11154.99
458.38	10576.88
458.56	10743.06
458.74	10927.96
458.93	10633.05
459.11	10965.41
459.29	10764.12
459.48	10832.00
459.66	10815.62
459.84	10611.99
460.03	11152.65
460.21	11075.42
460.39	11026.26
460.57	11047.33
460.76	11131.59
460.94	11470.97
461.12	11318.83
461.31	11279.04
461.49	11199.46
461.67	11211.17
461.85	11363.30
462.04	11384.37
462.22	11630.12
462.40	11613.74
462.59	11625.44
462.77	11473.31
462.95	11894.60
463.13	11805.66
463.32	11740.13
463.50	11934.39
463.68	12044.40
463.86	11812.68
464.05	11548.20
464.23	12109.93
464.41	12006.95
464.59	11660.55
464.78	12222.28
464.96	11955.46
465.14	11922.69
465.32	12072.48
465.50	12182.49
465.69	12187.17
465.87	12519.53
466.05	12311.22
466.23	12264.41
466.41	12510.16
466.60	12641.23
466.78	12154.40
466.96	12269.09
467.14	12461.01
467.32	12400.16
467.51	12779.32
467.69	12112.27
467.87	12697.41
468.05	12613.15
468.23	12327.60
468.41	12664.64
468.60	12807.41
468.78	12503.14
468.96	12580.38
469.14	12704.43
469.32	12882.31
469.50	12505.48
469.69	12968.91
469.87	13240.41
470.05	13025.08
470.23	13242.75
470.41	13188.92
470.59	13352.76
470.77	13212.32
470.95	13209.98
471.14	13621.92
471.32	13046.15
471.50	13706.18
471.68	13734.26
471.86	13752.99
472.04	13991.72
472.22	13982.36
472.40	13713.20
472.58	13776.39
472.77	14050.24
472.95	14588.56
473.13	14553.45
473.31	14075.98
473.49	14595.58
473.67	14279.61
473.85	14209.39
474.03	14668.14
474.21	14590.90
474.39	14904.53
474.57	14724.31
474.75	14810.91
474.93	15178.37
475.12	14888.15
475.30	15428.81
475.48	15173.69
475.66	15604.35
475.84	15054.33
476.02	15426.47
476.20	15421.79
476.38	15681.59
476.56	15917.98
476.74	16095.86
476.92	15826.70
477.10	16044.37
477.28	16379.07
477.46	16482.05
477.64	16369.71
477.82	16739.51
478.00	17074.21
478.18	16819.09
478.36	16936.12
478.54	17493.16
478.72	17291.88
478.90	17188.89
479.08	17657.00
479.26	17886.37
479.44	18036.17
479.62	18232.77
479.80	18288.95
479.98	18118.09
480.16	18733.65
480.34	18405.97
480.52	18513.64
480.70	18675.13
480.88	18497.25
481.06	18808.54
481.24	18944.30
481.41	18972.38
481.59	19562.20
481.77	19709.65
481.95	19515.39
482.13	19892.21
482.31	19857.10
482.49	20439.90
482.67	20596.71
482.85	20484.37
483.03	20547.56
483.21	20858.85
483.39	21057.80
483.57	20893.96
483.74	21343.35
483.92	21474.42
484.10	21167.80
484.28	21783.37
484.46	21689.74
484.64	22207.00
484.82	21979.97
485.00	22441.06
485.18	22773.41
485.35	23159.60
485.53	22967.68
485.71	23260.24
485.89	23882.83
486.07	23428.76
486.25	23590.26
486.43	23868.78
486.61	24063.05
486.78	24149.65
486.96	24130.92
487.14	24814.36
487.32	24570.94
487.50	25174.80
487.68	25022.67
487.85	25394.81
488.03	25902.71
488.21	25879.30
488.39	25956.54
488.57	26448.05
488.75	26459.76
488.92	26431.67
489.10	26834.24
489.28	27094.04
489.46	27051.91
489.64	26941.91
489.81	27716.62
489.99	27489.59
490.17	28215.16
490.35	28400.06
490.53	28456.23
490.70	28168.35
490.88	28446.87
491.06	28802.63
491.24	29097.54
491.41	29252.02
491.59	29118.60
491.77	29387.77
491.95	29883.96
492.13	29972.90
492.30	30586.12
492.48	29921.41
492.66	30565.06
492.84	30918.48
493.01	30955.93
493.19	31103.38
493.37	31405.31
493.54	31573.83
493.72	31854.69
493.90	31545.74
494.08	31978.74
494.25	32233.86
494.43	32034.91
494.61	32325.14
494.79	32376.63
494.96	32652.81
495.14	33067.09
495.32	33567.96
495.49	33394.76
495.67	33415.83
495.85	33567.96
496.02	33933.09
496.20	34040.75
496.38	34389.49
496.55	34508.86
496.73	35070.59
496.91	34740.57
497.09	35047.18
497.26	35248.47
497.44	35323.36
497.62	35412.31
497.79	36133.19
497.97	35667.42
498.14	36109.78
498.32	36505.34
498.50	36252.56
498.67	36692.58
498.85	36896.20
499.03	36910.25
499.20	37134.94
499.38	37029.62
499.56	36980.46
499.73	37558.58
499.91	37799.65
500.08	38150.73
500.26	37689.65
500.44	38326.27
500.61	38054.77
500.79	38031.36
500.97	38251.38
501.14	38646.93
501.32	38433.94
501.49	38796.72
501.67	38906.73
501.84	39210.99
502.02	39505.90
502.20	39220.36
502.37	39435.69
502.55	39704.85
502.72	39861.66
502.90	39683.78
503.07	39571.44
503.25	40299.34
503.43	39934.22
503.60	40404.67
503.78	40528.72
503.95	40552.12
504.13	40872.78
504.30	40875.12
504.48	40847.03
504.65	40858.73
504.83	41048.32
505.01	41640.47
505.18	41081.08
505.36	41621.75
505.53	41235.56
505.71	41904.95
505.88	42312.20
506.06	41853.46
506.23	42150.71
506.41	41940.06
506.58	42499.45
506.76	42064.11
506.93	43419.28
507.11	42396.46
507.28	42646.90
507.46	42820.10
507.63	42852.87
507.81	43367.79
507.98	43033.09
508.16	43615.88
508.33	43686.10
508.50	43920.15
508.68	44257.19
508.85	44226.76
509.03	44369.54
509.20	43945.90
509.38	44879.77
509.55	44851.69
509.73	44467.84
509.90	44807.22
510.08	44694.87
510.25	45160.64
510.42	45191.06
510.60	44877.43
510.77	45289.37
510.95	45813.65
511.12	45272.98
511.30	45390.01
511.47	45446.18
511.64	45675.55
511.82	46115.58
511.99	45855.78
512.17	45867.48
512.34	46241.96
512.51	46469.00
512.69	46906.68
512.86	46803.69
513.04	46859.87
513.21	46988.60
513.38	46801.35
513.56	47309.25
513.73	46747.52
513.90	47452.02
514.08	46990.94
514.25	47430.96
514.43	47655.65
514.60	47559.69
514.77	47824.17
514.95	47959.92
515.12	47971.62
515.29	47578.41
515.47	48334.40
515.64	48142.48
515.81	47948.21
515.99	48280.57
516.16	48685.48
516.33	48538.03
516.51	48720.59
516.68	48839.96
516.85	48650.38
517.03	49069.33
517.20	49193.38
517.37	49216.78
517.54	49169.97
517.72	49015.50
517.89	49432.11
518.06	49670.85
518.24	49422.75
518.41	49619.36
518.58	49867.45
518.75	49577.23
518.93	50017.25
519.10	49453.18
519.27	49696.59
519.45	50199.81
519.62	50555.57
519.79	49855.75
519.96	50309.82
520.14	50499.40
520.31	50398.76
520.48	50628.13
520.65	50370.67
520.83	50855.16
521.00	50777.92
521.17	51192.20
521.34	50920.70
521.52	51044.74
521.69	51271.78
521.86	51351.35
522.03	51503.49
522.20	51515.19
522.38	51676.69
522.55	51452.00
522.72	51182.84
522.89	51695.41
523.07	51948.19
523.24	52039.47
523.41	52030.11
523.58	51672.01
523.75	52053.51
523.92	51758.61
524.10	52158.84
524.27	52212.67
524.44	52135.43
524.61	52467.79
524.78	52645.67
524.96	52495.88
525.13	52622.26
525.30	52549.71
525.47	52538.01
525.64	52706.52
525.81	52538.01
525.98	52968.66
526.16	52821.21
526.33	52561.41
526.50	53268.25
526.67	53155.91
526.84	52961.64
527.01	53069.31
527.18	52947.60
527.36	53165.27
527.53	53130.16
527.70	53722.32
527.87	53464.86
528.04	53656.78
528.21	53591.25
528.38	53499.97
528.55	53949.35
528.72	53511.67
528.89	53296.34
529.07	53680.19
529.24	53680.19
529.41	53715.29
529.58	53659.12
529.75	54052.33
529.92	54145.95
530.09	54021.90
530.26	53989.14
530.43	54190.42
530.60	53834.66
530.77	54122.55
530.94	54475.97
531.11	54096.80
531.28	54356.60
531.46	54403.41
531.63	54380.01
531.80	54508.74
531.97	54805.98
532.14	54864.50
532.31	54672.57
532.48	54796.62
532.65	54644.49
532.82	54630.44
532.99	54630.44
533.16	54946.42
533.33	54974.50
533.50	55173.45
533.67	54990.89
533.84	54901.95
534.01	55203.88
534.18	54908.97
534.35	55234.30
534.52	55037.70
534.69	55461.33
534.86	55440.27
535.03	55327.92
535.20	55171.11
535.37	55330.26
535.54	55482.40
535.71	55611.13
535.88	55676.66
536.05	55779.65
536.22	55681.34
536.38	55512.83
536.55	55667.30
536.72	55863.91
536.89	55920.08
537.06	55594.74
537.23	55945.83
537.40	55611.13
537.57	55992.64
537.74	55856.88
537.91	56186.90
538.08	56107.32
538.25	55884.97
538.42	55987.95
538.59	56343.72
538.75	56184.56
538.92	56233.71
539.09	56406.91
539.26	56343.72
539.43	55994.98
539.60	56200.94
539.77	56512.23
539.94	56554.36
540.11	56587.13
540.28	56542.66
540.44	56509.89
540.61	56502.87
540.78	56474.79
540.95	56816.50
541.12	56554.36
541.29	56657.35
541.46	56793.10
541.62	56860.97
541.79	56830.55
541.96	56685.43
542.13	56465.42
542.30	56807.14
542.47	56975.66
542.63	57104.39
542.80	57212.06
542.97	57221.42
543.14	57509.30
543.31	57244.82
543.48	57322.06
543.64	57696.55
543.81	57462.49
543.98	57256.53
544.15	57542.07
544.32	57588.88
544.48	57593.56
544.65	57357.17
544.82	57567.82
544.99	57382.91
545.16	57666.12
545.32	57577.18
545.49	57797.19
545.66	57851.02
545.83	57897.83
546.00	57820.59
546.16	57827.62
546.33	57532.71
546.50	57551.43
546.67	57848.68
546.83	57645.05
547.00	58005.50
547.17	57794.85
547.34	57968.05
547.50	57991.45
547.67	58239.55
547.84	58227.85
548.00	58213.80
548.17	58321.47
548.34	58269.98
548.51	58288.70
548.67	58239.55
548.84	58272.32
549.01	58279.34
549.18	58361.26
549.34	58356.58
549.51	58513.39
549.68	58564.88
549.84	58513.39
550.01	58534.46
550.18	58356.58
550.34	58529.78
550.51	58595.31
550.68	58450.20
550.84	58667.87
551.01	58862.13
551.18	58681.91
551.34	58784.90
551.51	58805.96
551.68	58607.01
551.84	58801.28
552.01	58710.00
552.18	58763.83
552.34	58801.28
552.51	58901.92
552.68	58733.40
552.84	58878.52
553.01	58974.48
553.18	58925.33
553.34	58887.88
553.51	58780.21
553.67	59000.22
553.84	59311.52
554.01	59332.58
554.17	59253.00
554.34	59065.76
554.51	59208.53
554.67	59150.02
554.84	58873.84
555.00	59189.81
555.17	59231.94
555.33	59405.14
555.50	59175.76
555.67	59180.45
555.83	59143.00
556.00	59330.24
556.16	59398.12
556.33	59566.63
556.50	59171.08
556.66	59274.07
556.83	59276.41
556.99	59496.42
557.16	59615.79
557.32	59580.68
557.49	59615.79
557.65	59622.81
557.82	59351.30
557.98	59627.49
558.15	59325.56
558.32	59634.51
558.48	59433.22
558.65	59536.21
558.81	59648.55
558.98	59758.56
559.14	59643.87
559.31	59678.98
559.47	59739.83
559.64	59721.11
559.80	59774.94
559.97	59955.16
560.13	59599.40
560.30	59835.80
560.46	59966.87
560.63	59955.16
560.79	59721.11
560.96	60067.51
561.12	59920.05
561.29	60088.57
561.45	59765.58
561.61	59898.99
561.78	59868.56
561.94	60020.70
562.11	60083.89
562.27	60030.06
562.44	59917.71
562.60	60231.35
562.77	60212.62
562.93	59913.03
563.10	60217.30
563.26	60097.94
563.42	60261.77
563.59	60268.79
563.75	60034.74
563.92	60177.51
564.08	60144.75
564.24	60317.95
564.41	60196.24
564.57	60175.17
564.74	60285.18
564.90	60285.18
565.07	60088.57
565.23	60324.97
565.39	60390.50
565.56	60413.91
565.72	60348.37
565.88	60238.37
566.05	60137.72
566.21	60231.35
566.38	60341.35
566.54	60322.63
566.70	60392.84
566.87	60631.58
567.03	60327.31
567.19	60643.28
567.36	60512.21
567.52	60575.40
567.68	60683.07
567.85	60287.52
568.01	60463.06
568.17	60540.30
568.34	60643.28
568.50	60388.16
568.66	60376.46
568.83	60535.62
568.99	60420.93
569.15	60488.80
569.32	60676.05
569.48	60451.36
569.64	60711.16
569.81	60559.02
569.97	60652.64
570.13	60594.13
570.30	60460.72
570.46	60633.92
570.62	60584.77
570.78	60711.16
570.95	60654.98
571.11	60734.56
571.27	60814.14
571.43	60694.77
571.60	60884.36
571.76	60690.09
571.92	60755.63
572.09	60767.33
572.25	60889.04
572.41	60776.69
572.57	60837.54
572.74	60912.44
572.90	60823.50
573.06	60736.90
573.22	60750.94
573.38	60769.67
573.55	60865.63
573.71	60879.67
573.87	61006.06
574.03	60615.19
574.20	61010.74
574.36	60601.15
574.52	60884.36
574.68	60783.71
574.84	61052.87
575.01	60818.82
575.17	60701.79
575.33	60823.50
575.49	60638.60
575.65	60786.05
575.82	61008.40
575.98	60968.61
576.14	61024.79
576.30	60872.65
576.46	60966.27
576.62	60636.26
576.79	60830.52
576.95	60779.03
577.11	60989.68
577.27	61052.87
577.43	60889.04
577.59	60809.46
577.75	60935.85
577.92	60853.93
578.08	60898.40
578.24	60973.30
578.40	61080.96
578.56	60905.42
578.72	61050.53
578.88	61237.78
579.04	61078.62
579.21	60977.98
579.37	61146.50
579.53	61183.94
579.69	60790.73
579.85	61036.49
580.01	61055.21
580.17	60856.27
580.33	61242.46
580.49	61003.72
580.65	61087.98
580.82	61038.83
580.98	61020.11
581.14	61102.03
581.30	61127.77
581.46	61013.08
581.62	61193.31
581.78	60945.21
581.94	61127.77
582.10	61071.60
582.26	61153.52
582.42	61008.40
582.58	61015.43
582.74	60900.74
582.90	60832.86
583.06	61179.26
583.22	60898.40
583.38	61085.64
583.54	61247.14
583.70	61038.83
583.86	61123.09
584.02	60982.66
584.18	61275.22
584.34	61080.96
584.50	61190.97
584.66	61038.83
584.82	61006.06
584.98	61317.35
585.14	61099.68
585.30	61151.18
585.46	61027.13
585.62	61116.07
585.78	61300.97
585.94	61003.72
586.10	61212.03
586.26	61034.15
586.42	61090.32
586.58	61244.80
586.74	61284.59
586.90	61331.40
587.06	61275.22
587.22	61162.88
587.38	61153.52
587.54	61399.27
587.70	61310.33
587.86	61066.92
588.02	61109.05
588.18	61410.98
588.34	61193.31
