SpectraSuite Data File
++++++++++++++++++++++++++++++++++++
Date: Fri Oct 25 10:48:18 EDT 2013
User: price-jones
Dark Spectrum Present: No
Reference Spectrum Present: No
Number of Sampled Component Spectra: 1
Spectrometers: USB2+H05261
Integration Time (usec): 100000 (USB2+H05261)
Spectra Averaged: 1 (USB2+H05261)
Boxcar Smoothing: 0 (USB2+H05261)
Correct for Electrical Dark: No (USB2+H05261)
Strobe/Lamp Enabled: No (USB2+H05261)
Correct for Detector Non-linearity: No (USB2+H05261)
Correct for Stray Light: No (USB2+H05261)
Number of Pixels in Processed Spectrum: 2048
>>>>>Begin Processed Spectral Data<<<<<
365.73	107.66
365.92	107.66
366.12	107.66
366.32	65.54
366.52	112.35
366.72	117.03
366.91	9.36
367.11	11.70
367.31	28.09
367.51	0.00
367.70	2.34
367.90	63.19
368.10	37.45
368.30	79.58
368.49	107.66
368.69	126.39
368.89	77.24
369.09	72.56
369.28	74.90
369.48	70.22
369.68	58.51
369.87	119.37
370.07	161.50
370.27	131.07
370.47	133.41
370.66	411.93
370.86	458.74
371.06	524.28
371.25	512.58
371.45	451.72
371.65	547.69
371.84	491.51
372.04	482.15
372.24	543.00
372.44	524.28
372.63	498.53
372.83	554.71
373.03	545.34
373.22	510.24
373.42	582.79
373.62	559.39
373.81	557.05
374.01	566.41
374.21	587.47
374.40	695.14
374.60	531.30
374.79	641.31
374.99	683.44
375.19	629.60
375.38	575.77
375.58	636.63
375.78	674.07
375.97	650.67
376.17	624.92
376.37	601.52
376.56	704.50
376.76	603.86
376.95	723.23
377.15	617.90
377.35	561.73
377.54	699.82
377.74	690.46
377.93	688.12
378.13	681.10
378.33	784.08
378.52	617.90
378.72	727.91
378.91	737.27
379.11	669.39
379.31	681.10
379.50	627.26
379.70	737.27
379.89	683.44
380.09	748.97
380.28	678.76
380.48	683.44
380.68	774.72
380.87	720.88
381.07	716.20
381.26	720.88
381.46	760.67
381.65	758.33
381.85	720.88
382.04	704.50
382.24	812.17
382.43	702.16
382.63	739.61
382.83	730.25
383.02	807.48
383.22	819.19
383.41	706.84
383.61	755.99
383.80	812.17
384.00	746.63
384.19	793.44
384.39	849.61
384.58	856.64
384.78	809.83
384.97	868.34
385.17	842.59
385.36	802.80
385.56	812.17
385.75	840.25
385.95	809.83
386.14	910.47
386.34	917.49
386.53	933.87
386.72	828.55
386.92	905.79
387.11	912.81
387.31	898.77
387.50	856.64
387.70	842.59
387.89	894.08
388.09	978.34
388.28	826.21
388.48	821.53
388.67	1001.75
388.86	1020.47
389.06	922.17
389.25	990.05
389.45	976.00
389.64	1006.43
389.84	1093.03
390.03	1090.69
390.22	1074.31
390.42	1050.90
390.61	1004.09
390.81	1102.39
391.00	1011.11
391.19	1104.73
391.39	1071.97
391.58	1139.84
391.78	1090.69
391.97	1102.39
392.16	1048.56
392.36	1090.69
392.55	992.39
392.75	1001.75
392.94	990.05
393.13	1025.15
393.33	1050.90
393.52	1020.47
393.71	1205.38
393.91	1174.95
394.10	1224.10
394.29	1287.29
394.49	1240.48
394.68	1238.14
394.88	1207.72
395.07	1366.87
395.26	1249.85
395.46	1366.87
395.65	1256.87
395.84	1270.91
396.04	1301.34
396.23	1235.80
396.42	1174.95
396.62	1240.48
396.81	1226.44
397.00	1238.14
397.19	1341.13
397.39	1324.74
397.58	1502.62
397.77	1359.85
397.97	1462.83
398.16	1511.99
398.35	1488.58
398.55	1551.78
398.74	1621.99
398.93	1563.48
399.12	1497.94
399.32	1565.82
399.51	1570.50
399.70	1549.43
399.90	1607.95
400.09	1643.06
400.28	1659.44
400.47	1591.56
400.67	1736.68
400.86	1659.44
401.05	1717.95
401.24	1682.85
401.44	1743.70
401.63	1783.49
401.82	1853.70
402.01	1785.83
402.21	1724.97
402.40	1732.00
402.59	1760.08
402.78	1785.83
402.97	1767.10
403.17	1907.54
403.36	1858.39
403.55	1919.24
403.74	1954.35
403.93	1942.64
404.13	1919.24
404.32	1907.54
404.51	1858.39
404.70	2038.61
404.89	1977.75
405.09	2139.25
405.28	2022.22
405.47	1994.14
405.66	2040.95
405.85	2008.18
406.05	1998.82
406.24	2106.48
406.43	2132.23
406.62	2160.31
406.81	2167.34
407.00	2153.29
407.20	2155.63
407.39	2132.23
407.58	2125.21
407.77	2293.72
407.96	2251.60
408.15	2300.75
408.34	2279.68
408.54	2277.34
408.73	2342.88
408.92	2326.49
409.11	2434.16
409.30	2331.17
409.49	2239.89
409.68	2363.94
409.87	2422.45
410.07	2431.82
410.26	2382.67
410.45	2511.39
410.64	2553.52
410.83	2633.10
411.02	2640.12
411.21	2621.40
411.40	2710.34
411.59	2677.57
411.78	2733.75
411.98	2562.89
412.17	2558.21
412.36	2745.45
412.55	2757.15
412.74	2920.99
412.93	2747.79
413.12	2834.39
413.31	2902.26
413.50	2766.51
413.69	2899.92
413.88	2918.65
414.07	2923.33
414.26	3019.29
414.45	2995.89
414.64	3016.95
414.83	3019.29
415.02	3133.98
415.22	3255.69
415.41	3171.43
415.60	3211.22
415.79	3229.94
415.98	3499.10
416.17	3337.60
416.36	3253.34
416.55	3283.77
416.74	3323.56
416.93	3260.37
417.12	3463.99
417.31	3361.01
417.50	3531.87
417.69	3393.78
417.88	3555.27
418.07	3492.08
418.26	3456.97
418.45	3576.34
418.64	3721.45
418.83	3667.62
419.02	3639.53
419.21	3632.51
419.39	3557.61
419.58	3485.06
419.77	3634.85
419.96	3695.71
420.15	3843.16
420.34	3892.31
420.53	3850.18
420.72	3967.21
420.91	3969.55
421.10	3740.18
421.29	3927.42
421.48	3974.23
421.67	4079.55
421.86	3918.06
422.05	3964.87
422.24	3775.28
422.43	3946.14
422.61	3934.44
422.80	3789.33
422.99	4018.70
423.18	4105.30
423.37	4014.02
423.56	4007.00
423.75	4074.87
423.94	3971.89
424.13	3875.93
424.32	3854.86
424.50	4025.72
424.69	4229.35
424.88	4074.87
425.07	4028.06
425.26	3953.16
425.45	4077.21
425.64	4021.04
425.83	4023.38
426.01	4133.39
426.20	4166.15
426.39	4271.48
426.58	3997.64
426.77	3960.19
426.96	4058.49
427.15	4042.11
427.33	4182.54
427.52	4222.33
427.71	4145.09
427.90	4163.81
428.09	4259.78
428.28	4472.76
428.46	4285.52
428.65	4241.05
428.84	4432.97
429.03	4327.65
429.22	4163.81
429.40	4201.26
429.59	4119.34
429.78	4009.34
429.97	4138.07
430.16	4215.30
430.34	4168.49
430.53	4215.30
430.72	4322.97
430.91	4421.27
431.10	4365.10
431.28	4510.21
431.47	4578.09
431.66	4821.50
431.85	4561.70
432.03	4718.52
432.22	4844.91
432.41	4704.48
432.60	4882.36
432.79	4933.85
432.97	4912.78
433.16	4765.33
433.35	4716.18
433.54	4723.20
433.72	4709.16
433.91	4734.90
434.10	4882.36
434.28	4854.27
434.47	5020.45
434.66	5011.09
434.85	5214.71
435.03	5121.09
435.22	5048.54
435.41	5186.63
435.59	5195.99
435.78	5132.79
435.97	5303.65
436.16	5235.78
436.34	5261.52
436.53	5139.82
436.72	5441.75
436.90	5179.61
437.09	5235.78
437.28	5301.31
437.46	5214.71
437.65	5371.53
437.84	5385.57
438.02	5214.71
438.21	5301.31
438.40	5252.16
438.58	5500.26
438.77	5495.58
438.96	5528.35
439.14	5720.27
439.33	5696.86
439.52	5729.63
439.70	5696.86
439.89	5715.59
440.08	5912.19
440.26	5959.00
440.45	5767.08
440.63	5963.68
440.82	6106.46
441.01	6141.57
441.19	6106.46
441.38	6181.35
441.57	6277.32
441.75	6382.64
441.94	6485.62
442.12	6413.07
442.31	6593.29
442.50	6509.03
442.68	6532.44
442.87	6363.92
443.05	6368.60
443.24	6593.29
443.43	6349.87
443.61	6743.08
443.80	6897.56
443.98	6642.44
444.17	6464.56
444.35	6834.36
444.54	6541.80
444.73	6780.53
444.91	6560.52
445.10	6574.56
445.28	6516.05
445.47	6602.65
445.65	6619.04
445.84	6825.00
446.02	6752.45
446.21	6736.06
446.39	6754.79
446.58	6822.66
446.77	6768.83
446.95	6558.18
447.14	6986.50
447.32	6913.94
447.51	6867.13
447.69	6679.89
447.88	6876.49
448.06	6881.18
448.25	6832.02
448.43	6813.30
448.62	7103.53
448.80	6925.65
448.99	6991.18
449.17	7007.56
449.36	6846.07
449.54	7094.16
449.73	7178.42
449.91	7407.80
450.10	7194.81
450.28	7337.58
450.46	7321.20
450.65	7407.80
450.83	7269.70
451.02	7398.43
451.20	7300.13
451.39	7456.95
451.57	7325.88
451.76	7307.15
451.94	7468.65
452.13	7421.84
452.31	7370.35
452.49	7243.96
452.68	7375.03
452.86	7363.33
453.05	7356.30
453.23	7445.24
453.42	7538.87
453.60	7438.22
453.78	7691.00
453.97	7492.05
454.15	7609.08
454.34	7487.37
454.52	7639.51
454.70	7658.23
454.89	7515.46
455.07	7733.13
455.26	7775.26
455.44	7875.90
455.62	7915.69
455.81	7999.95
455.99	7927.39
456.17	7765.90
456.36	7985.91
456.54	8018.68
456.73	8072.51
456.91	8238.69
457.09	8210.60
457.28	8411.89
457.46	8332.31
457.64	8353.37
457.83	8194.22
458.01	8077.19
458.19	8411.89
458.38	8374.44
458.56	8435.29
458.74	8554.66
458.93	8484.44
459.11	8472.74
459.29	8400.18
459.48	8472.74
459.66	8489.12
459.84	8507.85
460.03	8645.94
460.21	8545.30
460.39	8585.08
460.57	8692.75
460.76	8748.92
460.94	8676.37
461.12	8985.32
461.31	8847.22
461.49	8739.56
461.67	8809.78
461.85	9163.20
462.04	8943.19
462.22	9628.96
462.40	9069.58
462.59	9067.24
462.77	8987.66
462.95	9158.52
463.13	9149.15
463.32	9188.94
463.50	9263.84
463.68	9139.79
463.86	9301.29
464.05	9069.58
464.23	9071.92
464.41	9303.63
464.59	8936.17
464.78	9420.66
464.96	9289.59
465.14	9132.77
465.32	9387.89
465.50	9647.69
465.69	9364.48
465.87	9486.19
466.05	9439.38
466.23	9535.34
466.41	9488.53
466.60	9530.66
466.78	9427.68
466.96	9380.87
467.14	9605.56
467.32	9514.28
467.51	9769.40
467.69	9266.18
467.87	9650.03
468.05	9380.87
468.23	9528.32
468.41	9537.68
468.60	9467.47
468.78	9600.88
468.96	9661.73
469.14	9736.63
469.32	10085.37
469.50	9951.96
469.69	9771.74
469.87	9891.10
470.05	9865.36
470.23	10026.86
470.41	10178.99
470.59	9966.00
470.77	10043.24
470.95	10235.16
471.14	10569.86
471.32	10214.10
471.50	10436.45
471.68	10621.35
471.86	10420.06
472.04	10710.29
472.22	10848.38
472.40	10457.51
472.58	10572.20
472.77	10649.44
472.95	10862.43
473.13	11007.54
473.31	10642.42
473.49	10731.36
473.67	10876.47
473.85	10925.62
474.03	11267.34
474.21	11117.54
474.39	11269.68
474.57	11351.60
474.75	11136.27
474.93	11370.32
475.12	11470.97
475.30	11356.28
475.48	11396.07
475.66	11475.65
475.84	11449.90
476.02	11819.71
476.20	11646.51
476.38	11901.62
476.56	12212.92
476.74	12067.80
476.92	12102.91
477.10	12105.25
477.28	12156.74
477.46	12336.96
477.64	12479.74
477.82	12664.64
478.00	12776.98
478.18	12704.43
478.36	12938.48
478.54	13018.06
478.72	12980.61
478.90	13107.00
479.08	13411.27
479.26	13528.30
479.44	13172.54
479.62	13509.57
479.80	13570.43
479.98	13547.02
480.16	13799.80
480.34	13820.86
480.52	14099.39
480.70	14094.71
480.88	14071.30
481.06	14097.05
481.24	14207.05
481.41	14672.82
481.59	14602.60
481.77	14572.18
481.95	14651.75
482.13	14869.42
482.31	14972.41
482.49	15197.10
482.67	15129.22
482.85	15028.58
483.03	15363.28
483.21	15370.30
483.39	15829.04
483.57	15829.04
483.74	15742.44
483.92	15920.32
484.10	15616.05
484.28	16180.12
484.46	16402.47
484.64	16720.79
484.82	16456.31
485.00	16271.40
485.18	16915.05
485.35	16966.54
485.53	16456.31
485.71	16383.75
485.89	16704.40
486.07	16786.32
486.25	16805.05
486.43	17394.86
486.61	17441.67
486.78	18003.40
486.96	17900.42
487.14	18097.02
487.32	18223.41
487.50	18405.97
487.68	18466.83
487.85	18625.98
488.03	18890.46
488.21	19365.59
488.39	18803.86
488.57	19016.85
488.75	18808.54
488.92	19140.90
489.10	19508.37
489.28	19618.37
489.46	19798.59
489.64	20437.56
489.81	20353.30
489.99	20226.91
490.17	20418.83
490.35	20891.62
490.53	20395.43
490.70	20889.28
490.88	21151.42
491.06	21373.77
491.24	21261.43
491.41	21020.35
491.59	21214.62
491.77	21343.35
491.95	21516.54
492.13	21682.72
492.30	22101.68
492.48	22230.41
492.66	22235.09
492.84	22436.38
493.01	22534.68
493.19	22438.72
493.37	22490.21
493.54	22462.12
493.72	22838.95
493.90	23206.41
494.08	23721.33
494.25	23487.28
494.43	23487.28
494.61	24123.90
494.79	23747.08
494.96	23833.68
495.14	24088.79
495.32	23833.68
495.49	23939.00
495.67	24067.73
495.85	24645.84
496.02	24416.47
496.20	24762.87
496.38	25113.95
496.55	24943.09
496.73	25340.98
496.91	25160.76
497.09	25448.64
497.26	25755.26
497.44	25474.39
497.62	25893.35
497.79	25359.70
497.97	25610.14
498.14	25797.38
498.32	26291.24
498.50	26132.08
498.67	26291.24
498.85	26419.97
499.03	26588.49
499.20	26642.32
499.38	26799.13
499.56	26913.82
499.73	27082.34
499.91	27208.73
500.08	26946.59
500.26	27229.79
500.44	26829.56
500.61	27573.85
500.79	27328.10
500.97	27321.07
501.14	28004.51
501.32	27896.85
501.49	27662.79
501.67	27618.32
501.84	28142.60
502.02	28126.22
502.20	28238.56
502.37	28215.16
502.55	28411.76
502.72	28643.48
502.90	28634.11
503.07	28458.57
503.25	28425.81
503.43	28606.03
503.60	28678.58
503.78	28407.08
503.95	28751.14
504.13	29488.41
504.30	28779.23
504.48	29090.52
504.65	29350.32
504.83	29446.28
505.01	29823.11
505.18	29549.26
505.36	29991.62
505.53	29811.40
505.71	30108.65
505.88	30333.34
506.06	30115.67
506.23	30260.79
506.41	30398.88
506.58	30445.69
506.76	30483.14
506.93	30630.59
507.11	30436.33
507.28	30567.40
507.46	30576.76
507.63	30668.04
507.81	30838.90
507.98	30974.65
508.16	31215.72
508.33	31208.70
508.50	31372.54
508.68	31388.92
508.85	31461.48
509.03	31431.05
509.20	31358.50
509.38	31737.66
509.55	31852.35
509.73	32072.36
509.90	32098.11
510.08	31681.49
510.25	31850.01
510.42	32320.46
510.60	32364.93
510.77	32194.07
510.95	32517.06
511.12	32755.80
511.30	32613.02
511.47	33090.49
511.64	32666.86
511.82	33544.56
511.99	32924.32
512.17	32924.32
512.34	32746.44
512.51	32959.42
512.69	33500.09
512.86	33497.75
513.04	33369.02
513.21	33392.42
513.38	33497.75
513.56	33324.55
513.73	33008.58
513.90	33916.70
514.08	33612.43
514.25	33675.63
514.43	33795.00
514.60	33443.91
514.77	34106.29
514.95	34092.24
515.12	33979.90
515.29	34340.34
515.47	34593.12
515.64	34946.54
515.81	34450.35
515.99	34380.13
516.16	34771.00
516.33	34087.56
516.51	34015.01
516.68	33511.79
516.85	33879.25
517.03	34436.30
517.20	34511.20
517.37	34759.30
517.54	35136.12
517.72	34951.22
517.89	34979.31
518.06	34188.21
518.24	34527.58
518.41	35208.68
518.58	35112.72
518.75	34988.67
518.93	35683.81
519.10	35655.72
519.27	35690.83
519.45	35662.74
519.62	35974.03
519.79	36107.44
519.96	36224.47
520.14	36465.55
520.31	35669.76
520.48	36442.14
520.65	36378.95
520.83	36460.87
521.00	36493.63
521.17	36400.01
521.34	36495.97
521.52	37010.89
521.69	37123.24
521.86	37181.75
522.03	37036.64
522.20	37013.23
522.38	36940.68
522.55	37343.25
522.72	36664.49
522.89	36758.11
523.07	37397.08
523.24	37350.27
523.41	37628.79
523.58	37642.84
523.75	37886.25
523.92	37769.22
524.10	37745.82
524.27	38382.45
524.44	38146.05
524.61	38169.46
524.78	37984.55
524.96	38167.12
525.13	38457.34
525.30	38440.96
525.47	38735.87
525.64	38370.74
525.81	38129.67
525.98	38443.30
526.16	38206.90
526.33	37715.39
526.50	38206.90
526.67	38244.35
526.84	38022.00
527.01	38576.71
527.18	38569.69
527.36	38670.33
527.53	39583.14
527.70	39206.31
527.87	39028.43
528.04	38817.78
528.21	39304.62
528.38	39423.98
528.55	39573.78
528.72	39323.34
528.89	40058.27
529.07	39831.24
529.24	39388.88
529.41	39732.93
529.58	39587.82
529.75	39313.98
529.92	39695.49
530.09	39700.17
530.26	40135.51
530.43	40175.30
530.60	40027.84
530.77	40095.72
530.94	39964.65
531.11	40304.02
531.28	39955.29
531.46	40509.99
531.63	40332.11
531.80	40247.85
531.97	40109.76
532.14	39941.24
532.31	39779.74
532.48	40664.47
532.65	40407.01
532.82	40172.96
532.99	40872.78
533.16	40395.31
533.33	40444.46
533.50	40573.19
533.67	40275.94
533.84	40364.88
534.01	40781.49
534.18	40783.83
534.35	41153.64
534.52	41134.92
534.69	41090.44
534.86	41193.43
535.03	41064.70
535.20	41359.61
535.37	41682.60
535.54	41900.27
535.71	41441.53
535.88	41258.96
536.05	41251.94
536.22	41296.41
536.38	41504.72
536.55	41315.14
536.72	41060.02
536.89	41383.01
537.06	41478.97
537.23	41687.28
537.40	41593.66
537.57	42164.75
537.74	42291.14
537.91	41923.68
538.08	41883.89
538.25	41879.21
538.42	42237.31
538.59	42092.19
538.75	41640.47
538.92	41933.04
539.09	42115.60
539.26	42171.77
539.43	42183.48
539.60	42457.32
539.77	42134.32
539.94	42370.72
540.11	42045.38
540.28	41893.25
540.44	42344.97
540.61	42246.67
540.78	42176.45
540.95	42513.49
541.12	42319.23
541.29	42389.44
541.46	42342.63
541.62	42817.76
541.79	43072.88
541.96	42815.42
542.13	42319.23
542.30	42740.52
542.47	42518.17
542.63	42986.28
542.80	43264.80
542.97	43161.82
543.14	43491.83
543.31	42993.30
543.48	43400.55
543.64	43660.35
543.81	43863.98
543.98	43491.83
544.15	43522.26
544.32	43992.71
544.48	43650.99
544.65	44072.29
544.82	43587.80
544.99	43161.82
545.16	43981.01
545.32	43604.18
545.49	44355.49
545.66	44224.42
545.83	44126.12
546.00	44208.04
546.16	43943.56
546.33	43807.81
546.50	43742.27
546.67	44100.37
546.83	43241.40
547.00	43641.63
547.17	44041.86
547.34	44236.12
547.50	44325.07
547.67	44336.77
547.84	44435.07
548.00	44451.45
548.17	44732.32
548.34	44533.37
548.51	45043.61
548.67	44769.77
548.84	44619.97
549.01	44336.77
549.18	44514.65
549.34	44697.21
549.51	45038.93
549.68	44488.90
549.84	44488.90
550.01	44931.26
550.18	44760.40
550.34	44687.85
550.51	44978.07
550.68	44669.12
550.84	44615.29
551.01	45083.40
551.18	44903.18
551.34	44914.88
551.51	45008.50
551.68	44947.65
551.84	45024.89
552.01	44968.71
552.18	45179.36
552.34	44697.21
552.51	45364.26
552.68	44985.10
552.84	45537.46
553.01	45724.71
553.18	45333.84
553.34	45291.71
553.51	44914.88
553.67	45394.69
553.84	45666.19
554.01	45387.67
554.17	45450.86
554.34	45736.41
554.51	45567.89
554.67	45495.33
554.84	45841.73
555.00	45415.76
555.17	45432.14
555.33	45895.56
555.50	45762.15
555.67	45605.34
555.83	45876.84
556.00	45841.73
556.16	46403.46
556.33	45670.87
556.50	45752.79
556.66	45628.74
556.83	45586.61
556.99	46005.57
557.16	45989.19
557.32	46036.00
557.49	45848.75
557.65	45521.08
557.82	45773.86
557.98	46033.66
558.15	45523.42
558.32	46117.92
558.48	45713.00
558.65	45890.88
558.81	45769.18
558.98	45834.71
559.14	45867.48
559.31	45933.01
559.47	46464.32
559.64	46319.20
559.80	45944.72
559.97	45858.12
560.13	45806.62
560.30	46078.13
560.46	46347.29
560.63	46518.15
560.79	46492.40
560.96	46520.49
561.12	46241.96
561.29	46742.84
561.45	46429.21
561.61	46459.63
561.78	46288.77
561.94	45851.09
562.11	45902.59
562.27	46284.09
562.44	46277.07
562.60	46700.71
562.77	46541.55
562.93	46501.76
563.10	46700.71
563.26	46298.14
563.42	46469.00
563.59	46721.77
563.75	46361.33
563.92	46506.44
564.08	46415.16
564.24	46944.12
564.41	46899.65
564.57	46562.62
564.74	46586.02
564.90	47093.92
565.07	46574.32
565.23	46536.87
565.39	46553.26
565.56	46747.52
565.72	46445.59
565.88	46398.78
566.05	46600.07
566.21	46754.54
566.38	46438.57
566.54	46504.10
566.70	47042.43
566.87	47185.20
567.03	46555.60
567.19	47004.98
567.36	47065.83
567.52	46681.98
567.68	46864.55
567.85	46829.44
568.01	46618.79
568.17	46384.74
568.34	46822.42
568.50	46410.48
568.66	46726.46
568.83	46628.15
568.99	46422.19
569.15	46344.95
569.32	46520.49
569.48	46499.42
569.64	46880.93
569.81	46990.94
569.97	46253.67
570.13	46897.31
570.30	46555.60
570.46	47103.28
570.62	46562.62
570.78	46571.98
570.95	46085.15
571.11	46803.69
571.27	46504.10
571.43	46780.29
571.60	46880.93
571.76	46480.70
571.92	46869.23
572.09	46740.50
572.25	46574.32
572.41	46918.38
572.57	47089.24
572.74	47220.31
572.90	47042.43
573.06	46590.70
573.22	46684.33
573.38	47178.18
573.55	46806.03
573.71	47091.58
573.87	46560.28
574.03	46864.55
574.20	46866.89
574.36	46567.30
574.52	46911.36
574.68	47208.61
574.84	47290.52
575.01	46637.51
575.17	46705.39
575.33	46714.75
575.49	47047.11
575.65	47234.35
575.82	47288.18
575.98	46712.41
576.14	47129.03
576.30	46838.80
576.46	46927.74
576.62	46777.95
576.79	46712.41
576.95	46375.37
577.11	46649.22
577.27	47068.17
577.43	46728.80
577.59	46490.06
577.75	47122.01
577.92	46480.70
578.08	46574.32
578.24	46340.27
578.40	46717.09
578.56	46536.87
578.72	46801.35
578.88	46979.23
579.04	46965.19
579.21	46756.88
579.37	46845.82
579.53	46930.08
579.69	46478.36
579.85	46862.21
580.01	46457.29
580.17	46997.96
580.33	46920.72
580.49	47138.39
580.65	47379.46
580.82	47227.33
580.98	46829.44
581.14	46986.25
581.30	47344.36
581.46	46892.63
581.62	47313.93
581.78	46911.36
581.94	47320.95
582.10	47203.92
582.26	47234.35
582.42	47065.83
582.58	46801.35
582.74	46841.14
582.90	47229.67
583.06	47042.43
583.22	47433.30
583.38	47613.52
583.54	47110.30
583.70	47000.30
583.86	47166.48
584.02	47037.75
584.18	47016.68
584.34	47407.55
584.50	47065.83
584.66	47033.07
584.82	46855.18
584.98	47292.86
585.14	46871.57
585.30	46691.35
585.46	47466.06
585.62	46742.84
585.78	46803.69
585.94	46681.98
586.10	46705.39
586.26	46934.76
586.42	47122.01
586.58	47070.51
586.74	47206.26
586.90	46930.08
587.06	47061.15
587.22	47274.14
587.38	46948.81
587.54	47063.49
587.70	47377.12
587.86	47143.07
588.02	47023.70
588.18	47100.94
588.34	46651.56
588.49	46621.13
588.65	46260.69
588.81	46410.48
588.97	46677.30
589.13	46623.47
589.29	46178.77
589.45	46880.93
589.61	46948.81
589.77	47129.03
