SpectraSuite Data File
++++++++++++++++++++++++++++++++++++
Date: Fri Oct 25 10:43:49 EDT 2013
User: price-jones
Dark Spectrum Present: No
Reference Spectrum Present: No
Number of Sampled Component Spectra: 1
Spectrometers: USB2+H05261
Integration Time (usec): 100000 (USB2+H05261)
Spectra Averaged: 1 (USB2+H05261)
Boxcar Smoothing: 0 (USB2+H05261)
Correct for Electrical Dark: No (USB2+H05261)
Strobe/Lamp Enabled: No (USB2+H05261)
Correct for Detector Non-linearity: No (USB2+H05261)
Correct for Stray Light: No (USB2+H05261)
Number of Pixels in Processed Spectrum: 2048
>>>>>Begin Processed Spectral Data<<<<<
365.73	100.64
365.92	100.64
366.12	100.64
366.32	60.85
366.52	7.02
366.72	51.49
366.91	42.13
367.11	0.00
367.31	56.17
367.51	21.06
367.70	42.13
367.90	32.77
368.10	0.00
368.30	42.13
368.49	30.43
368.69	77.24
368.89	0.00
369.09	0.00
369.28	25.75
369.48	37.45
369.68	32.77
369.87	110.01
370.07	121.71
370.27	135.75
370.47	191.92
370.66	372.15
370.86	468.11
371.06	503.22
371.25	498.53
371.45	442.36
371.65	442.36
371.84	456.40
372.04	454.06
372.24	517.26
372.44	463.43
372.63	465.77
372.83	538.32
373.03	479.81
373.22	482.15
373.42	578.11
373.62	477.47
373.81	521.94
374.01	571.09
374.21	524.28
374.40	447.04
374.60	662.37
374.79	540.66
374.99	613.22
375.19	601.52
375.38	561.73
375.58	660.03
375.78	587.47
375.97	617.90
376.17	594.50
376.37	615.56
376.56	564.07
376.76	629.60
376.95	582.79
377.15	660.03
377.35	587.47
377.54	643.65
377.74	643.65
377.93	683.44
378.13	613.22
378.33	676.41
378.52	592.16
378.72	713.86
378.91	636.63
379.11	641.31
379.31	725.57
379.50	638.97
379.70	653.01
379.89	641.31
380.09	606.20
380.28	706.84
380.48	779.40
380.68	723.23
380.87	610.88
381.07	688.12
381.26	720.88
381.46	660.03
381.65	699.82
381.85	763.01
382.04	737.27
382.24	718.54
382.43	674.07
382.63	709.18
382.83	685.78
383.02	697.48
383.22	793.44
383.41	699.82
383.61	723.23
383.80	856.64
384.00	751.31
384.19	777.06
384.39	777.06
384.58	758.33
384.78	765.36
384.97	765.36
385.17	870.68
385.36	788.76
385.56	772.38
385.75	753.65
385.95	833.23
386.14	866.00
386.34	856.64
386.53	858.98
386.72	786.42
386.92	887.06
387.11	877.70
387.31	966.64
387.50	887.06
387.70	919.83
387.89	873.02
388.09	791.10
388.28	884.72
388.48	922.17
388.67	903.45
388.86	901.11
389.06	919.83
389.25	915.15
389.45	997.07
389.64	1008.77
389.84	924.51
390.03	1053.24
390.22	978.34
390.42	980.68
390.61	1090.69
390.81	1057.92
391.00	1062.60
391.19	1064.94
391.39	973.66
391.58	1078.99
391.78	1088.35
391.97	1043.88
392.16	1008.77
392.36	1165.59
392.55	1114.10
392.75	952.60
392.94	971.32
393.13	1001.75
393.33	997.07
393.52	1062.60
393.71	1078.99
393.91	1090.69
394.10	1104.73
394.29	1123.46
394.49	1188.99
394.68	1219.42
394.88	1170.27
395.07	1207.72
395.26	1186.65
395.46	1217.08
395.65	1231.12
395.84	1214.74
396.04	1266.23
396.23	1142.18
396.42	1177.29
396.62	1158.57
396.81	1235.80
397.00	1270.91
397.19	1231.12
397.39	1289.64
397.58	1399.64
397.77	1366.87
397.97	1338.79
398.16	1425.39
398.35	1558.80
398.55	1554.12
398.74	1425.39
398.93	1542.41
399.12	1413.68
399.32	1472.20
399.51	1439.43
399.70	1598.59
399.90	1481.56
400.09	1561.14
400.28	1556.46
400.47	1626.67
400.67	1579.86
400.86	1614.97
401.05	1668.80
401.24	1624.33
401.44	1748.38
401.63	1743.70
401.82	1685.19
402.01	1703.91
402.21	1717.95
402.40	1783.49
402.59	1736.68
402.78	1682.85
402.97	1706.25
403.17	1750.72
403.36	1806.89
403.55	1743.70
403.74	1811.57
403.93	1919.24
404.13	1877.11
404.32	1827.96
404.51	1884.13
404.70	1935.62
404.89	1863.07
405.09	2047.97
405.28	1884.13
405.47	1952.01
405.66	1905.20
405.85	1954.35
406.05	2038.61
406.24	2029.24
406.43	2092.44
406.62	2099.46
406.81	2115.84
407.00	2104.14
407.20	2026.90
407.39	2125.21
407.58	2097.12
407.77	2188.40
407.96	2249.25
408.15	2342.88
408.34	2239.89
408.54	2223.51
408.73	2232.87
408.92	2310.11
409.11	2356.92
409.30	2298.41
409.49	2244.57
409.68	2232.87
409.87	2345.22
410.07	2239.89
410.26	2275.00
410.45	2450.54
410.64	2387.35
410.83	2441.18
411.02	2466.92
411.21	2539.48
411.40	2560.55
411.59	2593.31
411.78	2565.23
411.98	2499.69
412.17	2572.25
412.36	2630.76
412.55	2848.43
412.74	2715.02
412.93	2672.89
413.12	2705.66
413.31	2871.84
413.50	2789.92
413.69	2836.73
413.88	2850.77
414.07	2848.43
414.26	2862.48
414.45	2869.50
414.64	3009.93
414.83	2991.20
415.02	2946.73
415.22	2923.33
415.41	3068.44
415.60	3178.45
415.79	3082.49
415.98	3260.37
416.17	3185.47
416.36	3194.83
416.55	3314.20
416.74	3286.11
416.93	3365.69
417.12	3286.11
417.31	3190.15
417.50	3300.16
417.69	3405.48
417.88	3447.61
418.07	3515.48
418.26	3468.67
418.45	3370.37
418.64	3552.93
418.83	3541.23
419.02	3564.64
419.21	3662.94
419.39	3550.59
419.58	3581.02
419.77	3595.06
419.96	3606.77
420.15	3756.56
420.34	3705.07
420.53	3590.38
420.72	3674.64
420.91	3854.86
421.10	3782.31
421.29	3871.25
421.48	3782.31
421.67	3878.27
421.86	3761.24
422.05	3714.43
422.24	3702.73
422.43	3854.86
422.61	3686.34
422.80	3866.56
422.99	3882.95
423.18	3892.31
423.37	3995.29
423.56	3880.61
423.75	3906.35
423.94	3911.04
424.13	3714.43
424.32	3808.05
424.50	3882.95
424.69	3932.10
424.88	4053.81
425.07	3777.62
425.26	3859.54
425.45	3852.52
425.64	3901.67
425.83	3941.46
426.01	3950.82
426.20	4004.66
426.39	4067.85
426.58	3843.16
426.77	3974.23
426.96	4046.79
427.15	3997.64
427.33	3990.61
427.52	4058.49
427.71	4081.89
427.90	4084.23
428.09	4077.21
428.28	4102.96
428.46	4133.39
428.65	4133.39
428.84	4189.56
429.03	4095.94
429.22	4018.70
429.40	4159.13
429.59	4182.54
429.78	3901.67
429.97	3995.29
430.16	4044.45
430.34	4035.08
430.53	4128.70
430.72	4102.96
430.91	4308.93
431.10	4198.92
431.28	4514.89
431.47	4648.30
431.66	4505.53
431.85	4479.79
432.03	4692.77
432.22	4734.90
432.41	4557.02
432.60	4667.03
432.79	4720.86
432.97	4617.88
433.16	4760.65
433.35	4718.52
433.54	4826.18
433.72	4674.05
433.91	4720.86
434.10	4699.80
434.28	4887.04
434.47	4791.08
434.66	4957.25
434.85	4917.47
435.03	4842.57
435.22	4945.55
435.41	5074.28
435.59	5046.20
435.78	5107.05
435.97	5144.50
436.16	5128.11
436.34	4961.94
436.53	4917.47
436.72	5188.97
436.90	5025.13
437.09	5210.03
437.28	5004.07
437.46	5107.05
437.65	5053.22
437.84	5296.63
438.02	5104.71
438.21	5135.14
438.40	5268.55
438.58	5434.72
438.77	5453.45
438.96	5373.87
439.14	5518.98
439.33	5554.09
439.52	5598.56
439.70	5734.31
439.89	5605.58
440.08	5579.84
440.26	5837.30
440.45	5809.21
440.63	5881.77
440.82	5867.72
441.01	5818.57
441.19	5823.25
441.38	5991.77
441.57	6204.76
441.75	5980.07
441.94	6317.11
442.12	6242.21
442.31	6195.40
442.50	6347.53
442.68	6146.25
442.87	6296.04
443.05	6235.19
443.24	6466.90
443.43	6366.26
443.61	6476.26
443.80	6703.29
443.98	6448.18
444.17	6174.33
444.35	6377.96
444.54	6506.69
444.73	6537.12
444.91	6590.95
445.10	6361.58
445.28	6497.33
445.47	6366.26
445.65	6452.86
445.84	6574.56
446.02	6560.52
446.21	6497.33
446.39	6319.45
446.58	6612.01
446.77	6602.65
446.95	6466.90
447.14	6628.40
447.32	6778.19
447.51	6682.23
447.69	6382.64
447.88	6593.29
448.06	6649.46
448.25	6504.35
448.43	6733.72
448.62	6607.33
448.80	6682.23
448.99	6918.62
449.17	6813.30
449.36	6768.83
449.54	7009.90
449.73	6944.37
449.91	7040.33
450.10	6986.50
450.28	7178.42
450.46	7248.64
450.65	7115.23
450.83	7101.19
451.02	7258.00
451.20	7213.53
451.39	7300.13
451.57	7178.42
451.76	7215.87
451.94	7260.34
452.13	7239.28
452.31	7136.29
452.49	7061.40
452.68	7410.14
452.86	7110.55
453.05	7166.72
453.23	7379.71
453.42	7234.60
453.60	7297.79
453.78	7353.96
453.97	7382.05
454.15	7286.09
454.34	7335.24
454.52	7599.72
454.70	7522.48
454.89	7426.52
455.07	7353.96
455.26	7810.37
455.44	7763.56
455.62	7499.08
455.81	7623.12
455.99	7833.77
456.17	7798.66
456.36	7932.08
456.54	7861.86
456.73	8013.99
456.91	8336.99
457.09	8013.99
457.28	8161.45
457.46	8035.06
457.64	8051.44
457.83	8077.19
458.01	8023.36
458.19	8194.22
458.38	8177.83
458.56	8308.90
458.74	8257.41
458.93	8184.85
459.11	8248.05
459.29	8318.26
459.48	8236.35
459.66	8280.82
459.84	8449.33
460.03	8315.92
460.21	8465.72
460.39	8613.17
460.57	8322.94
460.76	8461.04
460.94	8571.04
461.12	8697.43
461.31	8526.57
461.49	8479.76
461.67	8655.30
461.85	8702.11
462.04	8835.52
462.22	8858.93
462.40	8781.69
462.59	8945.53
462.77	8978.30
462.95	9085.96
463.13	8891.70
463.32	8884.67
463.50	8858.93
463.68	8875.31
463.86	8849.57
464.05	8828.50
464.23	8865.95
464.41	8990.00
464.59	8746.58
464.78	9067.24
464.96	9179.58
465.14	9011.06
465.32	9034.47
465.50	9301.29
465.69	9291.93
465.87	9121.07
466.05	9320.01
466.23	8985.32
466.41	8994.68
466.60	9139.79
466.78	9397.25
466.96	9207.67
467.14	9268.52
467.32	9488.53
467.51	9322.35
467.69	9149.15
467.87	9504.92
468.05	9554.07
468.23	9224.05
468.41	9343.42
468.60	9249.80
468.78	9724.93
468.96	9502.58
469.14	9687.48
469.32	9774.08
469.50	9378.53
469.69	9589.17
469.87	9673.43
470.05	9778.76
470.23	9900.47
470.41	9680.46
470.59	10031.54
470.77	9699.18
470.95	10164.95
471.14	10090.05
471.32	9916.85
471.50	10359.21
471.68	10272.61
471.86	10338.15
472.04	10214.10
472.22	10359.21
472.40	10029.20
472.58	10445.81
472.77	10380.28
472.95	10518.37
473.13	10778.17
473.31	10384.96
473.49	10567.52
473.67	10478.58
473.85	10555.82
474.03	11007.54
474.21	10970.09
474.39	11026.26
474.57	11009.88
474.75	11250.96
474.93	11187.76
475.12	10888.17
475.30	11398.41
475.48	11049.67
475.66	11255.64
475.84	11059.03
476.02	11367.98
476.20	11342.24
476.38	11620.76
476.56	11819.71
476.74	11786.94
476.92	11878.22
477.10	11695.66
477.28	11882.90
477.46	11978.86
477.64	12135.68
477.82	12301.86
478.00	12505.48
478.18	12559.31
478.36	12393.14
478.54	12690.38
478.72	12589.74
478.90	13057.85
479.08	12964.23
479.26	12980.61
479.44	12912.74
479.62	13357.44
479.80	13170.19
479.98	13249.77
480.16	13633.62
480.34	13490.85
480.52	13514.25
480.70	13621.92
480.88	13528.30
481.06	13715.54
481.24	14043.21
481.41	14188.33
481.59	14256.20
481.77	14284.29
481.95	14354.51
482.13	14298.33
482.31	14415.36
482.49	14611.96
482.67	14822.61
482.85	14789.85
483.03	15487.32
483.21	15222.84
483.39	15351.57
483.57	15274.34
483.74	15283.70
483.92	15744.78
484.10	15452.22
484.28	15754.15
484.46	15929.69
484.64	16308.85
484.82	15934.37
485.00	15917.98
485.18	16313.53
485.35	16470.35
485.53	15988.20
485.71	16070.12
485.89	16257.36
486.07	16358.00
486.25	16561.63
486.43	16819.09
486.61	16868.24
486.78	17474.44
486.96	17404.22
487.14	17448.69
487.32	17884.03
487.50	17963.61
487.68	18033.83
487.85	18225.75
488.03	18396.61
488.21	18504.28
488.39	18476.19
488.57	18661.09
488.75	18637.69
488.92	18927.91
489.10	19414.74
489.28	19117.50
489.46	19480.28
489.64	19419.42
489.81	20353.30
489.99	20156.69
490.17	20269.04
490.35	20229.25
490.53	20470.33
490.70	20229.25
490.88	20156.69
491.06	20723.10
491.24	20746.51
491.41	20774.60
491.59	20833.11
491.77	20727.78
491.95	21280.15
492.13	21268.45
492.30	21668.68
492.48	21671.02
492.66	21837.20
492.84	21736.56
493.01	22139.13
493.19	22143.81
493.37	22019.76
493.54	22581.49
493.72	22085.30
493.90	22429.35
494.08	23033.21
494.25	23143.22
494.43	23168.96
494.61	23461.53
494.79	23211.09
494.96	23426.42
495.14	23367.91
495.32	23756.44
495.49	23295.35
495.67	23627.71
495.85	23995.17
496.02	23985.81
496.20	24369.66
496.38	24063.05
496.55	24514.77
496.73	24685.63
496.91	24470.30
497.09	24872.87
497.26	24577.97
497.44	24666.91
497.62	25067.14
497.79	25104.59
497.97	24992.24
498.14	25111.61
498.32	25598.44
498.50	25914.41
498.67	25895.69
498.85	26139.10
499.03	25982.29
499.20	25949.52
499.38	25902.71
499.56	26211.66
499.73	26331.03
499.91	26267.83
500.08	26417.63
500.26	26120.38
500.44	26300.60
500.61	26326.35
500.79	26483.16
500.97	26836.58
501.14	26745.30
501.32	27335.12
501.49	27145.53
501.67	26993.40
501.84	27358.52
502.02	27201.71
502.20	27452.14
502.37	27557.47
502.55	27618.32
502.72	27920.25
502.90	27929.61
503.07	27651.09
503.25	27917.91
503.43	28240.90
503.60	27938.97
503.78	28166.01
503.95	27978.76
504.13	28123.88
504.30	28659.86
504.48	28837.74
504.65	28517.09
504.83	28776.89
505.01	29085.84
505.18	29034.35
505.36	29090.52
505.53	29331.59
505.71	29249.67
505.88	29453.30
506.06	29310.53
506.23	29919.07
506.41	29448.62
506.58	29771.61
506.76	29687.36
506.93	30288.87
507.11	29703.74
507.28	29902.68
507.46	29649.91
507.63	29979.92
507.81	30106.31
507.98	30141.42
508.16	30679.74
508.33	30478.46
508.50	30412.92
508.68	30656.34
508.85	30866.98
509.03	30974.65
509.20	30946.56
509.38	31037.84
509.55	31047.21
509.73	31152.53
509.90	31030.82
510.08	31049.55
510.25	31208.70
510.42	31559.78
510.60	31721.28
510.77	31700.22
510.95	31459.14
511.12	31917.89
511.30	32100.45
511.47	32233.86
511.64	32243.22
511.82	32236.20
511.99	31831.29
512.17	32187.05
512.34	32079.38
512.51	32332.16
512.69	32208.11
512.86	32641.11
513.04	32493.66
513.21	32765.16
513.38	32659.84
513.56	32809.63
513.73	32760.48
513.90	32980.49
514.08	32910.27
514.25	33720.10
514.43	33324.55
514.60	33280.08
514.77	32774.52
514.95	33488.38
515.12	33392.42
515.29	33277.74
515.47	34094.58
515.64	34192.89
515.81	33565.62
515.99	34391.83
516.16	33429.87
516.33	33504.77
516.51	33720.10
516.68	33268.37
516.85	33422.85
517.03	33659.24
517.20	33757.55
517.37	34106.29
517.54	34443.32
517.72	34099.26
517.89	33872.23
518.06	33696.69
518.24	33759.89
518.41	34183.52
518.58	34558.01
518.75	34419.92
518.93	34417.58
519.10	34658.65
519.27	34953.56
519.45	34398.85
519.62	34962.92
519.79	35115.06
519.96	35161.87
520.14	35056.54
520.31	35262.51
520.48	35182.93
520.65	35000.37
520.83	35847.64
521.00	35487.20
521.17	35620.61
521.34	36191.70
521.52	35859.35
521.69	35875.73
521.86	36325.11
522.03	36278.30
522.20	36163.62
522.38	36542.78
522.55	36390.65
522.72	36481.93
522.89	36217.45
523.07	36374.27
523.24	36449.16
523.41	36793.22
523.58	36767.48
523.75	37130.26
523.92	37092.81
524.10	37029.62
524.27	37132.60
524.44	37109.19
524.61	37144.30
524.78	37581.98
524.96	37748.16
525.13	37516.45
525.30	37734.12
525.47	37799.65
525.64	37631.13
525.81	37310.48
525.98	37216.86
526.16	36943.02
526.33	37020.25
526.50	37303.46
526.67	36926.63
526.84	37308.14
527.01	37528.15
527.18	37490.70
527.36	37699.01
527.53	37638.15
527.70	38429.26
527.87	38389.47
528.04	38040.73
528.21	38520.54
528.38	38146.05
528.55	38719.48
528.72	38576.71
528.89	38862.26
529.07	38417.55
529.24	38546.28
529.41	38326.27
529.58	38724.16
529.75	38740.55
529.92	38590.75
530.09	38677.35
530.26	38665.65
530.43	39480.16
530.60	38855.23
530.77	38880.98
530.94	39117.37
531.11	39288.23
531.28	39173.55
531.46	39473.13
531.63	39157.16
531.80	39232.06
531.97	39283.55
532.14	38972.26
532.31	39054.18
532.48	39262.49
532.65	39529.31
532.82	39136.10
532.99	40156.57
533.16	39531.65
533.33	39585.48
533.50	40605.95
533.67	40121.46
533.84	39721.23
534.01	40037.20
534.18	39779.74
534.35	40320.41
534.52	39779.74
534.69	40512.33
534.86	40126.14
535.03	40222.11
535.20	40708.94
535.37	40463.18
535.54	41099.81
535.71	40802.56
535.88	40446.80
536.05	40512.33
536.22	40533.40
536.38	40573.19
536.55	40737.02
536.72	40442.12
536.89	40367.22
537.06	40907.88
537.23	41055.34
537.40	40896.18
537.57	41298.75
537.74	40699.58
537.91	41460.25
538.08	41104.49
538.25	40905.54
538.42	41151.30
538.59	40898.52
538.75	41141.94
538.92	41003.85
539.09	41223.86
539.26	41427.48
539.43	41347.90
539.60	41113.85
539.77	41174.70
539.94	41439.18
540.11	41572.60
540.28	41144.28
540.44	41603.02
540.61	41397.06
540.78	41319.82
540.95	41378.33
541.12	41284.71
541.29	41429.82
541.46	41537.49
541.62	41825.37
541.79	41776.22
541.96	41404.08
542.13	41745.80
542.30	41523.44
542.47	42174.11
542.63	41881.55
542.80	42286.46
542.97	42653.92
543.14	42579.03
543.31	42485.40
543.48	42674.99
543.64	42237.31
543.81	42728.82
543.98	42843.51
544.15	42501.79
544.32	42550.94
544.48	42799.04
544.65	42988.62
544.82	42997.98
544.99	42651.58
545.16	42827.12
545.32	43126.71
545.49	43042.45
545.66	43084.58
545.83	43147.78
546.00	42777.97
546.16	43115.01
546.33	43007.34
546.50	42454.98
546.67	42850.53
546.83	42759.25
547.00	43159.48
547.17	43070.54
547.34	42829.46
547.50	43538.65
547.67	43494.18
547.84	42920.74
548.00	43363.11
548.17	43639.29
548.34	43653.33
548.51	43950.58
548.67	43491.83
548.84	43842.92
549.01	43260.12
549.18	43489.49
549.34	43669.72
549.51	44002.07
549.68	43936.54
549.84	43629.93
550.01	43770.36
550.18	44011.43
550.34	43805.47
550.51	43803.13
550.68	43529.28
550.84	43732.91
551.01	43791.42
551.18	43988.03
551.34	43700.14
551.51	43896.75
551.68	44641.04
551.84	44414.01
552.01	43957.60
552.18	44053.56
552.34	44102.71
552.51	44336.77
552.68	44266.55
552.84	44411.67
553.01	44343.79
553.18	44339.11
553.34	43931.86
553.51	44105.06
553.67	44423.37
553.84	44711.25
554.01	44973.39
554.17	44568.48
554.34	44809.56
554.51	44519.33
554.67	44683.17
554.84	44301.66
555.00	44421.03
555.17	44772.11
555.33	44495.92
555.50	44722.96
555.67	44641.04
555.83	44809.56
556.00	44898.50
556.16	45013.18
556.33	44699.55
556.50	44748.70
556.66	44495.92
556.83	44828.28
556.99	44697.21
557.16	44933.60
557.32	45207.45
557.49	44783.81
557.65	44896.16
557.82	44947.65
557.98	45127.87
558.15	44678.49
558.32	44851.69
558.48	44858.71
558.65	44823.60
558.81	44961.69
558.98	44521.67
559.14	44893.82
559.31	44774.45
559.47	44928.92
559.64	45153.62
559.80	45017.86
559.97	45059.99
560.13	44985.10
560.30	45530.44
560.46	45455.54
560.63	45305.75
560.79	45469.59
560.96	45773.86
561.12	45095.10
561.29	45074.04
561.45	45134.89
561.61	45139.57
561.78	45429.80
561.94	45109.14
562.11	45179.36
562.27	45099.78
562.44	45184.04
562.60	45270.64
562.77	45490.65
562.93	45251.92
563.10	45787.90
563.26	45230.85
563.42	45413.41
563.59	45322.13
563.75	45483.63
563.92	45226.17
564.08	45612.36
564.24	45713.00
564.41	45565.55
564.57	45460.23
564.74	45736.41
564.90	45366.60
565.07	45579.59
565.23	45874.50
565.39	45745.77
565.56	45549.17
565.72	45404.05
565.88	45759.81
566.05	45003.82
566.21	45282.34
566.38	45956.42
566.54	45584.27
566.70	46085.15
566.87	45907.27
567.03	45956.42
567.19	46492.40
567.36	45691.94
567.52	45638.11
567.68	45624.06
567.85	45553.85
568.01	45710.66
568.17	45640.45
568.34	46028.98
568.50	45675.55
568.66	45645.13
568.83	45783.22
568.99	45352.56
569.15	45708.32
569.32	45481.29
569.48	45624.06
569.64	45659.17
569.81	45724.71
569.97	45663.85
570.13	45593.64
570.30	45200.43
570.46	45434.48
570.62	45387.67
570.78	45333.84
570.95	45478.95
571.11	45539.80
571.27	45481.29
571.43	45411.07
571.60	45586.61
571.76	45921.31
571.92	45834.71
572.09	45537.46
572.25	45558.53
572.41	45902.59
572.57	45614.70
572.74	46272.39
572.90	45897.91
573.06	45837.05
573.22	46068.76
573.38	45413.41
573.55	45860.46
573.71	46176.43
573.87	45886.20
574.03	45743.43
574.20	46043.02
574.36	45869.82
574.52	45790.24
574.68	45741.09
574.84	45982.16
575.01	45813.65
575.17	45965.78
575.33	45937.69
575.49	45855.78
575.65	46096.85
575.82	46190.47
575.98	45841.73
576.14	46007.91
576.30	45991.53
576.46	45961.10
576.62	45841.73
576.79	46014.93
576.95	46026.63
577.11	45549.17
577.27	46204.52
577.43	45876.84
577.59	45570.23
577.75	45364.26
577.92	45450.86
578.08	45790.24
578.24	45532.78
578.40	45336.18
578.56	46382.40
578.72	46146.00
578.88	46213.88
579.04	46457.29
579.21	46377.72
579.37	45820.67
579.53	46230.26
579.69	45848.75
579.85	45563.21
580.01	46265.37
580.17	45841.73
580.33	46202.18
580.49	46054.72
580.65	46050.04
580.82	45986.85
580.98	46127.28
581.14	45764.49
581.30	46028.98
581.46	46033.66
581.62	45893.22
581.78	45743.43
581.94	46471.34
582.10	45989.19
582.26	46567.30
582.42	46225.58
582.58	46284.09
582.74	46485.38
582.90	46080.47
583.06	46511.13
583.22	46312.18
583.38	46426.87
583.54	46281.75
583.70	46263.03
583.86	46478.36
584.02	46068.76
584.18	46010.25
584.34	46464.32
584.50	46045.36
584.66	46281.75
584.82	46080.47
584.98	45961.10
585.14	46452.61
585.30	45467.25
585.46	46218.56
585.62	45525.76
585.78	45940.04
585.94	45713.00
586.10	45914.29
586.26	46045.36
586.42	46218.56
586.58	46609.43
586.74	46026.63
586.90	46021.95
587.06	46131.96
587.22	45687.26
587.38	46302.82
587.54	46089.83
587.70	46176.43
587.86	46548.57
588.02	46120.26
588.18	46637.51
588.34	45523.42
588.49	45514.06
588.65	45406.39
588.81	45450.86
588.97	46003.23
589.13	45619.38
589.29	45469.59
589.45	46080.47
589.61	45876.84
589.77	46185.79
589.93	46052.38
