SpectraSuite Data File
++++++++++++++++++++++++++++++++++++
Date: Fri Oct 25 11:23:35 EDT 2013
User: price-jones
Dark Spectrum Present: No
Reference Spectrum Present: No
Number of Sampled Component Spectra: 1
Spectrometers: USB2+H05261
Integration Time (usec): 100000 (USB2+H05261)
Spectra Averaged: 1 (USB2+H05261)
Boxcar Smoothing: 0 (USB2+H05261)
Correct for Electrical Dark: No (USB2+H05261)
Strobe/Lamp Enabled: No (USB2+H05261)
Correct for Detector Non-linearity: No (USB2+H05261)
Correct for Stray Light: No (USB2+H05261)
Number of Pixels in Processed Spectrum: 2048
>>>>>Begin Processed Spectral Data<<<<<
365.73	208.31
365.92	208.31
366.12	208.31
366.32	100.64
366.52	147.45
366.72	112.35
366.91	107.66
367.11	93.62
367.31	117.03
367.51	168.52
367.70	119.37
367.90	98.30
368.10	126.39
368.30	166.18
368.49	175.54
368.69	126.39
368.89	152.13
369.09	110.01
369.28	217.67
369.48	196.60
369.68	121.71
369.87	210.65
370.07	201.29
370.27	271.50
370.47	355.76
370.66	580.45
370.86	629.60
371.06	669.39
371.25	660.03
371.45	681.10
371.65	657.69
371.84	657.69
372.04	622.58
372.24	699.82
372.44	734.93
372.63	692.80
372.83	734.93
373.03	718.54
373.22	720.88
373.42	788.76
373.62	746.63
373.81	833.23
374.01	795.78
374.21	793.44
374.40	781.74
374.60	779.40
374.79	812.17
374.99	770.04
375.19	805.14
375.38	784.08
375.58	779.40
375.78	917.49
375.97	781.74
376.17	933.87
376.37	884.72
376.56	868.34
376.76	877.70
376.95	777.06
377.15	875.36
377.35	915.15
377.54	898.77
377.74	917.49
377.93	915.15
378.13	924.51
378.33	947.92
378.52	912.81
378.72	1006.43
378.91	945.58
379.11	844.93
379.31	938.55
379.50	884.72
379.70	1046.22
379.89	1001.75
380.09	954.94
380.28	1048.56
380.48	997.07
380.68	987.71
380.87	887.06
381.07	931.53
381.26	954.94
381.46	978.34
381.65	1093.03
381.85	1006.43
382.04	1036.86
382.24	1137.50
382.43	1083.67
382.63	1050.90
382.83	1095.37
383.02	1125.80
383.22	1055.58
383.41	1020.47
383.61	1022.81
383.80	1093.03
384.00	1144.52
384.19	1123.46
384.39	1109.41
384.58	1165.59
384.78	1111.75
384.97	1228.78
385.17	1130.48
385.36	1088.35
385.56	1027.50
385.75	1247.51
385.95	1188.99
386.14	1235.80
386.34	1174.95
386.53	1261.55
386.72	1184.31
386.92	1226.44
387.11	1245.16
387.31	1233.46
387.50	1205.38
387.70	1191.33
387.89	1263.89
388.09	1186.65
388.28	1418.36
388.48	1299.00
388.67	1357.51
388.86	1362.19
389.06	1263.89
389.25	1341.13
389.45	1329.42
389.64	1341.13
389.84	1401.98
390.03	1446.45
390.22	1385.60
390.42	1409.00
390.61	1423.05
390.81	1289.64
391.00	1418.36
391.19	1462.83
391.39	1341.13
391.58	1488.58
391.78	1430.07
391.97	1406.66
392.16	1507.30
392.36	1469.86
392.55	1535.39
392.75	1523.69
392.94	1472.20
393.13	1511.99
393.33	1507.30
393.52	1558.80
393.71	1570.50
393.91	1724.97
394.10	1511.99
394.29	1486.24
394.49	1584.54
394.68	1668.80
394.88	1617.31
395.07	1652.42
395.26	1696.89
395.46	1701.57
395.65	1703.91
395.84	1736.68
396.04	1804.55
396.23	1729.66
396.42	1858.39
396.62	1809.23
396.81	1696.89
397.00	1678.16
397.19	1769.44
397.39	1832.64
397.58	1851.36
397.77	1769.44
397.97	1820.94
398.16	1834.98
398.35	1858.39
398.55	1900.52
398.74	1881.79
398.93	1909.88
399.12	1898.17
399.32	1907.54
399.51	1886.47
399.70	1982.43
399.90	1963.71
400.09	1954.35
400.28	1959.03
400.47	2019.88
400.67	2052.65
400.86	2080.74
401.05	2150.95
401.24	2176.70
401.44	2083.08
401.63	2134.57
401.82	2193.08
402.01	2172.02
402.21	2153.29
402.40	2181.38
402.59	2190.74
402.78	2165.00
402.97	2207.13
403.17	2286.70
403.36	2317.13
403.55	2165.00
403.74	2356.92
403.93	2427.14
404.13	2317.13
404.32	2291.38
404.51	2361.60
404.70	2392.03
404.89	2485.65
405.09	2504.37
405.28	2466.92
405.47	2410.75
405.66	2452.88
405.85	2637.78
406.05	2642.46
406.24	2509.05
406.43	2555.86
406.62	2579.27
406.81	2642.46
407.00	2576.93
407.20	2595.65
407.39	2712.68
407.58	2677.57
407.77	2670.55
407.96	2782.90
408.15	2761.83
408.34	2717.36
408.54	2789.92
408.73	2768.85
408.92	2820.35
409.11	2878.86
409.30	2888.22
409.49	2785.24
409.68	2970.14
409.87	2864.82
410.07	3026.31
410.26	2953.76
410.45	2958.44
410.64	3016.95
410.83	3091.85
411.02	3091.85
411.21	3206.53
411.40	3215.90
411.59	3148.02
411.78	3155.04
411.98	3157.38
412.17	3150.36
412.36	3192.49
412.55	3337.60
412.74	3351.65
412.93	3328.24
413.12	3339.94
413.31	3520.17
413.50	3375.05
413.69	3492.08
413.88	3674.64
414.07	3658.26
414.26	3606.77
414.45	3611.45
414.64	3665.28
414.83	3721.45
415.02	3630.17
415.22	3796.35
415.41	3803.37
415.60	3859.54
415.79	3817.41
415.98	3929.76
416.17	3976.57
416.36	3936.78
416.55	3967.21
416.74	4044.45
416.93	4016.36
417.12	4205.94
417.31	4021.04
417.50	4215.30
417.69	4372.12
417.88	4292.54
418.07	4320.63
418.26	4203.60
418.45	4283.18
418.64	4496.17
418.83	4428.29
419.02	4390.84
419.21	4683.41
419.39	4624.90
419.58	4428.29
419.77	4447.02
419.96	4566.39
420.15	4645.96
420.34	4451.70
420.53	4634.26
420.72	4765.33
420.91	4676.39
421.10	4765.33
421.29	4884.70
421.48	4669.37
421.67	4828.53
421.86	4671.71
422.05	4873.00
422.24	4730.22
422.43	4887.04
422.61	4877.68
422.80	4891.72
422.99	4929.17
423.18	4997.04
423.37	5055.56
423.56	5050.88
423.75	4961.94
423.94	4727.88
424.13	4678.73
424.32	4786.40
424.50	4931.51
424.69	5121.09
424.88	5022.79
425.07	4922.15
425.26	4889.38
425.45	5027.47
425.64	4961.94
425.83	4910.44
426.01	5093.01
426.20	4856.61
426.39	5076.62
426.58	4975.98
426.77	5207.69
426.96	5107.05
427.15	5149.18
427.33	5212.37
427.52	5078.96
427.71	5240.46
427.90	5167.90
428.09	5233.44
428.28	5387.91
428.46	5345.78
428.65	5294.29
428.84	5530.69
429.03	5526.00
429.22	5420.68
429.40	5420.68
429.59	5570.48
429.78	5350.46
429.97	5193.65
430.16	5614.95
430.34	5682.82
430.53	5614.95
430.72	5537.71
430.91	5603.24
431.10	5708.57
431.28	5741.33
431.47	5830.27
431.66	5877.09
431.85	5713.25
432.03	5830.27
432.22	5975.39
432.41	6022.20
432.60	5989.43
432.79	6076.03
432.97	6071.35
433.16	6071.35
433.35	6033.90
433.54	6122.84
433.72	5966.03
433.91	6272.64
434.10	6258.59
434.28	6104.12
434.47	6176.67
434.66	6265.61
434.85	6296.04
435.03	6267.95
435.22	6148.59
435.41	6399.02
435.59	6335.83
435.78	6373.28
435.97	6621.38
436.16	6392.00
436.34	6354.55
436.53	6544.14
436.72	6637.76
436.90	6424.77
437.09	6743.08
437.28	6366.26
437.46	6614.35
437.65	6494.99
437.84	6927.99
438.02	6588.61
438.21	6803.94
438.40	6715.00
438.58	7028.63
438.77	7089.48
438.96	6963.09
439.14	7155.02
439.33	7042.67
439.52	7318.86
439.70	7265.02
439.89	7194.81
440.08	7253.32
440.26	7204.17
440.45	7377.37
440.63	7396.09
440.82	7529.50
441.01	7620.78
441.19	7543.55
441.38	7625.47
441.57	7796.32
441.75	7588.02
441.94	7880.58
442.12	7915.69
442.31	8072.51
442.50	8016.33
442.68	8070.17
442.87	8011.65
443.05	8042.08
443.24	8091.23
443.43	8231.66
443.61	8205.92
443.80	8505.51
443.98	8198.90
444.17	7943.78
444.35	8215.28
444.54	8301.88
444.73	8226.98
444.91	8180.17
445.10	8454.02
445.28	8266.77
445.47	8435.29
445.65	8411.89
445.84	8624.87
446.02	8472.74
446.21	8500.83
446.39	8311.24
446.58	8650.62
446.77	8655.30
446.95	8215.28
447.14	8411.89
447.32	8575.72
447.51	8554.66
447.69	8425.93
447.88	8461.04
448.06	8444.65
448.25	8489.12
448.43	8589.77
448.62	8617.85
448.80	8477.42
448.99	8655.30
449.17	8737.22
449.36	8748.92
449.54	8858.93
449.73	8732.54
449.91	9083.62
450.10	9036.81
450.28	9263.84
450.46	9107.02
450.65	8952.55
450.83	8985.32
451.02	9053.19
451.20	9132.77
451.39	9039.15
451.57	9095.32
451.76	9062.55
451.94	9029.79
452.13	9224.05
452.31	9181.92
452.49	9266.18
452.68	9582.15
452.86	9291.93
453.05	9399.59
453.23	9444.06
453.42	9296.61
453.60	9413.63
453.78	9577.47
453.97	9446.40
454.15	9392.57
454.34	9509.60
454.52	9727.27
454.70	9937.91
454.89	9853.66
455.07	9893.44
455.26	9816.21
455.44	9942.60
455.62	9802.16
455.81	10022.17
455.99	10024.51
456.17	10040.90
456.36	9984.73
456.54	10274.95
456.73	10036.22
456.91	10373.25
457.09	10260.91
457.28	10574.54
457.46	10263.25
457.64	10679.86
457.83	10410.70
458.01	10326.44
458.19	10628.37
458.38	10628.37
458.56	10637.73
458.74	10761.78
458.93	10621.35
459.11	10785.19
459.29	10984.13
459.48	10864.77
459.66	10995.84
459.84	10696.25
460.03	11192.44
460.21	10993.50
460.39	10871.79
460.57	10778.17
460.76	11227.55
460.94	11052.01
461.12	11101.16
461.31	11185.42
461.49	11129.25
461.67	11150.31
461.85	11480.33
462.04	11548.20
462.22	11459.26
462.40	11611.40
462.59	11765.87
462.77	11318.83
462.95	11674.59
463.13	11857.15
463.32	11571.61
463.50	11646.51
463.68	11747.15
463.86	12013.97
464.05	11955.46
464.23	11751.83
464.41	11625.44
464.59	11681.61
464.78	12208.23
464.96	11747.15
465.14	12004.61
465.32	12116.95
465.50	12135.68
465.69	12264.41
465.87	12020.99
466.05	12217.60
466.23	11887.58
466.41	12219.94
466.60	12430.59
466.78	12131.00
466.96	12056.10
467.14	12358.03
467.32	12269.09
467.51	12301.86
467.69	12217.60
467.87	12575.70
468.05	12737.20
468.23	12458.67
468.41	12575.70
468.60	12655.28
468.78	12746.56
468.96	12681.02
469.14	12840.18
469.32	12922.10
469.50	12615.49
469.69	13046.15
469.87	12975.93
470.05	12915.08
470.23	12973.59
470.41	13219.35
470.59	13312.97
470.77	13095.30
470.95	13289.56
471.14	13516.59
471.32	13226.37
471.50	13242.75
471.68	13586.81
471.86	13561.06
472.04	13771.71
472.22	13968.32
472.40	13551.70
472.58	13710.86
472.77	14003.43
472.95	14143.86
473.13	14483.24
473.31	14174.28
473.49	14073.64
473.67	14209.39
473.85	14560.47
474.03	14633.03
474.21	14670.48
474.39	14892.83
474.57	14696.22
474.75	14927.94
474.93	14949.00
475.12	14824.95
475.30	15176.03
475.48	15342.21
475.66	15435.83
475.84	15250.93
476.02	15433.49
476.20	15445.20
476.38	15740.10
476.56	15948.41
476.74	15875.85
476.92	16023.31
477.10	15939.05
477.28	16072.46
477.46	16304.17
477.64	16215.23
477.82	16779.30
478.00	16779.30
478.18	16966.54
478.36	17149.11
478.54	17186.55
478.72	17198.26
478.90	17525.93
479.08	17511.89
479.26	17605.51
479.44	17563.38
479.62	18160.22
479.80	18167.24
479.98	18171.92
480.16	18670.45
480.34	18223.41
480.52	18717.26
480.70	18532.36
480.88	18415.34
481.06	18679.82
481.24	18855.36
481.41	19164.31
481.59	19370.27
481.77	19468.58
481.95	19496.66
482.13	19819.66
482.31	19796.25
482.49	20437.56
482.67	20320.53
482.85	20205.84
483.03	20912.69
483.21	20697.36
483.39	20790.98
483.57	21212.28
483.74	21263.77
483.92	21378.45
484.10	21448.67
484.28	21664.00
484.46	22078.27
484.64	22359.14
484.82	21921.46
485.00	22305.31
485.18	22738.30
485.35	23201.73
485.53	23040.23
485.71	22909.16
485.89	23585.58
486.07	23396.00
486.25	23426.42
486.43	23737.71
486.61	24041.98
486.78	24276.04
486.96	24203.48
487.14	24430.51
487.32	24306.46
487.50	24716.06
487.68	24781.59
487.85	25289.49
488.03	25837.17
488.21	25785.68
488.39	25806.75
488.57	26190.59
488.75	26326.35
488.92	26373.16
489.10	26682.11
489.28	26696.15
489.46	27035.53
489.64	27152.55
489.81	27681.52
489.99	27999.83
490.17	28002.17
490.35	28439.85
490.53	27974.08
490.70	28463.25
490.88	28460.91
491.06	29144.35
491.24	28936.04
491.41	28685.61
491.59	29158.39
491.77	29369.04
491.95	29352.66
492.13	29603.10
492.30	29860.55
492.48	30534.63
492.66	29797.36
492.84	30520.59
493.01	30586.12
493.19	30742.94
493.37	31508.29
493.54	31225.09
493.72	31257.85
493.90	31395.95
494.08	32140.24
494.25	31950.65
494.43	31934.27
494.61	32402.38
494.79	32327.48
494.96	32257.26
495.14	32676.22
495.32	33369.02
495.49	33067.09
495.67	33230.93
495.85	33654.56
496.02	33865.21
496.20	34167.14
496.38	33851.17
496.55	34459.71
496.73	34934.84
496.91	34581.42
497.09	34539.29
497.26	34939.52
497.44	34778.02
497.62	35189.95
497.79	35917.86
497.97	35433.37
498.14	36070.00
498.32	36168.30
498.50	36385.97
498.67	36755.77
498.85	36460.87
499.03	36914.93
499.20	36945.36
499.38	36723.01
499.56	37013.23
499.73	36659.81
499.91	37282.39
500.08	37804.33
500.26	37621.77
500.44	37703.69
500.61	38038.39
500.79	37612.41
500.97	38312.23
501.14	38639.90
501.32	38792.04
501.49	38675.01
501.67	38675.01
501.84	38892.68
502.02	38504.15
502.20	39061.20
502.37	39442.71
502.55	39349.09
502.72	39475.48
502.90	39625.27
503.07	39515.26
503.25	40147.21
503.43	39955.29
503.60	40023.16
503.78	40266.58
503.95	40423.39
504.13	40449.14
504.30	40889.16
504.48	40243.17
504.65	41031.93
504.83	41090.44
505.01	41256.62
505.18	41237.90
505.36	41666.22
505.53	41216.83
505.71	41834.74
505.88	41954.10
506.06	41493.02
506.23	41979.85
506.41	42197.52
506.58	41930.70
506.76	42146.03
506.93	42347.31
507.11	42363.70
507.28	42820.10
507.46	42897.34
507.63	43117.35
507.81	43023.73
507.98	42742.86
508.16	42958.19
508.33	43468.43
508.50	43765.68
508.68	43690.78
508.85	43962.28
509.03	43789.08
509.20	44065.27
509.38	44325.07
509.55	44821.26
509.73	44353.15
509.90	44917.22
510.08	44238.47
510.25	44781.47
510.42	44694.87
510.60	45404.05
510.77	45345.54
510.95	45497.67
511.12	45439.16
511.30	44989.78
511.47	45420.44
511.64	45832.37
511.82	46157.70
511.99	46136.64
512.17	46169.41
512.34	46028.98
512.51	46293.46
512.69	46326.22
512.86	46459.63
513.04	46351.97
513.21	46403.46
513.38	46738.16
513.56	46909.02
513.73	46689.01
513.90	46838.80
514.08	46983.91
514.25	47175.84
514.43	47171.16
514.60	47555.00
514.77	47192.22
514.95	47831.19
515.12	47540.96
515.29	47505.85
515.47	47885.02
515.64	48318.02
515.81	47945.87
515.99	48353.13
516.16	48332.06
516.33	48254.82
516.51	48795.49
516.68	48615.27
516.85	48491.22
517.03	48713.57
517.20	48938.26
517.37	48846.98
517.54	48830.60
517.72	48767.40
517.89	49317.43
518.06	49553.82
518.24	49483.61
518.41	49205.08
518.58	49350.20
518.75	49759.79
518.93	49944.69
519.10	49455.52
519.27	49729.36
519.45	49792.56
519.62	49818.30
519.79	50024.27
519.96	50319.18
520.14	50190.45
520.31	50106.19
520.48	50583.66
520.65	50019.59
520.83	50546.21
521.00	50904.31
521.17	50349.60
521.34	50803.67
521.52	51112.62
521.69	51033.04
521.86	51159.43
522.03	51180.49
522.20	51227.31
522.38	52013.73
522.55	51166.45
522.72	51323.27
522.89	51482.42
523.07	51800.74
523.24	51711.80
523.41	51732.86
523.58	51597.11
523.75	52030.11
523.92	52144.80
524.10	51915.42
524.27	51976.28
524.44	51920.10
524.61	52182.24
524.78	52231.40
524.96	52369.49
525.13	52418.64
525.30	52488.85
525.47	52547.37
525.64	52699.50
525.81	52772.06
525.98	52755.68
526.16	52570.77
526.33	52727.59
526.50	53038.88
526.67	52753.33
526.84	52851.64
527.01	52743.97
527.18	52734.61
527.36	52776.74
527.53	53041.22
527.70	53518.69
527.87	53305.70
528.04	53127.82
528.21	53612.31
528.38	53546.78
528.55	53469.54
528.72	53399.32
528.89	53724.66
529.07	53294.00
529.24	53605.29
529.41	53822.96
529.58	53893.18
529.75	53572.52
529.92	53736.36
530.09	54038.29
530.26	54117.87
530.43	53949.35
530.60	54031.27
530.77	54038.29
530.94	54499.37
531.11	54145.95
531.28	54115.53
531.46	54148.29
531.63	54281.70
531.80	54202.13
531.97	54473.63
532.14	54602.36
532.31	54665.55
532.48	54490.01
532.65	54649.17
532.82	54218.51
532.99	54981.52
533.16	54850.45
533.33	54754.49
533.50	54990.89
533.67	54958.12
533.84	54674.91
534.01	55061.10
534.18	54953.44
534.35	55236.64
534.52	55136.00
534.69	55421.55
534.86	55302.18
535.03	55320.90
535.20	55384.10
535.37	55210.90
535.54	55367.71
535.71	55077.49
535.88	55618.15
536.05	55512.83
536.22	55807.73
536.38	55456.65
536.55	55667.30
536.72	55587.72
536.89	55686.03
537.06	55557.30
537.23	55819.44
537.40	55681.34
537.57	55786.67
537.74	55814.76
537.91	56268.82
538.08	55861.57
538.25	55702.41
538.42	55714.11
538.59	56048.81
538.75	56011.36
538.92	56119.02
539.09	55915.40
539.26	56203.28
539.43	55971.57
539.60	56383.51
539.77	56259.46
539.94	56650.33
540.11	56470.11
540.28	56715.86
540.44	56617.56
540.61	56502.87
540.78	56439.68
540.95	56322.65
541.12	56575.43
541.29	56666.71
541.46	56439.68
541.62	56465.42
541.79	56706.50
541.96	56556.70
542.13	56509.89
542.30	56900.76
542.47	57193.33
542.63	56949.92
542.80	56910.13
542.97	57216.74
543.14	57167.58
543.31	57233.12
543.48	57272.91
543.64	57602.92
543.81	57352.49
543.98	57626.33
544.15	57485.90
544.32	57284.61
544.48	57616.97
544.65	57450.79
544.82	57506.96
544.99	57368.87
545.16	57511.64
545.32	57471.85
545.49	57797.19
545.66	57764.42
545.83	57661.44
546.00	57855.70
546.16	57755.06
546.33	57712.93
546.50	57673.14
546.67	57808.89
546.83	57729.31
547.00	57818.25
547.17	57710.59
547.34	57797.19
547.50	58038.26
547.67	58166.99
547.84	58178.70
548.00	58190.40
548.17	58370.62
548.34	57989.11
548.51	58162.31
548.67	58288.70
548.84	58103.80
549.01	58094.44
549.18	58157.63
549.34	58183.38
549.51	58284.02
549.68	58424.45
549.84	58354.24
550.01	58429.13
550.18	58314.45
550.34	58440.84
550.51	58518.07
550.68	58663.19
550.84	58225.51
551.01	58756.81
551.18	58578.93
551.34	58468.92
551.51	58656.17
551.68	58529.78
551.84	58679.57
552.01	58473.60
552.18	58815.32
552.34	58590.63
552.51	58688.93
552.68	58625.74
552.84	58724.04
553.01	59210.87
553.18	59044.69
553.34	58848.09
553.51	58831.71
553.67	58717.02
553.84	58922.99
554.01	59058.74
554.17	58958.09
554.34	59128.95
554.51	58951.07
554.67	59402.80
554.84	59068.10
555.00	59236.62
555.17	58986.18
555.33	59255.34
555.50	59114.91
555.67	59159.38
555.83	59014.27
556.00	59164.06
556.16	59566.63
556.33	59222.58
556.50	59133.63
556.66	59561.95
556.83	59229.60
556.99	59442.59
557.16	59592.38
557.32	59573.66
557.49	59444.93
557.65	59419.18
557.82	59540.89
557.98	59285.77
558.15	59323.22
558.32	59498.76
558.48	59398.12
558.65	59458.97
558.81	59641.53
558.98	59566.63
559.14	59725.79
559.31	59655.57
559.47	59613.44
559.64	59571.32
559.80	59477.69
559.97	59828.77
560.13	59545.57
560.30	59784.30
560.46	59695.36
560.63	59704.73
560.79	59655.57
560.96	60004.31
561.12	59983.25
561.29	59751.54
561.45	59917.71
561.61	59849.84
561.78	59882.61
561.94	59739.83
562.11	60006.65
562.27	59990.27
562.44	60051.12
562.60	60301.56
562.77	59896.65
562.93	59763.24
563.10	60051.12
563.26	60037.08
563.42	60257.09
563.59	60062.83
563.75	60079.21
563.92	60060.49
564.08	59983.25
564.24	60114.32
564.41	60142.41
564.57	60168.15
564.74	60097.94
564.90	60303.90
565.07	60210.28
565.23	60025.38
565.39	60142.41
565.56	60069.85
565.72	60240.71
565.88	60109.64
566.05	60266.45
566.21	60299.22
566.38	60198.58
566.54	60329.65
566.70	60449.02
566.87	60336.67
567.03	60128.36
567.19	60500.51
567.36	60381.14
567.52	60149.43
567.68	60654.98
567.85	60259.43
568.01	60491.15
568.17	60418.59
568.34	60395.18
568.50	60371.78
568.66	60413.91
568.83	60341.35
568.99	60259.43
569.15	60107.30
569.32	60336.67
569.48	60346.03
569.64	60608.17
569.81	60495.83
569.97	60322.63
570.13	60474.76
570.30	60247.73
570.46	60458.38
570.62	60718.18
570.78	60734.56
570.95	60540.30
571.11	60615.19
571.27	60458.38
571.43	60711.16
571.60	60694.77
571.76	60685.41
571.92	60694.77
572.09	60629.24
572.25	60526.25
572.41	60514.55
572.57	60706.47
572.74	60762.65
572.90	60713.50
573.06	60816.48
573.22	60772.01
573.38	60795.42
573.55	60683.07
573.71	60882.02
573.87	60734.56
574.03	60549.66
574.20	60708.82
574.36	60687.75
574.52	60947.55
574.68	60769.67
574.84	60898.40
575.01	61050.53
575.17	60701.79
575.33	60788.39
575.49	60816.48
575.65	60739.24
575.82	60828.18
575.98	60652.64
576.14	61020.11
576.30	60666.69
576.46	60966.27
576.62	60694.77
576.79	60746.26
576.95	60776.69
577.11	60748.60
577.27	60814.14
577.43	60776.69
577.59	60856.27
577.75	60622.22
577.92	60678.39
578.08	61031.81
578.24	60825.84
578.40	61118.41
578.56	60970.96
578.72	60903.08
578.88	61123.09
579.04	61031.81
579.21	60940.53
579.37	60931.17
579.53	61080.96
579.69	60933.51
579.85	61024.79
580.01	60931.17
580.17	60945.21
580.33	60938.19
580.49	60903.08
580.65	60982.66
580.82	60804.78
580.98	60741.58
581.14	60739.24
581.30	61113.73
581.46	60956.91
581.62	60966.27
581.78	60790.73
581.94	61183.94
582.10	60968.61
582.26	60797.76
582.42	61008.40
582.58	60849.25
582.74	61003.72
582.90	61034.15
583.06	60992.02
583.22	60795.42
583.38	61043.51
583.54	60914.78
583.70	61052.87
583.86	61050.53
584.02	60874.99
584.18	61069.26
584.34	61059.90
584.50	60935.85
584.66	61010.74
584.82	60680.73
584.98	61158.20
585.14	61057.56
585.30	60858.61
585.46	61193.31
585.62	61036.49
585.78	61162.88
585.94	60933.51
586.10	61092.66
586.26	61073.94
586.42	61092.66
586.58	61027.13
586.74	61099.68
586.90	60924.14
587.06	61057.56
587.22	61244.80
587.38	61317.35
587.54	61279.91
587.70	61289.27
587.86	61001.38
588.02	61132.45
588.18	61228.41
588.34	60970.96
588.49	61015.43
