SpectraSuite Data File
++++++++++++++++++++++++++++++++++++
Date: Fri Oct 25 11:22:55 EDT 2013
User: price-jones
Dark Spectrum Present: No
Reference Spectrum Present: No
Number of Sampled Component Spectra: 1
Spectrometers: USB2+H05261
Integration Time (usec): 100000 (USB2+H05261)
Spectra Averaged: 1 (USB2+H05261)
Boxcar Smoothing: 0 (USB2+H05261)
Correct for Electrical Dark: No (USB2+H05261)
Strobe/Lamp Enabled: No (USB2+H05261)
Correct for Detector Non-linearity: No (USB2+H05261)
Correct for Stray Light: No (USB2+H05261)
Number of Pixels in Processed Spectrum: 2048
>>>>>Begin Processed Spectral Data<<<<<
365.73	290.23
365.92	290.23
366.12	290.23
366.32	156.82
366.52	140.43
366.72	53.83
366.91	114.69
367.11	180.22
367.31	84.26
367.51	124.05
367.70	140.43
367.90	114.69
368.10	77.24
368.30	105.32
368.49	79.58
368.69	110.01
368.89	81.92
369.09	114.69
369.28	182.56
369.48	124.05
369.68	138.09
369.87	161.50
370.07	205.97
370.27	196.60
370.47	388.53
370.66	503.22
370.86	638.97
371.06	716.20
371.25	667.05
371.45	671.73
371.65	767.70
371.84	685.78
372.04	709.18
372.24	697.48
372.44	763.01
372.63	732.59
372.83	777.06
373.03	734.93
373.22	746.63
373.42	812.17
373.62	805.14
373.81	774.72
374.01	800.46
374.21	835.57
374.40	779.40
374.60	858.98
374.79	779.40
374.99	784.08
375.19	875.36
375.38	889.40
375.58	856.64
375.78	866.00
375.97	882.38
376.17	866.00
376.37	791.10
376.56	844.93
376.76	786.42
376.95	884.72
377.15	835.57
377.35	830.89
377.54	873.02
377.74	807.48
377.93	884.72
378.13	931.53
378.33	945.58
378.52	816.85
378.72	976.00
378.91	933.87
379.11	931.53
379.31	950.26
379.50	929.19
379.70	936.21
379.89	1015.79
380.09	936.21
380.28	964.30
380.48	1018.13
380.68	966.64
380.87	964.30
381.07	1160.91
381.26	997.07
381.46	987.71
381.65	1043.88
381.85	1050.90
382.04	1041.54
382.24	1018.13
382.43	954.94
382.63	1053.24
382.83	1149.20
383.02	1128.14
383.22	1071.97
383.41	1022.81
383.61	1020.47
383.80	1139.84
384.00	1144.52
384.19	1074.31
384.39	1186.65
384.58	1137.50
384.78	1142.18
384.97	1210.06
385.17	1121.12
385.36	1308.36
385.56	1210.06
385.75	1254.53
385.95	1174.95
386.14	1163.25
386.34	1198.35
386.53	1198.35
386.72	1200.69
386.92	1231.12
387.11	1249.85
387.31	1282.61
387.50	1282.61
387.70	1254.53
387.89	1275.59
388.09	1329.42
388.28	1282.61
388.48	1266.23
388.67	1376.24
388.86	1252.19
389.06	1205.38
389.25	1341.13
389.45	1383.26
389.64	1439.43
389.84	1460.49
390.03	1390.28
390.22	1329.42
390.42	1394.96
390.61	1336.45
390.81	1465.18
391.00	1394.96
391.19	1540.07
391.39	1420.71
391.58	1493.26
391.78	1357.51
391.97	1481.56
392.16	1455.81
392.36	1523.69
392.55	1554.12
392.75	1507.30
392.94	1500.28
393.13	1444.11
393.33	1472.20
393.52	1537.73
393.71	1504.96
393.91	1558.80
394.10	1619.65
394.29	1614.97
394.49	1617.31
394.68	1575.18
394.88	1668.80
395.07	1652.42
395.26	1696.89
395.46	1729.66
395.65	1715.61
395.84	1844.34
396.04	1842.00
396.23	1799.87
396.42	1771.79
396.62	1739.02
396.81	1778.81
397.00	1790.51
397.19	1678.16
397.39	1755.40
397.58	1797.53
397.77	1802.21
397.97	1919.24
398.16	1884.13
398.35	1959.03
398.55	1792.85
398.74	1898.17
398.93	1947.33
399.12	1844.34
399.32	1947.33
399.51	1944.99
399.70	1996.48
399.90	1975.41
400.09	2019.88
400.28	2029.24
400.47	2136.91
400.67	2090.10
400.86	2188.40
401.05	2043.29
401.24	2127.55
401.44	2193.08
401.63	2050.31
401.82	2176.70
402.01	2136.91
402.21	2101.80
402.40	2078.40
402.59	2260.96
402.78	2183.72
402.97	2303.09
403.17	2246.91
403.36	2310.11
403.55	2326.49
403.74	2363.94
403.93	2399.05
404.13	2429.48
404.32	2394.37
404.51	2422.45
404.70	2338.20
404.89	2275.00
405.09	2448.20
405.28	2450.54
405.47	2562.89
405.66	2579.27
405.85	2588.63
406.05	2548.84
406.24	2593.31
406.43	2640.12
406.62	2593.31
406.81	2693.96
407.00	2700.98
407.20	2691.62
407.39	2588.63
407.58	2743.11
407.77	2677.57
407.96	2799.28
408.15	2698.64
408.34	2799.28
408.54	2860.13
408.73	2853.11
408.92	2895.24
409.11	2848.43
409.30	3066.10
409.49	2883.54
409.68	3002.91
409.87	2965.46
410.07	3040.36
410.26	3052.06
410.45	3066.10
410.64	3068.44
410.83	3211.22
411.02	3098.87
411.21	3234.62
411.40	3145.68
411.59	3178.45
411.78	3232.28
411.98	3307.18
412.17	3311.86
412.36	3349.31
412.55	3356.33
412.74	3459.31
412.93	3412.50
413.12	3335.26
413.31	3639.53
413.50	3625.49
413.69	3405.48
413.88	3625.49
414.07	3665.28
414.26	3555.27
414.45	3719.11
414.64	3618.47
414.83	3648.90
415.02	3824.44
415.22	3831.46
415.41	3985.93
415.60	3843.16
415.79	3885.29
415.98	3999.98
416.17	4131.05
416.36	3913.38
416.55	4044.45
416.74	4121.68
416.93	4147.43
417.12	4121.68
417.31	4198.92
417.50	4114.66
417.69	4273.82
417.88	4306.59
418.07	4320.63
418.26	4334.67
418.45	4393.19
418.64	4526.60
418.83	4444.68
419.02	4456.38
419.21	4477.44
419.39	4418.93
419.58	4603.83
419.77	4482.13
419.96	4631.92
420.15	4699.80
420.34	4748.95
420.53	4741.93
420.72	4685.75
420.91	4788.74
421.10	4770.01
421.29	4830.87
421.48	4718.52
421.67	4865.97
421.86	4863.63
422.05	4943.21
422.24	4830.87
422.43	4856.61
422.61	5123.43
422.80	4795.76
422.99	5046.20
423.18	4943.21
423.37	5109.39
423.56	4992.36
423.75	4919.81
423.94	4924.49
424.13	4585.11
424.32	4725.54
424.50	5074.28
424.69	5287.27
424.88	5095.35
425.07	5027.47
425.26	5135.14
425.45	5097.69
425.64	4795.76
425.83	5029.81
426.01	5107.05
426.20	5022.79
426.39	4954.91
426.58	5158.54
426.77	5139.82
426.96	5181.95
427.15	5109.39
427.33	5125.77
427.52	5050.88
427.71	5291.95
427.90	5214.71
428.09	5327.06
428.28	5460.47
428.46	5298.97
428.65	5416.00
428.84	5633.67
429.03	5657.07
429.22	5518.98
429.40	5495.58
429.59	5554.09
429.78	5366.85
429.97	5331.74
430.16	5509.62
430.34	5706.23
430.53	5753.04
430.72	5668.78
430.91	5671.12
431.10	5734.31
431.28	5774.10
431.47	5944.96
431.66	5970.71
431.85	5989.43
432.03	6069.01
432.22	5970.71
432.41	5891.13
432.60	5830.27
432.79	6101.78
432.97	6047.94
433.16	6003.47
433.35	5933.26
433.54	6097.10
433.72	6183.70
433.91	6167.31
434.10	6314.77
434.28	6251.57
434.47	6246.89
434.66	6284.34
434.85	6471.58
435.03	6487.96
435.22	6373.28
435.41	6548.82
435.59	6567.54
435.78	6525.41
435.97	6504.35
436.16	6370.94
436.34	6560.52
436.53	6567.54
436.72	6766.49
436.90	6689.25
437.09	6843.73
437.28	6494.99
437.46	6682.23
437.65	6658.82
437.84	6806.28
438.02	6857.77
438.21	6916.28
438.40	6806.28
438.58	7061.40
438.77	7253.32
438.96	7047.35
439.14	7199.49
439.33	7260.34
439.52	7173.74
439.70	7398.43
439.89	7431.20
440.08	7353.96
440.26	7379.71
440.45	7522.48
440.63	7630.15
440.82	7653.55
441.01	7555.25
441.19	7665.25
441.38	7824.41
441.57	7812.71
441.75	8042.08
441.94	8077.19
442.12	7847.82
442.31	7985.91
442.50	8191.88
442.68	7854.84
442.87	8011.65
443.05	8304.22
443.24	8236.35
443.43	8042.08
443.61	8259.75
443.80	8421.25
443.98	8219.96
444.17	7887.61
444.35	8306.56
444.54	8470.40
444.73	8454.02
444.91	8477.42
445.10	8432.95
445.28	8315.92
445.47	8463.38
445.65	8437.63
445.84	8486.78
446.02	8496.14
446.21	8287.84
446.39	8416.57
446.58	8601.47
446.77	8559.34
446.95	8367.42
447.14	8461.04
447.32	8748.92
447.51	8557.00
447.69	8580.40
447.88	8587.43
448.06	8631.90
448.25	8524.23
448.43	8606.15
448.62	8690.41
448.80	8533.59
448.99	8510.19
449.17	8816.80
449.36	8769.99
449.54	8851.91
449.73	9029.79
449.91	9090.64
450.10	9067.24
450.28	9109.36
450.46	9111.71
450.65	9224.05
450.83	8999.36
451.02	9165.54
451.20	9270.86
451.39	9385.55
451.57	9268.52
451.76	9158.52
451.94	9252.14
452.13	9423.00
452.31	9444.06
452.49	9242.78
452.68	9514.28
452.86	9369.16
453.05	9652.37
453.23	9528.32
453.42	9315.33
453.60	9231.07
453.78	9734.29
453.97	9303.63
454.15	9589.17
454.34	9394.91
454.52	9678.12
454.70	9767.06
454.89	9785.78
455.07	9717.90
455.26	9844.29
455.44	9898.13
455.62	9951.96
455.81	9989.41
455.99	10111.11
456.17	10141.54
456.36	10277.29
456.54	10207.08
456.73	10321.76
456.91	10396.66
457.09	10265.59
457.28	10782.85
457.46	10363.89
457.64	10607.31
457.83	10555.82
458.01	10396.66
458.19	10874.13
458.38	10766.46
458.56	10780.51
458.74	10965.41
458.93	10581.56
459.11	10792.21
459.29	10740.72
459.48	10855.40
459.66	10803.91
459.84	11126.91
460.03	11243.93
460.21	11293.08
460.39	11000.52
460.57	11082.44
460.76	11250.96
460.94	11192.44
461.12	11300.11
461.31	11091.80
461.49	11321.17
461.67	11346.92
461.85	11492.03
462.04	11501.39
462.22	11929.71
462.40	11859.49
462.59	11597.35
462.77	11620.76
462.95	11681.61
463.13	11602.04
463.32	11721.40
463.50	11819.71
463.68	11974.18
463.86	11803.32
464.05	11772.89
464.23	11754.17
464.41	11817.36
464.59	11784.60
464.78	12131.00
464.96	12107.59
465.14	11948.43
465.32	12081.85
465.50	12203.55
465.69	12292.49
465.87	12308.88
466.05	12414.20
466.23	12271.43
466.41	12381.43
466.60	12634.21
466.78	12259.73
466.96	12159.08
467.14	12453.99
467.32	12498.46
467.51	12833.16
467.69	12442.29
467.87	12475.06
468.05	12823.80
468.23	12554.63
468.41	12512.50
468.60	12903.37
468.78	13062.53
468.96	12692.73
469.14	13032.10
469.32	13146.79
469.50	13046.15
469.69	13146.79
469.87	13228.71
470.05	13345.73
470.23	13224.03
470.41	13383.18
470.59	13364.46
470.77	13525.96
470.95	13336.37
471.14	13652.34
471.32	13224.03
471.50	13645.32
471.68	13584.47
471.86	13816.18
472.04	13804.48
472.22	14024.49
472.40	13685.11
472.58	13940.23
472.77	14382.59
472.95	14286.63
473.13	14778.14
473.31	14471.53
473.49	14073.64
473.67	14181.31
473.85	14429.40
474.03	14717.29
474.21	15040.28
474.39	15012.20
474.57	14911.55
474.75	15239.23
474.93	15105.82
475.12	15466.26
475.30	15307.10
475.48	15227.53
475.66	15379.66
475.84	15428.81
476.02	15452.22
476.20	15868.83
476.38	15765.85
476.56	16086.50
476.74	16016.29
476.92	16175.44
477.10	15873.51
477.28	16383.75
477.46	16458.65
477.64	16372.05
477.82	16688.02
478.00	17418.27
478.18	16999.31
478.36	17242.73
478.54	17326.99
478.72	17603.17
478.90	17366.78
479.08	17942.55
479.26	17998.72
479.44	17867.65
479.62	18115.75
479.80	18153.20
479.98	18635.35
480.16	18712.58
480.34	18459.81
480.52	19033.24
480.70	18988.77
480.88	18754.71
481.06	19138.56
481.24	19063.66
481.41	19381.98
481.59	19412.40
481.77	19707.31
481.95	19920.30
482.13	19805.61
482.31	19805.61
482.49	20393.09
482.67	20580.33
482.85	20617.78
483.03	20594.37
483.21	20828.43
483.39	21193.55
483.57	20929.07
483.74	21586.76
483.92	21614.85
484.10	21472.07
484.28	22197.64
484.46	22157.85
484.64	22513.61
484.82	22075.93
485.00	22560.42
485.18	22946.61
485.35	23229.82
485.53	22991.08
485.71	22904.48
485.89	23962.40
486.07	23583.24
486.25	23836.02
486.43	23866.44
486.61	24271.36
486.78	24271.36
486.96	24648.18
487.14	25029.69
487.32	24872.87
487.50	25333.96
487.68	25163.10
487.85	25488.43
488.03	25855.90
488.21	26066.55
488.39	26270.17
488.57	26228.04
488.75	26485.50
488.92	26742.96
489.10	26995.74
489.28	26909.14
489.46	27133.83
489.64	27463.85
489.81	28058.34
489.99	28222.18
490.17	28030.26
490.35	28112.17
490.53	28264.31
490.70	28535.81
490.88	28669.22
491.06	29252.02
491.24	29165.42
491.41	29256.70
491.59	29551.60
491.77	29521.18
491.95	30008.01
492.13	29816.08
492.30	30314.62
492.48	30363.77
492.66	30387.18
492.84	30707.83
493.01	31147.85
493.19	30536.97
493.37	31613.62
493.54	31447.44
493.72	31922.57
493.90	31756.39
494.08	31950.65
494.25	32261.94
494.43	32783.88
494.61	32704.31
494.79	33137.30
494.96	33069.43
495.14	33041.34
495.32	33537.54
495.49	33467.32
495.67	33624.14
495.85	33699.03
496.02	34469.07
496.20	34457.37
496.38	34370.77
496.55	34162.46
496.73	34939.52
496.91	34829.51
497.09	35522.31
497.26	35255.49
497.44	35194.64
497.62	35615.93
497.79	36271.28
497.97	36151.91
498.14	36400.01
498.32	36795.56
498.50	36451.50
498.67	37069.40
498.85	36432.78
499.03	37352.61
499.20	37268.35
499.38	37207.50
499.56	37193.45
499.73	37867.53
499.91	37668.58
500.08	38415.21
500.26	37947.11
500.44	38242.01
500.61	37984.55
500.79	38232.65
500.97	38405.85
501.14	38752.25
501.32	39005.03
501.49	39196.95
501.67	38946.51
501.84	39227.38
502.02	39276.53
502.20	39854.64
502.37	39742.30
502.55	39796.13
502.72	39903.79
502.90	40062.95
503.07	39826.56
503.25	40540.42
503.43	40130.83
503.60	40655.11
503.78	40488.93
503.95	40727.66
504.13	40994.48
504.30	40835.33
504.48	40687.87
504.65	41118.53
504.83	41223.86
505.01	41841.76
505.18	41706.01
505.36	42094.53
505.53	41553.87
505.71	42007.94
505.88	42043.04
506.06	41736.43
506.23	42040.70
506.41	42197.52
506.58	42466.68
506.76	42745.20
506.93	42735.84
507.11	42993.30
507.28	43112.67
507.46	43157.14
507.63	43496.52
507.81	43550.35
507.98	43014.37
508.16	43620.56
508.33	44168.25
508.50	44020.80
508.68	43636.95
508.85	44465.50
509.03	44208.04
509.20	44692.53
509.38	44524.01
509.55	44561.46
509.73	44935.95
509.90	44893.82
510.08	44793.17
510.25	45076.38
510.42	45167.66
510.60	45427.46
510.77	45694.28
510.95	46050.04
511.12	45303.41
511.30	45284.68
511.47	46087.49
511.64	45886.20
511.82	46450.27
511.99	46272.39
512.17	46141.32
512.34	46188.13
512.51	46932.42
512.69	47110.30
512.86	46941.78
513.04	47065.83
513.21	47117.32
513.38	47332.65
513.56	47297.55
513.73	47136.05
513.90	47538.62
514.08	47370.10
514.25	47807.78
514.43	47952.90
514.60	47578.41
514.77	47770.33
514.95	48140.14
515.12	47934.17
515.29	47597.13
515.47	48446.75
515.64	49045.93
515.81	48662.08
515.99	48701.87
516.16	48839.96
516.33	49134.87
516.51	48739.32
516.68	48886.77
516.85	48596.54
517.03	49357.22
517.20	49343.17
517.37	49179.34
517.54	49635.74
517.72	49413.39
517.89	49457.86
518.06	49607.65
518.24	49495.31
518.41	49855.75
518.58	49932.99
518.75	49684.89
518.93	50190.45
519.10	49792.56
519.27	50174.06
519.45	50419.82
519.62	50422.16
519.79	50464.29
519.96	50499.40
520.14	50525.14
520.31	50646.85
520.48	50925.38
520.65	50618.77
520.83	51117.30
521.00	50937.08
521.17	51075.17
521.34	51306.88
521.52	51002.61
521.69	51440.29
521.86	51285.82
522.03	51573.70
522.20	51990.32
522.38	51753.93
522.55	51664.99
522.72	51557.32
522.89	51828.82
523.07	52090.96
523.24	51672.01
523.41	52336.72
523.58	51550.30
523.75	52196.29
523.92	51957.55
524.10	52292.25
524.27	52360.12
524.44	52245.44
524.61	52589.50
524.78	52865.68
524.96	52467.79
525.13	52580.13
525.30	53088.03
525.47	52797.80
525.64	52814.19
525.81	53073.99
525.98	52748.65
526.16	53165.27
526.33	52903.13
526.50	53415.71
526.67	53099.73
526.84	53207.40
527.01	53191.01
527.18	53324.43
527.36	53148.88
527.53	53357.19
527.70	53904.88
527.87	53895.52
528.04	53450.81
528.21	53556.14
528.38	53759.76
528.55	53820.62
528.72	53708.27
528.89	53769.13
529.07	53689.55
529.24	53734.02
529.41	53986.80
529.58	54281.70
529.75	53710.61
529.92	53813.60
530.09	54094.46
530.26	54190.42
530.43	54281.70
530.60	53928.28
530.77	54347.24
530.94	54602.36
531.11	54513.42
531.28	54466.61
531.46	54337.88
531.63	54719.38
531.80	54468.95
531.97	54857.48
532.14	54805.98
532.31	54789.60
532.48	55011.95
532.65	54777.90
532.82	54967.48
532.99	55007.27
533.16	54644.49
533.33	55150.04
533.50	55161.75
533.67	54976.84
533.84	55150.04
534.01	55192.17
534.18	55423.89
534.35	55824.12
534.52	55405.16
534.69	55540.91
534.86	55601.77
535.03	55463.67
535.20	55458.99
535.37	55662.62
535.54	55625.17
535.71	55407.50
535.88	55739.86
536.05	55723.47
536.22	55746.88
536.38	55884.97
536.55	55662.62
536.72	55824.12
536.89	55796.03
537.06	55896.67
537.23	56245.41
537.40	55873.27
537.57	56041.79
537.74	56104.98
537.91	56313.29
538.08	56069.87
538.25	56196.26
538.42	56147.11
538.59	56444.36
538.75	56135.41
538.92	56273.50
539.09	56526.28
539.26	56495.85
539.43	56591.81
539.60	56479.47
539.77	56699.48
539.94	56807.14
540.11	56537.98
540.28	56851.61
540.44	56877.36
540.61	56673.73
540.78	56516.92
540.95	56701.82
541.12	56629.26
541.29	56776.72
541.46	56734.59
541.62	56924.17
541.79	57085.67
541.96	56729.90
542.13	56659.69
542.30	56973.32
542.47	57186.31
542.63	57301.00
542.80	57055.24
542.97	57427.38
543.14	57338.44
543.31	57499.94
543.48	57499.94
543.64	57984.43
543.81	57616.97
543.98	57588.88
544.15	57577.18
544.32	57736.34
544.48	57783.15
544.65	57715.27
544.82	57502.28
544.99	57738.68
545.16	57785.49
545.32	57647.39
545.49	57911.88
545.66	57996.13
545.83	57932.94
546.00	57759.74
546.16	57984.43
546.33	58019.54
546.50	57956.35
546.67	58010.18
546.83	57710.59
547.00	58068.69
547.17	58197.42
547.34	58131.89
547.50	58141.25
547.67	58319.13
547.84	58351.90
548.00	58450.20
548.17	58529.78
548.34	58590.63
548.51	58698.30
548.67	58403.39
548.84	58368.28
549.01	58068.69
549.18	58379.98
549.34	58597.65
549.51	58621.06
549.68	58639.78
549.84	58794.26
550.01	58824.68
550.18	58555.52
550.34	58564.88
550.51	58845.75
550.68	58777.87
550.84	58475.94
551.01	58841.07
551.18	58829.37
551.34	58681.91
551.51	58899.58
551.68	58960.44
551.84	58820.00
552.01	58625.74
552.18	58852.77
552.34	58852.77
552.51	58937.03
552.68	58920.65
552.84	58862.13
553.01	59119.59
553.18	58974.48
553.34	59089.16
553.51	59051.72
553.67	59063.42
553.84	59180.45
554.01	59253.00
554.17	59065.76
554.34	59267.05
554.51	59290.45
554.67	59398.12
554.84	59173.42
555.00	59257.68
555.17	59313.86
555.33	59260.02
555.50	59260.02
555.67	59351.30
555.83	59267.05
556.00	59370.03
556.16	59566.63
556.33	59676.64
556.50	59669.62
556.66	59779.62
556.83	59489.40
556.99	59639.19
557.16	59826.43
557.32	59835.80
557.49	59906.01
557.65	59606.42
557.82	59676.64
557.98	59772.60
558.15	59625.15
558.32	59758.56
558.48	59550.25
558.65	59597.06
558.81	59744.51
558.98	59814.73
559.14	60051.12
559.31	59859.20
559.47	60020.70
559.64	59948.14
559.80	59950.48
559.97	59908.35
560.13	59896.65
560.30	60065.17
560.46	59971.55
560.63	59859.20
560.79	59969.21
560.96	60020.70
561.12	60149.43
561.29	60207.94
561.45	60177.51
561.61	60254.75
561.78	59945.80
561.94	60053.47
562.11	59863.88
562.27	60165.81
562.44	60212.62
562.60	60385.82
562.77	60292.20
562.93	60041.76
563.10	60196.24
563.26	60097.94
563.42	60376.46
563.59	60378.80
563.75	60273.48
563.92	60296.88
564.08	60214.96
564.24	60559.02
564.41	60357.74
564.57	60303.90
564.74	60542.64
564.90	60411.57
565.07	60537.96
565.23	60507.53
565.39	60191.56
565.56	60460.72
565.72	60336.67
565.88	60397.52
566.05	60423.27
566.21	60409.23
566.38	60395.18
566.54	60561.36
566.70	60559.02
566.87	60853.93
567.03	60493.49
567.19	60690.09
567.36	60547.32
567.52	60570.72
567.68	60685.41
567.85	60472.42
568.01	60680.73
568.17	60537.96
568.34	60715.84
568.50	60608.17
568.66	60676.05
568.83	60523.91
568.99	60643.28
569.15	60587.11
569.32	60832.86
569.48	60495.83
569.64	60804.78
569.81	60690.09
569.97	60715.84
570.13	60664.35
570.30	60481.78
570.46	60760.31
570.62	60741.58
570.78	60743.92
570.95	60659.66
571.11	60769.67
571.27	60811.80
571.43	60814.14
571.60	60764.99
571.76	60982.66
571.92	60856.27
572.09	61008.40
572.25	60921.80
572.41	60825.84
572.57	60795.42
572.74	61080.96
572.90	60966.27
573.06	61076.28
573.22	60694.77
573.38	60956.91
573.55	60741.58
573.71	61118.41
573.87	60858.61
574.03	60671.37
574.20	60952.23
574.36	60788.39
574.52	60860.95
574.68	61015.43
574.84	61017.77
575.01	61010.74
575.17	61003.72
575.33	60919.46
575.49	60633.92
575.65	60891.38
575.82	61043.51
575.98	61137.13
576.14	61275.22
576.30	61073.94
576.46	60966.27
576.62	60970.96
576.79	61034.15
576.95	60903.08
577.11	60994.36
577.27	61151.18
577.43	60961.59
577.59	60910.10
577.75	60776.69
577.92	61024.79
578.08	61153.52
578.24	61106.71
578.40	61179.26
578.56	61041.17
578.72	60903.08
578.88	61130.11
579.04	61373.53
579.21	60975.64
579.37	61179.26
579.53	61127.77
579.69	61076.28
579.85	61064.58
580.01	61193.31
580.17	60956.91
580.33	61099.68
580.49	61408.64
580.65	61137.13
580.82	61076.28
580.98	61106.71
581.14	61076.28
581.30	61277.57
581.46	61153.52
581.62	61291.61
581.78	61230.75
581.94	61097.34
582.10	61155.86
582.26	61066.92
582.42	61195.65
582.58	61151.18
582.74	61052.87
582.90	61041.17
583.06	61111.39
583.22	61125.43
583.38	61048.19
583.54	61174.58
583.70	61226.07
583.86	61221.39
584.02	61010.74
584.18	61329.06
584.34	61116.07
584.50	61174.58
584.66	61158.20
584.82	60947.55
584.98	61396.93
585.14	61256.50
585.30	61216.71
585.46	61291.61
585.62	61422.68
585.78	61434.38
585.94	60825.84
586.10	61352.46
586.26	61382.89
586.42	61322.04
586.58	61207.35
586.74	61172.24
586.90	61078.62
587.06	61048.19
587.22	61537.36
587.38	61336.08
587.54	61483.53
587.70	61528.00
587.86	61197.99
588.02	61219.05
588.18	61602.90
588.34	61343.10
588.49	61263.52
