SpectraSuite Data File
++++++++++++++++++++++++++++++++++++
Date: Fri Oct 25 11:23:59 EDT 2013
User: price-jones
Dark Spectrum Present: No
Reference Spectrum Present: No
Number of Sampled Component Spectra: 1
Spectrometers: USB2+H05261
Integration Time (usec): 100000 (USB2+H05261)
Spectra Averaged: 1 (USB2+H05261)
Boxcar Smoothing: 0 (USB2+H05261)
Correct for Electrical Dark: No (USB2+H05261)
Strobe/Lamp Enabled: No (USB2+H05261)
Correct for Detector Non-linearity: No (USB2+H05261)
Correct for Stray Light: No (USB2+H05261)
Number of Pixels in Processed Spectrum: 2048
>>>>>Begin Processed Spectral Data<<<<<
365.73	222.35
365.92	222.35
366.12	222.35
366.32	145.11
366.52	58.51
366.72	177.88
366.91	107.66
367.11	145.11
367.31	112.35
367.51	91.28
367.70	86.60
367.90	114.69
368.10	168.52
368.30	145.11
368.49	131.07
368.69	173.20
368.89	145.11
369.09	110.01
369.28	102.98
369.48	154.48
369.68	117.03
369.87	180.22
370.07	217.67
370.27	201.29
370.47	292.57
370.66	535.98
370.86	734.93
371.06	653.01
371.25	617.90
371.45	592.16
371.65	641.31
371.84	660.03
372.04	732.59
372.24	692.80
372.44	765.36
372.63	713.86
372.83	655.35
373.03	727.91
373.22	739.61
373.42	765.36
373.62	816.85
373.81	809.83
374.01	821.53
374.21	795.78
374.40	807.48
374.60	873.02
374.79	809.83
374.99	870.68
375.19	891.74
375.38	873.02
375.58	819.19
375.78	868.34
375.97	870.68
376.17	898.77
376.37	772.38
376.56	842.59
376.76	870.68
376.95	851.96
377.15	901.11
377.35	903.45
377.54	837.91
377.74	891.74
377.93	882.38
378.13	952.60
378.33	936.21
378.52	833.23
378.72	924.51
378.91	938.55
379.11	802.80
379.31	961.96
379.50	978.34
379.70	994.73
379.89	1078.99
380.09	999.41
380.28	889.40
380.48	990.05
380.68	1004.09
380.87	922.17
381.07	1074.31
381.26	1086.01
381.46	987.71
381.65	1020.47
381.85	1060.26
382.04	1062.60
382.24	1128.14
382.43	1118.78
382.63	1062.60
382.83	1050.90
383.02	1135.16
383.22	1076.65
383.41	1086.01
383.61	1139.84
383.80	1205.38
384.00	1137.50
384.19	1076.65
384.39	1046.22
384.58	1172.61
384.78	1097.71
384.97	1125.80
385.17	1153.88
385.36	1193.67
385.56	1156.22
385.75	1144.52
385.95	1174.95
386.14	1172.61
386.34	1226.44
386.53	1188.99
386.72	1261.55
386.92	1228.78
387.11	1280.27
387.31	1214.74
387.50	1224.10
387.70	1238.14
387.89	1327.08
388.09	1317.72
388.28	1174.95
388.48	1245.16
388.67	1343.47
388.86	1277.93
389.06	1334.11
389.25	1348.15
389.45	1369.21
389.64	1277.93
389.84	1371.55
390.03	1322.40
390.22	1437.09
390.42	1369.21
390.61	1270.91
390.81	1392.62
391.00	1364.53
391.19	1387.94
391.39	1462.83
391.58	1502.62
391.78	1495.60
391.97	1528.37
392.16	1458.15
392.36	1589.22
392.55	1530.71
392.75	1514.33
392.94	1554.12
393.13	1497.94
393.33	1504.96
393.52	1544.75
393.71	1500.28
393.91	1561.14
394.10	1544.75
394.29	1610.29
394.49	1582.20
394.68	1694.55
394.88	1561.14
395.07	1607.95
395.26	1647.74
395.46	1739.02
395.65	1743.70
395.84	1776.47
396.04	1792.85
396.23	1692.21
396.42	1795.19
396.62	1846.68
396.81	1813.92
397.00	1774.13
397.19	1729.66
397.39	1722.63
397.58	1788.17
397.77	1853.70
397.97	1809.23
398.16	1806.89
398.35	1837.32
398.55	1888.81
398.74	1984.77
398.93	1891.15
399.12	1926.26
399.32	1977.75
399.51	1884.13
399.70	2008.18
399.90	1968.39
400.09	1891.15
400.28	2064.35
400.47	2054.99
400.67	2078.40
400.86	2108.82
401.05	2207.13
401.24	2134.57
401.44	2080.74
401.63	2225.85
401.82	2162.66
402.01	2186.06
402.21	2090.10
402.40	2167.34
402.59	2134.57
402.78	2157.97
402.97	2275.00
403.17	2275.00
403.36	2211.81
403.55	2246.91
403.74	2406.07
403.93	2363.94
404.13	2340.54
404.32	2349.90
404.51	2406.07
404.70	2466.92
404.89	2300.75
405.09	2497.35
405.28	2373.30
405.47	2445.86
405.66	2478.63
405.85	2485.65
406.05	2607.36
406.24	2492.67
406.43	2523.10
406.62	2658.85
406.81	2710.34
407.00	2635.44
407.20	2621.40
407.39	2626.08
407.58	2722.04
407.77	2722.04
407.96	2719.70
408.15	2640.12
408.34	2747.79
408.54	2860.13
408.73	2810.98
408.92	2874.18
409.11	2834.39
409.30	2988.86
409.49	2913.97
409.68	2963.12
409.87	2972.48
410.07	2993.55
410.26	3038.02
410.45	2998.23
410.64	3028.65
410.83	3049.72
411.02	3063.76
411.21	3222.92
411.40	3136.32
411.59	3150.36
411.78	3101.21
411.98	3272.07
412.17	3185.47
412.36	3342.28
412.55	3393.78
412.74	3370.37
412.93	3368.03
413.12	3440.59
413.31	3459.31
413.50	3440.59
413.69	3398.46
413.88	3599.74
414.07	3634.85
414.26	3695.71
414.45	3566.98
414.64	3761.24
414.83	3819.75
415.02	3831.46
415.22	3763.58
415.41	3847.84
415.60	3889.97
415.79	3878.27
415.98	3918.06
416.17	4021.04
416.36	4133.39
416.55	4084.23
416.74	4189.56
416.93	4100.62
417.12	4198.92
417.31	4105.30
417.50	4203.60
417.69	4283.18
417.88	4386.16
418.07	4276.16
418.26	4252.75
418.45	4360.42
418.64	4526.60
418.83	4575.75
419.02	4322.97
419.21	4503.19
419.39	4514.89
419.58	4421.27
419.77	4264.46
419.96	4641.28
420.15	4762.99
420.34	4723.20
420.53	4683.41
420.72	4657.67
420.91	4634.26
421.10	4779.37
421.29	4816.82
421.48	4856.61
421.67	4884.70
421.86	4847.25
422.05	4704.48
422.24	4720.86
422.43	4950.23
422.61	5006.41
422.80	4957.25
422.99	4882.36
423.18	5043.85
423.37	4950.23
423.56	4894.06
423.75	5041.51
423.94	4915.12
424.13	4578.09
424.32	4800.44
424.50	5102.37
424.69	5055.56
424.88	5266.21
425.07	4945.55
425.26	4975.98
425.45	4959.60
425.64	4894.06
425.83	4959.60
426.01	5132.79
426.20	5170.24
426.39	5053.22
426.58	5083.64
426.77	5184.29
426.96	5135.14
427.15	5172.58
427.33	5020.45
427.52	5240.46
427.71	5261.52
427.90	5252.16
428.09	5446.43
428.28	5338.76
428.46	5317.70
428.65	5460.47
428.84	5647.71
429.03	5554.09
429.22	5317.70
429.40	5411.32
429.59	5294.29
429.78	5357.49
429.97	5284.93
430.16	5420.68
430.34	5584.52
430.53	5617.29
430.72	5530.69
430.91	5633.67
431.10	5738.99
431.28	5757.72
431.47	5947.30
431.66	6024.54
431.85	5762.40
432.03	5809.21
432.22	5949.64
432.41	5884.11
432.60	6008.16
432.79	5963.68
432.97	6127.52
433.16	6097.10
433.35	6045.60
433.54	6183.70
433.72	6153.27
433.91	6122.84
434.10	6195.40
434.28	5982.41
434.47	6298.38
434.66	6363.92
434.85	6459.88
435.03	6380.30
435.22	6289.02
435.41	6415.41
435.59	6340.51
435.78	6607.33
435.97	6520.73
436.16	6565.20
436.34	6509.03
436.53	6579.25
436.72	6665.85
436.90	6572.22
437.09	6576.91
437.28	6513.71
437.46	6630.74
437.65	6766.49
437.84	6757.13
438.02	6857.77
438.21	6927.99
438.40	6717.34
438.58	7005.22
438.77	7103.53
438.96	6946.71
439.14	7213.53
439.33	7206.51
439.52	7267.36
439.70	7295.45
439.89	7428.86
440.08	7461.63
440.26	7342.26
440.45	7520.14
440.63	7417.16
440.82	7576.31
441.01	7480.35
441.19	7665.25
441.38	7793.98
441.57	7808.03
441.75	8042.08
441.94	8105.28
442.12	7878.24
442.31	8063.15
442.50	8241.03
442.68	7819.73
442.87	7971.86
443.05	7969.52
443.24	8163.79
443.43	8112.30
443.61	8079.53
443.80	8496.14
443.98	7915.69
444.17	7934.42
444.35	8255.07
444.54	8372.10
444.73	8442.31
444.91	8299.54
445.10	8294.86
445.28	8397.84
445.47	8432.95
445.65	8540.61
445.84	8454.02
446.02	8620.19
446.21	8418.91
446.39	8383.80
446.58	8341.67
446.77	8381.46
446.95	8503.17
447.14	8470.40
447.32	8601.47
447.51	8645.94
447.69	8617.85
447.88	8620.19
448.06	8613.17
448.25	8414.23
448.43	8512.53
448.62	8650.62
448.80	8638.92
448.99	8887.01
449.17	8683.39
449.36	8564.02
449.54	8868.29
449.73	8901.06
449.91	9020.42
450.10	9100.00
450.28	9179.58
450.46	8997.02
450.65	9032.13
450.83	9132.77
451.02	9029.79
451.20	9315.33
451.39	9114.05
451.57	9085.96
451.76	8954.89
451.94	9085.96
452.13	9334.06
452.31	9355.12
452.49	9193.62
452.68	9231.07
452.86	9305.97
453.05	9483.85
453.23	9530.66
453.42	9530.66
453.60	9329.38
453.78	9610.24
453.97	9476.83
454.15	9628.96
454.34	9668.75
454.52	9776.42
454.70	9790.46
454.89	9500.23
455.07	9799.82
455.26	9806.84
455.44	10043.24
455.62	9975.36
455.81	10270.27
455.99	10033.88
456.17	10167.29
456.36	9994.09
456.54	10221.12
456.73	10195.37
456.91	10476.24
457.09	10368.57
457.28	10637.73
457.46	10253.89
457.64	10651.78
457.83	10516.03
458.01	10614.33
458.19	10633.05
458.38	10630.71
458.56	10785.19
458.74	10850.72
458.93	10677.52
459.11	10913.92
459.29	10719.65
459.48	10885.83
459.66	10846.04
459.84	11126.91
460.03	11197.12
460.21	10949.03
460.39	10890.51
460.57	10991.16
460.76	11075.42
460.94	11220.53
461.12	11314.15
461.31	11126.91
461.49	11147.97
461.67	11314.15
461.85	11623.10
462.04	11384.37
462.22	11421.81
462.40	11510.75
462.59	11515.44
462.77	11360.96
462.95	11681.61
463.13	11606.72
463.32	11735.45
463.50	11922.69
463.68	11925.03
463.86	11978.86
464.05	11576.29
464.23	11789.28
464.41	12102.91
464.59	11754.17
464.78	12451.65
464.96	12004.61
465.14	11988.22
465.32	12046.74
465.50	11983.54
465.69	12482.08
465.87	12222.28
466.05	12093.55
466.23	12507.82
466.41	12549.95
466.60	12599.10
466.78	12334.62
466.96	12135.68
467.14	12311.22
467.32	12601.44
467.51	12767.62
467.69	12231.64
467.87	12620.17
468.05	12683.36
468.23	12620.17
468.41	12659.96
468.60	12674.00
468.78	12816.77
468.96	12704.43
469.14	12933.80
469.32	13029.76
469.50	12655.28
469.69	12791.03
469.87	13247.43
470.05	13081.25
470.23	13195.94
470.41	13273.18
470.59	13631.28
470.77	13359.78
470.95	13212.32
471.14	13673.41
471.32	13081.25
471.50	13612.56
471.68	13532.98
471.86	13848.95
472.04	13624.26
472.22	14209.39
472.40	13706.18
472.58	13827.88
472.77	14235.14
472.95	14218.75
473.13	14490.26
473.31	13893.42
473.49	14178.97
473.67	14251.52
473.85	14094.71
474.03	14684.52
474.21	14551.11
474.39	15040.28
474.57	14633.03
474.75	15035.60
474.93	14960.70
475.12	15131.56
475.30	15225.18
475.48	15330.51
475.66	15180.71
475.84	15225.18
476.02	15304.76
476.20	15550.52
476.38	15878.19
476.56	16100.55
476.74	16208.21
476.92	16002.24
477.10	16035.01
477.28	16365.03
477.46	16219.91
477.64	16313.53
477.82	16702.06
478.00	17315.28
478.18	16905.69
478.36	16957.18
478.54	17221.66
478.72	17516.57
478.90	17874.67
479.08	17750.62
479.26	17790.41
479.44	18167.24
479.62	18164.90
479.80	18127.45
479.98	18375.55
480.16	18569.81
480.34	18139.15
480.52	18696.20
480.70	18775.78
480.88	18490.23
481.06	18743.01
481.24	18803.86
481.41	18958.34
481.59	19667.52
481.77	19789.23
481.95	19669.86
482.13	19552.84
482.31	19555.18
482.49	20252.66
482.67	20479.69
482.85	20568.63
483.03	20549.90
483.21	20891.62
483.39	21238.02
483.57	20849.49
483.74	21186.53
483.92	21460.37
484.10	21128.02
484.28	21834.86
484.46	21912.10
484.64	22377.86
484.82	21802.09
485.00	22384.88
485.18	22672.77
485.35	23246.20
485.53	23040.23
485.71	23157.26
485.89	23735.37
486.07	23515.36
486.25	23775.16
486.43	23941.34
486.61	23894.53
486.78	24128.58
486.96	24250.29
487.14	24592.01
487.32	24858.83
487.50	24840.11
487.68	24945.43
487.85	25359.70
488.03	25661.63
488.21	25879.30
488.39	25860.58
488.57	26089.95
488.75	26499.55
488.92	26569.76
489.10	26885.73
489.28	26888.07
489.46	27461.51
489.64	27325.75
489.81	28112.17
489.99	27992.81
490.17	27831.31
490.35	28283.03
490.53	28594.32
490.70	28320.48
490.88	28306.44
491.06	29331.59
491.24	29015.62
491.41	29336.27
491.59	29654.59
491.77	29565.65
491.95	29570.33
492.13	29989.28
492.30	30270.15
492.48	30300.58
492.66	30452.71
492.84	30663.36
493.01	31070.61
493.19	30642.29
493.37	31580.85
493.54	31679.15
493.72	31622.98
493.90	31828.95
494.08	32315.78
494.25	32187.05
494.43	32390.67
494.61	32411.74
494.79	32531.11
494.96	32739.41
495.14	33053.05
495.32	33443.91
495.49	33432.21
495.67	33352.63
495.85	33855.85
496.02	33947.13
496.20	34153.10
496.38	34410.56
496.55	34087.56
496.73	34993.35
496.91	34665.67
497.09	35005.05
497.26	35115.06
497.44	35019.10
497.62	35461.46
497.79	36172.98
497.97	35550.40
498.14	36402.35
498.32	36301.71
498.50	36339.16
498.67	36973.44
498.85	36243.20
499.03	37277.71
499.20	36945.36
499.38	37411.12
499.56	37064.72
499.73	37418.14
499.91	37680.28
500.08	37514.11
500.26	37708.37
500.44	37687.31
500.61	37984.55
500.79	37551.56
500.97	38124.99
501.14	38888.00
501.32	38717.14
501.49	38665.65
501.67	38698.42
501.84	39306.96
502.02	39316.32
502.20	39365.47
502.37	39372.49
502.55	38906.73
502.72	40165.93
502.90	39864.00
503.07	39974.01
503.25	40046.57
503.43	40126.14
503.60	40126.14
503.78	40678.51
503.95	40575.53
504.13	40863.41
504.30	41031.93
504.48	41024.91
504.65	40751.07
504.83	41223.86
505.01	41474.29
505.18	41858.14
505.36	41811.33
505.53	41235.56
505.71	41771.54
505.88	42401.14
506.06	41696.64
506.23	42508.81
506.41	42050.06
506.58	42256.03
506.76	42412.85
506.93	42663.28
507.11	42597.75
507.28	42412.85
507.46	42597.75
507.63	43480.13
507.81	43438.00
507.98	43402.89
508.16	42897.34
508.33	43693.12
508.50	43409.92
508.68	44170.59
508.85	44186.97
509.03	43936.54
509.20	44589.55
509.38	44638.70
509.55	44769.77
509.73	44856.37
509.90	44697.21
510.08	44980.42
510.25	44914.88
510.42	44905.52
510.60	45059.99
510.77	45617.04
510.95	45507.04
511.12	45390.01
511.30	45394.69
511.47	45890.88
511.64	45886.20
511.82	46515.81
511.99	45652.15
512.17	46337.93
512.34	45923.65
512.51	46693.69
512.69	46436.23
512.86	46501.76
513.04	46969.87
513.21	47042.43
513.38	46667.94
513.56	46995.62
513.73	46974.55
513.90	47208.61
514.08	46876.25
514.25	47213.29
514.43	47718.84
514.60	47657.99
514.77	47592.45
514.95	47796.08
515.12	47393.51
515.29	47992.68
515.47	48404.62
515.64	48683.14
515.81	48175.25
515.99	48245.46
516.16	48821.23
516.33	48542.71
516.51	48807.19
516.68	48980.39
516.85	48844.64
517.03	49022.52
517.20	49066.99
517.37	48961.67
517.54	48954.64
517.72	49031.88
517.89	49399.35
518.06	49504.67
518.24	49710.64
518.41	49736.38
518.58	49649.78
518.75	49546.80
518.93	49727.02
519.10	49797.24
519.27	49961.08
519.45	50033.63
519.62	49942.35
519.79	50057.04
519.96	50426.84
520.14	50539.19
520.31	50148.32
520.48	50728.77
520.65	50396.42
520.83	50745.15
521.00	50712.39
521.17	50796.65
521.34	50642.17
521.52	50892.61
521.69	50972.19
521.86	51152.41
522.03	51274.12
522.20	51613.49
522.38	51447.32
522.55	51557.32
522.72	51674.35
522.89	51569.02
523.07	51669.67
523.24	51906.06
523.41	51819.46
523.58	51885.00
523.75	51995.00
523.92	51906.06
524.10	52332.04
524.27	52229.05
524.44	52151.82
524.61	52648.01
524.78	52502.90
524.96	52608.22
525.13	52528.64
525.30	52568.43
525.47	52559.07
525.64	52622.26
525.81	52914.83
525.98	52945.26
526.16	52914.83
526.33	52669.08
526.50	53137.18
526.67	52793.12
526.84	53001.43
527.01	52879.72
527.18	53102.07
527.36	53116.12
527.53	53354.85
527.70	53476.56
527.87	53504.65
528.04	53535.07
528.21	53633.38
528.38	53535.07
528.55	53586.57
528.72	53560.82
528.89	53607.63
529.07	53605.29
529.24	53387.62
529.41	53947.01
529.58	53851.05
529.75	54085.10
529.92	53963.39
530.09	53993.82
530.26	54075.74
530.43	54244.26
530.60	53694.23
530.77	54017.22
530.94	54405.75
531.11	54230.21
531.28	54527.46
531.46	54513.42
531.63	54466.61
531.80	54560.23
531.97	54461.93
532.14	54717.04
532.31	54468.95
532.48	54869.18
532.65	54843.43
532.82	54803.64
532.99	54787.26
533.16	54674.91
533.33	54857.48
533.50	55222.60
533.67	54995.57
533.84	54969.82
534.01	55084.51
534.18	55164.09
534.35	55611.13
534.52	55360.69
534.69	55220.26
534.86	55377.08
535.03	55229.62
535.20	55311.54
535.37	55313.88
535.54	55833.48
535.71	55377.08
535.88	55751.56
536.05	55615.81
536.22	55763.26
536.38	55636.87
536.55	55847.52
536.72	55803.05
536.89	55707.09
537.06	55866.25
537.23	56095.62
537.40	55636.87
537.57	55821.78
537.74	55828.80
537.91	56133.07
538.08	55941.14
538.25	55847.52
538.42	56224.35
538.59	56027.74
538.75	55959.87
538.92	56147.11
539.09	56280.52
539.26	56207.97
539.43	56500.53
539.60	56170.52
539.77	56233.71
539.94	56809.48
540.11	56509.89
540.28	56488.83
540.44	56647.99
540.61	56559.05
540.78	56500.53
540.95	56704.16
541.12	56535.64
541.29	56460.74
541.46	56687.78
541.62	56481.81
541.79	56952.26
541.96	56617.56
542.13	56547.34
542.30	57013.11
542.47	56804.80
542.63	57041.20
542.80	57022.47
542.97	57233.12
543.14	57343.12
543.31	57345.47
543.48	57312.70
543.64	57537.39
543.81	57588.88
543.98	57354.83
544.15	57542.07
544.32	57659.10
544.48	57712.93
544.65	57151.20
544.82	57530.37
544.99	57233.12
545.16	57542.07
545.32	57513.98
545.49	57904.85
545.66	57897.83
545.83	57577.18
546.00	57991.45
546.16	57780.81
546.33	57846.34
546.50	57710.59
546.67	57783.15
546.83	57668.46
547.00	57949.32
547.17	57766.76
547.34	57968.05
547.50	58244.23
547.67	58106.14
547.84	58190.40
548.00	58319.13
548.17	58365.94
548.34	58164.65
548.51	58419.77
548.67	58234.87
548.84	58461.90
549.01	58272.32
549.18	58251.25
549.34	58635.10
549.51	58384.66
549.68	58504.03
549.84	58328.49
550.01	58691.27
550.18	58499.35
550.34	58609.35
550.51	58635.10
550.68	58585.95
550.84	58382.32
551.01	58623.40
551.18	58646.80
551.34	58688.93
551.51	58681.91
551.68	58798.94
551.84	58506.37
552.01	58592.97
552.18	58777.87
552.34	58686.59
552.51	59133.63
552.68	58749.79
552.84	58892.56
553.01	59110.23
553.18	59056.40
553.34	59011.93
553.51	58878.52
553.67	59068.10
553.84	58969.80
554.01	59063.42
554.17	59264.70
554.34	59220.23
554.51	59189.81
554.67	59096.19
554.84	59229.60
555.00	59138.32
555.17	59178.10
555.33	59166.40
555.50	59014.27
555.67	59346.62
555.83	59007.25
556.00	59213.21
556.16	59681.32
556.33	59693.02
556.50	59440.24
556.66	59718.77
556.83	59274.07
556.99	59468.33
557.16	59522.16
557.32	59643.87
557.49	59655.57
557.65	59173.42
557.82	59634.51
557.98	59561.95
558.15	59465.99
558.32	59587.70
558.48	59634.51
558.65	59620.47
558.81	59796.01
558.98	59686.00
559.14	59849.84
559.31	59941.12
559.47	59913.03
559.64	59767.92
559.80	59868.56
559.97	59849.84
560.13	59803.03
560.30	59718.77
560.46	60055.81
560.63	59934.10
560.79	59957.50
560.96	59868.56
561.12	59971.55
561.29	59955.16
561.45	59891.97
561.61	60009.00
561.78	59964.52
561.94	59903.67
562.11	60058.15
562.27	60083.89
562.44	60107.30
562.60	60116.66
562.77	60121.34
562.93	60046.44
563.10	60357.74
563.26	60020.70
563.42	60413.91
563.59	60121.34
563.75	60285.18
563.92	60196.24
564.08	59955.16
564.24	60207.94
564.41	60299.22
564.57	60212.62
564.74	60306.24
564.90	60229.01
565.07	60268.79
565.23	60301.56
565.39	60362.42
565.56	60456.04
565.72	60413.91
565.88	60399.86
566.05	60301.56
566.21	60341.35
566.38	60313.26
566.54	60491.15
566.70	60516.89
566.87	60367.10
567.03	60217.30
567.19	60650.30
567.36	60573.06
567.52	60376.46
567.68	60828.18
567.85	60577.75
568.01	60690.09
568.17	60296.88
568.34	60828.18
568.50	60484.12
568.66	60577.75
568.83	60786.05
568.99	60434.97
569.15	60626.90
569.32	60725.20
569.48	60259.43
569.64	60523.91
569.81	60547.32
569.97	60472.42
570.13	60720.52
570.30	60568.38
570.46	60772.01
570.62	60786.05
570.78	60577.75
570.95	60622.22
571.11	60734.56
571.27	60523.91
571.43	60587.11
571.60	60757.97
571.76	60757.97
571.92	60786.05
572.09	60608.17
572.25	60858.61
572.41	60629.24
572.57	60860.95
572.74	60954.57
572.90	60591.79
573.06	60767.33
573.22	60662.00
573.38	60814.14
573.55	60764.99
573.71	60914.78
573.87	60561.36
574.03	60563.70
574.20	60835.20
574.36	60860.95
574.52	61048.19
574.68	61118.41
574.84	61029.47
575.01	60795.42
575.17	60907.76
575.33	60910.10
575.49	60729.88
575.65	60966.27
575.82	60865.63
575.98	60760.31
576.14	61104.37
576.30	60818.82
576.46	60982.66
576.62	60853.93
576.79	60760.31
576.95	60741.58
577.11	60830.52
577.27	60914.78
577.43	60898.40
577.59	60837.54
577.75	60776.69
577.92	60956.91
578.08	60952.23
578.24	60935.85
578.40	60999.04
578.56	61095.00
578.72	60928.83
578.88	61144.16
579.04	61141.81
579.21	60952.23
579.37	60977.98
579.53	61247.14
579.69	60779.03
579.85	61027.13
580.01	60963.93
580.17	60886.70
580.33	61099.68
580.49	61062.24
580.65	61069.26
580.82	61048.19
580.98	61216.71
581.14	61017.77
581.30	60992.02
581.46	61022.45
581.62	61043.51
581.78	61038.83
581.94	60963.93
582.10	60828.18
582.26	60996.70
582.42	61076.28
582.58	61230.75
582.74	61069.26
582.90	61289.27
583.06	61057.56
583.22	60825.84
583.38	61071.60
583.54	60992.02
583.70	61111.39
583.86	61134.79
584.02	60980.32
584.18	61078.62
584.34	61069.26
584.50	61050.53
584.66	61006.06
584.82	61027.13
584.98	61134.79
585.14	61240.12
585.30	60940.53
585.46	61127.77
585.62	61179.26
585.78	61298.63
585.94	61188.63
586.10	61132.45
586.26	61151.18
586.42	61382.89
586.58	61240.12
586.74	61331.40
586.90	61106.71
587.06	61207.35
587.22	61333.74
587.38	61104.37
587.54	61385.23
587.70	61233.10
587.86	61160.54
588.02	60961.59
588.18	61382.89
588.34	61139.47
588.49	61167.56
