SpectraSuite Data File
++++++++++++++++++++++++++++++++++++
Date: Fri Oct 25 11:33:50 EDT 2013
User: price-jones
Dark Spectrum Present: No
Reference Spectrum Present: No
Number of Sampled Component Spectra: 1
Spectrometers: USB2+H05261
Integration Time (usec): 100000 (USB2+H05261)
Spectra Averaged: 1 (USB2+H05261)
Boxcar Smoothing: 0 (USB2+H05261)
Correct for Electrical Dark: No (USB2+H05261)
Strobe/Lamp Enabled: No (USB2+H05261)
Correct for Detector Non-linearity: No (USB2+H05261)
Correct for Stray Light: No (USB2+H05261)
Number of Pixels in Processed Spectrum: 2048
>>>>>Begin Processed Spectral Data<<<<<
365.73	273.84
365.92	273.84
366.12	273.84
366.32	227.03
366.52	107.66
366.72	222.35
366.91	163.84
367.11	191.92
367.31	184.90
367.51	203.63
367.70	133.41
367.90	191.92
368.10	86.60
368.30	187.24
368.49	180.22
368.69	196.60
368.89	191.92
369.09	175.54
369.28	170.86
369.48	224.69
369.68	212.99
369.87	217.67
370.07	224.69
370.27	271.50
370.47	285.55
370.66	430.66
370.86	491.51
371.06	580.45
371.25	589.82
371.45	526.62
371.65	585.13
371.84	540.66
372.04	521.94
372.24	524.28
372.44	622.58
372.63	582.79
372.83	568.75
373.03	601.52
373.22	561.73
373.42	594.50
373.62	561.73
373.81	585.13
374.01	688.12
374.21	610.88
374.40	648.33
374.60	688.12
374.79	657.69
374.99	645.99
375.19	603.86
375.38	655.35
375.58	650.67
375.78	699.82
375.97	636.63
376.17	812.17
376.37	617.90
376.56	603.86
376.76	695.14
376.95	638.97
377.15	695.14
377.35	636.63
377.54	660.03
377.74	622.58
377.93	669.39
378.13	695.14
378.33	697.48
378.52	748.97
378.72	725.57
378.91	699.82
379.11	685.78
379.31	636.63
379.50	657.69
379.70	746.63
379.89	716.20
380.09	730.25
380.28	688.12
380.48	763.01
380.68	641.31
380.87	767.70
381.07	753.65
381.26	781.74
381.46	821.53
381.65	816.85
381.85	765.36
382.04	662.37
382.24	739.61
382.43	777.06
382.63	828.55
382.83	795.78
383.02	861.32
383.22	863.66
383.41	807.48
383.61	903.45
383.80	887.06
384.00	770.04
384.19	777.06
384.39	833.23
384.58	774.72
384.78	847.27
384.97	844.93
385.17	854.30
385.36	788.76
385.56	889.40
385.75	837.91
385.95	887.06
386.14	880.04
386.34	873.02
386.53	851.96
386.72	837.91
386.92	863.66
387.11	933.87
387.31	968.98
387.50	814.51
387.70	847.27
387.89	901.11
388.09	894.08
388.28	905.79
388.48	896.43
388.67	882.38
388.86	882.38
389.06	950.26
389.25	947.92
389.45	877.70
389.64	945.58
389.84	947.92
390.03	910.47
390.22	926.85
390.42	1001.75
390.61	945.58
390.81	1027.50
391.00	1001.75
391.19	992.39
391.39	1078.99
391.58	1043.88
391.78	1149.20
391.97	1036.86
392.16	1053.24
392.36	1123.46
392.55	1022.81
392.75	1069.62
392.94	1011.11
393.13	1006.43
393.33	1060.26
393.52	1050.90
393.71	1060.26
393.91	1062.60
394.10	1132.82
394.29	1071.97
394.49	1125.80
394.68	1130.48
394.88	1097.71
395.07	1207.72
395.26	1116.44
395.46	1263.89
395.65	1203.04
395.84	1228.78
396.04	1254.53
396.23	1203.04
396.42	1181.97
396.62	1203.04
396.81	1193.67
397.00	1093.03
397.19	1210.06
397.39	1291.98
397.58	1163.25
397.77	1238.14
397.97	1322.40
398.16	1254.53
398.35	1294.32
398.55	1343.47
398.74	1310.70
398.93	1373.89
399.12	1289.64
399.32	1263.89
399.51	1303.68
399.70	1343.47
399.90	1306.02
400.09	1383.26
400.28	1373.89
400.47	1362.19
400.67	1380.92
400.86	1416.02
401.05	1535.39
401.24	1399.64
401.44	1392.62
401.63	1446.45
401.82	1497.94
402.01	1425.39
402.21	1406.66
402.40	1502.62
402.59	1371.55
402.78	1490.92
402.97	1537.73
403.17	1509.65
403.36	1507.30
403.55	1645.40
403.74	1565.82
403.93	1551.78
404.13	1561.14
404.32	1584.54
404.51	1636.03
404.70	1528.37
404.89	1533.05
405.09	1687.53
405.28	1668.80
405.47	1795.19
405.66	1554.12
405.85	1678.16
406.05	1652.42
406.24	1636.03
406.43	1750.72
406.62	1748.38
406.81	1842.00
407.00	1764.76
407.20	1748.38
407.39	1769.44
407.58	1802.21
407.77	1825.62
407.96	1844.34
408.15	1902.86
408.34	1902.86
408.54	1853.70
408.73	1879.45
408.92	1949.67
409.11	1905.20
409.30	1912.22
409.49	2005.84
409.68	2129.89
409.87	2038.61
410.07	2052.65
410.26	2092.44
410.45	1989.46
410.64	2146.27
410.83	2101.80
411.02	2195.42
411.21	2120.53
411.40	2169.68
411.59	2139.25
411.78	2115.84
411.98	2179.04
412.17	2275.00
412.36	2286.70
412.55	2174.36
412.74	2218.83
412.93	2286.70
413.12	2427.14
413.31	2495.01
413.50	2457.56
413.69	2413.09
413.88	2532.46
414.07	2492.67
414.26	2541.82
414.45	2527.78
414.64	2663.53
414.83	2480.97
415.02	2583.95
415.22	2628.42
415.41	2630.76
415.60	2689.28
415.79	2600.34
415.98	2722.04
416.17	2780.56
416.36	2675.23
416.55	2719.70
416.74	2778.22
416.93	2806.30
417.12	2839.07
417.31	2839.07
417.50	2986.52
417.69	3019.29
417.88	2939.71
418.07	2843.75
418.26	2920.99
418.45	3016.95
418.64	3035.67
418.83	2965.46
419.02	3014.61
419.21	3066.10
419.39	3119.93
419.58	3016.95
419.77	3129.30
419.96	3229.94
420.15	3117.59
420.34	3260.37
420.53	3332.92
420.72	3316.54
420.91	3332.92
421.10	3204.19
421.29	3339.94
421.48	3105.89
421.67	3391.44
421.86	3307.18
422.05	3346.97
422.24	3295.47
422.43	3428.88
422.61	3300.16
422.80	3520.17
422.99	3330.58
423.18	3440.59
423.37	3452.29
423.56	3368.03
423.75	3386.76
423.94	3358.67
424.13	3208.87
424.32	3220.58
424.50	3386.76
424.69	3468.67
424.88	3541.23
425.07	3379.73
425.26	3468.67
425.45	3414.84
425.64	3407.82
425.83	3438.25
426.01	3466.33
426.20	3487.40
426.39	3529.53
426.58	3461.65
426.77	3466.33
426.96	3527.19
427.15	3487.40
427.33	3646.55
427.52	3562.30
427.71	3574.00
427.90	3644.21
428.09	3772.94
428.28	3674.64
428.46	3559.95
428.65	3639.53
428.84	3784.65
429.03	3833.80
429.22	3524.85
429.40	3702.73
429.59	3623.15
429.78	3597.40
429.97	3609.11
430.16	3709.75
430.34	3808.05
430.53	3831.46
430.72	3866.56
430.91	3918.06
431.10	3779.97
431.28	3866.56
431.47	4011.68
431.66	3899.33
431.85	3988.27
432.03	4086.58
432.22	4154.45
432.41	4025.72
432.60	3992.95
432.79	4098.28
432.97	4018.70
433.16	4135.73
433.35	4105.30
433.54	4156.79
433.72	4035.08
433.91	4081.89
434.10	4252.75
434.28	4210.62
434.47	4191.90
434.66	4107.64
434.85	4159.13
435.03	4159.13
435.22	4353.40
435.41	4461.06
435.59	4379.14
435.78	4334.67
435.97	4362.76
436.16	4374.46
436.34	4344.03
436.53	4482.13
436.72	4428.29
436.90	4458.72
437.09	4589.79
437.28	4566.39
437.46	4496.17
437.65	4606.17
437.84	4507.87
438.02	4657.67
438.21	4631.92
438.40	4615.54
438.58	4868.31
438.77	4746.61
438.96	4762.99
439.14	4732.56
439.33	4821.50
439.52	4952.57
439.70	4828.53
439.89	5036.83
440.08	5205.35
440.26	5048.54
440.45	4915.12
440.63	5029.81
440.82	5156.20
441.01	5022.79
441.19	5277.91
441.38	5118.75
441.57	5256.84
441.75	5291.95
441.94	5371.53
442.12	5378.55
442.31	5607.92
442.50	5301.31
442.68	5469.83
442.87	5296.63
443.05	5570.48
443.24	5488.56
443.43	5603.24
443.61	5717.93
443.80	5631.33
443.98	5514.30
444.17	5467.49
444.35	5654.73
444.54	5731.97
444.73	5453.45
444.91	5619.63
445.10	5694.52
445.28	5682.82
445.47	5579.84
445.65	5631.33
445.84	5781.12
446.02	5685.16
446.21	5523.66
446.39	5713.25
446.58	5942.62
446.77	5687.50
446.95	5572.82
447.14	5687.50
447.32	5820.91
447.51	5757.72
447.69	5743.67
447.88	5731.97
448.06	5806.87
448.25	5790.49
448.43	5661.76
448.62	5675.80
448.80	5870.06
448.99	5706.23
449.17	5874.74
449.36	5710.91
449.54	5900.49
449.73	5989.43
449.91	5996.45
450.10	6104.12
450.28	6085.39
450.46	6167.31
450.65	6057.31
450.83	6160.29
451.02	6090.07
451.20	6214.12
451.39	6148.59
451.57	6106.46
451.76	6171.99
451.94	6218.80
452.13	6221.14
452.31	6296.04
452.49	6183.70
452.68	6413.07
452.86	6349.87
453.05	6387.32
453.23	6394.34
453.42	6410.73
453.60	6270.30
453.78	6293.70
453.97	6396.68
454.15	6427.11
454.34	6387.32
454.52	6583.93
454.70	6431.79
454.89	6609.67
455.07	6576.91
455.26	6616.69
455.44	6740.74
455.62	6630.74
455.81	6541.80
455.99	6640.10
456.17	6843.73
456.36	6965.43
456.54	6857.77
456.73	6836.70
456.91	6829.68
457.09	7145.66
457.28	7066.08
457.46	6951.39
457.64	7178.42
457.83	7091.82
458.01	6920.96
458.19	7276.73
458.38	7183.10
458.56	7159.70
458.74	7234.60
458.93	7178.42
459.11	7258.00
459.29	7246.30
459.48	7187.79
459.66	7091.82
459.84	7377.37
460.03	7501.42
460.21	7478.01
460.39	7419.50
460.57	7396.09
460.76	7564.61
460.94	7431.20
461.12	7435.88
461.31	7454.61
461.49	7733.13
461.67	7508.44
461.85	7545.89
462.04	7480.35
462.22	7969.52
462.40	7747.17
462.59	7826.75
462.77	7660.57
462.95	7801.01
463.13	7735.47
463.32	7796.32
463.50	8021.02
463.68	7990.59
463.86	7871.22
464.05	7742.49
464.23	7805.69
464.41	7971.86
464.59	7836.11
464.78	8126.34
464.96	7985.91
465.14	8037.40
465.32	8042.08
465.50	8039.74
465.69	8074.85
465.87	8021.02
466.05	8140.38
466.23	8173.15
466.41	8147.40
466.60	8304.22
466.78	8154.43
466.96	8131.02
467.14	8238.69
467.32	8334.65
467.51	8276.13
467.69	8198.90
467.87	8442.31
468.05	8503.17
468.23	8334.65
468.41	8418.91
468.60	8360.39
468.78	8533.59
468.96	8339.33
469.14	8423.59
469.32	8613.17
469.50	8432.95
469.69	8676.37
469.87	8734.88
470.05	8617.85
470.23	8676.37
470.41	8903.40
470.59	8954.89
470.77	8681.05
470.95	8793.39
471.14	9163.20
471.32	8774.67
471.50	9128.09
471.68	8898.72
471.86	9184.26
472.04	9076.60
472.22	9174.90
472.40	8889.35
472.58	9069.58
472.77	9312.99
472.95	9352.78
473.13	9493.21
473.31	9401.93
473.49	9563.43
473.67	9411.29
473.85	9359.80
474.03	9699.18
474.21	9687.48
474.39	9722.59
474.57	9874.72
474.75	9816.21
474.93	10134.52
475.12	9851.31
475.30	10050.26
475.48	9898.13
475.66	10113.45
475.84	10090.05
476.02	10193.03
476.20	10239.84
476.38	10399.00
476.56	10600.29
476.74	10494.96
476.92	10359.21
477.10	10523.05
477.28	10848.38
477.46	10719.65
477.64	10778.17
477.82	10876.47
478.00	11180.74
478.18	10846.04
478.36	11311.81
478.54	11225.21
478.72	11513.10
478.90	11477.99
479.08	11501.39
479.26	11534.16
479.44	11721.40
479.62	11733.11
479.80	11939.07
479.98	11737.79
480.16	12149.72
480.34	11920.35
480.52	12217.60
480.70	12231.64
480.88	12013.97
481.06	12402.50
481.24	12257.39
481.41	12685.70
481.59	12514.84
481.77	12812.09
481.95	12603.78
482.13	13027.42
482.31	13027.42
482.49	13167.85
482.67	13331.69
482.85	13453.40
483.03	13376.16
483.21	13940.23
483.39	13919.17
483.57	13724.90
483.74	13963.64
483.92	13944.91
484.10	13895.76
484.28	14101.73
484.46	14410.68
484.64	14609.62
484.82	14663.46
485.00	14698.56
485.18	14878.79
485.35	15145.61
485.53	15002.83
485.71	15112.84
485.89	15192.42
486.07	15426.47
486.25	15452.22
486.43	15686.27
486.61	15534.14
486.78	15939.05
486.96	15709.68
487.14	15967.13
487.32	15868.83
487.50	16460.99
487.68	16322.90
487.85	16849.52
488.03	16589.72
488.21	16666.95
488.39	16877.60
488.57	17121.02
488.75	17003.99
488.92	17577.42
489.10	17521.25
489.28	17694.45
489.46	17771.69
489.64	17584.44
489.81	18047.87
489.99	17951.91
490.17	18223.41
490.35	18176.60
490.53	18398.95
490.70	18654.07
490.88	18412.99
491.06	18967.70
491.24	18459.81
491.41	19236.86
491.59	19271.97
491.77	19271.97
491.95	19372.61
492.13	19445.17
492.30	19803.27
492.48	19552.84
492.66	19742.42
492.84	19997.54
493.01	20093.50
493.19	20140.31
493.37	20395.43
493.54	20655.23
493.72	20819.07
493.90	20758.21
494.08	20989.92
494.25	20695.02
494.43	20912.69
494.61	21006.31
494.79	21390.16
494.96	21172.49
495.14	21575.06
495.32	21682.72
495.49	21841.88
495.67	21490.80
495.85	21933.16
496.02	22125.08
496.20	22239.77
496.38	22445.74
496.55	22185.94
496.73	23068.32
496.91	22441.06
497.09	22993.42
497.26	22946.61
497.44	22745.33
497.62	23159.60
497.79	23513.02
497.97	22857.67
498.14	23660.48
498.32	23697.92
498.50	24030.28
498.67	23969.43
498.85	23854.74
499.03	24198.80
499.20	24163.69
499.38	24144.97
499.56	24615.41
499.73	23967.09
499.91	24582.65
500.08	24613.07
500.26	24435.19
500.44	24823.72
500.61	24709.04
500.79	24889.26
500.97	24936.07
501.14	25336.30
501.32	25319.92
501.49	25458.01
501.67	25666.31
501.84	25149.06
502.02	25469.71
502.20	25450.99
502.37	25865.26
502.55	25912.07
502.72	25898.03
502.90	25970.58
503.07	26174.21
503.25	26108.68
503.43	25867.60
503.60	26590.83
503.78	26307.62
503.95	26340.39
504.13	26469.12
504.30	26443.37
504.48	26625.93
504.65	26838.92
504.83	26899.78
505.01	26899.78
505.18	27021.48
505.36	27145.53
505.53	26962.97
505.71	27056.59
505.88	27370.22
506.06	26967.65
506.23	27653.43
506.41	27571.51
506.58	27828.97
506.76	27875.78
506.93	28273.67
507.11	27838.33
507.28	28041.96
507.46	28088.77
507.63	27960.04
507.81	28236.22
507.98	28168.35
508.16	28460.91
508.33	28690.29
508.50	28725.39
508.68	29015.62
508.85	29172.44
509.03	28882.21
509.20	29116.26
509.38	29282.44
509.55	29039.03
509.73	28982.85
509.90	29247.33
510.08	29198.18
510.25	29638.20
510.42	29635.86
510.60	29741.19
510.77	29799.70
510.95	29628.84
511.12	29504.79
511.30	30225.68
511.47	29883.96
511.64	29851.19
511.82	30614.21
511.99	30583.78
512.17	30345.05
512.34	30286.53
512.51	30883.37
512.69	30499.52
512.86	30815.49
513.04	30913.80
513.21	30726.55
513.38	31173.60
513.56	30824.86
513.73	30932.52
513.90	31014.44
514.08	31094.02
514.25	31494.25
514.43	31318.71
514.60	31461.48
514.77	31522.34
514.95	31756.39
515.12	31644.04
515.29	31838.31
515.47	31936.61
515.64	32067.68
515.81	31679.15
515.99	32187.05
516.16	32308.76
516.33	31976.40
516.51	32634.09
516.68	32395.35
516.85	32442.17
517.03	32449.19
517.20	32322.80
517.37	32442.17
517.54	32730.05
517.72	32870.48
517.89	32840.06
518.06	33090.49
518.24	32907.93
518.41	33291.78
518.58	33177.09
518.75	32755.80
518.93	32842.40
519.10	33233.27
519.27	33429.87
519.45	33336.25
519.62	34157.78
519.79	33565.62
519.96	33624.14
520.14	33516.47
520.31	33312.84
520.48	33963.51
520.65	34043.09
520.83	34850.58
521.00	34197.57
521.17	34513.54
521.34	34506.52
521.52	34316.93
521.69	34494.82
521.86	34558.01
522.03	34817.81
522.20	34443.32
522.38	35075.27
522.55	35105.70
522.72	34597.80
522.89	34939.52
523.07	34937.18
523.24	35115.06
523.41	34946.54
523.58	35196.98
523.75	35278.89
523.92	35482.52
524.10	35599.55
524.27	35962.33
524.44	35342.09
524.61	35716.58
524.78	35306.98
524.96	35866.37
525.13	36126.17
525.30	36259.58
525.47	35557.42
525.64	35742.32
525.81	36196.38
525.98	36383.63
526.16	36404.69
526.33	36091.06
526.50	36252.56
526.67	36175.32
526.84	36620.02
527.01	36584.91
527.18	36500.65
527.36	36570.87
527.53	36985.15
527.70	36968.76
527.87	37055.36
528.04	36833.01
528.21	37172.39
528.38	36975.78
528.55	37254.31
528.72	37209.84
528.89	37151.32
529.07	37001.53
529.24	37354.95
529.41	37275.37
529.58	37593.68
529.75	37401.76
529.92	37708.37
530.09	37315.16
530.26	37532.83
530.43	37432.19
530.60	37720.07
530.77	37455.59
530.94	37914.34
531.11	37565.60
531.28	37895.61
531.46	38220.95
531.63	38033.71
531.80	38117.96
531.97	38440.96
532.14	38218.61
532.31	38253.72
532.48	38621.18
532.65	38527.56
532.82	38305.21
532.99	38698.42
533.16	38185.84
533.33	38574.37
533.50	38527.56
533.67	38621.18
533.84	38705.44
534.01	38527.56
534.18	38813.10
534.35	38796.72
534.52	38630.54
534.69	39210.99
534.86	39306.96
535.03	38927.79
535.20	38967.58
535.37	39351.43
535.54	39648.68
535.71	39335.04
535.88	39620.59
536.05	39786.77
536.22	39414.62
536.38	39817.19
536.55	39597.18
536.72	39557.39
536.89	39615.91
537.06	39643.99
537.23	40088.70
537.40	39470.79
537.57	39812.51
537.74	39641.65
537.91	40598.93
538.08	40203.38
538.25	39702.51
538.42	40231.47
538.59	40371.90
538.75	40095.72
538.92	40016.14
539.09	40079.33
539.26	40254.87
539.43	40060.61
539.60	40294.66
539.77	40493.61
539.94	40772.13
540.11	40622.34
540.28	40645.74
540.44	40512.33
540.61	40935.97
540.78	40711.28
540.95	41031.93
541.12	40390.62
541.29	40795.54
541.46	40697.24
541.62	41261.30
541.79	41359.61
541.96	40463.18
542.13	40580.21
542.30	40638.72
542.47	41722.39
542.63	41158.32
542.80	41453.23
542.97	41504.72
543.14	41785.58
543.31	41607.70
543.48	41741.11
543.64	41982.19
543.81	41916.65
543.98	42085.17
544.15	41722.39
544.32	41787.92
544.48	42321.57
544.65	42220.92
544.82	41944.74
544.99	42146.03
545.16	42546.26
545.32	42195.18
545.49	42396.46
545.66	42686.69
545.83	42745.20
546.00	42344.97
546.16	42574.34
546.33	42572.00
546.50	42450.30
546.67	42745.20
546.83	42330.93
547.00	42593.07
547.17	42670.31
547.34	42649.24
547.50	43098.62
547.67	43274.16
547.84	42759.25
548.00	43068.20
548.17	42965.21
548.34	43346.72
548.51	43606.52
548.67	43253.10
548.84	42944.15
549.01	42862.23
549.18	43070.54
549.34	43248.42
549.51	43515.24
549.68	43414.60
549.84	43246.08
550.01	43402.89
550.18	43115.01
550.34	43423.96
550.51	43648.65
550.68	43583.12
550.84	43325.66
551.01	43721.21
551.18	43035.43
551.34	43257.78
551.51	43798.44
551.68	44114.42
551.84	43761.00
552.01	43599.50
552.18	43543.33
552.34	43618.22
552.51	44156.55
552.68	43496.52
552.84	44032.50
553.01	44027.82
553.18	44341.45
553.34	44247.83
553.51	44058.24
553.67	43896.75
553.84	44397.62
554.01	44280.60
554.17	44390.60
554.34	44514.65
554.51	44465.50
554.67	45205.11
554.84	44919.56
555.00	44444.43
555.17	44395.28
555.33	44891.48
555.50	44823.60
555.67	44416.35
555.83	44718.28
556.00	44608.27
556.16	44921.90
556.33	44786.15
556.50	44414.01
556.66	44875.09
556.83	44488.90
556.99	45113.83
557.16	45148.93
557.32	45083.40
557.49	45184.04
557.65	44399.96
557.82	44842.32
557.98	44893.82
558.15	44800.19
558.32	45294.05
558.48	45048.29
558.65	45312.77
558.81	45207.45
558.98	45036.59
559.14	44725.30
559.31	45118.51
559.47	45223.83
559.64	45020.20
559.80	45305.75
559.97	45022.54
560.13	45212.13
560.30	45242.56
560.46	45544.48
560.63	45605.34
560.79	45654.49
560.96	45544.48
561.12	45617.04
561.29	45525.76
561.45	45375.97
561.61	45427.46
561.78	45633.42
561.94	45621.72
562.11	45453.20
562.27	45750.45
562.44	45617.04
562.60	45148.93
562.77	45778.54
562.93	45193.40
563.10	45993.87
563.26	45745.77
563.42	46429.21
563.59	45720.02
563.75	45502.35
563.92	46103.87
564.08	45717.68
564.24	46078.13
564.41	45593.64
564.57	45844.07
564.74	46141.32
564.90	45778.54
565.07	46092.17
565.23	45659.17
565.39	45886.20
565.56	46085.15
565.72	46171.75
565.88	45937.69
566.05	46141.32
566.21	46124.94
566.38	46068.76
566.54	46103.87
566.70	45872.16
566.87	46080.47
567.03	45680.24
567.19	46183.45
567.36	46309.84
567.52	46513.47
567.68	46073.45
567.85	46012.59
568.01	46094.51
568.17	46122.60
568.34	46595.38
568.50	46649.22
568.66	45940.04
568.83	46138.98
568.99	46131.96
569.15	46270.05
569.32	46344.95
569.48	45916.63
569.64	46852.84
569.81	46499.42
569.97	46714.75
570.13	46506.44
570.30	46295.80
570.46	46588.36
570.62	46925.40
570.78	46593.04
570.95	46478.36
571.11	46504.10
571.27	46394.10
571.43	46469.00
571.60	46600.07
571.76	46288.77
571.92	46630.49
572.09	46742.84
572.25	46569.64
572.41	46721.77
572.57	46710.07
572.74	47098.60
572.90	46623.47
573.06	46972.21
573.22	46773.27
573.38	47028.38
573.55	46560.28
573.71	47136.05
573.87	46787.31
574.03	46656.24
574.20	46981.57
574.36	46674.96
574.52	46820.08
574.68	47028.38
574.84	47159.45
575.01	47126.69
575.17	46813.05
575.33	46494.74
575.49	46543.89
575.65	46855.18
575.82	46824.76
575.98	46623.47
576.14	47070.51
576.30	47295.21
576.46	46983.91
576.62	47070.51
576.79	47004.98
576.95	46169.41
577.11	46436.23
577.27	46653.90
577.43	47154.77
577.59	46899.65
577.75	46824.76
577.92	46330.90
578.08	46796.67
578.24	46934.76
578.40	47210.95
578.56	46831.78
578.72	46447.93
578.88	46836.46
579.04	47063.49
579.21	47107.96
579.37	47199.24
579.53	47309.25
579.69	46721.77
579.85	47145.41
580.01	47323.29
580.17	46871.57
580.33	47283.50
580.49	46894.97
580.65	47112.64
580.82	47201.58
580.98	46424.53
581.14	46646.88
581.30	46948.81
581.46	47234.35
581.62	47257.76
581.78	46674.96
581.94	47203.92
582.10	46960.51
582.26	47456.70
582.42	47075.19
582.58	47379.46
582.74	47217.97
582.90	47349.04
583.06	47295.21
583.22	46932.42
583.38	47274.14
583.54	47695.44
583.70	47295.21
583.86	46960.51
584.02	47201.58
584.18	47494.15
584.34	47330.31
584.50	47349.04
584.66	47152.43
584.82	47246.05
584.98	47498.83
585.14	47613.52
585.30	46969.87
585.46	46871.57
585.62	47250.74
585.78	47260.10
585.94	47117.32
586.10	47482.45
586.26	46965.19
586.42	47344.36
586.58	47402.87
586.74	47318.61
586.90	46784.97
587.06	47510.53
587.22	47150.09
587.38	47264.78
587.54	47363.08
587.70	47452.02
587.86	47498.83
588.02	47416.91
588.18	46712.41
588.34	47463.72
588.49	47552.66
588.65	47140.73
588.81	47400.53
588.97	47648.63
589.13	47423.93
589.29	47201.58
589.45	47550.32
589.61	47360.74
589.77	47639.26
589.93	47253.08
