SpectraSuite Data File
++++++++++++++++++++++++++++++++++++
Date: Fri Oct 25 11:34:28 EDT 2013
User: price-jones
Dark Spectrum Present: No
Reference Spectrum Present: No
Number of Sampled Component Spectra: 1
Spectrometers: USB2+H05261
Integration Time (usec): 100000 (USB2+H05261)
Spectra Averaged: 1 (USB2+H05261)
Boxcar Smoothing: 0 (USB2+H05261)
Correct for Electrical Dark: No (USB2+H05261)
Strobe/Lamp Enabled: No (USB2+H05261)
Correct for Detector Non-linearity: No (USB2+H05261)
Correct for Stray Light: No (USB2+H05261)
Number of Pixels in Processed Spectrum: 2048
>>>>>Begin Processed Spectral Data<<<<<
365.73	266.82
365.92	266.82
366.12	266.82
366.32	201.29
366.52	210.65
366.72	196.60
366.91	236.39
367.11	191.92
367.31	198.95
367.51	208.31
367.70	212.99
367.90	187.24
368.10	212.99
368.30	203.63
368.49	175.54
368.69	229.37
368.89	201.29
369.09	212.99
369.28	163.84
369.48	198.95
369.68	201.29
369.87	184.90
370.07	294.91
370.27	348.74
370.47	341.72
370.66	491.51
370.86	498.53
371.06	617.90
371.25	582.79
371.45	500.87
371.65	571.09
371.84	524.28
372.04	557.05
372.24	641.31
372.44	592.16
372.63	589.82
372.83	547.69
373.03	634.29
373.22	627.26
373.42	634.29
373.62	578.11
373.81	571.09
374.01	575.77
374.21	615.56
374.40	664.71
374.60	643.65
374.79	550.03
374.99	650.67
375.19	589.82
375.38	580.45
375.58	653.01
375.78	620.24
375.97	610.88
376.17	641.31
376.37	674.07
376.56	683.44
376.76	676.41
376.95	636.63
377.15	681.10
377.35	580.45
377.54	657.69
377.74	697.48
377.93	671.73
378.13	585.13
378.33	760.67
378.52	631.94
378.72	730.25
378.91	685.78
379.11	594.50
379.31	685.78
379.50	702.16
379.70	753.65
379.89	727.91
380.09	779.40
380.28	732.59
380.48	744.29
380.68	753.65
380.87	713.86
381.07	739.61
381.26	770.04
381.46	727.91
381.65	748.97
381.85	748.97
382.04	711.52
382.24	777.06
382.43	695.14
382.63	725.57
382.83	697.48
383.02	779.40
383.22	861.32
383.41	788.76
383.61	744.29
383.80	772.38
384.00	755.99
384.19	849.61
384.39	809.83
384.58	751.31
384.78	812.17
384.97	805.14
385.17	791.10
385.36	781.74
385.56	842.59
385.75	821.53
385.95	847.27
386.14	823.87
386.34	842.59
386.53	891.74
386.72	837.91
386.92	919.83
387.11	936.21
387.31	910.47
387.50	891.74
387.70	877.70
387.89	882.38
388.09	884.72
388.28	851.96
388.48	919.83
388.67	873.02
388.86	851.96
389.06	847.27
389.25	968.98
389.45	912.81
389.64	947.92
389.84	933.87
390.03	940.90
390.22	947.92
390.42	971.32
390.61	866.00
390.81	912.81
391.00	959.62
391.19	1027.50
391.39	924.51
391.58	887.06
391.78	1018.13
391.97	968.98
392.16	1011.11
392.36	1001.75
392.55	999.41
392.75	1034.52
392.94	1100.05
393.13	1114.10
393.33	1008.77
393.52	1006.43
393.71	1006.43
393.91	1107.07
394.10	1053.24
394.29	1121.12
394.49	1083.67
394.68	1093.03
394.88	1088.35
395.07	1125.80
395.26	1076.65
395.46	1093.03
395.65	1153.88
395.84	1139.84
396.04	1205.38
396.23	1128.14
396.42	1165.59
396.62	1184.31
396.81	1177.29
397.00	1193.67
397.19	1193.67
397.39	1188.99
397.58	1254.53
397.77	1210.06
397.97	1301.34
398.16	1111.75
398.35	1149.20
398.55	1226.44
398.74	1245.16
398.93	1303.68
399.12	1221.76
399.32	1254.53
399.51	1364.53
399.70	1369.21
399.90	1338.79
400.09	1373.89
400.28	1315.38
400.47	1270.91
400.67	1341.13
400.86	1387.94
401.05	1327.08
401.24	1378.58
401.44	1397.30
401.63	1341.13
401.82	1334.11
402.01	1320.06
402.21	1411.34
402.40	1465.18
402.59	1486.24
402.78	1540.07
402.97	1392.62
403.17	1446.45
403.36	1397.30
403.55	1526.03
403.74	1516.67
403.93	1547.09
404.13	1556.46
404.32	1561.14
404.51	1467.52
404.70	1561.14
404.89	1603.27
405.09	1685.19
405.28	1600.93
405.47	1678.16
405.66	1652.42
405.85	1659.44
406.05	1633.69
406.24	1617.31
406.43	1664.12
406.62	1689.87
406.81	1755.40
407.00	1614.97
407.20	1706.25
407.39	1760.08
407.58	1755.40
407.77	1743.70
407.96	1916.90
408.15	1884.13
408.34	1799.87
408.54	1739.02
408.73	1769.44
408.92	1872.43
409.11	1886.47
409.30	1867.75
409.49	1980.09
409.68	1898.17
409.87	1877.11
410.07	1898.17
410.26	1989.46
410.45	1998.82
410.64	1982.43
410.83	2085.42
411.02	2010.52
411.21	2108.82
411.40	2043.29
411.59	2092.44
411.78	2101.80
411.98	2071.37
412.17	2211.81
412.36	2139.25
412.55	2197.76
412.74	2235.21
412.93	2155.63
413.12	2251.60
413.31	2385.01
413.50	2359.26
413.69	2345.22
413.88	2359.26
414.07	2396.71
414.26	2427.14
414.45	2471.61
414.64	2464.58
414.83	2420.11
415.02	2436.50
415.22	2600.34
415.41	2633.10
415.60	2511.39
415.79	2537.14
415.98	2633.10
416.17	2605.02
416.36	2750.13
416.55	2682.25
416.74	2691.62
416.93	2679.91
417.12	2679.91
417.31	2792.26
417.50	2733.75
417.69	2855.45
417.88	2890.56
418.07	2867.16
418.26	2820.35
418.45	2764.17
418.64	3047.38
418.83	2810.98
419.02	2841.41
419.21	2946.73
419.39	2923.33
419.58	2834.39
419.77	2771.19
419.96	3026.31
420.15	3038.02
420.34	2939.71
420.53	3070.78
420.72	3112.91
420.91	3131.64
421.10	3185.47
421.29	3220.58
421.48	3112.91
421.67	3122.27
421.86	3227.60
422.05	3138.66
422.24	3075.46
422.43	3225.26
422.61	3297.81
422.80	3365.69
422.99	3194.83
423.18	3344.63
423.37	3353.99
423.56	3206.53
423.75	3274.41
423.94	3185.47
424.13	3033.33
424.32	3208.87
424.50	3311.86
424.69	3314.20
424.88	3454.63
425.07	3356.33
425.26	3321.22
425.45	3361.01
425.64	3232.28
425.83	3262.71
426.01	3463.99
426.20	3342.28
426.39	3398.46
426.58	3349.31
426.77	3328.24
426.96	3403.14
427.15	3386.76
427.33	3358.67
427.52	3478.04
427.71	3548.25
427.90	3396.12
428.09	3435.91
428.28	3548.25
428.46	3475.70
428.65	3588.04
428.84	3684.00
429.03	3662.94
429.22	3480.38
429.40	3541.23
429.59	3588.04
429.78	3520.17
429.97	3398.46
430.16	3655.92
430.34	3744.86
430.53	3712.09
430.72	3728.47
430.91	3688.68
431.10	3674.64
431.28	3801.03
431.47	3740.18
431.66	3913.38
431.85	3786.99
432.03	3840.82
432.22	3929.76
432.41	3943.80
432.60	3899.33
432.79	3871.25
432.97	3868.91
433.16	3861.88
433.35	3854.86
433.54	3936.78
433.72	4072.53
433.91	3932.10
434.10	3838.48
434.28	4102.96
434.47	4074.87
434.66	4140.41
434.85	4135.73
435.03	4131.05
435.22	4093.60
435.41	4322.97
435.59	4201.26
435.78	4236.37
435.97	4250.41
436.16	4348.72
436.34	4250.41
436.53	4248.07
436.72	4465.74
436.90	4266.80
437.09	4290.20
437.28	4093.60
437.46	4297.22
437.65	4334.67
437.84	4287.86
438.02	4402.55
438.21	4334.67
438.40	4418.93
438.58	4566.39
438.77	4638.94
438.96	4542.98
439.14	4610.86
439.33	4582.77
439.52	4624.90
439.70	4681.07
439.89	4802.78
440.08	4697.46
440.26	4837.89
440.45	4887.04
440.63	4863.63
440.82	4915.12
441.01	4908.10
441.19	4985.34
441.38	5027.47
441.57	4830.87
441.75	5011.09
441.94	5067.26
442.12	5067.26
442.31	5104.71
442.50	5184.29
442.68	5188.97
442.87	5172.58
443.05	5282.59
443.24	5359.83
443.43	5348.12
443.61	5181.95
443.80	5460.47
443.98	5350.46
444.17	5195.99
444.35	5411.32
444.54	5289.61
444.73	5317.70
444.91	5420.68
445.10	5308.34
445.28	5385.57
445.47	5427.70
445.65	5432.38
445.84	5390.25
446.02	5589.20
446.21	5420.68
446.39	5348.12
446.58	5563.45
446.77	5481.53
446.95	5451.11
447.14	5469.83
447.32	5518.98
447.51	5397.28
447.69	5378.55
447.88	5514.30
448.06	5542.39
448.25	5416.00
448.43	5523.66
448.62	5619.63
448.80	5401.96
448.99	5767.08
449.17	5598.56
449.36	5720.27
449.54	5664.10
449.73	5741.33
449.91	5771.76
450.10	5832.62
450.28	5781.12
450.46	5837.30
450.65	5771.76
450.83	5881.77
451.02	5877.09
451.20	5989.43
451.39	6106.46
451.57	5870.06
451.76	5956.66
451.94	5832.62
452.13	6097.10
452.31	5867.72
452.49	5930.92
452.68	6179.01
452.86	5928.58
453.05	6202.42
453.23	6197.74
453.42	6097.10
453.60	5996.45
453.78	6155.61
453.97	6157.95
454.15	5954.32
454.34	6164.97
454.52	6169.65
454.70	6195.40
454.89	6242.21
455.07	6221.14
455.26	6242.21
455.44	6427.11
455.62	6420.09
455.81	6314.77
455.99	6389.66
456.17	6562.86
456.36	6602.65
456.54	6499.67
456.73	6352.21
456.91	6764.15
457.09	6738.40
457.28	6595.63
457.46	6525.41
457.64	6794.58
457.83	6780.53
458.01	6642.44
458.19	6764.15
458.38	6890.54
458.56	6888.20
458.74	6951.39
458.93	7070.76
459.11	7000.54
459.29	6895.22
459.48	6832.02
459.66	6977.14
459.84	6967.77
460.03	7056.72
460.21	7000.54
460.39	7047.35
460.57	7094.16
460.76	7122.25
460.94	7178.42
461.12	7267.36
461.31	7063.74
461.49	7194.81
461.67	7115.23
461.85	7365.67
462.04	7248.64
462.22	7662.91
462.40	7494.40
462.59	7461.63
462.77	7351.62
462.95	7489.71
463.13	7433.54
463.32	7520.14
463.50	7417.16
463.68	7524.82
463.86	7590.36
464.05	7375.03
464.23	7389.07
464.41	7648.87
464.59	7623.12
464.78	7864.20
464.96	7775.26
465.14	7569.29
465.32	7707.38
465.50	7648.87
465.69	7599.72
465.87	7791.64
466.05	7836.11
466.23	7925.05
466.41	7756.54
466.60	7932.08
466.78	7936.76
466.96	7620.78
467.14	7997.61
467.32	8046.76
467.51	8049.10
467.69	7962.50
467.87	8006.97
468.05	8016.33
468.23	8067.83
468.41	7953.14
468.60	8121.66
468.78	8238.69
468.96	8079.53
469.14	8182.51
469.32	8065.49
469.50	7988.25
469.69	8056.12
469.87	8336.99
470.05	8461.04
470.23	8547.64
470.41	8374.44
470.59	8493.80
470.77	8290.18
470.95	8454.02
471.14	8627.21
471.32	8498.49
471.50	8739.56
471.68	8629.56
471.86	8606.15
472.04	8688.07
472.22	8798.07
472.40	8732.54
472.58	9004.04
472.77	9078.94
472.95	8929.14
473.13	9055.53
473.31	9046.17
473.49	8903.40
473.67	9064.89
473.85	9085.96
474.03	9144.47
474.21	9198.31
474.39	9252.14
474.57	9308.31
474.75	9483.85
474.93	9432.36
475.12	9458.10
475.30	9495.55
475.48	9385.55
475.66	9415.98
475.84	9767.06
476.02	9727.27
476.20	9820.89
476.38	9975.36
476.56	10073.67
476.74	10061.96
476.92	10010.47
477.10	10188.35
477.28	10178.99
477.46	10321.76
477.64	10136.86
477.82	10691.57
478.00	10649.44
478.18	10387.30
478.36	10553.48
478.54	10661.14
478.72	10834.34
478.90	10869.45
479.08	11133.93
479.26	11250.96
479.44	11042.65
479.62	11190.10
479.80	11351.60
479.98	11328.19
480.16	11822.05
480.34	11503.73
480.52	11599.70
480.70	11782.26
480.88	11651.19
481.06	11815.02
481.24	11894.60
481.41	12035.03
481.59	11976.52
481.77	12233.98
481.95	12327.60
482.13	12519.53
482.31	12355.69
482.49	12503.14
482.67	12521.87
482.85	12865.92
483.03	12800.39
483.21	12954.87
483.39	12896.35
483.57	13186.58
483.74	13123.38
483.92	13479.15
484.10	13235.73
484.28	13605.53
484.46	13802.14
484.64	13886.40
484.82	13532.98
485.00	14190.67
485.18	14190.67
485.35	14368.55
485.53	14394.29
485.71	14618.99
485.89	14693.88
486.07	14864.74
486.25	14860.06
486.43	14920.92
486.61	14897.51
486.78	15070.71
486.96	15255.61
487.14	15667.55
487.32	15330.51
487.50	15445.20
487.68	15786.91
487.85	15775.21
488.03	15957.77
488.21	15955.43
488.39	15779.89
488.57	16397.79
488.75	16339.28
488.92	16505.46
489.10	16844.84
489.28	17011.01
489.46	17238.05
489.64	16950.16
489.81	17163.15
489.99	17081.23
490.17	17380.82
490.35	17572.74
490.53	17378.48
490.70	17617.21
490.88	17811.48
491.06	17961.27
491.24	18061.91
491.41	18218.73
491.59	18178.94
491.77	18202.35
491.95	18462.15
492.13	18352.14
492.30	18658.75
492.48	18480.87
492.66	19136.22
492.84	19131.54
493.01	19016.85
493.19	18977.06
493.37	19358.57
493.54	19360.91
493.72	19372.61
493.90	19470.92
494.08	19957.75
494.25	19784.55
494.43	19864.13
494.61	20161.37
494.79	20049.03
494.96	20313.51
495.14	20170.74
495.32	20805.02
495.49	20577.99
495.67	20765.23
495.85	20727.78
496.02	20994.61
496.20	21081.21
496.38	21434.63
496.55	21195.89
496.73	21825.50
496.91	21436.97
497.09	21851.24
497.26	21486.12
497.44	21619.53
497.62	21820.81
497.79	22125.08
497.97	22115.72
498.14	22335.73
498.32	22478.50
498.50	22546.38
498.67	22813.20
498.85	22471.48
499.03	22944.27
499.20	22759.37
499.38	22754.69
499.56	23124.49
499.73	22967.68
499.91	23489.62
500.08	23864.10
500.26	23412.38
500.44	23454.51
500.61	23559.83
500.79	23529.41
500.97	23793.89
501.14	24343.91
501.32	24056.03
501.49	24156.67
501.67	23974.11
501.84	24456.26
502.02	24439.87
502.20	24341.57
502.37	23992.83
502.55	24575.62
502.72	24741.80
502.90	24989.90
503.07	24762.87
503.25	25160.76
503.43	25001.60
503.60	25085.86
503.78	25268.42
503.95	24912.66
504.13	25357.36
504.30	25488.43
504.48	25333.96
504.65	25799.73
504.83	25687.38
505.01	25923.77
505.18	25792.70
505.36	26164.85
505.53	25879.30
505.71	26033.78
505.88	26059.52
506.06	25771.64
506.23	26214.00
506.41	26197.62
506.58	26532.31
506.76	26431.67
506.93	26817.86
507.11	26459.76
507.28	26864.67
507.46	26647.00
507.63	26796.79
507.81	26998.08
507.98	26822.54
508.16	27381.93
508.33	27133.83
508.50	27578.53
508.68	27466.19
508.85	27349.16
509.03	27517.68
509.20	27531.72
509.38	27758.75
509.55	27672.15
509.73	28041.96
509.90	28107.49
510.08	27864.08
510.25	28128.56
510.42	28404.74
510.60	28081.75
510.77	28414.10
510.95	28580.28
511.12	28704.33
511.30	28594.32
511.47	28849.44
511.64	28643.48
511.82	28804.97
511.99	28701.99
512.17	29261.38
512.34	28861.15
512.51	29329.25
512.69	29137.33
512.86	29186.48
513.04	29369.04
513.21	29233.29
513.38	29788.00
513.56	30029.07
513.73	29406.49
513.90	29483.73
514.08	29848.85
514.25	29942.47
514.43	29666.29
514.60	29893.32
514.77	30246.74
514.95	30260.79
515.12	30632.93
515.29	30057.16
515.47	30361.43
515.64	30363.77
515.81	30127.38
515.99	30817.83
516.16	30979.33
516.33	30789.75
516.51	30771.02
516.68	30717.19
516.85	30967.63
517.03	31433.39
517.20	31126.78
517.37	31325.73
517.54	31117.42
517.72	31330.41
517.89	31529.36
518.06	31594.89
518.24	31597.23
518.41	31105.72
518.58	31150.19
518.75	31508.29
518.93	31936.61
519.10	31922.57
519.27	31779.79
519.45	32002.14
519.62	32212.79
519.79	32215.13
519.96	32219.81
520.14	32341.52
520.31	32023.21
520.48	31840.65
520.65	32151.94
520.83	32547.49
521.00	32720.69
521.17	32835.38
521.34	33193.48
521.52	33237.95
521.69	32671.54
521.86	33067.09
522.03	32833.04
522.20	33406.47
522.38	33448.60
522.55	33511.79
522.72	33284.76
522.89	33486.04
523.07	33909.68
523.24	33432.21
523.41	33928.41
523.58	33364.34
523.75	33963.51
523.92	33385.40
524.10	33830.10
524.27	34057.14
524.44	34167.14
524.61	34148.42
524.78	34361.40
524.96	34125.01
525.13	34094.58
525.30	34410.56
525.47	34663.33
525.64	34597.80
525.81	34497.16
525.98	34632.91
526.16	34466.73
526.33	34403.53
526.50	34710.14
526.67	34345.02
526.84	34965.26
527.01	34698.44
527.18	34761.64
527.36	34579.07
527.53	35131.44
527.70	35550.40
527.87	35681.47
528.04	35019.10
528.21	35030.80
528.38	35124.42
528.55	35295.28
528.72	35206.34
528.89	35124.42
529.07	35330.39
529.24	35571.46
529.41	35669.76
529.58	35409.96
529.75	35634.66
529.92	35625.29
530.09	35524.65
530.26	35931.90
530.43	36161.28
530.60	35763.39
530.77	35894.46
530.94	36318.09
531.11	36067.66
531.28	36177.66
531.46	36102.76
531.63	36135.53
531.80	36282.98
531.97	36297.03
532.14	36477.25
532.31	36568.53
532.48	36732.37
532.65	36400.01
532.82	36629.38
532.99	36774.50
533.16	36411.71
533.33	36556.83
533.50	36840.03
533.67	36582.57
533.84	36758.11
534.01	37432.19
534.18	36664.49
534.35	37394.74
534.52	37474.32
534.69	37535.17
534.86	37537.51
535.03	37383.04
535.20	37577.30
535.37	37256.65
535.54	37979.87
535.71	36893.86
535.88	37551.56
536.05	37848.80
536.22	37937.74
536.38	38059.45
536.55	37715.39
536.72	38012.64
536.89	37507.08
537.06	37883.91
537.23	38155.41
537.40	38225.63
537.57	37677.94
537.74	37727.10
537.91	38059.45
538.08	38433.94
538.25	37675.60
538.42	38136.69
538.59	38550.96
538.75	38199.88
538.92	38761.61
539.09	38295.85
539.26	38682.03
539.43	38707.78
539.60	38885.66
539.77	39033.11
539.94	39585.48
540.11	38623.52
540.28	38890.34
540.44	38974.60
540.61	39000.35
540.78	38691.40
540.95	38487.77
541.12	38916.09
541.29	38923.11
541.46	39140.78
541.62	39154.82
541.79	39140.78
541.96	39124.40
542.13	39030.77
542.30	39290.57
542.47	39316.32
542.63	39524.63
542.80	39711.87
542.97	39608.89
543.14	39463.77
543.31	39756.34
543.48	39779.74
543.64	40041.88
543.81	39803.15
543.98	40123.80
544.15	40065.29
544.32	40287.64
544.48	40821.28
544.65	40198.70
544.82	40395.31
544.99	40051.25
545.16	40535.74
545.32	39892.09
545.49	40769.79
545.66	40718.30
545.83	40601.27
546.00	40921.93
546.16	40397.65
546.33	40397.65
546.50	40559.14
546.67	40753.41
546.83	40112.10
547.00	40488.93
547.17	40528.72
547.34	40797.88
547.50	41137.26
547.67	41408.76
547.84	41008.53
548.00	41200.45
548.17	41556.21
548.34	41390.03
548.51	41237.90
548.67	41280.03
548.84	41216.83
549.01	41184.07
549.18	41141.94
549.34	41603.02
549.51	41251.94
549.68	41628.77
549.84	41153.64
550.01	41429.82
550.18	41251.94
550.34	41319.82
550.51	41415.78
550.68	41649.83
550.84	41450.89
551.01	41813.67
551.18	41834.74
551.34	41418.12
551.51	41865.16
551.68	41593.66
551.84	41504.72
552.01	41743.45
552.18	41696.64
552.34	41645.15
552.51	42307.52
552.68	41666.22
552.84	42052.41
553.01	42555.62
553.18	41989.21
553.34	41993.89
553.51	42050.06
553.67	42513.49
553.84	42511.15
554.01	42223.26
554.17	42651.58
554.34	42611.79
554.51	42298.16
554.67	42700.73
554.84	42391.78
555.00	42232.63
555.17	42527.53
555.33	42813.08
555.50	42258.37
555.67	42319.23
555.83	42087.51
556.00	42738.18
556.16	43531.62
556.33	42946.49
556.50	42674.99
556.66	42700.73
556.83	42286.46
556.99	43012.02
557.16	43309.27
557.32	43065.86
557.49	43012.02
557.65	42880.95
557.82	43100.97
557.98	42904.36
558.15	43203.95
558.32	43442.68
558.48	42806.06
558.65	42941.81
558.81	43281.19
558.98	43569.07
559.14	42663.28
559.31	42937.13
559.47	43328.00
559.64	43793.76
559.80	43175.86
559.97	43468.43
560.13	43248.42
560.30	43309.27
560.46	43250.76
560.63	43861.64
560.79	43899.09
560.96	44069.95
561.12	43854.62
561.29	43423.96
561.45	43854.62
561.61	43445.02
561.78	43543.33
561.94	43494.18
562.11	43821.85
562.27	43562.05
562.44	43599.50
562.60	43515.24
562.77	43548.01
562.93	43220.33
563.10	44156.55
563.26	43873.34
563.42	44168.25
563.59	43648.65
563.75	43758.66
563.92	44151.87
564.08	44030.16
564.24	43924.83
564.41	43913.13
564.57	43789.08
564.74	44095.69
564.90	43622.90
565.07	43983.35
565.23	44135.48
565.39	43676.74
565.56	44369.54
565.72	43920.15
565.88	44271.23
566.05	44140.16
566.21	44107.40
566.38	44481.88
566.54	44423.37
566.70	44350.81
566.87	44669.12
567.03	44102.71
567.19	44645.72
567.36	44098.03
567.52	44182.29
567.68	44524.01
567.85	43866.32
568.01	44531.03
568.17	44247.83
568.34	44416.35
568.50	44320.38
568.66	44273.57
568.83	44158.89
568.99	44435.07
569.15	44519.33
569.32	44538.05
569.48	44060.58
569.64	44720.62
569.81	44320.38
569.97	44357.83
570.13	45162.98
570.30	44252.51
570.46	44446.77
570.62	44671.46
570.78	44622.31
570.95	44498.26
571.11	44975.73
571.27	45116.17
571.43	44491.24
571.60	44172.93
571.76	44591.89
571.92	44488.90
572.09	44793.17
572.25	44055.90
572.41	44421.03
572.57	44938.29
572.74	45139.57
572.90	44474.86
573.06	44928.92
573.22	44634.02
573.38	44755.72
573.55	45013.18
573.71	45345.54
573.87	44619.97
574.03	44921.90
574.20	44851.69
574.36	44589.55
574.52	44987.44
574.68	45158.30
574.84	44905.52
575.01	44971.05
575.17	44800.19
575.33	45125.53
575.49	45099.78
575.65	45015.52
575.82	45088.08
575.98	44849.35
576.14	45647.47
576.30	45120.85
576.46	44877.43
576.62	44818.92
576.79	45036.59
576.95	44549.76
577.11	44940.63
577.27	45015.52
577.43	44584.86
577.59	45104.46
577.75	44594.23
577.92	44851.69
578.08	44624.65
578.24	45120.85
578.40	45333.84
578.56	45240.21
578.72	45228.51
578.88	45268.30
579.04	45162.98
579.21	44669.12
579.37	45450.86
579.53	45034.25
579.69	44854.03
579.85	44882.11
580.01	44818.92
580.17	45092.76
580.33	45247.24
580.49	44987.44
580.65	45256.60
580.82	45034.25
580.98	44985.10
581.14	44634.02
581.30	45137.23
581.46	44858.71
581.62	45378.31
581.78	44982.76
581.94	45193.40
582.10	44987.44
582.26	45017.86
582.42	45244.90
582.58	45184.04
582.74	45483.63
582.90	45003.82
583.06	45165.32
583.22	44636.36
583.38	45378.31
583.54	45525.76
583.70	44811.90
583.86	45301.07
584.02	45216.81
584.18	46099.19
584.34	45530.44
584.50	45263.62
584.66	45390.01
584.82	45207.45
584.98	45317.45
585.14	45673.21
585.30	45059.99
585.46	45352.56
585.62	45270.64
585.78	45481.29
585.94	44940.63
586.10	45411.07
586.26	45027.23
586.42	45160.64
586.58	45254.26
586.74	45069.36
586.90	45485.97
587.06	45202.77
587.22	45492.99
587.38	45059.99
587.54	45347.88
587.70	45694.28
587.86	45174.68
588.02	45366.60
588.18	45504.70
588.34	45062.33
588.49	45502.35
588.65	45214.47
588.81	45375.97
588.97	45752.79
589.13	45268.30
589.29	45373.63
589.45	45769.18
589.61	45249.58
589.77	45439.16
589.93	45523.42
590.08	45827.69
