SpectraSuite Data File
++++++++++++++++++++++++++++++++++++
Date: Fri Oct 25 11:33:56 EDT 2013
User: price-jones
Dark Spectrum Present: No
Reference Spectrum Present: No
Number of Sampled Component Spectra: 1
Spectrometers: USB2+H05261
Integration Time (usec): 100000 (USB2+H05261)
Spectra Averaged: 1 (USB2+H05261)
Boxcar Smoothing: 0 (USB2+H05261)
Correct for Electrical Dark: No (USB2+H05261)
Strobe/Lamp Enabled: No (USB2+H05261)
Correct for Detector Non-linearity: No (USB2+H05261)
Correct for Stray Light: No (USB2+H05261)
Number of Pixels in Processed Spectrum: 2048
>>>>>Begin Processed Spectral Data<<<<<
365.73	332.36
365.92	332.36
366.12	332.36
366.32	241.08
366.52	161.50
366.72	238.73
366.91	191.92
367.11	177.88
367.31	156.82
367.51	201.29
367.70	72.56
367.90	154.48
368.10	196.60
368.30	194.26
368.49	182.56
368.69	201.29
368.89	196.60
369.09	184.90
369.28	208.31
369.48	215.33
369.68	156.82
369.87	229.37
370.07	229.37
370.27	311.29
370.47	327.68
370.66	491.51
370.86	489.17
371.06	507.90
371.25	587.47
371.45	587.47
371.65	606.20
371.84	594.50
372.04	568.75
372.24	585.13
372.44	547.69
372.63	587.47
372.83	603.86
373.03	561.73
373.22	627.26
373.42	601.52
373.62	606.20
373.81	622.58
374.01	564.07
374.21	690.46
374.40	690.46
374.60	655.35
374.79	622.58
374.99	688.12
375.19	561.73
375.38	657.69
375.58	643.65
375.78	655.35
375.97	683.44
376.17	758.33
376.37	667.05
376.56	676.41
376.76	741.95
376.95	667.05
377.15	685.78
377.35	741.95
377.54	690.46
377.74	636.63
377.93	671.73
378.13	653.01
378.33	770.04
378.52	805.14
378.72	713.86
378.91	723.23
379.11	674.07
379.31	704.50
379.50	664.71
379.70	760.67
379.89	744.29
380.09	704.50
380.28	727.91
380.48	711.52
380.68	688.12
380.87	734.93
381.07	746.63
381.26	800.46
381.46	732.59
381.65	765.36
381.85	725.57
382.04	695.14
382.24	828.55
382.43	823.87
382.63	863.66
382.83	812.17
383.02	877.70
383.22	819.19
383.41	837.91
383.61	805.14
383.80	868.34
384.00	823.87
384.19	809.83
384.39	795.78
384.58	851.96
384.78	802.80
384.97	861.32
385.17	809.83
385.36	905.79
385.56	814.51
385.75	877.70
385.95	802.80
386.14	968.98
386.34	814.51
386.53	840.25
386.72	908.13
386.92	978.34
387.11	896.43
387.31	931.53
387.50	889.40
387.70	849.61
387.89	896.43
388.09	933.87
388.28	903.45
388.48	870.68
388.67	898.77
388.86	887.06
389.06	910.47
389.25	903.45
389.45	947.92
389.64	938.55
389.84	929.19
390.03	1015.79
390.22	868.34
390.42	924.51
390.61	966.64
390.81	973.66
391.00	985.37
391.19	1008.77
391.39	1004.09
391.58	947.92
391.78	964.30
391.97	1057.92
392.16	1048.56
392.36	1097.71
392.55	976.00
392.75	1027.50
392.94	1067.28
393.13	1095.37
393.33	980.68
393.52	1069.62
393.71	1041.54
393.91	1034.52
394.10	1146.86
394.29	1069.62
394.49	1102.39
394.68	1102.39
394.88	1114.10
395.07	1142.18
395.26	1219.42
395.46	1146.86
395.65	1170.27
395.84	1158.57
396.04	1165.59
396.23	1240.48
396.42	1188.99
396.62	1160.91
396.81	1153.88
397.00	1217.08
397.19	1196.01
397.39	1142.18
397.58	1210.06
397.77	1186.65
397.97	1350.49
398.16	1263.89
398.35	1249.85
398.55	1238.14
398.74	1303.68
398.93	1411.34
399.12	1240.48
399.32	1357.51
399.51	1364.53
399.70	1270.91
399.90	1406.66
400.09	1392.62
400.28	1378.58
400.47	1355.17
400.67	1425.39
400.86	1341.13
401.05	1336.45
401.24	1465.18
401.44	1434.75
401.63	1387.94
401.82	1526.03
402.01	1469.86
402.21	1511.99
402.40	1458.15
402.59	1427.73
402.78	1537.73
402.97	1556.46
403.17	1624.33
403.36	1523.69
403.55	1528.37
403.74	1659.44
403.93	1455.81
404.13	1605.61
404.32	1549.43
404.51	1589.22
404.70	1610.29
404.89	1689.87
405.09	1664.12
405.28	1692.21
405.47	1717.95
405.66	1699.23
405.85	1729.66
406.05	1792.85
406.24	1741.36
406.43	1746.04
406.62	1778.81
406.81	1753.06
407.00	1771.79
407.20	1739.02
407.39	1659.44
407.58	1858.39
407.77	1900.52
407.96	1937.96
408.15	1877.11
408.34	1806.89
408.54	1930.94
408.73	1858.39
408.92	1966.05
409.11	1909.88
409.30	1928.60
409.49	1989.46
409.68	1963.71
409.87	1994.14
410.07	2073.71
410.26	2066.69
410.45	1959.03
410.64	2036.27
410.83	2038.61
411.02	2148.61
411.21	2179.04
411.40	2186.06
411.59	2094.78
411.78	2211.81
411.98	2232.87
412.17	2319.47
412.36	2263.30
412.55	2296.07
412.74	2232.87
412.93	2310.11
413.12	2263.30
413.31	2448.20
413.50	2370.96
413.69	2417.77
413.88	2406.07
414.07	2429.48
414.26	2387.35
414.45	2352.24
414.64	2520.76
414.83	2600.34
415.02	2586.29
415.22	2640.12
415.41	2658.85
415.60	2588.63
415.79	2677.57
415.98	2822.69
416.17	2635.44
416.36	2724.38
416.55	2670.55
416.74	2806.30
416.93	2813.32
417.12	2710.34
417.31	2825.03
417.50	2871.84
417.69	2878.86
417.88	2986.52
418.07	3028.65
418.26	2909.29
418.45	2925.67
418.64	3059.08
418.83	2984.18
419.02	3087.17
419.21	3084.83
419.39	3089.51
419.58	3084.83
419.77	3014.61
419.96	3143.34
420.15	3084.83
420.34	3192.49
420.53	3115.25
420.72	3262.71
420.91	3269.73
421.10	3255.69
421.29	3267.39
421.48	3300.16
421.67	3229.94
421.86	3190.15
422.05	3215.90
422.24	3262.71
422.43	3251.00
422.61	3426.54
422.80	3351.65
422.99	3419.52
423.18	3358.67
423.37	3243.98
423.56	3424.20
423.75	3433.57
423.94	3276.75
424.13	3199.51
424.32	3199.51
424.50	3475.70
424.69	3655.92
424.88	3473.36
425.07	3384.41
425.26	3398.46
425.45	3358.67
425.64	3431.23
425.83	3328.24
426.01	3370.37
426.20	3552.93
426.39	3438.25
426.58	3431.23
426.77	3438.25
426.96	3520.17
427.15	3503.78
427.33	3625.49
427.52	3480.38
427.71	3681.66
427.90	3651.24
428.09	3672.30
428.28	3574.00
428.46	3611.45
428.65	3646.55
428.84	3655.92
429.03	3777.62
429.22	3571.66
429.40	3655.92
429.59	3819.75
429.78	3527.19
429.97	3609.11
430.16	3630.17
430.34	3845.50
430.53	3896.99
430.72	3868.91
430.91	3693.37
431.10	3894.65
431.28	3955.51
431.47	3971.89
431.66	3978.91
431.85	4028.06
432.03	4030.40
432.22	4168.49
432.41	4051.47
432.60	4049.13
432.79	4128.70
432.97	4084.23
433.16	4114.66
433.35	4142.75
433.54	4173.18
433.72	4161.47
433.91	4109.98
434.10	4205.94
434.28	4145.09
434.47	4264.46
434.66	4315.95
434.85	4374.46
435.03	4304.25
435.22	4269.14
435.41	4365.10
435.59	4292.54
435.78	4264.46
435.97	4407.23
436.16	4318.29
436.34	4447.02
436.53	4479.79
436.72	4423.61
436.90	4348.72
437.09	4491.49
437.28	4461.06
437.46	4575.75
437.65	4493.83
437.84	4470.42
438.02	4514.89
438.21	4620.22
438.40	4447.02
438.58	4695.11
438.77	4645.96
438.96	4772.35
439.14	4791.08
439.33	4741.93
439.52	4975.98
439.70	4870.65
439.89	4985.34
440.08	4950.23
440.26	4997.04
440.45	5074.28
440.63	5060.24
440.82	5172.58
441.01	5142.16
441.19	5015.77
441.38	5029.81
441.57	5308.34
441.75	5235.78
441.94	5376.21
442.12	5294.29
442.31	5371.53
442.50	5495.58
442.68	5537.71
442.87	5434.72
443.05	5528.35
443.24	5500.26
443.43	5469.83
443.61	5526.00
443.80	5689.84
443.98	5577.50
444.17	5313.02
444.35	5462.81
444.54	5682.82
444.73	5544.73
444.91	5675.80
445.10	5647.71
445.28	5741.33
445.47	5598.56
445.65	5736.65
445.84	5619.63
446.02	5666.44
446.21	5790.49
446.39	5757.72
446.58	5645.37
446.77	5495.58
446.95	5462.81
447.14	5731.97
447.32	5863.04
447.51	5661.76
447.69	5771.76
447.88	5844.32
448.06	5748.36
448.25	5806.87
448.43	5743.67
448.62	5659.42
448.80	5858.36
448.99	5734.31
449.17	5951.98
449.36	5781.12
449.54	6125.18
449.73	6054.97
449.91	6069.01
450.10	5891.13
450.28	6078.37
450.46	6052.63
450.65	5977.73
450.83	6090.07
451.02	6047.94
451.20	6108.80
451.39	6073.69
451.57	6197.74
451.76	6073.69
451.94	6099.44
452.13	6359.24
452.31	6244.55
452.49	6134.54
452.68	6504.35
452.86	6368.60
453.05	6223.48
453.23	6384.98
453.42	6284.34
453.60	6214.12
453.78	6502.01
453.97	6321.79
454.15	6494.99
454.34	6345.19
454.52	6665.85
454.70	6607.33
454.89	6576.91
455.07	6455.20
455.26	6588.61
455.44	6817.98
455.62	6581.59
455.81	6752.45
455.99	6794.58
456.17	6729.04
456.36	6906.92
456.54	6862.45
456.73	6780.53
456.91	6892.88
457.09	6958.41
457.28	7162.04
457.46	6878.83
457.64	6988.84
457.83	7045.01
458.01	6960.75
458.19	7307.15
458.38	7059.06
458.56	7026.29
458.74	7091.82
458.93	7234.60
459.11	7162.04
459.29	7131.61
459.48	7248.64
459.66	7445.24
459.84	7164.38
460.03	7307.15
460.21	7356.30
460.39	7239.28
460.57	7344.60
460.76	7346.94
460.94	7536.52
461.12	7412.48
461.31	7559.93
461.49	7386.73
461.67	7480.35
461.85	7674.62
462.04	7459.29
462.22	7836.11
462.40	7861.86
462.59	7735.47
462.77	7662.91
462.95	7772.92
463.13	7719.09
463.32	7812.71
463.50	7620.78
463.68	7808.03
463.86	7798.66
464.05	7805.69
464.23	7817.39
464.41	7943.78
464.59	7875.90
464.78	8070.17
464.96	7981.23
465.14	7847.82
465.32	7985.91
465.50	7894.63
465.69	8079.53
465.87	8212.94
466.05	8131.02
466.23	8100.59
466.41	8245.71
466.60	8280.82
466.78	8173.15
466.96	8388.48
467.14	8224.64
467.32	8250.39
467.51	8334.65
467.69	7997.61
467.87	8243.37
468.05	8259.75
468.23	8344.01
468.41	8374.44
468.60	8329.97
468.78	8449.33
468.96	8311.24
469.14	8517.21
469.32	8475.08
469.50	8315.92
469.69	8610.83
469.87	8826.16
470.05	8482.10
470.23	8636.58
470.41	8744.24
470.59	8924.46
470.77	8748.92
470.95	8828.50
471.14	9050.85
471.32	8748.92
471.50	8992.34
471.68	9039.15
471.86	8999.36
472.04	8926.80
472.22	9013.40
472.40	9004.04
472.58	9191.28
472.77	9322.35
472.95	9371.50
473.13	9551.73
473.31	9195.96
473.49	9301.29
473.67	9413.63
473.85	9495.55
474.03	9926.21
474.21	9771.74
474.39	9628.96
474.57	9767.06
474.75	9865.36
474.93	9874.72
475.12	9795.14
475.30	9853.66
475.48	9837.27
475.66	9975.36
475.84	9989.41
476.02	10178.99
476.20	10094.73
476.38	10300.70
476.56	10516.03
476.74	10438.79
476.92	10424.75
477.10	10438.79
477.28	10501.98
477.46	10513.69
477.64	10621.35
477.82	11066.05
478.00	10956.05
478.18	11112.86
478.36	11222.87
478.54	11042.65
478.72	11218.19
478.90	11375.00
479.08	11501.39
479.26	11599.70
479.44	11641.82
479.62	11723.74
479.80	11843.11
479.98	11899.28
480.16	12116.95
480.34	12056.10
480.52	12152.06
480.70	12095.89
480.88	12028.01
481.06	12262.07
481.24	12329.94
481.41	12592.08
481.59	12542.93
481.77	12945.50
481.95	12631.87
482.13	13200.62
482.31	12901.03
482.49	13294.24
482.67	13275.52
482.85	13329.35
483.03	13483.83
483.21	13530.64
483.39	13626.60
483.57	13575.11
483.74	13577.45
483.92	14047.90
484.10	13544.68
484.28	14288.97
484.46	14345.14
484.64	14490.26
484.82	14539.41
485.00	14569.83
485.18	14663.46
485.35	14991.13
485.53	14616.65
485.71	14661.12
485.89	15321.15
486.07	15300.08
486.25	15260.29
486.43	15316.47
486.61	15613.71
486.78	15852.45
486.96	15922.66
487.14	16009.26
487.32	16077.14
487.50	16411.84
487.68	16133.31
487.85	16372.05
488.03	16519.50
488.21	16978.25
488.39	16957.18
488.57	16826.11
488.75	16978.25
488.92	17294.22
489.10	17394.86
489.28	17626.57
489.46	17692.11
489.64	17418.27
489.81	18192.98
489.99	18068.94
490.17	18171.92
490.35	18272.56
490.53	18171.92
490.70	18558.11
490.88	18293.63
491.06	18684.50
491.24	18897.49
491.41	19246.23
491.59	19049.62
491.77	19082.39
491.95	19344.53
492.13	19435.81
492.30	19580.92
492.48	19707.31
492.66	20009.24
492.84	19630.07
493.01	20255.00
493.19	20194.14
493.37	20407.13
493.54	20046.69
493.72	20463.30
493.90	20407.13
494.08	20641.18
494.25	20821.41
494.43	20882.26
494.61	21256.75
494.79	21209.93
494.96	21170.15
495.14	21200.57
495.32	21343.35
495.49	21685.06
495.67	21090.57
495.85	21769.32
496.02	22047.85
496.20	22295.94
496.38	22029.12
496.55	22263.18
496.73	22656.39
496.91	22682.13
497.09	23026.19
497.26	22827.24
497.44	22759.37
497.62	22874.06
497.79	23171.30
497.97	23091.73
498.14	23491.96
498.32	23667.50
498.50	23185.35
498.67	23601.96
498.85	23466.21
499.03	23857.08
499.20	23981.13
499.38	23798.57
499.56	24093.47
499.73	24486.68
499.91	24400.08
500.08	24432.85
500.26	24201.14
500.44	24575.62
500.61	25013.31
500.79	24645.84
500.97	24858.83
501.14	25207.57
501.32	25001.60
501.49	24973.52
501.67	25287.15
501.84	25678.02
502.02	25443.96
502.20	25860.58
502.37	25678.02
502.55	25303.53
502.72	25399.49
502.90	25748.23
503.07	25745.89
503.25	26087.61
503.43	25685.04
503.60	26008.03
503.78	26232.72
503.95	26143.78
504.13	26485.50
504.30	26361.45
504.48	26693.81
504.65	26405.92
504.83	26836.58
505.01	26822.54
505.18	27098.72
505.36	26932.54
505.53	26934.88
505.71	26820.20
505.88	27431.08
506.06	27131.49
506.23	27302.35
506.41	27274.26
506.58	27646.41
506.76	27882.80
506.93	27583.21
507.11	27854.72
507.28	27747.05
507.46	27843.01
507.63	28020.89
507.81	28788.59
507.98	27864.08
508.16	28329.84
508.33	28280.69
508.50	28652.84
508.68	28634.11
508.85	28741.78
509.03	28690.29
509.20	28570.92
509.38	28713.69
509.55	28556.88
509.73	28950.09
509.90	29071.79
510.08	28952.43
510.25	29134.99
510.42	29371.38
510.60	29656.93
510.77	29563.31
510.95	29799.70
511.12	29652.25
511.30	29893.32
511.47	29851.19
511.64	29874.60
511.82	30103.97
511.99	29708.42
512.17	30340.36
512.34	30361.43
512.51	30799.11
512.69	30747.62
512.86	30871.67
513.04	30749.96
513.21	30852.94
513.38	30965.29
513.56	30888.05
513.73	30766.34
513.90	31012.10
514.08	31014.44
514.25	31220.41
514.43	31264.88
514.60	31707.24
514.77	31302.32
514.95	31845.33
515.12	31292.96
515.29	31555.10
515.47	31793.84
515.64	32002.14
515.81	31597.23
515.99	31552.76
516.16	32287.69
516.33	32137.90
516.51	31967.04
516.68	32034.91
516.85	32142.58
517.03	32561.53
517.20	32568.55
517.37	32664.52
517.54	32498.34
517.72	32807.29
517.89	33003.89
518.06	32711.33
518.24	32828.35
518.41	32512.38
518.58	32910.27
518.75	32744.09
518.93	32957.08
519.10	33071.77
519.27	33263.69
519.45	33092.83
519.62	33347.95
519.79	33624.14
519.96	33598.39
520.14	33935.43
520.31	33736.48
520.48	33528.17
520.65	33537.54
520.83	34218.63
521.00	34122.67
521.17	34377.79
521.34	33986.92
521.52	34174.16
521.69	34122.67
521.86	34490.13
522.03	34230.33
522.20	34927.81
522.38	34660.99
522.55	34623.54
522.72	34593.12
522.89	34848.24
523.07	35519.97
523.24	34724.19
523.41	35096.33
523.58	35040.16
523.75	35435.71
523.92	35239.11
524.10	34789.72
524.27	35601.89
524.44	35473.16
524.61	35604.23
524.78	35456.78
524.96	35842.96
525.13	35662.74
525.30	36011.48
525.47	35959.99
525.64	35784.45
525.81	36170.64
525.98	35871.05
526.16	36201.07
526.33	35906.16
526.50	36528.74
526.67	35964.67
526.84	36088.72
527.01	36180.00
527.18	36397.67
527.36	36811.95
527.53	36608.32
527.70	37008.55
527.87	36542.78
528.04	36720.66
528.21	36959.40
528.38	36666.83
528.55	37177.07
528.72	36774.50
528.89	36587.25
529.07	37186.43
529.24	36987.49
529.41	37422.83
529.58	36863.44
529.75	37373.67
529.92	37266.01
530.09	37223.88
530.26	37163.03
530.43	37273.03
530.60	37345.59
530.77	37148.98
530.94	37457.93
531.11	37483.68
531.28	37883.91
531.46	37902.64
531.63	37607.73
531.80	37944.76
531.97	38183.50
532.14	38132.01
532.31	38103.92
532.48	38553.30
532.65	38590.75
532.82	37979.87
532.99	37926.04
533.16	38445.64
533.33	38333.29
533.50	39178.23
533.67	38597.77
533.84	38281.80
534.01	38635.22
534.18	38962.90
534.35	38918.43
534.52	38614.16
534.69	38813.10
534.86	39321.00
535.03	38822.47
535.20	38927.79
535.37	38904.38
535.54	39433.35
535.71	38920.77
535.88	39442.71
536.05	39594.84
536.22	39213.34
536.38	39075.24
536.55	39283.55
536.72	39318.66
536.89	39381.85
537.06	39416.96
537.23	39763.36
537.40	39517.60
537.57	39374.83
537.74	39824.22
537.91	40105.08
538.08	40259.55
538.25	39426.32
538.42	40161.25
538.59	39864.00
538.75	39573.78
538.92	39981.03
539.09	40414.03
539.26	40013.80
539.43	40449.14
539.60	40657.45
539.77	40311.05
539.94	40685.53
540.11	40289.98
540.28	40638.72
540.44	40245.51
540.61	40463.18
540.78	40119.12
540.95	40577.87
541.12	40421.05
541.29	40610.64
541.46	40865.75
541.62	40388.28
541.79	40727.66
541.96	40676.17
542.13	40676.17
542.30	40722.98
542.47	41439.18
542.63	41095.13
542.80	41235.56
542.97	41574.94
543.14	41364.29
543.31	41811.33
543.48	41282.37
543.64	41675.58
543.81	41853.46
543.98	42113.26
544.15	41460.25
544.32	42258.37
544.48	42471.36
544.65	41949.42
544.82	41947.08
544.99	41701.32
545.16	41982.19
545.32	41553.87
545.49	42068.79
545.66	42485.40
545.83	42382.42
546.00	42185.82
546.16	42483.06
546.33	42220.92
546.50	41933.04
546.67	42244.33
546.83	41991.55
547.00	42117.94
547.17	41989.21
547.34	42604.77
547.50	42541.58
547.67	42974.58
547.84	42543.92
548.00	42869.25
548.17	42611.79
548.34	42981.60
548.51	43030.75
548.67	42733.50
548.84	43147.78
549.01	43274.16
549.18	42686.69
549.34	43182.88
549.51	42967.55
549.68	43271.82
549.84	43105.65
550.01	43430.98
550.18	43096.28
550.34	42895.00
550.51	43313.95
550.68	43489.49
550.84	43056.50
551.01	43639.29
551.18	43496.52
551.34	43269.48
551.51	43477.79
551.68	43625.25
551.84	43103.31
552.01	43213.31
552.18	43929.51
552.34	43091.60
552.51	43868.66
552.68	43250.76
552.84	43791.42
553.01	43941.22
553.18	43728.23
553.34	44037.18
553.51	43775.04
553.67	44076.97
553.84	44414.01
554.01	44130.80
554.17	44091.01
554.34	44547.42
554.51	43969.30
554.67	44215.06
554.84	44034.84
555.00	44292.30
555.17	44210.38
555.33	44561.46
555.50	44357.83
555.67	43981.01
555.83	44573.16
556.00	44568.48
556.16	44802.53
556.33	44739.34
556.50	44552.10
556.66	44835.30
556.83	44296.98
556.99	44772.11
557.16	44762.75
557.32	44966.37
557.49	44914.88
557.65	44275.91
557.82	45048.29
557.98	44772.11
558.15	44589.55
558.32	44507.63
558.48	44753.38
558.65	44463.16
558.81	45001.48
558.98	44634.02
559.14	44828.28
559.31	44650.40
559.47	44935.95
559.64	45221.49
559.80	45219.15
559.97	45146.59
560.13	45322.13
560.30	44961.69
560.46	45357.24
560.63	45223.83
560.79	45614.70
560.96	45654.49
561.12	45141.91
561.29	45312.77
561.45	45549.17
561.61	44945.31
561.78	45378.31
561.94	45565.55
562.11	45436.82
562.27	45289.37
562.44	45476.61
562.60	45567.89
562.77	45408.73
562.93	45560.87
563.10	45464.91
563.26	45258.94
563.42	45371.28
563.59	45504.70
563.75	45268.30
563.92	45565.55
564.08	45942.38
564.24	45743.43
564.41	45453.20
564.57	45755.13
564.74	45729.39
564.90	45745.77
565.07	45425.12
565.23	45815.99
565.39	45769.18
565.56	45937.69
565.72	45734.07
565.88	45848.75
566.05	45729.39
566.21	46110.89
566.38	45614.70
566.54	45911.95
566.70	46146.00
566.87	46131.96
567.03	46057.06
567.19	46143.66
567.36	45963.44
567.52	46424.53
567.68	46438.57
567.85	45958.76
568.01	46223.24
568.17	46099.19
568.34	46225.58
568.50	46263.03
568.66	45762.15
568.83	46263.03
568.99	45790.24
569.15	46122.60
569.32	46061.74
569.48	46150.68
569.64	46160.05
569.81	46621.13
569.97	46621.13
570.13	46721.77
570.30	46087.49
570.46	46368.35
570.62	46476.02
570.78	46043.02
570.95	46115.58
571.11	46464.32
571.27	46429.21
571.43	46490.06
571.60	46473.68
571.76	45839.39
571.92	45928.33
572.09	46522.83
572.25	46333.24
572.41	46323.88
572.57	46667.94
572.74	46813.05
572.90	46295.80
573.06	46520.49
573.22	46691.35
573.38	46806.03
573.55	46679.64
573.71	46747.52
573.87	46490.06
574.03	46546.23
574.20	47136.05
574.36	46534.53
574.52	46979.23
574.68	46501.76
574.84	46597.73
575.01	47004.98
575.17	46937.10
575.33	46628.15
575.49	46630.49
575.65	46808.37
575.82	46639.86
575.98	46417.50
576.14	46834.12
576.30	46974.55
576.46	46550.91
576.62	46625.81
576.79	46773.27
576.95	46188.13
577.11	46698.37
577.27	46777.95
577.43	46979.23
577.59	46520.49
577.75	46686.67
577.92	46401.12
578.08	46974.55
578.24	47002.64
578.40	47107.96
578.56	46684.33
578.72	46976.89
578.88	46988.60
579.04	46651.56
579.21	46768.58
579.37	46691.35
579.53	47107.96
579.69	46660.92
579.85	46691.35
580.01	46780.29
580.17	46902.00
580.33	46953.49
580.49	46724.11
580.65	46740.50
580.82	46981.57
580.98	46707.73
581.14	46459.63
581.30	46532.19
581.46	46756.88
581.62	46415.16
581.78	47002.64
581.94	47033.07
582.10	46621.13
582.26	47264.78
582.42	46602.41
582.58	46813.05
582.74	47051.79
582.90	46953.49
583.06	47152.43
583.22	46445.59
583.38	46852.84
583.54	47138.39
583.70	47187.54
583.86	47288.18
584.02	46909.02
584.18	47283.50
584.34	46962.85
584.50	46995.62
584.66	47283.50
584.82	47103.28
584.98	47400.53
585.14	47243.71
585.30	47072.85
585.46	46777.95
585.62	46761.56
585.78	47533.94
585.94	46857.52
586.10	47133.71
586.26	47140.73
586.42	47161.79
586.58	46906.68
586.74	46822.42
586.90	46834.12
587.06	46705.39
587.22	47299.89
587.38	46768.58
587.54	47526.92
587.70	47222.65
587.86	47470.75
588.02	47033.07
588.18	46808.37
588.34	47201.58
588.49	47105.62
588.65	47051.79
588.81	47117.32
588.97	47374.78
589.13	46990.94
589.29	47194.56
589.45	47702.46
589.61	47398.19
589.77	47363.08
589.93	47239.03
590.08	47707.14
