SpectraSuite Data File
++++++++++++++++++++++++++++++++++++
Date: Fri Oct 25 11:34:30 EDT 2013
User: price-jones
Dark Spectrum Present: No
Reference Spectrum Present: No
Number of Sampled Component Spectra: 1
Spectrometers: USB2+H05261
Integration Time (usec): 100000 (USB2+H05261)
Spectra Averaged: 1 (USB2+H05261)
Boxcar Smoothing: 0 (USB2+H05261)
Correct for Electrical Dark: No (USB2+H05261)
Strobe/Lamp Enabled: No (USB2+H05261)
Correct for Detector Non-linearity: No (USB2+H05261)
Correct for Stray Light: No (USB2+H05261)
Number of Pixels in Processed Spectrum: 2048
>>>>>Begin Processed Spectral Data<<<<<
365.73	339.38
365.92	339.38
366.12	339.38
366.32	175.54
366.52	205.97
366.72	182.56
366.91	114.69
367.11	187.24
367.31	131.07
367.51	142.77
367.70	154.48
367.90	175.54
368.10	161.50
368.30	156.82
368.49	105.32
368.69	152.13
368.89	168.52
369.09	124.05
369.28	201.29
369.48	100.64
369.68	257.46
369.87	194.26
370.07	276.18
370.27	362.78
370.47	285.55
370.66	475.13
370.86	442.36
371.06	512.58
371.25	578.11
371.45	533.64
371.65	559.39
371.84	543.00
372.04	533.64
372.24	571.09
372.44	500.87
372.63	564.07
372.83	631.94
373.03	655.35
373.22	561.73
373.42	554.71
373.62	580.45
373.81	615.56
374.01	699.82
374.21	629.60
374.40	667.05
374.60	615.56
374.79	657.69
374.99	690.46
375.19	695.14
375.38	622.58
375.58	643.65
375.78	692.80
375.97	660.03
376.17	751.31
376.37	608.54
376.56	669.39
376.76	664.71
376.95	667.05
377.15	664.71
377.35	660.03
377.54	653.01
377.74	706.84
377.93	645.99
378.13	697.48
378.33	657.69
378.52	676.41
378.72	737.27
378.91	763.01
379.11	704.50
379.31	648.33
379.50	674.07
379.70	688.12
379.89	704.50
380.09	704.50
380.28	685.78
380.48	674.07
380.68	664.71
380.87	730.25
381.07	734.93
381.26	758.33
381.46	798.12
381.65	709.18
381.85	690.46
382.04	760.67
382.24	805.14
382.43	791.10
382.63	809.83
382.83	858.98
383.02	744.29
383.22	753.65
383.41	713.86
383.61	788.76
383.80	774.72
384.00	816.85
384.19	812.17
384.39	730.25
384.58	760.67
384.78	795.78
384.97	823.87
385.17	793.44
385.36	849.61
385.56	814.51
385.75	777.06
385.95	833.23
386.14	959.62
386.34	791.10
386.53	795.78
386.72	866.00
386.92	870.68
387.11	858.98
387.31	816.85
387.50	898.77
387.70	814.51
387.89	880.04
388.09	940.90
388.28	924.51
388.48	875.36
388.67	950.26
388.86	891.74
389.06	858.98
389.25	833.23
389.45	875.36
389.64	968.98
389.84	915.15
390.03	964.30
390.22	952.60
390.42	976.00
390.61	1022.81
390.81	840.25
391.00	999.41
391.19	1015.79
391.39	987.71
391.58	973.66
391.78	973.66
391.97	1011.11
392.16	1004.09
392.36	997.07
392.55	968.98
392.75	1046.22
392.94	1032.18
393.13	1006.43
393.33	1041.54
393.52	1055.58
393.71	1095.37
393.91	1153.88
394.10	997.07
394.29	1128.14
394.49	1125.80
394.68	1011.11
394.88	1104.73
395.07	1062.60
395.26	1123.46
395.46	1076.65
395.65	1184.31
395.84	1060.26
396.04	1071.97
396.23	1226.44
396.42	1231.12
396.62	1221.76
396.81	1128.14
397.00	1198.35
397.19	1160.91
397.39	1160.91
397.58	1226.44
397.77	1212.40
397.97	1221.76
398.16	1284.95
398.35	1224.10
398.55	1231.12
398.74	1254.53
398.93	1242.82
399.12	1221.76
399.32	1287.29
399.51	1308.36
399.70	1310.70
399.90	1306.02
400.09	1282.61
400.28	1294.32
400.47	1336.45
400.67	1317.72
400.86	1366.87
401.05	1362.19
401.24	1327.08
401.44	1448.79
401.63	1413.68
401.82	1362.19
402.01	1373.89
402.21	1401.98
402.40	1434.75
402.59	1418.36
402.78	1390.28
402.97	1488.58
403.17	1593.90
403.36	1563.48
403.55	1554.12
403.74	1441.77
403.93	1528.37
404.13	1603.27
404.32	1540.07
404.51	1514.33
404.70	1607.95
404.89	1519.01
405.09	1572.84
405.28	1610.29
405.47	1657.10
405.66	1584.54
405.85	1607.95
406.05	1715.61
406.24	1657.10
406.43	1685.19
406.62	1703.91
406.81	1790.51
407.00	1748.38
407.20	1767.10
407.39	1750.72
407.58	1860.73
407.77	1720.29
407.96	1792.85
408.15	1851.36
408.34	1809.23
408.54	1830.30
408.73	1877.11
408.92	1886.47
409.11	1820.94
409.30	1823.28
409.49	1863.07
409.68	1895.83
409.87	1949.67
410.07	2008.18
410.26	2033.93
410.45	2015.20
410.64	1947.33
410.83	2073.71
411.02	2104.14
411.21	2062.01
411.40	2033.93
411.59	2076.06
411.78	2076.06
411.98	2094.78
412.17	2136.91
412.36	2125.21
412.55	2232.87
412.74	2275.00
412.93	2188.40
413.12	2260.96
413.31	2331.17
413.50	2253.94
413.69	2310.11
413.88	2443.52
414.07	2396.71
414.26	2415.43
414.45	2450.54
414.64	2457.56
414.83	2534.80
415.02	2478.63
415.22	2532.46
415.41	2548.84
415.60	2509.05
415.79	2576.93
415.98	2616.72
416.17	2693.96
416.36	2693.96
416.55	2661.19
416.74	2719.70
416.93	2621.40
417.12	2656.51
417.31	2825.03
417.50	2799.28
417.69	2775.88
417.88	2829.71
418.07	2787.58
418.26	2904.60
418.45	2834.39
418.64	2888.22
418.83	2883.54
419.02	2782.90
419.21	2925.67
419.39	2984.18
419.58	2871.84
419.77	2918.65
419.96	2928.01
420.15	3082.49
420.34	2963.12
420.53	3047.38
420.72	3185.47
420.91	3035.67
421.10	3164.40
421.29	3180.79
421.48	2984.18
421.67	3077.80
421.86	3059.08
422.05	3246.32
422.24	3206.53
422.43	3194.83
422.61	3225.26
422.80	3274.41
422.99	3328.24
423.18	3286.11
423.37	3281.43
423.56	3229.94
423.75	3269.73
423.94	3126.96
424.13	2995.89
424.32	3220.58
424.50	3377.39
424.69	3421.86
424.88	3421.86
425.07	3267.39
425.26	3215.90
425.45	3311.86
425.64	3211.22
425.83	3318.88
426.01	3344.63
426.20	3330.58
426.39	3342.28
426.58	3297.81
426.77	3358.67
426.96	3349.31
427.15	3417.18
427.33	3445.27
427.52	3403.14
427.71	3442.93
427.90	3396.12
428.09	3627.83
428.28	3609.11
428.46	3496.76
428.65	3407.82
428.84	3574.00
429.03	3527.19
429.22	3531.87
429.40	3552.93
429.59	3552.93
429.78	3555.27
429.97	3515.48
430.16	3691.02
430.34	3761.24
430.53	3843.16
430.72	3712.09
430.91	3674.64
431.10	3583.36
431.28	3742.52
431.47	3904.01
431.66	3768.26
431.85	3747.20
432.03	3859.54
432.22	4011.68
432.41	4007.00
432.60	3896.99
432.79	3878.27
432.97	3985.93
433.16	4007.00
433.35	3943.80
433.54	4014.02
433.72	4037.42
433.91	3939.12
434.10	4088.92
434.28	4159.13
434.47	3978.91
434.66	4058.49
434.85	4189.56
435.03	4091.26
435.22	4093.60
435.41	4327.65
435.59	4222.33
435.78	4210.62
435.97	4320.63
436.16	4297.22
436.34	4285.52
436.53	4339.35
436.72	4332.33
436.90	4215.30
437.09	4355.74
437.28	4161.47
437.46	4362.76
437.65	4414.25
437.84	4461.06
438.02	4344.03
438.21	4524.26
438.40	4451.70
438.58	4545.32
438.77	4638.94
438.96	4531.28
439.14	4624.90
439.33	4704.48
439.52	4788.74
439.70	4674.05
439.89	4737.24
440.08	4830.87
440.26	4826.18
440.45	4851.93
440.63	4950.23
440.82	5015.77
441.01	4828.53
441.19	5074.28
441.38	5043.85
441.57	4931.51
441.75	5329.40
441.94	5151.52
442.12	5069.60
442.31	5193.65
442.50	5212.37
442.68	5266.21
442.87	5107.05
443.05	5261.52
443.24	5416.00
443.43	5268.55
443.61	5334.08
443.80	5383.23
443.98	5263.86
444.17	5116.41
444.35	5345.78
444.54	5504.94
444.73	5455.79
444.91	5430.04
445.10	5542.39
445.28	5434.72
445.47	5294.29
445.65	5385.57
445.84	5509.62
446.02	5518.98
446.21	5458.13
446.39	5617.29
446.58	5589.20
446.77	5516.64
446.95	5313.02
447.14	5633.67
447.32	5600.90
447.51	5544.73
447.69	5542.39
447.88	5708.57
448.06	5467.49
448.25	5570.48
448.43	5678.14
448.62	5579.84
448.80	5455.79
448.99	5762.40
449.17	5689.84
449.36	5703.89
449.54	5743.67
449.73	5659.42
449.91	5797.51
450.10	5799.85
450.28	5837.30
450.46	5879.43
450.65	5877.09
450.83	5898.15
451.02	5989.43
451.20	5921.56
451.39	5902.83
451.57	6057.31
451.76	5865.38
451.94	5959.00
452.13	5926.24
452.31	6033.90
452.49	6113.48
452.68	6118.16
452.86	6026.88
453.05	6139.23
453.23	6235.19
453.42	6115.82
453.60	5937.94
453.78	6204.76
453.97	6155.61
454.15	6162.63
454.34	6284.34
454.52	6186.04
454.70	6209.44
454.89	6427.11
455.07	6267.95
455.26	6399.02
455.44	6366.26
455.62	6384.98
455.81	6232.85
455.99	6438.81
456.17	6361.58
456.36	6530.09
456.54	6384.98
456.73	6473.92
456.91	6703.29
457.09	6686.91
457.28	6736.06
457.46	6731.38
457.64	6654.14
457.83	6764.15
458.01	6715.00
458.19	6700.95
458.38	6750.10
458.56	6775.85
458.74	6768.83
458.93	6850.75
459.11	6883.52
459.29	6773.51
459.48	6944.37
459.66	6918.62
459.84	6993.52
460.03	6960.75
460.21	7030.97
460.39	7213.53
460.57	7094.16
460.76	7115.23
460.94	7119.91
461.12	7108.21
461.31	7173.74
461.49	7258.00
461.67	7157.36
461.85	7302.47
462.04	7314.17
462.22	7747.17
462.40	7456.95
462.59	7260.34
462.77	7389.07
462.95	7468.65
463.13	7459.29
463.32	7342.26
463.50	7508.44
463.68	7548.23
463.86	7545.89
464.05	7452.27
464.23	7494.40
464.41	7473.33
464.59	7559.93
464.78	7667.60
464.96	7637.17
465.14	7588.02
465.32	7681.64
465.50	7754.19
465.69	7667.60
465.87	7723.77
466.05	7777.60
466.23	7887.61
466.41	7911.01
466.60	7906.33
466.78	7840.79
466.96	7878.24
467.14	7960.16
467.32	8154.43
467.51	8023.36
467.69	7660.57
467.87	7988.25
468.05	8145.06
468.23	7943.78
468.41	7981.23
468.60	8140.38
468.78	8112.30
468.96	8091.23
469.14	8156.77
469.32	8407.20
469.50	8093.57
469.69	8308.90
469.87	8489.12
470.05	8449.33
470.23	8498.49
470.41	8355.71
470.59	8397.84
470.77	8414.23
470.95	8645.94
471.14	8599.13
471.32	8430.61
471.50	8784.03
471.68	8664.66
471.86	8819.14
472.04	8734.88
472.22	8805.10
472.40	8720.84
472.58	8863.61
472.77	9170.22
472.95	8982.98
473.13	9289.59
473.31	8903.40
473.49	9217.03
473.67	9210.01
473.85	9188.94
474.03	9317.67
474.21	9247.46
474.39	9472.15
474.57	9359.80
474.75	9680.46
474.93	9624.28
475.12	9371.50
475.30	9640.67
475.48	9500.23
475.66	9687.48
475.84	9769.40
476.02	9708.54
476.20	9816.21
476.38	9994.09
476.56	10097.07
476.74	10136.86
476.92	10094.73
477.10	10087.71
477.28	10120.48
477.46	10366.23
477.64	10277.29
477.82	10518.37
478.00	10553.48
478.18	10595.61
478.36	10679.86
478.54	10782.85
478.72	10862.43
478.90	10834.34
479.08	11035.63
479.26	10913.92
479.44	11187.76
479.62	11218.19
479.80	11246.27
479.98	11440.54
480.16	11744.81
480.34	11473.31
480.52	11714.38
480.70	11674.59
480.88	11648.85
481.06	12053.76
481.24	12049.08
481.41	12077.16
481.59	11957.80
481.77	12198.87
481.95	12238.66
482.13	12430.59
482.31	12365.05
482.49	12662.30
482.67	12882.31
482.85	12652.94
483.03	12821.45
483.21	13266.16
483.39	12992.31
483.57	13348.08
483.74	13195.94
483.92	13429.99
484.10	13334.03
484.28	13467.44
484.46	14008.11
484.64	14026.83
484.82	13783.41
485.00	13914.48
485.18	14174.28
485.35	14408.34
485.53	14359.19
485.71	14490.26
485.89	14562.81
486.07	14731.33
486.25	14707.93
486.43	14759.42
486.61	14977.09
486.78	15187.74
486.96	15124.54
487.14	15400.72
487.32	15243.91
487.50	15620.74
487.68	15536.48
487.85	15782.23
488.03	16236.30
488.21	16130.97
488.39	16458.65
488.57	16325.24
488.75	16283.11
488.92	16563.97
489.10	16847.18
489.28	16739.51
489.46	17011.01
489.64	16952.50
489.81	17404.22
489.99	17387.84
490.17	17275.49
490.35	17570.40
490.53	17710.83
490.70	17755.30
490.88	17776.37
491.06	17982.34
491.24	17869.99
491.41	17909.78
491.59	18405.97
491.77	18265.54
491.95	18640.03
492.13	18654.07
492.30	18782.80
492.48	18778.12
492.66	18799.18
492.84	18977.06
493.01	19510.71
493.19	19314.10
493.37	19363.25
493.54	19609.01
493.72	19740.08
493.90	19735.40
494.08	19791.57
494.25	19953.07
494.43	20093.50
494.61	20030.30
494.79	20271.38
494.96	20556.93
495.14	20631.82
495.32	20840.13
495.49	20835.45
495.67	20659.91
495.85	21153.76
496.02	21312.92
496.20	21209.93
496.38	21600.80
496.55	20835.45
496.73	21680.38
496.91	21308.24
497.09	21678.04
497.26	21818.47
497.44	21834.86
497.62	22082.95
497.79	22345.09
497.97	22089.98
498.14	22464.46
498.32	22558.08
498.50	22544.04
498.67	22883.42
498.85	22843.63
499.03	22902.14
499.20	22808.52
499.38	23112.79
499.56	23304.71
499.73	23173.64
499.91	23365.57
500.08	23653.45
500.26	23421.74
500.44	23690.90
500.61	23789.20
500.79	23599.62
500.97	24065.39
501.14	24217.52
501.32	23976.45
501.49	23843.04
501.67	24343.91
501.84	24491.37
502.02	24498.39
502.20	24652.86
502.37	24599.03
502.55	24496.05
502.72	24865.85
502.90	24922.02
503.07	24442.21
503.25	24952.45
503.43	24575.62
503.60	25270.76
503.78	25008.62
503.95	25184.16
504.13	25273.10
504.30	25596.10
504.48	25511.84
504.65	25518.86
504.83	26026.76
505.01	25673.34
505.18	25947.18
505.36	26139.10
505.53	26394.22
505.71	26106.34
505.88	26125.06
506.06	26312.30
506.23	26553.38
506.41	26274.85
506.58	26291.24
506.76	26581.46
506.93	26977.01
507.11	26672.74
507.28	26726.58
507.46	27049.57
507.63	26897.44
507.81	27119.79
507.98	27051.91
508.16	27260.22
508.33	27349.16
508.50	27648.75
508.68	27412.35
508.85	27824.29
509.03	27587.89
509.20	27426.40
509.38	28034.94
509.55	28081.75
509.73	28072.39
509.90	28060.68
510.08	28060.68
510.25	28273.67
510.42	28114.52
510.60	28336.87
510.77	28470.28
510.95	28896.25
511.12	28435.17
511.30	28505.38
511.47	28706.67
511.64	28753.48
511.82	28851.78
511.99	28957.11
512.17	29228.61
512.34	29092.86
512.51	29097.54
512.69	29479.05
512.86	29532.88
513.04	29762.25
513.21	29427.56
513.38	29677.99
513.56	29907.37
513.73	29673.31
513.90	29685.01
514.08	29809.06
514.25	29790.34
514.43	30010.35
514.60	29912.05
514.77	30080.56
514.95	30401.22
515.12	30185.89
515.29	30352.07
515.47	30424.62
515.64	30607.19
515.81	30246.74
515.99	30789.75
516.16	31110.40
516.33	31035.50
516.51	30803.79
516.68	30958.27
516.85	30665.70
517.03	31197.00
517.20	31126.78
517.37	31119.76
517.54	31475.52
517.72	31487.23
517.89	31646.38
518.06	31365.52
518.24	31489.57
518.41	31817.24
518.58	31550.42
518.75	31299.98
518.93	32048.96
519.10	32037.25
519.27	31814.90
519.45	31892.14
519.62	32081.72
519.79	32444.51
519.96	32264.28
520.14	32498.34
520.31	32222.16
520.48	32224.50
520.65	32563.87
520.83	32800.27
521.00	32500.68
521.17	32407.06
521.34	32788.56
521.52	33003.89
521.69	32727.71
521.86	33111.56
522.03	33202.84
522.20	33347.95
522.38	33357.32
522.55	33394.76
522.72	33415.83
522.89	33511.79
523.07	33528.17
523.24	33544.56
523.41	33429.87
523.58	33577.33
523.75	33792.65
523.92	33638.18
524.10	33958.83
524.27	34059.48
524.44	33872.23
524.61	34501.84
524.78	34227.99
524.96	34522.90
525.13	34330.98
525.30	34160.12
525.47	34366.09
525.64	34338.00
525.81	34953.56
525.98	34270.12
526.16	34649.29
526.33	34326.30
526.50	34759.30
526.67	34555.67
526.84	34532.26
527.01	34618.86
527.18	35157.19
527.36	35271.87
527.53	35241.45
527.70	34958.24
527.87	35271.87
528.04	35199.32
528.21	35573.80
528.38	35590.19
528.55	35534.01
528.72	35637.00
528.89	35236.77
529.07	35959.99
529.24	35517.63
529.41	35592.53
529.58	35756.36
529.75	35936.59
529.92	35629.98
530.09	35915.52
530.26	35978.72
530.43	36219.79
530.60	36306.39
530.77	36182.34
530.94	36236.17
531.11	35812.54
531.28	36048.93
531.46	36053.61
531.63	36549.81
531.80	36589.59
531.97	36804.92
532.14	36613.00
532.31	36257.24
532.48	36383.63
532.65	36573.21
532.82	36629.38
532.99	36484.27
533.16	36512.36
533.33	36568.53
533.50	36893.86
533.67	37029.62
533.84	36308.73
534.01	36774.50
534.18	37088.13
534.35	37387.72
534.52	37268.35
534.69	37549.21
534.86	37624.11
535.03	37443.89
535.20	37392.40
535.37	37947.11
535.54	37745.82
535.71	37427.51
535.88	38036.05
536.05	38110.94
536.22	38003.28
536.38	37326.86
536.55	37837.10
536.72	37848.80
536.89	37535.17
537.06	37706.03
537.23	38094.56
537.40	37818.38
537.57	38019.66
537.74	37977.53
537.91	38557.99
538.08	38066.47
538.25	38160.09
538.42	37968.17
538.59	38501.81
538.75	38548.62
538.92	38487.77
539.09	38553.30
539.26	38415.21
539.43	38436.28
539.60	38700.76
539.77	38457.34
539.94	38761.61
540.11	38888.00
540.28	38497.13
540.44	38848.21
540.61	39157.16
540.78	38946.51
540.95	38888.00
541.12	39250.78
541.29	39077.58
541.46	38904.38
541.62	39269.51
541.79	39372.49
541.96	39220.36
542.13	39005.03
542.30	39337.38
542.47	39365.47
542.63	39585.48
542.80	39632.29
542.97	39807.83
543.14	39704.85
543.31	39952.94
543.48	39885.07
543.64	40411.69
543.81	39957.63
543.98	39962.31
544.15	39824.22
544.32	40205.72
544.48	40442.12
544.65	40151.89
544.82	40463.18
544.99	40245.51
545.16	40519.35
545.32	40170.61
545.49	40505.31
545.66	40964.06
545.83	40577.87
546.00	40692.55
546.16	40423.39
546.33	40304.02
546.50	40634.04
546.67	40921.93
546.83	40278.28
547.00	40896.18
547.17	40364.88
547.34	40804.90
547.50	40891.50
547.67	41331.52
547.84	41195.77
548.00	41123.21
548.17	41422.80
548.34	41193.43
548.51	41741.11
548.67	40942.99
548.84	41354.93
549.01	40985.12
549.18	41336.20
549.34	41345.56
549.51	41745.80
549.68	41617.07
549.84	41375.99
550.01	41638.13
550.18	40870.43
550.34	41797.29
550.51	41572.60
550.68	41900.27
550.84	41310.46
551.01	42244.33
551.18	41947.08
551.34	41804.31
551.51	42139.00
551.68	42356.67
551.84	41851.12
552.01	42080.49
552.18	42024.32
552.34	41572.60
552.51	41940.06
552.68	41904.95
552.84	42216.24
553.01	42099.22
553.18	41940.06
553.34	42071.13
553.51	42157.73
553.67	42225.60
553.84	42323.91
554.01	41935.38
554.17	41998.57
554.34	42742.86
554.51	42356.67
554.67	42689.03
554.84	42635.20
555.00	42260.71
555.17	42546.26
555.33	42564.98
555.50	42387.10
555.67	42857.55
555.83	42602.43
556.00	42824.78
556.16	43438.00
556.33	42733.50
556.50	42983.94
556.66	43281.19
556.83	42522.85
556.99	42646.90
557.16	43171.18
557.32	42974.58
557.49	43344.38
557.65	43026.07
557.82	43026.07
557.98	43157.14
558.15	42784.99
558.32	43019.05
558.48	43058.84
558.65	43393.53
558.81	43253.10
558.98	42726.48
559.14	42941.81
559.31	42803.72
559.47	43349.06
559.64	43243.74
559.80	43292.89
559.97	43452.05
560.13	43335.02
560.30	43157.14
560.46	43948.24
560.63	43941.22
560.79	44212.72
560.96	43985.69
561.12	43594.82
561.29	43725.89
561.45	43784.40
561.61	43241.40
561.78	43840.57
561.94	43381.83
562.11	44011.43
562.27	43639.29
562.44	43592.48
562.60	43737.59
562.77	43978.67
562.93	43739.93
563.10	44179.95
563.26	44018.46
563.42	44222.08
563.59	43999.73
563.75	43784.40
563.92	44067.61
564.08	43732.91
564.24	44301.66
564.41	43833.55
564.57	43901.43
564.74	43948.24
564.90	43931.86
565.07	44023.14
565.23	43847.60
565.39	44229.10
565.56	43990.37
565.72	43934.20
565.88	44311.02
566.05	44327.41
566.21	43896.75
566.38	44217.40
566.54	44299.32
566.70	44360.17
566.87	44577.84
567.03	44243.15
567.19	44718.28
567.36	44009.09
567.52	44212.72
567.68	44388.26
567.85	44304.00
568.01	44409.32
568.17	44083.99
568.34	44168.25
568.50	44449.11
568.66	44313.36
568.83	44175.27
568.99	44109.74
569.15	44533.37
569.32	44350.81
569.48	44545.08
569.64	44959.35
569.81	44676.15
569.97	44893.82
570.13	44250.17
570.30	44348.47
570.46	44856.37
570.62	44612.95
570.78	44643.38
570.95	44304.00
571.11	44804.88
571.27	44322.72
571.43	44603.59
571.60	44907.86
571.76	44456.14
571.92	44685.51
572.09	44596.57
572.25	44282.94
572.41	44531.03
572.57	44549.76
572.74	45146.59
572.90	44727.64
573.06	44378.90
573.22	45088.08
573.38	45043.61
573.55	44701.89
573.71	44966.37
573.87	44961.69
574.03	44751.04
574.20	45294.05
574.36	45228.51
574.52	45050.63
574.68	45270.64
574.84	45048.29
575.01	44968.71
575.17	45134.89
575.33	44837.64
575.49	44863.39
575.65	44825.94
575.82	45102.12
575.98	44418.69
576.14	44898.50
576.30	45167.66
576.46	44828.28
576.62	44996.80
576.79	44985.10
576.95	44626.99
577.11	45226.17
577.27	45275.32
577.43	44598.91
577.59	44994.46
577.75	44568.48
577.92	44821.26
578.08	44744.02
578.24	45062.33
578.40	45230.85
578.56	45312.77
578.72	45022.54
578.88	45680.24
579.04	45216.81
579.21	45092.76
579.37	45209.79
579.53	45015.52
579.69	45205.11
579.85	45034.25
580.01	45001.48
580.17	45268.30
580.33	44858.71
580.49	45111.49
580.65	45247.24
580.82	45015.52
580.98	45244.90
581.14	44451.45
581.30	45010.84
581.46	45301.07
581.62	45177.02
581.78	44708.91
581.94	45663.85
582.10	44828.28
582.26	45542.14
582.42	44753.38
582.58	45230.85
582.74	45441.50
582.90	45069.36
583.06	45347.88
583.22	45305.75
583.38	45661.51
583.54	45326.81
583.70	45759.81
583.86	45544.48
584.02	44765.09
584.18	45883.86
584.34	45090.42
584.50	45624.06
584.66	45167.66
584.82	45308.09
584.98	45488.31
585.14	45708.32
585.30	45249.58
585.46	45329.16
585.62	45067.02
585.78	45284.68
585.94	45233.19
586.10	45343.20
586.26	44889.13
586.42	45109.14
586.58	45228.51
586.74	45247.24
586.90	45174.68
587.06	44931.26
587.22	45811.31
587.38	44978.07
587.54	45490.65
587.70	45556.19
587.86	45228.51
588.02	45745.77
588.18	45483.63
588.34	45382.99
588.49	45549.17
588.65	45188.72
588.81	45495.33
588.97	45811.31
589.13	45450.86
589.29	45174.68
589.45	45450.86
589.61	45703.64
589.77	45146.59
589.93	45162.98
590.08	45656.83
