SpectraSuite Data File
++++++++++++++++++++++++++++++++++++
Date: Fri Oct 25 11:22:33 EDT 2013
User: price-jones
Dark Spectrum Present: No
Reference Spectrum Present: No
Number of Sampled Component Spectra: 1
Spectrometers: USB2+H05261
Integration Time (usec): 100000 (USB2+H05261)
Spectra Averaged: 1 (USB2+H05261)
Boxcar Smoothing: 0 (USB2+H05261)
Correct for Electrical Dark: No (USB2+H05261)
Strobe/Lamp Enabled: No (USB2+H05261)
Correct for Detector Non-linearity: No (USB2+H05261)
Correct for Stray Light: No (USB2+H05261)
Number of Pixels in Processed Spectrum: 2048
>>>>>Begin Processed Spectral Data<<<<<
365.73	138.09
365.92	138.09
366.12	138.09
366.32	102.98
366.52	98.30
366.72	154.48
366.91	56.17
367.11	77.24
367.31	110.01
367.51	56.17
367.70	105.32
367.90	117.03
368.10	93.62
368.30	166.18
368.49	102.98
368.69	119.37
368.89	107.66
369.09	142.77
369.28	154.48
369.48	135.75
369.68	187.24
369.87	191.92
370.07	196.60
370.27	276.18
370.47	383.85
370.66	557.05
370.86	564.07
371.06	688.12
371.25	695.14
371.45	657.69
371.65	664.71
371.84	678.76
372.04	699.82
372.24	648.33
372.44	711.52
372.63	695.14
372.83	702.16
373.03	784.08
373.22	741.95
373.42	746.63
373.62	732.59
373.81	788.76
374.01	744.29
374.21	758.33
374.40	851.96
374.60	777.06
374.79	774.72
374.99	861.32
375.19	767.70
375.38	861.32
375.58	798.12
375.78	863.66
375.97	908.13
376.17	919.83
376.37	837.91
376.56	910.47
376.76	905.79
376.95	915.15
377.15	966.64
377.35	940.90
377.54	938.55
377.74	873.02
377.93	926.85
378.13	858.98
378.33	992.39
378.52	896.43
378.72	894.08
378.91	971.32
379.11	1013.45
379.31	842.59
379.50	917.49
379.70	1006.43
379.89	1004.09
380.09	1022.81
380.28	1043.88
380.48	971.32
380.68	1083.67
380.87	1015.79
381.07	994.73
381.26	999.41
381.46	952.60
381.65	987.71
381.85	1041.54
382.04	1151.54
382.24	1064.94
382.43	945.58
382.63	1109.41
382.83	1074.31
383.02	1142.18
383.22	1109.41
383.41	1132.82
383.61	1102.39
383.80	1022.81
384.00	1109.41
384.19	1107.07
384.39	1184.31
384.58	1191.33
384.78	1107.07
384.97	1088.35
385.17	1186.65
385.36	1142.18
385.56	1153.88
385.75	1174.95
385.95	1170.27
386.14	1210.06
386.34	1254.53
386.53	1172.61
386.72	1188.99
386.92	1259.21
387.11	1247.51
387.31	1299.00
387.50	1219.42
387.70	1291.98
387.89	1196.01
388.09	1228.78
388.28	1254.53
388.48	1352.83
388.67	1228.78
388.86	1268.57
389.06	1329.42
389.25	1287.29
389.45	1383.26
389.64	1331.76
389.84	1301.34
390.03	1448.79
390.22	1432.41
390.42	1268.57
390.61	1434.75
390.81	1341.13
391.00	1380.92
391.19	1401.98
391.39	1476.88
391.58	1430.07
391.78	1413.68
391.97	1504.96
392.16	1500.28
392.36	1577.52
392.55	1530.71
392.75	1570.50
392.94	1629.01
393.13	1596.25
393.33	1535.39
393.52	1537.73
393.71	1582.20
393.91	1624.33
394.10	1565.82
394.29	1647.74
394.49	1633.69
394.68	1647.74
394.88	1694.55
395.07	1739.02
395.26	1696.89
395.46	1699.23
395.65	1678.16
395.84	1762.42
396.04	1837.32
396.23	1823.28
396.42	1748.38
396.62	1802.21
396.81	1825.62
397.00	1778.81
397.19	1760.08
397.39	1811.57
397.58	1856.04
397.77	1743.70
397.97	1959.03
398.16	1968.39
398.35	1888.81
398.55	1944.99
398.74	1916.90
398.93	2047.97
399.12	1989.46
399.32	1893.49
399.51	1940.30
399.70	1994.14
399.90	1984.77
400.09	2071.37
400.28	2054.99
400.47	2036.27
400.67	2008.18
400.86	2038.61
401.05	2111.16
401.24	2092.44
401.44	2047.97
401.63	2120.53
401.82	2207.13
402.01	2155.63
402.21	2207.13
402.40	2291.38
402.59	2139.25
402.78	2204.78
402.97	2267.98
403.17	2394.37
403.36	2403.73
403.55	2333.51
403.74	2396.71
403.93	2401.39
404.13	2359.26
404.32	2345.22
404.51	2459.90
404.70	2324.15
404.89	2377.98
405.09	2370.96
405.28	2480.97
405.47	2513.74
405.66	2572.25
405.85	2567.57
406.05	2490.33
406.24	2647.15
406.43	2595.65
406.62	2647.15
406.81	2712.68
407.00	2661.19
407.20	2597.99
407.39	2665.87
407.58	2691.62
407.77	2810.98
407.96	2775.88
408.15	2731.41
408.34	2785.24
408.54	2881.20
408.73	2808.64
408.92	2820.35
409.11	3070.78
409.30	2876.52
409.49	3075.46
409.68	2881.20
409.87	2939.71
410.07	3014.61
410.26	3131.64
410.45	3052.06
410.64	3056.74
410.83	3159.72
411.02	3098.87
411.21	3122.27
411.40	3220.58
411.59	3173.77
411.78	3279.09
411.98	3197.17
412.17	3201.85
412.36	3335.26
412.55	3414.84
412.74	3375.05
412.93	3288.45
413.12	3393.78
413.31	3531.87
413.50	3466.33
413.69	3501.44
413.88	3581.02
414.07	3644.21
414.26	3684.00
414.45	3735.50
414.64	3808.05
414.83	3784.65
415.02	3765.92
415.22	3768.26
415.41	3955.51
415.60	3974.23
415.79	3854.86
415.98	4074.87
416.17	4023.38
416.36	3974.23
416.55	4016.36
416.74	4107.64
416.93	4093.60
417.12	4121.68
417.31	4210.62
417.50	4217.65
417.69	4341.69
417.88	4276.16
418.07	4280.84
418.26	4341.69
418.45	4482.13
418.64	4557.02
418.83	4505.53
419.02	4306.59
419.21	4477.44
419.39	4517.23
419.58	4496.17
419.77	4512.55
419.96	4601.49
420.15	4734.90
420.34	4620.22
420.53	4732.56
420.72	4786.40
420.91	4678.73
421.10	4770.01
421.29	4889.38
421.48	4861.29
421.67	4952.57
421.86	4720.86
422.05	4894.06
422.24	4924.49
422.43	4933.85
422.61	4837.89
422.80	5142.16
422.99	4978.32
423.18	4994.70
423.37	5191.31
423.56	5081.30
423.75	4957.25
423.94	4910.44
424.13	4664.69
424.32	4933.85
424.50	5097.69
424.69	5184.29
424.88	5224.08
425.07	5125.77
425.26	5055.56
425.45	5097.69
425.64	5088.32
425.83	4964.28
426.01	5149.18
426.20	5078.96
426.39	5043.85
426.58	5275.57
426.77	4947.89
426.96	5165.56
427.15	5233.44
427.33	5130.45
427.52	5305.99
427.71	5228.76
427.90	5263.86
428.09	5291.95
428.28	5301.31
428.46	5369.19
428.65	5401.96
428.84	5549.41
429.03	5551.75
429.22	5348.12
429.40	5547.07
429.59	5474.51
429.78	5387.91
429.97	5327.06
430.16	5743.67
430.34	5788.14
430.53	5687.50
430.72	5720.27
430.91	5586.86
431.10	5792.83
431.28	5816.23
431.47	5959.00
431.66	5879.43
431.85	5851.34
432.03	5879.43
432.22	6108.80
432.41	5827.93
432.60	6033.90
432.79	5900.49
432.97	6113.48
433.16	6113.48
433.35	6104.12
433.54	6328.81
433.72	6190.72
433.91	6293.70
434.10	6274.98
434.28	6162.63
434.47	6242.21
434.66	6265.61
434.85	6267.95
435.03	6457.54
435.22	6349.87
435.41	6647.12
435.59	6417.75
435.78	6321.79
435.97	6525.41
436.16	6487.96
436.34	6497.33
436.53	6600.31
436.72	6855.43
436.90	6553.50
437.09	6750.10
437.28	6544.14
437.46	6766.49
437.65	6761.81
437.84	6822.66
438.02	6691.59
438.21	6794.58
438.40	6857.77
438.58	7115.23
438.77	7150.34
438.96	7089.48
439.14	7012.24
439.33	7248.64
439.52	7225.23
439.70	7379.71
439.89	7232.26
440.08	7286.09
440.26	7435.88
440.45	7557.59
440.63	7506.10
440.82	7644.19
441.01	7735.47
441.19	7763.56
441.38	7960.16
441.57	7796.32
441.75	7927.39
441.94	8236.35
442.12	8053.78
442.31	8379.12
442.50	7995.27
442.68	7936.76
442.87	8072.51
443.05	8187.19
443.24	8404.86
443.43	8215.28
443.61	8311.24
443.80	8498.49
443.98	8187.19
444.17	7901.65
444.35	8341.67
444.54	8475.08
444.73	8365.07
444.91	8243.37
445.10	8559.34
445.28	8346.35
445.47	8486.78
445.65	8446.99
445.84	8566.36
446.02	8585.08
446.21	8482.10
446.39	8479.76
446.58	8559.34
446.77	8688.07
446.95	8280.82
447.14	8774.67
447.32	8739.56
447.51	8683.39
447.69	8510.19
447.88	8542.96
448.06	8781.69
448.25	8608.49
448.43	8634.24
448.62	8645.94
448.80	8699.77
448.99	8994.68
449.17	8997.02
449.36	8655.30
449.54	9032.13
449.73	9116.39
449.91	9078.94
450.10	9071.92
450.28	9221.71
450.46	9198.31
450.65	9104.68
450.83	9144.47
451.02	9259.16
451.20	9233.41
451.39	9352.78
451.57	9462.79
451.76	9083.62
451.94	9352.78
452.13	9551.73
452.31	9479.17
452.49	9163.20
452.68	9537.68
452.86	9504.92
453.05	9617.26
453.23	9488.53
453.42	9390.23
453.60	9521.30
453.78	9923.87
453.97	9579.81
454.15	9706.20
454.34	9507.26
454.52	9937.91
454.70	9696.84
454.89	9708.54
455.07	9951.96
455.26	10052.60
455.44	10043.24
455.62	10085.37
455.81	10038.56
455.99	10150.90
456.17	10310.06
456.36	10246.87
456.54	10216.44
456.73	10485.60
456.91	10724.33
457.09	10661.14
457.28	10850.72
457.46	10541.77
457.64	10724.33
457.83	10747.74
458.01	10509.01
458.19	10939.66
458.38	10792.21
458.56	10970.09
458.74	11044.99
458.93	10810.93
459.11	10801.57
459.29	10637.73
459.48	10892.85
459.66	10899.87
459.84	11012.22
460.03	11276.70
460.21	11089.46
460.39	11129.25
460.57	11063.71
460.76	11012.22
460.94	11321.17
461.12	11508.41
461.31	11276.70
461.49	11335.21
461.67	11342.24
461.85	11527.14
462.04	11646.51
462.22	11908.65
462.40	11609.06
462.59	11585.65
462.77	11655.87
462.95	11808.00
463.13	11665.23
463.32	11712.04
463.50	11971.84
463.68	11936.73
463.86	11990.56
464.05	11852.47
464.23	12035.03
464.41	12084.19
464.59	11950.78
464.78	12283.13
464.96	12149.72
465.14	11932.05
465.32	12446.97
465.50	12311.22
465.69	12269.09
465.87	12287.81
466.05	12290.15
466.23	12287.81
466.41	12535.91
466.60	12760.60
466.78	12549.95
466.96	12542.93
467.14	12367.39
467.32	12599.10
467.51	12362.71
467.69	12568.68
467.87	12484.42
468.05	12650.60
468.23	12468.03
468.41	12566.34
468.60	12741.88
468.78	12936.14
468.96	12854.22
469.14	12678.68
469.32	13048.49
469.50	12758.26
469.69	13130.41
469.87	13427.65
470.05	13207.64
470.23	13434.68
470.41	13116.36
470.59	13359.78
470.77	13301.26
470.95	13507.23
471.14	13689.79
471.32	13266.16
471.50	13720.22
471.68	13893.42
471.86	13764.69
472.04	14022.15
472.22	14155.56
472.40	14001.08
472.58	14321.74
472.77	14359.19
472.95	14197.69
473.13	14752.40
473.31	14108.75
473.49	14171.94
473.67	14258.54
473.85	14558.13
474.03	14829.63
474.21	14689.20
474.39	15152.63
474.57	14895.17
474.75	15117.52
474.93	15000.49
475.12	15194.76
475.30	15227.53
475.48	15426.47
475.66	15468.60
475.84	15543.50
476.02	15742.44
476.20	15784.57
476.38	15747.12
476.56	16126.29
476.74	16362.69
476.92	16091.18
477.10	16049.05
477.28	16477.37
477.46	16248.00
477.64	16844.84
477.82	16725.47
478.00	17153.79
478.18	17142.08
478.36	17163.15
478.54	17329.33
478.72	17380.82
478.90	17488.48
479.08	17919.14
479.26	17781.05
479.44	17980.00
479.62	17984.68
479.80	18422.36
479.98	18171.92
480.16	18750.03
480.34	18382.57
480.52	18843.65
480.70	18918.55
480.88	18817.91
481.06	18963.02
481.24	18965.36
481.41	19601.99
481.59	19552.84
481.77	19475.60
481.95	19707.31
482.13	20362.66
482.31	20126.27
482.49	20486.71
482.67	20315.85
482.85	20652.89
483.03	20664.59
483.21	21095.25
483.39	21352.71
483.57	21048.44
483.74	21301.22
483.92	21809.11
484.10	21635.91
484.28	22073.59
484.46	22459.78
484.64	22466.80
484.82	22281.90
485.00	22768.73
485.18	23194.71
485.35	23159.60
485.53	23199.39
485.71	23035.55
485.89	23838.36
486.07	23718.99
486.25	23740.05
486.43	23775.16
486.61	23784.52
486.78	24226.89
486.96	24388.38
487.14	24931.39
487.32	25303.53
487.50	25160.76
487.68	25181.82
487.85	25172.46
488.03	25666.31
488.21	25956.54
488.39	26080.59
488.57	26298.26
488.75	26876.37
488.92	26761.69
489.10	27072.98
489.28	27159.58
489.46	27328.10
489.64	27292.99
489.81	27604.28
489.99	27983.44
490.17	28051.32
490.35	28505.38
490.53	28531.13
490.70	28629.43
490.88	28587.30
491.06	28898.59
491.24	29010.94
491.41	29738.85
491.59	29785.66
491.77	29502.45
491.95	30239.72
492.13	30251.42
492.30	30157.80
492.48	30295.89
492.66	30682.08
492.84	30827.20
493.01	30998.06
493.19	30965.29
493.37	31402.97
493.54	31639.36
493.72	32011.51
493.90	31828.95
494.08	32371.95
494.25	32283.01
494.43	32297.05
494.61	32774.52
494.79	32985.17
494.96	32910.27
495.14	32823.67
495.32	33591.37
495.49	33663.93
495.67	33436.89
495.85	33804.36
496.02	33954.15
496.20	34256.08
496.38	34422.26
496.55	34597.80
496.73	35321.02
496.91	34897.39
497.09	35311.66
497.26	35330.39
497.44	35096.33
497.62	35620.61
497.79	36158.94
497.97	36086.38
498.14	36191.70
498.32	36552.15
498.50	36498.31
498.67	36362.56
498.85	37202.82
499.03	36739.39
499.20	37434.53
499.38	37546.87
499.56	37361.97
499.73	37546.87
499.91	37823.06
500.08	37820.72
500.26	37787.95
500.44	38340.32
500.61	38202.22
500.79	38160.09
500.97	38754.59
501.14	38939.49
501.32	38834.17
501.49	39454.41
501.67	38911.41
501.84	39519.95
502.02	39470.79
502.20	39646.33
502.37	39723.57
502.55	39594.84
502.72	40041.88
502.90	40100.40
503.07	40175.30
503.25	40336.79
503.43	40212.74
503.60	40456.16
503.78	40561.48
503.95	40528.72
504.13	40868.09
504.30	41263.64
504.48	40739.36
504.65	41104.49
504.83	41277.69
505.01	41816.01
505.18	41649.83
505.36	42246.67
505.53	41436.84
505.71	42267.73
505.88	41947.08
506.06	41738.77
506.23	42457.32
506.41	42466.68
506.58	42686.69
506.76	42527.53
506.93	43035.43
507.11	43051.81
507.28	42452.64
507.46	43653.33
507.63	43131.39
507.81	44039.52
507.98	43779.72
508.16	43337.36
508.33	43789.08
508.50	44215.06
508.68	44123.78
508.85	45027.23
509.03	44034.84
509.20	44671.46
509.38	45069.36
509.55	45214.47
509.73	45251.92
509.90	44828.28
510.08	45092.76
510.25	44954.67
510.42	45195.74
510.60	45177.02
510.77	45366.60
510.95	45680.24
511.12	45537.46
511.30	46005.57
511.47	46071.10
511.64	46454.95
511.82	46518.15
511.99	45900.25
512.17	46387.08
512.34	46396.44
512.51	46848.16
512.69	46967.53
512.86	47012.00
513.04	47189.88
513.21	47000.30
513.38	47112.64
513.56	47288.18
513.73	47187.54
513.90	47576.07
514.08	47543.30
514.25	47810.12
514.43	48030.13
514.60	48245.46
514.77	47775.02
514.95	48308.66
515.12	47873.32
515.29	48210.35
515.47	48472.49
515.64	48308.66
515.81	48245.46
515.99	48633.99
516.16	48889.11
516.33	48978.05
516.51	49312.75
516.68	48994.43
516.85	49038.90
517.03	49436.80
517.20	49436.80
517.37	49284.66
517.54	49516.37
517.72	49612.34
517.89	49642.76
518.06	49785.54
518.24	49811.28
518.41	49478.92
518.58	49572.55
518.75	49415.73
518.93	49825.32
519.10	49977.46
519.27	50349.60
519.45	50129.59
519.62	50705.37
519.79	50834.10
519.96	50270.03
520.14	50810.69
520.31	50471.31
520.48	50770.90
520.65	50740.47
520.83	51086.87
521.00	51327.95
521.17	51302.20
521.34	51224.96
521.52	51332.63
521.69	51463.70
521.86	51405.19
522.03	51573.70
522.20	52013.73
522.38	51760.95
522.55	51798.40
522.72	51882.66
522.89	51758.61
523.07	52121.39
523.24	51920.10
523.41	52308.63
523.58	51885.00
523.75	52296.93
523.92	52650.35
524.10	52479.49
524.27	52418.64
524.44	52444.38
524.61	52453.75
524.78	52566.09
524.96	52781.42
525.13	52832.91
525.30	52589.50
525.47	53083.35
525.64	53006.11
525.81	53125.48
525.98	53088.03
526.16	53052.92
526.33	52921.85
526.50	53432.09
526.67	52802.49
526.84	53378.26
527.01	53284.64
527.18	53556.14
527.36	53516.35
527.53	53464.86
527.70	53705.93
527.87	54005.52
528.04	53642.74
528.21	53937.65
528.38	53591.25
528.55	53904.88
528.72	53642.74
528.89	53619.33
529.07	53755.08
529.24	53757.42
529.41	54190.42
529.58	53916.58
529.75	54197.44
529.92	54089.78
530.09	54337.88
530.26	54162.34
530.43	54230.21
530.60	54351.92
530.77	54185.74
530.94	54426.82
531.11	54372.99
531.28	54539.16
531.46	54494.69
531.63	54843.43
531.80	54742.79
531.97	54665.55
532.14	54941.74
532.31	54798.96
532.48	54958.12
532.65	55047.06
532.82	54820.03
532.99	55255.37
533.16	55014.29
533.33	55449.63
533.50	54932.37
533.67	55166.43
533.84	55107.91
534.01	55215.58
534.18	55344.31
534.35	55433.25
534.52	55229.62
534.69	55709.43
534.86	55554.96
535.03	55550.27
535.20	55515.17
535.37	55543.25
535.54	56020.72
535.71	55503.46
535.88	55980.93
536.05	55646.24
536.22	55922.42
536.38	56013.70
536.55	56069.87
536.72	55997.32
536.89	55791.35
537.06	56109.66
537.23	55976.25
537.40	55861.57
537.57	56175.20
537.74	56252.44
537.91	56596.49
538.08	56229.03
538.25	56224.35
538.42	56168.18
538.59	56535.64
538.75	56198.60
538.92	56371.80
539.09	56589.47
539.26	56348.40
539.43	56313.29
539.60	56507.55
539.77	56357.76
539.94	56683.09
540.11	56926.51
540.28	56479.47
540.44	56652.67
540.61	56947.57
540.78	56629.26
540.95	56680.75
541.12	56713.52
541.29	56919.49
541.46	56917.15
541.62	56846.93
541.79	57116.09
541.96	56865.66
542.13	56807.14
542.30	56968.64
542.47	57268.23
542.63	57219.08
542.80	57233.12
542.97	57457.81
543.14	57495.26
543.31	57502.28
543.48	57495.26
543.64	57668.46
543.81	57827.62
543.98	57708.25
544.15	57537.39
544.32	57726.97
544.48	57904.85
544.65	57535.05
544.82	57785.49
544.99	57666.12
545.16	57888.47
545.32	57684.84
545.49	58078.05
545.66	58337.85
545.83	57925.92
546.00	58152.95
546.16	57984.43
546.33	58099.12
546.50	57888.47
546.67	58159.97
546.83	57579.52
547.00	58033.58
547.17	58145.93
547.34	58157.63
547.50	58281.68
547.67	58440.84
547.84	58372.96
548.00	58667.87
548.17	58548.50
548.34	58506.37
548.51	58585.95
548.67	58663.19
548.84	58621.06
549.01	58372.96
549.18	58546.16
549.34	58546.16
549.51	58443.18
549.68	58688.93
549.84	58791.92
550.01	58609.35
550.18	58532.12
550.34	58665.53
550.51	58784.90
550.68	58588.29
550.84	58546.16
551.01	59119.59
551.18	59068.10
551.34	58955.75
551.51	58925.33
551.68	58941.71
551.84	58794.26
552.01	58911.28
552.18	59276.41
552.34	58817.66
552.51	59044.69
552.68	58862.13
552.84	59168.74
553.01	59372.37
553.18	59098.53
553.34	59119.59
553.51	58925.33
553.67	59096.19
553.84	59217.89
554.01	59150.02
554.17	59311.52
554.34	59489.40
554.51	59178.10
554.67	59271.73
554.84	59313.86
555.00	59416.84
555.17	59395.77
555.33	59346.62
555.50	59222.58
555.67	59388.75
555.83	59437.90
556.00	59419.18
556.16	59709.41
556.33	59554.93
556.50	59707.07
556.66	59756.22
556.83	59388.75
556.99	59866.22
557.16	59941.12
557.32	59653.23
557.49	59861.54
557.65	59622.81
557.82	59622.81
557.98	59833.46
558.15	59980.91
558.32	59861.54
558.48	59590.04
558.65	59810.05
558.81	59994.95
558.98	59817.07
559.14	59945.80
559.31	60053.47
559.47	59990.27
559.64	60210.28
559.80	60137.72
559.97	60182.19
560.13	60086.23
560.30	60004.31
560.46	60109.64
560.63	60163.47
560.79	60004.31
560.96	60154.11
561.12	60013.68
561.29	60236.03
561.45	60257.09
561.61	60252.41
561.78	60097.94
561.94	60303.90
562.11	60170.49
562.27	60191.56
562.44	60526.25
562.60	60126.02
562.77	60301.56
562.93	60299.22
563.10	60378.80
563.26	60280.50
563.42	60486.46
563.59	60362.42
563.75	60252.41
563.92	60233.69
564.08	60280.50
564.24	60329.65
564.41	60654.98
564.57	60542.64
564.74	60430.29
564.90	60369.44
565.07	60500.51
565.23	60411.57
565.39	60360.08
565.56	60423.27
565.72	60320.29
565.88	60638.60
566.05	60603.49
566.21	60671.37
566.38	60610.51
566.54	60720.52
566.70	60678.39
566.87	60699.45
567.03	60491.15
567.19	60687.75
567.36	60526.25
567.52	60456.04
567.68	60685.41
567.85	60788.39
568.01	60823.50
568.17	60299.22
568.34	60657.32
568.50	60612.85
568.66	60680.73
568.83	60722.86
568.99	60552.00
569.15	60832.86
569.32	60720.52
569.48	60718.18
569.64	60837.54
569.81	60697.11
569.97	60722.86
570.13	60715.84
570.30	60729.88
570.46	60727.54
570.62	60837.54
570.78	60795.42
570.95	60673.71
571.11	60905.42
571.27	60889.04
571.43	60755.63
571.60	61174.58
571.76	60800.10
571.92	60807.12
572.09	60807.12
572.25	60921.80
572.41	60856.27
572.57	61006.06
572.74	61162.88
572.90	60837.54
573.06	61071.60
573.22	60926.49
573.38	60977.98
573.55	60961.59
573.71	61214.37
573.87	61069.26
574.03	60853.93
574.20	60830.52
574.36	60832.86
574.52	60853.93
574.68	60942.87
574.84	61279.91
575.01	61205.01
575.17	61172.24
575.33	61099.68
575.49	60856.27
575.65	61205.01
575.82	61031.81
575.98	61069.26
576.14	61293.95
576.30	61162.88
576.46	61050.53
576.62	61052.87
576.79	61048.19
576.95	60865.63
577.11	61195.65
577.27	61151.18
577.43	61141.81
577.59	60931.17
577.75	60821.16
577.92	61013.08
578.08	61024.79
578.24	61263.52
578.40	61265.86
578.56	61343.10
578.72	61071.60
578.88	61188.63
579.04	61305.65
579.21	61165.22
579.37	61275.22
579.53	61120.75
579.69	60994.36
579.85	61228.41
580.01	61048.19
580.17	61139.47
580.33	61331.40
580.49	61324.38
580.65	61118.41
580.82	61071.60
580.98	61066.92
581.14	61212.03
581.30	61216.71
581.46	60975.64
581.62	61130.11
581.78	61153.52
581.94	61244.80
582.10	61146.50
582.26	61071.60
582.42	61195.65
582.58	61263.52
582.74	61092.66
582.90	61195.65
583.06	61235.44
583.22	61109.05
583.38	61340.76
583.54	61223.73
583.70	61247.14
583.86	61092.66
584.02	61160.54
584.18	61214.37
584.34	61228.41
584.50	61385.23
584.66	61413.32
584.82	61155.86
584.98	61436.72
585.14	61272.88
585.30	61219.05
585.46	61279.91
585.62	61315.01
585.78	61345.44
585.94	61221.39
586.10	61380.55
586.26	61432.04
586.42	61329.06
586.58	61509.28
586.74	61380.55
586.90	61462.47
587.06	61350.12
587.22	61560.77
587.38	61319.70
587.54	61427.36
587.70	61450.77
587.86	61595.88
588.02	61415.66
588.18	61609.92
588.34	61389.91
588.49	61183.94
