SpectraSuite Data File
++++++++++++++++++++++++++++++++++++
Date: Fri Oct 25 11:33:51 EDT 2013
User: price-jones
Dark Spectrum Present: No
Reference Spectrum Present: No
Number of Sampled Component Spectra: 1
Spectrometers: USB2+H05261
Integration Time (usec): 100000 (USB2+H05261)
Spectra Averaged: 1 (USB2+H05261)
Boxcar Smoothing: 0 (USB2+H05261)
Correct for Electrical Dark: No (USB2+H05261)
Strobe/Lamp Enabled: No (USB2+H05261)
Correct for Detector Non-linearity: No (USB2+H05261)
Correct for Stray Light: No (USB2+H05261)
Number of Pixels in Processed Spectrum: 2048
>>>>>Begin Processed Spectral Data<<<<<
365.73	299.59
365.92	299.59
366.12	299.59
366.32	168.52
366.52	161.50
366.72	187.24
366.91	149.79
367.11	170.86
367.31	159.16
367.51	159.16
367.70	168.52
367.90	196.60
368.10	156.82
368.30	187.24
368.49	147.45
368.69	231.71
368.89	227.03
369.09	191.92
369.28	168.52
369.48	290.23
369.68	250.44
369.87	259.80
370.07	215.33
370.27	264.48
370.47	320.65
370.66	503.22
370.86	505.56
371.06	587.47
371.25	557.05
371.45	568.75
371.65	519.60
371.84	561.73
372.04	547.69
372.24	456.40
372.44	601.52
372.63	571.09
372.83	535.98
373.03	660.03
373.22	587.47
373.42	566.41
373.62	631.94
373.81	709.18
374.01	674.07
374.21	575.77
374.40	589.82
374.60	641.31
374.79	697.48
374.99	578.11
375.19	713.86
375.38	737.27
375.58	620.24
375.78	751.31
375.97	734.93
376.17	674.07
376.37	699.82
376.56	685.78
376.76	631.94
376.95	655.35
377.15	660.03
377.35	716.20
377.54	702.16
377.74	648.33
377.93	641.31
378.13	716.20
378.33	716.20
378.52	699.82
378.72	627.26
378.91	697.48
379.11	718.54
379.31	709.18
379.50	753.65
379.70	767.70
379.89	704.50
380.09	760.67
380.28	737.27
380.48	793.44
380.68	765.36
380.87	702.16
381.07	730.25
381.26	793.44
381.46	751.31
381.65	770.04
381.85	758.33
382.04	739.61
382.24	751.31
382.43	706.84
382.63	744.29
382.83	702.16
383.02	772.38
383.22	849.61
383.41	793.44
383.61	772.38
383.80	774.72
384.00	793.44
384.19	732.59
384.39	816.85
384.58	795.78
384.78	795.78
384.97	849.61
385.17	807.48
385.36	821.53
385.56	884.72
385.75	793.44
385.95	858.98
386.14	870.68
386.34	819.19
386.53	849.61
386.72	861.32
386.92	880.04
387.11	905.79
387.31	873.02
387.50	959.62
387.70	894.08
387.89	1053.24
388.09	898.77
388.28	781.74
388.48	961.96
388.67	912.81
388.86	976.00
389.06	1011.11
389.25	954.94
389.45	980.68
389.64	887.06
389.84	999.41
390.03	1001.75
390.22	1008.77
390.42	910.47
390.61	940.90
390.81	931.53
391.00	1050.90
391.19	987.71
391.39	994.73
391.58	964.30
391.78	1018.13
391.97	1107.07
392.16	985.37
392.36	1064.94
392.55	1036.86
392.75	1074.31
392.94	1006.43
393.13	1114.10
393.33	1071.97
393.52	1029.84
393.71	1128.14
393.91	1123.46
394.10	1046.22
394.29	1097.71
394.49	1034.52
394.68	1221.76
394.88	1188.99
395.07	1114.10
395.26	1179.63
395.46	1123.46
395.65	1151.54
395.84	1233.46
396.04	1217.08
396.23	1095.37
396.42	1104.73
396.62	1188.99
396.81	1238.14
397.00	1156.22
397.19	1177.29
397.39	1193.67
397.58	1273.25
397.77	1146.86
397.97	1301.34
398.16	1266.23
398.35	1359.85
398.55	1231.12
398.74	1299.00
398.93	1348.15
399.12	1259.21
399.32	1235.80
399.51	1287.29
399.70	1352.83
399.90	1327.08
400.09	1373.89
400.28	1343.47
400.47	1320.06
400.67	1394.96
400.86	1355.17
401.05	1404.32
401.24	1460.49
401.44	1511.99
401.63	1376.24
401.82	1430.07
402.01	1427.73
402.21	1474.54
402.40	1488.58
402.59	1451.13
402.78	1425.39
402.97	1544.75
403.17	1502.62
403.36	1570.50
403.55	1462.83
403.74	1617.31
403.93	1563.48
404.13	1671.14
404.32	1577.52
404.51	1645.40
404.70	1647.74
404.89	1755.40
405.09	1727.32
405.28	1614.97
405.47	1563.48
405.66	1593.90
405.85	1734.34
406.05	1729.66
406.24	1703.91
406.43	1799.87
406.62	1774.13
406.81	1867.75
407.00	1863.07
407.20	1734.34
407.39	1825.62
407.58	1834.98
407.77	1849.02
407.96	1891.15
408.15	1837.32
408.34	1863.07
408.54	1844.34
408.73	1959.03
408.92	1900.52
409.11	1989.46
409.30	1942.64
409.49	1926.26
409.68	2015.20
409.87	1989.46
410.07	1933.28
410.26	1977.75
410.45	2043.29
410.64	2076.06
410.83	2024.56
411.02	2174.36
411.21	2218.83
411.40	2094.78
411.59	2244.57
411.78	2263.30
411.98	2122.87
412.17	2221.17
412.36	2186.06
412.55	2296.07
412.74	2389.69
412.93	2331.17
413.12	2352.24
413.31	2380.32
413.50	2331.17
413.69	2326.49
413.88	2511.39
414.07	2392.03
414.26	2370.96
414.45	2427.14
414.64	2530.12
414.83	2525.44
415.02	2635.44
415.22	2670.55
415.41	2640.12
415.60	2586.29
415.79	2661.19
415.98	2682.25
416.17	2703.32
416.36	2700.98
416.55	2738.43
416.74	2693.96
416.93	2848.43
417.12	2843.75
417.31	2764.17
417.50	2878.86
417.69	2895.24
417.88	2923.33
418.07	2956.10
418.26	2904.60
418.45	2998.23
418.64	3009.93
418.83	3014.61
419.02	3094.19
419.21	3169.09
419.39	3000.57
419.58	3000.57
419.77	3007.59
419.96	3199.51
420.15	3236.96
420.34	3218.24
420.53	3124.62
420.72	3234.62
420.91	3269.73
421.10	3265.05
421.29	3351.65
421.48	3243.98
421.67	3309.52
421.86	3419.52
422.05	3246.32
422.24	3297.81
422.43	3297.81
422.61	3403.14
422.80	3421.86
422.99	3431.23
423.18	3370.37
423.37	3426.54
423.56	3396.12
423.75	3339.94
423.94	3311.86
424.13	3222.92
424.32	3229.94
424.50	3405.48
424.69	3396.12
424.88	3459.31
425.07	3454.63
425.26	3426.54
425.45	3421.86
425.64	3389.10
425.83	3372.71
426.01	3520.17
426.20	3435.91
426.39	3396.12
426.58	3524.85
426.77	3506.12
426.96	3655.92
427.15	3639.53
427.33	3585.70
427.52	3527.19
427.71	3637.19
427.90	3515.48
428.09	3658.26
428.28	3632.51
428.46	3709.75
428.65	3662.94
428.84	3803.37
429.03	3786.99
429.22	3576.34
429.40	3737.84
429.59	3662.94
429.78	3581.02
429.97	3691.02
430.16	3908.69
430.34	3873.59
430.53	3920.40
430.72	3716.77
430.91	3932.10
431.10	3747.20
431.28	3915.72
431.47	3971.89
431.66	4119.34
431.85	4002.32
432.03	4077.21
432.22	4198.92
432.41	3929.76
432.60	4046.79
432.79	4124.02
432.97	4119.34
433.16	4227.01
433.35	4039.76
433.54	4128.70
433.72	4255.09
433.91	4159.13
434.10	4203.60
434.28	4212.96
434.47	4461.06
434.66	4161.47
434.85	4386.16
435.03	4376.80
435.22	4184.88
435.41	4339.35
435.59	4238.71
435.78	4435.32
435.97	4447.02
436.16	4329.99
436.34	4559.36
436.53	4461.06
436.72	4568.73
436.90	4447.02
437.09	4493.83
437.28	4463.40
437.46	4521.92
437.65	4578.09
437.84	4905.76
438.02	4739.58
438.21	4449.36
438.40	4575.75
438.58	4734.90
438.77	4833.21
438.96	4720.86
439.14	4777.03
439.33	4819.16
439.52	4812.14
439.70	4812.14
439.89	4975.98
440.08	5036.83
440.26	5015.77
440.45	4912.78
440.63	5249.82
440.82	5210.03
441.01	5083.64
441.19	5146.84
441.38	5214.71
441.57	5191.31
441.75	5313.02
441.94	5387.91
442.12	5437.06
442.31	5406.64
442.50	5284.93
442.68	5359.83
442.87	5434.72
443.05	5453.45
443.24	5659.42
443.43	5516.64
443.61	5502.60
443.80	5682.82
443.98	5500.26
444.17	5420.68
444.35	5451.11
444.54	5600.90
444.73	5542.39
444.91	5687.50
445.10	5818.57
445.28	5825.59
445.47	5568.13
445.65	5715.59
445.84	5713.25
446.02	5722.61
446.21	5755.38
446.39	5661.76
446.58	5820.91
446.77	5795.17
446.95	5638.35
447.14	5746.02
447.32	5788.14
447.51	5830.27
447.69	5729.63
447.88	5762.40
448.06	5689.84
448.25	5678.14
448.43	5788.14
448.62	5813.89
448.80	5839.64
448.99	5781.12
449.17	5982.41
449.36	5706.23
449.54	5874.74
449.73	6125.18
449.91	5984.75
450.10	6078.37
450.28	6045.60
450.46	6061.99
450.65	6207.10
450.83	6099.44
451.02	6122.84
451.20	6193.06
451.39	6148.59
451.57	6136.88
451.76	6115.82
451.94	6211.78
452.13	6228.17
452.31	6232.85
452.49	6097.10
452.68	6293.70
452.86	6410.73
453.05	6476.26
453.23	6347.53
453.42	6307.74
453.60	6211.78
453.78	6361.58
453.97	6527.75
454.15	6413.07
454.34	6340.51
454.52	6413.07
454.70	6478.60
454.89	6619.04
455.07	6642.44
455.26	6537.12
455.44	6614.35
455.62	6729.04
455.81	6761.81
455.99	6696.27
456.17	6827.34
456.36	6846.07
456.54	6698.61
456.73	6874.15
456.91	7009.90
457.09	6899.90
457.28	7108.21
457.46	6927.99
457.64	7124.59
457.83	7112.89
458.01	6958.41
458.19	7140.97
458.38	7049.69
458.56	7377.37
458.74	7211.19
458.93	7358.64
459.11	7279.07
459.29	7056.72
459.48	7300.13
459.66	7248.64
459.84	7229.91
460.03	7403.11
460.21	7229.91
460.39	7349.28
460.57	7269.70
460.76	7386.73
460.94	7379.71
461.12	7470.99
461.31	7506.10
461.49	7510.78
461.67	7494.40
461.85	7618.44
462.04	7489.71
462.22	8163.79
462.40	7726.11
462.59	7698.02
462.77	7838.45
462.95	7770.58
463.13	7838.45
463.32	7871.22
463.50	7761.22
463.68	7913.35
463.86	7829.09
464.05	7796.32
464.23	7817.39
464.41	7943.78
464.59	7770.58
464.78	8264.43
464.96	7847.82
465.14	7882.92
465.32	8070.17
465.50	8177.83
465.69	8154.43
465.87	8044.42
466.05	8294.86
466.23	8250.39
466.41	8049.10
466.60	8416.57
466.78	8121.66
466.96	8283.16
467.14	8269.11
467.32	8131.02
467.51	8486.78
467.69	8189.53
467.87	8306.56
468.05	8430.61
468.23	8351.03
468.41	8327.63
468.60	8198.90
468.78	8407.20
468.96	8407.20
469.14	8636.58
469.32	8676.37
469.50	8655.30
469.69	8823.82
469.87	8744.24
470.05	8662.32
470.23	8774.67
470.41	8718.50
470.59	8746.58
470.77	8772.33
470.95	8842.54
471.14	9029.79
471.32	8664.66
471.50	9018.08
471.68	8999.36
471.86	9011.06
472.04	9341.08
472.22	9282.56
472.40	8905.74
472.58	9156.18
472.77	9394.91
472.95	9350.44
473.13	9626.62
473.31	9430.02
473.49	9635.99
473.67	9547.05
473.85	9694.50
474.03	9734.29
474.21	9673.43
474.39	9767.06
474.57	9870.04
474.75	10008.13
474.93	10010.47
475.12	9881.74
475.30	9900.47
475.48	9853.66
475.66	10036.22
475.84	10197.71
476.02	10204.74
476.20	10277.29
476.38	10347.51
476.56	10623.69
476.74	10581.56
476.92	10462.19
477.10	10544.11
477.28	10733.70
477.46	10611.99
477.64	10780.51
477.82	10890.51
478.00	11442.88
478.18	11162.01
478.36	10970.09
478.54	11393.73
478.72	11241.59
478.90	11384.37
479.08	11756.51
479.26	11651.19
479.44	11910.99
479.62	11800.98
479.80	11686.29
479.98	11960.14
480.16	12152.06
480.34	12156.74
480.52	12283.13
480.70	12233.98
480.88	11929.71
481.06	12306.54
481.24	12496.12
481.41	12564.00
481.59	12666.98
481.77	12805.07
481.95	12645.91
482.13	13193.60
482.31	12615.49
482.49	13408.93
482.67	13263.82
482.85	13514.25
483.03	13605.53
483.21	13673.41
483.39	13820.86
483.57	13802.14
483.74	13905.12
483.92	14094.71
484.10	14183.65
484.28	14321.74
484.46	14492.60
484.64	14382.59
484.82	14492.60
485.00	14539.41
485.18	14860.06
485.35	15222.84
485.53	14860.06
485.71	15140.93
485.89	15438.17
486.07	15344.55
486.25	15307.10
486.43	15550.52
486.61	15459.24
486.78	15744.78
486.96	16044.37
487.14	16060.76
487.32	16079.48
487.50	16266.72
487.68	16379.07
487.85	16430.56
488.03	16910.37
488.21	17025.06
488.39	16879.94
488.57	17221.66
488.75	17280.18
488.92	17488.48
489.10	17284.86
489.28	17530.61
489.46	17874.67
489.64	17743.60
489.81	18157.88
489.99	18113.41
490.17	18324.05
490.35	18441.08
490.53	18464.49
490.70	18633.00
490.88	18487.89
491.06	19014.51
491.24	18651.73
491.41	19271.97
491.59	19337.51
491.77	19183.03
491.95	19344.53
492.13	19365.59
492.30	19814.98
492.48	19597.31
492.66	19632.41
492.84	19683.91
493.01	20271.38
493.19	19927.32
493.37	20418.83
493.54	20311.17
493.72	20746.51
493.90	20610.76
494.08	20814.38
494.25	20725.44
494.43	20858.85
494.61	21231.00
494.79	21467.39
494.96	21170.15
495.14	21387.82
495.32	21823.16
495.49	21460.37
495.67	21687.40
495.85	21963.59
496.02	21991.67
496.20	22054.87
496.38	22448.08
496.55	22209.34
496.73	22960.66
496.91	22527.66
497.09	22827.24
497.26	22754.69
497.44	22808.52
497.62	23070.66
497.79	23566.85
497.97	23358.55
498.14	23227.48
498.32	23648.77
498.50	23950.70
498.67	23861.76
498.85	23772.82
499.03	24250.29
499.20	24357.96
499.38	24025.60
499.56	24364.98
499.73	24383.70
499.91	24479.66
500.08	24868.19
500.26	24503.07
500.44	24437.53
500.61	24573.28
500.79	24741.80
500.97	24788.61
501.14	25338.64
501.32	25120.97
501.49	25235.66
501.67	25308.21
501.84	25359.70
502.02	25661.63
502.20	25661.63
502.37	25476.73
502.55	25500.14
502.72	25841.85
502.90	25919.09
503.07	26068.89
503.25	26295.92
503.43	26108.68
503.60	26197.62
503.78	26249.11
503.95	26363.79
504.13	26431.67
504.30	26721.90
504.48	26878.71
504.65	26665.72
504.83	26771.05
505.01	27358.52
505.18	27269.58
505.36	27307.03
505.53	26838.92
505.71	27747.05
505.88	27447.46
506.06	27175.96
506.23	27384.27
506.41	27573.85
506.58	27887.48
506.76	27798.54
506.93	28034.94
507.11	27716.62
507.28	28325.16
507.46	27777.48
507.63	28182.39
507.81	28650.50
507.98	28622.41
508.16	28615.39
508.33	28428.15
508.50	28493.68
508.68	28648.16
508.85	28985.19
509.03	28526.45
509.20	29310.53
509.38	29605.44
509.55	29233.29
509.73	29460.32
509.90	29462.66
510.08	29172.44
510.25	29682.67
510.42	29659.27
510.60	29626.50
510.77	29673.31
510.95	30216.32
511.12	29663.95
511.30	29617.14
511.47	30162.48
511.64	29785.66
511.82	30118.01
511.99	30022.05
512.17	30239.72
512.34	30508.88
512.51	30586.12
512.69	30881.03
512.86	30686.76
513.04	30792.09
513.21	30899.75
513.38	30948.90
513.56	31044.87
513.73	30874.01
513.90	31206.36
514.08	31260.20
514.25	31342.11
514.43	31431.05
514.60	31501.27
514.77	31920.23
514.95	31634.68
515.12	31765.75
515.29	31819.58
515.47	31740.00
515.64	31826.60
515.81	31847.67
515.99	32180.03
516.16	32151.94
516.33	32350.88
516.51	32971.13
516.68	32374.29
516.85	32170.66
517.03	32559.19
517.20	32624.73
517.37	33029.64
517.54	32535.79
517.72	32739.41
517.89	32891.55
518.06	32814.31
518.24	32830.69
518.41	32671.54
518.58	33139.65
518.75	32917.29
518.93	33404.13
519.10	33551.58
519.27	33680.31
519.45	33387.74
519.62	33411.15
519.79	33809.04
519.96	33525.83
520.14	33642.86
520.31	33589.03
520.48	34019.69
520.65	34253.74
520.83	34396.51
521.00	34525.24
521.17	34263.10
521.34	34157.78
521.52	34394.17
521.69	34623.54
521.86	34656.31
522.03	34565.03
522.20	34522.90
522.38	35168.89
522.55	34955.90
522.72	34876.32
522.89	34960.58
523.07	35519.97
523.24	35131.44
523.41	35386.56
523.58	35044.84
523.75	35573.80
523.92	35407.62
524.10	35208.68
524.27	35644.02
524.44	35662.74
524.61	36142.55
524.78	35594.87
524.96	36144.89
525.13	35910.84
525.30	36144.89
525.47	36378.95
525.64	35894.46
525.81	36589.59
525.98	36369.58
526.16	36409.37
526.33	35959.99
526.50	36615.34
526.67	36355.54
526.84	36673.85
527.01	36615.34
527.18	36517.04
527.36	37050.68
527.53	37048.34
527.70	36842.37
527.87	37490.70
528.04	36877.48
528.21	36781.52
528.38	36987.49
528.55	37184.09
528.72	37031.96
528.89	36968.76
529.07	36961.74
529.24	36912.59
529.41	37170.05
529.58	37455.59
529.75	37729.44
529.92	37621.77
530.09	37649.86
530.26	37546.87
530.43	37837.10
530.60	37530.49
530.77	37542.19
530.94	37645.18
531.11	38141.37
531.28	37771.57
531.46	38234.99
531.63	38129.67
531.80	37907.32
531.97	38513.52
532.14	38618.84
532.31	38518.20
532.48	38478.41
532.65	38532.24
532.82	38089.88
532.99	38806.08
533.16	38422.23
533.33	38635.22
533.50	38700.76
533.67	38644.59
533.84	38532.24
534.01	38948.85
534.18	38916.09
534.35	39433.35
534.52	38981.62
534.69	39243.76
534.86	39381.85
535.03	39299.94
535.20	39098.65
535.37	39285.89
535.54	39531.65
535.71	39431.01
535.88	39648.68
536.05	39763.36
536.22	39585.48
536.38	39405.26
536.55	39681.44
536.72	39206.31
536.89	39321.00
537.06	39615.91
537.23	39840.60
537.40	40006.78
537.57	39154.82
537.74	39440.37
537.91	40271.26
538.08	39742.30
538.25	39852.30
538.42	39468.45
538.59	40591.91
538.75	39974.01
538.92	40369.56
539.09	40140.19
539.26	40243.17
539.43	40311.05
539.60	40481.91
539.77	40399.99
539.94	40610.64
540.11	40802.56
540.28	40575.53
540.44	40751.07
540.61	40893.84
540.78	40257.21
540.95	40549.78
541.12	40722.98
541.29	40973.42
541.46	40638.72
541.62	41116.19
541.79	41317.48
541.96	41036.61
542.13	40818.94
542.30	41036.61
542.47	41167.68
542.63	41244.92
542.80	41148.96
542.97	41991.55
543.14	42052.41
543.31	41951.76
543.48	41972.83
543.64	41911.97
543.81	42143.69
543.98	41738.77
544.15	42176.45
544.32	42040.70
544.48	42696.05
544.65	42230.29
544.82	41720.05
544.99	42258.37
545.16	41799.63
545.32	42340.29
545.49	42543.92
545.66	42602.43
545.83	42550.94
546.00	42263.05
546.16	42515.83
546.33	42279.44
546.50	42232.63
546.67	43107.99
546.83	42094.53
547.00	42864.57
547.17	42576.69
547.34	42649.24
547.50	42644.56
547.67	43463.75
547.84	42866.91
548.00	43012.02
548.17	43243.74
548.34	43117.35
548.51	43276.51
548.67	43110.33
548.84	43232.04
549.01	42745.20
549.18	43288.21
549.34	43379.49
549.51	43232.04
549.68	43744.61
549.84	43599.50
550.01	43489.49
550.18	43288.21
550.34	43452.05
550.51	43433.32
550.68	43721.21
550.84	43040.11
551.01	43580.78
551.18	43725.89
551.34	43723.55
551.51	43704.82
551.68	43751.63
551.84	43913.13
552.01	43484.81
552.18	43920.15
552.34	43665.03
552.51	43840.57
552.68	43496.52
552.84	43899.09
553.01	44032.50
553.18	43889.73
553.34	44346.13
553.51	44088.67
553.67	44135.48
553.84	44238.47
554.01	44224.42
554.17	43753.97
554.34	44566.14
554.51	44004.41
554.67	44626.99
554.84	44460.82
555.00	44793.17
555.17	44516.99
555.33	44591.89
555.50	44556.78
555.67	44231.44
555.83	44521.67
556.00	44362.51
556.16	44739.34
556.33	44854.03
556.50	44725.30
556.66	44989.78
556.83	44512.31
556.99	45272.98
557.16	45090.42
557.32	45074.04
557.49	44868.07
557.65	44804.88
557.82	44774.45
557.98	44942.97
558.15	45640.45
558.32	45155.96
558.48	44687.85
558.65	45078.72
558.81	45284.68
558.98	44849.35
559.14	45067.02
559.31	45104.46
559.47	45338.52
559.64	45525.76
559.80	45244.90
559.97	45532.78
560.13	45340.86
560.30	45064.67
560.46	45715.34
560.63	45523.42
560.79	45275.32
560.96	45949.40
561.12	45989.19
561.29	45888.54
561.45	45682.58
561.61	45059.99
561.78	45640.45
561.94	45237.87
562.11	45380.65
562.27	45944.72
562.44	45598.32
562.60	45986.85
562.77	46036.00
562.93	45467.25
563.10	46124.94
563.26	45556.19
563.42	46244.30
563.59	45626.40
563.75	45918.97
563.92	46124.94
564.08	45404.05
564.24	46160.05
564.41	45708.32
564.57	46169.41
564.74	46146.00
564.90	45911.95
565.07	45776.20
565.23	45790.24
565.39	45963.44
565.56	46487.72
565.72	45963.44
565.88	46036.00
566.05	46101.53
566.21	45991.53
566.38	46363.67
566.54	46202.18
566.70	45998.55
566.87	46293.46
567.03	45881.52
567.19	46705.39
567.36	46223.24
567.52	46124.94
567.68	46611.77
567.85	46389.42
568.01	46593.04
568.17	46429.21
568.34	46637.51
568.50	46525.17
568.66	46307.50
568.83	46085.15
568.99	46286.43
569.15	46543.89
569.32	46476.02
569.48	46335.59
569.64	46616.45
569.81	46515.81
569.97	46443.25
570.13	46583.68
570.30	46110.89
570.46	46955.83
570.62	46394.10
570.78	46557.94
570.95	46401.12
571.11	46852.84
571.27	46234.94
571.43	46721.77
571.60	46869.23
571.76	46665.60
571.92	46443.25
572.09	46464.32
572.25	46335.59
572.41	46300.48
572.57	46438.57
572.74	47271.80
572.90	46499.42
573.06	46787.31
573.22	47131.37
573.38	46625.81
573.55	46742.84
573.71	47592.45
573.87	47091.58
574.03	46557.94
574.20	47047.11
574.36	46583.68
574.52	46995.62
574.68	47124.35
574.84	46955.83
575.01	46824.76
575.17	47674.37
575.33	46948.81
575.49	46969.87
575.65	46913.70
575.82	47157.11
575.98	46913.70
576.14	47257.76
576.30	47327.97
576.46	46712.41
576.62	47180.52
576.79	47227.33
576.95	46766.24
577.11	46485.38
577.27	47140.73
577.43	47119.66
577.59	46759.22
577.75	47028.38
577.92	46553.26
578.08	47107.96
578.24	47311.59
578.40	47349.04
578.56	46873.91
578.72	46939.44
578.88	47133.71
579.04	46777.95
579.21	46976.89
579.37	47318.61
579.53	47505.85
579.69	46827.10
579.85	46939.44
580.01	46775.61
580.17	47089.24
580.33	47241.37
580.49	47093.92
580.65	46829.44
580.82	47035.41
580.98	47180.52
581.14	47002.64
581.30	47255.42
581.46	46747.52
581.62	46965.19
581.78	46742.84
581.94	47255.42
582.10	47164.14
582.26	47304.57
582.42	47124.35
582.58	47117.32
582.74	46878.59
582.90	47105.62
583.06	47327.97
583.22	47072.85
583.38	47133.71
583.54	47196.90
583.70	47505.85
583.86	47566.71
584.02	47264.78
584.18	47276.48
584.34	47232.01
584.50	47615.86
584.66	47367.76
584.82	47459.04
584.98	47887.36
585.14	47332.65
585.30	47028.38
585.46	47594.79
585.62	47079.88
585.78	47145.41
585.94	46770.93
586.10	47222.65
586.26	46892.63
586.42	47236.69
586.58	47103.28
586.74	47461.38
586.90	47208.61
587.06	47250.74
587.22	47447.34
587.38	47089.24
587.54	47592.45
587.70	47681.39
587.86	47498.83
588.02	47222.65
588.18	47234.35
588.34	47540.96
588.49	47381.80
588.65	47276.48
588.81	47178.18
588.97	47604.16
589.13	47330.31
589.29	47107.96
589.45	47559.69
589.61	47753.95
589.77	47793.74
589.93	47386.49
