SpectraSuite Data File
++++++++++++++++++++++++++++++++++++
Date: Fri Oct 25 11:23:10 EDT 2013
User: price-jones
Dark Spectrum Present: No
Reference Spectrum Present: No
Number of Sampled Component Spectra: 1
Spectrometers: USB2+H05261
Integration Time (usec): 100000 (USB2+H05261)
Spectra Averaged: 1 (USB2+H05261)
Boxcar Smoothing: 0 (USB2+H05261)
Correct for Electrical Dark: No (USB2+H05261)
Strobe/Lamp Enabled: No (USB2+H05261)
Correct for Detector Non-linearity: No (USB2+H05261)
Correct for Stray Light: No (USB2+H05261)
Number of Pixels in Processed Spectrum: 2048
>>>>>Begin Processed Spectral Data<<<<<
365.73	161.50
365.92	161.50
366.12	161.50
366.32	182.56
366.52	98.30
366.72	170.86
366.91	84.26
367.11	124.05
367.31	49.15
367.51	163.84
367.70	154.48
367.90	156.82
368.10	142.77
368.30	154.48
368.49	124.05
368.69	163.84
368.89	210.65
369.09	114.69
369.28	212.99
369.48	180.22
369.68	156.82
369.87	107.66
370.07	166.18
370.27	217.67
370.47	339.38
370.66	660.03
370.86	615.56
371.06	660.03
371.25	692.80
371.45	613.22
371.65	655.35
371.84	648.33
372.04	688.12
372.24	791.10
372.44	683.44
372.63	720.88
372.83	718.54
373.03	746.63
373.22	723.23
373.42	748.97
373.62	788.76
373.81	791.10
374.01	854.30
374.21	861.32
374.40	837.91
374.60	870.68
374.79	866.00
374.99	840.25
375.19	947.92
375.38	823.87
375.58	936.21
375.78	814.51
375.97	908.13
376.17	833.23
376.37	858.98
376.56	858.98
376.76	835.57
376.95	901.11
377.15	802.80
377.35	877.70
377.54	957.28
377.74	971.32
377.93	919.83
378.13	999.41
378.33	849.61
378.52	971.32
378.72	926.85
378.91	997.07
379.11	940.90
379.31	880.04
379.50	961.96
379.70	938.55
379.89	976.00
380.09	931.53
380.28	1001.75
380.48	940.90
380.68	992.39
380.87	1050.90
381.07	961.96
381.26	1020.47
381.46	961.96
381.65	954.94
381.85	1060.26
382.04	926.85
382.24	976.00
382.43	1053.24
382.63	1034.52
382.83	1008.77
383.02	1083.67
383.22	1095.37
383.41	1050.90
383.61	1118.78
383.80	1188.99
384.00	1090.69
384.19	1163.25
384.39	1121.12
384.58	1032.18
384.78	1163.25
384.97	1224.10
385.17	1144.52
385.36	1181.97
385.56	1174.95
385.75	1196.01
385.95	1210.06
386.14	1277.93
386.34	1158.57
386.53	1235.80
386.72	1212.40
386.92	1193.67
387.11	1205.38
387.31	1158.57
387.50	1277.93
387.70	1184.31
387.89	1301.34
388.09	1266.23
388.28	1238.14
388.48	1205.38
388.67	1427.73
388.86	1317.72
389.06	1334.11
389.25	1338.79
389.45	1390.28
389.64	1329.42
389.84	1481.56
390.03	1467.52
390.22	1357.51
390.42	1387.94
390.61	1364.53
390.81	1411.34
391.00	1486.24
391.19	1465.18
391.39	1418.36
391.58	1460.49
391.78	1462.83
391.97	1439.43
392.16	1413.68
392.36	1596.25
392.55	1530.71
392.75	1537.73
392.94	1526.03
393.13	1544.75
393.33	1448.79
393.52	1528.37
393.71	1565.82
393.91	1556.46
394.10	1584.54
394.29	1640.72
394.49	1596.25
394.68	1547.09
394.88	1664.12
395.07	1696.89
395.26	1720.29
395.46	1666.46
395.65	1748.38
395.84	1764.76
396.04	1722.63
396.23	1769.44
396.42	1776.47
396.62	1703.91
396.81	1736.68
397.00	1715.61
397.19	1914.56
397.39	1820.94
397.58	1912.22
397.77	1830.30
397.97	1893.49
398.16	1783.49
398.35	1842.00
398.55	1959.03
398.74	1816.26
398.93	1970.73
399.12	1849.02
399.32	1900.52
399.51	2047.97
399.70	2005.84
399.90	2015.20
400.09	1987.11
400.28	2045.63
400.47	2076.06
400.67	2139.25
400.86	2015.20
401.05	2062.01
401.24	2202.44
401.44	2179.04
401.63	2169.68
401.82	2202.44
402.01	2183.72
402.21	2186.06
402.40	2162.66
402.59	2122.87
402.78	2207.13
402.97	2174.36
403.17	2176.70
403.36	2146.27
403.55	2279.68
403.74	2361.60
403.93	2349.90
404.13	2293.72
404.32	2403.73
404.51	2455.22
404.70	2394.37
404.89	2394.37
405.09	2399.05
405.28	2466.92
405.47	2436.50
405.66	2485.65
405.85	2457.56
406.05	2509.05
406.24	2609.70
406.43	2700.98
406.62	2637.78
406.81	2663.53
407.00	2583.95
407.20	2597.99
407.39	2588.63
407.58	2773.53
407.77	2792.26
407.96	2747.79
408.15	2733.75
408.34	2738.43
408.54	2773.53
408.73	2771.19
408.92	2834.39
409.11	2885.88
409.30	2963.12
409.49	2967.80
409.68	2986.52
409.87	2892.90
410.07	2998.23
410.26	3059.08
410.45	3005.25
410.64	3190.15
410.83	3192.49
411.02	3129.30
411.21	3248.66
411.40	3246.32
411.59	3211.22
411.78	3169.09
411.98	3169.09
412.17	3323.56
412.36	3426.54
412.55	3386.76
412.74	3461.65
412.93	3412.50
413.12	3468.67
413.31	3471.01
413.50	3410.16
413.69	3543.57
413.88	3602.08
414.07	3611.45
414.26	3665.28
414.45	3644.21
414.64	3611.45
414.83	3667.62
415.02	3798.69
415.22	3805.71
415.41	3765.92
415.60	3983.59
415.79	3995.29
415.98	4044.45
416.17	3981.25
416.36	3950.82
416.55	3955.51
416.74	4189.56
416.93	4042.11
417.12	4112.32
417.31	4067.85
417.50	4346.37
417.69	4337.01
417.88	4283.18
418.07	4351.06
418.26	4245.73
418.45	4395.53
418.64	4447.02
418.83	4437.66
419.02	4575.75
419.21	4667.03
419.39	4454.04
419.58	4400.21
419.77	4503.19
419.96	4655.33
420.15	4690.43
420.34	4524.26
420.53	4706.82
420.72	4791.08
420.91	4807.46
421.10	4652.98
421.29	4959.60
421.48	4760.65
421.67	4837.89
421.86	4744.27
422.05	4882.36
422.24	5043.85
422.43	4861.29
422.61	5008.75
422.80	5057.90
422.99	4905.76
423.18	4901.08
423.37	5039.17
423.56	4964.28
423.75	4903.42
423.94	4856.61
424.13	4692.77
424.32	4919.81
424.50	5235.78
424.69	5104.71
424.88	5275.57
425.07	5156.20
425.26	5050.88
425.45	5039.17
425.64	4964.28
425.83	5116.41
426.01	5102.37
426.20	4985.34
426.39	5093.01
426.58	5055.56
426.77	5093.01
426.96	5149.18
427.15	5146.84
427.33	5350.46
427.52	5416.00
427.71	5331.74
427.90	5317.70
428.09	5259.18
428.28	5437.06
428.46	5518.98
428.65	5240.46
428.84	5636.01
429.03	5495.58
429.22	5530.69
429.40	5544.73
429.59	5533.03
429.78	5310.68
429.97	5320.04
430.16	5556.43
430.34	5600.90
430.53	5638.35
430.72	5600.90
430.91	5748.36
431.10	5687.50
431.28	5788.14
431.47	5893.47
431.66	5804.53
431.85	5837.30
432.03	5919.21
432.22	6083.05
432.41	5973.05
432.60	6010.50
432.79	6057.31
432.97	6031.56
433.16	6230.51
433.35	6188.38
433.54	6169.65
433.72	6279.66
433.91	6263.27
434.10	6179.01
434.28	6176.67
434.47	6211.78
434.66	6373.28
434.85	6303.06
435.03	6436.47
435.22	6251.57
435.41	6518.39
435.59	6455.20
435.78	6403.71
435.97	6530.09
436.16	6548.82
436.34	6502.01
436.53	6403.71
436.72	6764.15
436.90	6553.50
437.09	6469.24
437.28	6466.90
437.46	6506.69
437.65	6747.76
437.84	6672.87
438.02	6817.98
438.21	6925.65
438.40	6724.36
438.58	7094.16
438.77	7204.17
438.96	7094.16
439.14	7187.79
439.33	7199.49
439.52	7293.11
439.70	7269.70
439.89	7272.04
440.08	7433.54
440.26	7541.21
440.45	7447.58
440.63	7590.36
440.82	7618.44
441.01	7557.59
441.19	7719.09
441.38	7742.49
441.57	7641.85
441.75	7901.65
441.94	7929.74
442.12	7988.25
442.31	8086.55
442.50	7976.55
442.68	8215.28
442.87	8187.19
443.05	8126.34
443.24	8187.19
443.43	8311.24
443.61	8152.09
443.80	8514.87
443.98	8203.58
444.17	7988.25
444.35	8383.80
444.54	8461.04
444.73	8222.30
444.91	8355.71
445.10	8266.77
445.28	8421.25
445.47	8400.18
445.65	8423.59
445.84	8491.46
446.02	8636.58
446.21	8435.29
446.39	8416.57
446.58	8517.21
446.77	8645.94
446.95	8491.46
447.14	8484.44
447.32	8627.21
447.51	8599.13
447.69	8514.87
447.88	8748.92
448.06	8617.85
448.25	8697.43
448.43	8777.01
448.62	8844.88
448.80	8615.51
448.99	8835.52
449.17	8727.86
449.36	8643.60
449.54	8992.34
449.73	9011.06
449.91	9210.01
450.10	9008.72
450.28	9219.37
450.46	9289.59
450.65	9186.60
450.83	9064.89
451.02	9041.49
451.20	9282.56
451.39	9214.69
451.57	9212.35
451.76	9341.08
451.94	9165.54
452.13	9437.04
452.31	9401.93
452.49	9224.05
452.68	9607.90
452.86	9619.60
453.05	9495.55
453.23	9591.52
453.42	9399.59
453.60	9547.05
453.78	9701.52
453.97	9371.50
454.15	9589.17
454.34	9650.03
454.52	9664.07
454.70	9713.22
454.89	9736.63
455.07	9785.78
455.26	10061.96
455.44	9947.28
455.62	9921.53
455.81	10078.35
455.99	10197.71
456.17	10050.26
456.36	10176.65
456.54	10296.02
456.73	10492.62
456.91	10399.00
457.09	10518.37
457.28	10712.63
457.46	10480.92
457.64	10469.22
457.83	10661.14
458.01	10626.03
458.19	10878.81
458.38	10787.53
458.56	10899.87
458.74	10918.60
458.93	10881.15
459.11	10869.45
459.29	11014.56
459.48	11059.03
459.66	10953.71
459.84	10829.66
460.03	11199.46
460.21	11101.16
460.39	10967.75
460.57	11012.22
460.76	11302.45
460.94	11295.43
461.12	11468.62
461.31	11321.17
461.49	11382.03
461.67	11248.61
461.85	11286.06
462.04	11414.79
462.22	11698.00
462.40	11763.53
462.59	11651.19
462.77	11550.54
462.95	11627.78
463.13	11592.67
463.32	11889.92
463.50	12093.55
463.68	11709.70
463.86	12018.65
464.05	11737.79
464.23	11880.56
464.41	11913.33
464.59	11929.71
464.78	12212.92
464.96	11983.54
465.14	12070.14
465.32	12318.24
465.50	12358.03
465.69	12404.84
465.87	12299.52
466.05	12226.96
466.23	12280.79
466.41	12161.42
466.60	12828.48
466.78	12416.54
466.96	12313.56
467.14	12678.68
467.32	12271.43
467.51	12568.68
467.69	12592.08
467.87	12559.31
468.05	12755.92
468.23	12676.34
468.41	12758.26
468.60	12599.10
468.78	12786.35
468.96	12608.47
469.14	12891.67
469.32	13160.83
469.50	12666.98
469.69	12943.16
469.87	13149.13
470.05	13366.80
470.23	13186.58
470.41	13350.42
470.59	13305.95
470.77	13362.12
470.95	13348.08
471.14	13671.07
471.32	13429.99
471.50	13626.60
471.68	13886.40
471.86	13582.13
472.04	13811.50
472.22	14211.73
472.40	13879.38
472.58	14139.18
472.77	14106.41
472.95	14235.14
473.13	14457.49
473.31	14427.06
473.49	14153.22
473.67	14120.45
473.85	14176.62
474.03	14951.34
474.21	14724.31
474.39	14967.73
474.57	14991.13
474.75	14951.34
474.93	15049.64
475.12	15204.12
475.30	15161.99
475.48	14984.11
475.66	15185.40
475.84	15367.96
476.02	15398.38
476.20	15587.97
476.38	15777.55
476.56	16020.97
476.74	16233.96
476.92	15885.22
477.10	15836.06
477.28	16297.15
477.46	16535.88
477.64	16404.81
477.82	16891.65
478.00	17387.84
478.18	16898.67
478.36	17144.42
478.54	17429.97
478.72	17261.45
478.90	17537.63
479.08	17504.87
479.26	17926.16
479.44	17731.90
479.62	18012.76
479.80	18043.19
479.98	18644.71
480.16	18630.66
480.34	18349.80
480.52	18719.60
480.70	18824.93
480.88	18719.60
481.06	19173.67
481.24	19124.52
481.41	19363.25
481.59	19632.41
481.77	19491.98
481.95	19667.52
482.13	19838.38
482.31	19948.39
482.49	20496.07
482.67	20517.14
482.85	20547.56
483.03	20919.71
483.21	20952.48
483.39	21128.02
483.57	21326.96
483.74	21394.84
483.92	21682.72
484.10	21172.49
484.28	21596.12
484.46	22242.11
484.64	22197.64
484.82	22050.19
485.00	22499.57
485.18	23096.41
485.35	23087.04
485.53	22960.66
485.71	23323.44
485.89	23599.62
486.07	23243.86
486.25	23791.55
486.43	23740.05
486.61	24210.50
486.78	23976.45
486.96	24217.52
487.14	24835.42
487.32	24741.80
487.50	25179.48
487.68	25130.33
487.85	25509.50
488.03	25888.67
488.21	26272.51
488.39	26113.36
488.57	26164.85
488.75	26731.26
488.92	26766.37
489.10	26836.58
489.28	27054.25
489.46	27379.59
489.64	27410.01
489.81	27948.34
489.99	28095.79
490.17	28004.51
490.35	28144.94
490.53	28577.94
490.70	28673.90
490.88	28428.15
491.06	29109.24
491.24	29095.20
491.41	29511.81
491.59	29553.94
491.77	29811.40
491.95	30237.38
492.13	29649.91
492.30	30029.07
492.48	30391.86
492.66	30546.33
492.84	30504.20
493.01	31023.80
493.19	30937.20
493.37	31281.26
493.54	31587.87
493.72	31880.44
493.90	31894.48
494.08	32313.44
494.25	31978.74
494.43	32498.34
494.61	32884.53
494.79	32531.11
494.96	32725.37
495.14	32863.46
495.32	33322.21
495.49	33574.98
495.67	33839.47
495.85	33954.15
496.02	34096.92
496.20	34265.44
496.38	34417.58
496.55	34258.42
496.73	35351.45
496.91	34663.33
497.09	35351.45
497.26	35222.72
497.44	34822.49
497.62	35524.65
497.79	35957.65
497.97	35997.44
498.14	36240.86
498.32	36224.47
498.50	36402.35
498.67	36910.25
498.85	36737.05
499.03	37139.62
499.20	37046.00
499.38	37427.51
499.56	37699.01
499.73	37308.14
499.91	37476.66
500.08	38256.06
500.26	37689.65
500.44	37867.53
500.61	38443.30
500.79	38181.16
500.97	38340.32
501.14	38775.66
501.32	39332.70
501.49	38759.27
501.67	39016.73
501.84	38543.94
502.02	39302.28
502.20	39739.96
502.37	40158.91
502.55	39739.96
502.72	39936.56
502.90	40067.63
503.07	39936.56
503.25	40044.23
503.43	39721.23
503.60	40140.19
503.78	41022.57
503.95	40821.28
504.13	40847.03
504.30	40938.31
504.48	40828.30
504.65	41406.42
504.83	41221.52
505.01	41635.79
505.18	41411.10
505.36	41949.42
505.53	41596.00
505.71	41897.93
505.88	42272.42
506.06	41755.16
506.23	42473.70
506.41	42234.97
506.58	42527.53
506.76	42794.36
506.93	42686.69
507.11	42749.88
507.28	42923.08
507.46	42927.77
507.63	43222.67
507.81	43461.41
507.98	43236.72
508.16	43433.32
508.33	44023.14
508.50	43779.72
508.68	43871.00
508.85	44086.33
509.03	44369.54
509.20	44308.68
509.38	44722.96
509.55	44715.93
509.73	44933.60
509.90	45347.88
510.08	44872.75
510.25	44809.56
510.42	45174.68
510.60	45371.28
510.77	45581.93
510.95	45951.74
511.12	45397.03
511.30	45340.86
511.47	45909.61
511.64	45998.55
511.82	46223.24
511.99	45935.35
512.17	46366.01
512.34	46192.81
512.51	46600.07
512.69	46658.58
512.86	46653.90
513.04	47173.50
513.21	47196.90
513.38	46925.40
513.56	47459.04
513.73	47262.44
513.90	47409.89
514.08	47232.01
514.25	47459.04
514.43	47753.95
514.60	47728.20
514.77	47538.62
514.95	48523.99
515.12	47988.00
515.29	47632.24
515.47	48107.37
515.64	48416.32
515.81	48219.72
515.99	48641.01
516.16	48566.12
516.33	48952.30
516.51	48650.38
516.68	48657.40
516.85	48664.42
517.03	49249.55
517.20	49221.47
517.37	49270.62
517.54	49216.78
517.72	49198.06
517.89	49392.33
518.06	49600.63
518.24	49734.04
518.41	49462.54
518.58	49797.24
518.75	49617.02
518.93	50089.80
519.10	50000.86
519.27	50143.64
519.45	50251.30
519.62	50211.51
519.79	50768.56
519.96	50745.15
520.14	51021.34
520.31	50513.44
520.48	50986.23
520.65	50586.00
520.83	50808.35
521.00	50969.85
521.17	50904.31
521.34	50927.72
521.52	51239.01
521.69	50962.82
521.86	51260.07
522.03	51583.07
522.20	51847.55
522.38	51922.44
522.55	51597.11
522.72	51810.10
522.89	51856.91
523.07	52048.83
523.24	51931.81
523.41	52086.28
523.58	51587.75
523.75	52350.76
523.92	52320.34
524.10	52435.02
524.27	52514.60
524.44	52556.73
524.61	52409.28
524.78	52563.75
524.96	52332.04
525.13	52521.62
525.30	52734.61
525.47	53284.64
525.64	53022.50
525.81	52917.17
525.98	52790.78
526.16	52853.98
526.33	53062.29
526.50	53308.04
526.67	53338.47
526.84	53324.43
527.01	52931.22
527.18	53301.02
527.36	53275.27
527.53	53244.85
527.70	53769.13
527.87	53766.79
528.04	53434.43
528.21	53626.35
528.38	53640.40
528.55	53694.23
528.72	53708.27
528.89	53542.10
529.07	53563.16
529.24	53708.27
529.41	53982.12
529.58	53780.83
529.75	54085.10
529.92	54164.68
530.09	54068.72
530.26	54232.55
530.43	54300.43
530.60	54014.88
530.77	54272.34
530.94	54506.40
531.11	54363.62
531.28	54382.35
531.46	54536.82
531.63	54712.36
531.80	54323.83
531.97	54855.14
532.14	54653.85
532.31	54791.94
532.48	55009.61
532.65	55033.02
532.82	54691.30
532.99	54724.07
533.16	54880.88
533.33	55285.79
533.50	55236.64
533.67	55152.38
533.84	54883.22
534.01	55210.90
534.18	55077.49
534.35	55508.14
534.52	55246.00
534.69	55386.44
534.86	55629.85
535.03	55400.48
535.20	55451.97
535.37	55550.27
535.54	55786.67
535.71	55526.87
535.88	55725.81
536.05	55695.39
536.22	55728.16
536.38	55887.31
536.55	55856.88
536.72	56172.86
536.89	55852.20
537.06	56055.83
537.23	56189.24
537.40	55927.10
537.57	56280.52
537.74	56212.65
537.91	56147.11
538.08	56062.85
538.25	56025.40
538.42	56086.26
538.59	56289.88
538.75	56236.05
538.92	56257.12
539.09	56666.71
539.26	56404.57
539.43	56402.23
539.60	56418.61
539.77	56566.07
539.94	56706.50
540.11	56615.22
540.28	56877.36
540.44	56673.73
540.61	56694.80
540.78	56769.69
540.95	56701.82
541.12	56694.80
541.29	56598.83
541.46	56945.23
541.62	57013.11
541.79	56907.79
541.96	56776.72
542.13	56896.08
542.30	57006.09
542.47	57165.24
542.63	56954.60
542.80	56921.83
542.97	57443.77
543.14	57509.30
543.31	57251.84
543.48	57350.15
543.64	57581.86
543.81	57663.78
543.98	57284.61
544.15	57698.89
544.32	57780.81
544.48	57869.75
544.65	57614.63
544.82	57682.50
544.99	57467.17
545.16	57553.77
545.32	57715.27
545.49	57986.77
545.66	58169.33
545.83	58049.97
546.00	57876.77
546.16	57853.36
546.33	57855.70
546.50	57825.28
546.67	58071.03
546.83	57736.34
547.00	57944.64
547.17	58028.90
547.34	58005.50
547.50	58298.06
547.67	58438.50
547.84	58234.87
548.00	58349.56
548.17	58553.18
548.34	58127.20
548.51	58459.56
548.67	58384.66
548.84	58590.63
549.01	58424.45
549.18	58454.88
549.34	58583.61
549.51	58541.48
549.68	58485.31
549.84	58590.63
550.01	58702.98
550.18	58387.00
550.34	58796.60
550.51	58773.19
550.68	58934.69
550.84	58485.31
551.01	58745.11
551.18	58829.37
551.34	58761.49
551.51	58824.68
551.68	58815.32
551.84	58831.71
552.01	58674.89
552.18	58843.41
552.34	58805.96
552.51	58976.82
552.68	58845.75
552.84	58904.26
553.01	59245.98
553.18	59215.55
553.34	59143.00
553.51	58829.37
553.67	58983.84
553.84	59384.07
554.01	59093.85
554.17	59213.21
554.34	59110.23
554.51	59028.31
554.67	59023.63
554.84	59215.55
555.00	59255.34
555.17	59040.01
555.33	59304.49
555.50	59178.10
555.67	59278.75
555.83	59475.35
556.00	59341.94
556.16	59749.20
556.33	59540.89
556.50	59648.55
556.66	59742.17
556.83	59550.25
556.99	59517.48
557.16	59676.64
557.32	59704.73
557.49	59634.51
557.65	59807.71
557.82	59641.53
557.98	59519.82
558.15	59693.02
558.32	59697.70
558.48	59573.66
558.65	59723.45
558.81	59721.11
558.98	59870.90
559.14	59803.03
559.31	59824.09
559.47	60001.97
559.64	59760.90
559.80	60083.89
559.97	59976.23
560.13	59856.86
560.30	59697.70
560.46	59962.18
560.63	59994.95
560.79	60154.11
560.96	59936.44
561.12	60039.42
561.29	59929.42
561.45	60196.24
561.61	60107.30
561.78	60058.15
561.94	60053.47
562.11	59950.48
562.27	60205.60
562.44	60037.08
562.60	60362.42
562.77	60182.19
562.93	60144.75
563.10	60261.77
563.26	60039.42
563.42	60329.65
563.59	60090.91
563.75	60381.14
563.92	60257.09
564.08	60301.56
564.24	60336.67
564.41	60203.26
564.57	60336.67
564.74	60355.39
564.90	60362.42
565.07	60294.54
565.23	60463.06
565.39	60245.39
565.56	60214.96
565.72	60434.97
565.88	60610.51
566.05	60537.96
566.21	60395.18
566.38	60594.13
566.54	60451.36
566.70	60596.47
566.87	60793.07
567.03	60516.89
567.19	60629.24
567.36	60477.10
567.52	60554.34
567.68	60734.56
567.85	60596.47
568.01	60729.88
568.17	60767.33
568.34	60643.28
568.50	60645.62
568.66	60561.36
568.83	60509.87
568.99	60446.68
569.15	60701.79
569.32	60662.00
569.48	60467.74
569.64	60830.52
569.81	60645.62
569.97	60629.24
570.13	60514.55
570.30	60516.89
570.46	60870.31
570.62	60814.14
570.78	60816.48
570.95	60521.57
571.11	60900.74
571.27	60800.10
571.43	60823.50
571.60	61017.77
571.76	60846.91
571.92	60900.74
572.09	60999.04
572.25	60741.58
572.41	60786.05
572.57	60865.63
572.74	61020.11
572.90	60891.38
573.06	60966.27
573.22	60830.52
573.38	60870.31
573.55	60701.79
573.71	60947.55
573.87	60781.37
574.03	60598.81
574.20	61008.40
574.36	60734.56
574.52	60956.91
574.68	61071.60
574.84	61130.11
575.01	60919.46
575.17	60783.71
575.33	60900.74
575.49	61034.15
575.65	61073.94
575.82	60966.27
575.98	60917.12
576.14	61193.31
576.30	61181.60
576.46	60954.57
576.62	60874.99
576.79	60886.70
576.95	60874.99
577.11	61006.06
577.27	61080.96
577.43	61064.58
577.59	61141.81
577.75	60879.67
577.92	60793.07
578.08	60867.97
578.24	61057.56
578.40	61228.41
578.56	61183.94
578.72	61113.73
578.88	61137.13
579.04	61261.18
579.21	61116.07
579.37	61090.32
579.53	61345.44
579.69	60903.08
579.85	60966.27
580.01	61106.71
580.17	60985.00
580.33	61134.79
580.49	61242.46
580.65	61090.32
580.82	60830.52
580.98	61085.64
581.14	61151.18
581.30	61303.31
581.46	61066.92
581.62	61333.74
581.78	61233.10
581.94	61258.84
582.10	60886.70
582.26	61172.24
582.42	61160.54
582.58	61176.92
582.74	61263.52
582.90	61144.16
583.06	61076.28
583.22	60994.36
583.38	61179.26
583.54	61322.04
583.70	61197.99
583.86	61422.68
584.02	61064.58
584.18	61338.42
584.34	61216.71
584.50	61073.94
584.66	60977.98
584.82	60907.76
584.98	61167.56
585.14	61263.52
585.30	61090.32
585.46	61293.95
585.62	61293.95
585.78	61371.19
585.94	61120.75
586.10	61310.33
586.26	61219.05
586.42	61247.14
586.58	61300.97
586.74	61504.60
586.90	61179.26
587.06	61132.45
587.22	61420.34
587.38	61389.91
587.54	61544.39
587.70	61387.57
587.86	61415.66
588.02	61415.66
588.18	61492.89
588.34	61345.44
588.49	61474.17
