SpectraSuite Data File
++++++++++++++++++++++++++++++++++++
Date: Fri Oct 25 11:22:40 EDT 2013
User: price-jones
Dark Spectrum Present: No
Reference Spectrum Present: No
Number of Sampled Component Spectra: 1
Spectrometers: USB2+H05261
Integration Time (usec): 100000 (USB2+H05261)
Spectra Averaged: 1 (USB2+H05261)
Boxcar Smoothing: 0 (USB2+H05261)
Correct for Electrical Dark: No (USB2+H05261)
Strobe/Lamp Enabled: No (USB2+H05261)
Correct for Detector Non-linearity: No (USB2+H05261)
Correct for Stray Light: No (USB2+H05261)
Number of Pixels in Processed Spectrum: 2048
>>>>>Begin Processed Spectral Data<<<<<
365.73	283.20
365.92	283.20
366.12	283.20
366.32	220.01
366.52	149.79
366.72	173.20
366.91	77.24
367.11	93.62
367.31	77.24
367.51	88.94
367.70	95.96
367.90	173.20
368.10	154.48
368.30	145.11
368.49	121.71
368.69	210.65
368.89	98.30
369.09	100.64
369.28	110.01
369.48	182.56
369.68	128.73
369.87	203.63
370.07	255.12
370.27	264.48
370.47	304.27
370.66	566.41
370.86	599.18
371.06	599.18
371.25	627.26
371.45	683.44
371.65	678.76
371.84	734.93
372.04	634.29
372.24	720.88
372.44	725.57
372.63	753.65
372.83	690.46
373.03	730.25
373.22	610.88
373.42	730.25
373.62	760.67
373.81	798.12
374.01	748.97
374.21	854.30
374.40	807.48
374.60	814.51
374.79	805.14
374.99	755.99
375.19	837.91
375.38	812.17
375.58	847.27
375.78	856.64
375.97	847.27
376.17	912.81
376.37	887.06
376.56	896.43
376.76	891.74
376.95	910.47
377.15	931.53
377.35	926.85
377.54	884.72
377.74	891.74
377.93	950.26
378.13	933.87
378.33	812.17
378.52	957.28
378.72	964.30
378.91	957.28
379.11	915.15
379.31	908.13
379.50	896.43
379.70	1004.09
379.89	1041.54
380.09	992.39
380.28	985.37
380.48	931.53
380.68	917.49
380.87	997.07
381.07	1022.81
381.26	1081.33
381.46	976.00
381.65	1093.03
381.85	999.41
382.04	1029.84
382.24	1081.33
382.43	983.02
382.63	1093.03
382.83	1018.13
383.02	1118.78
383.22	1139.84
383.41	1081.33
383.61	1144.52
383.80	1055.58
384.00	1100.05
384.19	1078.99
384.39	1135.16
384.58	1095.37
384.78	1097.71
384.97	1142.18
385.17	1191.33
385.36	1174.95
385.56	1123.46
385.75	1210.06
385.95	1160.91
386.14	1193.67
386.34	1198.35
386.53	1221.76
386.72	1078.99
386.92	1275.59
387.11	1207.72
387.31	1254.53
387.50	1352.83
387.70	1277.93
387.89	1256.87
388.09	1207.72
388.28	1299.00
388.48	1249.85
388.67	1366.87
388.86	1242.82
389.06	1315.38
389.25	1343.47
389.45	1303.68
389.64	1277.93
389.84	1380.92
390.03	1341.13
390.22	1437.09
390.42	1371.55
390.61	1488.58
390.81	1432.41
391.00	1364.53
391.19	1537.73
391.39	1497.94
391.58	1413.68
391.78	1416.02
391.97	1472.20
392.16	1502.62
392.36	1504.96
392.55	1483.90
392.75	1528.37
392.94	1551.78
393.13	1488.58
393.33	1565.82
393.52	1476.88
393.71	1568.16
393.91	1699.23
394.10	1558.80
394.29	1598.59
394.49	1605.61
394.68	1682.85
394.88	1607.95
395.07	1657.10
395.26	1666.46
395.46	1673.48
395.65	1699.23
395.84	1661.78
396.04	1790.51
396.23	1654.76
396.42	1755.40
396.62	1898.17
396.81	1799.87
397.00	1750.72
397.19	1785.83
397.39	1788.17
397.58	1762.42
397.77	1816.26
397.97	1769.44
398.16	1858.39
398.35	1912.22
398.55	1886.47
398.74	1900.52
398.93	1963.71
399.12	1851.36
399.32	1909.88
399.51	1802.21
399.70	2108.82
399.90	1998.82
400.09	1959.03
400.28	2012.86
400.47	2104.14
400.67	2045.63
400.86	2099.46
401.05	2003.50
401.24	2132.23
401.44	2172.02
401.63	2003.50
401.82	2167.34
402.01	2101.80
402.21	2094.78
402.40	2211.81
402.59	2143.93
402.78	2230.53
402.97	2291.38
403.17	2298.41
403.36	2328.83
403.55	2296.07
403.74	2352.24
403.93	2272.66
404.13	2335.85
404.32	2363.94
404.51	2331.17
404.70	2511.39
404.89	2377.98
405.09	2424.80
405.28	2436.50
405.47	2462.24
405.66	2555.86
405.85	2492.67
406.05	2429.48
406.24	2684.59
406.43	2511.39
406.62	2712.68
406.81	2626.08
407.00	2609.70
407.20	2588.63
407.39	2562.89
407.58	2780.56
407.77	2766.51
407.96	2778.22
408.15	2881.20
408.34	2747.79
408.54	2902.26
408.73	2799.28
408.92	2836.73
409.11	2911.63
409.30	2916.31
409.49	2986.52
409.68	2899.92
409.87	2988.86
410.07	3012.27
410.26	2995.89
410.45	3066.10
410.64	3141.00
410.83	3112.91
411.02	3185.47
411.21	3253.34
411.40	3169.09
411.59	3215.90
411.78	3119.93
411.98	3180.79
412.17	3419.52
412.36	3194.83
412.55	3461.65
412.74	3543.57
412.93	3515.48
413.12	3297.81
413.31	3588.04
413.50	3471.01
413.69	3632.51
413.88	3517.83
414.07	3684.00
414.26	3632.51
414.45	3674.64
414.64	3665.28
414.83	3754.22
415.02	3852.52
415.22	3735.50
415.41	3843.16
415.60	3887.63
415.79	3992.95
415.98	4049.13
416.17	3920.40
416.36	4009.34
416.55	4133.39
416.74	4119.34
416.93	4121.68
417.12	4140.41
417.31	4229.35
417.50	4203.60
417.69	4339.35
417.88	4496.17
418.07	4407.23
418.26	4404.89
418.45	4503.19
418.64	4648.30
418.83	4479.79
419.02	4381.48
419.21	4557.02
419.39	4521.92
419.58	4461.06
419.77	4519.57
419.96	4519.57
420.15	4559.36
420.34	4615.54
420.53	4685.75
420.72	4777.03
420.91	4678.73
421.10	4725.54
421.29	4901.08
421.48	4723.20
421.67	4849.59
421.86	4849.59
422.05	4896.40
422.24	4777.03
422.43	4966.62
422.61	4954.91
422.80	4863.63
422.99	4901.08
423.18	5036.83
423.37	5107.05
423.56	4884.70
423.75	4987.68
423.94	4819.16
424.13	4840.23
424.32	4805.12
424.50	5006.41
424.69	5224.08
424.88	5163.22
425.07	5022.79
425.26	4973.64
425.45	5100.03
425.64	5097.69
425.83	5015.77
426.01	4971.30
426.20	5149.18
426.39	5212.37
426.58	5167.90
426.77	4987.68
426.96	5088.32
427.15	5123.43
427.33	5177.26
427.52	5359.83
427.71	5275.57
427.90	5334.08
428.09	5343.44
428.28	5380.89
428.46	5446.43
428.65	5451.11
428.84	5619.63
429.03	5621.97
429.22	5446.43
429.40	5472.17
429.59	5376.21
429.78	5289.61
429.97	5254.50
430.16	5537.71
430.34	5652.39
430.53	5724.95
430.72	5692.18
430.91	5741.33
431.10	5729.63
431.28	5860.70
431.47	5823.25
431.66	5919.21
431.85	5722.61
432.03	5921.56
432.22	5942.62
432.41	5968.37
432.60	5797.51
432.79	6076.03
432.97	6031.56
433.16	6094.76
433.35	6092.41
433.54	6218.80
433.72	6188.38
433.91	6167.31
434.10	6118.16
434.28	6209.44
434.47	6272.64
434.66	6319.45
434.85	6319.45
435.03	6286.68
435.22	6232.85
435.41	6471.58
435.59	6394.34
435.78	6480.94
435.97	6509.03
436.16	6408.39
436.34	6401.37
436.53	6530.09
436.72	6614.35
436.90	6544.14
437.09	6724.36
437.28	6452.86
437.46	6698.61
437.65	6499.67
437.84	6705.63
438.02	6869.47
438.21	6979.48
438.40	6747.76
438.58	7066.08
438.77	7155.02
438.96	6885.86
439.14	7096.50
439.33	7159.70
439.52	7243.96
439.70	7227.57
439.89	7534.18
440.08	7595.04
440.26	7375.03
440.45	7274.38
440.63	7496.74
440.82	7693.34
441.01	7463.97
441.19	7747.17
441.38	7768.24
441.57	7660.57
441.75	7997.61
441.94	8100.59
442.12	8042.08
442.31	8013.99
442.50	8046.76
442.68	8105.28
442.87	8189.53
443.05	8028.04
443.24	8086.55
443.43	8341.67
443.61	8442.31
443.80	8631.90
443.98	7962.50
444.17	8018.68
444.35	8348.69
444.54	8372.10
444.73	8397.84
444.91	8418.91
445.10	8315.92
445.28	8482.10
445.47	8336.99
445.65	8648.28
445.84	8601.47
446.02	8674.03
446.21	8454.02
446.39	8301.88
446.58	8505.51
446.77	8521.89
446.95	8074.85
447.14	8498.49
447.32	8709.13
447.51	8571.04
447.69	8503.17
447.88	8458.70
448.06	8615.51
448.25	8538.27
448.43	8528.91
448.62	8573.38
448.80	8587.43
448.99	8643.60
449.17	8779.35
449.36	8561.68
449.54	9095.32
449.73	8835.52
449.91	9076.60
450.10	9067.24
450.28	9069.58
450.46	9186.60
450.65	9158.52
450.83	9156.18
451.02	9025.11
451.20	9282.56
451.39	9205.33
451.57	8973.61
451.76	9160.86
451.94	9291.93
452.13	9357.46
452.31	9268.52
452.49	9324.69
452.68	9647.69
452.86	9516.62
453.05	9434.70
453.23	9617.26
453.42	9481.51
453.60	9511.94
453.78	9710.88
453.97	9542.36
454.15	9423.00
454.34	9713.22
454.52	9858.34
454.70	9764.72
454.89	9872.38
455.07	9783.44
455.26	10143.88
455.44	10050.26
455.62	10036.22
455.81	10071.33
455.99	9841.95
456.17	10106.43
456.36	10429.43
456.54	10129.84
456.73	10382.62
456.91	10497.30
457.09	10509.01
457.28	10473.90
457.46	10169.63
457.64	10459.85
457.83	10525.39
458.01	10492.62
458.19	10967.75
458.38	10551.14
458.56	10796.89
458.74	10654.12
458.93	10712.63
459.11	10972.43
459.29	10972.43
459.48	10923.28
459.66	10853.06
459.84	10972.43
460.03	11157.33
460.21	10913.92
460.39	11059.03
460.57	11117.54
460.76	11129.25
460.94	11309.47
461.12	11485.01
461.31	11417.13
461.49	11068.39
461.67	11531.82
461.85	11665.23
462.04	11253.30
462.22	11974.18
462.40	11929.71
462.59	11669.91
462.77	11480.33
462.95	11660.55
463.13	11693.32
463.32	11901.62
463.50	11714.38
463.68	11864.18
463.86	11992.90
464.05	11538.84
464.23	11868.86
464.41	11749.49
464.59	11800.98
464.78	12269.09
464.96	12159.08
465.14	11864.18
465.32	11978.86
465.50	12018.65
465.69	12217.60
465.87	12336.96
466.05	12194.19
466.23	12262.07
466.41	12191.85
466.60	12674.00
466.78	12224.62
466.96	12212.92
467.14	12540.59
467.32	12407.18
467.51	12645.91
467.69	12325.26
467.87	12650.60
468.05	12858.90
468.23	12580.38
468.41	12685.70
468.60	12709.11
468.78	12685.70
468.96	12973.59
469.14	12938.48
469.32	13071.89
469.50	12861.24
469.69	13006.36
469.87	13287.22
470.05	13107.00
470.23	13228.71
470.41	13497.87
470.59	13540.00
470.77	13427.65
470.95	13486.17
471.14	13554.04
471.32	13238.07
471.50	13666.39
471.68	13736.60
471.86	13757.67
472.04	13469.78
472.22	14012.79
472.40	13767.03
472.58	14178.97
472.77	14160.24
472.95	14534.73
473.13	14958.36
473.31	14160.24
473.49	13975.34
473.67	14239.82
473.85	14445.79
474.03	14780.48
474.21	14679.84
474.39	14782.82
474.57	14721.97
474.75	15007.52
474.93	14930.28
475.12	15222.84
475.30	15012.20
475.48	15049.64
475.66	15447.54
475.84	15098.80
476.02	15597.33
476.20	15445.20
476.38	15627.76
476.56	16042.03
476.74	16126.29
476.92	15988.20
477.10	15747.12
477.28	16208.21
477.46	16407.16
477.64	16376.73
477.82	16868.24
478.00	17160.81
478.18	16905.69
478.36	17181.87
478.54	17413.59
478.72	17411.25
478.90	17488.48
479.08	17509.55
479.26	17668.70
479.44	18108.72
479.62	18010.42
479.80	18108.72
479.98	18200.01
480.16	18420.02
480.34	18504.28
480.52	18757.05
480.70	18862.38
480.88	18553.43
481.06	19035.58
481.24	18696.20
481.41	19000.47
481.59	19047.28
481.77	19796.25
481.95	20088.82
482.13	19798.59
482.31	19913.28
482.49	20320.53
482.67	20327.55
482.85	20657.57
483.03	20903.32
483.21	20938.43
483.39	21106.95
483.57	21242.70
483.74	21212.28
483.92	21434.63
484.10	21319.94
484.28	21797.41
484.46	22005.72
484.64	22452.76
484.82	22001.04
485.00	22431.69
485.18	22902.14
485.35	23276.63
485.53	22829.59
485.71	23260.24
485.89	23878.15
486.07	23789.20
486.25	23770.48
486.43	23758.78
486.61	23908.57
486.78	24217.52
486.96	24587.33
487.14	24606.05
487.32	24592.01
487.50	25048.41
487.68	25287.15
487.85	25221.61
488.03	25783.34
488.21	25766.96
488.39	26195.28
488.57	26331.03
488.75	26548.70
488.92	26522.95
489.10	26895.10
489.28	27136.17
489.46	27391.29
489.64	27402.99
489.81	27672.15
489.99	27873.44
490.17	27824.29
490.35	28535.81
490.53	28304.10
490.70	28875.19
490.88	28584.96
491.06	29221.59
491.24	28975.83
491.41	29380.74
491.59	29677.99
491.77	29333.93
491.95	29710.76
492.13	29933.11
492.30	29785.66
492.48	30349.73
492.66	30677.40
492.84	30654.00
493.01	30834.22
493.19	31246.15
493.37	31019.12
493.54	31449.78
493.72	31758.73
493.90	31594.89
494.08	32079.38
494.25	31999.80
494.43	32273.65
494.61	32613.02
494.79	32800.27
494.96	32833.04
495.14	32636.43
495.32	33144.33
495.49	33167.73
495.67	33591.37
495.85	33656.90
496.02	34190.55
496.20	34326.30
496.38	34199.91
496.55	34389.49
496.73	34590.78
496.91	34948.88
497.09	34866.96
497.26	35248.47
497.44	35772.75
497.62	35470.82
497.79	36074.68
497.97	35765.73
498.14	36378.95
498.32	36556.83
498.50	36720.66
498.67	37106.85
498.85	36849.39
499.03	36825.99
499.20	36673.85
499.38	37048.34
499.56	37368.99
499.73	37605.39
499.91	37551.56
500.08	37773.91
500.26	37586.66
500.44	38302.87
500.61	38312.23
500.79	38080.52
500.97	38656.29
501.14	38773.31
501.32	38883.32
501.49	38487.77
501.67	39129.08
501.84	39241.42
502.02	39157.16
502.20	39550.37
502.37	39342.06
502.55	39889.75
502.72	39866.34
502.90	39529.31
503.07	39761.02
503.25	39974.01
503.43	40025.50
503.60	40404.67
503.78	40540.42
503.95	40381.26
504.13	40858.73
504.30	40741.71
504.48	40868.09
504.65	41029.59
504.83	41488.34
505.01	41153.64
505.18	41720.05
505.36	42359.02
505.53	41427.48
505.71	41841.76
505.88	42117.94
506.06	42127.30
506.23	42454.98
506.41	41911.97
506.58	42370.72
506.76	42604.77
506.93	42946.49
507.11	42588.39
507.28	42852.87
507.46	43079.90
507.63	43091.60
507.81	43730.57
507.98	43482.47
508.16	43407.58
508.33	43414.60
508.50	43665.03
508.68	44126.12
508.85	44147.18
509.03	44231.44
509.20	44629.34
509.38	44856.37
509.55	44790.83
509.73	44825.94
509.90	45265.96
510.08	44722.96
510.25	44971.05
510.42	45390.01
510.60	45799.60
510.77	45488.31
510.95	46047.70
511.12	45727.05
511.30	45612.36
511.47	46202.18
511.64	45958.76
511.82	45942.38
511.99	45977.48
512.17	46466.66
512.34	46410.48
512.51	46190.47
512.69	46588.36
512.86	46476.02
513.04	46845.82
513.21	46775.61
513.38	47182.86
513.56	47512.88
513.73	47456.70
513.90	47290.52
514.08	47430.96
514.25	47798.42
514.43	47437.98
514.60	48053.54
514.77	47103.28
514.95	47828.85
515.12	48030.13
515.29	47742.25
515.47	48142.48
515.64	48671.44
515.81	48446.75
515.99	48341.42
516.16	48854.00
516.33	48758.04
516.51	48830.60
516.68	49069.33
516.85	48842.30
517.03	49237.85
517.20	49303.38
517.37	49507.01
517.54	49354.88
517.72	49598.29
517.89	49577.23
518.06	49741.06
518.24	49441.48
518.41	49488.29
518.58	49507.01
518.75	49769.15
518.93	50021.93
519.10	49932.99
519.27	49928.31
519.45	50312.16
519.62	50321.52
519.79	50274.71
519.96	49874.48
520.14	50576.64
520.31	50260.66
520.48	50527.48
520.65	50691.32
520.83	51334.97
521.00	50684.30
521.17	50681.96
521.34	50726.43
521.52	50983.89
521.69	51035.38
521.86	51576.04
522.03	51737.54
522.20	51643.92
522.38	51571.36
522.55	51702.43
522.72	51789.03
522.89	51695.41
523.07	52004.36
523.24	51604.13
523.41	52151.82
523.58	52013.73
523.75	52123.73
523.92	52053.51
524.10	52374.17
524.27	52624.60
524.44	52224.37
524.61	52252.46
524.78	52708.86
524.96	52381.19
525.13	52725.25
525.30	52861.00
525.47	53031.86
525.64	52846.96
525.81	52753.33
525.98	52734.61
526.16	52765.04
526.33	52758.02
526.50	52924.19
526.67	53109.10
526.84	53432.09
527.01	53275.27
527.18	53172.29
527.36	53207.40
527.53	53333.79
527.70	53469.54
527.87	53544.44
528.04	53565.50
528.21	53605.29
528.38	53762.11
528.55	53932.96
528.72	53525.71
528.89	53757.42
529.07	53804.24
529.24	53439.11
529.41	53930.62
529.58	53996.16
529.75	53890.83
529.92	54005.52
530.09	53956.37
530.26	54115.53
530.43	54089.78
530.60	54021.90
530.77	54068.72
530.94	54330.86
531.11	54068.72
531.28	54482.99
531.46	54241.92
531.63	54539.16
531.80	54543.84
531.97	54761.51
532.14	54405.75
532.31	54632.78
532.48	54852.80
532.65	54698.32
532.82	54796.62
532.99	55154.72
533.16	54660.87
533.33	55210.90
533.50	55381.76
533.67	55128.98
533.84	54686.62
534.01	55164.09
534.18	55360.69
534.35	55561.98
534.52	55215.58
534.69	55374.73
534.86	55648.58
535.03	55138.34
535.20	55426.23
535.37	55344.31
535.54	55440.27
535.71	55803.05
535.88	55826.46
536.05	55639.22
536.22	55784.33
536.38	55868.59
536.55	55707.09
536.72	55831.14
536.89	55863.91
537.06	55959.87
537.23	56023.06
537.40	55622.83
537.57	55767.94
537.74	56072.21
537.91	56229.03
538.08	56097.96
538.25	55742.20
538.42	56027.74
538.59	56184.56
538.75	56310.95
538.92	56002.00
539.09	56409.25
539.26	56460.74
539.43	56317.97
539.60	56308.61
539.77	56559.05
539.94	56816.50
540.11	56704.16
540.28	56704.16
540.44	56507.55
540.61	56715.86
540.78	56622.24
540.95	56727.56
541.12	56545.00
541.29	56650.33
541.46	56652.67
541.62	56720.54
541.79	56807.14
541.96	56498.19
542.13	56708.84
542.30	56914.81
542.47	57169.93
542.63	57413.34
542.80	57333.76
542.97	57186.31
543.14	57560.79
543.31	57301.00
543.48	57249.50
543.64	57574.84
543.81	57460.15
543.98	57354.83
544.15	57446.11
544.32	57621.65
544.48	57647.39
544.65	57448.45
544.82	57923.58
544.99	57462.49
545.16	57783.15
545.32	57801.87
545.49	58026.56
545.66	57780.81
545.83	57909.53
546.00	58003.16
546.16	58087.42
546.33	57853.36
546.50	57661.44
546.67	57958.69
546.83	57523.35
547.00	58082.73
547.17	57951.66
547.34	58185.72
547.50	58195.08
547.67	58244.23
547.84	58288.70
548.00	58298.06
548.17	58447.86
548.34	58487.65
548.51	58487.65
548.67	58454.88
548.84	58426.79
549.01	58382.32
549.18	58344.87
549.34	58457.22
549.51	58459.56
549.68	58548.50
549.84	58628.08
550.01	58466.58
550.18	58532.12
550.34	58712.34
550.51	58815.32
550.68	58698.30
550.84	58534.46
551.01	58651.48
551.18	58541.48
551.34	58754.47
551.51	58707.66
551.68	58742.77
551.84	58876.18
552.01	58691.27
552.18	58892.56
552.34	58906.60
552.51	58887.88
552.68	58801.28
552.84	58784.90
553.01	59140.66
553.18	59138.32
553.34	59075.12
553.51	58965.12
553.67	59178.10
553.84	59124.27
554.01	59100.87
554.17	59217.89
554.34	59182.79
554.51	59365.35
554.67	59281.09
554.84	59290.45
555.00	59278.75
555.17	59222.58
555.33	59157.04
555.50	59297.47
555.67	59393.43
555.83	59302.15
556.00	59393.43
556.16	59655.57
556.33	59571.32
556.50	59290.45
556.66	59491.74
556.83	59433.22
556.99	59435.56
557.16	59728.13
557.32	59414.50
557.49	59749.20
557.65	59437.90
557.82	59742.17
557.98	59568.97
558.15	59545.57
558.32	59735.15
558.48	59634.51
558.65	59622.81
558.81	59643.87
558.98	59693.02
559.14	59955.16
559.31	59840.48
559.47	60079.21
559.64	59870.90
559.80	59854.52
559.97	60004.31
560.13	59751.54
560.30	59908.35
560.46	60079.21
560.63	59859.20
560.79	60027.72
560.96	60060.49
561.12	59934.10
561.29	60135.38
561.45	60081.55
561.61	60086.23
561.78	59978.57
561.94	59997.29
562.11	59880.27
562.27	60474.76
562.44	60193.90
562.60	60107.30
562.77	60392.84
562.93	59950.48
563.10	60048.78
563.26	60086.23
563.42	60406.89
563.59	60200.92
563.75	60296.88
563.92	60374.12
564.08	60135.38
564.24	60367.10
564.41	60247.73
564.57	60170.49
564.74	60268.79
564.90	60329.65
565.07	60158.79
565.23	60528.59
565.39	60313.26
565.56	60554.34
565.72	60456.04
565.88	60231.35
566.05	60296.88
566.21	60399.86
566.38	60341.35
566.54	60502.85
566.70	60654.98
566.87	60542.64
567.03	60275.82
567.19	60484.12
567.36	60427.95
567.52	60491.15
567.68	60556.68
567.85	60500.51
568.01	60732.22
568.17	60535.62
568.34	60507.53
568.50	60364.76
568.66	60598.81
568.83	60519.23
568.99	60477.10
569.15	60467.74
569.32	60458.38
569.48	60430.29
569.64	60671.37
569.81	60629.24
569.97	60505.19
570.13	60589.45
570.30	60755.63
570.46	60741.58
570.62	60608.17
570.78	60774.35
570.95	60722.86
571.11	60832.86
571.27	60750.94
571.43	60741.58
571.60	60877.33
571.76	60694.77
571.92	60900.74
572.09	60790.73
572.25	60711.16
572.41	60608.17
572.57	60989.68
572.74	61111.39
572.90	60788.39
573.06	60889.04
573.22	60914.78
573.38	60872.65
573.55	60839.89
573.71	60933.51
573.87	60942.87
574.03	60687.75
574.20	60975.64
574.36	60697.11
574.52	60694.77
574.68	61113.73
574.84	61034.15
575.01	61162.88
575.17	60961.59
575.33	61036.49
575.49	60893.72
575.65	60872.65
575.82	61048.19
575.98	60907.76
576.14	61106.71
576.30	61041.17
576.46	60874.99
576.62	60753.29
576.79	60842.23
576.95	60851.59
577.11	61202.67
577.27	60926.49
577.43	61099.68
577.59	60954.57
577.75	60968.61
577.92	60996.70
578.08	61181.60
578.24	61034.15
578.40	61141.81
578.56	61216.71
578.72	60917.12
578.88	61228.41
579.04	61242.46
579.21	61137.13
579.37	61223.73
579.53	61336.08
579.69	60828.18
579.85	61134.79
580.01	61137.13
580.17	60968.61
580.33	61162.88
580.49	61256.50
580.65	61247.14
580.82	61097.34
580.98	60912.44
581.14	60942.87
581.30	61235.44
581.46	61092.66
581.62	61165.22
581.78	61120.75
581.94	61228.41
582.10	61057.56
582.26	61212.03
582.42	61282.25
582.58	61165.22
582.74	61029.47
582.90	61137.13
583.06	60982.66
583.22	60977.98
583.38	61132.45
583.54	61319.70
583.70	61160.54
583.86	61279.91
584.02	61071.60
584.18	61228.41
584.34	61148.84
584.50	61130.11
584.66	60982.66
584.82	60973.30
584.98	61240.12
585.14	61343.10
585.30	61057.56
585.46	61392.25
585.62	61076.28
585.78	61336.08
585.94	61167.56
586.10	61291.61
586.26	61331.40
586.42	61272.88
586.58	61347.78
586.74	61109.05
586.90	61209.69
587.06	61251.82
587.22	61373.53
587.38	61343.10
587.54	61488.21
587.70	61446.08
587.86	61244.80
588.02	61291.61
588.18	61455.45
588.34	61352.46
588.49	61111.39
