SpectraSuite Data File
++++++++++++++++++++++++++++++++++++
Date: Fri Oct 25 11:22:28 EDT 2013
User: price-jones
Dark Spectrum Present: No
Reference Spectrum Present: No
Number of Sampled Component Spectra: 1
Spectrometers: USB2+H05261
Integration Time (usec): 100000 (USB2+H05261)
Spectra Averaged: 1 (USB2+H05261)
Boxcar Smoothing: 0 (USB2+H05261)
Correct for Electrical Dark: No (USB2+H05261)
Strobe/Lamp Enabled: No (USB2+H05261)
Correct for Detector Non-linearity: No (USB2+H05261)
Correct for Stray Light: No (USB2+H05261)
Number of Pixels in Processed Spectrum: 2048
>>>>>Begin Processed Spectral Data<<<<<
365.73	187.24
365.92	187.24
366.12	187.24
366.32	163.84
366.52	182.56
366.72	166.18
366.91	21.06
367.11	100.64
367.31	126.39
367.51	138.09
367.70	46.81
367.90	234.05
368.10	102.98
368.30	100.64
368.49	163.84
368.69	173.20
368.89	189.58
369.09	117.03
369.28	163.84
369.48	140.43
369.68	205.97
369.87	133.41
370.07	145.11
370.27	227.03
370.47	313.63
370.66	557.05
370.86	631.94
371.06	667.05
371.25	622.58
371.45	592.16
371.65	620.24
371.84	678.76
372.04	606.20
372.24	650.67
372.44	671.73
372.63	676.41
372.83	788.76
373.03	732.59
373.22	821.53
373.42	737.27
373.62	805.14
373.81	781.74
374.01	772.38
374.21	737.27
374.40	702.16
374.60	777.06
374.79	830.89
374.99	816.85
375.19	889.40
375.38	854.30
375.58	786.42
375.78	964.30
375.97	805.14
376.17	917.49
376.37	875.36
376.56	894.08
376.76	851.96
376.95	950.26
377.15	880.04
377.35	938.55
377.54	882.38
377.74	837.91
377.93	926.85
378.13	931.53
378.33	915.15
378.52	929.19
378.72	950.26
378.91	908.13
379.11	917.49
379.31	849.61
379.50	1006.43
379.70	1015.79
379.89	1050.90
380.09	898.77
380.28	1001.75
380.48	1029.84
380.68	1039.20
380.87	884.72
381.07	1062.60
381.26	1006.43
381.46	861.32
381.65	1057.92
381.85	1048.56
382.04	1020.47
382.24	1008.77
382.43	1102.39
382.63	1048.56
382.83	1027.50
383.02	1078.99
383.22	1135.16
383.41	1039.20
383.61	994.73
383.80	1200.69
384.00	1158.57
384.19	1109.41
384.39	1076.65
384.58	1090.69
384.78	1130.48
384.97	1146.86
385.17	1139.84
385.36	1179.63
385.56	1167.93
385.75	1205.38
385.95	1170.27
386.14	1228.78
386.34	1210.06
386.53	1277.93
386.72	1252.19
386.92	1181.97
387.11	1284.95
387.31	1125.80
387.50	1233.46
387.70	1249.85
387.89	1273.25
388.09	1315.38
388.28	1224.10
388.48	1348.15
388.67	1348.15
388.86	1284.95
389.06	1324.74
389.25	1277.93
389.45	1376.24
389.64	1287.29
389.84	1324.74
390.03	1446.45
390.22	1357.51
390.42	1427.73
390.61	1380.92
390.81	1413.68
391.00	1394.96
391.19	1406.66
391.39	1490.92
391.58	1423.05
391.78	1404.32
391.97	1535.39
392.16	1535.39
392.36	1584.54
392.55	1523.69
392.75	1469.86
392.94	1469.86
393.13	1554.12
393.33	1519.01
393.52	1570.50
393.71	1657.10
393.91	1535.39
394.10	1600.93
394.29	1600.93
394.49	1535.39
394.68	1591.56
394.88	1619.65
395.07	1633.69
395.26	1661.78
395.46	1699.23
395.65	1734.34
395.84	1750.72
396.04	1825.62
396.23	1703.91
396.42	1811.57
396.62	1734.34
396.81	1806.89
397.00	1739.02
397.19	1811.57
397.39	1776.47
397.58	1774.13
397.77	1849.02
397.97	1842.00
398.16	1825.62
398.35	1912.22
398.55	1912.22
398.74	1851.36
398.93	1926.26
399.12	1961.37
399.32	1907.54
399.51	1954.35
399.70	1959.03
399.90	1970.73
400.09	1940.30
400.28	2062.01
400.47	2022.22
400.67	2043.29
400.86	2101.80
401.05	2078.40
401.24	2008.18
401.44	2127.55
401.63	2165.00
401.82	2167.34
402.01	2036.27
402.21	2153.29
402.40	2237.55
402.59	2207.13
402.78	2228.19
402.97	2221.17
403.17	2253.94
403.36	2235.21
403.55	2373.30
403.74	2352.24
403.93	2324.15
404.13	2382.67
404.32	2417.77
404.51	2335.85
404.70	2438.84
404.89	2478.63
405.09	2415.43
405.28	2551.18
405.47	2530.12
405.66	2586.29
405.85	2537.14
406.05	2490.33
406.24	2593.31
406.43	2525.44
406.62	2544.16
406.81	2708.00
407.00	2693.96
407.20	2715.02
407.39	2668.21
407.58	2761.83
407.77	2672.89
407.96	2808.64
408.15	2803.96
408.34	2803.96
408.54	2956.10
408.73	2864.82
408.92	2897.58
409.11	3005.25
409.30	2911.63
409.49	2942.05
409.68	2935.03
409.87	2974.82
410.07	2974.82
410.26	3080.14
410.45	3030.99
410.64	2991.20
410.83	3148.02
411.02	3040.36
411.21	3136.32
411.40	3201.85
411.59	3197.17
411.78	3255.69
411.98	3197.17
412.17	3246.32
412.36	3302.50
412.55	3419.52
412.74	3370.37
412.93	3478.04
413.12	3412.50
413.31	3529.53
413.50	3569.32
413.69	3585.70
413.88	3597.40
414.07	3627.83
414.26	3749.54
414.45	3705.07
414.64	3735.50
414.83	3880.61
415.02	3803.37
415.22	3838.48
415.41	4032.74
415.60	3868.91
415.79	3946.14
415.98	3878.27
416.17	3955.51
416.36	4004.66
416.55	4032.74
416.74	4126.36
416.93	4037.42
417.12	4028.06
417.31	4215.30
417.50	4311.27
417.69	4348.72
417.88	4329.99
418.07	4367.44
418.26	4287.86
418.45	4383.82
418.64	4594.47
418.83	4421.27
419.02	4486.81
419.21	4482.13
419.39	4650.64
419.58	4564.04
419.77	4512.55
419.96	4596.81
420.15	4526.60
420.34	4580.43
420.53	4683.41
420.72	4706.82
420.91	4802.78
421.10	4781.71
421.29	4856.61
421.48	4727.88
421.67	4842.57
421.86	4863.63
422.05	4770.01
422.24	4798.10
422.43	4912.78
422.61	4877.68
422.80	4903.42
422.99	4990.02
423.18	5100.03
423.37	5151.52
423.56	4950.23
423.75	5020.45
423.94	4849.59
424.13	4884.70
424.32	4791.08
424.50	5153.86
424.69	5214.71
424.88	5214.71
425.07	5067.26
425.26	4999.38
425.45	5195.99
425.64	4912.78
425.83	4961.94
426.01	5055.56
426.20	5067.26
426.39	5184.29
426.58	5123.43
426.77	4877.68
426.96	5191.31
427.15	5139.82
427.33	5261.52
427.52	5280.25
427.71	5268.55
427.90	5317.70
428.09	5322.38
428.28	5392.59
428.46	5551.75
428.65	5380.89
428.84	5439.40
429.03	5561.11
429.22	5453.45
429.40	5451.11
429.59	5504.94
429.78	5406.64
429.97	5490.90
430.16	5605.58
430.34	5685.16
430.53	5652.39
430.72	5781.12
430.91	5778.78
431.10	5626.65
431.28	5626.65
431.47	5781.12
431.66	6005.81
431.85	5949.64
432.03	5963.68
432.22	6052.63
432.41	6019.86
432.60	6003.47
432.79	5870.06
432.97	6043.26
433.16	6092.41
433.35	6267.95
433.54	6050.28
433.72	6026.88
433.91	6345.19
434.10	6045.60
434.28	6246.89
434.47	6232.85
434.66	6359.24
434.85	6232.85
435.03	6406.05
435.22	6359.24
435.41	6457.54
435.59	6473.92
435.78	6602.65
435.97	6736.06
436.16	6574.56
436.34	6466.90
436.53	6553.50
436.72	6609.67
436.90	6424.77
437.09	6609.67
437.28	6583.93
437.46	6642.44
437.65	6691.59
437.84	6974.80
438.02	6810.96
438.21	6913.94
438.40	6848.41
438.58	6995.86
438.77	7007.56
438.96	7091.82
439.14	7166.72
439.33	7293.11
439.52	7356.30
439.70	7302.47
439.89	7400.77
440.08	7573.97
440.26	7328.22
440.45	7466.31
440.63	7555.25
440.82	7630.15
441.01	7494.40
441.19	7810.37
441.38	7576.31
441.57	7779.94
441.75	7899.31
441.94	7953.14
442.12	8219.96
442.31	8058.46
442.50	8294.86
442.68	8051.44
442.87	8088.89
443.05	8093.57
443.24	8318.26
443.43	8072.51
443.61	8294.86
443.80	8367.42
443.98	8098.25
444.17	7922.71
444.35	8430.61
444.54	8498.49
444.73	8454.02
444.91	8355.71
445.10	8390.82
445.28	8507.85
445.47	8498.49
445.65	8255.07
445.84	8493.80
446.02	8482.10
446.21	8336.99
446.39	8344.01
446.58	8699.77
446.77	8547.64
446.95	8283.16
447.14	8606.15
447.32	8662.32
447.51	8596.79
447.69	8372.10
447.88	8552.32
448.06	8327.63
448.25	8624.87
448.43	8624.87
448.62	8767.65
448.80	8547.64
448.99	8826.16
449.17	8730.20
449.36	8573.38
449.54	8990.00
449.73	9069.58
449.91	9116.39
450.10	9029.79
450.28	9167.88
450.46	9020.42
450.65	9034.47
450.83	9158.52
451.02	9013.40
451.20	9352.78
451.39	9254.48
451.57	9163.20
451.76	9273.20
451.94	9380.87
452.13	9310.65
452.31	9273.20
452.49	9259.16
452.68	9399.59
452.86	9568.11
453.05	9493.21
453.23	9554.07
453.42	9441.72
453.60	9303.63
453.78	9500.23
453.97	9467.47
454.15	9584.49
454.34	9596.20
454.52	9961.32
454.70	9933.23
454.89	10003.45
455.07	9937.91
455.26	9900.47
455.44	9958.98
455.62	9912.17
455.81	10267.93
455.99	10068.98
456.17	10253.89
456.36	10171.97
456.54	10342.83
456.73	10300.70
456.91	10707.95
457.09	10466.88
457.28	10630.71
457.46	10551.14
457.64	10558.16
457.83	10705.61
458.01	10654.12
458.19	10813.28
458.38	10822.64
458.56	10794.55
458.74	10876.47
458.93	10836.68
459.11	10949.03
459.29	10593.26
459.48	10986.47
459.66	10822.64
459.84	11044.99
460.03	11059.03
460.21	11119.89
460.39	10899.87
460.57	11166.70
460.76	11346.92
460.94	11246.27
461.12	11218.19
461.31	11372.66
461.49	11276.70
461.67	11442.88
461.85	11597.35
462.04	11475.65
462.22	11522.46
462.40	11852.47
462.59	11576.29
462.77	11728.42
462.95	11637.14
463.13	11765.87
463.32	11772.89
463.50	11840.77
463.68	11735.45
463.86	11873.54
464.05	11927.37
464.23	11845.45
464.41	12044.40
464.59	11882.90
464.78	12198.87
464.96	12016.31
465.14	11967.16
465.32	12093.55
465.50	12262.07
465.69	12393.14
465.87	12245.68
466.05	12212.92
466.23	12582.72
466.41	12287.81
466.60	12631.87
466.78	12255.04
466.96	12142.70
467.14	12196.53
467.32	12568.68
467.51	12613.15
467.69	12351.01
467.87	12638.89
468.05	12819.11
468.23	12592.08
468.41	12627.19
468.60	12521.87
468.78	12919.76
468.96	12760.60
469.14	13008.70
469.32	13135.09
469.50	12549.95
469.69	12919.76
469.87	13315.31
470.05	13130.41
470.23	13474.46
470.41	13247.43
470.59	13263.82
470.77	13268.50
470.95	13556.38
471.14	13694.47
471.32	13493.19
471.50	13799.80
471.68	13645.32
471.86	13799.80
472.04	13949.59
472.22	14422.38
472.40	13893.42
472.58	13706.18
472.77	14017.47
472.95	14253.86
473.13	14555.79
473.31	14090.02
473.49	14394.29
473.67	14150.88
473.85	14534.73
474.03	14785.16
474.21	14878.79
474.39	14839.00
474.57	14848.36
474.75	14817.93
474.93	15033.26
475.12	15300.08
475.30	15267.31
475.48	15349.23
475.66	15236.89
475.84	15651.16
476.02	15534.14
476.20	15499.03
476.38	15637.12
476.56	16140.33
476.74	16053.73
476.92	15925.00
477.10	15758.83
477.28	16135.65
477.46	16095.86
477.64	16203.53
477.82	16760.58
478.00	17231.02
478.18	16791.00
478.36	17287.20
478.54	17298.90
478.72	17577.42
478.90	17600.83
479.08	17902.76
479.26	17774.03
479.44	18188.30
479.62	18132.13
479.80	18305.33
479.98	18253.84
480.16	18731.31
480.34	18733.65
480.52	18642.37
480.70	18616.62
480.88	18534.70
481.06	18838.97
481.24	19108.13
481.41	19243.88
481.59	19552.84
481.77	19822.00
481.95	19660.50
482.13	19962.43
482.31	20093.50
482.49	20348.62
482.67	20475.01
482.85	20954.82
483.03	20952.48
483.21	20727.78
483.39	21434.63
483.57	21186.53
483.74	21525.91
483.92	21996.35
484.10	21481.44
484.28	21900.39
484.46	22352.12
484.64	22375.52
484.82	22181.26
485.00	22686.81
485.18	22806.18
485.35	23440.47
485.53	23293.01
485.71	23522.38
485.89	23866.44
486.07	23828.99
486.25	23494.30
486.43	23875.80
486.61	24009.22
486.78	24421.15
486.96	24285.40
487.14	24931.39
487.32	25355.02
487.50	25263.74
487.68	25490.77
487.85	25652.27
488.03	25846.54
488.21	26141.44
488.39	26036.12
488.57	26204.64
488.75	26476.14
488.92	26831.90
489.10	26991.06
489.28	26937.23
489.46	27520.02
489.64	27168.94
489.81	28053.66
489.99	27929.61
490.17	28098.13
490.35	28386.02
490.53	28577.94
490.70	28587.30
490.88	28732.42
491.06	29542.24
491.24	29289.46
491.41	29333.93
491.59	29745.87
491.77	29722.46
491.95	29788.00
492.13	30176.53
492.30	30382.49
492.48	30235.04
492.66	30534.63
492.84	30714.85
493.01	31161.89
493.19	31096.36
493.37	31644.04
493.54	31299.98
493.72	31835.97
493.90	31835.97
494.08	31971.72
494.25	32591.96
494.43	32479.61
494.61	32746.44
494.79	32643.45
494.96	32971.13
495.14	33326.89
495.32	33516.47
495.49	33460.30
495.67	33724.78
495.85	33933.09
496.02	34459.71
496.20	34660.99
496.38	34057.14
496.55	34349.70
496.73	35559.76
496.91	34983.99
497.09	35030.80
497.26	35449.75
497.44	35393.58
497.62	35655.72
497.79	36287.67
497.97	35559.76
498.14	36268.94
498.32	36828.33
498.50	36652.79
498.67	36720.66
498.85	36847.05
499.03	36896.20
499.20	36896.20
499.38	37535.17
499.56	37722.41
499.73	37570.28
499.91	37581.98
500.08	38305.21
500.26	37668.58
500.44	37965.83
500.61	38139.03
500.79	38302.87
500.97	38756.93
501.14	39089.29
501.32	38588.41
501.49	39384.19
501.67	39009.71
501.84	39243.76
502.02	39332.70
502.20	39126.74
502.37	39922.52
502.55	39709.53
502.72	40065.29
502.90	39952.94
503.07	40102.74
503.25	40254.87
503.43	40348.50
503.60	40573.19
503.78	40357.86
503.95	40458.50
504.13	40980.44
504.30	41291.73
504.48	40872.78
504.65	41193.43
504.83	41254.28
505.01	41675.58
505.18	41633.45
505.36	42017.30
505.53	41502.38
505.71	42117.94
505.88	42347.31
506.06	42040.70
506.23	42649.24
506.41	42223.26
506.58	42246.67
506.76	42518.17
506.93	43138.41
507.11	42827.12
507.28	43234.38
507.46	42918.40
507.63	43234.38
507.81	43688.44
507.98	43054.15
508.16	43543.33
508.33	43978.67
508.50	43725.89
508.68	43988.03
508.85	44912.54
509.03	44659.76
509.20	44280.60
509.38	44886.79
509.55	44315.70
509.73	45078.72
509.90	45113.83
510.08	45045.95
510.25	45375.97
510.42	44947.65
510.60	45287.03
510.77	45500.01
510.95	45673.21
511.12	45158.30
511.30	45357.24
511.47	45806.62
511.64	46047.70
511.82	46148.34
511.99	46417.50
512.17	46274.73
512.34	46536.87
512.51	46593.04
512.69	47271.80
512.86	46550.91
513.04	46990.94
513.21	47082.22
513.38	47164.14
513.56	47538.62
513.73	47222.65
513.90	47367.76
514.08	47454.36
514.25	47377.12
514.43	48048.86
514.60	47793.74
514.77	47739.91
514.95	48371.85
515.12	48392.92
515.29	48032.47
515.47	48596.54
515.64	48652.72
515.81	48453.77
515.99	48807.19
516.16	48868.05
516.33	49153.59
516.51	49151.25
516.68	48741.66
516.85	48844.64
517.03	49502.33
517.20	49574.89
517.37	49294.02
517.54	49621.70
517.72	49773.83
517.89	49514.03
518.06	49666.17
518.24	49385.30
518.41	49975.12
518.58	50050.02
518.75	49684.89
518.93	50178.75
519.10	49874.48
519.27	50092.15
519.45	50279.39
519.62	50251.30
519.79	50501.74
519.96	50314.50
520.14	50808.35
520.31	50218.53
520.48	50623.45
520.65	50672.60
520.83	51138.36
521.00	51063.47
521.17	51222.62
521.34	50876.22
521.52	50993.25
521.69	51089.21
521.86	51206.24
522.03	51779.67
522.20	51887.34
522.38	52158.84
522.55	51643.92
522.72	51763.29
522.89	51779.67
523.07	51936.49
523.24	51826.48
523.41	52051.17
523.58	51863.93
523.75	52191.61
523.92	51856.91
524.10	52287.57
524.27	52137.77
524.44	52540.35
524.61	52406.94
524.78	52662.05
524.96	52870.36
525.13	52797.80
525.30	52982.71
525.47	52861.00
525.64	52772.06
525.81	52811.85
525.98	53191.01
526.16	53097.39
526.33	52903.13
526.50	53361.87
526.67	53179.31
526.84	53315.06
527.01	53305.70
527.18	53354.85
527.36	53511.67
527.53	53497.62
527.70	53689.55
527.87	53727.00
528.04	53818.28
528.21	53673.16
528.38	53848.71
528.55	54148.29
528.72	53661.46
528.89	53757.42
529.07	53757.42
529.24	53717.64
529.41	54382.35
529.58	53921.26
529.75	54134.25
529.92	54162.34
530.09	54094.46
530.26	54412.77
530.43	54272.34
530.60	54284.04
530.77	54031.27
530.94	54485.33
531.11	54316.81
531.28	54347.24
531.46	54632.78
531.63	54670.23
531.80	54382.35
531.97	54635.13
532.14	54747.47
532.31	54887.90
532.48	55185.15
532.65	55150.04
532.82	54864.50
532.99	55194.51
533.16	55154.72
533.33	55107.91
533.50	55150.04
533.67	54997.91
533.84	54859.82
534.01	55033.02
534.18	55234.30
534.35	55482.40
534.52	55370.05
534.69	55566.66
534.86	55716.45
535.03	55641.56
535.20	55683.69
535.37	55578.36
535.54	55629.85
535.71	55721.13
535.88	55718.79
536.05	55683.69
536.22	55781.99
536.38	55777.31
536.55	55924.76
536.72	55852.20
536.89	56034.77
537.06	56027.74
537.23	55952.85
537.40	55765.60
537.57	56252.44
537.74	56009.02
537.91	56250.09
538.08	56444.36
538.25	56247.75
538.42	56423.29
538.59	56605.86
538.75	56306.27
538.92	56519.26
539.09	56437.34
539.26	56577.77
539.43	56376.48
539.60	56704.16
539.77	56582.45
539.94	56896.08
540.11	56753.31
540.28	56830.55
540.44	56931.19
540.61	56851.61
540.78	56896.08
540.95	56905.44
541.12	56655.01
541.29	56790.76
541.46	57095.03
541.62	56879.70
541.79	56956.94
541.96	56720.54
542.13	56779.06
542.30	56896.08
542.47	57095.03
542.63	57263.55
542.80	57368.87
542.97	57326.74
543.14	57516.32
543.31	57553.77
543.48	57609.95
543.64	57673.14
543.81	57724.63
543.98	57551.43
544.15	57698.89
544.32	57741.02
544.48	57755.06
544.65	57565.48
544.82	57382.91
544.99	57301.00
545.16	57790.17
545.32	57736.34
545.49	57925.92
545.66	58108.48
545.83	58089.76
546.00	58017.20
546.16	57719.95
546.33	57783.15
546.50	57844.00
546.67	58059.33
546.83	57780.81
547.00	58262.96
547.17	58131.89
547.34	58127.20
547.50	58267.64
547.67	58288.70
547.84	58124.86
548.00	58379.98
548.17	58330.83
548.34	58279.34
548.51	58644.46
548.67	58375.30
548.84	58604.67
549.01	58468.92
549.18	58471.26
549.34	58684.25
549.51	58646.80
549.68	58333.17
549.84	58511.05
550.01	58539.14
550.18	58543.82
550.34	58740.42
550.51	58986.18
550.68	58679.57
550.84	58511.05
551.01	58775.53
551.18	58801.28
551.34	58735.74
551.51	58983.84
551.68	58843.41
551.84	58630.42
552.01	58827.02
552.18	59140.66
552.34	58719.36
552.51	58965.12
552.68	58871.49
552.84	58941.71
553.01	59084.48
553.18	59009.59
553.34	59107.89
553.51	58974.48
553.67	59044.69
553.84	59133.63
554.01	59245.98
554.17	59327.90
554.34	59398.12
554.51	59187.47
554.67	59327.90
554.84	59299.81
555.00	59386.41
555.17	59374.71
555.33	59302.15
555.50	59208.53
555.67	59178.10
555.83	59468.33
556.00	59414.50
556.16	59606.42
556.33	59489.40
556.50	59524.50
556.66	59669.62
556.83	59444.93
556.99	59573.66
557.16	59732.81
557.32	59695.36
557.49	59866.22
557.65	59702.38
557.82	59774.94
557.98	59547.91
558.15	59568.97
558.32	59800.69
558.48	59756.22
558.65	59709.41
558.81	59728.13
558.98	59756.22
559.14	60011.34
559.31	59887.29
559.47	60067.51
559.64	60067.51
559.80	59859.20
559.97	59948.14
560.13	59875.58
560.30	60081.55
560.46	60018.36
560.63	60032.40
560.79	60100.28
560.96	60123.68
561.12	60179.85
561.29	60058.15
561.45	59999.63
561.61	60163.47
561.78	59992.61
561.94	59997.29
562.11	60119.00
562.27	60130.70
562.44	60102.62
562.60	60402.21
562.77	60320.29
562.93	60090.91
563.10	60301.56
563.26	60037.08
563.42	60488.80
563.59	60357.74
563.75	60245.39
563.92	60353.05
564.08	60289.86
564.24	60287.52
564.41	60427.95
564.57	60589.45
564.74	60343.69
564.90	60282.84
565.07	60416.25
565.23	60465.40
565.39	60441.99
565.56	60425.61
565.72	60418.59
565.88	60409.23
566.05	60610.51
566.21	60444.33
566.38	60512.21
566.54	60631.58
566.70	60512.21
566.87	60706.47
567.03	60292.20
567.19	60760.31
567.36	60622.22
567.52	60563.70
567.68	60640.94
567.85	60610.51
568.01	60615.19
568.17	60601.15
568.34	60692.43
568.50	60636.26
568.66	60519.23
568.83	60610.51
568.99	60486.46
569.15	60547.32
569.32	60587.11
569.48	60615.19
569.64	60739.24
569.81	60757.97
569.97	60505.19
570.13	60781.37
570.30	60753.29
570.46	60683.07
570.62	60905.42
570.78	60783.71
570.95	60839.89
571.11	60867.97
571.27	60748.60
571.43	60718.18
571.60	61116.07
571.76	60746.26
571.92	60886.70
572.09	60933.51
572.25	60959.25
572.41	60746.26
572.57	60816.48
572.74	60910.10
572.90	60715.84
573.06	60933.51
573.22	60811.80
573.38	60837.54
573.55	60828.18
573.71	60877.33
573.87	60954.57
574.03	60893.72
574.20	60970.96
574.36	60999.04
574.52	60940.53
574.68	61062.24
574.84	60945.21
575.01	61080.96
575.17	60931.17
575.33	61059.90
575.49	61090.32
575.65	61055.21
575.82	61125.43
575.98	61013.08
576.14	61186.28
576.30	60987.34
576.46	61013.08
576.62	61181.60
576.79	61013.08
576.95	60830.52
577.11	60860.95
577.27	61090.32
577.43	60898.40
577.59	61034.15
577.75	61048.19
577.92	60886.70
578.08	60879.67
578.24	61132.45
578.40	61153.52
578.56	61244.80
578.72	60933.51
578.88	61272.88
579.04	61277.57
579.21	61137.13
579.37	61132.45
579.53	61324.38
579.69	61064.58
579.85	61130.11
580.01	61111.39
580.17	61017.77
580.33	61069.26
580.49	61045.85
580.65	61188.63
580.82	61064.58
580.98	61085.64
581.14	60891.38
581.30	61240.12
581.46	61244.80
581.62	61190.97
581.78	61158.20
581.94	61256.50
582.10	61165.22
582.26	61207.35
582.42	61123.09
582.58	61134.79
582.74	61333.74
582.90	61130.11
583.06	61284.59
583.22	60994.36
583.38	61371.19
583.54	61258.84
583.70	61357.14
583.86	61237.78
584.02	61104.37
584.18	61389.91
584.34	61307.99
584.50	61251.82
584.66	61193.31
584.82	60961.59
584.98	61254.16
585.14	61364.17
585.30	61104.37
585.46	61361.82
585.62	61275.22
585.78	61326.72
585.94	60940.53
586.10	61144.16
586.26	61387.57
586.42	61331.40
586.58	61343.10
586.74	61193.31
586.90	61352.46
587.06	61195.65
587.22	61329.06
587.38	61310.33
587.54	61513.96
587.70	61462.47
587.86	61331.40
588.02	61275.22
588.18	61462.47
588.34	61324.38
