SpectraSuite Data File
++++++++++++++++++++++++++++++++++++
Date: Fri Oct 25 11:25:17 EDT 2013
User: price-jones
Dark Spectrum Present: No
Reference Spectrum Present: No
Number of Sampled Component Spectra: 1
Spectrometers: USB2+H05261
Integration Time (usec): 100000 (USB2+H05261)
Spectra Averaged: 1 (USB2+H05261)
Boxcar Smoothing: 0 (USB2+H05261)
Correct for Electrical Dark: No (USB2+H05261)
Strobe/Lamp Enabled: No (USB2+H05261)
Correct for Detector Non-linearity: No (USB2+H05261)
Correct for Stray Light: No (USB2+H05261)
Number of Pixels in Processed Spectrum: 2048
>>>>>Begin Processed Spectral Data<<<<<
365.73	198.95
365.92	198.95
366.12	198.95
366.32	168.52
366.52	159.16
366.72	131.07
366.91	105.32
367.11	74.90
367.31	65.54
367.51	93.62
367.70	95.96
367.90	154.48
368.10	98.30
368.30	133.41
368.49	173.20
368.69	135.75
368.89	170.86
369.09	149.79
369.28	147.45
369.48	138.09
369.68	168.52
369.87	163.84
370.07	194.26
370.27	315.97
370.47	299.59
370.66	500.87
370.86	519.60
371.06	734.93
371.25	791.10
371.45	685.78
371.65	648.33
371.84	683.44
372.04	657.69
372.24	718.54
372.44	763.01
372.63	753.65
372.83	720.88
373.03	713.86
373.22	774.72
373.42	763.01
373.62	812.17
373.81	858.98
374.01	805.14
374.21	823.87
374.40	807.48
374.60	896.43
374.79	798.12
374.99	814.51
375.19	873.02
375.38	849.61
375.58	826.21
375.78	873.02
375.97	854.30
376.17	903.45
376.37	849.61
376.56	910.47
376.76	833.23
376.95	926.85
377.15	926.85
377.35	929.19
377.54	924.51
377.74	908.13
377.93	884.72
378.13	863.66
378.33	919.83
378.52	800.46
378.72	924.51
378.91	926.85
379.11	910.47
379.31	821.53
379.50	854.30
379.70	915.15
379.89	943.24
380.09	889.40
380.28	966.64
380.48	1022.81
380.68	966.64
380.87	992.39
381.07	990.05
381.26	1050.90
381.46	1046.22
381.65	1022.81
381.85	1046.22
382.04	1055.58
382.24	1071.97
382.43	1128.14
382.63	1086.01
382.83	1081.33
383.02	1109.41
383.22	1107.07
383.41	1116.44
383.61	1069.62
383.80	1116.44
384.00	1078.99
384.19	1081.33
384.39	1142.18
384.58	1121.12
384.78	1224.10
384.97	1128.14
385.17	1153.88
385.36	1214.74
385.56	1191.33
385.75	1198.35
385.95	1167.93
386.14	1207.72
386.34	1179.63
386.53	1184.31
386.72	1123.46
386.92	1172.61
387.11	1217.08
387.31	1275.59
387.50	1296.66
387.70	1254.53
387.89	1207.72
388.09	1226.44
388.28	1212.40
388.48	1226.44
388.67	1310.70
388.86	1240.48
389.06	1282.61
389.25	1270.91
389.45	1233.46
389.64	1322.40
389.84	1404.32
390.03	1348.15
390.22	1306.02
390.42	1343.47
390.61	1521.35
390.81	1359.85
391.00	1458.15
391.19	1423.05
391.39	1453.47
391.58	1516.67
391.78	1427.73
391.97	1474.54
392.16	1474.54
392.36	1490.92
392.55	1472.20
392.75	1537.73
392.94	1434.75
393.13	1514.33
393.33	1535.39
393.52	1596.25
393.71	1542.41
393.91	1554.12
394.10	1577.52
394.29	1453.47
394.49	1589.22
394.68	1626.67
394.88	1619.65
395.07	1701.57
395.26	1652.42
395.46	1781.15
395.65	1664.12
395.84	1631.35
396.04	1774.13
396.23	1732.00
396.42	1797.53
396.62	1748.38
396.81	1736.68
397.00	1776.47
397.19	1853.70
397.39	1710.93
397.58	1867.75
397.77	1727.32
397.97	1795.19
398.16	1809.23
398.35	1893.49
398.55	1877.11
398.74	1944.99
398.93	1930.94
399.12	1886.47
399.32	1867.75
399.51	1846.68
399.70	2036.27
399.90	1980.09
400.09	2038.61
400.28	2108.82
400.47	2073.71
400.67	2094.78
400.86	2078.40
401.05	2003.50
401.24	2092.44
401.44	2071.37
401.63	2101.80
401.82	2125.21
402.01	2101.80
402.21	2207.13
402.40	2235.21
402.59	2193.08
402.78	2085.42
402.97	2153.29
403.17	2260.96
403.36	2246.91
403.55	2282.02
403.74	2328.83
403.93	2375.64
404.13	2300.75
404.32	2347.56
404.51	2310.11
404.70	2415.43
404.89	2382.67
405.09	2555.86
405.28	2406.07
405.47	2527.78
405.66	2537.14
405.85	2518.42
406.05	2462.24
406.24	2546.50
406.43	2518.42
406.62	2654.17
406.81	2726.72
407.00	2597.99
407.20	2583.95
407.39	2572.25
407.58	2647.15
407.77	2724.38
407.96	2705.66
408.15	2672.89
408.34	2626.08
408.54	2818.00
408.73	2771.19
408.92	2888.22
409.11	2895.24
409.30	2902.26
409.49	2960.78
409.68	2939.71
409.87	2970.14
410.07	2951.42
410.26	3005.25
410.45	2916.31
410.64	3007.59
410.83	3049.72
411.02	3077.80
411.21	3141.00
411.40	3105.89
411.59	3211.22
411.78	3141.00
411.98	3145.68
412.17	3372.71
412.36	3307.18
412.55	3393.78
412.74	3356.33
412.93	3389.10
413.12	3342.28
413.31	3492.08
413.50	3424.20
413.69	3492.08
413.88	3574.00
414.07	3513.14
414.26	3595.06
414.45	3625.49
414.64	3644.21
414.83	3737.84
415.02	3679.32
415.22	3857.20
415.41	3822.09
415.60	3817.41
415.79	3826.78
415.98	3990.61
416.17	3997.64
416.36	3911.04
416.55	4065.51
416.74	4081.89
416.93	4009.34
417.12	4091.26
417.31	4138.07
417.50	4203.60
417.69	4299.56
417.88	4189.56
418.07	4299.56
418.26	4372.12
418.45	4215.30
418.64	4418.93
418.83	4437.66
419.02	4308.93
419.21	4393.19
419.39	4638.94
419.58	4414.25
419.77	4344.03
419.96	4578.09
420.15	4568.73
420.34	4362.76
420.53	4631.92
420.72	4641.28
420.91	4643.62
421.10	4805.12
421.29	4807.46
421.48	4636.60
421.67	4849.59
421.86	4755.97
422.05	4702.14
422.24	4896.40
422.43	4678.73
422.61	4875.34
422.80	4840.23
422.99	4947.89
423.18	4990.02
423.37	4877.68
423.56	5053.22
423.75	4844.91
423.94	4765.33
424.13	4589.79
424.32	4772.35
424.50	4938.53
424.69	5097.69
424.88	5137.48
425.07	4985.34
425.26	4863.63
425.45	4847.25
425.64	4985.34
425.83	4957.25
426.01	5179.61
426.20	5013.43
426.39	4936.19
426.58	5069.60
426.77	4992.36
426.96	4997.04
427.15	5060.24
427.33	5188.97
427.52	5294.29
427.71	5261.52
427.90	5013.43
428.09	5247.48
428.28	5336.42
428.46	5284.93
428.65	5411.32
428.84	5600.90
429.03	5509.62
429.22	5296.63
429.40	5416.00
429.59	5439.40
429.78	5284.93
429.97	5245.14
430.16	5469.83
430.34	5652.39
430.53	5715.59
430.72	5638.35
430.91	5771.76
431.10	5657.07
431.28	5790.49
431.47	5738.99
431.66	5785.80
431.85	5776.44
432.03	5930.92
432.22	6010.50
432.41	5834.96
432.60	5839.64
432.79	5797.51
432.97	5966.03
433.16	5921.56
433.35	5926.24
433.54	5914.53
433.72	6080.71
433.91	6090.07
434.10	6036.24
434.28	6076.03
434.47	6136.88
434.66	6221.14
434.85	6389.66
435.03	6401.37
435.22	6293.70
435.41	6459.88
435.59	6321.79
435.78	6335.83
435.97	6349.87
436.16	6462.22
436.34	6443.49
436.53	6392.00
436.72	6415.41
436.90	6260.93
437.09	6487.96
437.28	6464.56
437.46	6614.35
437.65	6473.92
437.84	6588.61
438.02	6654.14
438.21	6820.32
438.40	6719.68
438.58	6953.73
438.77	6939.69
438.96	7016.93
439.14	7129.27
439.33	7164.38
439.52	7250.98
439.70	7129.27
439.89	7461.63
440.08	7255.66
440.26	7520.14
440.45	7346.94
440.63	7463.97
440.82	7585.68
441.01	7627.81
441.19	7747.17
441.38	7595.04
441.57	7681.64
441.75	7824.41
441.94	7901.65
442.12	7992.93
442.31	7911.01
442.50	7946.12
442.68	7962.50
442.87	7946.12
443.05	8070.17
443.24	8091.23
443.43	8002.29
443.61	8070.17
443.80	8402.52
443.98	7974.21
444.17	7887.61
444.35	8250.39
444.54	8222.30
444.73	8273.79
444.91	8196.56
445.10	8255.07
445.28	8152.09
445.47	8152.09
445.65	8386.14
445.84	8353.37
446.02	8320.60
446.21	8348.69
446.39	8381.46
446.58	8561.68
446.77	8617.85
446.95	8124.00
447.14	8411.89
447.32	8463.38
447.51	8418.91
447.69	8390.82
447.88	8510.19
448.06	8432.95
448.25	8493.80
448.43	8435.29
448.62	8587.43
448.80	8664.66
448.99	8554.66
449.17	8617.85
449.36	8540.61
449.54	8858.93
449.73	8868.29
449.91	8908.08
450.10	8837.86
450.28	9181.92
450.46	8973.61
450.65	9092.98
450.83	9116.39
451.02	8769.99
451.20	9289.59
451.39	9219.37
451.57	9060.21
451.76	9294.27
451.94	9064.89
452.13	9167.88
452.31	9074.26
452.49	9142.13
452.68	9418.32
452.86	9294.27
453.05	9551.73
453.23	9359.80
453.42	9401.93
453.60	9474.49
453.78	9465.13
453.97	9486.19
454.15	9284.91
454.34	9284.91
454.52	9687.48
454.70	9720.24
454.89	9799.82
455.07	9715.56
455.26	9853.66
455.44	9633.64
455.62	9991.75
455.81	10066.64
455.99	10099.41
456.17	10335.81
456.36	9977.70
456.54	10204.74
456.73	10195.37
456.91	10408.36
457.09	10300.70
457.28	10441.13
457.46	10080.69
457.64	10487.94
457.83	10518.37
458.01	10345.17
458.19	10691.57
458.38	10427.09
458.56	10738.38
458.74	10237.50
458.93	10621.35
459.11	10635.39
459.29	10513.69
459.48	10647.10
459.66	10846.04
459.84	10878.81
460.03	10934.98
460.21	10757.10
460.39	10899.87
460.57	10862.43
460.76	11044.99
460.94	10977.11
461.12	11124.57
461.31	11084.78
461.49	10951.37
461.67	11073.07
461.85	11253.30
462.04	11159.67
462.22	11782.26
462.40	11700.34
462.59	11412.45
462.77	11272.02
462.95	11375.00
463.13	11459.26
463.32	11587.99
463.50	11595.01
463.68	11864.18
463.86	11690.98
464.05	11489.69
464.23	12016.31
464.41	12013.97
464.59	11651.19
464.78	11995.25
464.96	11779.92
465.14	11702.68
465.32	11903.96
465.50	12079.50
465.69	12046.74
465.87	12231.64
466.05	12020.99
466.23	12093.55
466.41	12304.20
466.60	12351.01
466.78	12156.74
466.96	11964.82
467.14	12128.66
467.32	12645.91
467.51	12552.29
467.69	12100.57
467.87	12421.22
468.05	12276.11
468.23	12231.64
468.41	12372.07
468.60	12479.74
468.78	12657.62
468.96	12278.45
469.14	12720.81
469.32	12931.46
469.50	12465.69
469.69	12844.86
469.87	13041.46
470.05	13062.53
470.23	12882.31
470.41	12999.34
470.59	13324.67
470.77	13252.11
470.95	13202.96
471.14	13336.37
471.32	13217.01
471.50	13366.80
471.68	13481.49
471.86	13544.68
472.04	13813.84
472.22	13783.41
472.40	13778.73
472.58	13596.17
472.77	13858.31
472.95	13935.55
473.13	14637.71
473.31	14242.16
473.49	14033.85
473.67	13853.63
473.85	14417.70
474.03	14441.11
474.21	14413.02
474.39	14834.32
474.57	14523.02
474.75	14827.29
474.93	14733.67
475.12	14934.96
475.30	14951.34
475.48	15023.90
475.66	15105.82
475.84	15080.07
476.02	15311.78
476.20	15232.21
476.38	15468.60
476.56	16231.62
476.74	15761.17
476.92	15768.19
477.10	15882.88
477.28	15985.86
477.46	16177.78
477.64	16350.98
477.82	16512.48
478.00	16893.99
478.18	16542.91
478.36	16917.39
478.54	17029.74
478.72	17053.14
478.90	17146.76
479.08	17577.42
479.26	17532.95
479.44	17778.71
479.62	17624.23
479.80	17923.82
479.98	18153.20
480.16	18511.30
480.34	18216.39
480.52	18452.78
480.70	18555.77
480.88	18363.84
481.06	18490.23
481.24	18703.22
481.41	18979.40
481.59	19087.07
481.77	19304.74
481.95	19658.16
482.13	19786.89
482.31	19784.55
482.49	20313.51
482.67	20088.82
482.85	20159.03
483.03	20545.22
483.21	20372.02
483.39	20711.40
483.57	20491.39
483.74	20915.03
483.92	21027.37
484.10	20957.16
484.28	21481.44
484.46	21834.86
484.64	22176.58
484.82	21685.06
485.00	22113.38
485.18	22462.12
485.35	22890.44
485.53	22801.50
485.71	22948.95
485.89	23325.78
486.07	23269.61
486.25	23136.20
486.43	23814.95
486.61	24002.19
486.78	24299.44
486.96	24020.92
487.14	24734.78
487.32	24643.50
487.50	25102.25
487.68	24662.22
487.85	25067.14
488.03	25359.70
488.21	25645.25
488.39	25886.32
488.57	25612.48
488.75	25923.77
488.92	26396.56
489.10	26277.19
489.28	26590.83
489.46	26925.52
489.64	26878.71
489.81	27505.98
489.99	27782.16
490.17	27899.19
490.35	28006.85
490.53	28091.11
490.70	28013.87
490.88	27889.82
491.06	28851.78
491.24	28737.10
491.41	28854.12
491.59	28992.22
491.77	28914.98
491.95	29116.26
492.13	29448.62
492.30	29844.17
492.48	29764.59
492.66	30274.83
492.84	30146.10
493.01	30639.95
493.19	30335.68
493.37	31012.10
493.54	30937.20
493.72	30988.69
493.90	31281.26
494.08	31585.53
494.25	31608.93
494.43	32180.03
494.61	32456.21
494.79	32507.70
494.96	32390.67
495.14	32858.78
495.32	32849.42
495.49	32950.06
495.67	33415.83
495.85	33191.14
496.02	33312.84
496.20	33785.63
496.38	34115.65
496.55	33736.48
496.73	34888.03
496.91	34548.65
497.09	34581.42
497.26	34796.74
497.44	35014.41
497.62	35206.34
497.79	35445.07
497.97	35175.91
498.14	36233.83
498.32	35840.62
498.50	35910.84
498.67	36765.14
498.85	36463.21
499.03	36280.64
499.20	36533.42
499.38	36830.67
499.56	37055.36
499.73	37319.84
499.91	37074.09
500.08	37523.47
500.26	37425.17
500.44	37869.87
500.61	37708.37
500.79	37483.68
500.97	37792.63
501.14	38234.99
501.32	38359.04
501.49	38234.99
501.67	38639.90
501.84	38871.62
502.02	38927.79
502.20	38539.26
502.37	39105.67
502.55	39318.66
502.72	38789.70
502.90	39468.45
503.07	39269.51
503.25	39440.37
503.43	39803.15
503.60	40219.77
503.78	39658.04
503.95	40046.57
504.13	40245.51
504.30	40781.49
504.48	40203.38
504.65	40821.28
504.83	40790.86
505.01	41212.15
505.18	40627.02
505.36	41280.03
505.53	41148.96
505.71	41411.10
505.88	41546.85
506.06	41296.41
506.23	41911.97
506.41	41635.79
506.58	41656.85
506.76	41977.51
506.93	42642.22
507.11	41825.37
507.28	42391.78
507.46	42153.05
507.63	42789.67
507.81	42827.12
507.98	42433.91
508.16	42588.39
508.33	43246.08
508.50	43126.71
508.68	43515.24
508.85	43409.92
509.03	43182.88
509.20	43688.44
509.38	44254.85
509.55	44030.16
509.73	44294.64
509.90	44252.51
510.08	44392.94
510.25	44664.44
510.42	44179.95
510.60	44402.30
510.77	45071.70
510.95	45254.26
511.12	44634.02
511.30	44914.88
511.47	44996.80
511.64	45319.79
511.82	45633.42
511.99	45326.81
512.17	45528.10
512.34	45237.87
512.51	46171.75
512.69	46281.75
512.86	46506.44
513.04	46581.34
513.21	46380.06
513.38	46691.35
513.56	46845.82
513.73	46267.71
513.90	46768.58
514.08	46681.98
514.25	46916.04
514.43	47079.88
514.60	46960.51
514.77	47058.81
514.95	47297.55
515.12	47374.78
515.29	47407.55
515.47	47835.87
515.64	47519.90
515.81	48060.56
515.99	47988.00
516.16	48334.40
516.33	48083.97
516.51	48458.45
516.68	48215.04
516.85	48250.14
517.03	48458.45
517.20	48488.88
517.37	48676.12
517.54	48516.96
517.72	48561.44
517.89	48697.19
518.06	49031.88
518.24	49186.36
518.41	49024.86
518.58	48818.89
518.75	48839.96
518.93	49687.23
519.10	49600.63
519.27	49457.86
519.45	49378.28
519.62	50092.15
519.79	49759.79
519.96	49556.16
520.14	49918.95
520.31	49989.16
520.48	50026.61
520.65	50054.70
520.83	50642.17
521.00	50543.87
521.17	50520.46
521.34	50707.71
521.52	50855.16
521.69	50628.13
521.86	50501.74
522.03	50951.12
522.20	51002.61
522.38	51187.52
522.55	51182.84
522.72	51213.26
522.89	51178.15
523.07	51437.95
523.24	51236.67
523.41	51625.20
523.58	51239.01
523.75	51498.81
523.92	51718.82
524.10	51515.19
524.27	51950.53
524.44	51805.42
524.61	51966.91
524.78	52207.99
524.96	52264.16
525.13	52369.49
525.30	52252.46
525.47	52346.08
525.64	51959.89
525.81	52603.54
525.98	52257.14
526.16	52392.89
526.33	52570.77
526.50	52968.66
526.67	52533.32
526.84	52655.03
527.01	52486.51
527.18	52882.06
527.36	52811.85
527.53	52933.56
527.70	53247.19
527.87	53221.44
528.04	52769.72
528.21	53385.28
528.38	53233.14
528.55	53322.08
528.72	53134.84
528.89	53275.27
529.07	53275.27
529.24	53385.28
529.41	53553.80
529.58	53670.82
529.75	53303.36
529.92	53553.80
530.09	53827.64
530.26	53979.78
530.43	53778.49
530.60	53645.08
530.77	53811.26
530.94	54052.33
531.11	54120.21
531.28	54162.34
531.46	53947.01
531.63	54136.59
531.80	53872.11
531.97	54190.42
532.14	54358.94
532.31	54115.53
532.48	54424.48
532.65	54602.36
532.82	54286.39
532.99	54429.16
533.16	54527.46
533.33	54827.05
533.50	54564.91
533.67	54625.76
533.84	54707.68
534.01	54733.43
534.18	54735.77
534.35	54995.57
534.52	54522.78
534.69	54761.51
534.86	55133.66
535.03	54801.30
535.20	55075.15
535.37	55215.58
535.54	55093.87
535.71	54946.42
535.88	55243.66
536.05	55213.24
536.22	55325.58
536.38	55571.34
536.55	55494.10
536.72	55681.34
536.89	55334.95
537.06	55618.15
537.23	55444.95
537.40	55547.93
537.57	55414.52
537.74	55716.45
537.91	55938.80
538.08	55599.43
538.25	55437.93
538.42	55611.13
538.59	56034.77
538.75	55929.44
538.92	56081.58
539.09	56275.84
539.26	56294.56
539.43	56037.11
539.60	56182.22
539.77	56013.70
539.94	56306.27
540.11	56385.85
540.28	56409.25
540.44	56186.90
540.61	56324.99
540.78	56137.75
540.95	56317.97
541.12	56411.59
541.29	56357.76
541.46	56207.97
541.62	56437.34
541.79	56299.25
541.96	56280.52
542.13	56397.55
542.30	56416.27
542.47	56732.25
542.63	56739.27
542.80	56514.58
542.97	56846.93
543.14	57062.26
543.31	57111.41
543.48	57298.65
543.64	57237.80
543.81	57118.43
543.98	57446.11
544.15	57357.17
544.32	57125.46
544.48	57504.62
544.65	56989.70
544.82	57251.84
544.99	56954.60
545.16	57460.15
545.32	57455.47
545.49	57598.24
545.66	57612.29
545.83	57478.88
546.00	57645.05
546.16	57368.87
546.33	57408.66
546.50	57392.28
546.67	57457.81
546.83	57088.01
547.00	57584.20
547.17	57556.11
547.34	57771.44
547.50	57855.70
547.67	58080.39
547.84	57961.03
548.00	58298.06
548.17	57888.47
548.34	57783.15
548.51	58068.69
548.67	57998.48
548.84	58056.99
549.01	57827.62
549.18	58092.10
549.34	58131.89
549.51	58143.59
549.68	58234.87
549.84	58202.10
550.01	58309.77
550.18	57839.32
550.34	58181.04
550.51	58269.98
550.68	58307.43
550.84	58117.84
551.01	58557.86
551.18	58356.58
551.34	58513.39
551.51	58387.00
551.68	58534.46
551.84	58520.41
552.01	58405.73
552.18	58365.94
552.34	58365.94
552.51	58817.66
552.68	58349.56
552.84	58719.36
553.01	58770.85
553.18	58632.76
553.34	58824.68
553.51	58782.55
553.67	58745.11
553.84	58841.07
554.01	58993.20
554.17	58843.41
554.34	58955.75
554.51	58848.09
554.67	59049.38
554.84	58759.15
555.00	58927.67
555.17	58983.84
555.33	58948.73
555.50	58796.60
555.67	58920.65
555.83	59018.95
556.00	58993.20
556.16	59318.54
556.33	59227.26
556.50	59065.76
556.66	59058.74
556.83	59150.02
556.99	59262.36
557.16	59255.34
557.32	59320.88
557.49	59597.06
557.65	59274.07
557.82	59157.04
557.98	59117.25
558.15	59185.13
558.32	59384.07
558.48	59182.79
558.65	59412.16
558.81	59255.34
558.98	59568.97
559.14	59292.79
559.31	59590.04
559.47	59318.54
559.64	59512.80
559.80	59430.88
559.97	59693.02
560.13	59444.93
560.30	59339.60
560.46	59414.50
560.63	59639.19
560.79	59587.70
560.96	59772.60
561.12	59704.73
561.29	59821.75
561.45	59681.32
561.61	59810.05
561.78	59629.83
561.94	59566.63
562.11	59821.75
562.27	59784.30
562.44	59866.22
562.60	59891.97
562.77	59742.17
562.93	59700.04
563.10	59838.14
563.26	59948.14
563.42	59941.12
563.59	59999.63
563.75	59803.03
563.92	59969.21
564.08	59819.41
564.24	60219.64
564.41	60048.78
564.57	60097.94
564.74	59877.93
564.90	60030.06
565.07	59955.16
565.23	59931.76
565.39	60079.21
565.56	59920.05
565.72	60065.17
565.88	59859.20
566.05	60020.70
566.21	59812.39
566.38	60100.28
566.54	60168.15
566.70	60128.36
566.87	60250.07
567.03	60083.89
567.19	60413.91
567.36	60210.28
567.52	60348.37
567.68	60413.91
567.85	60175.17
568.01	60217.30
568.17	60133.04
568.34	60140.07
568.50	60364.76
568.66	60275.82
568.83	60413.91
568.99	60399.86
569.15	60360.08
569.32	60331.99
569.48	60186.88
569.64	60301.56
569.81	60287.52
569.97	60151.77
570.13	60310.92
570.30	60287.52
570.46	60329.65
570.62	60278.16
570.78	60430.29
570.95	60280.50
571.11	60402.21
571.27	60507.53
571.43	60371.78
571.60	60467.74
571.76	60406.89
571.92	60577.75
572.09	60430.29
572.25	60463.06
572.41	60423.27
572.57	60310.92
572.74	60650.30
572.90	60502.85
573.06	60509.87
573.22	60362.42
573.38	60643.28
573.55	60685.41
573.71	60786.05
573.87	60544.98
574.03	60451.36
574.20	60608.17
574.36	60544.98
574.52	60512.21
574.68	60601.15
574.84	60643.28
575.01	60612.85
575.17	60502.85
575.33	60741.58
575.49	60636.26
575.65	60671.37
575.82	60830.52
575.98	60514.55
576.14	60734.56
576.30	60741.58
576.46	60516.89
576.62	60535.62
576.79	60671.37
576.95	60500.51
577.11	60647.96
577.27	60804.78
577.43	60640.94
577.59	60500.51
577.75	60664.35
577.92	60547.32
578.08	60776.69
578.24	60931.17
578.40	60860.95
578.56	60654.98
578.72	60617.53
578.88	60952.23
579.04	60781.37
579.21	60746.26
579.37	60926.49
579.53	60816.48
579.69	60582.43
579.85	60669.03
580.01	60687.75
580.17	60601.15
580.33	60938.19
580.49	60828.18
580.65	60842.23
580.82	60764.99
580.98	60767.33
581.14	60673.71
581.30	60877.33
581.46	60935.85
581.62	60690.09
581.78	60434.97
581.94	60821.16
582.10	60910.10
582.26	60889.04
582.42	60736.90
582.58	60863.29
582.74	60851.59
582.90	60828.18
583.06	60676.05
583.22	60788.39
583.38	60900.74
583.54	60832.86
583.70	61022.45
583.86	61078.62
584.02	60629.24
584.18	61080.96
584.34	60839.89
584.50	60849.25
584.66	60720.52
584.82	60638.60
584.98	61123.09
585.14	61029.47
585.30	60921.80
585.46	60811.80
585.62	60767.33
585.78	61006.06
585.94	60853.93
586.10	60783.71
586.26	60828.18
586.42	60921.80
586.58	60844.57
586.74	60975.64
586.90	60889.04
587.06	60800.10
587.22	60846.91
587.38	60989.68
587.54	61013.08
587.70	61052.87
587.86	60903.08
588.02	60860.95
588.18	61275.22
588.34	60809.46
588.49	60837.54
