SpectraSuite Data File
++++++++++++++++++++++++++++++++++++
Date: Fri Oct 25 11:25:58 EDT 2013
User: price-jones
Dark Spectrum Present: No
Reference Spectrum Present: No
Number of Sampled Component Spectra: 1
Spectrometers: USB2+H05261
Integration Time (usec): 100000 (USB2+H05261)
Spectra Averaged: 1 (USB2+H05261)
Boxcar Smoothing: 0 (USB2+H05261)
Correct for Electrical Dark: No (USB2+H05261)
Strobe/Lamp Enabled: No (USB2+H05261)
Correct for Detector Non-linearity: No (USB2+H05261)
Correct for Stray Light: No (USB2+H05261)
Number of Pixels in Processed Spectrum: 2048
>>>>>Begin Processed Spectral Data<<<<<
365.73	257.46
365.92	257.46
366.12	257.46
366.32	205.97
366.52	145.11
366.72	79.58
366.91	131.07
367.11	168.52
367.31	133.41
367.51	154.48
367.70	128.73
367.90	147.45
368.10	88.94
368.30	142.77
368.49	159.16
368.69	173.20
368.89	175.54
369.09	161.50
369.28	166.18
369.48	138.09
369.68	189.58
369.87	194.26
370.07	231.71
370.27	278.52
370.47	306.61
370.66	603.86
370.86	571.09
371.06	596.84
371.25	660.03
371.45	732.59
371.65	751.31
371.84	587.47
372.04	622.58
372.24	744.29
372.44	706.84
372.63	716.20
372.83	748.97
373.03	713.86
373.22	739.61
373.42	683.44
373.62	795.78
373.81	781.74
374.01	858.98
374.21	896.43
374.40	809.83
374.60	856.64
374.79	809.83
374.99	812.17
375.19	840.25
375.38	868.34
375.58	894.08
375.78	844.93
375.97	807.48
376.17	891.74
376.37	856.64
376.56	976.00
376.76	858.98
376.95	861.32
377.15	891.74
377.35	891.74
377.54	866.00
377.74	875.36
377.93	1013.45
378.13	926.85
378.33	903.45
378.52	905.79
378.72	961.96
378.91	945.58
379.11	990.05
379.31	964.30
379.50	917.49
379.70	1025.15
379.89	903.45
380.09	964.30
380.28	891.74
380.48	999.41
380.68	1006.43
380.87	929.19
381.07	1025.15
381.26	1060.26
381.46	1118.78
381.65	1081.33
381.85	1170.27
382.04	1074.31
382.24	1011.11
382.43	1018.13
382.63	1064.94
382.83	1067.28
383.02	1114.10
383.22	1067.28
383.41	1057.92
383.61	1114.10
383.80	1118.78
384.00	1088.35
384.19	1114.10
384.39	1104.73
384.58	1191.33
384.78	1090.69
384.97	1100.05
385.17	1142.18
385.36	1207.72
385.56	1198.35
385.75	1226.44
385.95	1109.41
386.14	1196.01
386.34	1188.99
386.53	1167.93
386.72	1228.78
386.92	1226.44
387.11	1132.82
387.31	1266.23
387.50	1165.59
387.70	1287.29
387.89	1238.14
388.09	1301.34
388.28	1310.70
388.48	1291.98
388.67	1245.16
388.86	1322.40
389.06	1259.21
389.25	1289.64
389.45	1355.17
389.64	1306.02
389.84	1385.60
390.03	1369.21
390.22	1387.94
390.42	1357.51
390.61	1423.05
390.81	1404.32
391.00	1401.98
391.19	1350.49
391.39	1448.79
391.58	1500.28
391.78	1397.30
391.97	1413.68
392.16	1383.26
392.36	1572.84
392.55	1451.13
392.75	1500.28
392.94	1490.92
393.13	1511.99
393.33	1519.01
393.52	1500.28
393.71	1544.75
393.91	1568.16
394.10	1661.78
394.29	1575.18
394.49	1619.65
394.68	1561.14
394.88	1610.29
395.07	1645.40
395.26	1678.16
395.46	1652.42
395.65	1680.50
395.84	1746.04
396.04	1729.66
396.23	1727.32
396.42	1753.06
396.62	1790.51
396.81	1788.17
397.00	1696.89
397.19	1724.97
397.39	1778.81
397.58	1734.34
397.77	1732.00
397.97	1867.75
398.16	1900.52
398.35	1823.28
398.55	1895.83
398.74	1919.24
398.93	1968.39
399.12	2045.63
399.32	1968.39
399.51	2022.22
399.70	2012.86
399.90	1970.73
400.09	1968.39
400.28	1998.82
400.47	2118.18
400.67	2165.00
400.86	2106.48
401.05	2062.01
401.24	2181.38
401.44	2022.22
401.63	2172.02
401.82	2188.40
402.01	2001.16
402.21	2073.71
402.40	2132.23
402.59	2167.34
402.78	2101.80
402.97	2221.17
403.17	2162.66
403.36	2282.02
403.55	2307.77
403.74	2338.20
403.93	2335.85
404.13	2349.90
404.32	2485.65
404.51	2345.22
404.70	2434.16
404.89	2476.29
405.09	2518.42
405.28	2462.24
405.47	2476.29
405.66	2572.25
405.85	2452.88
406.05	2532.46
406.24	2548.84
406.43	2480.97
406.62	2609.70
406.81	2630.76
407.00	2534.80
407.20	2551.18
407.39	2525.44
407.58	2764.17
407.77	2679.91
407.96	2731.41
408.15	2785.24
408.34	2616.72
408.54	2726.72
408.73	2815.66
408.92	2733.75
409.11	2888.22
409.30	2860.13
409.49	2906.95
409.68	2949.08
409.87	2916.31
410.07	3021.63
410.26	3002.91
410.45	3007.59
410.64	3103.55
410.83	3068.44
411.02	3080.14
411.21	3204.19
411.40	3157.38
411.59	3225.26
411.78	3234.62
411.98	3150.36
412.17	3255.69
412.36	3274.41
412.55	3290.79
412.74	3431.23
412.93	3424.20
413.12	3358.67
413.31	3515.48
413.50	3541.23
413.69	3407.82
413.88	3726.13
414.07	3510.80
414.26	3653.58
414.45	3754.22
414.64	3564.64
414.83	3669.96
415.02	3719.11
415.22	3836.14
415.41	4002.32
415.60	3735.50
415.79	3824.44
415.98	4016.36
416.17	3941.46
416.36	3967.21
416.55	4086.58
416.74	3985.93
416.93	4084.23
417.12	4124.02
417.31	4135.73
417.50	4241.05
417.69	4271.48
417.88	4344.03
418.07	4280.84
418.26	4245.73
418.45	4442.34
418.64	4477.44
418.83	4496.17
419.02	4402.55
419.21	4456.38
419.39	4440.00
419.58	4430.63
419.77	4306.59
419.96	4566.39
420.15	4566.39
420.34	4662.35
420.53	4636.60
420.72	4720.86
420.91	4594.47
421.10	4697.46
421.29	4868.31
421.48	4744.27
421.67	4798.10
421.86	4711.50
422.05	4830.87
422.24	4849.59
422.43	4823.84
422.61	5006.41
422.80	4947.89
422.99	4966.62
423.18	5085.98
423.37	5067.26
423.56	4929.17
423.75	4943.21
423.94	4823.84
424.13	4613.20
424.32	4741.93
424.50	5057.90
424.69	5036.83
424.88	5104.71
425.07	4915.12
425.26	4938.53
425.45	4849.59
425.64	4954.91
425.83	5025.13
426.01	4978.32
426.20	5034.49
426.39	5060.24
426.58	4926.83
426.77	4978.32
426.96	5156.20
427.15	5020.45
427.33	5177.26
427.52	5359.83
427.71	5212.37
427.90	5252.16
428.09	5359.83
428.28	5423.02
428.46	5308.34
428.65	5350.46
428.84	5430.04
429.03	5385.57
429.22	5210.03
429.40	5549.41
429.59	5523.66
429.78	5320.04
429.97	5186.63
430.16	5530.69
430.34	5460.47
430.53	5572.82
430.72	5504.94
430.91	5694.52
431.10	5692.18
431.28	5694.52
431.47	5830.27
431.66	5914.53
431.85	5769.42
432.03	5963.68
432.22	5982.41
432.41	5984.75
432.60	5994.11
432.79	5963.68
432.97	5933.26
433.16	5973.05
433.35	6094.76
433.54	6122.84
433.72	6174.33
433.91	6099.44
434.10	6017.52
434.28	5998.79
434.47	6101.78
434.66	6239.87
434.85	6211.78
435.03	6349.87
435.22	6127.52
435.41	6471.58
435.59	6338.17
435.78	6408.39
435.97	6392.00
436.16	6356.90
436.34	6509.03
436.53	6525.41
436.72	6604.99
436.90	6462.22
437.09	6691.59
437.28	6462.22
437.46	6600.31
437.65	6712.66
437.84	6733.72
438.02	6722.02
438.21	6719.68
438.40	6726.70
438.58	6916.28
438.77	7115.23
438.96	6892.88
439.14	7059.06
439.33	7042.67
439.52	7307.15
439.70	7255.66
439.89	7414.82
440.08	7293.11
440.26	7201.83
440.45	7307.15
440.63	7393.75
440.82	7616.10
441.01	7655.89
441.19	7712.07
441.38	7620.78
441.57	7768.24
441.75	7683.98
441.94	7962.50
442.12	7906.33
442.31	8084.21
442.50	7861.86
442.68	7988.25
442.87	8145.06
443.05	7857.18
443.24	8259.75
443.43	8039.74
443.61	8145.06
443.80	8325.29
443.98	8035.06
444.17	7915.69
444.35	8173.15
444.54	8217.62
444.73	8313.58
444.91	8346.35
445.10	8292.52
445.28	8187.19
445.47	8226.98
445.65	8203.58
445.84	8456.36
446.02	8297.20
446.21	8477.42
446.39	8369.76
446.58	8589.77
446.77	8528.91
446.95	8507.85
447.14	8404.86
447.32	8458.70
447.51	8507.85
447.69	8430.61
447.88	8421.25
448.06	8449.33
448.25	8475.08
448.43	8468.06
448.62	8285.50
448.80	8486.78
448.99	8657.64
449.17	8545.30
449.36	8617.85
449.54	8777.01
449.73	9062.55
449.91	9111.71
450.10	9055.53
450.28	9102.34
450.46	9083.62
450.65	9018.08
450.83	8938.51
451.02	8901.06
451.20	9348.10
451.39	9125.75
451.57	9109.36
451.76	9156.18
451.94	9270.86
452.13	9275.54
452.31	9221.71
452.49	9116.39
452.68	9401.93
452.86	9144.47
453.05	9343.42
453.23	9479.17
453.42	9315.33
453.60	9305.97
453.78	9493.21
453.97	9455.76
454.15	9483.85
454.34	9413.63
454.52	9650.03
454.70	9568.11
454.89	9795.14
455.07	9619.60
455.26	9572.79
455.44	9851.31
455.62	9865.36
455.81	9846.63
455.99	9970.68
456.17	9909.83
456.36	10214.10
456.54	10190.69
456.73	10342.83
456.91	10338.15
457.09	10345.17
457.28	10544.11
457.46	10335.81
457.64	10464.54
457.83	10611.99
458.01	10340.49
458.19	10640.08
458.38	10448.15
458.56	10803.91
458.74	10649.44
458.93	10555.82
459.11	10611.99
459.29	10726.68
459.48	10548.79
459.66	10778.17
459.84	10832.00
460.03	10888.17
460.21	11059.03
460.39	11014.56
460.57	11033.29
460.76	11047.33
460.94	11152.65
461.12	11283.72
461.31	10956.05
461.49	11164.36
461.67	11094.14
461.85	11360.96
462.04	11330.53
462.22	11772.89
462.40	11602.04
462.59	11375.00
462.77	11316.49
462.95	11459.26
463.13	11438.20
463.32	11424.15
463.50	11580.97
463.68	11822.05
463.86	11793.96
464.05	11700.34
464.23	11920.35
464.41	11747.15
464.59	11761.19
464.78	12011.63
464.96	11793.96
465.14	11709.70
465.32	11875.88
465.50	12325.26
465.69	12198.87
465.87	11903.96
466.05	12119.29
466.23	12217.60
466.41	12168.45
466.60	12372.07
466.78	12306.54
466.96	11920.35
467.14	12292.49
467.32	12205.89
467.51	12603.78
467.69	12262.07
467.87	12285.47
468.05	12453.99
468.23	12418.88
468.41	12636.55
468.60	12561.66
468.78	12547.61
468.96	12334.62
469.14	12971.25
469.32	12769.96
469.50	12531.23
469.69	12978.27
469.87	13041.46
470.05	12936.14
470.23	13004.02
470.41	13177.22
470.59	13195.94
470.77	12945.50
470.95	13343.39
471.14	13537.66
471.32	13217.01
471.50	13385.52
471.68	13415.95
471.86	13661.71
472.04	13570.43
472.22	13923.85
472.40	13657.03
472.58	13839.59
472.77	13982.36
472.95	14064.28
473.13	14279.61
473.31	13762.35
473.49	14185.99
473.67	14183.65
473.85	14366.21
474.03	14738.35
474.21	14871.76
474.39	14647.07
474.57	14560.47
474.75	14920.92
474.93	14986.45
475.12	14846.02
475.30	15124.54
475.48	14860.06
475.66	15091.77
475.84	15028.58
476.02	15241.57
476.20	15180.71
476.38	15697.97
476.56	16170.76
476.74	15941.39
476.92	15936.71
477.10	15613.71
477.28	15939.05
477.46	16070.12
477.64	16451.63
477.82	16456.31
478.00	16924.41
478.18	16601.42
478.36	16791.00
478.54	16798.02
478.72	17254.43
478.90	17284.86
479.08	17511.89
479.26	17490.82
479.44	17891.06
479.62	17638.28
479.80	17923.82
479.98	18094.68
480.16	18523.00
480.34	18352.14
480.52	18602.58
480.70	18363.84
480.88	18310.01
481.06	18792.16
481.24	18700.88
481.41	19185.37
481.59	19300.06
481.77	19365.59
481.95	19576.24
482.13	19468.58
482.31	19527.09
482.49	20025.62
482.67	20194.14
482.85	20388.41
483.03	20549.90
483.21	20484.37
483.39	21001.63
483.57	20774.60
483.74	21156.10
483.92	21418.24
484.10	21135.04
484.28	21605.49
484.46	22010.40
484.64	22370.84
484.82	22087.64
485.00	22003.38
485.18	22490.21
485.35	22698.52
485.53	22876.40
485.71	22714.90
485.89	23611.32
486.07	23197.05
486.25	23379.61
486.43	23548.13
486.61	23779.84
486.78	23934.32
486.96	24109.86
487.14	24620.10
487.32	24542.86
487.50	24458.60
487.68	25069.48
487.85	25163.10
488.03	25462.69
488.21	25862.92
488.39	25472.05
488.57	26183.57
488.75	26059.52
488.92	26328.69
489.10	26607.21
489.28	26925.52
489.46	26883.39
489.64	26703.17
489.81	27564.49
489.99	27714.28
490.17	27463.85
490.35	28058.34
490.53	28201.11
490.70	28376.66
490.88	28320.48
491.06	28865.83
491.24	28273.67
491.41	28823.70
491.59	28648.16
491.77	29263.72
491.95	29764.59
492.13	29605.44
492.30	30199.93
492.48	29912.05
492.66	30534.63
492.84	30235.04
493.01	30625.91
493.19	30864.64
493.37	30780.39
493.54	31136.15
493.72	31098.70
493.90	31569.15
494.08	31686.17
494.25	32254.92
494.43	31775.11
494.61	32037.25
494.79	32313.44
494.96	32531.11
495.14	32240.88
495.32	32992.19
495.49	33261.35
495.67	32917.29
495.85	33387.74
496.02	33380.72
496.20	34024.37
496.38	33972.88
496.55	34117.99
496.73	34859.94
496.91	34665.67
497.09	34513.54
497.26	34756.96
497.44	34855.26
497.62	35442.73
497.79	35431.03
497.97	35562.10
498.14	35894.46
498.32	35810.20
498.50	36093.40
498.67	36575.55
498.85	36390.65
499.03	36301.71
499.20	36828.33
499.38	36765.14
499.56	36706.62
499.73	37127.92
499.91	37127.92
500.08	37233.24
500.26	37347.93
500.44	37841.78
500.61	37914.34
500.79	37385.38
500.97	37596.03
501.14	38352.02
501.32	38277.12
501.49	38342.66
501.67	38529.90
501.84	39260.15
502.02	39070.56
502.20	38663.31
502.37	39316.32
502.55	39129.08
502.72	39180.57
502.90	39459.09
503.07	39208.65
503.25	39784.43
503.43	39569.10
503.60	39768.04
503.78	40170.61
503.95	40294.66
504.13	40360.20
504.30	40177.64
504.48	40924.27
504.65	40612.98
504.83	41038.95
505.01	41141.94
505.18	41212.15
505.36	41312.80
505.53	41027.25
505.71	41549.19
505.88	41617.07
506.06	41621.75
506.23	41610.04
506.41	41783.24
506.58	42082.83
506.76	42511.15
506.93	42454.98
507.11	42263.05
507.28	42618.81
507.46	42801.38
507.63	42981.60
507.81	43349.06
507.98	42572.00
508.16	42801.38
508.33	43335.02
508.50	43430.98
508.68	43585.46
508.85	43646.31
509.03	43634.61
509.20	43952.92
509.38	44282.94
509.55	44645.72
509.73	44254.85
509.90	44467.84
510.08	44130.80
510.25	44500.61
510.42	44500.61
510.60	44720.62
510.77	45256.60
510.95	45457.88
511.12	44868.07
511.30	45331.50
511.47	45013.18
511.64	45530.44
511.82	46038.34
511.99	45406.39
512.17	45727.05
512.34	45897.91
512.51	45720.02
512.69	46155.36
512.86	46129.62
513.04	46354.31
513.21	46642.20
513.38	46810.71
513.56	46630.49
513.73	46513.47
513.90	46796.67
514.08	47016.68
514.25	47152.43
514.43	47161.79
514.60	47164.14
514.77	47222.65
514.95	47505.85
515.12	47185.20
515.29	47693.10
515.47	47629.90
515.64	47805.44
515.81	47969.28
515.99	47737.57
516.16	47999.71
516.33	48069.92
516.51	48685.48
516.68	48303.98
516.85	48603.56
517.03	48444.41
517.20	48793.15
517.37	48863.36
517.54	48926.56
517.72	48547.39
517.89	49017.84
518.06	48765.06
518.24	49076.35
518.41	49434.45
518.58	48886.77
518.75	49287.00
518.93	49542.12
519.10	49144.23
519.27	49595.95
519.45	49572.55
519.62	49897.88
519.79	49785.54
519.96	49935.33
520.14	50134.28
520.31	50258.32
520.48	50274.71
520.65	50204.49
520.83	50492.38
521.00	50445.57
521.17	50464.29
521.34	50859.84
521.52	50525.14
521.69	50752.18
521.86	50801.33
522.03	50876.22
522.20	51400.50
522.38	51339.65
522.55	51208.58
522.72	51035.38
522.89	51250.71
523.07	51466.04
523.24	51199.22
523.41	51737.54
523.58	51215.60
523.75	51585.41
523.92	51819.46
524.10	51660.30
524.27	51779.67
524.44	51648.60
524.61	52081.60
524.78	52210.33
524.96	51962.23
525.13	52360.12
525.30	52481.83
525.47	52413.96
525.64	52252.46
525.81	52652.69
525.98	52594.18
526.16	52303.95
526.33	52535.66
526.50	52811.85
526.67	52514.60
526.84	52856.32
527.01	52619.92
527.18	52570.77
527.36	52706.52
527.53	52926.53
527.70	52870.36
527.87	53221.44
528.04	53268.25
528.21	53270.59
528.38	53200.38
528.55	53478.90
528.72	53361.87
528.89	53244.85
529.07	53404.00
529.24	53209.74
529.41	53677.85
529.58	53366.55
529.75	53188.67
529.92	53752.74
530.09	53729.34
530.26	53862.75
530.43	53829.98
530.60	53708.27
530.77	53743.38
530.94	54021.90
531.11	53748.06
531.28	54028.93
531.46	54134.25
531.63	54106.16
531.80	54068.72
531.97	54403.41
532.14	54377.67
532.31	54368.30
532.48	54387.03
532.65	54663.21
532.82	54560.23
532.99	54604.70
533.16	54265.32
533.33	54667.89
533.50	54745.13
533.67	54625.76
533.84	54522.78
534.01	55061.10
534.18	54925.35
534.35	55351.33
534.52	54880.88
534.69	54897.27
534.86	55234.30
535.03	54887.90
535.20	54974.50
535.37	55246.00
535.54	55304.52
535.71	55370.05
535.88	55262.39
536.05	55388.78
536.22	55571.34
536.38	55264.73
536.55	55442.61
536.72	55442.61
536.89	55426.23
537.06	55463.67
537.23	55749.22
537.40	55449.63
537.57	55725.81
537.74	55606.45
537.91	55915.40
538.08	55814.76
538.25	55552.62
538.42	55763.26
538.59	56095.62
538.75	55807.73
538.92	56009.02
539.09	55997.32
539.26	56165.84
539.43	55817.10
539.60	56133.07
539.77	56107.32
539.94	56200.94
540.11	56147.11
540.28	56327.33
540.44	56226.69
540.61	56451.38
540.78	56275.84
540.95	56271.16
541.12	56491.17
541.29	56442.02
541.46	56533.30
541.62	56528.62
541.79	56486.49
541.96	56214.99
542.13	56519.26
542.30	56540.32
542.47	56722.88
542.63	56837.57
542.80	56863.32
542.97	56884.38
543.14	57195.67
543.31	57183.97
543.48	57265.89
543.64	57172.27
543.81	57258.87
543.98	57200.35
544.15	57130.14
544.32	57261.21
544.48	57446.11
544.65	57303.34
544.82	57144.18
544.99	57368.87
545.16	57525.69
545.32	57181.63
545.49	57689.52
545.66	57628.67
545.83	57389.94
546.00	57439.09
546.16	57513.98
546.33	57434.41
546.50	57411.00
546.67	57762.08
546.83	57448.45
547.00	57696.55
547.17	57572.50
547.34	57584.20
547.50	57813.57
547.67	58103.80
547.84	57839.32
548.00	58064.01
548.17	58365.94
548.34	57820.59
548.51	58248.91
548.67	58101.46
548.84	57865.06
549.01	58005.50
549.18	57963.37
549.34	58244.23
549.51	58457.22
549.68	58351.90
549.84	58244.23
550.01	58422.11
550.18	58314.45
550.34	58127.20
550.51	58265.30
550.68	58298.06
550.84	58211.46
551.01	58485.31
551.18	58356.58
551.34	58443.18
551.51	58539.14
551.68	58445.52
551.84	58630.42
552.01	58468.92
552.18	58452.54
552.34	58321.47
552.51	58728.72
552.68	58515.73
552.84	58590.63
553.01	58965.12
553.18	58574.25
553.34	58890.22
553.51	58529.78
553.67	58742.77
553.84	58780.21
554.01	58784.90
554.17	58878.52
554.34	58918.31
554.51	58773.19
554.67	58834.05
554.84	58953.41
555.00	58871.49
555.17	58974.48
555.33	58930.01
555.50	58993.20
555.67	58827.02
555.83	58855.11
556.00	58990.86
556.16	59182.79
556.33	59110.23
556.50	59110.23
556.66	59229.60
556.83	58972.14
556.99	59297.47
557.16	59398.12
557.32	59580.68
557.49	59571.32
557.65	59187.47
557.82	59327.90
557.98	59320.88
558.15	59433.22
558.32	59501.10
558.48	59313.86
558.65	59536.21
558.81	59299.81
558.98	59412.16
559.14	59489.40
559.31	59669.62
559.47	59791.33
559.64	59725.79
559.80	59877.93
559.97	59870.90
560.13	59568.97
560.30	59440.24
560.46	59667.28
560.63	59735.15
560.79	59786.64
560.96	59875.58
561.12	59889.63
561.29	59604.08
561.45	59835.80
561.61	59758.56
561.78	59592.38
561.94	59655.57
562.11	59643.87
562.27	59962.18
562.44	59772.60
562.60	60009.00
562.77	59985.59
562.93	59877.93
563.10	60158.79
563.26	59798.35
563.42	60055.81
563.59	60016.02
563.75	59948.14
563.92	59957.50
564.08	59739.83
564.24	60107.30
564.41	59952.82
564.57	60081.55
564.74	60034.74
564.90	59943.46
565.07	59948.14
565.23	60200.92
565.39	59955.16
565.56	60168.15
565.72	60062.83
565.88	59983.25
566.05	59842.82
566.21	59859.20
566.38	60156.45
566.54	60327.31
566.70	60367.10
566.87	60369.44
567.03	60109.64
567.19	60439.65
567.36	60067.51
567.52	60123.68
567.68	60411.57
567.85	60355.39
568.01	60350.71
568.17	60175.17
568.34	60343.69
568.50	60151.77
568.66	60416.25
568.83	60444.33
568.99	60114.32
569.15	60299.22
569.32	60580.09
569.48	60247.73
569.64	60598.81
569.81	60423.27
569.97	60236.03
570.13	60378.80
570.30	60364.76
570.46	60568.38
570.62	60313.26
570.78	60500.51
570.95	60458.38
571.11	60809.46
571.27	60343.69
571.43	60273.48
571.60	60666.69
571.76	60533.28
571.92	60622.22
572.09	60594.13
572.25	60537.96
572.41	60554.34
572.57	60605.83
572.74	60750.94
572.90	60411.57
573.06	60697.11
573.22	60638.60
573.38	60456.04
573.55	60479.44
573.71	60783.71
573.87	60418.59
574.03	60500.51
574.20	60659.66
574.36	60601.15
574.52	60786.05
574.68	60636.26
574.84	60615.19
575.01	60697.11
575.17	60568.38
575.33	60577.75
575.49	60547.32
575.65	60617.53
575.82	60603.49
575.98	60690.09
576.14	60800.10
576.30	60680.73
576.46	60537.96
576.62	60673.71
576.79	60795.42
576.95	60404.55
577.11	60804.78
577.27	60821.16
577.43	60807.12
577.59	60774.35
577.75	60561.36
577.92	60498.17
578.08	60666.69
578.24	60669.03
578.40	60999.04
578.56	60781.37
578.72	60727.54
578.88	61015.43
579.04	60907.76
579.21	60830.52
579.37	60856.27
579.53	60987.34
579.69	60669.03
579.85	60664.35
580.01	60683.07
580.17	60830.52
580.33	60874.99
580.49	60790.73
580.65	60741.58
580.82	60739.24
580.98	60720.52
581.14	60788.39
581.30	61111.39
581.46	60802.44
581.62	60989.68
581.78	60772.01
581.94	60938.19
582.10	60825.84
582.26	60823.50
582.42	60828.18
582.58	60790.73
582.74	60816.48
582.90	60753.29
583.06	60821.16
583.22	60837.54
583.38	60853.93
583.54	60795.42
583.70	60903.08
583.86	60830.52
584.02	60779.03
584.18	61038.83
584.34	60821.16
584.50	60722.86
584.66	60629.24
584.82	60853.93
584.98	60903.08
585.14	61003.72
585.30	60860.95
585.46	60942.87
585.62	60767.33
585.78	60994.36
585.94	60673.71
586.10	60842.23
586.26	60903.08
586.42	61008.40
586.58	60977.98
586.74	61080.96
586.90	60886.70
587.06	60931.17
587.22	61151.18
587.38	60919.46
587.54	61109.05
587.70	61158.20
587.86	60999.04
588.02	60872.65
588.18	61001.38
588.34	60893.72
588.49	61001.38
