SpectraSuite Data File
++++++++++++++++++++++++++++++++++++
Date: Fri Oct 25 11:26:38 EDT 2013
User: price-jones
Dark Spectrum Present: No
Reference Spectrum Present: No
Number of Sampled Component Spectra: 1
Spectrometers: USB2+H05261
Integration Time (usec): 100000 (USB2+H05261)
Spectra Averaged: 1 (USB2+H05261)
Boxcar Smoothing: 0 (USB2+H05261)
Correct for Electrical Dark: No (USB2+H05261)
Strobe/Lamp Enabled: No (USB2+H05261)
Correct for Detector Non-linearity: No (USB2+H05261)
Correct for Stray Light: No (USB2+H05261)
Number of Pixels in Processed Spectrum: 2048
>>>>>Begin Processed Spectral Data<<<<<
365.73	283.20
365.92	283.20
366.12	283.20
366.32	140.43
366.52	189.58
366.72	222.35
366.91	166.18
367.11	79.58
367.31	140.43
367.51	102.98
367.70	140.43
367.90	102.98
368.10	159.16
368.30	159.16
368.49	93.62
368.69	107.66
368.89	182.56
369.09	177.88
369.28	175.54
369.48	198.95
369.68	210.65
369.87	194.26
370.07	189.58
370.27	196.60
370.47	344.06
370.66	676.41
370.86	636.63
371.06	589.82
371.25	664.71
371.45	622.58
371.65	636.63
371.84	697.48
372.04	711.52
372.24	732.59
372.44	664.71
372.63	725.57
372.83	802.80
373.03	779.40
373.22	667.05
373.42	826.21
373.62	795.78
373.81	777.06
374.01	802.80
374.21	901.11
374.40	772.38
374.60	805.14
374.79	863.66
374.99	767.70
375.19	800.46
375.38	903.45
375.58	842.59
375.78	875.36
375.97	901.11
376.17	961.96
376.37	891.74
376.56	936.21
376.76	887.06
376.95	866.00
377.15	983.02
377.35	943.24
377.54	858.98
377.74	910.47
377.93	938.55
378.13	973.66
378.33	938.55
378.52	926.85
378.72	828.55
378.91	905.79
379.11	957.28
379.31	905.79
379.50	882.38
379.70	964.30
379.89	1109.41
380.09	924.51
380.28	1008.77
380.48	1018.13
380.68	919.83
380.87	954.94
381.07	1001.75
381.26	997.07
381.46	966.64
381.65	1050.90
381.85	1083.67
382.04	1060.26
382.24	1057.92
382.43	1100.05
382.63	1055.58
382.83	1041.54
383.02	1086.01
383.22	1013.45
383.41	1139.84
383.61	1149.20
383.80	1053.24
384.00	1179.63
384.19	1188.99
384.39	1200.69
384.58	1221.76
384.78	1123.46
384.97	1217.08
385.17	1217.08
385.36	1233.46
385.56	1163.25
385.75	1228.78
385.95	1186.65
386.14	1181.97
386.34	1165.59
386.53	1252.19
386.72	1282.61
386.92	1301.34
387.11	1226.44
387.31	1193.67
387.50	1231.12
387.70	1240.48
387.89	1392.62
388.09	1355.17
388.28	1348.15
388.48	1231.12
388.67	1387.94
388.86	1357.51
389.06	1284.95
389.25	1483.90
389.45	1301.34
389.64	1289.64
389.84	1430.07
390.03	1284.95
390.22	1359.85
390.42	1343.47
390.61	1411.34
390.81	1465.18
391.00	1371.55
391.19	1490.92
391.39	1465.18
391.58	1472.20
391.78	1479.22
391.97	1467.52
392.16	1458.15
392.36	1584.54
392.55	1549.43
392.75	1483.90
392.94	1406.66
393.13	1554.12
393.33	1584.54
393.52	1586.88
393.71	1558.80
393.91	1659.44
394.10	1547.09
394.29	1652.42
394.49	1568.16
394.68	1640.72
394.88	1659.44
395.07	1750.72
395.26	1671.14
395.46	1818.60
395.65	1638.38
395.84	1720.29
396.04	1755.40
396.23	1746.04
396.42	1788.17
396.62	1722.63
396.81	1776.47
397.00	1755.40
397.19	1832.64
397.39	1865.41
397.58	1893.49
397.77	1834.98
397.97	1935.62
398.16	1771.79
398.35	1907.54
398.55	1785.83
398.74	1982.43
398.93	1980.09
399.12	2012.86
399.32	1872.43
399.51	2005.84
399.70	2115.84
399.90	2003.50
400.09	1940.30
400.28	1996.48
400.47	2043.29
400.67	1989.46
400.86	2150.95
401.05	2157.97
401.24	2062.01
401.44	2003.50
401.63	2150.95
401.82	2165.00
402.01	2134.57
402.21	2076.06
402.40	2083.08
402.59	2251.60
402.78	2242.23
402.97	2251.60
403.17	2265.64
403.36	2363.94
403.55	2272.66
403.74	2389.69
403.93	2326.49
404.13	2403.73
404.32	2380.32
404.51	2342.88
404.70	2455.22
404.89	2436.50
405.09	2497.35
405.28	2392.03
405.47	2509.05
405.66	2523.10
405.85	2565.23
406.05	2495.01
406.24	2534.80
406.43	2600.34
406.62	2637.78
406.81	2593.31
407.00	2502.03
407.20	2497.35
407.39	2581.61
407.58	2605.02
407.77	2616.72
407.96	2658.85
408.15	2822.69
408.34	2715.02
408.54	2789.92
408.73	2677.57
408.92	2848.43
409.11	2787.58
409.30	2965.46
409.49	2951.42
409.68	2930.35
409.87	2984.18
410.07	2909.29
410.26	3157.38
410.45	2995.89
410.64	2965.46
410.83	3084.83
411.02	2965.46
411.21	3314.20
411.40	3124.62
411.59	3272.07
411.78	3197.17
411.98	3194.83
412.17	3300.16
412.36	3368.03
412.55	3375.05
412.74	3480.38
412.93	3410.16
413.12	3398.46
413.31	3496.76
413.50	3499.10
413.69	3499.10
413.88	3618.47
414.07	3611.45
414.26	3555.27
414.45	3751.88
414.64	3616.13
414.83	3786.99
415.02	3817.41
415.22	3836.14
415.41	3782.31
415.60	3899.33
415.79	3962.53
415.98	3943.80
416.17	3896.99
416.36	3904.01
416.55	3911.04
416.74	4180.20
416.93	4149.77
417.12	4056.15
417.31	4161.47
417.50	4156.79
417.69	4205.94
417.88	4290.20
418.07	4222.33
418.26	4318.29
418.45	4348.72
418.64	4461.06
418.83	4224.67
419.02	4430.63
419.21	4456.38
419.39	4608.51
419.58	4482.13
419.77	4697.46
419.96	4702.14
420.15	4690.43
420.34	4594.47
420.53	4582.77
420.72	4938.53
420.91	4631.92
421.10	4725.54
421.29	4861.29
421.48	4664.69
421.67	4849.59
421.86	4730.22
422.05	4685.75
422.24	4912.78
422.43	4830.87
422.61	4828.53
422.80	4795.76
422.99	4940.87
423.18	4912.78
423.37	4999.38
423.56	5013.43
423.75	4975.98
423.94	4884.70
424.13	4631.92
424.32	4861.29
424.50	4880.02
424.69	5165.56
424.88	5022.79
425.07	4985.34
425.26	4943.21
425.45	5064.92
425.64	5062.58
425.83	4997.04
426.01	5060.24
426.20	5074.28
426.39	5060.24
426.58	5142.16
426.77	5060.24
426.96	5195.99
427.15	5144.50
427.33	5247.48
427.52	5018.11
427.71	5217.05
427.90	5298.97
428.09	5441.75
428.28	5331.74
428.46	5224.08
428.65	5191.31
428.84	5481.53
429.03	5490.90
429.22	5348.12
429.40	5514.30
429.59	5528.35
429.78	5268.55
429.97	5259.18
430.16	5589.20
430.34	5591.54
430.53	5722.61
430.72	5530.69
430.91	5696.86
431.10	5685.16
431.28	5804.53
431.47	5694.52
431.66	5949.64
431.85	5788.14
432.03	5795.17
432.22	6064.33
432.41	5923.90
432.60	5851.34
432.79	5977.73
432.97	5937.94
433.16	6073.69
433.35	6101.78
433.54	6167.31
433.72	6148.59
433.91	6228.17
434.10	6279.66
434.28	6045.60
434.47	6183.70
434.66	6228.17
434.85	6239.87
435.03	6284.34
435.22	6340.51
435.41	6314.77
435.59	6506.69
435.78	6626.06
435.97	6619.04
436.16	6523.07
436.34	6384.98
436.53	6544.14
436.72	6609.67
436.90	6478.60
437.09	6614.35
437.28	6448.18
437.46	6516.05
437.65	6789.89
437.84	6801.60
438.02	6710.32
438.21	6771.17
438.40	6724.36
438.58	6864.79
438.77	7000.54
438.96	7042.67
439.14	6963.09
439.33	7232.26
439.52	7227.57
439.70	7227.57
439.89	7260.34
440.08	7377.37
440.26	7335.24
440.45	7302.47
440.63	7433.54
440.82	7688.66
441.01	7431.20
441.19	7651.21
441.38	7714.41
441.57	7826.75
441.75	7866.54
441.94	8063.15
442.12	7953.14
442.31	8013.99
442.50	7957.82
442.68	8030.38
442.87	7864.20
443.05	8273.79
443.24	8170.81
443.43	8376.78
443.61	8184.85
443.80	8624.87
443.98	8124.00
444.17	7903.99
444.35	8243.37
444.54	8439.97
444.73	8241.03
444.91	8255.07
445.10	8432.95
445.28	8526.57
445.47	8549.98
445.65	8234.00
445.84	8510.19
446.02	8332.31
446.21	8475.08
446.39	8367.42
446.58	8498.49
446.77	8500.83
446.95	8444.65
447.14	8383.80
447.32	8575.72
447.51	8676.37
447.69	8428.27
447.88	8641.26
448.06	8552.32
448.25	8463.38
448.43	8762.97
448.62	8652.96
448.80	8559.34
448.99	8622.53
449.17	8748.92
449.36	8840.20
449.54	8884.67
449.73	8999.36
449.91	8877.65
450.10	8912.76
450.28	9088.30
450.46	9270.86
450.65	9142.13
450.83	9104.68
451.02	8943.19
451.20	9352.78
451.39	9282.56
451.57	9139.79
451.76	9104.68
451.94	9275.54
452.13	9123.41
452.31	9268.52
452.49	9116.39
452.68	9364.48
452.86	9338.74
453.05	9577.47
453.23	9734.29
453.42	9411.29
453.60	9570.45
453.78	9547.05
453.97	9455.76
454.15	9610.24
454.34	9493.21
454.52	9884.08
454.70	9778.76
454.89	9804.50
455.07	9664.07
455.26	9797.48
455.44	10090.05
455.62	9865.36
455.81	9769.40
455.99	9935.57
456.17	10146.22
456.36	10167.29
456.54	10057.28
456.73	10406.02
456.91	10551.14
457.09	10310.06
457.28	10579.22
457.46	10429.43
457.64	10422.41
457.83	10588.58
458.01	10572.20
458.19	10703.27
458.38	10445.81
458.56	10670.50
458.74	10539.43
458.93	10546.45
459.11	10761.78
459.29	10888.17
459.48	10696.25
459.66	10686.89
459.84	10988.82
460.03	11178.40
460.21	11180.74
460.39	10878.81
460.57	10984.13
460.76	11033.29
460.94	11358.62
461.12	11143.29
461.31	11133.93
461.49	10993.50
461.67	11201.80
461.85	11658.21
462.04	11236.91
462.22	11550.54
462.40	11686.29
462.59	11456.92
462.77	11290.74
462.95	11735.45
463.13	11555.22
463.32	11613.74
463.50	11740.13
463.68	11719.06
463.86	11957.80
464.05	11583.31
464.23	11941.41
464.41	11988.22
464.59	11676.93
464.78	12100.57
464.96	11901.62
465.14	11817.36
465.32	11920.35
465.50	12166.10
465.69	12236.32
465.87	11932.05
466.05	12205.89
466.23	12217.60
466.41	12276.11
466.60	12390.80
466.78	12376.75
466.96	12154.40
467.14	12255.04
467.32	12376.75
467.51	12573.36
467.69	12126.32
467.87	12580.38
468.05	12423.56
468.23	12369.73
468.41	12369.73
468.60	12507.82
468.78	12910.40
468.96	12844.86
469.14	12788.69
469.32	12929.12
469.50	12695.07
469.69	12751.24
469.87	13116.36
470.05	13249.77
470.23	13373.82
470.41	12940.82
470.59	13165.51
470.77	13439.36
470.95	13221.69
471.14	13680.43
471.32	13130.41
471.50	13551.70
471.68	13626.60
471.86	13429.99
472.04	13673.41
472.22	14080.66
472.40	13722.56
472.58	14113.43
472.77	14216.41
472.95	14097.05
473.13	14511.32
473.31	14195.35
473.49	14029.17
473.67	14413.02
473.85	14565.15
474.03	14745.38
474.21	14899.85
474.39	14848.36
474.57	15112.84
474.75	14827.29
474.93	14923.26
475.12	14771.12
475.30	15255.61
475.48	15140.93
475.66	15307.10
475.84	14862.40
476.02	15297.74
476.20	15374.98
476.38	15719.04
476.56	15737.76
476.74	16159.06
476.92	15997.56
477.10	15800.96
477.28	16154.38
477.46	16086.50
477.64	16470.35
477.82	16587.38
478.00	17050.80
478.18	16702.06
478.36	17142.08
478.54	16798.02
478.72	17238.05
478.90	17605.51
479.08	17390.18
479.26	17493.16
479.44	17743.60
479.62	17841.90
479.80	18228.09
479.98	18363.84
480.16	18476.19
480.34	18562.79
480.52	18803.86
480.70	18932.59
480.88	18703.22
481.06	18312.35
481.24	18670.45
481.41	19264.95
481.59	19187.71
481.77	19311.76
481.95	19571.56
482.13	19459.21
482.31	19482.62
482.49	20318.19
482.67	20042.01
482.85	20374.36
483.03	20671.61
483.21	20758.21
483.39	21043.76
483.57	20893.96
483.74	21064.82
483.92	21530.59
484.10	21380.79
484.28	21647.61
484.46	22017.42
484.64	22319.35
484.82	22120.40
485.00	22707.88
485.18	22855.33
485.35	23119.81
485.53	22618.94
485.71	23082.36
485.89	23882.83
486.07	23321.10
486.25	23651.11
486.43	23915.59
486.61	24327.53
486.78	23960.06
486.96	24247.95
487.14	24685.63
487.32	24299.44
487.50	24802.66
487.68	24622.44
487.85	25156.08
488.03	25301.19
488.21	25572.69
488.39	25795.04
488.57	26045.48
488.75	26218.68
488.92	26419.97
489.10	26845.94
489.28	26782.75
489.46	27508.32
489.64	27040.21
489.81	27742.37
489.99	27819.61
490.17	27861.74
490.35	27894.50
490.53	28297.08
490.70	28166.01
490.88	28276.01
491.06	28809.65
491.24	28727.74
491.41	29097.54
491.59	29532.88
491.77	29266.06
491.95	29731.83
492.13	30115.67
492.30	30150.78
492.48	30019.71
492.66	30232.70
492.84	30415.26
493.01	30387.18
493.19	30866.98
493.37	31248.49
493.54	30925.50
493.72	31777.45
493.90	31215.72
494.08	31417.01
494.25	32030.23
494.43	31943.63
494.61	32367.27
494.79	32514.72
494.96	32311.10
495.14	32896.23
495.32	33408.81
495.49	32847.08
495.67	33266.03
495.85	33759.89
496.02	33766.91
496.20	34026.71
496.38	34242.04
496.55	34375.45
496.73	34969.94
496.91	34618.86
497.09	34923.13
497.26	34726.53
497.44	35288.26
497.62	35098.67
497.79	36084.04
497.97	35470.82
498.14	35952.97
498.32	36189.36
498.50	36247.88
498.67	36694.92
498.85	36390.65
499.03	37071.75
499.20	36666.83
499.38	36875.14
499.56	37237.92
499.73	37123.24
499.91	37525.81
500.08	37919.02
500.26	37528.15
500.44	37581.98
500.61	37640.50
500.79	37778.59
500.97	37886.25
501.14	38656.29
501.32	38562.67
501.49	38384.79
501.67	38878.64
501.84	38941.83
502.02	39105.67
502.20	39253.12
502.37	39388.88
502.55	39208.65
502.72	39433.35
502.90	39576.12
503.07	39749.32
503.25	39784.43
503.43	39756.34
503.60	40247.85
503.78	40470.20
503.95	40446.80
504.13	40570.85
504.30	40505.31
504.48	40453.82
504.65	40851.71
504.83	41130.23
505.01	41242.58
505.18	41275.35
505.36	41734.09
505.53	41347.90
505.71	41816.01
505.88	42057.09
506.06	41684.94
506.23	42197.52
506.41	42146.03
506.58	41954.10
506.76	42197.52
506.93	42653.92
507.11	42370.72
507.28	42822.44
507.46	43103.31
507.63	43096.28
507.81	43487.15
507.98	43103.31
508.16	42953.51
508.33	43409.92
508.50	43702.48
508.68	44191.65
508.85	43812.49
509.03	44025.48
509.20	44364.85
509.38	44254.85
509.55	44540.39
509.73	44273.57
509.90	44587.21
510.08	44451.45
510.25	44802.53
510.42	45010.84
510.60	45013.18
510.77	45301.07
510.95	45387.67
511.12	44854.03
511.30	45296.39
511.47	45626.40
511.64	45680.24
511.82	46073.45
511.99	45738.75
512.17	46426.87
512.34	46234.94
512.51	46356.65
512.69	46684.33
512.86	46663.26
513.04	46749.86
513.21	46646.88
513.38	46485.38
513.56	47325.63
513.73	46813.05
513.90	47288.18
514.08	47124.35
514.25	47449.68
514.43	47442.66
514.60	47372.44
514.77	47526.92
514.95	47576.07
515.12	47660.33
515.29	47681.39
515.47	48418.66
515.64	48329.72
515.81	47772.67
515.99	48435.05
516.16	48425.68
516.33	48217.38
516.51	49069.33
516.68	48655.06
516.85	48856.34
517.03	48741.66
517.20	48875.07
517.37	48474.84
517.54	48978.05
517.72	48608.25
517.89	49069.33
518.06	49638.08
518.24	49226.15
518.41	48821.23
518.58	49514.03
518.75	49460.20
518.93	49591.27
519.10	49642.76
519.27	49893.20
519.45	49907.24
519.62	49947.03
519.79	50260.66
519.96	49771.49
520.14	50312.16
520.31	50136.62
520.48	50679.62
520.65	50340.24
520.83	50887.93
521.00	50621.11
521.17	50483.01
521.34	50679.62
521.52	50920.70
521.69	51019.00
521.86	51082.19
522.03	51405.19
522.20	51044.74
522.38	51571.36
522.55	51353.69
522.72	51421.57
522.89	51402.85
523.07	51496.47
523.24	51592.43
523.41	51679.03
523.58	51192.20
523.75	51634.56
523.92	51690.73
524.10	51943.51
524.27	51686.05
524.44	52205.65
524.61	52264.16
524.78	52224.37
524.96	52135.43
525.13	52060.54
525.30	52563.75
525.47	52329.70
525.64	52332.04
525.81	52650.35
525.98	52554.39
526.16	52734.61
526.33	52502.90
526.50	52891.43
526.67	52725.25
526.84	52928.87
527.01	53043.56
527.18	53001.43
527.36	53083.35
527.53	53195.70
527.70	53565.50
527.87	53600.61
528.04	53167.61
528.21	53368.90
528.38	53338.47
528.55	53380.60
528.72	53504.65
528.89	53539.75
529.07	53642.74
529.24	53249.53
529.41	53794.87
529.58	53638.06
529.75	53848.71
529.92	53689.55
530.09	53738.70
530.26	53979.78
530.43	54064.03
530.60	54045.31
530.77	54110.85
530.94	54059.35
531.11	54255.96
531.28	54218.51
531.46	54089.78
531.63	54508.74
531.80	54328.52
531.97	54541.50
532.14	54255.96
532.31	54440.86
532.48	54461.93
532.65	54773.22
532.82	54649.17
532.99	54805.98
533.16	54649.17
533.33	54504.06
533.50	54822.37
533.67	54827.05
533.84	54918.33
534.01	54801.30
534.18	54997.91
534.35	55398.14
534.52	55161.75
534.69	55505.80
534.86	55491.76
535.03	55042.38
535.20	55199.19
535.37	55351.33
535.54	55634.53
535.71	55318.56
535.88	55632.19
536.05	55231.96
536.22	55744.54
536.38	55456.65
536.55	55660.28
536.72	55545.59
536.89	55819.44
537.06	55852.20
537.23	55810.07
537.40	55676.66
537.57	55819.44
537.74	55819.44
537.91	56222.01
538.08	55793.69
538.25	55641.56
538.42	55653.26
538.59	56177.54
538.75	56046.47
538.92	56058.17
539.09	56282.86
539.26	56308.61
539.43	56126.05
539.60	56275.84
539.77	56416.27
539.94	56601.18
540.11	56308.61
540.28	56659.69
540.44	56596.49
540.61	56456.06
540.78	56427.98
540.95	56353.08
541.12	56219.67
541.29	56605.86
541.46	56420.95
541.62	56774.37
541.79	56676.07
541.96	56418.61
542.13	56662.03
542.30	56605.86
542.47	56970.98
542.63	56935.87
542.80	56825.87
542.97	57301.00
543.14	57305.68
543.31	57411.00
543.48	57244.82
543.64	57633.35
543.81	57677.82
543.98	57293.97
544.15	57272.91
544.32	57677.82
544.48	57675.48
544.65	57324.40
544.82	57436.75
544.99	57411.00
545.16	57602.92
545.32	57432.07
545.49	57659.10
545.66	57839.32
545.83	57762.08
546.00	57853.36
546.16	57717.61
546.33	57680.16
546.50	57708.25
546.67	57932.94
546.83	57492.92
547.00	57668.46
547.17	57588.88
547.34	57813.57
547.50	57834.64
547.67	58148.27
547.84	58073.37
548.00	57902.51
548.17	58344.87
548.34	58269.98
548.51	58279.34
548.67	58216.14
548.84	58309.77
549.01	57979.75
549.18	58178.70
549.34	58246.57
549.51	58487.65
549.68	58291.04
549.84	58445.52
550.01	58527.44
550.18	58316.79
550.34	58588.29
550.51	58731.06
550.68	58588.29
550.84	58464.24
551.01	58541.48
551.18	58403.39
551.34	58520.41
551.51	58628.08
551.68	58745.11
551.84	58878.52
552.01	58702.98
552.18	58922.99
552.34	58431.47
552.51	58761.49
552.68	58632.76
552.84	58700.64
553.01	58866.81
553.18	58623.40
553.34	58930.01
553.51	58941.71
553.67	58993.20
553.84	59056.40
554.01	58955.75
554.17	59213.21
554.34	59110.23
554.51	58988.52
554.67	59035.33
554.84	59182.79
555.00	59208.53
555.17	59089.16
555.33	59128.95
555.50	58827.02
555.67	59068.10
555.83	59014.27
556.00	59070.44
556.16	59311.52
556.33	59260.02
556.50	59320.88
556.66	59348.96
556.83	59133.63
556.99	59669.62
557.16	59379.39
557.32	59489.40
557.49	59716.43
557.65	59512.80
557.82	59512.80
557.98	59262.36
558.15	59571.32
558.32	59465.99
558.48	59367.69
558.65	59648.55
558.81	59683.66
558.98	59639.19
559.14	59662.60
559.31	59697.70
559.47	59831.11
559.64	59629.83
559.80	59725.79
559.97	59550.25
560.13	59458.97
560.30	59723.45
560.46	59700.04
560.63	59671.96
560.79	59721.11
560.96	59950.48
561.12	59875.58
561.29	59882.61
561.45	59765.58
561.61	59880.27
561.78	59987.93
561.94	59798.35
562.11	59910.69
562.27	59784.30
562.44	60020.70
562.60	60058.15
562.77	59959.84
562.93	59840.48
563.10	60182.19
563.26	59924.74
563.42	60184.54
563.59	60090.91
563.75	60158.79
563.92	59990.27
564.08	60161.13
564.24	60210.28
564.41	60048.78
564.57	60151.77
564.74	60306.24
564.90	60121.34
565.07	60198.58
565.23	59997.29
565.39	60320.29
565.56	60322.63
565.72	60137.72
565.88	60245.39
566.05	60299.22
566.21	60292.20
566.38	60437.31
566.54	60210.28
566.70	60207.94
566.87	60474.76
567.03	60247.73
567.19	60399.86
567.36	60308.58
567.52	60446.68
567.68	60530.93
567.85	60425.61
568.01	60470.08
568.17	60207.94
568.34	60423.27
568.50	60313.26
568.66	60451.36
568.83	60369.44
568.99	60453.70
569.15	60533.28
569.32	60673.71
569.48	60467.74
569.64	60622.22
569.81	60540.30
569.97	60397.52
570.13	60556.68
570.30	60317.95
570.46	60474.76
570.62	60549.66
570.78	60420.93
570.95	60500.51
571.11	60608.17
571.27	60470.08
571.43	60580.09
571.60	60589.45
571.76	60540.30
571.92	60631.58
572.09	60437.31
572.25	60622.22
572.41	60488.80
572.57	60779.03
572.74	60662.00
572.90	60673.71
573.06	60453.70
573.22	60535.62
573.38	60589.45
573.55	60750.94
573.71	60856.27
573.87	60690.09
574.03	60575.40
574.20	60669.03
574.36	60669.03
574.52	60523.91
574.68	60757.97
574.84	60701.79
575.01	60828.18
575.17	60828.18
575.33	60884.36
575.49	60739.24
575.65	60764.99
575.82	60720.52
575.98	60867.97
576.14	61003.72
576.30	60837.54
576.46	60734.56
576.62	60858.61
576.79	60795.42
576.95	60729.88
577.11	60839.89
577.27	60940.53
577.43	60949.89
577.59	60767.33
577.75	60816.48
577.92	60654.98
578.08	60889.04
578.24	60741.58
578.40	61013.08
578.56	60973.30
578.72	60928.83
578.88	60886.70
579.04	61038.83
579.21	60853.93
579.37	60931.17
579.53	60924.14
579.69	60676.05
579.85	60856.27
580.01	60711.16
580.17	60837.54
580.33	60750.94
580.49	60952.23
580.65	61090.32
580.82	61048.19
580.98	60992.02
581.14	60891.38
581.30	60898.40
581.46	60886.70
581.62	61076.28
581.78	60994.36
581.94	60989.68
582.10	60938.19
582.26	60835.20
582.42	60940.53
582.58	60931.17
582.74	60781.37
582.90	60882.02
583.06	60952.23
583.22	60662.00
583.38	61078.62
583.54	60851.59
583.70	60928.83
583.86	61087.98
584.02	61071.60
584.18	61083.30
584.34	61202.67
584.50	61090.32
584.66	60816.48
584.82	60914.78
584.98	60966.27
585.14	61055.21
585.30	60949.89
585.46	61179.26
585.62	61057.56
585.78	61015.43
585.94	60961.59
586.10	61080.96
586.26	61027.13
586.42	61130.11
586.58	61193.31
586.74	61087.98
586.90	61055.21
587.06	60989.68
587.22	61249.48
587.38	60994.36
587.54	61237.78
587.70	61443.74
587.86	61092.66
588.02	61223.73
588.18	61361.82
588.34	61169.90
588.49	61193.31
