SpectraSuite Data File
++++++++++++++++++++++++++++++++++++
Date: Fri Oct 25 11:26:15 EDT 2013
User: price-jones
Dark Spectrum Present: No
Reference Spectrum Present: No
Number of Sampled Component Spectra: 1
Spectrometers: USB2+H05261
Integration Time (usec): 100000 (USB2+H05261)
Spectra Averaged: 1 (USB2+H05261)
Boxcar Smoothing: 0 (USB2+H05261)
Correct for Electrical Dark: No (USB2+H05261)
Strobe/Lamp Enabled: No (USB2+H05261)
Correct for Detector Non-linearity: No (USB2+H05261)
Correct for Stray Light: No (USB2+H05261)
Number of Pixels in Processed Spectrum: 2048
>>>>>Begin Processed Spectral Data<<<<<
365.73	215.33
365.92	215.33
366.12	215.33
366.32	121.71
366.52	175.54
366.72	210.65
366.91	184.90
367.11	196.60
367.31	84.26
367.51	196.60
367.70	145.11
367.90	191.92
368.10	131.07
368.30	114.69
368.49	107.66
368.69	210.65
368.89	210.65
369.09	180.22
369.28	135.75
369.48	159.16
369.68	182.56
369.87	180.22
370.07	163.84
370.27	243.42
370.47	388.53
370.66	608.54
370.86	704.50
371.06	554.71
371.25	725.57
371.45	713.86
371.65	690.46
371.84	760.67
372.04	676.41
372.24	676.41
372.44	746.63
372.63	788.76
372.83	744.29
373.03	741.95
373.22	744.29
373.42	711.52
373.62	746.63
373.81	781.74
374.01	730.25
374.21	863.66
374.40	856.64
374.60	847.27
374.79	924.51
374.99	868.34
375.19	821.53
375.38	903.45
375.58	889.40
375.78	891.74
375.97	786.42
376.17	912.81
376.37	877.70
376.56	931.53
376.76	901.11
376.95	875.36
377.15	887.06
377.35	863.66
377.54	954.94
377.74	896.43
377.93	873.02
378.13	999.41
378.33	898.77
378.52	898.77
378.72	915.15
378.91	950.26
379.11	896.43
379.31	915.15
379.50	924.51
379.70	898.77
379.89	985.37
380.09	915.15
380.28	990.05
380.48	952.60
380.68	929.19
380.87	957.28
381.07	1071.97
381.26	961.96
381.46	1123.46
381.65	1048.56
381.85	1001.75
382.04	1015.79
382.24	1036.86
382.43	1029.84
382.63	1107.07
382.83	1048.56
383.02	1163.25
383.22	1102.39
383.41	1060.26
383.61	1114.10
383.80	1055.58
384.00	1125.80
384.19	1121.12
384.39	1181.97
384.58	1205.38
384.78	1252.19
384.97	1100.05
385.17	1156.22
385.36	1102.39
385.56	1158.57
385.75	1118.78
385.95	1163.25
386.14	1207.72
386.34	1200.69
386.53	1240.48
386.72	1224.10
386.92	1191.33
387.11	1266.23
387.31	1270.91
387.50	1203.04
387.70	1214.74
387.89	1205.38
388.09	1277.93
388.28	1289.64
388.48	1294.32
388.67	1444.11
388.86	1418.36
389.06	1284.95
389.25	1266.23
389.45	1390.28
389.64	1364.53
389.84	1378.58
390.03	1401.98
390.22	1404.32
390.42	1291.98
390.61	1416.02
390.81	1378.58
391.00	1355.17
391.19	1404.32
391.39	1439.43
391.58	1439.43
391.78	1458.15
391.97	1497.94
392.16	1519.01
392.36	1528.37
392.55	1514.33
392.75	1563.48
392.94	1540.07
393.13	1547.09
393.33	1437.09
393.52	1528.37
393.71	1577.52
393.91	1617.31
394.10	1561.14
394.29	1650.08
394.49	1631.35
394.68	1589.22
394.88	1682.85
395.07	1743.70
395.26	1673.48
395.46	1678.16
395.65	1657.10
395.84	1664.12
396.04	1846.68
396.23	1727.32
396.42	1778.81
396.62	1717.95
396.81	1832.64
397.00	1717.95
397.19	1687.53
397.39	1849.02
397.58	1811.57
397.77	1874.77
397.97	1823.28
398.16	1865.41
398.35	1968.39
398.55	1781.15
398.74	1888.81
398.93	2015.20
399.12	1961.37
399.32	1947.33
399.51	1912.22
399.70	1980.09
399.90	1968.39
400.09	2047.97
400.28	2099.46
400.47	2003.50
400.67	2043.29
400.86	2120.53
401.05	2062.01
401.24	2029.24
401.44	2094.78
401.63	2139.25
401.82	2209.47
402.01	2022.22
402.21	2092.44
402.40	2153.29
402.59	2106.48
402.78	2204.78
402.97	2118.18
403.17	2251.60
403.36	2258.62
403.55	2242.23
403.74	2314.79
403.93	2291.38
404.13	2293.72
404.32	2392.03
404.51	2354.58
404.70	2490.33
404.89	2429.48
405.09	2394.37
405.28	2506.71
405.47	2408.41
405.66	2385.01
405.85	2485.65
406.05	2495.01
406.24	2485.65
406.43	2495.01
406.62	2630.76
406.81	2612.04
407.00	2586.29
407.20	2619.06
407.39	2649.49
407.58	2658.85
407.77	2708.00
407.96	2665.87
408.15	2775.88
408.34	2801.62
408.54	2754.81
408.73	2759.49
408.92	2778.22
409.11	2743.11
409.30	2789.92
409.49	2867.16
409.68	2904.60
409.87	2991.20
410.07	3082.49
410.26	3070.78
410.45	2986.52
410.64	3033.33
410.83	3094.19
411.02	3096.53
411.21	3232.28
411.40	3176.11
411.59	3148.02
411.78	3192.49
411.98	3131.64
412.17	3066.10
412.36	3311.86
412.55	3389.10
412.74	3314.20
412.93	3433.57
413.12	3379.73
413.31	3501.44
413.50	3499.10
413.69	3426.54
413.88	3555.27
414.07	3606.77
414.26	3613.79
414.45	3637.19
414.64	3611.45
414.83	3655.92
415.02	3833.80
415.22	3936.78
415.41	3744.86
415.60	3845.50
415.79	3950.82
415.98	4028.06
416.17	3901.67
416.36	3955.51
416.55	4011.68
416.74	3995.29
416.93	4037.42
417.12	3997.64
417.31	4007.00
417.50	4227.01
417.69	4236.37
417.88	4264.46
418.07	4224.67
418.26	4142.75
418.45	4255.09
418.64	4365.10
418.83	4631.92
419.02	4381.48
419.21	4524.26
419.39	4514.89
419.58	4395.53
419.77	4379.14
419.96	4463.40
420.15	4404.89
420.34	4545.32
420.53	4606.17
420.72	4713.84
420.91	4716.18
421.10	4631.92
421.29	4751.29
421.48	4601.49
421.67	4823.84
421.86	4835.55
422.05	4816.82
422.24	4781.71
422.43	4884.70
422.61	4833.21
422.80	4875.34
422.99	4971.30
423.18	4936.19
423.37	4950.23
423.56	4793.42
423.75	4983.00
423.94	4823.84
424.13	4699.80
424.32	4774.69
424.50	4931.51
424.69	4985.34
424.88	5071.94
425.07	4975.98
425.26	4887.04
425.45	5111.73
425.64	4940.87
425.83	4992.36
426.01	5111.73
426.20	5078.96
426.39	5107.05
426.58	5011.09
426.77	5034.49
426.96	5018.11
427.15	5170.24
427.33	5203.01
427.52	5165.56
427.71	5270.89
427.90	5163.22
428.09	5153.86
428.28	5329.40
428.46	5364.51
428.65	5401.96
428.84	5383.23
429.03	5390.25
429.22	5294.29
429.40	5561.11
429.59	5521.32
429.78	5291.95
429.97	5254.50
430.16	5479.19
430.34	5542.39
430.53	5556.43
430.72	5701.54
430.91	5523.66
431.10	5528.35
431.28	5706.23
431.47	5682.82
431.66	5767.08
431.85	5724.95
432.03	5914.53
432.22	6015.18
432.41	5825.59
432.60	5944.96
432.79	5912.19
432.97	6057.31
433.16	5830.27
433.35	6134.54
433.54	6071.35
433.72	6356.90
433.91	6047.94
434.10	6066.67
434.28	6136.88
434.47	6270.30
434.66	6148.59
434.85	6279.66
435.03	6253.91
435.22	6305.40
435.41	6312.42
435.59	6342.85
435.78	6429.45
435.97	6494.99
436.16	6354.55
436.34	6438.81
436.53	6445.84
436.72	6700.95
436.90	6394.34
437.09	6623.72
437.28	6478.60
437.46	6520.73
437.65	6480.94
437.84	6712.66
438.02	6504.35
438.21	6787.55
438.40	6693.93
438.58	7063.74
438.77	6843.73
438.96	6817.98
439.14	7061.40
439.33	7295.45
439.52	7136.29
439.70	7190.13
439.89	7276.73
440.08	7286.09
440.26	7356.30
440.45	7220.55
440.63	7358.64
440.82	7412.48
441.01	7585.68
441.19	7559.93
441.38	7578.65
441.57	7709.72
441.75	7850.16
441.94	7969.52
442.12	7812.71
442.31	7932.08
442.50	7971.86
442.68	7932.08
442.87	7906.33
443.05	8011.65
443.24	8421.25
443.43	8088.89
443.61	8121.66
443.80	8372.10
443.98	7936.76
444.17	7908.67
444.35	8131.02
444.54	8264.43
444.73	8257.41
444.91	8168.47
445.10	8409.54
445.28	8329.97
445.47	8257.41
445.65	8358.05
445.84	8521.89
446.02	8257.41
446.21	8327.63
446.39	8395.50
446.58	8402.52
446.77	8418.91
446.95	8266.77
447.14	8442.31
447.32	8505.51
447.51	8334.65
447.69	8315.92
447.88	8528.91
448.06	8596.79
448.25	8393.16
448.43	8615.51
448.62	8486.78
448.80	8716.16
448.99	8854.25
449.17	8601.47
449.36	8596.79
449.54	8723.18
449.73	8809.78
449.91	9001.70
450.10	8784.03
450.28	8922.12
450.46	8968.93
450.65	8891.70
450.83	9107.02
451.02	9036.81
451.20	9261.50
451.39	9210.01
451.57	9039.15
451.76	8910.42
451.94	9067.24
452.13	9083.62
452.31	9146.81
452.49	9104.68
452.68	9224.05
452.86	9359.80
453.05	9432.36
453.23	9579.81
453.42	9495.55
453.60	9420.66
453.78	9584.49
453.97	9549.39
454.15	9472.15
454.34	9315.33
454.52	9916.85
454.70	9462.79
454.89	9841.95
455.07	9799.82
455.26	9703.86
455.44	10015.15
455.62	10150.90
455.81	9879.40
455.99	9797.48
456.17	9982.38
456.36	9951.96
456.54	10218.78
456.73	10200.05
456.91	10366.23
457.09	10335.81
457.28	10600.29
457.46	10246.87
457.64	10384.96
457.83	10487.94
458.01	10249.21
458.19	10565.18
458.38	10340.49
458.56	10640.08
458.74	10523.05
458.93	10703.27
459.11	10581.56
459.29	10647.10
459.48	10719.65
459.66	10663.48
459.84	10710.29
460.03	10764.12
460.21	10862.43
460.39	10733.70
460.57	11042.65
460.76	11171.38
460.94	11176.06
461.12	11220.53
461.31	10972.43
461.49	11307.13
461.67	11351.60
461.85	11562.25
462.04	11105.84
462.22	11857.15
462.40	11543.52
462.59	11501.39
462.77	11459.26
462.95	11716.72
463.13	11545.86
463.32	11515.44
463.50	11592.67
463.68	11564.59
463.86	11992.90
464.05	11536.50
464.23	11775.24
464.41	11957.80
464.59	11812.68
464.78	12376.75
464.96	11772.89
465.14	11695.66
465.32	12070.14
465.50	12222.28
465.69	12030.35
465.87	12095.89
466.05	12084.19
466.23	12067.80
466.41	12168.45
466.60	12402.50
466.78	12049.08
466.96	12255.04
467.14	11988.22
467.32	12271.43
467.51	12641.23
467.69	12091.21
467.87	12402.50
468.05	12615.49
468.23	12248.02
468.41	12372.07
468.60	12652.94
468.78	12334.62
468.96	12568.68
469.14	12734.85
469.32	12968.91
469.50	12685.70
469.69	12753.58
469.87	13071.89
470.05	13020.40
470.23	13036.78
470.41	13074.23
470.59	13369.14
470.77	13121.04
470.95	13219.35
471.14	13352.76
471.32	13179.56
471.50	13373.82
471.68	13659.37
471.86	13755.33
472.04	13811.50
472.22	14083.00
472.40	13834.91
472.58	13767.03
472.77	13867.67
472.95	13884.06
473.13	14590.90
473.31	14097.05
473.49	14188.33
473.67	13940.23
473.85	14216.41
474.03	14555.79
474.21	14731.33
474.39	14647.07
474.57	14562.81
474.75	14839.00
474.93	14937.30
475.12	14759.42
475.30	15140.93
475.48	14775.80
475.66	15075.39
475.84	15056.67
476.02	15410.09
476.20	15180.71
476.38	15475.62
476.56	15822.02
476.74	15791.59
476.92	15791.59
477.10	15681.59
477.28	15941.39
477.46	16016.29
477.64	16475.03
477.82	16718.45
478.00	16652.91
478.18	16627.17
478.36	16655.25
478.54	17277.83
478.72	17076.55
478.90	17146.76
479.08	17628.92
479.26	17397.20
479.44	17603.17
479.62	17708.49
479.80	18057.23
479.98	18244.48
480.16	18286.61
480.34	18022.12
480.52	18670.45
480.70	18759.39
480.88	18478.53
481.06	18370.86
481.24	18600.24
481.41	18785.14
481.59	19339.85
481.77	19316.44
481.95	19241.54
482.13	19611.35
482.31	19548.15
482.49	19754.12
482.67	20245.63
482.85	20032.65
483.03	20755.87
483.21	20737.15
483.39	20889.28
483.57	20446.92
483.74	21109.29
483.92	21301.22
484.10	21013.33
484.28	21553.99
484.46	21991.67
484.64	22087.64
484.82	21633.57
485.00	22235.09
485.18	22506.59
485.35	23112.79
485.53	22759.37
485.71	22647.02
485.89	23388.97
486.07	23201.73
486.25	23283.65
486.43	23424.08
486.61	23707.29
486.78	23676.86
486.96	24006.87
487.14	24379.02
487.32	24456.26
487.50	24826.06
487.68	24807.34
487.85	25111.61
488.03	25387.79
488.21	25366.73
488.39	25373.75
488.57	25785.68
488.75	26239.75
488.92	26125.06
489.10	26534.65
489.28	26869.35
489.46	27271.92
489.64	26955.95
489.81	27529.38
489.99	27566.83
490.17	27515.34
490.35	28046.64
490.53	27892.16
490.70	28034.94
490.88	28201.11
491.06	28723.05
491.24	29090.52
491.41	29113.92
491.59	29132.65
491.77	29053.07
491.95	29507.13
492.13	29603.10
492.30	30108.65
492.48	29701.40
492.66	29986.94
492.84	30401.22
493.01	30775.70
493.19	30328.66
493.37	31105.72
493.54	30595.48
493.72	31122.10
493.90	31606.59
494.08	31798.52
494.25	31779.79
494.43	32018.53
494.61	32292.37
494.79	32322.80
494.96	32231.52
495.14	32498.34
495.32	33034.32
495.49	32914.95
495.67	32835.38
495.85	33329.23
496.02	33539.88
496.20	33844.15
496.38	34096.92
496.55	34146.08
496.73	34946.54
496.91	33958.83
497.09	34778.02
497.26	35281.24
497.44	34513.54
497.62	35243.79
497.79	35725.94
497.97	35634.66
498.14	36123.83
498.32	36046.59
498.50	36151.91
498.67	36383.63
498.85	36130.85
499.03	37088.13
499.20	36477.25
499.38	36659.81
499.56	36919.61
499.73	37397.08
499.91	37062.38
500.08	37479.00
500.26	37266.01
500.44	37074.09
500.61	37544.53
500.79	37364.31
500.97	37996.26
501.14	38244.35
501.32	38522.88
501.49	38497.13
501.67	38742.89
501.84	38878.64
502.02	38609.48
502.20	38906.73
502.37	39019.07
502.55	39016.73
502.72	39225.04
502.90	39622.93
503.07	39133.76
503.25	39555.05
503.43	39871.03
503.60	39894.43
503.78	40257.21
503.95	39854.64
504.13	40339.13
504.30	40835.33
504.48	40306.37
504.65	40996.82
504.83	40706.60
505.01	41483.66
505.18	40779.15
505.36	41167.68
505.53	41191.09
505.71	41298.75
505.88	41858.14
506.06	41319.82
506.23	41916.65
506.41	41586.64
506.58	41965.81
506.76	41841.76
506.93	42672.65
507.11	42344.97
507.28	42370.72
507.46	42579.03
507.63	43026.07
507.81	42794.36
507.98	42815.42
508.16	43281.19
508.33	42719.46
508.50	42815.42
508.68	43470.77
508.85	43454.39
509.03	43526.94
509.20	43746.95
509.38	44175.27
509.55	44259.53
509.73	44549.76
509.90	44610.61
510.08	44151.87
510.25	44437.41
510.42	44746.36
510.60	44765.09
510.77	44739.34
510.95	45298.73
511.12	44821.26
511.30	44699.55
511.47	45240.21
511.64	45233.19
511.82	45453.20
511.99	45265.96
512.17	45502.35
512.34	45647.47
512.51	46337.93
512.69	46146.00
512.86	45839.39
513.04	46628.15
513.21	46314.52
513.38	46258.35
513.56	46710.07
513.73	46354.31
513.90	46801.35
514.08	46869.23
514.25	47306.91
514.43	47309.25
514.60	46927.74
514.77	47131.37
514.95	47634.58
515.12	47236.69
515.29	47367.76
515.47	48079.28
515.64	47943.53
515.81	47894.38
515.99	48156.52
516.16	48346.11
516.33	48088.65
516.51	48542.71
516.68	48250.14
516.85	48055.88
517.03	48648.03
517.20	48971.03
517.37	48481.86
517.54	48870.39
517.72	48769.74
517.89	48971.03
518.06	48758.04
518.24	49043.59
518.41	48900.81
518.58	49041.24
518.75	49221.47
518.93	49549.14
519.10	49174.66
519.27	49514.03
519.45	49593.61
519.62	49902.56
519.79	49624.04
519.96	49865.11
520.14	50265.34
520.31	50241.94
520.48	50351.94
520.65	49975.12
520.83	50199.81
521.00	50607.06
521.17	50382.37
521.34	50677.28
521.52	50901.97
521.69	50904.31
521.86	50658.56
522.03	50913.67
522.20	51140.71
522.38	51332.63
522.55	51075.17
522.72	50827.07
522.89	51131.34
523.07	51414.55
523.24	51103.26
523.41	51505.83
523.58	51246.03
523.75	51770.31
523.92	51224.96
524.10	52018.41
524.27	51611.15
524.44	51732.86
524.61	51756.27
524.78	52051.17
524.96	51817.12
525.13	52158.84
525.30	52317.99
525.47	52390.55
525.64	52418.64
525.81	52484.17
525.98	52596.52
526.16	52381.19
526.33	52648.01
526.50	52622.26
526.67	52669.08
526.84	52800.15
527.01	52645.67
527.18	52828.23
527.36	53132.50
527.53	52938.24
527.70	53109.10
527.87	53221.44
528.04	52914.83
528.21	53022.50
528.38	53380.60
528.55	53317.40
528.72	53069.31
528.89	53181.65
529.07	53270.59
529.24	53326.77
529.41	53588.91
529.58	53404.00
529.75	53560.82
529.92	53764.45
530.09	53731.68
530.26	53818.28
530.43	53825.30
530.60	53593.59
530.77	54042.97
530.94	53944.67
531.11	53766.79
531.28	53811.26
531.46	53928.28
531.63	54190.42
531.80	53956.37
531.97	54230.21
532.14	54351.92
532.31	54291.07
532.48	54511.08
532.65	54684.28
532.82	54167.02
532.99	54628.10
533.16	54593.00
533.33	54805.98
533.50	54773.22
533.67	54777.90
533.84	54560.23
534.01	54803.64
534.18	54918.33
534.35	55004.93
534.52	54988.55
534.69	54934.71
534.86	54941.74
535.03	54855.14
535.20	55348.99
535.37	55117.28
535.54	55533.89
535.71	55082.17
535.88	55283.45
536.05	55194.51
536.22	55550.27
536.38	55229.62
536.55	55430.91
536.72	55143.02
536.89	55253.03
537.06	55590.06
537.23	55774.97
537.40	55477.72
537.57	55547.93
537.74	55681.34
537.91	55838.16
538.08	55901.36
538.25	55360.69
538.42	55627.51
538.59	56016.04
538.75	55896.67
538.92	56034.77
539.09	56088.60
539.26	56074.55
539.43	55955.19
539.60	56121.37
539.77	56079.24
539.94	56432.66
540.11	56154.13
540.28	56243.07
540.44	56184.56
540.61	56151.79
540.78	56020.72
540.95	56406.91
541.12	56247.75
541.29	56385.85
541.46	56381.16
541.62	56404.57
541.79	56425.64
541.96	56339.04
542.13	56755.65
542.30	56442.02
542.47	56500.53
542.63	56676.07
542.80	56598.83
542.97	57080.98
543.14	57010.77
543.31	57078.64
543.48	56994.39
543.64	57298.65
543.81	57008.43
543.98	57261.21
544.15	57270.57
544.32	57375.89
544.48	57560.79
544.65	57083.33
544.82	57338.44
544.99	57242.48
545.16	57277.59
545.32	57162.90
545.49	57427.38
545.66	57621.65
545.83	57361.85
546.00	57638.03
546.16	57581.86
546.33	57322.06
546.50	57216.74
546.67	57804.21
546.83	57221.42
547.00	57549.09
547.17	57240.14
547.34	57741.02
547.50	57588.88
547.67	57820.59
547.84	57729.31
548.00	57888.47
548.17	58007.84
548.34	58054.65
548.51	58014.86
548.67	58279.34
548.84	58033.58
549.01	57911.88
549.18	57977.41
549.34	58028.90
549.51	58148.27
549.68	58349.56
549.84	58244.23
550.01	58403.39
550.18	57895.49
550.34	58354.24
550.51	58239.55
550.68	58279.34
550.84	58272.32
551.01	58485.31
551.18	58178.70
551.34	58450.20
551.51	58333.17
551.68	58534.46
551.84	58546.16
552.01	58553.18
552.18	58499.35
552.34	58560.20
552.51	58424.45
552.68	58492.33
552.84	58450.20
553.01	58679.57
553.18	58471.26
553.34	58756.81
553.51	58602.33
553.67	58616.38
553.84	58810.64
554.01	58780.21
554.17	58904.26
554.34	59103.21
554.51	58843.41
554.67	59018.95
554.84	58822.34
555.00	58939.37
555.17	58960.44
555.33	59023.63
555.50	58873.84
555.67	58808.30
555.83	58635.10
556.00	59255.34
556.16	59264.70
556.33	59016.61
556.50	59145.34
556.66	59159.38
556.83	58988.52
556.99	59096.19
557.16	59344.28
557.32	59477.69
557.49	59597.06
557.65	59018.95
557.82	59096.19
557.98	59306.83
558.15	59344.28
558.32	59522.16
558.48	59157.04
558.65	59498.76
558.81	59402.80
558.98	59440.24
559.14	59639.19
559.31	59568.97
559.47	59463.65
559.64	59463.65
559.80	59348.96
559.97	59700.04
560.13	59578.34
560.30	59484.72
560.46	59664.94
560.63	59688.34
560.79	59807.71
560.96	59681.32
561.12	59676.64
561.29	59868.56
561.45	59470.67
561.61	59625.15
561.78	59711.75
561.94	59519.82
562.11	59646.21
562.27	59941.12
562.44	60104.96
562.60	60048.78
562.77	59819.41
562.93	59676.64
563.10	60107.30
563.26	59690.68
563.42	60055.81
563.59	59994.95
563.75	59831.11
563.92	59938.78
564.08	59971.55
564.24	60086.23
564.41	59922.40
564.57	60041.76
564.74	60048.78
564.90	59948.14
565.07	60168.15
565.23	59803.03
565.39	60149.43
565.56	59999.63
565.72	59781.96
565.88	59992.61
566.05	60027.72
566.21	59957.50
566.38	60268.79
566.54	59915.37
566.70	60509.87
566.87	60107.30
567.03	60079.21
567.19	60233.69
567.36	60238.37
567.52	60041.76
567.68	60568.38
567.85	60254.75
568.01	60032.40
568.17	60250.07
568.34	60184.54
568.50	60355.39
568.66	60275.82
568.83	60388.16
568.99	60264.11
569.15	60331.99
569.32	60441.99
569.48	60238.37
569.64	60346.03
569.81	60371.78
569.97	60165.81
570.13	60336.67
570.30	60231.35
570.46	60308.58
570.62	60126.02
570.78	60470.08
570.95	60266.45
571.11	60427.95
571.27	60184.54
571.43	60292.20
571.60	60420.93
571.76	60505.19
571.92	60533.28
572.09	60643.28
572.25	60516.89
572.41	60292.20
572.57	60502.85
572.74	60568.38
572.90	60458.38
573.06	60519.23
573.22	60687.75
573.38	60631.58
573.55	60357.74
573.71	60654.98
573.87	60727.54
574.03	60453.70
574.20	60470.08
574.36	60413.91
574.52	60617.53
574.68	60535.62
574.84	60587.11
575.01	60800.10
575.17	60636.26
575.33	60617.53
575.49	60346.03
575.65	60673.71
575.82	60540.30
575.98	60453.70
576.14	60872.65
576.30	60846.91
576.46	60563.70
576.62	60804.78
576.79	60772.01
576.95	60570.72
577.11	60528.59
577.27	60743.92
577.43	60893.72
577.59	60540.30
577.75	60769.67
577.92	60355.39
578.08	60626.90
578.24	60694.77
578.40	60889.04
578.56	60769.67
578.72	60692.43
578.88	60886.70
579.04	61003.72
579.21	60713.50
579.37	60793.07
579.53	61043.51
579.69	60449.02
579.85	60769.67
580.01	60692.43
580.17	60537.96
580.33	60970.96
580.49	60992.02
580.65	60914.78
580.82	60790.73
580.98	60816.48
581.14	60823.50
581.30	60825.84
581.46	60844.57
581.62	60860.95
581.78	60598.81
581.94	60863.29
582.10	60638.60
582.26	60584.77
582.42	60697.11
582.58	60839.89
582.74	60509.87
582.90	60832.86
583.06	60732.22
583.22	60767.33
583.38	60823.50
583.54	60793.07
583.70	60970.96
583.86	60940.53
584.02	60790.73
584.18	61015.43
584.34	60961.59
584.50	60919.46
584.66	60535.62
584.82	60626.90
584.98	61052.87
585.14	61050.53
585.30	60846.91
585.46	60992.02
585.62	60954.57
585.78	61151.18
585.94	60540.30
586.10	60931.17
586.26	60980.32
586.42	60992.02
586.58	61080.96
586.74	60931.17
586.90	60755.63
587.06	60842.23
587.22	60910.10
587.38	60884.36
587.54	61235.44
587.70	61258.84
587.86	61193.31
588.02	60884.36
588.18	61188.63
588.34	61165.22
588.49	61080.96
