SpectraSuite Data File
++++++++++++++++++++++++++++++++++++
Date: Fri Oct 25 11:22:46 EDT 2013
User: price-jones
Dark Spectrum Present: No
Reference Spectrum Present: No
Number of Sampled Component Spectra: 1
Spectrometers: USB2+H05261
Integration Time (usec): 100000 (USB2+H05261)
Spectra Averaged: 1 (USB2+H05261)
Boxcar Smoothing: 0 (USB2+H05261)
Correct for Electrical Dark: No (USB2+H05261)
Strobe/Lamp Enabled: No (USB2+H05261)
Correct for Detector Non-linearity: No (USB2+H05261)
Correct for Stray Light: No (USB2+H05261)
Number of Pixels in Processed Spectrum: 2048
>>>>>Begin Processed Spectral Data<<<<<
365.73	205.97
365.92	205.97
366.12	205.97
366.32	184.90
366.52	100.64
366.72	205.97
366.91	138.09
367.11	154.48
367.31	91.28
367.51	110.01
367.70	135.75
367.90	79.58
368.10	28.09
368.30	163.84
368.49	126.39
368.69	152.13
368.89	196.60
369.09	170.86
369.28	124.05
369.48	128.73
369.68	159.16
369.87	196.60
370.07	198.95
370.27	234.05
370.47	346.40
370.66	587.47
370.86	627.26
371.06	711.52
371.25	608.54
371.45	620.24
371.65	622.58
371.84	615.56
372.04	695.14
372.24	648.33
372.44	702.16
372.63	744.29
372.83	753.65
373.03	763.01
373.22	755.99
373.42	772.38
373.62	748.97
373.81	713.86
374.01	861.32
374.21	819.19
374.40	779.40
374.60	795.78
374.79	774.72
374.99	793.44
375.19	905.79
375.38	788.76
375.58	849.61
375.78	809.83
375.97	884.72
376.17	915.15
376.37	821.53
376.56	826.21
376.76	873.02
376.95	786.42
377.15	896.43
377.35	889.40
377.54	966.64
377.74	908.13
377.93	889.40
378.13	936.21
378.33	1032.18
378.52	945.58
378.72	866.00
378.91	954.94
379.11	870.68
379.31	882.38
379.50	959.62
379.70	1083.67
379.89	964.30
380.09	985.37
380.28	978.34
380.48	952.60
380.68	1027.50
380.87	983.02
381.07	1060.26
381.26	1111.75
381.46	952.60
381.65	1083.67
381.85	985.37
382.04	1001.75
382.24	1036.86
382.43	1013.45
382.63	1020.47
382.83	1076.65
383.02	1067.28
383.22	1196.01
383.41	1114.10
383.61	1102.39
383.80	1107.07
384.00	1210.06
384.19	1137.50
384.39	1062.60
384.58	1144.52
384.78	1170.27
384.97	1156.22
385.17	1184.31
385.36	1203.04
385.56	1203.04
385.75	1081.33
385.95	1160.91
386.14	1060.26
386.34	1212.40
386.53	1181.97
386.72	1095.37
386.92	1247.51
387.11	1287.29
387.31	1219.42
387.50	1196.01
387.70	1231.12
387.89	1231.12
388.09	1280.27
388.28	1266.23
388.48	1296.66
388.67	1343.47
388.86	1334.11
389.06	1352.83
389.25	1284.95
389.45	1348.15
389.64	1334.11
389.84	1432.41
390.03	1376.24
390.22	1385.60
390.42	1359.85
390.61	1362.19
390.81	1474.54
391.00	1390.28
391.19	1446.45
391.39	1493.26
391.58	1469.86
391.78	1362.19
391.97	1481.56
392.16	1481.56
392.36	1493.26
392.55	1509.65
392.75	1509.65
392.94	1509.65
393.13	1633.69
393.33	1390.28
393.52	1568.16
393.71	1572.84
393.91	1617.31
394.10	1507.30
394.29	1551.78
394.49	1636.03
394.68	1633.69
394.88	1624.33
395.07	1617.31
395.26	1741.36
395.46	1619.65
395.65	1710.93
395.84	1706.25
396.04	1762.42
396.23	1729.66
396.42	1729.66
396.62	1816.26
396.81	1790.51
397.00	1879.45
397.19	1795.19
397.39	1937.96
397.58	1825.62
397.77	1856.04
397.97	1851.36
398.16	1846.68
398.35	1771.79
398.55	1914.56
398.74	1914.56
398.93	1895.83
399.12	1858.39
399.32	1785.83
399.51	1947.33
399.70	2071.37
399.90	2043.29
400.09	2029.24
400.28	2043.29
400.47	2209.47
400.67	2087.76
400.86	2019.88
401.05	2127.55
401.24	2008.18
401.44	2155.63
401.63	2127.55
401.82	2106.48
402.01	2050.31
402.21	2111.16
402.40	2211.81
402.59	2157.97
402.78	2162.66
402.97	2298.41
403.17	2363.94
403.36	2225.85
403.55	2317.13
403.74	2385.01
403.93	2333.51
404.13	2359.26
404.32	2307.77
404.51	2427.14
404.70	2328.83
404.89	2429.48
405.09	2555.86
405.28	2457.56
405.47	2558.21
405.66	2565.23
405.85	2464.58
406.05	2520.76
406.24	2518.42
406.43	2628.42
406.62	2565.23
406.81	2675.23
407.00	2670.55
407.20	2630.76
407.39	2729.06
407.58	2736.09
407.77	2740.77
407.96	2677.57
408.15	2696.30
408.34	2743.11
408.54	2843.75
408.73	2743.11
408.92	2775.88
409.11	2778.22
409.30	2867.16
409.49	2944.39
409.68	2916.31
409.87	2888.22
410.07	2932.69
410.26	3129.30
410.45	3082.49
410.64	3101.21
410.83	3061.42
411.02	3241.64
411.21	3211.22
411.40	3077.80
411.59	3222.92
411.78	3293.13
411.98	3253.34
412.17	3346.97
412.36	3349.31
412.55	3543.57
412.74	3389.10
412.93	3407.82
413.12	3506.12
413.31	3691.02
413.50	3566.98
413.69	3585.70
413.88	3684.00
414.07	3592.72
414.26	3517.83
414.45	3641.87
414.64	3833.80
414.83	3716.77
415.02	3651.24
415.22	3702.73
415.41	3840.82
415.60	3904.01
415.79	3990.61
415.98	4135.73
416.17	4009.34
416.36	4002.32
416.55	4014.02
416.74	4063.17
416.93	4107.64
417.12	4067.85
417.31	4140.41
417.50	4322.97
417.69	4337.01
417.88	4285.52
418.07	4238.71
418.26	4182.54
418.45	4332.33
418.64	4550.00
418.83	4498.51
419.02	4411.91
419.21	4507.87
419.39	4564.04
419.58	4559.36
419.77	4444.68
419.96	4599.15
420.15	4566.39
420.34	4732.56
420.53	4589.79
420.72	4765.33
420.91	4858.95
421.10	4758.31
421.29	4767.67
421.48	4762.99
421.67	4819.16
421.86	4849.59
422.05	4774.69
422.24	4725.54
422.43	4877.68
422.61	4990.02
422.80	4954.91
422.99	5006.41
423.18	5095.35
423.37	5074.28
423.56	4971.30
423.75	4936.19
423.94	4980.66
424.13	4512.55
424.32	4891.72
424.50	4999.38
424.69	5053.22
424.88	4959.60
425.07	4924.49
425.26	4933.85
425.45	4994.70
425.64	4975.98
425.83	5057.90
426.01	5160.88
426.20	5013.43
426.39	5027.47
426.58	5069.60
426.77	5081.30
426.96	5046.20
427.15	5153.86
427.33	5172.58
427.52	5296.63
427.71	5289.61
427.90	5380.89
428.09	5205.35
428.28	5413.66
428.46	5294.29
428.65	5387.91
428.84	5523.66
429.03	5673.46
429.22	5416.00
429.40	5523.66
429.59	5526.00
429.78	5483.88
429.97	5275.57
430.16	5385.57
430.34	5650.05
430.53	5785.80
430.72	5706.23
430.91	5661.76
431.10	5727.29
431.28	5823.25
431.47	6017.52
431.66	5959.00
431.85	5874.74
432.03	5879.43
432.22	6022.20
432.41	5909.85
432.60	5865.38
432.79	5877.09
432.97	6054.97
433.16	6150.93
433.35	5968.37
433.54	6029.22
433.72	6181.35
433.91	6263.27
434.10	6232.85
434.28	6197.74
434.47	6221.14
434.66	6317.11
434.85	6270.30
435.03	6392.00
435.22	6485.62
435.41	6387.32
435.59	6499.67
435.78	6370.94
435.97	6420.09
436.16	6459.88
436.34	6464.56
436.53	6656.48
436.72	6801.60
436.90	6623.72
437.09	6656.48
437.28	6361.58
437.46	6553.50
437.65	6689.25
437.84	6792.23
438.02	6803.94
438.21	6766.49
438.40	6642.44
438.58	7082.46
438.77	6977.14
438.96	7045.01
439.14	7084.80
439.33	7332.90
439.52	7279.07
439.70	7218.21
439.89	7435.88
440.08	7548.23
440.26	7328.22
440.45	7508.44
440.63	7592.70
440.82	7691.00
441.01	7538.87
441.19	7515.46
441.38	7723.77
441.57	7782.28
441.75	8044.42
441.94	8016.33
442.12	7941.44
442.31	8166.13
442.50	7929.74
442.68	8121.66
442.87	8131.02
443.05	8201.24
443.24	8189.53
443.43	8156.77
443.61	8379.12
443.80	8404.86
443.98	8042.08
444.17	8023.36
444.35	8187.19
444.54	8276.13
444.73	8322.94
444.91	8355.71
445.10	8348.69
445.28	8322.94
445.47	8376.78
445.65	8311.24
445.84	8610.83
446.02	8479.76
446.21	8568.70
446.39	8400.18
446.58	8514.87
446.77	8365.07
446.95	8280.82
447.14	8540.61
447.32	8620.19
447.51	8531.25
447.69	8610.83
447.88	8676.37
448.06	8608.49
448.25	8606.15
448.43	8538.27
448.62	8795.73
448.80	8606.15
448.99	8571.04
449.17	8727.86
449.36	8854.25
449.54	8746.58
449.73	9057.87
449.91	9043.83
450.10	9151.49
450.28	9114.05
450.46	9097.66
450.65	9102.34
450.83	8999.36
451.02	9032.13
451.20	9118.73
451.39	9135.11
451.57	9219.37
451.76	8994.68
451.94	9198.31
452.13	9359.80
452.31	9338.74
452.49	9202.99
452.68	9462.79
452.86	9413.63
453.05	9488.53
453.23	9734.29
453.42	9369.16
453.60	9444.06
453.78	9572.79
453.97	9549.39
454.15	9469.81
454.34	9703.86
454.52	9584.49
454.70	9650.03
454.89	9867.70
455.07	9893.44
455.26	9678.12
455.44	9827.91
455.62	9916.85
455.81	10097.07
455.99	10218.78
456.17	10237.50
456.36	10120.48
456.54	10083.03
456.73	10223.46
456.91	10619.01
457.09	10576.88
457.28	10637.73
457.46	10321.76
457.64	10544.11
457.83	10621.35
458.01	10670.50
458.19	10752.42
458.38	10698.59
458.56	10871.79
458.74	10787.53
458.93	10855.40
459.11	10930.30
459.29	10745.40
459.48	10712.63
459.66	10899.87
459.84	10942.00
460.03	11229.89
460.21	11007.54
460.39	11133.93
460.57	10904.56
460.76	11084.78
460.94	11330.53
461.12	11382.03
461.31	11183.08
461.49	11246.27
461.67	11222.87
461.85	11318.83
462.04	11239.25
462.22	11950.78
462.40	11609.06
462.59	11784.60
462.77	11466.28
462.95	11910.99
463.13	11702.68
463.32	11747.15
463.50	11941.41
463.68	11845.45
463.86	11981.20
464.05	11620.76
464.23	11667.57
464.41	11845.45
464.59	11857.15
464.78	12194.19
464.96	12028.01
465.14	11812.68
465.32	12252.70
465.50	12023.33
465.69	12248.02
465.87	12334.62
466.05	12374.41
466.23	12393.14
466.41	12238.66
466.60	12681.02
466.78	12224.62
466.96	12325.26
467.14	12311.22
467.32	12479.74
467.51	12748.90
467.69	12287.81
467.87	12564.00
468.05	12697.41
468.23	12472.71
468.41	12678.68
468.60	12725.49
468.78	12877.63
468.96	12732.51
469.14	13029.76
469.32	12856.56
469.50	12533.57
469.69	13055.51
469.87	12910.40
470.05	13593.83
470.23	13174.88
470.41	13247.43
470.59	13345.73
470.77	13245.09
470.95	13432.33
471.14	13680.43
471.32	13355.10
471.50	13458.08
471.68	13710.86
471.86	13825.54
472.04	13848.95
472.22	13830.23
472.40	13855.97
472.58	13994.06
472.77	13916.83
472.95	14022.15
473.13	14920.92
473.31	14115.77
473.49	14288.97
473.67	14326.42
473.85	14340.46
474.03	14785.16
474.21	14633.03
474.39	14806.23
474.57	14934.96
474.75	15145.61
474.93	15417.11
475.12	15115.18
475.30	15316.47
475.48	15117.52
475.66	15674.57
475.84	15302.42
476.02	15599.67
476.20	15602.01
476.38	16123.95
476.56	16009.26
476.74	16276.09
476.92	16119.27
477.10	16248.00
477.28	16470.35
477.46	16397.79
477.64	16395.45
477.82	16582.70
478.00	17015.69
478.18	16678.66
478.36	17219.32
478.54	17551.68
478.72	17092.93
478.90	17741.26
479.08	17689.77
479.26	17860.63
479.44	18085.32
479.62	18075.96
479.80	18029.15
479.98	18363.84
480.16	18843.65
480.34	18216.39
480.52	18665.77
480.70	18745.35
480.88	18633.00
481.06	18904.51
481.24	19176.01
481.41	19082.39
481.59	19410.06
481.77	19433.47
481.95	19824.34
482.13	20187.12
482.31	19878.17
482.49	20233.93
482.67	20482.03
482.85	20362.66
483.03	20482.03
483.21	21198.23
483.39	20980.56
483.57	21027.37
483.74	21553.99
483.92	21465.05
484.10	21266.11
484.28	22101.68
484.46	22272.54
484.64	22448.08
484.82	21986.99
485.00	22319.35
485.18	22918.53
485.35	22934.91
485.53	23194.71
485.71	22991.08
485.89	23655.79
486.07	23894.53
486.25	23985.81
486.43	23779.84
486.61	23807.93
486.78	24166.03
486.96	24470.30
487.14	24725.42
487.32	24769.89
487.50	25078.84
487.68	25081.18
487.85	25308.21
488.03	25940.16
488.21	26108.68
488.39	26106.34
488.57	26228.04
488.75	26466.78
488.92	26527.63
489.10	26773.39
489.28	26974.67
489.46	27215.75
489.64	27431.08
489.81	27665.13
489.99	27679.18
490.17	28196.43
490.35	28243.24
490.53	28526.45
490.70	28748.80
490.88	28353.25
491.06	28863.49
491.24	29322.23
491.41	29109.24
491.59	29773.95
491.77	29303.51
491.95	29460.32
492.13	30197.59
492.30	30199.93
492.48	30132.06
492.66	30651.66
492.84	30677.40
493.01	30845.92
493.19	30618.89
493.37	31438.08
493.54	31510.63
493.72	31899.16
493.90	31548.08
494.08	32081.72
494.25	32275.99
494.43	32699.62
494.61	32678.56
494.79	32594.30
494.96	32683.24
495.14	32608.34
495.32	33584.35
495.49	33628.82
495.67	33369.02
495.85	34108.63
496.02	33666.27
496.20	33961.17
496.38	34440.98
496.55	34621.20
496.73	34916.11
496.91	34679.72
497.09	35318.68
497.26	35522.31
497.44	35381.88
497.62	35775.09
497.79	36093.40
497.97	35943.61
498.14	36388.31
498.32	36479.59
498.50	36304.05
498.67	37221.54
498.85	36397.67
499.03	37408.78
499.20	36975.78
499.38	37535.17
499.56	37607.73
499.73	37661.56
499.91	37614.75
500.08	38096.90
500.26	37525.81
500.44	38232.65
500.61	38260.74
500.79	37825.40
500.97	38274.78
501.14	38883.32
501.32	38653.95
501.49	38604.80
501.67	39056.52
501.84	38955.88
502.02	39564.42
502.20	39267.17
502.37	39423.98
502.55	38976.94
502.72	39981.03
502.90	39688.46
503.07	39503.56
503.25	40161.25
503.43	39964.65
503.60	40502.97
503.78	40964.06
503.95	40453.82
504.13	40446.80
504.30	40683.19
504.48	40987.46
504.65	41275.35
504.83	41528.13
505.01	41713.03
505.18	41333.86
505.36	42148.37
505.53	41441.53
505.71	41703.67
505.88	42202.20
506.06	41914.31
506.23	42447.96
506.41	42190.50
506.58	42590.73
506.76	42651.58
506.93	43103.31
507.11	42866.91
507.28	43009.68
507.46	43117.35
507.63	43316.29
507.81	43613.54
507.98	43592.48
508.16	43533.96
508.33	43498.86
508.50	43782.06
508.68	43943.56
508.85	44664.44
509.03	43941.22
509.20	44203.36
509.38	44519.33
509.55	44509.97
509.73	44631.68
509.90	44877.43
510.08	45038.93
510.25	45130.21
510.42	45179.36
510.60	45322.13
510.77	45120.85
510.95	45621.72
511.12	45448.52
511.30	45322.13
511.47	45455.54
511.64	45846.41
511.82	46366.01
511.99	45867.48
512.17	46417.50
512.34	46087.49
512.51	46897.31
512.69	46834.12
512.86	46658.58
513.04	46913.70
513.21	46883.27
513.38	46670.28
513.56	47248.39
513.73	46883.27
513.90	47421.59
514.08	47292.86
514.25	47463.72
514.43	47800.76
514.60	48109.71
514.77	47896.72
514.95	47913.11
515.12	47749.27
515.29	48100.35
515.47	48076.94
515.64	48306.32
515.81	48280.57
515.99	48650.38
516.16	48542.71
516.33	48669.10
516.51	48905.49
516.68	48751.02
516.85	49144.23
517.03	49160.61
517.20	48863.36
517.37	48680.80
517.54	49282.32
517.72	49439.14
517.89	49481.27
518.06	49382.96
518.24	49422.75
518.41	49544.46
518.58	49595.95
518.75	49425.09
518.93	49745.75
519.10	49661.49
519.27	49846.39
519.45	50085.12
519.62	50272.37
519.79	50263.00
519.96	50061.72
520.14	50562.59
520.31	50475.99
520.48	50408.12
520.65	50571.96
520.83	51044.74
521.00	50939.42
521.17	50824.73
521.34	50710.05
521.52	51119.64
521.69	51129.00
521.86	51496.47
522.03	51358.38
522.20	51945.85
522.38	51681.37
522.55	51639.24
522.72	51611.15
522.89	51510.51
523.07	52062.88
523.24	51810.10
523.41	51767.97
523.58	51669.67
523.75	52374.17
523.92	52236.08
524.10	52243.10
524.27	52205.65
524.44	52147.14
524.61	52301.61
524.78	52416.30
524.96	52432.68
525.13	52743.97
525.30	52624.60
525.47	53024.84
525.64	52914.83
525.81	52971.00
525.98	52966.32
526.16	52788.44
526.33	52914.83
526.50	53240.17
526.67	53057.60
526.84	53202.72
527.01	53230.80
527.18	53139.52
527.36	53057.60
527.53	53249.53
527.70	53797.21
527.87	53773.81
528.04	53167.61
528.21	53675.51
528.38	53727.00
528.55	53593.59
528.72	53865.09
528.89	53848.71
529.07	53633.38
529.24	53497.62
529.41	53764.45
529.58	53965.73
529.75	53783.17
529.92	54099.14
530.09	54075.74
530.26	54131.91
530.43	54096.80
530.60	54232.55
530.77	54024.25
530.94	54672.57
531.11	54291.07
531.28	54525.12
531.46	54300.43
531.63	54611.72
531.80	54351.92
531.97	54637.47
532.14	54745.13
532.31	54646.83
532.48	54698.32
532.65	55002.59
532.82	54756.83
532.99	54756.83
533.16	55257.71
533.33	55014.29
533.50	55302.18
533.67	55068.12
533.84	55128.98
534.01	55126.64
534.18	55091.53
534.35	55442.61
534.52	55346.65
534.69	55611.13
534.86	55526.87
535.03	55194.51
535.20	55529.21
535.37	55849.86
535.54	55522.19
535.71	55414.52
535.88	55468.36
536.05	55887.31
536.22	55884.97
536.38	55976.25
536.55	55873.27
536.72	55732.84
536.89	55718.79
537.06	56030.08
537.23	56013.70
537.40	55868.59
537.57	55924.76
537.74	56315.63
537.91	56002.00
538.08	56086.26
538.25	55810.07
538.42	56034.77
538.59	56371.80
538.75	56088.60
538.92	56268.82
539.09	56509.89
539.26	56456.06
539.43	56184.56
539.60	56418.61
539.77	56633.94
539.94	56657.35
540.11	56451.38
540.28	56669.05
540.44	56612.88
540.61	56495.85
540.78	56484.15
540.95	56650.33
541.12	56713.52
541.29	56545.00
541.46	56832.89
541.62	56793.10
541.79	57001.41
541.96	56563.73
542.13	56858.63
542.30	56914.81
542.47	57010.77
542.63	57092.69
542.80	57099.71
542.97	56989.70
543.14	57359.51
543.31	57301.00
543.48	57354.83
543.64	57614.63
543.81	57521.01
543.98	57495.26
544.15	57399.30
544.32	57631.01
544.48	57897.83
544.65	57425.04
544.82	57572.50
544.99	57513.98
545.16	57792.51
545.32	57645.05
545.49	57956.35
545.66	58064.01
545.83	57752.72
546.00	57846.34
546.16	58010.18
546.33	57773.78
546.50	57471.85
546.67	58085.07
546.83	57778.46
547.00	58021.88
547.17	58117.84
547.34	58085.07
547.50	58113.16
547.67	58597.65
547.84	58330.83
548.00	58155.29
548.17	58433.81
548.34	58513.39
548.51	58564.88
548.67	58319.13
548.84	58375.30
549.01	58398.71
549.18	58279.34
549.34	58136.57
549.51	58443.18
549.68	58408.07
549.84	58721.70
550.01	58548.50
550.18	58560.20
550.34	58571.91
550.51	58768.51
550.68	58611.70
550.84	58555.52
551.01	58665.53
551.18	58735.74
551.34	58789.58
551.51	58710.00
551.68	58623.40
551.84	58635.10
552.01	58473.60
552.18	58986.18
552.34	58611.70
552.51	59070.44
552.68	58742.77
552.84	59028.31
553.01	59075.12
553.18	58995.54
553.34	58939.37
553.51	59114.91
553.67	58979.16
553.84	59250.66
554.01	59199.17
554.17	59154.70
554.34	59192.15
554.51	59051.72
554.67	59526.84
554.84	59227.26
555.00	59245.98
555.17	59229.60
555.33	59119.59
555.50	59189.81
555.67	59199.17
555.83	59210.87
556.00	59168.74
556.16	59678.98
556.33	59664.94
556.50	59622.81
556.66	59505.78
556.83	59512.80
556.99	59540.89
557.16	59702.38
557.32	59805.37
557.49	59770.26
557.65	59391.09
557.82	59814.73
557.98	59772.60
558.15	59557.27
558.32	59697.70
558.48	59608.76
558.65	59765.58
558.81	59660.26
558.98	59641.53
559.14	59763.24
559.31	59861.54
559.47	59791.33
559.64	59997.29
559.80	60041.76
559.97	59678.98
560.13	59913.03
560.30	59913.03
560.46	59906.01
560.63	59980.91
560.79	59849.84
560.96	60219.64
561.12	60172.83
561.29	59927.08
561.45	59898.99
561.61	59948.14
561.78	60135.38
561.94	59884.95
562.11	60214.96
562.27	60069.85
562.44	60353.05
562.60	60280.50
562.77	60219.64
562.93	59913.03
563.10	60193.90
563.26	59784.30
563.42	60484.12
563.59	60133.04
563.75	59917.71
563.92	60189.22
564.08	60217.30
564.24	60238.37
564.41	60369.44
564.57	60271.14
564.74	60343.69
564.90	60285.18
565.07	60399.86
565.23	60303.90
565.39	60355.39
565.56	60313.26
565.72	60247.73
565.88	60207.94
566.05	60425.61
566.21	60395.18
566.38	60509.87
566.54	60348.37
566.70	60699.45
566.87	60495.83
567.03	60369.44
567.19	60671.37
567.36	60427.95
567.52	60507.53
567.68	60748.60
567.85	60430.29
568.01	60554.34
568.17	60463.06
568.34	60612.85
568.50	60636.26
568.66	60507.53
568.83	60638.60
568.99	60591.79
569.15	60484.12
569.32	60605.83
569.48	60589.45
569.64	60631.58
569.81	60713.50
569.97	60434.97
570.13	60589.45
570.30	60477.10
570.46	60638.60
570.62	60872.65
570.78	60828.18
570.95	60526.25
571.11	60977.98
571.27	60722.86
571.43	60676.05
571.60	60842.23
571.76	60802.44
571.92	60872.65
572.09	60800.10
572.25	60542.64
572.41	60626.90
572.57	60942.87
572.74	60818.82
572.90	60800.10
573.06	60816.48
573.22	60924.14
573.38	60811.80
573.55	60804.78
573.71	61062.24
573.87	60872.65
574.03	60582.43
574.20	60945.21
574.36	60907.76
574.52	60867.97
574.68	60985.00
574.84	60959.25
575.01	61038.83
575.17	60917.12
575.33	60942.87
575.49	60945.21
575.65	60788.39
575.82	60994.36
575.98	61052.87
576.14	61125.43
576.30	60928.83
576.46	60949.89
576.62	60781.37
576.79	60956.91
576.95	60697.11
577.11	61132.45
577.27	60996.70
577.43	60879.67
577.59	60659.66
577.75	60867.97
577.92	60699.45
578.08	60977.98
578.24	60961.59
578.40	61045.85
578.56	61305.65
578.72	60879.67
578.88	61127.77
579.04	61083.30
579.21	61167.56
579.37	61268.20
579.53	61310.33
579.69	61127.77
579.85	61207.35
580.01	61146.50
580.17	60767.33
580.33	61045.85
580.49	61244.80
580.65	60959.25
580.82	61041.17
580.98	61080.96
581.14	60961.59
581.30	61235.44
581.46	61006.06
581.62	61036.49
581.78	61095.00
581.94	61158.20
582.10	61031.81
582.26	60926.49
582.42	61104.37
582.58	61109.05
582.74	61062.24
582.90	61099.68
583.06	61183.94
583.22	61048.19
583.38	60992.02
583.54	61038.83
583.70	61146.50
583.86	61322.04
584.02	61043.51
584.18	61200.33
584.34	61179.26
584.50	61205.01
584.66	61057.56
584.82	60966.27
584.98	61286.93
585.14	61207.35
585.30	61148.84
585.46	61172.24
585.62	61083.30
585.78	61230.75
585.94	61066.92
586.10	61043.51
586.26	61249.48
586.42	61345.44
586.58	61352.46
586.74	61343.10
586.90	61172.24
587.06	61169.90
587.22	61680.14
587.38	61197.99
587.54	61305.65
587.70	61373.53
587.86	61055.21
588.02	61249.48
588.18	61319.70
588.34	60970.96
588.49	61223.73
