SpectraSuite Data File
++++++++++++++++++++++++++++++++++++
Date: Fri Oct 25 10:47:50 EDT 2013
User: price-jones
Dark Spectrum Present: No
Reference Spectrum Present: No
Number of Sampled Component Spectra: 1
Spectrometers: USB2+H05261
Integration Time (usec): 100000 (USB2+H05261)
Spectra Averaged: 1 (USB2+H05261)
Boxcar Smoothing: 0 (USB2+H05261)
Correct for Electrical Dark: No (USB2+H05261)
Strobe/Lamp Enabled: No (USB2+H05261)
Correct for Detector Non-linearity: No (USB2+H05261)
Correct for Stray Light: No (USB2+H05261)
Number of Pixels in Processed Spectrum: 2048
>>>>>Begin Processed Spectral Data<<<<<
365.73	112.35
365.92	112.35
366.12	112.35
366.32	95.96
366.52	42.13
366.72	58.51
366.91	30.43
367.11	37.45
367.31	58.51
367.51	56.17
367.70	93.62
367.90	53.83
368.10	58.51
368.30	79.58
368.49	46.81
368.69	102.98
368.89	121.71
369.09	72.56
369.28	145.11
369.48	30.43
369.68	105.32
369.87	37.45
370.07	138.09
370.27	128.73
370.47	201.29
370.66	372.15
370.86	447.04
371.06	390.87
371.25	503.22
371.45	381.51
371.65	507.90
371.84	461.09
372.04	500.87
372.24	482.15
372.44	496.19
372.63	454.06
372.83	475.13
373.03	454.06
373.22	566.41
373.42	484.49
373.62	519.60
373.81	447.04
374.01	552.37
374.21	568.75
374.40	545.34
374.60	585.13
374.79	472.79
374.99	575.77
375.19	587.47
375.38	561.73
375.58	608.54
375.78	603.86
375.97	564.07
376.17	690.46
376.37	547.69
376.56	575.77
376.76	573.43
376.95	596.84
377.15	641.31
377.35	603.86
377.54	601.52
377.74	552.37
377.93	599.18
378.13	559.39
378.33	601.52
378.52	606.20
378.72	566.41
378.91	627.26
379.11	643.65
379.31	568.75
379.50	596.84
379.70	681.10
379.89	720.88
380.09	695.14
380.28	669.39
380.48	737.27
380.68	697.48
380.87	615.56
381.07	629.60
381.26	657.69
381.46	732.59
381.65	692.80
381.85	627.26
382.04	671.73
382.24	732.59
382.43	709.18
382.63	660.03
382.83	702.16
383.02	781.74
383.22	730.25
383.41	711.52
383.61	718.54
383.80	779.40
384.00	739.61
384.19	746.63
384.39	739.61
384.58	711.52
384.78	699.82
384.97	847.27
385.17	837.91
385.36	826.21
385.56	774.72
385.75	697.48
385.95	812.17
386.14	835.57
386.34	779.40
386.53	772.38
386.72	805.14
386.92	854.30
387.11	753.65
387.31	826.21
387.50	802.80
387.70	786.42
387.89	809.83
388.09	807.48
388.28	875.36
388.48	805.14
388.67	837.91
388.86	870.68
389.06	823.87
389.25	858.98
389.45	880.04
389.64	915.15
389.84	917.49
390.03	915.15
390.22	901.11
390.42	884.72
390.61	875.36
390.81	957.28
391.00	936.21
391.19	933.87
391.39	861.32
391.58	954.94
391.78	997.07
391.97	985.37
392.16	950.26
392.36	1013.45
392.55	1029.84
392.75	968.98
392.94	952.60
393.13	903.45
393.33	980.68
393.52	1004.09
393.71	1060.26
393.91	1029.84
394.10	1034.52
394.29	1001.75
394.49	1020.47
394.68	1149.20
394.88	1142.18
395.07	1074.31
395.26	1142.18
395.46	1081.33
395.65	1078.99
395.84	1226.44
396.04	1160.91
396.23	1086.01
396.42	987.71
396.62	1104.73
396.81	1167.93
397.00	1111.75
397.19	1093.03
397.39	1146.86
397.58	1268.57
397.77	1181.97
397.97	1341.13
398.16	1266.23
398.35	1345.81
398.55	1275.59
398.74	1273.25
398.93	1376.24
399.12	1320.06
399.32	1404.32
399.51	1430.07
399.70	1432.41
399.90	1404.32
400.09	1476.88
400.28	1413.68
400.47	1444.11
400.67	1488.58
400.86	1605.61
401.05	1516.67
401.24	1488.58
401.44	1425.39
401.63	1570.50
401.82	1467.52
402.01	1465.18
402.21	1481.56
402.40	1643.06
402.59	1481.56
402.78	1469.86
402.97	1652.42
403.17	1584.54
403.36	1582.20
403.55	1554.12
403.74	1645.40
403.93	1577.52
404.13	1685.19
404.32	1593.90
404.51	1685.19
404.70	1619.65
404.89	1654.76
405.09	1804.55
405.28	1732.00
405.47	1809.23
405.66	1727.32
405.85	1893.49
406.05	1757.74
406.24	1832.64
406.43	1722.63
406.62	1959.03
406.81	1884.13
407.00	1790.51
407.20	1851.36
407.39	1755.40
407.58	1940.30
407.77	1921.58
407.96	1895.83
408.15	1919.24
408.34	1975.41
408.54	1959.03
408.73	2073.71
408.92	2066.69
409.11	2054.99
409.30	1987.11
409.49	2017.54
409.68	1982.43
409.87	2029.24
410.07	2054.99
410.26	2120.53
410.45	2136.91
410.64	2143.93
410.83	2260.96
411.02	2277.34
411.21	2277.34
411.40	2284.36
411.59	2338.20
411.78	2256.28
411.98	2396.71
412.17	2354.58
412.36	2375.64
412.55	2399.05
412.74	2399.05
412.93	2490.33
413.12	2314.79
413.31	2511.39
413.50	2588.63
413.69	2485.65
413.88	2619.06
414.07	2541.82
414.26	2612.04
414.45	2619.06
414.64	2722.04
414.83	2628.42
415.02	2799.28
415.22	2818.00
415.41	2874.18
415.60	2686.94
415.79	2726.72
415.98	2902.26
416.17	2913.97
416.36	2778.22
416.55	2822.69
416.74	2916.31
416.93	2979.50
417.12	2953.76
417.31	3110.57
417.50	3033.33
417.69	3068.44
417.88	3061.42
418.07	3145.68
418.26	3066.10
418.45	3049.72
418.64	3155.04
418.83	3126.96
419.02	3129.30
419.21	3236.96
419.39	3225.26
419.58	3316.54
419.77	3215.90
419.96	3351.65
420.15	3222.92
420.34	3304.84
420.53	3400.80
420.72	3421.86
420.91	3339.94
421.10	3421.86
421.29	3377.39
421.48	3414.84
421.67	3543.57
421.86	3396.12
422.05	3412.50
422.24	3449.95
422.43	3492.08
422.61	3466.33
422.80	3651.24
422.99	3550.59
423.18	3531.87
423.37	3508.46
423.56	3693.37
423.75	3459.31
423.94	3545.91
424.13	3351.65
424.32	3466.33
424.50	3585.70
424.69	3765.92
424.88	3730.81
425.07	3637.19
425.26	3440.59
425.45	3414.84
425.64	3571.66
425.83	3541.23
426.01	3545.91
426.20	3618.47
426.39	3735.50
426.58	3646.55
426.77	3606.77
426.96	3583.36
427.15	3611.45
427.33	3791.67
427.52	3597.40
427.71	3721.45
427.90	3719.11
428.09	3737.84
428.28	3768.26
428.46	3808.05
428.65	3775.28
428.84	3829.12
429.03	3896.99
429.22	3763.58
429.40	3712.09
429.59	3812.73
429.78	3712.09
429.97	3566.98
430.16	3815.07
430.34	3927.42
430.53	3859.54
430.72	3929.76
430.91	3829.12
431.10	3985.93
431.28	4042.11
431.47	4163.81
431.66	4149.77
431.85	4039.76
432.03	4208.28
432.22	4395.53
432.41	4145.09
432.60	4219.99
432.79	4259.78
432.97	4290.20
433.16	4168.49
433.35	4205.94
433.54	4402.55
433.72	4224.67
433.91	4252.75
434.10	4285.52
434.28	4271.48
434.47	4304.25
434.66	4582.77
434.85	4423.61
435.03	4535.96
435.22	4526.60
435.41	4617.88
435.59	4622.56
435.78	4484.47
435.97	4521.92
436.16	4524.26
436.34	4641.28
436.53	4695.11
436.72	4784.06
436.90	4596.81
437.09	4692.77
437.28	4561.70
437.46	4716.18
437.65	4620.22
437.84	4814.48
438.02	4662.35
438.21	4674.05
438.40	4674.05
438.58	4844.91
438.77	4922.15
438.96	4755.97
439.14	4987.68
439.33	4919.81
439.52	5179.61
439.70	5151.52
439.89	5055.56
440.08	5102.37
440.26	5181.95
440.45	5296.63
440.63	5399.62
440.82	5331.74
441.01	5322.38
441.19	5315.36
441.38	5341.10
441.57	5364.51
441.75	5518.98
441.94	5689.84
442.12	5738.99
442.31	5572.82
442.50	5605.58
442.68	5617.29
442.87	5621.97
443.05	5757.72
443.24	5806.87
443.43	5891.13
443.61	5888.79
443.80	5947.30
443.98	5645.37
444.17	5591.54
444.35	5891.13
444.54	6001.13
444.73	6099.44
444.91	5951.98
445.10	6005.81
445.28	5923.90
445.47	5729.63
445.65	5825.59
445.84	5951.98
446.02	6045.60
446.21	5977.73
446.39	5909.85
446.58	5902.83
446.77	6052.63
446.95	5816.23
447.14	5977.73
447.32	6106.46
447.51	5874.74
447.69	6019.86
447.88	6160.29
448.06	6127.52
448.25	5980.07
448.43	6064.33
448.62	6026.88
448.80	6010.50
448.99	6001.13
449.17	6171.99
449.36	6155.61
449.54	6176.67
449.73	6356.90
449.91	6321.79
450.10	6197.74
450.28	6462.22
450.46	6422.43
450.65	6494.99
450.83	6604.99
451.02	6293.70
451.20	6394.34
451.39	6434.13
451.57	6630.74
451.76	6368.60
451.94	6588.61
452.13	6427.11
452.31	6558.18
452.49	6427.11
452.68	6651.80
452.86	6483.28
453.05	6490.31
453.23	6665.85
453.42	6590.95
453.60	6494.99
453.78	6736.06
453.97	6595.63
454.15	6539.46
454.34	6684.57
454.52	6729.04
454.70	6616.69
454.89	6754.79
455.07	6881.18
455.26	6913.94
455.44	6991.18
455.62	6792.23
455.81	7040.33
455.99	7119.91
456.17	7073.10
456.36	6958.41
456.54	7246.30
456.73	7227.57
456.91	7360.98
457.09	7241.62
457.28	7314.17
457.46	7218.21
457.64	7328.22
457.83	7265.02
458.01	7241.62
458.19	7564.61
458.38	7368.01
458.56	7541.21
458.74	7421.84
458.93	7459.29
459.11	7602.06
459.29	7590.36
459.48	7435.88
459.66	7346.94
459.84	7726.11
460.03	7824.41
460.21	7632.49
460.39	7850.16
460.57	7950.80
460.76	7765.90
460.94	7880.58
461.12	7861.86
461.31	7819.73
461.49	7833.77
461.67	7674.62
461.85	7967.18
462.04	7845.48
462.22	8346.35
462.40	7887.61
462.59	8119.32
462.77	7875.90
462.95	8154.43
463.13	8030.38
463.32	8004.63
463.50	8131.02
463.68	8067.83
463.86	8402.52
464.05	8149.75
464.23	8163.79
464.41	8131.02
464.59	8011.65
464.78	8301.88
464.96	8299.54
465.14	8086.55
465.32	8503.17
465.50	8446.99
465.69	8264.43
465.87	8313.58
466.05	8425.93
466.23	8341.67
466.41	8374.44
466.60	8667.00
466.78	8222.30
466.96	8262.09
467.14	8428.27
467.32	8425.93
467.51	8739.56
467.69	8351.03
467.87	8617.85
468.05	8634.24
468.23	8594.45
468.41	8636.58
468.60	8704.45
468.78	8819.14
468.96	8650.62
469.14	8769.99
469.32	8767.65
469.50	8795.73
469.69	8929.14
469.87	9191.28
470.05	8980.64
470.23	8994.68
470.41	8889.35
470.59	9153.84
470.77	9062.55
470.95	9100.00
471.14	9076.60
471.32	9048.51
471.50	9343.42
471.68	9254.48
471.86	9350.44
472.04	9582.15
472.22	9708.54
472.40	9331.72
472.58	9465.13
472.77	9404.27
472.95	9497.89
473.13	9851.31
473.31	9525.98
473.49	9488.53
473.67	9593.86
473.85	9764.72
474.03	9678.12
474.21	9848.97
474.39	9858.34
474.57	10120.48
474.75	10125.16
474.93	10085.37
475.12	10171.97
475.30	10382.62
475.48	10111.11
475.66	10270.27
475.84	10312.40
476.02	10324.10
476.20	10501.98
476.38	10602.63
476.56	10724.33
476.74	10679.86
476.92	10609.65
477.10	10745.40
477.28	10967.75
477.46	10911.58
477.64	11014.56
477.82	11295.43
478.00	11389.05
478.18	11475.65
478.36	11335.21
478.54	11639.48
478.72	11630.12
478.90	11819.71
479.08	11651.19
479.26	11831.41
479.44	12049.08
479.62	12159.08
479.80	12121.63
479.98	12269.09
480.16	12369.73
480.34	12369.73
480.52	12608.47
480.70	12306.54
480.88	12142.70
481.06	12533.57
481.24	12491.44
481.41	12762.94
481.59	12943.16
481.77	13130.41
481.95	13011.04
482.13	13425.31
482.31	13153.81
482.49	13371.48
482.67	13542.34
482.85	13834.91
483.03	13769.37
483.21	13905.12
483.39	14413.02
483.57	14057.26
483.74	14464.51
483.92	14246.84
484.10	14246.84
484.28	14281.95
484.46	14780.48
484.64	15098.80
484.82	14647.07
485.00	14824.95
485.18	15185.40
485.35	15234.55
485.53	15199.44
485.71	15063.69
485.89	15419.45
486.07	15435.83
486.25	15442.85
486.43	15672.23
486.61	15482.64
486.78	15971.82
486.96	16088.84
487.14	16418.86
487.32	16343.96
487.50	16446.94
487.68	16601.42
487.85	16847.18
488.03	17011.01
488.21	17247.41
488.39	17429.97
488.57	17172.51
488.75	17137.40
488.92	17486.14
489.10	17448.69
489.28	17694.45
489.46	18389.59
489.64	18169.58
489.81	18214.05
489.99	18328.74
490.17	18616.62
490.35	18899.83
490.53	18595.56
490.70	18782.80
490.88	18670.45
491.06	19080.05
491.24	19133.88
491.41	19396.02
491.59	19295.38
491.77	19477.94
491.95	19403.04
492.13	20004.56
492.30	19709.65
492.48	19812.63
492.66	19978.81
492.84	20006.90
493.01	20629.48
493.19	20159.03
493.37	20680.97
493.54	20617.78
493.72	20783.96
493.90	20821.41
494.08	20957.16
494.25	21221.64
494.43	21336.32
494.61	21390.16
494.79	21680.38
494.96	21565.70
495.14	21645.27
495.32	21715.49
495.49	21986.99
495.67	21923.80
495.85	22415.31
496.02	22672.77
496.20	22696.17
496.38	22492.55
496.55	22656.39
496.73	22998.10
496.91	22721.92
497.09	22906.82
497.26	22993.42
497.44	23037.89
497.62	23377.27
497.79	23438.12
497.97	23714.31
498.14	23515.36
498.32	23974.11
498.50	23707.29
498.67	24020.92
498.85	23868.78
499.03	24273.70
499.20	24095.82
499.38	24229.23
499.56	24269.01
499.73	24629.46
499.91	24381.36
500.08	24556.90
500.26	24559.24
500.44	25233.32
500.61	25053.09
500.79	24664.57
500.97	25312.89
501.14	25338.64
501.32	25090.54
501.49	25170.12
501.67	25188.85
501.84	25355.02
502.02	25315.23
502.20	25881.64
502.37	25916.75
502.55	25907.39
502.72	25816.11
502.90	25855.90
503.07	25989.31
503.25	25937.82
503.43	26342.73
503.60	26185.91
503.78	26389.54
503.95	26129.74
504.13	26293.58
504.30	26366.13
504.48	26094.63
504.65	27030.85
504.83	26909.14
505.01	26864.67
505.18	27372.57
505.36	27199.37
505.53	26848.29
505.71	27473.21
505.88	27667.47
506.06	27360.86
506.23	27576.19
506.41	27173.62
506.58	27721.30
506.76	27814.93
506.93	28308.78
507.11	27835.99
507.28	28016.21
507.46	27990.47
507.63	28048.98
507.81	28577.94
507.98	28027.92
508.16	28453.89
508.33	28231.54
508.50	28788.59
508.68	28938.38
508.85	28868.17
509.03	28875.19
509.20	28814.34
509.38	29181.80
509.55	29151.37
509.73	29263.72
509.90	29230.95
510.08	29670.97
510.25	29200.52
510.42	29317.55
510.60	29886.30
510.77	29628.84
510.95	29956.52
511.12	29940.13
511.30	30141.42
511.47	30361.43
511.64	30391.86
511.82	30288.87
511.99	29993.97
512.17	30405.90
512.34	30169.51
512.51	30438.67
512.69	30810.81
512.86	30529.95
513.04	31131.47
513.21	30675.06
513.38	30450.37
513.56	30707.83
513.73	30593.14
513.90	31094.02
514.08	30979.33
514.25	31122.10
514.43	31194.66
514.60	31173.60
514.77	31129.12
514.95	31424.03
515.12	31564.46
515.29	31524.68
515.47	31969.38
515.64	31964.70
515.81	31491.91
515.99	31880.44
516.16	31669.79
516.33	31833.63
516.51	32257.26
516.68	31536.38
516.85	31512.97
517.03	31945.97
517.20	31974.06
517.37	32217.47
517.54	32423.44
517.72	32161.30
517.89	32039.59
518.06	32212.79
518.24	32652.81
518.41	32210.45
518.58	32659.84
518.75	32697.28
518.93	33001.55
519.10	32989.85
519.27	32811.97
519.45	33055.39
519.62	33385.40
519.79	33060.07
519.96	33350.29
520.14	33333.91
520.31	33223.90
520.48	33528.17
520.65	33422.85
520.83	33993.94
521.00	33862.87
521.17	33268.37
521.34	33558.60
521.52	34050.11
521.69	33965.85
521.86	34359.06
522.03	34188.21
522.20	34073.52
522.38	34600.14
522.55	34581.42
522.72	34373.11
522.89	33958.83
523.07	34548.65
523.24	34668.02
523.41	34628.23
523.58	34712.49
523.75	35115.06
523.92	35164.21
524.10	35234.42
524.27	35306.98
524.44	35325.71
524.61	35157.19
524.78	35501.25
524.96	35475.50
525.13	35379.54
525.30	35442.73
525.47	35821.90
525.64	35562.10
525.81	36009.14
525.98	35824.24
526.16	35695.51
526.33	35592.53
526.50	35335.07
526.67	35744.66
526.84	35693.17
527.01	35601.89
527.18	35566.78
527.36	35974.03
527.53	36020.84
527.70	36439.80
527.87	36685.56
528.04	36273.62
528.21	36428.10
528.38	36128.51
528.55	36353.20
528.72	36374.27
528.89	36622.36
529.07	36524.06
529.24	36226.81
529.41	36938.33
529.58	36411.71
529.75	36659.81
529.92	36943.02
530.09	36844.71
530.26	37088.13
530.43	37207.50
530.60	36627.04
530.77	37390.06
530.94	37366.65
531.11	36980.46
531.28	37373.67
531.46	37282.39
531.63	37516.45
531.80	37649.86
531.97	37757.52
532.14	37631.13
532.31	37308.14
532.48	37670.92
532.65	37851.14
532.82	37209.84
532.99	38059.45
533.16	37603.05
533.33	38220.95
533.50	38082.86
533.67	37701.35
533.84	37809.01
534.01	38209.25
534.18	37923.70
534.35	38153.07
534.52	38204.56
534.69	38132.01
534.86	38342.66
535.03	38061.79
535.20	38515.86
535.37	38670.33
535.54	39119.71
535.71	38424.57
535.88	38806.08
536.05	38384.79
536.22	38710.12
536.38	38892.68
536.55	38618.84
536.72	38747.57
536.89	38415.21
537.06	38312.23
537.23	38752.25
537.40	38548.62
537.57	38813.10
537.74	38820.13
537.91	39524.63
538.08	39405.26
538.25	38696.08
538.42	39086.95
538.59	39599.52
538.75	38426.92
538.92	39173.55
539.09	39550.37
539.26	39398.24
539.43	39648.68
539.60	39262.49
539.77	39704.85
539.94	39402.92
540.11	39725.91
540.28	39688.46
540.44	39419.30
540.61	39934.22
540.78	39578.46
540.95	39484.84
541.12	39171.21
541.29	39924.86
541.46	39468.45
541.62	39931.88
541.79	40156.57
541.96	39562.08
542.13	40147.21
542.30	40112.10
542.47	40119.12
542.63	40060.61
542.80	40409.35
542.97	40605.95
543.14	40935.97
543.31	40521.69
543.48	40762.77
543.64	41085.76
543.81	40933.63
543.98	41027.25
544.15	40603.61
544.32	41359.61
544.48	41361.95
544.65	40982.78
544.82	41401.74
544.99	40355.52
545.16	41006.19
545.32	40830.65
545.49	41001.50
545.66	41425.14
545.83	41268.33
546.00	41790.27
546.16	40987.46
546.33	41134.92
546.50	40924.27
546.67	41560.89
546.83	40828.30
547.00	41240.24
547.17	41378.33
547.34	41319.82
547.50	41029.59
547.67	41596.00
547.84	41624.09
548.00	41457.91
548.17	41893.25
548.34	41294.07
548.51	41574.94
548.67	41752.82
548.84	42312.20
549.01	41914.31
549.18	41581.96
549.34	41617.07
549.51	42291.14
549.68	42106.24
549.84	42241.99
550.01	41930.70
550.18	42174.11
550.34	42218.58
550.51	41853.46
550.68	42513.49
550.84	41521.10
551.01	42003.25
551.18	42354.33
551.34	42234.97
551.51	42220.92
551.68	42347.31
551.84	42506.47
552.01	42108.58
552.18	42447.96
552.34	42387.10
552.51	42632.86
552.68	42120.28
552.84	42211.56
553.01	42686.69
553.18	42422.21
553.34	42499.45
553.51	42014.96
553.67	42572.00
553.84	42773.29
554.01	42838.83
554.17	43295.23
554.34	43068.20
554.51	42721.80
554.67	43159.48
554.84	43091.60
555.00	43028.41
555.17	43154.80
555.33	42979.26
555.50	42602.43
555.67	42969.90
555.83	43072.88
556.00	42829.46
556.16	43323.32
556.33	43119.69
556.50	43213.31
556.66	43241.40
556.83	42789.67
556.99	43206.29
557.16	43192.25
557.32	43838.23
557.49	43269.48
557.65	43295.23
557.82	43494.18
557.98	43393.53
558.15	43543.33
558.32	43805.47
558.48	43175.86
558.65	43756.32
558.81	43103.31
558.98	43660.35
559.14	43229.69
559.31	43641.63
559.47	43349.06
559.64	44053.56
559.80	44039.52
559.97	43793.76
560.13	43199.27
560.30	43552.69
560.46	43248.42
560.63	43557.37
560.79	43775.04
560.96	43973.98
561.12	43491.83
561.29	43768.02
561.45	43634.61
561.61	44055.90
561.78	43524.60
561.94	43819.51
562.11	43632.27
562.27	43739.93
562.44	43805.47
562.60	43964.62
562.77	43934.20
562.93	43992.71
563.10	44114.42
563.26	43384.17
563.42	44362.51
563.59	44224.42
563.75	43672.06
563.92	44023.14
564.08	43782.06
564.24	44079.31
564.41	43763.34
564.57	44189.31
564.74	43686.10
564.90	44126.12
565.07	44165.91
565.23	43922.49
565.39	43545.67
565.56	44058.24
565.72	43908.45
565.88	44222.08
566.05	44083.99
566.21	44095.69
566.38	44261.87
566.54	44271.23
566.70	44191.65
566.87	44594.23
567.03	44451.45
567.19	44332.09
567.36	44409.32
567.52	44041.86
567.68	44414.01
567.85	44133.14
568.01	44329.75
568.17	44065.27
568.34	44006.75
568.50	44191.65
568.66	44509.97
568.83	44362.51
568.99	44032.50
569.15	44500.61
569.32	44430.39
569.48	44301.66
569.64	44556.78
569.81	44470.18
569.97	44444.43
570.13	44390.60
570.30	44362.51
570.46	44168.25
570.62	43899.09
570.78	44332.09
570.95	44133.14
571.11	44341.45
571.27	44566.14
571.43	44409.32
571.60	44467.84
571.76	44147.18
571.92	44048.88
572.09	44596.57
572.25	44238.47
572.41	44552.10
572.57	44612.95
572.74	44779.13
572.90	44446.77
573.06	44783.81
573.22	44980.42
573.38	44531.03
573.55	44832.96
573.71	44554.44
573.87	44802.53
574.03	44575.50
574.20	44086.33
574.36	44921.90
574.52	44905.52
574.68	44999.14
574.84	45041.27
575.01	44334.43
575.17	44203.36
575.33	44809.56
575.49	44575.50
575.65	44886.79
575.82	44854.03
575.98	45052.97
576.14	44807.22
576.30	44949.99
576.46	44151.87
576.62	44524.01
576.79	44451.45
576.95	44217.40
577.11	44414.01
577.27	44732.32
577.43	44980.42
577.59	44268.89
577.75	44886.79
577.92	44421.03
578.08	44301.66
578.24	44526.35
578.40	44432.73
578.56	44769.77
578.72	44692.53
578.88	44732.32
579.04	44594.23
579.21	44268.89
579.37	44584.86
579.53	44563.80
579.69	44495.92
579.85	44381.24
580.01	44959.35
580.17	44481.88
580.33	44900.84
580.49	44926.58
580.65	44552.10
580.82	44835.30
580.98	44374.22
581.14	44608.27
581.30	44357.83
581.46	44856.37
581.62	44811.90
581.78	44769.77
581.94	44727.64
582.10	45198.09
582.26	44964.03
582.42	44779.13
582.58	44552.10
582.74	44795.51
582.90	45085.74
583.06	45242.56
583.22	44699.55
583.38	45006.16
583.54	44793.17
583.70	44975.73
583.86	44411.67
584.02	44687.85
584.18	45134.89
584.34	44767.43
584.50	44900.84
584.66	44917.22
584.82	44626.99
584.98	45317.45
585.14	44744.02
585.30	45059.99
585.46	44769.77
585.62	44474.86
585.78	44713.59
585.94	44268.89
586.10	44959.35
586.26	44926.58
586.42	44957.01
586.58	45013.18
586.74	44982.76
586.90	44964.03
587.06	44587.21
587.22	45069.36
587.38	44488.90
587.54	45537.46
587.70	45333.84
587.86	45055.31
588.02	45064.67
588.18	45200.43
588.34	45104.46
588.49	44484.22
588.65	44222.08
588.81	44495.92
588.97	44671.46
589.13	44804.88
589.29	44664.44
589.45	44814.24
589.61	44692.53
589.77	45085.74
589.93	44973.39
590.08	45184.04
590.24	45289.37
