SpectraSuite Data File
++++++++++++++++++++++++++++++++++++
Date: Fri Oct 25 11:26:38 EDT 2013
User: price-jones
Dark Spectrum Present: No
Reference Spectrum Present: No
Number of Sampled Component Spectra: 1
Spectrometers: USB2+H05261
Integration Time (usec): 100000 (USB2+H05261)
Spectra Averaged: 1 (USB2+H05261)
Boxcar Smoothing: 0 (USB2+H05261)
Correct for Electrical Dark: No (USB2+H05261)
Strobe/Lamp Enabled: No (USB2+H05261)
Correct for Detector Non-linearity: No (USB2+H05261)
Correct for Stray Light: No (USB2+H05261)
Number of Pixels in Processed Spectrum: 2048
>>>>>Begin Processed Spectral Data<<<<<
365.73	262.14
365.92	262.14
366.12	262.14
366.32	140.43
366.52	159.16
366.72	121.71
366.91	95.96
367.11	142.77
367.31	105.32
367.51	177.88
367.70	128.73
367.90	212.99
368.10	88.94
368.30	154.48
368.49	166.18
368.69	121.71
368.89	152.13
369.09	168.52
369.28	128.73
369.48	175.54
369.68	100.64
369.87	224.69
370.07	241.08
370.27	196.60
370.47	325.33
370.66	631.94
370.86	615.56
371.06	697.48
371.25	702.16
371.45	674.07
371.65	660.03
371.84	662.37
372.04	706.84
372.24	784.08
372.44	734.93
372.63	718.54
372.83	798.12
373.03	798.12
373.22	739.61
373.42	770.04
373.62	807.48
373.81	809.83
374.01	866.00
374.21	915.15
374.40	777.06
374.60	877.70
374.79	777.06
374.99	849.61
375.19	830.89
375.38	929.19
375.58	809.83
375.78	922.17
375.97	912.81
376.17	887.06
376.37	851.96
376.56	858.98
376.76	891.74
376.95	891.74
377.15	891.74
377.35	957.28
377.54	926.85
377.74	976.00
377.93	959.62
378.13	961.96
378.33	915.15
378.52	950.26
378.72	973.66
378.91	1004.09
379.11	929.19
379.31	940.90
379.50	933.87
379.70	957.28
379.89	1043.88
380.09	1020.47
380.28	983.02
380.48	1043.88
380.68	987.71
380.87	985.37
381.07	952.60
381.26	1029.84
381.46	987.71
381.65	997.07
381.85	990.05
382.04	1090.69
382.24	1125.80
382.43	1060.26
382.63	1111.75
382.83	985.37
383.02	1137.50
383.22	1137.50
383.41	1153.88
383.61	1132.82
383.80	1060.26
384.00	1071.97
384.19	1118.78
384.39	1081.33
384.58	1111.75
384.78	1224.10
384.97	1156.22
385.17	1128.14
385.36	1221.76
385.56	1170.27
385.75	1184.31
385.95	1179.63
386.14	1196.01
386.34	1221.76
386.53	1139.84
386.72	1179.63
386.92	1200.69
387.11	1259.21
387.31	1294.32
387.50	1310.70
387.70	1214.74
387.89	1345.81
388.09	1310.70
388.28	1231.12
388.48	1334.11
388.67	1362.19
388.86	1362.19
389.06	1256.87
389.25	1362.19
389.45	1399.64
389.64	1331.76
389.84	1404.32
390.03	1413.68
390.22	1425.39
390.42	1371.55
390.61	1343.47
390.81	1406.66
391.00	1392.62
391.19	1416.02
391.39	1355.17
391.58	1437.09
391.78	1486.24
391.97	1437.09
392.16	1521.35
392.36	1556.46
392.55	1540.07
392.75	1493.26
392.94	1570.50
393.13	1413.68
393.33	1418.36
393.52	1575.18
393.71	1500.28
393.91	1565.82
394.10	1626.67
394.29	1715.61
394.49	1540.07
394.68	1689.87
394.88	1720.29
395.07	1689.87
395.26	1701.57
395.46	1619.65
395.65	1696.89
395.84	1685.19
396.04	1886.47
396.23	1717.95
396.42	1675.82
396.62	1762.42
396.81	1820.94
397.00	1856.04
397.19	1724.97
397.39	1858.39
397.58	1741.36
397.77	1750.72
397.97	1863.07
398.16	1846.68
398.35	1856.04
398.55	1863.07
398.74	1954.35
398.93	2008.18
399.12	1989.46
399.32	1952.01
399.51	1930.94
399.70	2078.40
399.90	2026.90
400.09	2022.22
400.28	2057.33
400.47	2038.61
400.67	2040.95
400.86	1973.07
401.05	2059.67
401.24	2106.48
401.44	2218.83
401.63	2153.29
401.82	2127.55
402.01	2047.97
402.21	2139.25
402.40	2186.06
402.59	2202.44
402.78	2237.55
402.97	2207.13
403.17	2265.64
403.36	2361.60
403.55	2256.28
403.74	2345.22
403.93	2298.41
404.13	2399.05
404.32	2286.70
404.51	2399.05
404.70	2471.61
404.89	2377.98
405.09	2509.05
405.28	2567.57
405.47	2403.73
405.66	2469.27
405.85	2455.22
406.05	2518.42
406.24	2623.74
406.43	2597.99
406.62	2647.15
406.81	2733.75
407.00	2605.02
407.20	2569.91
407.39	2717.36
407.58	2794.60
407.77	2672.89
407.96	2785.24
408.15	2722.04
408.34	2661.19
408.54	2782.90
408.73	2761.83
408.92	2740.77
409.11	2820.35
409.30	2902.26
409.49	2864.82
409.68	3007.59
409.87	2925.67
410.07	3049.72
410.26	2993.55
410.45	2958.44
410.64	3054.40
410.83	3220.58
411.02	3204.19
411.21	3049.72
411.40	3159.72
411.59	3260.37
411.78	3180.79
411.98	3173.77
412.17	3176.11
412.36	3297.81
412.55	3297.81
412.74	3428.88
412.93	3431.23
413.12	3506.12
413.31	3604.42
413.50	3494.42
413.69	3442.93
413.88	3454.63
414.07	3644.21
414.26	3693.37
414.45	3655.92
414.64	3686.34
414.83	3754.22
415.02	3693.37
415.22	3969.55
415.41	3896.99
415.60	3948.48
415.79	3929.76
415.98	3969.55
416.17	4046.79
416.36	3936.78
416.55	4070.19
416.74	4145.09
416.93	4074.87
417.12	3953.16
417.31	4234.03
417.50	4248.07
417.69	4355.74
417.88	4173.18
418.07	4325.31
418.26	4156.79
418.45	4423.61
418.64	4500.85
418.83	4425.95
419.02	4531.28
419.21	4484.47
419.39	4463.40
419.58	4564.04
419.77	4552.34
419.96	4456.38
420.15	4603.83
420.34	4617.88
420.53	4608.51
420.72	4767.67
420.91	4711.50
421.10	4844.91
421.29	4741.93
421.48	4685.75
421.67	4793.42
421.86	4774.69
422.05	4828.53
422.24	4748.95
422.43	4875.34
422.61	4835.55
422.80	5102.37
422.99	4870.65
423.18	4975.98
423.37	5036.83
423.56	4994.70
423.75	4865.97
423.94	4861.29
424.13	4573.41
424.32	4877.68
424.50	5081.30
424.69	5102.37
424.88	5067.26
425.07	4877.68
425.26	4828.53
425.45	4849.59
425.64	5060.24
425.83	5102.37
426.01	5090.67
426.20	5193.65
426.39	5085.98
426.58	5130.45
426.77	4964.28
426.96	5125.77
427.15	5317.70
427.33	5132.79
427.52	5060.24
427.71	5263.86
427.90	5221.74
428.09	5451.11
428.28	5305.99
428.46	5298.97
428.65	5460.47
428.84	5500.26
429.03	5614.95
429.22	5392.59
429.40	5439.40
429.59	5600.90
429.78	5420.68
429.97	5268.55
430.16	5570.48
430.34	5621.97
430.53	5689.84
430.72	5680.48
430.91	5565.79
431.10	5708.57
431.28	5816.23
431.47	5776.44
431.66	5989.43
431.85	5870.06
432.03	5926.24
432.22	6050.28
432.41	5968.37
432.60	5788.14
432.79	5912.19
432.97	6069.01
433.16	6085.39
433.35	5959.00
433.54	6162.63
433.72	6061.99
433.91	6076.03
434.10	6036.24
434.28	6076.03
434.47	6134.54
434.66	6366.26
434.85	6335.83
435.03	6324.13
435.22	6251.57
435.41	6670.53
435.59	6368.60
435.78	6422.43
435.97	6499.67
436.16	6443.49
436.34	6431.79
436.53	6480.94
436.72	6651.80
436.90	6396.68
437.09	6827.34
437.28	6487.96
437.46	6670.53
437.65	6745.42
437.84	6637.76
438.02	6855.43
438.21	6745.42
438.40	6764.15
438.58	7054.37
438.77	6967.77
438.96	6820.32
439.14	7143.32
439.33	7131.61
439.52	7241.62
439.70	7140.97
439.89	7384.39
440.08	7379.71
440.26	7288.43
440.45	7461.63
440.63	7424.18
440.82	7604.40
441.01	7513.12
441.19	7588.02
441.38	7672.28
441.57	7726.11
441.75	7695.68
441.94	7871.22
442.12	7950.80
442.31	8006.97
442.50	8053.78
442.68	7990.59
442.87	8046.76
443.05	8102.93
443.24	8198.90
443.43	8159.11
443.61	8173.15
443.80	8514.87
443.98	8105.28
444.17	7915.69
444.35	8065.49
444.54	8512.53
444.73	8266.77
444.91	8313.58
445.10	8315.92
445.28	8308.90
445.47	8299.54
445.65	8444.65
445.84	8219.96
446.02	8472.74
446.21	8613.17
446.39	8252.73
446.58	8559.34
446.77	8367.42
446.95	8362.73
447.14	8503.17
447.32	8561.68
447.51	8493.80
447.69	8306.56
447.88	8519.55
448.06	8428.27
448.25	8585.08
448.43	8753.60
448.62	8692.75
448.80	8667.00
448.99	8870.63
449.17	8564.02
449.36	8683.39
449.54	8800.41
449.73	9006.38
449.91	9188.94
450.10	8879.99
450.28	9046.17
450.46	8945.53
450.65	9238.09
450.83	9303.63
451.02	9029.79
451.20	9322.35
451.39	9329.38
451.57	9144.47
451.76	9078.94
451.94	9123.41
452.13	9289.59
452.31	9263.84
452.49	9247.46
452.68	9486.19
452.86	9336.40
453.05	9481.51
453.23	9399.59
453.42	9205.33
453.60	9338.74
453.78	9523.64
453.97	9596.20
454.15	9465.13
454.34	9397.25
454.52	9708.54
454.70	9886.42
454.89	9860.68
455.07	9891.10
455.26	9930.89
455.44	10015.15
455.62	9867.70
455.81	9820.89
455.99	10115.80
456.17	10235.16
456.36	10150.90
456.54	10300.70
456.73	10183.67
456.91	10340.49
457.09	10382.62
457.28	10480.92
457.46	10455.17
457.64	10434.11
457.83	10597.95
458.01	10551.14
458.19	10532.41
458.38	10546.45
458.56	10675.18
458.74	10637.73
458.93	10864.77
459.11	10848.38
459.29	10647.10
459.48	10689.23
459.66	10714.97
459.84	11049.67
460.03	11274.36
460.21	10949.03
460.39	11056.69
460.57	10988.82
460.76	11026.26
460.94	11171.38
461.12	11279.04
461.31	11218.19
461.49	11117.54
461.67	11166.70
461.85	11482.67
462.04	11489.69
462.22	11733.11
462.40	11716.72
462.59	11768.21
462.77	11772.89
462.95	11728.42
463.13	11726.08
463.32	11536.50
463.50	11761.19
463.68	11908.65
463.86	11920.35
464.05	11482.67
464.23	11800.98
464.41	12056.10
464.59	11782.26
464.78	12112.27
464.96	12030.35
465.14	11676.93
465.32	12002.27
465.50	12187.17
465.69	12147.38
465.87	12142.70
466.05	11927.37
466.23	12044.40
466.41	12208.23
466.60	12439.95
466.78	12325.26
466.96	12163.76
467.14	12472.71
467.32	12512.50
467.51	12622.51
467.69	12149.72
467.87	12528.89
468.05	12594.42
468.23	12451.65
468.41	12610.81
468.60	12631.87
468.78	12643.57
468.96	12489.10
469.14	12954.87
469.32	12996.99
469.50	12645.91
469.69	12795.71
469.87	13018.06
470.05	13219.35
470.23	13167.85
470.41	13207.64
470.59	13401.91
470.77	13294.24
470.95	13525.96
471.14	13406.59
471.32	13139.77
471.50	13736.60
471.68	13619.58
471.86	13563.40
472.04	13757.67
472.22	13954.27
472.40	13575.11
472.58	13673.41
472.77	14160.24
472.95	14331.10
473.13	14689.20
473.31	14197.69
473.49	14075.98
473.67	13965.98
473.85	14331.10
474.03	14623.67
474.21	14621.33
474.39	14970.07
474.57	14651.75
474.75	14747.72
474.93	15094.11
475.12	15096.46
475.30	15080.07
475.48	14902.19
475.66	15293.06
475.84	15201.78
476.02	15707.34
476.20	15335.19
476.38	15625.42
476.56	15999.90
476.74	15962.45
476.92	15864.15
477.10	15627.76
477.28	16355.66
477.46	16252.68
477.64	16255.02
477.82	16566.31
478.00	16898.67
478.18	16673.98
478.36	16854.20
478.54	17219.32
478.72	17170.17
478.90	17245.07
479.08	17589.13
479.26	17523.59
479.44	17703.81
479.62	18019.78
479.80	18288.95
479.98	18363.84
480.16	18672.79
480.34	18200.01
480.52	18525.34
480.70	18735.99
480.88	18462.15
481.06	19129.20
481.24	18953.66
481.41	19690.93
481.59	19449.85
481.77	19475.60
481.95	19679.22
482.13	19803.27
482.31	19688.59
482.49	20020.94
482.67	20215.21
482.85	20290.10
483.03	20872.90
483.21	20716.08
483.39	20886.94
483.57	20952.48
483.74	21153.76
483.92	21649.96
484.10	21429.94
484.28	21497.82
484.46	22059.55
484.64	22298.28
484.82	22160.19
485.00	22422.33
485.18	22745.33
485.35	22974.70
485.53	22546.38
485.71	23084.70
485.89	23262.58
486.07	23583.24
486.25	23335.14
486.43	23470.89
486.61	23791.55
486.78	23896.87
486.96	24065.39
487.14	24526.47
487.32	24634.14
487.50	25064.80
487.68	25083.52
487.85	25186.50
488.03	25790.36
488.21	25675.68
488.39	25907.39
488.57	26015.05
488.75	26520.61
488.92	26508.91
489.10	26471.46
489.28	26707.85
489.46	27019.14
489.64	27124.47
489.81	27693.22
489.99	27601.94
490.17	27864.08
490.35	28081.75
490.53	28173.03
490.70	28247.93
490.88	28114.52
491.06	28563.90
491.24	28959.45
491.41	29177.12
491.59	29062.43
491.77	29170.10
491.95	30073.54
492.13	29436.92
492.30	30110.99
492.48	29940.13
492.66	30211.64
492.84	30298.23
493.01	30506.54
493.19	30906.77
493.37	31157.21
493.54	31283.60
493.72	31456.80
493.90	31489.57
494.08	31786.82
494.25	31721.28
494.43	32016.19
494.61	32456.21
494.79	32694.94
494.96	32648.13
495.14	32636.43
495.32	33118.58
495.49	33139.65
495.67	33158.37
495.85	33619.46
496.02	33848.83
496.20	34103.95
496.38	34284.17
496.55	34110.97
496.73	34665.67
496.91	34850.58
497.09	34782.70
497.26	34916.11
497.44	35225.06
497.62	35103.35
497.79	36039.57
497.97	35421.67
498.14	36023.19
498.32	36322.77
498.50	36378.95
498.67	36341.50
498.85	36645.77
499.03	36767.48
499.20	36533.42
499.38	36734.71
499.56	36914.93
499.73	37303.46
499.91	37214.52
500.08	37668.58
500.26	37336.23
500.44	37797.31
500.61	37769.22
500.79	37748.16
500.97	38359.04
501.14	38440.96
501.32	39110.35
501.49	38728.84
501.67	38593.09
501.84	39065.88
502.02	38684.37
502.20	39129.08
502.37	39381.85
502.55	39112.69
502.72	39651.02
502.90	39899.11
503.07	39505.90
503.25	40069.97
503.43	39519.95
503.60	39758.68
503.78	40261.90
503.95	39784.43
504.13	40388.28
504.30	40912.56
504.48	40594.25
504.65	40673.83
504.83	41139.60
505.01	41556.21
505.18	40898.52
505.36	41284.71
505.53	41305.77
505.71	41600.68
505.88	42220.92
506.06	41258.96
506.23	42064.11
506.41	42064.11
506.58	41958.78
506.76	42499.45
506.93	42766.27
507.11	41956.44
507.28	42838.83
507.46	43065.86
507.63	43283.53
507.81	43386.51
507.98	43377.15
508.16	42939.47
508.33	43297.57
508.50	43225.01
508.68	43765.68
508.85	43676.74
509.03	44236.12
509.20	43938.88
509.38	44369.54
509.55	45322.13
509.73	44364.85
509.90	44772.11
510.08	44334.43
510.25	44495.92
510.42	44851.69
510.60	45132.55
510.77	45387.67
510.95	45228.51
511.12	45008.50
511.30	45340.86
511.47	45441.50
511.64	46005.57
511.82	46115.58
511.99	45668.53
512.17	45954.08
512.34	45752.79
512.51	45876.84
512.69	46286.43
512.86	46466.66
513.04	46897.31
513.21	46354.31
513.38	46401.12
513.56	46869.23
513.73	47192.22
513.90	47201.58
514.08	47182.86
514.25	47374.78
514.43	47168.82
514.60	47789.06
514.77	47358.40
514.95	48016.09
515.12	47775.02
515.29	47669.69
515.47	47971.62
515.64	48470.15
515.81	48090.99
515.99	48184.61
516.16	48547.39
516.33	48388.24
516.51	48687.82
516.68	48516.96
516.85	48526.33
517.03	49109.12
517.20	49059.97
517.37	48744.00
517.54	48973.37
517.72	49303.38
517.89	49219.13
518.06	49261.26
518.24	49249.55
518.41	49457.86
518.58	49151.25
518.75	49333.81
518.93	49523.40
519.10	49448.50
519.27	50288.75
519.45	49954.05
519.62	49682.55
519.79	49979.80
519.96	50225.56
520.14	50246.62
520.31	49773.83
520.48	50181.09
520.65	50227.90
520.83	50822.39
521.00	50848.14
521.17	50829.41
521.34	50876.22
521.52	50705.37
521.69	50557.91
521.86	50960.48
522.03	51072.83
522.20	51540.94
522.38	51681.37
522.55	51487.10
522.72	51236.67
522.89	51262.41
523.07	51533.92
523.24	51814.78
523.41	51543.28
523.58	51405.19
523.75	51774.99
523.92	51819.46
524.10	52055.85
524.27	52109.69
524.44	52252.46
524.61	52250.12
524.78	51955.21
524.96	52151.82
525.13	52502.90
525.30	52399.91
525.47	52676.10
525.64	52329.70
525.81	52540.35
525.98	52786.10
526.16	52392.89
526.33	52669.08
526.50	53183.99
526.67	52640.99
526.84	52971.00
527.01	53233.14
527.18	52839.93
527.36	53221.44
527.53	53254.21
527.70	53303.36
527.87	53380.60
528.04	53298.68
528.21	53502.31
528.38	53389.96
528.55	53771.47
528.72	53326.77
528.89	53457.84
529.07	53469.54
529.24	53584.22
529.41	53581.88
529.58	53668.48
529.75	53727.00
529.92	53963.39
530.09	53872.11
530.26	53951.69
530.43	54010.20
530.60	53771.47
530.77	53928.28
530.94	54262.98
531.11	54035.95
531.28	54480.65
531.46	54394.05
531.63	54354.26
531.80	54312.13
531.97	54316.81
532.14	54623.42
532.31	54459.58
532.48	54595.34
532.65	54656.19
532.82	54494.69
532.99	54759.17
533.16	54703.00
533.33	54822.37
533.50	54946.42
533.67	55016.63
533.84	54862.16
534.01	54906.63
534.18	55068.12
534.35	55320.90
534.52	55224.94
534.69	55180.47
534.86	55236.64
535.03	55309.20
535.20	55449.63
535.37	55533.89
535.54	55332.60
535.71	55267.07
535.88	55398.14
536.05	55421.55
536.22	55611.13
536.38	55861.57
536.55	55615.81
536.72	55484.74
536.89	55538.57
537.06	55700.07
537.23	55906.04
537.40	55529.21
537.57	55730.50
537.74	55681.34
537.91	55987.95
538.08	56030.08
538.25	55693.05
538.42	56039.45
538.59	56048.81
538.75	56058.17
538.92	56011.36
539.09	56135.41
539.26	56104.98
539.43	55983.27
539.60	56357.76
539.77	56296.91
539.94	56500.53
540.11	56427.98
540.28	56563.73
540.44	56388.19
540.61	56500.53
540.78	56413.93
540.95	56252.44
541.12	56577.77
541.29	56573.09
541.46	56760.33
541.62	56774.37
541.79	56718.20
541.96	56545.00
542.13	56938.21
542.30	56708.84
542.47	56750.97
542.63	56975.66
542.80	56870.34
542.97	57036.51
543.14	57293.97
543.31	57251.84
543.48	57247.16
543.64	57469.51
543.81	57521.01
543.98	57078.64
544.15	57443.77
544.32	57535.05
544.48	57694.21
544.65	57219.08
544.82	57474.20
544.99	57448.45
545.16	57619.31
545.32	57411.00
545.49	57729.31
545.66	57851.02
545.83	57577.18
546.00	57790.17
546.16	57584.20
546.33	57570.16
546.50	57577.18
546.67	57785.49
546.83	57495.26
547.00	57689.52
547.17	57836.98
547.34	57853.36
547.50	57827.62
547.67	58239.55
547.84	58064.01
548.00	58085.07
548.17	58166.99
548.34	58218.49
548.51	58422.11
548.67	58237.21
548.84	58239.55
549.01	57958.69
549.18	58122.52
549.34	58291.04
549.51	58433.81
549.68	58691.27
549.84	58424.45
550.01	58672.55
550.18	58312.11
550.34	58471.26
550.51	58422.11
550.68	58403.39
550.84	58457.22
551.01	58749.79
551.18	58433.81
551.34	58312.11
551.51	58585.95
551.68	58527.44
551.84	58567.23
552.01	58731.06
552.18	58635.10
552.34	58738.08
552.51	58791.92
552.68	58691.27
552.84	58773.19
553.01	58948.73
553.18	58843.41
553.34	58787.24
553.51	58866.81
553.67	58705.32
553.84	58993.20
554.01	59056.40
554.17	58862.13
554.34	59100.87
554.51	58869.15
554.67	59346.62
554.84	59220.23
555.00	59327.90
555.17	59000.22
555.33	59035.33
555.50	58997.88
555.67	58908.94
555.83	59224.92
556.00	59138.32
556.16	59351.30
556.33	59154.70
556.50	59269.39
556.66	59330.24
556.83	59009.59
556.99	59426.20
557.16	59465.99
557.32	59386.41
557.49	59653.23
557.65	59421.52
557.82	59398.12
557.98	59440.24
558.15	59363.01
558.32	59557.27
558.48	59632.17
558.65	59564.29
558.81	59714.09
558.98	59414.50
559.14	59676.64
559.31	59849.84
559.47	59756.22
559.64	59604.08
559.80	59709.41
559.97	59814.73
560.13	59597.06
560.30	59803.03
560.46	60006.65
560.63	59873.24
560.79	59901.33
560.96	59936.44
561.12	59739.83
561.29	59920.05
561.45	59910.69
561.61	59716.43
561.78	59835.80
561.94	59962.18
562.11	59772.60
562.27	59882.61
562.44	59964.52
562.60	60102.62
562.77	60067.51
562.93	59962.18
563.10	60296.88
563.26	60088.57
563.42	60296.88
563.59	59903.67
563.75	59828.77
563.92	60149.43
564.08	60030.06
564.24	60229.01
564.41	60149.43
564.57	60217.30
564.74	60121.34
564.90	60079.21
565.07	60142.41
565.23	60168.15
565.39	60156.45
565.56	60453.70
565.72	60023.04
565.88	60280.50
566.05	60114.32
566.21	60151.77
566.38	60282.84
566.54	60317.95
566.70	60247.73
566.87	60388.16
567.03	60023.04
567.19	60491.15
567.36	60289.86
567.52	60196.24
567.68	60559.02
567.85	60289.86
568.01	60427.95
568.17	60343.69
568.34	60378.80
568.50	60521.57
568.66	60238.37
568.83	60420.93
568.99	60331.99
569.15	60704.13
569.32	60542.64
569.48	60481.78
569.64	60608.17
569.81	60561.36
569.97	60369.44
570.13	60673.71
570.30	60392.84
570.46	60554.34
570.62	60692.43
570.78	60537.96
570.95	60594.13
571.11	60687.75
571.27	60397.52
571.43	60619.88
571.60	60692.43
571.76	60573.06
571.92	60594.13
572.09	60624.56
572.25	60596.47
572.41	60554.34
572.57	60619.88
572.74	60598.81
572.90	60645.62
573.06	60587.11
573.22	60589.45
573.38	60582.43
573.55	60467.74
573.71	60797.76
573.87	60727.54
574.03	60505.19
574.20	60774.35
574.36	60580.09
574.52	60657.32
574.68	60764.99
574.84	60743.92
575.01	60790.73
575.17	60718.18
575.33	60774.35
575.49	60584.77
575.65	60870.31
575.82	60809.46
575.98	60919.46
576.14	61031.81
576.30	60884.36
576.46	60556.68
576.62	60727.54
576.79	60779.03
576.95	60624.56
577.11	60832.86
577.27	60839.89
577.43	60858.61
577.59	60856.27
577.75	60865.63
577.92	60779.03
578.08	60832.86
578.24	60921.80
578.40	60931.17
578.56	61111.39
578.72	60935.85
578.88	61155.86
579.04	60961.59
579.21	60900.74
579.37	61008.40
579.53	61104.37
579.69	60598.81
579.85	60924.14
580.01	60676.05
580.17	60973.30
580.33	60750.94
580.49	60987.34
580.65	61073.94
580.82	60968.61
580.98	60699.45
581.14	61010.74
581.30	61158.20
581.46	60882.02
581.62	61179.26
581.78	60889.04
581.94	60732.22
582.10	60891.38
582.26	61087.98
582.42	60917.12
582.58	60849.25
582.74	60846.91
582.90	61078.62
583.06	60797.76
583.22	61073.94
583.38	60912.44
583.54	60762.65
583.70	61195.65
583.86	61055.21
584.02	60994.36
584.18	61041.17
584.34	61073.94
584.50	61036.49
584.66	61050.53
584.82	60849.25
584.98	61179.26
585.14	60980.32
585.30	60973.30
585.46	60996.70
585.62	61029.47
585.78	61078.62
585.94	60727.54
586.10	61038.83
586.26	61190.97
586.42	61190.97
586.58	61160.54
586.74	61120.75
586.90	60928.83
587.06	60921.80
587.22	61277.57
587.38	61146.50
587.54	61076.28
587.70	61244.80
587.86	61197.99
588.02	61172.24
588.18	61146.50
588.34	60905.42
588.49	60867.97
