SpectraSuite Data File
++++++++++++++++++++++++++++++++++++
Date: Fri Oct 25 10:46:54 EDT 2013
User: price-jones
Dark Spectrum Present: No
Reference Spectrum Present: No
Number of Sampled Component Spectra: 1
Spectrometers: USB2+H05261
Integration Time (usec): 100000 (USB2+H05261)
Spectra Averaged: 1 (USB2+H05261)
Boxcar Smoothing: 0 (USB2+H05261)
Correct for Electrical Dark: No (USB2+H05261)
Strobe/Lamp Enabled: No (USB2+H05261)
Correct for Detector Non-linearity: No (USB2+H05261)
Correct for Stray Light: No (USB2+H05261)
Number of Pixels in Processed Spectrum: 2048
>>>>>Begin Processed Spectral Data<<<<<
365.73	84.26
365.92	84.26
366.12	84.26
366.32	77.24
366.52	77.24
366.72	93.62
366.91	30.43
367.11	35.11
367.31	32.77
367.51	46.81
367.70	11.70
367.90	91.28
368.10	39.79
368.30	11.70
368.49	77.24
368.69	65.54
368.89	44.47
369.09	23.41
369.28	84.26
369.48	91.28
369.68	25.75
369.87	126.39
370.07	86.60
370.27	53.83
370.47	222.35
370.66	386.19
370.86	411.93
371.06	454.06
371.25	496.19
371.45	463.43
371.65	538.32
371.84	472.79
372.04	510.24
372.24	482.15
372.44	566.41
372.63	526.62
372.83	484.49
373.03	475.13
373.22	451.72
373.42	599.18
373.62	566.41
373.81	538.32
374.01	500.87
374.21	561.73
374.40	564.07
374.60	575.77
374.79	601.52
374.99	622.58
375.19	613.22
375.38	685.78
375.58	641.31
375.78	573.43
375.97	564.07
376.17	610.88
376.37	585.13
376.56	613.22
376.76	608.54
376.95	631.94
377.15	601.52
377.35	627.26
377.54	636.63
377.74	622.58
377.93	650.67
378.13	669.39
378.33	657.69
378.52	669.39
378.72	739.61
378.91	631.94
379.11	683.44
379.31	657.69
379.50	676.41
379.70	676.41
379.89	706.84
380.09	660.03
380.28	683.44
380.48	734.93
380.68	723.23
380.87	718.54
381.07	725.57
381.26	718.54
381.46	620.24
381.65	653.01
381.85	713.86
382.04	727.91
382.24	730.25
382.43	744.29
382.63	671.73
382.83	760.67
383.02	732.59
383.22	781.74
383.41	758.33
383.61	657.69
383.80	737.27
384.00	819.19
384.19	844.93
384.39	763.01
384.58	774.72
384.78	767.70
384.97	851.96
385.17	814.51
385.36	854.30
385.56	779.40
385.75	791.10
385.95	858.98
386.14	851.96
386.34	770.04
386.53	903.45
386.72	870.68
386.92	823.87
387.11	828.55
387.31	901.11
387.50	798.12
387.70	821.53
387.89	947.92
388.09	908.13
388.28	858.98
388.48	842.59
388.67	954.94
388.86	950.26
389.06	898.77
389.25	1020.47
389.45	961.96
389.64	1039.20
389.84	1064.94
390.03	1036.86
390.22	968.98
390.42	1055.58
390.61	976.00
390.81	954.94
391.00	1069.62
391.19	1076.65
391.39	1116.44
391.58	1086.01
391.78	1013.45
391.97	1025.15
392.16	1022.81
392.36	1064.94
392.55	1015.79
392.75	1034.52
392.94	966.64
393.13	936.21
393.33	1011.11
393.52	976.00
393.71	1062.60
393.91	1142.18
394.10	1083.67
394.29	1214.74
394.49	1191.33
394.68	1177.29
394.88	1167.93
395.07	1174.95
395.26	1153.88
395.46	1121.12
395.65	1191.33
395.84	1179.63
396.04	1245.16
396.23	1156.22
396.42	1137.50
396.62	1212.40
396.81	1277.93
397.00	1249.85
397.19	1277.93
397.39	1359.85
397.58	1397.30
397.77	1406.66
397.97	1462.83
398.16	1357.51
398.35	1509.65
398.55	1420.71
398.74	1490.92
398.93	1453.47
399.12	1528.37
399.32	1479.22
399.51	1453.47
399.70	1551.78
399.90	1584.54
400.09	1570.50
400.28	1645.40
400.47	1638.38
400.67	1626.67
400.86	1582.20
401.05	1610.29
401.24	1666.46
401.44	1727.32
401.63	1706.25
401.82	1732.00
402.01	1708.59
402.21	1706.25
402.40	1753.06
402.59	1713.27
402.78	1666.46
402.97	1727.32
403.17	1781.15
403.36	1771.79
403.55	1694.55
403.74	1825.62
403.93	1797.53
404.13	1802.21
404.32	1930.94
404.51	1750.72
404.70	1914.56
404.89	1853.70
405.09	1905.20
405.28	1877.11
405.47	1849.02
405.66	1959.03
405.85	1914.56
406.05	1933.28
406.24	1937.96
406.43	1928.60
406.62	1984.77
406.81	2045.63
407.00	1998.82
407.20	2076.06
407.39	2019.88
407.58	2146.27
407.77	2017.54
407.96	2193.08
408.15	2244.57
408.34	2136.91
408.54	2186.06
408.73	2289.04
408.92	2242.23
409.11	2165.00
409.30	2265.64
409.49	2314.79
409.68	2265.64
409.87	2221.17
410.07	2361.60
410.26	2277.34
410.45	2310.11
410.64	2455.22
410.83	2406.07
411.02	2396.71
411.21	2579.27
411.40	2495.01
411.59	2602.68
411.78	2539.48
411.98	2607.36
412.17	2733.75
412.36	2567.57
412.55	2754.81
412.74	2731.41
412.93	2731.41
413.12	2668.21
413.31	2822.69
413.50	2743.11
413.69	2729.06
413.88	2855.45
414.07	2731.41
414.26	2909.29
414.45	2850.77
414.64	2960.78
414.83	3000.57
415.02	2895.24
415.22	3080.14
415.41	3007.59
415.60	3059.08
415.79	3098.87
415.98	3183.13
416.17	3185.47
416.36	3206.53
416.55	3227.60
416.74	3234.62
416.93	3166.74
417.12	3108.23
417.31	3248.66
417.50	3290.79
417.69	3377.39
417.88	3412.50
418.07	3262.71
418.26	3398.46
418.45	3377.39
418.64	3655.92
418.83	3438.25
419.02	3475.70
419.21	3597.40
419.39	3644.21
419.58	3459.31
419.77	3489.74
419.96	3578.68
420.15	3559.95
420.34	3536.55
420.53	3850.18
420.72	3707.41
420.91	3684.00
421.10	3854.86
421.29	3854.86
421.48	3693.37
421.67	3803.37
421.86	3763.58
422.05	3758.90
422.24	3817.41
422.43	3742.52
422.61	3812.73
422.80	3747.20
422.99	3889.97
423.18	3770.60
423.37	3946.14
423.56	3779.97
423.75	3920.40
423.94	3733.15
424.13	3658.26
424.32	3716.77
424.50	3882.95
424.69	3948.48
424.88	3913.38
425.07	3873.59
425.26	3721.45
425.45	3920.40
425.64	3857.20
425.83	3962.53
426.01	3875.93
426.20	4011.68
426.39	3978.91
426.58	3875.93
426.77	3939.12
426.96	4042.11
427.15	3829.12
427.33	3878.27
427.52	4128.70
427.71	4154.45
427.90	4133.39
428.09	4142.75
428.28	4032.74
428.46	4131.05
428.65	4037.42
428.84	4219.99
429.03	4322.97
429.22	4142.75
429.40	4156.79
429.59	4032.74
429.78	4004.66
429.97	3857.20
430.16	4042.11
430.34	4023.38
430.53	4105.30
430.72	4131.05
430.91	4138.07
431.10	4341.69
431.28	4535.96
431.47	4472.76
431.66	4660.01
431.85	4484.47
432.03	4660.01
432.22	4482.13
432.41	4533.62
432.60	4533.62
432.79	4535.96
432.97	4648.30
433.16	4854.27
433.35	4557.02
433.54	4622.56
433.72	4559.36
433.91	4664.69
434.10	4636.60
434.28	4660.01
434.47	4828.53
434.66	4887.04
434.85	4851.93
435.03	4732.56
435.22	4945.55
435.41	5020.45
435.59	4851.93
435.78	5078.96
435.97	5078.96
436.16	4961.94
436.34	4990.02
436.53	5062.58
436.72	5231.10
436.90	4987.68
437.09	5142.16
437.28	5057.90
437.46	5118.75
437.65	5100.03
437.84	4992.36
438.02	5146.84
438.21	5167.90
438.40	5041.51
438.58	5224.08
438.77	5373.87
438.96	5406.64
439.14	5385.57
439.33	5336.42
439.52	5596.22
439.70	5535.37
439.89	5617.29
440.08	5659.42
440.26	5638.35
440.45	5469.83
440.63	5619.63
440.82	5858.36
441.01	5781.12
441.19	6008.16
441.38	6024.54
441.57	6064.33
441.75	6122.84
441.94	6066.67
442.12	6129.86
442.31	6258.59
442.50	6272.64
442.68	6331.15
442.87	6237.53
443.05	6216.46
443.24	6300.72
443.43	6246.89
443.61	6410.73
443.80	6406.05
443.98	6291.36
444.17	6099.44
444.35	6326.47
444.54	6420.09
444.73	6483.28
444.91	6289.02
445.10	6237.53
445.28	6394.34
445.47	6326.47
445.65	6303.06
445.84	6293.70
446.02	6436.47
446.21	6443.49
446.39	6572.22
446.58	6590.95
446.77	6462.22
446.95	6464.56
447.14	6707.98
447.32	6808.62
447.51	6509.03
447.69	6717.34
447.88	6499.67
448.06	6546.48
448.25	6539.46
448.43	6600.31
448.62	6572.22
448.80	6525.41
448.99	6649.46
449.17	6710.32
449.36	6525.41
449.54	6841.39
449.73	6923.30
449.91	6855.43
450.10	7293.11
450.28	7192.47
450.46	7045.01
450.65	7178.42
450.83	7129.27
451.02	7059.06
451.20	7019.27
451.39	7145.66
451.57	7110.55
451.76	6993.52
451.94	7115.23
452.13	7316.51
452.31	7000.54
452.49	6906.92
452.68	7138.63
452.86	6899.90
453.05	7314.17
453.23	7407.80
453.42	7192.47
453.60	7262.68
453.78	7382.05
453.97	7384.39
454.15	7220.55
454.34	7239.28
454.52	7461.63
454.70	7330.56
454.89	7473.33
455.07	7396.09
455.26	7447.58
455.44	7515.46
455.62	7693.34
455.81	7634.83
455.99	7756.54
456.17	7653.55
456.36	7749.51
456.54	7646.53
456.73	7791.64
456.91	7992.93
457.09	7894.63
457.28	8219.96
457.46	7875.90
457.64	8271.45
457.83	8002.29
458.01	7779.94
458.19	8182.51
458.38	8072.51
458.56	8147.40
458.74	8107.62
458.93	7990.59
459.11	8032.72
459.29	8264.43
459.48	8348.69
459.66	8182.51
459.84	8290.18
460.03	8257.41
460.21	8383.80
460.39	8271.45
460.57	8271.45
460.76	8381.46
460.94	8585.08
461.12	8168.47
461.31	8454.02
461.49	8664.66
461.67	8442.31
461.85	8734.88
462.04	8507.85
462.22	9174.90
462.40	8784.03
462.59	8861.27
462.77	8615.51
462.95	8767.65
463.13	8692.75
463.32	8753.60
463.50	8671.68
463.68	8947.87
463.86	8823.82
464.05	8769.99
464.23	8844.88
464.41	9013.40
464.59	8821.48
464.78	9245.12
464.96	9034.47
465.14	8711.47
465.32	9205.33
465.50	9212.35
465.69	9371.50
465.87	9048.51
466.05	9221.71
466.23	8994.68
466.41	9060.21
466.60	9001.70
466.78	8924.46
466.96	9146.81
467.14	9153.84
467.32	9179.58
467.51	9401.93
467.69	9135.11
467.87	9282.56
468.05	9252.14
468.23	9219.37
468.41	9139.79
468.60	9352.78
468.78	9401.93
468.96	9376.19
469.14	9701.52
469.32	9652.37
469.50	9575.13
469.69	9500.23
469.87	9668.75
470.05	9549.39
470.23	9563.43
470.41	9640.67
470.59	9832.59
470.77	9612.58
470.95	9806.84
471.14	10073.67
471.32	9736.63
471.50	10193.03
471.68	10141.54
471.86	10298.36
472.04	10033.88
472.22	10448.15
472.40	10197.71
472.58	10293.68
472.77	10394.32
472.95	10443.47
473.13	10810.93
473.31	10457.51
473.49	10389.64
473.67	10487.94
473.85	10649.44
474.03	10736.04
474.21	10836.68
474.39	10986.47
474.57	10843.70
474.75	10904.56
474.93	11014.56
475.12	10801.57
475.30	11056.69
475.48	11169.04
475.66	11143.29
475.84	11014.56
476.02	11257.98
476.20	11314.15
476.38	11517.78
476.56	11749.49
476.74	11751.83
476.92	11831.41
477.10	11737.79
477.28	11815.02
477.46	11992.90
477.64	11988.22
477.82	12210.57
478.00	12432.93
478.18	12400.16
478.36	12404.84
478.54	12692.73
478.72	12582.72
478.90	12657.62
479.08	12989.97
479.26	12828.48
479.44	12929.12
479.62	12833.16
479.80	12999.34
479.98	13376.16
480.16	13317.65
480.34	13336.37
480.52	13657.03
480.70	13341.05
480.88	13408.93
481.06	13701.50
481.24	13650.00
481.41	13930.87
481.59	14324.08
481.77	14303.01
481.95	14216.41
482.13	14394.29
482.31	14111.09
482.49	14841.34
482.67	14754.74
482.85	14864.74
483.03	14773.46
483.21	15012.20
483.39	15236.89
483.57	15400.72
483.74	15344.55
483.92	15131.56
484.10	15349.23
484.28	15695.63
484.46	15690.95
484.64	16067.78
484.82	15885.22
485.00	16006.92
485.18	16269.06
485.35	16182.46
485.53	15829.04
485.71	16004.58
485.89	16332.26
486.07	16065.44
486.25	16524.18
486.43	16383.75
486.61	16772.28
486.78	17097.61
486.96	17355.07
487.14	17516.57
487.32	17589.13
487.50	17532.95
487.68	17982.34
487.85	18073.62
488.03	18204.69
488.21	18321.71
488.39	18270.22
488.57	18618.96
488.75	18501.93
488.92	18663.43
489.10	19466.24
489.28	19103.45
489.46	19541.13
489.64	19300.06
489.81	19985.83
489.99	20084.14
490.17	19749.44
490.35	19927.32
490.53	20051.37
490.70	20266.70
490.88	20456.28
491.06	20795.66
491.24	20231.59
491.41	20685.65
491.59	20645.87
491.77	20683.31
491.95	20875.24
492.13	21055.46
492.30	21436.97
492.48	21671.02
492.66	21518.89
492.84	21600.80
493.01	21949.54
493.19	21708.47
493.37	22075.93
493.54	22068.91
493.72	22242.11
493.90	22382.54
494.08	22572.13
494.25	23049.60
494.43	22836.61
494.61	23199.39
494.79	23276.63
494.96	23110.45
495.14	23112.79
495.32	23477.91
495.49	23623.03
495.67	23679.20
495.85	23833.68
496.02	23981.13
496.20	24191.78
496.38	24250.29
496.55	24566.26
496.73	24833.08
496.91	24484.34
497.09	24659.88
497.26	24865.85
497.44	24414.13
497.62	25041.39
497.79	24762.87
497.97	24936.07
498.14	25230.98
498.32	25481.41
498.50	25460.35
498.67	25717.81
498.85	25993.99
499.03	25958.88
499.20	25621.84
499.38	26429.33
499.56	26038.46
499.73	26216.34
499.91	26197.62
500.08	26691.47
500.26	26382.52
500.44	26321.66
500.61	26415.29
500.79	26373.16
500.97	26630.62
501.14	27122.13
501.32	26672.74
501.49	26567.42
501.67	27108.08
501.84	26993.40
502.02	27009.78
502.20	27243.84
502.37	27702.58
502.55	27672.15
502.72	27424.06
502.90	27690.88
503.07	27606.62
503.25	27814.93
503.43	27885.14
503.60	27882.80
503.78	28254.95
503.95	27653.43
504.13	28128.56
504.30	28379.00
504.48	28465.60
504.65	28697.31
504.83	28776.89
505.01	28877.53
505.18	28898.59
505.36	29448.62
505.53	29057.75
505.71	29355.00
505.88	29633.52
506.06	29193.50
506.23	29486.07
506.41	29556.28
506.58	29542.24
506.76	29322.23
506.93	29631.18
507.11	30036.09
507.28	29816.08
507.46	29762.25
507.63	30017.37
507.81	30066.52
507.98	29940.13
508.16	30181.21
508.33	30270.15
508.50	30579.10
508.68	30314.62
508.85	30988.69
509.03	30719.53
509.20	30920.82
509.38	31082.31
509.55	31335.09
509.73	30993.37
509.90	31318.71
510.08	31222.75
510.25	31173.60
510.42	31274.24
510.60	31330.41
510.77	31718.94
510.95	31814.90
511.12	31838.31
511.30	31807.88
511.47	32091.09
511.64	32294.71
511.82	32381.31
511.99	31894.48
512.17	32130.87
512.34	32194.07
512.51	32423.44
512.69	32299.39
512.86	32804.95
513.04	33006.23
513.21	32690.26
513.38	32608.34
513.56	32563.87
513.73	33137.30
513.90	33055.39
514.08	32540.47
514.25	33113.90
514.43	32978.15
514.60	33003.89
514.77	33008.58
514.95	33261.35
515.12	33366.68
515.29	33427.53
515.47	33893.30
515.64	33839.47
515.81	33628.82
515.99	33900.32
516.16	33537.54
516.33	33521.15
516.51	33638.18
516.68	33390.08
516.85	33549.24
517.03	33652.22
517.20	33802.02
517.37	34363.75
517.54	34319.28
517.72	34338.00
517.89	33811.38
518.06	33954.15
518.24	34073.52
518.41	34230.33
518.58	34270.12
518.75	34394.17
518.93	34745.25
519.10	34607.16
519.27	35098.67
519.45	35133.78
519.62	34930.16
519.79	34958.24
519.96	35412.31
520.14	35431.03
520.31	35161.87
520.48	34909.09
520.65	35030.80
520.83	36175.32
521.00	36002.12
521.17	35526.99
521.34	36250.22
521.52	36046.59
521.69	36280.64
521.86	36327.45
522.03	35796.15
522.20	36161.28
522.38	36163.62
522.55	36329.80
522.72	36402.35
522.89	35903.82
523.07	36456.18
523.24	36184.68
523.41	36734.71
523.58	36280.64
523.75	37258.99
523.92	36924.29
524.10	36999.19
524.27	37060.04
524.44	36603.64
524.61	37565.60
524.78	37830.08
524.96	37589.00
525.13	37799.65
525.30	37895.61
525.47	37589.00
525.64	37652.20
525.81	37432.19
525.98	37118.56
526.16	37184.09
526.33	37104.51
526.50	37809.01
526.67	37102.17
526.84	37148.98
527.01	37504.74
527.18	37830.08
527.36	38176.48
527.53	38113.28
527.70	38321.59
527.87	37727.10
528.04	38417.55
528.21	38124.99
528.38	38005.62
528.55	38698.42
528.72	38656.29
528.89	38866.94
529.07	38501.81
529.24	38532.24
529.41	38651.61
529.58	38455.00
529.75	38770.97
529.92	38721.82
530.09	38990.98
530.26	39164.18
530.43	38937.15
530.60	38892.68
530.77	38728.84
530.94	39402.92
531.11	39246.10
531.28	39122.05
531.46	39601.86
531.63	39742.30
531.80	39529.31
531.97	39400.58
532.14	39243.76
532.31	39129.08
532.48	39639.31
532.65	39426.32
532.82	39709.53
532.99	39494.20
533.16	39421.64
533.33	39791.45
533.50	39798.47
533.67	39896.77
533.84	39782.09
534.01	39599.52
534.18	39765.70
534.35	40357.86
534.52	40067.63
534.69	40568.51
534.86	40346.15
535.03	40591.91
535.20	40212.74
535.37	40275.94
535.54	41055.34
535.71	40456.16
535.88	40711.28
536.05	40453.82
536.22	40868.09
536.38	40507.65
536.55	40605.95
536.72	40584.89
536.89	40210.40
537.06	40652.76
537.23	41233.22
537.40	40484.25
537.57	40891.50
537.74	41343.22
537.91	41242.58
538.08	41041.29
538.25	40692.55
538.42	41050.66
538.59	41752.82
538.75	40566.16
538.92	41097.47
539.09	41324.50
539.26	41249.60
539.43	41392.37
539.60	41422.80
539.77	41125.55
539.94	41280.03
540.11	41214.49
540.28	41471.95
540.44	41347.90
540.61	41628.77
540.78	41296.41
540.95	41617.07
541.12	41694.30
541.29	41703.67
541.46	41970.49
541.62	41944.74
541.79	41773.88
541.96	41621.75
542.13	41738.77
542.30	41858.14
542.47	42230.29
542.63	42321.57
542.80	42007.94
542.97	42780.31
543.14	42689.03
543.31	42696.05
543.48	42480.72
543.64	43112.67
543.81	42501.79
543.98	42506.47
544.15	42689.03
544.32	42829.46
544.48	43344.38
544.65	42997.98
544.82	43260.12
544.99	42560.30
545.16	42927.77
545.32	42988.62
545.49	43110.33
545.66	43409.92
545.83	43215.65
546.00	43332.68
546.16	43089.26
546.33	43241.40
546.50	42850.53
546.67	43353.74
546.83	42754.57
547.00	43360.76
547.17	43356.08
547.34	43100.97
547.50	43164.16
547.67	43388.85
547.84	43646.31
548.00	43646.31
548.17	44226.76
548.34	43566.73
548.51	43599.50
548.67	43931.86
548.84	43564.39
549.01	43562.05
549.18	43363.11
549.34	43889.73
549.51	43761.00
549.68	44081.65
549.84	43927.17
550.01	44289.96
550.18	44114.42
550.34	44123.78
550.51	43826.53
550.68	44112.08
550.84	43835.89
551.01	44343.79
551.18	44072.29
551.34	43765.68
551.51	44437.41
551.68	44332.09
551.84	44641.04
552.01	43756.32
552.18	44177.61
552.34	44212.72
552.51	44402.30
552.68	44364.85
552.84	44608.27
553.01	44538.05
553.18	44357.83
553.34	44308.68
553.51	44524.01
553.67	44327.41
553.84	44903.18
554.01	44725.30
554.17	44919.56
554.34	44954.67
554.51	44786.15
554.67	44931.26
554.84	44942.97
555.00	45247.24
555.17	44655.08
555.33	45301.07
555.50	44786.15
555.67	44526.35
555.83	44818.92
556.00	44954.67
556.16	45621.72
556.33	45481.29
556.50	44839.98
556.66	44669.12
556.83	44844.66
556.99	45263.62
557.16	45373.63
557.32	45186.38
557.49	45038.93
557.65	44561.46
557.82	44690.19
557.98	44687.85
558.15	44975.73
558.32	45280.00
558.48	44903.18
558.65	45631.08
558.81	44940.63
558.98	44987.44
559.14	45427.46
559.31	45401.71
559.47	45041.27
559.64	45516.40
559.80	45579.59
559.97	45661.51
560.13	45254.26
560.30	45385.33
560.46	45338.52
560.63	45862.80
560.79	45614.70
560.96	45315.11
561.12	45347.88
561.29	45418.10
561.45	45439.16
561.61	45254.26
561.78	45598.32
561.94	45455.54
562.11	45492.99
562.27	45422.78
562.44	45146.59
562.60	45617.04
562.77	45904.93
562.93	45806.62
563.10	45694.28
563.26	45277.66
563.42	45851.09
563.59	46040.68
563.75	46059.40
563.92	46033.66
564.08	45766.84
564.24	45790.24
564.41	45825.35
564.57	45574.91
564.74	46021.95
564.90	45935.35
565.07	45783.22
565.23	45858.12
565.39	45350.22
565.56	45500.01
565.72	45628.74
565.88	45907.27
566.05	46080.47
566.21	45614.70
566.38	45806.62
566.54	45778.54
566.70	45918.97
566.87	46344.95
567.03	45841.73
567.19	46307.50
567.36	46267.71
567.52	45668.53
567.68	46162.39
567.85	46003.23
568.01	46253.67
568.17	46213.88
568.34	46335.59
568.50	46190.47
568.66	46026.63
568.83	46160.05
568.99	45944.72
569.15	45518.74
569.32	45780.88
569.48	45773.86
569.64	46349.63
569.81	46155.36
569.97	45933.01
570.13	45787.90
570.30	45998.55
570.46	45373.63
570.62	45713.00
570.78	45785.56
570.95	45698.96
571.11	46169.41
571.27	45682.58
571.43	45961.10
571.60	46167.07
571.76	45942.38
571.92	46101.53
572.09	46209.20
572.25	45958.76
572.41	46155.36
572.57	45780.88
572.74	46529.85
572.90	46342.61
573.06	46326.22
573.22	46021.95
573.38	46375.37
573.55	45804.28
573.71	45883.86
573.87	46218.56
574.03	46134.30
574.20	46398.78
574.36	46305.16
574.52	46286.43
574.68	46012.59
574.84	46476.02
575.01	46422.19
575.17	46127.28
575.33	46108.55
575.49	46045.36
575.65	46583.68
575.82	46265.37
575.98	46036.00
576.14	46394.10
576.30	46323.88
576.46	46141.32
576.62	46555.60
576.79	46206.86
576.95	46129.62
577.11	46410.48
577.27	46199.83
577.43	46394.10
577.59	46469.00
577.75	46021.95
577.92	46349.63
578.08	46050.04
578.24	45918.97
578.40	46040.68
578.56	46270.05
578.72	46234.94
578.88	46445.59
579.04	46518.15
579.21	46218.56
579.37	46190.47
579.53	46227.92
579.69	46120.26
579.85	45993.87
580.01	46436.23
580.17	45970.46
580.33	46625.81
580.49	46167.07
580.65	46525.17
580.82	46384.74
580.98	46005.57
581.14	45874.50
581.30	46302.82
581.46	46113.23
581.62	46710.07
581.78	46300.48
581.94	46684.33
582.10	46192.81
582.26	46237.28
582.42	46457.29
582.58	46356.65
582.74	46370.69
582.90	46534.53
583.06	46096.85
583.22	46518.15
583.38	46740.50
583.54	46653.90
583.70	46763.90
583.86	46852.84
584.02	46176.43
584.18	46672.62
584.34	46410.48
584.50	46913.70
584.66	46557.94
584.82	46373.03
584.98	46344.95
585.14	46366.01
585.30	46576.66
585.46	46459.63
585.62	46028.98
585.78	46562.62
585.94	46337.93
586.10	46747.52
586.26	46141.32
586.42	46096.85
586.58	46469.00
586.74	46550.91
586.90	46295.80
587.06	46319.20
587.22	46696.03
587.38	46143.66
587.54	46693.69
587.70	46401.12
587.86	46330.90
588.02	46539.21
588.18	46583.68
588.34	46270.05
588.49	46021.95
588.65	45549.17
588.81	45825.35
588.97	46380.06
589.13	45492.99
589.29	46012.59
589.45	46679.64
589.61	46321.54
589.77	46012.59
589.93	46424.53
