SpectraSuite Data File
++++++++++++++++++++++++++++++++++++
Date: Fri Oct 25 11:26:29 EDT 2013
User: price-jones
Dark Spectrum Present: No
Reference Spectrum Present: No
Number of Sampled Component Spectra: 1
Spectrometers: USB2+H05261
Integration Time (usec): 100000 (USB2+H05261)
Spectra Averaged: 1 (USB2+H05261)
Boxcar Smoothing: 0 (USB2+H05261)
Correct for Electrical Dark: No (USB2+H05261)
Strobe/Lamp Enabled: No (USB2+H05261)
Correct for Detector Non-linearity: No (USB2+H05261)
Correct for Stray Light: No (USB2+H05261)
Number of Pixels in Processed Spectrum: 2048
>>>>>Begin Processed Spectral Data<<<<<
365.73	161.50
365.92	161.50
366.12	161.50
366.32	114.69
366.52	126.39
366.72	215.33
366.91	102.98
367.11	112.35
367.31	119.37
367.51	163.84
367.70	138.09
367.90	74.90
368.10	110.01
368.30	105.32
368.49	135.75
368.69	168.52
368.89	156.82
369.09	138.09
369.28	198.95
369.48	168.52
369.68	177.88
369.87	191.92
370.07	238.73
370.27	259.80
370.47	358.10
370.66	678.76
370.86	709.18
371.06	657.69
371.25	741.95
371.45	643.65
371.65	636.63
371.84	606.20
372.04	690.46
372.24	723.23
372.44	795.78
372.63	716.20
372.83	713.86
373.03	755.99
373.22	713.86
373.42	814.51
373.62	725.57
373.81	788.76
374.01	844.93
374.21	800.46
374.40	802.80
374.60	706.84
374.79	898.77
374.99	847.27
375.19	809.83
375.38	908.13
375.58	826.21
375.78	814.51
375.97	772.38
376.17	922.17
376.37	807.48
376.56	898.77
376.76	812.17
376.95	861.32
377.15	875.36
377.35	849.61
377.54	915.15
377.74	964.30
377.93	940.90
378.13	978.34
378.33	896.43
378.52	929.19
378.72	903.45
378.91	908.13
379.11	915.15
379.31	959.62
379.50	877.70
379.70	964.30
379.89	971.32
380.09	964.30
380.28	968.98
380.48	1067.28
380.68	987.71
380.87	985.37
381.07	1060.26
381.26	992.39
381.46	1022.81
381.65	987.71
381.85	1102.39
382.04	973.66
382.24	1039.20
382.43	1013.45
382.63	1060.26
382.83	931.53
383.02	1139.84
383.22	1156.22
383.41	1109.41
383.61	1167.93
383.80	1114.10
384.00	1153.88
384.19	1132.82
384.39	1193.67
384.58	1231.12
384.78	1142.18
384.97	1076.65
385.17	1198.35
385.36	1151.54
385.56	1224.10
385.75	1135.16
385.95	1228.78
386.14	1252.19
386.34	1196.01
386.53	1324.74
386.72	1137.50
386.92	1261.55
387.11	1214.74
387.31	1191.33
387.50	1308.36
387.70	1268.57
387.89	1303.68
388.09	1268.57
388.28	1291.98
388.48	1224.10
388.67	1233.46
388.86	1282.61
389.06	1303.68
389.25	1334.11
389.45	1256.87
389.64	1357.51
389.84	1338.79
390.03	1387.94
390.22	1401.98
390.42	1380.92
390.61	1420.71
390.81	1446.45
391.00	1362.19
391.19	1355.17
391.39	1411.34
391.58	1434.75
391.78	1444.11
391.97	1540.07
392.16	1399.64
392.36	1490.92
392.55	1526.03
392.75	1528.37
392.94	1493.26
393.13	1490.92
393.33	1390.28
393.52	1481.56
393.71	1664.12
393.91	1490.92
394.10	1528.37
394.29	1568.16
394.49	1540.07
394.68	1727.32
394.88	1617.31
395.07	1715.61
395.26	1596.25
395.46	1668.80
395.65	1678.16
395.84	1668.80
396.04	1781.15
396.23	1708.59
396.42	1624.33
396.62	1654.76
396.81	1692.21
397.00	1858.39
397.19	1806.89
397.39	1849.02
397.58	1802.21
397.77	1842.00
397.97	1806.89
398.16	1811.57
398.35	1891.15
398.55	1750.72
398.74	1818.60
398.93	1930.94
399.12	1858.39
399.32	1942.64
399.51	1865.41
399.70	1970.73
399.90	1966.05
400.09	2050.31
400.28	2038.61
400.47	1907.54
400.67	2029.24
400.86	2059.67
401.05	2059.67
401.24	2146.27
401.44	2083.08
401.63	2078.40
401.82	2059.67
402.01	2139.25
402.21	2141.59
402.40	2146.27
402.59	2176.70
402.78	2195.42
402.97	2141.59
403.17	2188.40
403.36	2305.43
403.55	2258.62
403.74	2263.30
403.93	2265.64
404.13	2347.56
404.32	2434.16
404.51	2431.82
404.70	2506.71
404.89	2342.88
405.09	2455.22
405.28	2469.27
405.47	2464.58
405.66	2438.84
405.85	2532.46
406.05	2651.83
406.24	2523.10
406.43	2555.86
406.62	2569.91
406.81	2670.55
407.00	2567.57
407.20	2537.14
407.39	2668.21
407.58	2712.68
407.77	2684.59
407.96	2696.30
408.15	2801.62
408.34	2775.88
408.54	2869.50
408.73	2686.94
408.92	2888.22
409.11	2904.60
409.30	2841.41
409.49	2794.60
409.68	2825.03
409.87	2925.67
410.07	2925.67
410.26	2958.44
410.45	2895.24
410.64	3033.33
410.83	3045.04
411.02	3190.15
411.21	3150.36
411.40	3148.02
411.59	3251.00
411.78	3108.23
411.98	3194.83
412.17	3229.94
412.36	3323.56
412.55	3382.07
412.74	3349.31
412.93	3382.07
413.12	3386.76
413.31	3559.95
413.50	3435.91
413.69	3571.66
413.88	3620.81
414.07	3574.00
414.26	3534.21
414.45	3571.66
414.64	3662.94
414.83	3707.41
415.02	3716.77
415.22	3796.35
415.41	3927.42
415.60	3794.01
415.79	3887.63
415.98	4014.02
416.17	4058.49
416.36	3932.10
416.55	3899.33
416.74	4079.55
416.93	3927.42
417.12	4168.49
417.31	4175.52
417.50	4086.58
417.69	4236.37
417.88	4170.83
418.07	4257.43
418.26	4114.66
418.45	4283.18
418.64	4451.70
418.83	4362.76
419.02	4411.91
419.21	4447.02
419.39	4482.13
419.58	4428.29
419.77	4432.97
419.96	4482.13
420.15	4507.87
420.34	4709.16
420.53	4512.55
420.72	4755.97
420.91	4542.98
421.10	4629.58
421.29	4819.16
421.48	4578.09
421.67	4795.76
421.86	4648.30
422.05	4865.97
422.24	4840.23
422.43	4933.85
422.61	4770.01
422.80	4926.83
422.99	4734.90
423.18	4919.81
423.37	5060.24
423.56	4926.83
423.75	4901.08
423.94	4865.97
424.13	4655.33
424.32	4758.31
424.50	4809.80
424.69	5174.92
424.88	5100.03
425.07	4873.00
425.26	4877.68
425.45	4877.68
425.64	4835.55
425.83	4884.70
426.01	5093.01
426.20	5137.48
426.39	5200.67
426.58	4978.32
426.77	5043.85
426.96	5107.05
427.15	5074.28
427.33	5179.61
427.52	5205.35
427.71	5249.82
427.90	5259.18
428.09	5317.70
428.28	5458.13
428.46	5345.78
428.65	5380.89
428.84	5399.62
429.03	5502.60
429.22	5434.72
429.40	5284.93
429.59	5507.28
429.78	5217.05
429.97	5329.40
430.16	5425.36
430.34	5542.39
430.53	5724.95
430.72	5657.07
430.91	5734.31
431.10	5589.20
431.28	5680.48
431.47	5802.19
431.66	5849.00
431.85	5720.27
432.03	5863.04
432.22	6054.97
432.41	5795.17
432.60	5811.55
432.79	5935.60
432.97	5980.07
433.16	5912.19
433.35	5935.60
433.54	5940.28
433.72	6237.53
433.91	6129.86
434.10	6349.87
434.28	6183.70
434.47	6216.46
434.66	6143.91
434.85	6347.53
435.03	6480.94
435.22	6284.34
435.41	6429.45
435.59	6415.41
435.78	6340.51
435.97	6363.92
436.16	6305.40
436.34	6296.04
436.53	6394.34
436.72	6743.08
436.90	6408.39
437.09	6502.01
437.28	6347.53
437.46	6478.60
437.65	6532.44
437.84	6768.83
438.02	6609.67
438.21	6787.55
438.40	6738.40
438.58	6920.96
438.77	7045.01
438.96	6825.00
439.14	6942.03
439.33	7220.55
439.52	7140.97
439.70	7187.79
439.89	7375.03
440.08	7243.96
440.26	7176.08
440.45	7426.52
440.63	7454.61
440.82	7536.52
441.01	7524.82
441.19	7709.72
441.38	7735.47
441.57	7557.59
441.75	7609.08
441.94	7974.21
442.12	7943.78
442.31	7946.12
442.50	7896.97
442.68	7831.43
442.87	8021.02
443.05	8060.80
443.24	8271.45
443.43	8030.38
443.61	8156.77
443.80	8292.52
443.98	8042.08
444.17	7777.60
444.35	8271.45
444.54	8320.60
444.73	8290.18
444.91	8257.41
445.10	8496.14
445.28	8414.23
445.47	8161.45
445.65	8189.53
445.84	8510.19
446.02	8479.76
446.21	8245.71
446.39	8507.85
446.58	8589.77
446.77	8446.99
446.95	8360.39
447.14	8224.64
447.32	8446.99
447.51	8320.60
447.69	8374.44
447.88	8496.14
448.06	8442.31
448.25	8585.08
448.43	8549.98
448.62	8557.00
448.80	8545.30
448.99	8697.43
449.17	8718.50
449.36	8596.79
449.54	8769.99
449.73	8816.80
449.91	8894.04
450.10	8915.10
450.28	8940.85
450.46	8971.27
450.65	9144.47
450.83	8919.78
451.02	9097.66
451.20	9193.62
451.39	9240.44
451.57	8924.46
451.76	8910.42
451.94	9139.79
452.13	9357.46
452.31	9303.63
452.49	9109.36
452.68	9418.32
452.86	9334.06
453.05	9284.91
453.23	9415.98
453.42	9420.66
453.60	9341.08
453.78	9369.16
453.97	9233.41
454.15	9397.25
454.34	9406.61
454.52	9460.45
454.70	9448.74
454.89	9582.15
455.07	9874.72
455.26	9699.18
455.44	9935.57
455.62	9863.02
455.81	9895.78
455.99	9853.66
456.17	10054.94
456.36	9907.49
456.54	9914.51
456.73	10078.35
456.91	10174.31
457.09	10509.01
457.28	10509.01
457.46	10312.40
457.64	10506.66
457.83	10541.77
458.01	10366.23
458.19	10998.18
458.38	10492.62
458.56	10478.58
458.74	10843.70
458.93	10499.64
459.11	10871.79
459.29	10633.05
459.48	10672.84
459.66	10675.18
459.84	10853.06
460.03	10916.26
460.21	10843.70
460.39	10906.90
460.57	10822.64
460.76	11269.68
460.94	11208.83
461.12	11089.46
461.31	11115.20
461.49	11073.07
461.67	11126.91
461.85	11318.83
462.04	11194.78
462.22	11819.71
462.40	11726.08
462.59	11461.60
462.77	11241.59
462.95	11606.72
463.13	11812.68
463.32	11367.98
463.50	11714.38
463.68	11562.25
463.86	11742.47
464.05	11669.91
464.23	11587.99
464.41	11768.21
464.59	11609.06
464.78	11936.73
464.96	11637.14
465.14	11941.41
465.32	11901.62
465.50	12198.87
465.69	12163.76
465.87	12063.12
466.05	11999.93
466.23	12084.19
466.41	12184.83
466.60	12409.52
466.78	11955.46
466.96	12105.25
467.14	12170.79
467.32	12194.19
467.51	12573.36
467.69	12121.63
467.87	12320.58
468.05	12535.91
468.23	12236.32
468.41	12409.52
468.60	12535.91
468.78	12755.92
468.96	12564.00
469.14	12575.70
469.32	12807.41
469.50	12720.81
469.69	12788.69
469.87	13060.19
470.05	12793.37
470.23	12851.88
470.41	13163.17
470.59	13298.92
470.77	13139.77
470.95	13245.09
471.14	13348.08
471.32	13102.32
471.50	13535.32
471.68	13514.25
471.86	13752.99
472.04	13727.24
472.22	14104.07
472.40	13666.39
472.58	13547.02
472.77	13699.16
472.95	13926.19
473.13	14579.20
473.31	13919.17
473.49	14080.66
473.67	14092.37
473.85	14270.25
474.03	14211.73
474.21	14621.33
474.39	14843.68
474.57	14731.33
474.75	14731.33
474.93	14897.51
475.12	14773.46
475.30	15234.55
475.48	14801.55
475.66	15304.76
475.84	15026.24
476.02	15433.49
476.20	15176.03
476.38	15658.18
476.56	16006.92
476.74	16140.33
476.92	15854.79
477.10	15817.34
477.28	16152.04
477.46	16308.85
477.64	16449.28
477.82	16428.22
478.00	16526.52
478.18	16599.08
478.36	16725.47
478.54	17104.64
478.72	16933.78
478.90	17570.40
479.08	17380.82
479.26	17516.57
479.44	17439.33
479.62	17734.24
479.80	18010.42
479.98	17905.10
480.16	18235.11
480.34	18228.09
480.52	18523.00
480.70	18333.42
480.88	18263.20
481.06	18684.50
481.24	18520.66
481.41	18640.03
481.59	19262.61
481.77	19147.92
481.95	19522.41
482.13	19683.91
482.31	19417.08
482.49	20058.39
482.67	20065.41
482.85	20299.47
483.03	20599.05
483.21	20790.98
483.39	20664.59
483.57	20615.44
483.74	20961.84
483.92	21221.64
484.10	21315.26
484.28	21266.11
484.46	21582.08
484.64	22190.62
484.82	22001.04
485.00	22003.38
485.18	22609.58
485.35	22691.49
485.53	22389.56
485.71	23037.89
485.89	23232.16
486.07	23023.85
486.25	23260.24
486.43	23625.37
486.61	23885.17
486.78	24222.20
486.96	24254.97
487.14	24507.75
487.32	24797.98
487.50	24959.47
487.68	24898.62
487.85	25408.86
488.03	25270.76
488.21	25745.89
488.39	25942.50
488.57	25759.94
488.75	26211.66
488.92	26270.17
489.10	26586.15
489.28	26705.51
489.46	27117.45
489.64	27030.85
489.81	27271.92
489.99	27171.28
490.17	27749.39
490.35	28030.26
490.53	27901.53
490.70	28184.73
490.88	28039.62
491.06	28716.03
491.24	28580.28
491.41	28833.06
491.59	28994.56
491.77	29376.06
491.95	28844.76
492.13	29631.18
492.30	29624.16
492.48	29773.95
492.66	30068.86
492.84	30108.65
493.01	30478.46
493.19	30270.15
493.37	30661.02
493.54	30946.56
493.72	31428.71
493.90	31117.42
494.08	32039.59
494.25	31864.05
494.43	31873.42
494.61	32158.96
494.79	32231.52
494.96	32367.27
495.14	32292.37
495.32	33221.56
495.49	33027.30
495.67	33010.92
495.85	33390.08
496.02	33514.13
496.20	33944.79
496.38	33989.26
496.55	34150.76
496.73	34726.53
496.91	34422.26
497.09	34946.54
497.26	34902.07
497.44	34387.15
497.62	34993.35
497.79	35833.60
497.97	35267.19
498.14	35686.15
498.32	35913.18
498.50	35653.38
498.67	36018.50
498.85	36123.83
499.03	36671.51
499.20	36671.51
499.38	36290.01
499.56	36889.18
499.73	36882.16
499.91	37006.21
500.08	37441.55
500.26	37242.60
500.44	37319.84
500.61	37574.96
500.79	37361.97
500.97	37820.72
501.14	38153.07
501.32	38480.75
501.49	38305.21
501.67	38700.76
501.84	38782.68
502.02	38431.60
502.20	38483.09
502.37	38993.32
502.55	38979.28
502.72	39096.31
502.90	39033.11
503.07	39178.23
503.25	39456.75
503.43	39210.99
503.60	39716.55
503.78	39796.13
503.95	39889.75
504.13	40062.95
504.30	40341.47
504.48	40121.46
504.65	40584.89
504.83	40692.55
505.01	41167.68
505.18	41163.00
505.36	41247.26
505.53	40783.83
505.71	41186.41
505.88	41352.58
506.06	41336.20
506.23	41773.88
506.41	41734.09
506.58	41858.14
506.76	41776.22
506.93	42342.63
507.11	42340.29
507.28	42272.42
507.46	42429.23
507.63	42667.97
507.81	42541.58
507.98	42361.36
508.16	42534.56
508.33	42892.66
508.50	43079.90
508.68	43400.55
508.85	43438.00
509.03	43316.29
509.20	43473.11
509.38	43859.30
509.55	44011.43
509.73	44039.52
509.90	44339.11
510.08	44626.99
510.25	44177.61
510.42	44481.88
510.60	44755.72
510.77	44800.19
510.95	44891.48
511.12	44921.90
511.30	45057.65
511.47	45265.96
511.64	45413.41
511.82	45516.40
511.99	45492.99
512.17	45703.64
512.34	45684.92
512.51	46211.54
512.69	46459.63
512.86	46000.89
513.04	46370.69
513.21	46253.67
513.38	46433.89
513.56	46518.15
513.73	46401.12
513.90	46525.17
514.08	46604.75
514.25	47178.18
514.43	47402.87
514.60	47402.87
514.77	47203.92
514.95	48004.39
515.12	47070.51
515.29	46967.53
515.47	47384.15
515.64	47896.72
515.81	47735.23
515.99	47999.71
516.16	48449.09
516.33	48245.46
516.51	48608.25
516.68	48332.06
516.85	48559.09
517.03	48294.61
517.20	48320.36
517.37	48505.26
517.54	48336.74
517.72	48313.34
517.89	48783.79
518.06	49188.70
518.24	48907.83
518.41	49083.37
518.58	49139.55
518.75	49373.60
518.93	49319.77
519.10	48921.88
519.27	49532.76
519.45	49427.43
519.62	49708.30
519.79	49900.22
519.96	49631.06
520.14	49975.12
520.31	49799.58
520.48	50220.87
520.65	50375.35
520.83	50089.80
521.00	50494.72
521.17	50326.20
521.34	50426.84
521.52	50436.20
521.69	50564.93
521.86	50742.81
522.03	50862.18
522.20	51154.75
522.38	51185.18
522.55	51320.93
522.72	51187.52
522.89	51400.50
523.07	51442.63
523.24	51341.99
523.41	51501.15
523.58	51330.29
523.75	51576.04
523.92	51358.38
524.10	51580.73
524.27	51721.16
524.44	51536.26
524.61	51873.29
524.78	51452.00
524.96	51840.53
525.13	52154.16
525.30	52376.51
525.47	52650.35
525.64	51978.62
525.81	52416.30
525.98	52303.95
526.16	52648.01
526.33	52816.53
526.50	52776.74
526.67	52322.68
526.84	52767.38
527.01	52633.97
527.18	52299.27
527.36	52563.75
527.53	52713.55
527.70	53123.14
527.87	53242.51
528.04	53083.35
528.21	53216.76
528.38	52924.19
528.55	53249.53
528.72	53268.25
528.89	53205.06
529.07	53186.33
529.24	53258.89
529.41	53837.00
529.58	53434.43
529.75	53457.84
529.92	53478.90
530.09	53638.06
530.26	53851.05
530.43	53769.13
530.60	53549.12
530.77	53647.42
530.94	53918.92
531.11	53890.83
531.28	54052.33
531.46	54073.40
531.63	54195.10
531.80	54085.10
531.97	54190.42
532.14	54169.36
532.31	54195.10
532.48	54321.49
532.65	54651.51
532.82	54485.33
532.99	54583.63
533.16	54515.76
533.33	54686.62
533.50	54616.40
533.67	54328.52
533.84	54525.12
534.01	54775.56
534.18	54717.04
534.35	55000.25
534.52	54990.89
534.69	54906.63
534.86	55164.09
535.03	54784.92
535.20	54906.63
535.37	54993.23
535.54	55068.12
535.71	54993.23
535.88	55386.44
536.05	55061.10
536.22	55430.91
536.38	55494.10
536.55	55217.92
536.72	55611.13
536.89	55007.27
537.06	55529.21
537.23	55458.99
537.40	55498.78
537.57	55576.02
537.74	55648.58
537.91	56023.06
538.08	55737.52
538.25	55346.65
538.42	55955.19
538.59	55870.93
538.75	55590.06
538.92	55873.27
539.09	56184.56
539.26	55915.40
539.43	56266.48
539.60	56093.28
539.77	56072.21
539.94	56060.51
540.11	56032.42
540.28	56306.27
540.44	56425.64
540.61	56207.97
540.78	56055.83
540.95	56376.48
541.12	56519.26
541.29	56420.95
541.46	56479.47
541.62	56247.75
541.79	56566.07
541.96	56329.67
542.13	56371.80
542.30	56308.61
542.47	56594.15
542.63	56903.10
542.80	56811.82
542.97	56879.70
543.14	57219.08
543.31	56996.73
543.48	56924.17
543.64	57195.67
543.81	57137.16
543.98	57120.77
544.15	57148.86
544.32	57378.23
544.48	57525.69
544.65	57261.21
544.82	57095.03
544.99	57036.51
545.16	57256.53
545.32	57263.55
545.49	57375.89
545.66	57577.18
545.83	57326.74
546.00	57666.12
546.16	57312.70
546.33	57387.60
546.50	57385.25
546.67	57560.79
546.83	57350.15
547.00	57303.34
547.17	57464.83
547.34	57666.12
547.50	57673.14
547.67	57851.02
547.84	57858.04
548.00	57895.49
548.17	57989.11
548.34	58162.31
548.51	58059.33
548.67	58019.54
548.84	57956.35
549.01	57886.13
549.18	58052.31
549.34	57925.92
549.51	58330.83
549.68	58258.27
549.84	58174.02
550.01	58209.12
550.18	58087.42
550.34	58267.64
550.51	58384.66
550.68	58248.91
550.84	58127.20
551.01	58405.73
551.18	58328.49
551.34	58314.45
551.51	58323.81
551.68	58305.09
551.84	58267.64
552.01	58466.58
552.18	58251.25
552.34	58419.77
552.51	58782.55
552.68	58295.72
552.84	58370.62
553.01	58672.55
553.18	58555.52
553.34	58569.57
553.51	58560.20
553.67	58759.15
553.84	58885.54
554.01	58511.05
554.17	59044.69
554.34	58651.48
554.51	58901.92
554.67	58798.94
554.84	58735.74
555.00	58878.52
555.17	58967.46
555.33	59157.04
555.50	58791.92
555.67	58962.78
555.83	58873.84
556.00	58983.84
556.16	59135.98
556.33	59128.95
556.50	58848.09
556.66	59236.62
556.83	58948.73
556.99	59302.15
557.16	59281.09
557.32	59302.15
557.49	59524.50
557.65	59182.79
557.82	59260.02
557.98	59276.41
558.15	59468.33
558.32	59519.82
558.48	59360.67
558.65	59320.88
558.81	59381.73
558.98	59606.42
559.14	59337.26
559.31	59365.35
559.47	59632.17
559.64	59433.22
559.80	59536.21
559.97	59573.66
560.13	59641.53
560.30	59512.80
560.46	59526.84
560.63	59496.42
560.79	59728.13
560.96	59714.09
561.12	59568.97
561.29	59828.77
561.45	59997.29
561.61	59765.58
561.78	59578.34
561.94	59662.60
562.11	59618.13
562.27	59704.73
562.44	59835.80
562.60	59800.69
562.77	59774.94
562.93	59618.13
563.10	59917.71
563.26	59735.15
563.42	60100.28
563.59	60023.04
563.75	59826.43
563.92	59966.87
564.08	59922.40
564.24	60163.47
564.41	59983.25
564.57	60030.06
564.74	59976.23
564.90	59898.99
565.07	59978.57
565.23	60072.19
565.39	59898.99
565.56	59957.50
565.72	60023.04
565.88	60037.08
566.05	59791.33
566.21	60126.02
566.38	59997.29
566.54	60023.04
566.70	60086.23
566.87	60214.96
567.03	60025.38
567.19	60313.26
567.36	60397.52
567.52	60198.58
567.68	60273.48
567.85	60128.36
568.01	60409.23
568.17	60193.90
568.34	60266.45
568.50	59999.63
568.66	60266.45
568.83	60186.88
568.99	60210.28
569.15	60388.16
569.32	60086.23
569.48	60121.34
569.64	60430.29
569.81	60247.73
569.97	60133.04
570.13	60397.52
570.30	60317.95
570.46	60367.10
570.62	60140.07
570.78	60308.58
570.95	60381.14
571.11	60470.08
571.27	60374.12
571.43	60430.29
571.60	60470.08
571.76	60587.11
571.92	60526.25
572.09	60303.90
572.25	60432.63
572.41	60514.55
572.57	60432.63
572.74	60535.62
572.90	60285.18
573.06	60449.02
573.22	60437.31
573.38	60594.13
573.55	60589.45
573.71	60591.79
573.87	60720.52
574.03	60596.47
574.20	60556.68
574.36	60472.42
574.52	60561.36
574.68	60662.00
574.84	60790.73
575.01	60645.62
575.17	60708.82
575.33	60427.95
575.49	60549.66
575.65	60566.04
575.82	60685.41
575.98	60629.24
576.14	60889.04
576.30	60662.00
576.46	60495.83
576.62	60570.72
576.79	60715.84
576.95	60474.76
577.11	60687.75
577.27	60584.77
577.43	60722.86
577.59	60711.16
577.75	60734.56
577.92	60362.42
578.08	60608.17
578.24	60713.50
578.40	60603.49
578.56	60877.33
578.72	60963.93
578.88	60874.99
579.04	60699.45
579.21	60676.05
579.37	60797.76
579.53	61024.79
579.69	60577.75
579.85	60573.06
580.01	60605.83
580.17	60804.78
580.33	60643.28
580.49	60697.11
580.65	60713.50
580.82	60769.67
580.98	60601.15
581.14	60722.86
581.30	60942.87
581.46	60769.67
581.62	60870.31
581.78	60594.13
581.94	60715.84
582.10	60802.44
582.26	60711.16
582.42	60692.43
582.58	60699.45
582.74	60725.20
582.90	60816.48
583.06	60685.41
583.22	60575.40
583.38	60809.46
583.54	60886.70
583.70	60786.05
583.86	60732.22
584.02	60896.06
584.18	60882.02
584.34	60919.46
584.50	60697.11
584.66	60774.35
584.82	60790.73
584.98	61125.43
585.14	61017.77
585.30	60535.62
585.46	60945.21
585.62	60837.54
585.78	60947.55
585.94	60734.56
586.10	60811.80
586.26	60772.01
586.42	60961.59
586.58	60863.29
586.74	60938.19
586.90	60816.48
587.06	60753.29
587.22	60954.57
587.38	60903.08
587.54	61127.77
587.70	61041.17
587.86	60900.74
588.02	60982.66
588.18	61048.19
588.34	60865.63
588.49	60982.66
