SpectraSuite Data File
++++++++++++++++++++++++++++++++++++
Date: Fri Oct 25 11:26:40 EDT 2013
User: price-jones
Dark Spectrum Present: No
Reference Spectrum Present: No
Number of Sampled Component Spectra: 1
Spectrometers: USB2+H05261
Integration Time (usec): 100000 (USB2+H05261)
Spectra Averaged: 1 (USB2+H05261)
Boxcar Smoothing: 0 (USB2+H05261)
Correct for Electrical Dark: No (USB2+H05261)
Strobe/Lamp Enabled: No (USB2+H05261)
Correct for Detector Non-linearity: No (USB2+H05261)
Correct for Stray Light: No (USB2+H05261)
Number of Pixels in Processed Spectrum: 2048
>>>>>Begin Processed Spectral Data<<<<<
365.73	210.65
365.92	210.65
366.12	210.65
366.32	128.73
366.52	135.75
366.72	147.45
366.91	91.28
367.11	175.54
367.31	100.64
367.51	189.58
367.70	91.28
367.90	142.77
368.10	198.95
368.30	149.79
368.49	145.11
368.69	133.41
368.89	154.48
369.09	126.39
369.28	133.41
369.48	138.09
369.68	203.63
369.87	198.95
370.07	161.50
370.27	243.42
370.47	290.23
370.66	627.26
370.86	622.58
371.06	685.78
371.25	683.44
371.45	727.91
371.65	688.12
371.84	746.63
372.04	734.93
372.24	718.54
372.44	676.41
372.63	770.04
372.83	802.80
373.03	664.71
373.22	786.42
373.42	770.04
373.62	828.55
373.81	821.53
374.01	800.46
374.21	795.78
374.40	805.14
374.60	812.17
374.79	816.85
374.99	821.53
375.19	767.70
375.38	894.08
375.58	793.44
375.78	861.32
375.97	854.30
376.17	908.13
376.37	898.77
376.56	840.25
376.76	828.55
376.95	880.04
377.15	922.17
377.35	926.85
377.54	1022.81
377.74	844.93
377.93	929.19
378.13	936.21
378.33	992.39
378.52	798.12
378.72	940.90
378.91	1034.52
379.11	952.60
379.31	929.19
379.50	1034.52
379.70	1020.47
379.89	1013.45
380.09	1062.60
380.28	1043.88
380.48	992.39
380.68	999.41
380.87	971.32
381.07	968.98
381.26	1029.84
381.46	1029.84
381.65	1013.45
381.85	1086.01
382.04	1069.62
382.24	1022.81
382.43	1107.07
382.63	1078.99
382.83	1064.94
383.02	1097.71
383.22	1135.16
383.41	1013.45
383.61	1048.56
383.80	1188.99
384.00	1132.82
384.19	1172.61
384.39	1128.14
384.58	1123.46
384.78	1151.54
384.97	1184.31
385.17	1135.16
385.36	1221.76
385.56	1153.88
385.75	1191.33
385.95	1235.80
386.14	1282.61
386.34	1184.31
386.53	1188.99
386.72	1151.54
386.92	1294.32
387.11	1252.19
387.31	1270.91
387.50	1273.25
387.70	1247.51
387.89	1322.40
388.09	1336.45
388.28	1261.55
388.48	1334.11
388.67	1366.87
388.86	1317.72
389.06	1362.19
389.25	1327.08
389.45	1350.49
389.64	1329.42
389.84	1341.13
390.03	1343.47
390.22	1383.26
390.42	1378.58
390.61	1409.00
390.81	1455.81
391.00	1432.41
391.19	1483.90
391.39	1462.83
391.58	1563.48
391.78	1458.15
391.97	1488.58
392.16	1460.49
392.36	1568.16
392.55	1584.54
392.75	1465.18
392.94	1535.39
393.13	1568.16
393.33	1556.46
393.52	1577.52
393.71	1664.12
393.91	1577.52
394.10	1589.22
394.29	1598.59
394.49	1572.84
394.68	1732.00
394.88	1638.38
395.07	1748.38
395.26	1734.34
395.46	1685.19
395.65	1722.63
395.84	1727.32
396.04	1774.13
396.23	1781.15
396.42	1739.02
396.62	1849.02
396.81	1797.53
397.00	1832.64
397.19	1774.13
397.39	1739.02
397.58	1806.89
397.77	1820.94
397.97	1802.21
398.16	1846.68
398.35	1825.62
398.55	1966.05
398.74	2010.52
398.93	1944.99
399.12	1996.48
399.32	1891.15
399.51	2022.22
399.70	1998.82
399.90	2066.69
400.09	2019.88
400.28	2062.01
400.47	2005.84
400.67	2045.63
400.86	2066.69
401.05	2148.61
401.24	2115.84
401.44	2080.74
401.63	2258.62
401.82	2165.00
402.01	2209.47
402.21	2216.49
402.40	2246.91
402.59	2197.76
402.78	2244.57
402.97	2267.98
403.17	2328.83
403.36	2165.00
403.55	2338.20
403.74	2415.43
403.93	2377.98
404.13	2401.39
404.32	2387.35
404.51	2401.39
404.70	2443.52
404.89	2441.18
405.09	2516.08
405.28	2471.61
405.47	2466.92
405.66	2588.63
405.85	2527.78
406.05	2520.76
406.24	2693.96
406.43	2621.40
406.62	2705.66
406.81	2672.89
407.00	2635.44
407.20	2530.12
407.39	2628.42
407.58	2757.15
407.77	2796.94
407.96	2656.51
408.15	2736.09
408.34	2764.17
408.54	2782.90
408.73	2771.19
408.92	2857.79
409.11	2909.29
409.30	2867.16
409.49	3026.31
409.68	2832.05
409.87	3047.38
410.07	2963.12
410.26	3019.29
410.45	3056.74
410.64	3038.02
410.83	3344.63
411.02	3080.14
411.21	3283.77
411.40	3119.93
411.59	3337.60
411.78	3239.30
411.98	3166.74
412.17	3276.75
412.36	3283.77
412.55	3372.71
412.74	3503.78
412.93	3452.29
413.12	3335.26
413.31	3529.53
413.50	3454.63
413.69	3421.86
413.88	3583.36
414.07	3662.94
414.26	3625.49
414.45	3726.13
414.64	3707.41
414.83	3843.16
415.02	3803.37
415.22	3871.25
415.41	3967.21
415.60	3850.18
415.79	3939.12
415.98	3946.14
416.17	3976.57
416.36	3948.48
416.55	3981.25
416.74	4035.08
416.93	4112.32
417.12	4133.39
417.31	4252.75
417.50	4121.68
417.69	4386.16
417.88	4264.46
418.07	4262.12
418.26	4250.41
418.45	4437.66
418.64	4493.83
418.83	4428.29
419.02	4477.44
419.21	4627.24
419.39	4645.96
419.58	4592.13
419.77	4599.15
419.96	4629.58
420.15	4463.40
420.34	4655.33
420.53	4655.33
420.72	4835.55
420.91	4807.46
421.10	4697.46
421.29	4987.68
421.48	4615.54
421.67	4681.07
421.86	4809.80
422.05	4730.22
422.24	4849.59
422.43	4943.21
422.61	4905.76
422.80	4987.68
422.99	4922.15
423.18	5130.45
423.37	5053.22
423.56	4959.60
423.75	4929.17
423.94	4887.04
424.13	4650.64
424.32	4779.37
424.50	4999.38
424.69	5193.65
424.88	5064.92
425.07	4947.89
425.26	5071.94
425.45	5034.49
425.64	5139.82
425.83	5027.47
426.01	5118.75
426.20	5036.83
426.39	5062.58
426.58	5174.92
426.77	5132.79
426.96	5116.41
427.15	5210.03
427.33	5245.14
427.52	5327.06
427.71	5444.09
427.90	5132.79
428.09	5291.95
428.28	5390.25
428.46	5343.44
428.65	5427.70
428.84	5427.70
429.03	5598.56
429.22	5331.74
429.40	5490.90
429.59	5544.73
429.78	5392.59
429.97	5324.72
430.16	5425.36
430.34	5554.09
430.53	5652.39
430.72	5633.67
430.91	5500.26
431.10	5706.23
431.28	5804.53
431.47	5837.30
431.66	5823.25
431.85	5916.87
432.03	6024.54
432.22	6108.80
432.41	5905.17
432.60	6057.31
432.79	5874.74
432.97	5989.43
433.16	6120.50
433.35	6146.25
433.54	6078.37
433.72	6083.05
433.91	6265.61
434.10	6183.70
434.28	6232.85
434.47	6289.02
434.66	6176.67
434.85	6193.06
435.03	6394.34
435.22	6387.32
435.41	6558.18
435.59	6455.20
435.78	6445.84
435.97	6567.54
436.16	6459.88
436.34	6448.18
436.53	6579.25
436.72	6565.20
436.90	6434.13
437.09	6911.60
437.28	6567.54
437.46	6693.93
437.65	6733.72
437.84	6916.28
438.02	6932.67
438.21	7028.63
438.40	6656.48
438.58	7056.72
438.77	7098.84
438.96	7035.65
439.14	7218.21
439.33	7152.68
439.52	7185.44
439.70	7307.15
439.89	7232.26
440.08	7510.78
440.26	7435.88
440.45	7431.20
440.63	7623.12
440.82	7749.51
441.01	7527.16
441.19	7506.10
441.38	7721.43
441.57	7730.79
441.75	7709.72
441.94	7896.97
442.12	7948.46
442.31	7887.61
442.50	8124.00
442.68	8173.15
442.87	8039.74
443.05	8152.09
443.24	8390.82
443.43	8355.71
443.61	8219.96
443.80	8587.43
443.98	8016.33
444.17	7929.74
444.35	8318.26
444.54	8381.46
444.73	8304.22
444.91	8451.67
445.10	8432.95
445.28	8273.79
445.47	8313.58
445.65	8645.94
445.84	8262.09
446.02	8606.15
446.21	8486.78
446.39	8528.91
446.58	8519.55
446.77	8505.51
446.95	8402.52
447.14	8575.72
447.32	8681.05
447.51	8760.63
447.69	8624.87
447.88	8622.53
448.06	8461.04
448.25	8526.57
448.43	8669.34
448.62	8622.53
448.80	8636.58
448.99	8713.81
449.17	8814.46
449.36	8699.77
449.54	8964.25
449.73	9114.05
449.91	9076.60
450.10	9022.77
450.28	9273.20
450.46	9043.83
450.65	9193.62
450.83	9184.26
451.02	9083.62
451.20	9415.98
451.39	9338.74
451.57	9172.56
451.76	9114.05
451.94	9245.12
452.13	9329.38
452.31	9343.42
452.49	9160.86
452.68	9533.00
452.86	9242.78
453.05	9385.55
453.23	9680.46
453.42	9418.32
453.60	9444.06
453.78	9434.70
453.97	9507.26
454.15	9633.64
454.34	9593.86
454.52	9734.29
454.70	9856.00
454.89	9760.03
455.07	9713.22
455.26	9914.51
455.44	10010.47
455.62	9935.57
455.81	10033.88
455.99	9916.85
456.17	10115.80
456.36	10080.69
456.54	10143.88
456.73	10272.61
456.91	10551.14
457.09	10567.52
457.28	10548.79
457.46	10204.74
457.64	10724.33
457.83	10684.55
458.01	10490.28
458.19	10775.83
458.38	10607.31
458.56	10712.63
458.74	10754.76
458.93	10768.80
459.11	10733.70
459.29	10813.28
459.48	10789.87
459.66	10857.75
459.84	11061.37
460.03	10986.47
460.21	10963.07
460.39	11019.24
460.57	11208.83
460.76	11372.66
460.94	11304.79
461.12	11253.30
461.31	11367.98
461.49	11194.78
461.67	11433.52
461.85	11562.25
462.04	11358.62
462.22	11644.17
462.40	11569.27
462.59	11637.14
462.77	11580.97
462.95	11534.16
463.13	11864.18
463.32	11899.28
463.50	11903.96
463.68	11796.30
463.86	12020.99
464.05	11503.73
464.23	11716.72
464.41	11955.46
464.59	11730.76
464.78	12262.07
464.96	12077.16
465.14	12011.63
465.32	12395.48
465.50	12287.81
465.69	12290.15
465.87	12386.12
466.05	12292.49
466.23	12217.60
466.41	12149.72
466.60	12636.55
466.78	12233.98
466.96	12056.10
467.14	12451.65
467.32	12423.56
467.51	12556.97
467.69	12236.32
467.87	12428.24
468.05	12716.13
468.23	12585.06
468.41	12636.55
468.60	12730.17
468.78	12980.61
468.96	12809.75
469.14	12802.73
469.32	13188.92
469.50	12760.60
469.69	13001.68
469.87	13362.12
470.05	13444.04
470.23	13130.41
470.41	13465.10
470.59	13479.15
470.77	13228.71
470.95	13139.77
471.14	13680.43
471.32	13083.59
471.50	13708.52
471.68	13844.27
471.86	13631.28
472.04	13764.69
472.22	14134.50
472.40	13757.67
472.58	13982.36
472.77	14097.05
472.95	14066.62
473.13	14317.06
473.31	14113.43
473.49	14375.57
473.67	14310.04
473.85	14544.09
474.03	14609.62
474.21	14754.74
474.39	14906.87
474.57	14780.48
474.75	15056.67
474.93	15426.47
475.12	14995.81
475.30	15351.57
475.48	15372.64
475.66	15435.83
475.84	15183.06
476.02	15346.89
476.20	15690.95
476.38	15981.18
476.56	16058.42
476.74	16128.63
476.92	16020.97
477.10	15824.36
477.28	16423.54
477.46	16294.81
477.64	16603.76
477.82	16676.32
478.00	17095.27
478.18	16924.41
478.36	17132.72
478.54	17319.96
478.72	17298.90
478.90	17362.09
479.08	17678.07
479.26	17682.75
479.44	17577.42
479.62	18090.00
479.80	18345.12
479.98	18258.52
480.16	18724.29
480.34	18354.48
480.52	18633.00
480.70	18656.41
480.88	18679.82
481.06	18897.49
481.24	18979.40
481.41	19255.59
481.59	19412.40
481.77	19566.88
481.95	19803.27
482.13	19985.83
482.31	19920.30
482.49	20416.49
482.67	20013.92
482.85	20643.52
483.03	20608.42
483.21	21120.99
483.39	21055.46
483.57	21144.40
483.74	21118.65
483.92	21348.03
484.10	21596.12
484.28	21869.97
484.46	21968.27
484.64	22356.80
484.82	21788.05
485.00	22614.26
485.18	22927.89
485.35	23007.47
485.53	22607.23
485.71	22948.95
485.89	23632.39
486.07	23438.12
486.25	23777.50
486.43	23690.90
486.61	23735.37
486.78	23964.75
486.96	24348.59
487.14	24643.50
487.32	24650.52
487.50	24877.55
487.68	25153.74
487.85	25404.17
488.03	25568.01
488.21	25977.61
488.39	25919.09
488.57	26389.54
488.75	26434.01
488.92	26593.17
489.10	27133.83
489.28	26981.70
489.46	27597.26
489.64	27194.68
489.81	27824.29
489.99	27735.35
490.17	27826.63
490.35	28285.37
490.53	28390.70
490.70	28332.18
490.88	28339.21
491.06	29041.37
491.24	28947.75
491.41	28973.49
491.59	29532.88
491.77	29376.06
491.95	29736.51
492.13	29832.47
492.30	30417.60
492.48	30094.61
492.66	30478.46
492.84	30347.39
493.01	30604.84
493.19	31044.87
493.37	31449.78
493.54	31276.58
493.72	31573.83
493.90	32095.77
494.08	32311.10
494.25	32168.32
494.43	32048.96
494.61	32875.16
494.79	32807.29
494.96	32493.66
495.14	33076.45
495.32	33486.04
495.49	33696.69
495.67	33713.08
495.85	33928.41
496.02	33919.04
496.20	34052.45
496.38	34134.37
496.55	34443.32
496.73	35068.25
496.91	34740.57
497.09	34581.42
497.26	35353.79
497.44	35187.61
497.62	35281.24
497.79	35950.63
497.97	35412.31
498.14	36226.81
498.32	36432.78
498.50	36116.81
498.67	36683.22
498.85	36559.17
499.03	36737.05
499.20	36596.62
499.38	37610.07
499.56	37469.64
499.73	37174.73
499.91	37172.39
500.08	37865.19
500.26	37483.68
500.44	37631.13
500.61	38438.62
500.79	38148.39
500.97	38340.32
501.14	38796.72
501.32	38733.53
501.49	38958.22
501.67	38630.54
501.84	39260.15
502.02	39030.77
502.20	39152.48
502.37	39501.22
502.55	39634.63
502.72	39463.77
502.90	39438.03
503.07	39833.58
503.25	40313.39
503.43	40025.50
503.60	40151.89
503.78	40336.79
503.95	40353.18
504.13	40624.68
504.30	40854.05
504.48	40706.60
504.65	41177.04
504.83	41464.93
505.01	41563.23
505.18	41368.97
505.36	41635.79
505.53	41502.38
505.71	42052.41
505.88	42031.34
506.06	41757.50
506.23	42553.28
506.41	42218.58
506.58	42333.27
506.76	42593.07
506.93	42487.74
507.11	42866.91
507.28	42696.05
507.46	42569.66
507.63	43037.77
507.81	42827.12
507.98	43084.58
508.16	43276.51
508.33	43814.83
508.50	43971.64
508.68	43660.35
508.85	44156.55
509.03	44018.46
509.20	44507.63
509.38	44605.93
509.55	44816.58
509.73	44912.54
509.90	44865.73
510.08	44533.37
510.25	45343.20
510.42	44671.46
510.60	45516.40
510.77	45415.76
510.95	45366.60
511.12	45268.30
511.30	45085.74
511.47	45626.40
511.64	46031.32
511.82	46419.84
511.99	46136.64
512.17	45949.40
512.34	46382.40
512.51	46761.56
512.69	46712.41
512.86	47044.77
513.04	46820.08
513.21	46684.33
513.38	47012.00
513.56	46906.68
513.73	47079.88
513.90	47208.61
514.08	47161.79
514.25	47566.71
514.43	47299.89
514.60	47611.18
514.77	47936.51
514.95	48079.28
515.12	47859.27
515.29	47784.38
515.47	47978.64
515.64	48528.67
515.81	47793.74
515.99	48505.26
516.16	48458.45
516.33	48268.87
516.51	48886.77
516.68	49038.90
516.85	48498.24
517.03	49003.80
517.20	49155.93
517.37	49017.84
517.54	48903.15
517.72	49233.17
517.89	49329.13
518.06	49476.58
518.24	49579.57
518.41	49338.49
518.58	49698.94
518.75	49621.70
518.93	49656.81
519.10	49397.01
519.27	49528.08
519.45	49907.24
519.62	49883.84
519.79	50330.88
519.96	50157.68
520.14	50403.44
520.31	50408.12
520.48	50480.67
520.65	50672.60
520.83	50974.53
521.00	50658.56
521.17	50972.19
521.34	51009.64
521.52	50913.67
521.69	51056.45
521.86	51278.80
522.03	51189.86
522.20	51611.15
522.38	51239.01
522.55	51676.69
522.72	51299.86
522.89	51470.72
523.07	51978.62
523.24	51817.12
523.41	51613.49
523.58	51756.27
523.75	52100.32
523.92	51817.12
524.10	52301.61
524.27	52257.14
524.44	52191.61
524.61	52275.87
524.78	52130.75
524.96	52364.81
525.13	52364.81
525.30	52514.60
525.47	52664.39
525.64	52809.51
525.81	52914.83
525.98	53050.58
526.16	52760.36
526.33	52933.56
526.50	53064.63
526.67	53071.65
526.84	53301.02
527.01	53312.72
527.18	53235.48
527.36	53272.93
527.53	53364.21
527.70	53752.74
527.87	53382.94
528.04	53471.88
528.21	53703.59
528.38	53680.19
528.55	53666.14
528.72	53499.97
528.89	53832.32
529.07	53560.82
529.24	53916.58
529.41	53991.48
529.58	53710.61
529.75	53874.45
529.92	53834.66
530.09	53996.16
530.26	54134.25
530.43	54057.01
530.60	54017.22
530.77	53661.46
530.94	54127.23
531.11	53921.26
531.28	54354.26
531.46	54316.81
531.63	54621.08
531.80	54262.98
531.97	54422.14
532.14	54623.42
532.31	54672.57
532.48	54864.50
532.65	54745.13
532.82	54827.05
532.99	54974.50
533.16	54712.36
533.33	54958.12
533.50	54983.86
533.67	54986.21
533.84	54808.32
534.01	54836.41
534.18	55044.72
534.35	55255.37
534.52	55217.92
534.69	55416.86
534.86	55557.30
535.03	55433.25
535.20	55274.09
535.37	55475.38
535.54	55412.18
535.71	55643.90
535.88	55632.19
536.05	55625.17
536.22	55868.59
536.38	55856.88
536.55	55559.64
536.72	55693.05
536.89	55812.41
537.06	55870.93
537.23	55856.88
537.40	55749.22
537.57	55814.76
537.74	56067.53
537.91	56189.24
538.08	56074.55
538.25	55744.54
538.42	56004.34
538.59	56268.82
538.75	55903.70
538.92	56226.69
539.09	56540.32
539.26	56095.62
539.43	56491.17
539.60	56465.42
539.77	56598.83
539.94	56341.38
540.11	56575.43
540.28	56680.75
540.44	56596.49
540.61	56715.86
540.78	56357.76
540.95	56832.89
541.12	56765.01
541.29	56537.98
541.46	56638.62
541.62	56844.59
541.79	56832.89
541.96	56605.86
542.13	56795.44
542.30	56896.08
542.47	56860.97
542.63	57055.24
542.80	57198.01
542.97	57256.53
543.14	57436.75
543.31	57303.34
543.48	57666.12
543.64	57645.05
543.81	57574.84
543.98	57574.84
544.15	57499.94
544.32	57504.62
544.48	57645.05
544.65	57474.20
544.82	57530.37
544.99	57389.94
545.16	57626.33
545.32	57642.71
545.49	57858.04
545.66	58054.65
545.83	57771.44
546.00	57958.69
546.16	57776.12
546.33	57904.85
546.50	57574.84
546.67	57694.21
546.83	57647.39
547.00	58045.29
547.17	57986.77
547.34	58049.97
547.50	57865.06
547.67	58422.11
547.84	58129.54
548.00	58204.44
548.17	58394.03
548.34	58286.36
548.51	58532.12
548.67	58450.20
548.84	58260.62
549.01	58061.67
549.18	58372.96
549.34	58265.30
549.51	58578.93
549.68	58487.65
549.84	58293.38
550.01	58443.18
550.18	58181.04
550.34	58553.18
550.51	58588.29
550.68	58679.57
550.84	58321.47
551.01	58784.90
551.18	58663.19
551.34	58663.19
551.51	58829.37
551.68	58939.37
551.84	58754.47
552.01	58710.00
552.18	58815.32
552.34	58635.10
552.51	58911.28
552.68	58607.01
552.84	58836.39
553.01	58876.18
553.18	58834.05
553.34	58955.75
553.51	58899.58
553.67	58831.71
553.84	59231.94
554.01	59231.94
554.17	59100.87
554.34	59068.10
554.51	59056.40
554.67	59131.29
554.84	59051.72
555.00	59257.68
555.17	59086.82
555.33	59086.82
555.50	59063.42
555.67	59217.89
555.83	59150.02
556.00	59222.58
556.16	59536.21
556.33	59323.22
556.50	59400.46
556.66	59505.78
556.83	59241.30
556.99	59442.59
557.16	59583.02
557.32	59688.34
557.49	59887.29
557.65	59578.34
557.82	59465.99
557.98	59540.89
558.15	59587.70
558.32	59578.34
558.48	59667.28
558.65	59592.38
558.81	59650.89
558.98	59388.75
559.14	59674.30
559.31	59608.76
559.47	59730.47
559.64	59576.00
559.80	59838.14
559.97	59810.05
560.13	59746.86
560.30	59882.61
560.46	59931.76
560.63	59903.67
560.79	59826.43
560.96	60037.08
561.12	59859.20
561.29	59973.89
561.45	59868.56
561.61	59880.27
561.78	59943.46
561.94	59894.31
562.11	59875.58
562.27	60184.54
562.44	59969.21
562.60	60126.02
562.77	60229.01
562.93	60123.68
563.10	60102.62
563.26	60182.19
563.42	60231.35
563.59	60303.90
563.75	60055.81
563.92	60095.60
564.08	60221.98
564.24	60135.38
564.41	60294.54
564.57	60317.95
564.74	60226.66
564.90	60123.68
565.07	60339.01
565.23	60271.14
565.39	60205.60
565.56	60273.48
565.72	60371.78
565.88	60376.46
566.05	60339.01
566.21	60397.52
566.38	60451.36
566.54	60341.35
566.70	60439.65
566.87	60554.34
567.03	60463.06
567.19	60516.89
567.36	60331.99
567.52	60549.66
567.68	60643.28
567.85	60416.25
568.01	60753.29
568.17	60416.25
568.34	60643.28
568.50	60313.26
568.66	60453.70
568.83	60596.47
568.99	60456.04
569.15	60535.62
569.32	60467.74
569.48	60568.38
569.64	60734.56
569.81	60453.70
569.97	60360.08
570.13	60577.75
570.30	60509.87
570.46	60582.43
570.62	60636.26
570.78	60484.12
570.95	60449.02
571.11	60732.22
571.27	60699.45
571.43	60594.13
571.60	60697.11
571.76	60711.16
571.92	60767.33
572.09	60666.69
572.25	60772.01
572.41	60498.17
572.57	60853.93
572.74	60940.53
572.90	60891.38
573.06	60453.70
573.22	60842.23
573.38	60676.05
573.55	60708.82
573.71	60884.36
573.87	60762.65
574.03	60739.24
574.20	60999.04
574.36	60828.18
574.52	60842.23
574.68	60781.37
574.84	60900.74
575.01	60938.19
575.17	60818.82
575.33	60882.02
575.49	60669.03
575.65	60896.06
575.82	60884.36
575.98	60882.02
576.14	61055.21
576.30	61001.38
576.46	60774.35
576.62	60907.76
576.79	60889.04
576.95	60732.22
577.11	61034.15
577.27	61010.74
577.43	60961.59
577.59	61076.28
577.75	60982.66
577.92	60800.10
578.08	60715.84
578.24	60851.59
578.40	60846.91
578.56	61141.81
578.72	61003.72
578.88	61048.19
579.04	61083.30
579.21	61031.81
579.37	61132.45
579.53	61200.33
579.69	60687.75
579.85	60917.12
580.01	60853.93
580.17	60760.31
580.33	61092.66
580.49	60999.04
580.65	61162.88
580.82	60975.64
580.98	61006.06
581.14	60725.20
581.30	61197.99
581.46	60996.70
581.62	60959.25
581.78	60989.68
581.94	61080.96
582.10	60917.12
582.26	61144.16
582.42	61200.33
582.58	61137.13
582.74	60830.52
582.90	61029.47
583.06	60977.98
583.22	60919.46
583.38	61109.05
583.54	61120.75
583.70	61190.97
583.86	61038.83
584.02	61052.87
584.18	61268.20
584.34	61085.64
584.50	61125.43
584.66	60996.70
584.82	61099.68
584.98	61256.50
585.14	61247.14
585.30	61041.17
585.46	61298.63
585.62	61188.63
585.78	61195.65
585.94	61036.49
586.10	61066.92
586.26	61080.96
586.42	61261.18
586.58	61195.65
586.74	61312.67
586.90	61141.81
587.06	60945.21
587.22	61146.50
587.38	61270.54
587.54	61317.35
587.70	61247.14
587.86	61036.49
588.02	61099.68
588.18	61331.40
588.34	61162.88
