SpectraSuite Data File
++++++++++++++++++++++++++++++++++++
Date: Fri Oct 25 11:23:04 EDT 2013
User: price-jones
Dark Spectrum Present: No
Reference Spectrum Present: No
Number of Sampled Component Spectra: 1
Spectrometers: USB2+H05261
Integration Time (usec): 100000 (USB2+H05261)
Spectra Averaged: 1 (USB2+H05261)
Boxcar Smoothing: 0 (USB2+H05261)
Correct for Electrical Dark: No (USB2+H05261)
Strobe/Lamp Enabled: No (USB2+H05261)
Correct for Detector Non-linearity: No (USB2+H05261)
Correct for Stray Light: No (USB2+H05261)
Number of Pixels in Processed Spectrum: 2048
>>>>>Begin Processed Spectral Data<<<<<
365.73	276.18
365.92	276.18
366.12	276.18
366.32	100.64
366.52	133.41
366.72	180.22
366.91	98.30
367.11	152.13
367.31	163.84
367.51	117.03
367.70	105.32
367.90	126.39
368.10	98.30
368.30	135.75
368.49	114.69
368.69	117.03
368.89	95.96
369.09	98.30
369.28	154.48
369.48	145.11
369.68	170.86
369.87	156.82
370.07	175.54
370.27	224.69
370.47	299.59
370.66	566.41
370.86	664.71
371.06	655.35
371.25	603.86
371.45	702.16
371.65	718.54
371.84	655.35
372.04	641.31
372.24	713.86
372.44	662.37
372.63	706.84
372.83	791.10
373.03	760.67
373.22	720.88
373.42	772.38
373.62	779.40
373.81	833.23
374.01	833.23
374.21	809.83
374.40	828.55
374.60	891.74
374.79	760.67
374.99	833.23
375.19	908.13
375.38	847.27
375.58	786.42
375.78	819.19
375.97	830.89
376.17	887.06
376.37	791.10
376.56	830.89
376.76	884.72
376.95	912.81
377.15	922.17
377.35	854.30
377.54	901.11
377.74	891.74
377.93	917.49
378.13	957.28
378.33	924.51
378.52	903.45
378.72	957.28
378.91	985.37
379.11	901.11
379.31	847.27
379.50	929.19
379.70	968.98
379.89	983.02
380.09	994.73
380.28	961.96
380.48	950.26
380.68	952.60
380.87	903.45
381.07	990.05
381.26	1071.97
381.46	966.64
381.65	1071.97
381.85	1022.81
382.04	1093.03
382.24	1036.86
382.43	1083.67
382.63	966.64
382.83	1060.26
383.02	1095.37
383.22	1177.29
383.41	1081.33
383.61	1146.86
383.80	1125.80
384.00	1093.03
384.19	1090.69
384.39	1116.44
384.58	1151.54
384.78	1170.27
384.97	1158.57
385.17	1149.20
385.36	1214.74
385.56	1207.72
385.75	1273.25
385.95	1160.91
386.14	1200.69
386.34	1139.84
386.53	1144.52
386.72	1177.29
386.92	1266.23
387.11	1284.95
387.31	1273.25
387.50	1240.48
387.70	1299.00
387.89	1266.23
388.09	1233.46
388.28	1315.38
388.48	1261.55
388.67	1448.79
388.86	1315.38
389.06	1380.92
389.25	1362.19
389.45	1404.32
389.64	1416.02
389.84	1273.25
390.03	1352.83
390.22	1343.47
390.42	1392.62
390.61	1317.72
390.81	1486.24
391.00	1462.83
391.19	1387.94
391.39	1469.86
391.58	1509.65
391.78	1434.75
391.97	1425.39
392.16	1486.24
392.36	1565.82
392.55	1493.26
392.75	1519.01
392.94	1577.52
393.13	1582.20
393.33	1558.80
393.52	1582.20
393.71	1591.56
393.91	1568.16
394.10	1638.38
394.29	1563.48
394.49	1638.38
394.68	1743.70
394.88	1631.35
395.07	1629.01
395.26	1687.53
395.46	1696.89
395.65	1713.27
395.84	1804.55
396.04	1825.62
396.23	1806.89
396.42	1762.42
396.62	1764.76
396.81	1671.14
397.00	1799.87
397.19	1767.10
397.39	1816.26
397.58	1858.39
397.77	1923.92
397.97	1863.07
398.16	1849.02
398.35	1860.73
398.55	1888.81
398.74	1952.01
398.93	2012.86
399.12	1881.79
399.32	1980.09
399.51	1952.01
399.70	1982.43
399.90	1947.33
400.09	1944.99
400.28	2019.88
400.47	2071.37
400.67	2134.57
400.86	2160.31
401.05	2115.84
401.24	2083.08
401.44	2031.58
401.63	2134.57
401.82	2167.34
402.01	2225.85
402.21	2094.78
402.40	2202.44
402.59	2106.48
402.78	2291.38
402.97	2265.64
403.17	2349.90
403.36	2148.61
403.55	2314.79
403.74	2373.30
403.93	2305.43
404.13	2389.69
404.32	2436.50
404.51	2275.00
404.70	2417.77
404.89	2476.29
405.09	2509.05
405.28	2462.24
405.47	2502.03
405.66	2511.39
405.85	2677.57
406.05	2548.84
406.24	2670.55
406.43	2569.91
406.62	2633.10
406.81	2775.88
407.00	2635.44
407.20	2619.06
407.39	2647.15
407.58	2733.75
407.77	2700.98
407.96	2759.49
408.15	2885.88
408.34	2846.09
408.54	2864.82
408.73	2803.96
408.92	2906.95
409.11	2864.82
409.30	2897.58
409.49	3047.38
409.68	2890.56
409.87	3026.31
410.07	3052.06
410.26	3052.06
410.45	2984.18
410.64	2895.24
410.83	3112.91
411.02	3026.31
411.21	3229.94
411.40	3236.96
411.59	3225.26
411.78	3239.30
411.98	3171.43
412.17	3272.07
412.36	3293.13
412.55	3363.35
412.74	3379.73
412.93	3412.50
413.12	3454.63
413.31	3620.81
413.50	3412.50
413.69	3588.04
413.88	3611.45
414.07	3524.85
414.26	3634.85
414.45	3613.79
414.64	3660.60
414.83	3749.54
415.02	3810.39
415.22	3784.65
415.41	3913.38
415.60	3709.75
415.79	3911.04
415.98	3922.74
416.17	3950.82
416.36	3978.91
416.55	4007.00
416.74	4095.94
416.93	4102.96
417.12	4098.28
417.31	4086.58
417.50	4224.67
417.69	4184.88
417.88	4241.05
418.07	4294.88
418.26	4290.20
418.45	4353.40
418.64	4524.26
418.83	4432.97
419.02	4454.04
419.21	4564.04
419.39	4451.70
419.58	4432.97
419.77	4454.04
419.96	4681.07
420.15	4690.43
420.34	4692.77
420.53	4550.00
420.72	4774.69
420.91	4751.29
421.10	4781.71
421.29	4847.25
421.48	4816.82
421.67	4936.19
421.86	4840.23
422.05	4805.12
422.24	4805.12
422.43	4959.60
422.61	5034.49
422.80	4945.55
422.99	4994.70
423.18	4992.36
423.37	4950.23
423.56	5081.30
423.75	4898.74
423.94	4765.33
424.13	4629.58
424.32	4816.82
424.50	4929.17
424.69	5207.69
424.88	5259.18
425.07	4926.83
425.26	5015.77
425.45	4868.31
425.64	4828.53
425.83	5125.77
426.01	5102.37
426.20	5128.11
426.39	5121.09
426.58	5097.69
426.77	5132.79
426.96	5226.42
427.15	5179.61
427.33	5296.63
427.52	5186.63
427.71	5322.38
427.90	5256.84
428.09	5284.93
428.28	5394.93
428.46	5434.72
428.65	5401.96
428.84	5547.07
429.03	5533.03
429.22	5327.06
429.40	5413.66
429.59	5486.22
429.78	5504.94
429.97	5224.08
430.16	5561.11
430.34	5474.51
430.53	5694.52
430.72	5654.73
430.91	5731.97
431.10	5591.54
431.28	5685.16
431.47	5804.53
431.66	5895.81
431.85	5928.58
432.03	6071.35
432.22	5973.05
432.41	5982.41
432.60	5994.11
432.79	5877.09
432.97	6057.31
433.16	6139.23
433.35	6094.76
433.54	6272.64
433.72	6251.57
433.91	6256.25
434.10	6150.93
434.28	6061.99
434.47	6127.52
434.66	6504.35
434.85	6291.36
435.03	6410.73
435.22	6319.45
435.41	6567.54
435.59	6553.50
435.78	6623.72
435.97	6670.53
436.16	6441.15
436.34	6417.75
436.53	6534.78
436.72	6654.14
436.90	6478.60
437.09	6899.90
437.28	6394.34
437.46	6637.76
437.65	6752.45
437.84	6834.36
438.02	6871.81
438.21	6935.01
438.40	6642.44
438.58	7112.89
438.77	7063.74
438.96	6953.73
439.14	7166.72
439.33	7234.60
439.52	7225.23
439.70	7311.83
439.89	7386.73
440.08	7375.03
440.26	7412.48
440.45	7386.73
440.63	7578.65
440.82	7763.56
441.01	7573.97
441.19	7716.75
441.38	7740.15
441.57	7613.76
441.75	7955.48
441.94	7887.61
442.12	8070.17
442.31	8126.34
442.50	8121.66
442.68	7918.03
442.87	8194.22
443.05	8119.32
443.24	8322.94
443.43	8222.30
443.61	8196.56
443.80	8477.42
443.98	8196.56
444.17	7861.86
444.35	8196.56
444.54	8449.33
444.73	8456.36
444.91	8507.85
445.10	8290.18
445.28	8428.27
445.47	8404.86
445.65	8409.54
445.84	8458.70
446.02	8428.27
446.21	8526.57
446.39	8578.06
446.58	8554.66
446.77	8627.21
446.95	8322.94
447.14	8407.20
447.32	8674.03
447.51	8685.73
447.69	8643.60
447.88	8545.30
448.06	8592.11
448.25	8779.35
448.43	8903.40
448.62	8695.09
448.80	8627.21
448.99	8746.58
449.17	8908.08
449.36	8638.92
449.54	8891.70
449.73	9076.60
449.91	9184.26
450.10	8943.19
450.28	9048.51
450.46	9156.18
450.65	9298.95
450.83	9128.09
451.02	8975.95
451.20	9474.49
451.39	9238.09
451.57	9151.49
451.76	9266.18
451.94	9366.82
452.13	9437.04
452.31	9357.46
452.49	9322.35
452.68	9497.89
452.86	9528.32
453.05	9659.39
453.23	9652.37
453.42	9521.30
453.60	9287.25
453.78	9516.62
453.97	9781.10
454.15	9378.53
454.34	9518.96
454.52	9795.14
454.70	9671.09
454.89	9785.78
455.07	9916.85
455.26	9872.38
455.44	9958.98
455.62	9895.78
455.81	9893.44
455.99	10281.97
456.17	10218.78
456.36	10202.40
456.54	10296.02
456.73	10300.70
456.91	10410.70
457.09	10448.15
457.28	10558.16
457.46	10436.45
457.64	10731.36
457.83	10539.43
458.01	10464.54
458.19	10682.20
458.38	10445.81
458.56	10719.65
458.74	10841.36
458.93	10696.25
459.11	10885.83
459.29	10651.78
459.48	10932.64
459.66	10878.81
459.84	10946.69
460.03	11117.54
460.21	11005.20
460.39	11119.89
460.57	10998.18
460.76	11307.13
460.94	11431.18
461.12	11314.15
461.31	11459.26
461.49	11253.30
461.67	11356.28
461.85	11683.95
462.04	11382.03
462.22	11683.95
462.40	11726.08
462.59	11283.72
462.77	11756.51
462.95	11896.94
463.13	12037.38
463.32	11852.47
463.50	11866.52
463.68	11875.88
463.86	11859.49
464.05	11698.00
464.23	11873.54
464.41	12119.29
464.59	11847.79
464.78	12414.20
464.96	12116.95
465.14	11962.48
465.32	12119.29
465.50	12236.32
465.69	12329.94
465.87	12383.77
466.05	12233.98
466.23	12112.27
466.41	12383.77
466.60	12308.88
466.78	12374.41
466.96	12226.96
467.14	12248.02
467.32	12561.66
467.51	12655.28
467.69	12437.61
467.87	12620.17
468.05	12769.96
468.23	12538.25
468.41	12645.91
468.60	12709.11
468.78	12947.84
468.96	12725.49
469.14	12905.71
469.32	13266.16
469.50	12805.07
469.69	13153.81
469.87	13205.30
470.05	13245.09
470.23	13156.15
470.41	13099.98
470.59	13174.88
470.77	13366.80
470.95	13488.51
471.14	13570.43
471.32	13437.02
471.50	13628.94
471.68	13678.09
471.86	13680.43
472.04	13788.10
472.22	14293.65
472.40	13767.03
472.58	13947.25
472.77	14080.66
472.95	14190.67
473.13	14721.97
473.31	14122.79
473.49	14431.74
473.67	14319.40
473.85	14415.36
474.03	14911.55
474.21	14736.01
474.39	14869.42
474.57	15101.14
474.75	15129.22
474.93	15414.77
475.12	14993.47
475.30	15183.06
475.48	15143.27
475.66	15297.74
475.84	15279.02
476.02	15545.84
476.20	15716.70
476.38	15974.16
476.56	16121.61
476.74	16348.64
476.92	15946.07
477.10	16259.70
477.28	16222.25
477.46	16107.57
477.64	16526.52
477.82	16547.59
478.00	17539.97
478.18	17191.23
478.36	17046.12
478.54	17451.03
478.72	17263.79
478.90	17731.90
479.08	17631.26
479.26	18015.10
479.44	17664.02
479.62	17769.35
479.80	18078.30
479.98	18501.93
480.16	18684.50
480.34	18324.05
480.52	18764.07
480.70	18967.70
480.88	18579.17
481.06	18972.38
481.24	19108.13
481.41	19129.20
481.59	19536.45
481.77	19728.38
481.95	19583.26
482.13	20016.26
482.31	19775.19
482.49	20556.93
482.67	20477.35
482.85	20465.64
483.03	20713.74
483.21	20760.55
483.39	20893.96
483.57	21425.26
483.74	21558.67
483.92	21598.46
484.10	21582.08
484.28	22054.87
484.46	22115.72
484.64	22588.51
484.82	21994.01
485.00	22537.02
485.18	22740.64
485.35	23126.83
485.53	22979.38
485.71	23311.74
485.89	23662.82
486.07	23587.92
486.25	23569.19
486.43	24034.96
486.61	24233.91
486.78	24746.48
486.96	24505.41
487.14	24573.28
487.32	25043.73
487.50	24952.45
487.68	25010.96
487.85	25406.52
488.03	25504.82
488.21	25869.94
488.39	25979.95
488.57	26167.19
488.75	26253.79
488.92	26462.10
489.10	27178.30
489.28	27133.83
489.46	27674.49
489.64	27257.88
489.81	28254.95
489.99	27899.19
490.17	27943.66
490.35	28294.74
490.53	28500.70
490.70	28477.30
490.88	28442.19
491.06	29181.80
491.24	29043.71
491.41	29347.98
491.59	29610.12
491.77	29668.63
491.95	29862.90
492.13	29958.86
492.30	29972.90
492.48	30546.33
492.66	30389.52
492.84	30541.65
493.01	31042.53
493.19	31028.48
493.37	31063.59
493.54	31424.03
493.72	31690.85
493.90	31566.81
494.08	32006.83
494.25	32259.60
494.43	32203.43
494.61	32568.55
494.79	32840.06
494.96	33156.03
495.14	33383.06
495.32	33483.70
495.49	33453.28
495.67	33689.67
495.85	34281.83
496.02	33825.42
496.20	34230.33
496.38	34235.02
496.55	34272.46
496.73	34979.31
496.91	35140.80
497.09	34815.47
497.26	35070.59
497.44	35447.41
497.62	35828.92
497.79	35761.05
497.97	35683.81
498.14	36264.26
498.32	36912.59
498.50	36795.56
498.67	37024.93
498.85	36971.10
499.03	37113.87
499.20	37057.70
499.38	36964.08
499.56	37656.88
499.73	37378.36
499.91	37394.74
500.08	38132.01
500.26	37841.78
500.44	37977.53
500.61	38459.68
500.79	38307.55
500.97	38251.38
501.14	38972.26
501.32	39131.42
501.49	38665.65
501.67	39075.24
501.84	39299.94
502.02	39187.59
502.20	39351.43
502.37	39421.64
502.55	39796.13
502.72	39917.84
502.90	39636.97
503.07	39784.43
503.25	40589.57
503.43	40116.78
503.60	40414.03
503.78	40362.54
503.95	40524.04
504.13	40957.03
504.30	40889.16
504.48	41015.55
504.65	41411.10
504.83	41507.06
505.01	41673.24
505.18	41504.72
505.36	41511.74
505.53	41687.28
505.71	42295.82
505.88	42178.79
506.06	41780.90
506.23	42473.70
506.41	42213.90
506.58	42775.63
506.76	42445.62
506.93	42710.10
507.11	43115.01
507.28	43051.81
507.46	43381.83
507.63	43246.08
507.81	43906.11
507.98	43180.54
508.16	43201.61
508.33	43849.94
508.50	44107.40
508.68	44392.94
508.85	44217.40
509.03	44549.76
509.20	44364.85
509.38	44978.07
509.55	44921.90
509.73	45090.42
509.90	45109.14
510.08	44889.13
510.25	45095.10
510.42	45050.63
510.60	45202.77
510.77	45502.35
510.95	45804.28
511.12	45766.84
511.30	45663.85
511.47	45801.94
511.64	45804.28
511.82	46546.23
511.99	46043.02
512.17	46518.15
512.34	46567.30
512.51	46539.21
512.69	46595.38
512.86	47016.68
513.04	47159.45
513.21	46993.28
513.38	46794.33
513.56	47299.89
513.73	47323.29
513.90	47180.52
514.08	47089.24
514.25	47980.98
514.43	47849.91
514.60	48193.97
514.77	48046.52
514.95	48105.03
515.12	47620.54
515.29	48016.09
515.47	48362.49
515.64	48652.72
515.81	48374.19
515.99	48795.49
516.16	48933.58
516.33	49008.48
516.51	49106.78
516.68	48912.52
516.85	49195.72
517.03	49565.52
517.20	49455.52
517.37	48954.64
517.54	49488.29
517.72	49364.24
517.89	49406.37
518.06	49191.04
518.24	49453.18
518.41	50113.21
518.58	50026.61
518.75	49558.50
518.93	49930.65
519.10	49897.88
519.27	50354.29
519.45	50188.11
519.62	50616.43
519.79	50410.46
519.96	50321.52
520.14	50607.06
520.31	50529.83
520.48	50707.71
520.65	50593.02
520.83	50990.91
521.00	51402.85
521.17	50997.93
521.34	50948.78
521.52	51004.95
521.69	51250.71
521.86	51288.16
522.03	51241.35
522.20	51955.21
522.38	51737.54
522.55	51423.91
522.72	51714.14
522.89	51721.16
523.07	51885.00
523.24	52062.88
523.41	51934.15
523.58	51657.96
523.75	52559.07
523.92	52090.96
524.10	51873.29
524.27	52303.95
524.44	52526.30
524.61	52079.26
524.78	52191.61
524.96	52861.00
525.13	52762.70
525.30	52559.07
525.47	52851.64
525.64	52856.32
525.81	52870.36
525.98	52921.85
526.16	53017.82
526.33	53411.02
526.50	53429.75
526.67	53113.78
526.84	53261.23
527.01	53277.61
527.18	53441.45
527.36	53240.17
527.53	53457.84
527.70	53741.04
527.87	53666.14
528.04	53621.67
528.21	53766.79
528.38	53380.60
528.55	53942.33
528.72	53722.32
528.89	53752.74
529.07	53570.18
529.24	53963.39
529.41	54138.93
529.58	54040.63
529.75	53879.13
529.92	54358.94
530.09	54419.80
530.26	54267.66
530.43	54136.59
530.60	54246.60
530.77	54143.61
530.94	54281.70
531.11	54138.93
531.28	54569.59
531.46	54504.06
531.63	54337.88
531.80	54497.03
531.97	54894.92
532.14	54934.71
532.31	54777.90
532.48	54955.78
532.65	54824.71
532.82	55035.36
532.99	55065.78
533.16	54976.84
533.33	55007.27
533.50	55086.85
533.67	55030.68
533.84	54899.61
534.01	55075.15
534.18	55253.03
534.35	55571.34
534.52	55561.98
534.69	55157.06
534.86	55475.38
535.03	55423.89
535.20	55578.36
535.37	55576.02
535.54	55627.51
535.71	55646.24
535.88	55863.91
536.05	55732.84
536.22	55737.52
536.38	55702.41
536.55	55833.48
536.72	55842.84
536.89	55966.89
537.06	55884.97
537.23	56041.79
537.40	55889.65
537.57	56074.55
537.74	56236.05
537.91	56303.93
538.08	56294.56
538.25	56083.92
538.42	55964.55
538.59	56498.19
538.75	56385.85
538.92	56193.92
539.09	56652.67
539.26	56512.23
539.43	56463.08
539.60	56603.52
539.77	56442.02
539.94	56809.48
540.11	56486.49
540.28	56699.48
540.44	56765.01
540.61	56985.02
540.78	56446.70
540.95	56889.06
541.12	56610.54
541.29	56685.43
541.46	56757.99
541.62	56961.62
541.79	57202.69
541.96	56809.48
542.13	56978.00
542.30	56741.61
542.47	57125.46
542.63	57212.06
542.80	57188.65
542.97	57270.57
543.14	57537.39
543.31	57418.02
543.48	57605.26
543.64	57621.65
543.81	57633.35
543.98	57434.41
544.15	57757.40
544.32	57771.44
544.48	57820.59
544.65	57752.72
544.82	57422.70
544.99	57464.83
545.16	57687.18
545.32	57666.12
545.49	57696.55
545.66	57811.23
545.83	58038.26
546.00	57883.79
546.16	57986.77
546.33	57752.72
546.50	57820.59
546.67	58049.97
546.83	57649.74
547.00	57963.37
547.17	57731.65
547.34	58349.56
547.50	58094.44
547.67	58267.64
547.84	58241.89
548.00	58433.81
548.17	58485.31
548.34	58438.50
548.51	58576.59
548.67	58522.76
548.84	58394.03
549.01	58286.36
549.18	58410.41
549.34	58504.03
549.51	58707.66
549.68	58649.14
549.84	58667.87
550.01	58710.00
550.18	58468.92
550.34	58738.08
550.51	58693.61
550.68	58719.36
550.84	58665.53
551.01	58684.25
551.18	58829.37
551.34	58789.58
551.51	58635.10
551.68	58908.94
551.84	58871.49
552.01	58791.92
552.18	58997.88
552.34	58801.28
552.51	59152.36
552.68	58834.05
552.84	59133.63
553.01	59196.83
553.18	59178.10
553.34	58918.31
553.51	58972.14
553.67	59049.38
553.84	59150.02
554.01	59433.22
554.17	59187.47
554.34	59271.73
554.51	59150.02
554.67	59318.54
554.84	59084.48
555.00	59374.71
555.17	59126.61
555.33	59325.56
555.50	59187.47
555.67	59154.70
555.83	59353.65
556.00	59365.35
556.16	59742.17
556.33	59496.42
556.50	59494.08
556.66	59550.25
556.83	59451.95
556.99	59781.96
557.16	59800.69
557.32	59730.47
557.49	59898.99
557.65	59489.40
557.82	59709.41
557.98	59648.55
558.15	59639.19
558.32	59669.62
558.48	59690.68
558.65	59608.76
558.81	59545.57
558.98	59711.75
559.14	59898.99
559.31	59884.95
559.47	59807.71
559.64	59999.63
559.80	59971.55
559.97	60006.65
560.13	59866.22
560.30	60053.47
560.46	59920.05
560.63	59887.29
560.79	60086.23
560.96	60086.23
561.12	60214.96
561.29	60221.98
561.45	60170.49
561.61	59976.23
561.78	59814.73
561.94	60287.52
562.11	60196.24
562.27	60111.98
562.44	60123.68
562.60	60315.61
562.77	60474.76
562.93	60079.21
563.10	60488.80
563.26	60278.16
563.42	60451.36
563.59	60177.51
563.75	60317.95
563.92	60273.48
564.08	60128.36
564.24	60446.68
564.41	60339.01
564.57	60467.74
564.74	60348.37
564.90	60322.63
565.07	60299.22
565.23	60392.84
565.39	60280.50
565.56	60566.04
565.72	60423.27
565.88	60582.43
566.05	60317.95
566.21	60418.59
566.38	60549.66
566.54	60294.54
566.70	60589.45
566.87	60453.70
567.03	60498.17
567.19	60575.40
567.36	60662.00
567.52	60589.45
567.68	60860.95
567.85	60561.36
568.01	60626.90
568.17	60750.94
568.34	60764.99
568.50	60580.09
568.66	60559.02
568.83	60725.20
568.99	60570.72
569.15	60769.67
569.32	60729.88
569.48	60640.94
569.64	60856.27
569.81	60629.24
569.97	60603.49
570.13	60793.07
570.30	60556.68
570.46	60935.85
570.62	60781.37
570.78	60690.09
570.95	60706.47
571.11	60673.71
571.27	60580.09
571.43	60816.48
571.60	61029.47
571.76	60858.61
571.92	60945.21
572.09	60802.44
572.25	60926.49
572.41	60856.27
572.57	60748.60
572.74	61102.03
572.90	61003.72
573.06	60692.43
573.22	60750.94
573.38	60739.24
573.55	60893.72
573.71	60830.52
573.87	60966.27
574.03	60844.57
574.20	60956.91
574.36	60818.82
574.52	60872.65
574.68	60893.72
574.84	61017.77
575.01	60994.36
575.17	60926.49
575.33	60865.63
575.49	60860.95
575.65	61118.41
575.82	60926.49
575.98	60973.30
576.14	61062.24
576.30	61017.77
576.46	60992.02
576.62	60973.30
576.79	60942.87
576.95	60776.69
577.11	60942.87
577.27	61247.14
577.43	61125.43
577.59	61125.43
577.75	60980.32
577.92	60856.27
578.08	60760.31
578.24	61057.56
578.40	61197.99
578.56	61219.05
578.72	60856.27
578.88	61109.05
579.04	61439.06
579.21	61050.53
579.37	61123.09
579.53	61209.69
579.69	61057.56
579.85	61181.60
580.01	61031.81
580.17	60933.51
580.33	61010.74
580.49	61230.75
580.65	61102.03
580.82	61127.77
580.98	60940.53
581.14	60987.34
581.30	61237.78
581.46	60947.55
581.62	61158.20
581.78	60952.23
581.94	60994.36
582.10	61181.60
582.26	61174.58
582.42	60973.30
582.58	61216.71
582.74	61205.01
582.90	60973.30
583.06	61057.56
583.22	61256.50
583.38	61102.03
583.54	61258.84
583.70	61116.07
583.86	61162.88
584.02	61137.13
584.18	61268.20
584.34	61228.41
584.50	61249.48
584.66	60977.98
584.82	61043.51
584.98	61413.32
585.14	61298.63
585.30	61361.82
585.46	61249.48
585.62	61291.61
585.78	61476.51
585.94	61146.50
586.10	61284.59
586.26	61305.65
586.42	61277.57
586.58	61481.19
586.74	61228.41
586.90	61226.07
587.06	61090.32
587.22	61329.06
587.38	61200.33
587.54	61476.51
587.70	61516.30
587.86	61235.44
588.02	61310.33
588.18	61506.94
588.34	61197.99
588.49	61221.39
