SpectraSuite Data File
++++++++++++++++++++++++++++++++++++
Date: Fri Oct 25 10:47:03 EDT 2013
User: price-jones
Dark Spectrum Present: No
Reference Spectrum Present: No
Number of Sampled Component Spectra: 1
Spectrometers: USB2+H05261
Integration Time (usec): 100000 (USB2+H05261)
Spectra Averaged: 1 (USB2+H05261)
Boxcar Smoothing: 0 (USB2+H05261)
Correct for Electrical Dark: No (USB2+H05261)
Strobe/Lamp Enabled: No (USB2+H05261)
Correct for Detector Non-linearity: No (USB2+H05261)
Correct for Stray Light: No (USB2+H05261)
Number of Pixels in Processed Spectrum: 2048
>>>>>Begin Processed Spectral Data<<<<<
365.73	110.01
365.92	110.01
366.12	110.01
366.32	35.11
366.52	14.04
366.72	86.60
366.91	112.35
367.11	81.92
367.31	25.75
367.51	21.06
367.70	67.88
367.90	60.85
368.10	42.13
368.30	70.22
368.49	46.81
368.69	126.39
368.89	77.24
369.09	70.22
369.28	9.36
369.48	32.77
369.68	88.94
369.87	44.47
370.07	105.32
370.27	133.41
370.47	224.69
370.66	330.02
370.86	402.57
371.06	449.38
371.25	470.45
371.45	486.83
371.65	402.57
371.84	503.22
372.04	456.40
372.24	486.83
372.44	477.47
372.63	479.81
372.83	479.81
373.03	545.34
373.22	461.09
373.42	543.00
373.62	606.20
373.81	526.62
374.01	606.20
374.21	587.47
374.40	528.96
374.60	631.94
374.79	561.73
374.99	550.03
375.19	592.16
375.38	606.20
375.58	528.96
375.78	613.22
375.97	568.75
376.17	589.82
376.37	613.22
376.56	608.54
376.76	622.58
376.95	564.07
377.15	648.33
377.35	704.50
377.54	608.54
377.74	629.60
377.93	695.14
378.13	606.20
378.33	634.29
378.52	695.14
378.72	648.33
378.91	709.18
379.11	592.16
379.31	526.62
379.50	662.37
379.70	681.10
379.89	723.23
380.09	688.12
380.28	636.63
380.48	702.16
380.68	685.78
380.87	713.86
381.07	660.03
381.26	681.10
381.46	688.12
381.65	641.31
381.85	676.41
382.04	737.27
382.24	641.31
382.43	734.93
382.63	657.69
382.83	634.29
383.02	664.71
383.22	671.73
383.41	692.80
383.61	786.42
383.80	697.48
384.00	767.70
384.19	706.84
384.39	744.29
384.58	748.97
384.78	828.55
384.97	763.01
385.17	800.46
385.36	730.25
385.56	774.72
385.75	711.52
385.95	704.50
386.14	734.93
386.34	727.91
386.53	784.08
386.72	723.23
386.92	809.83
387.11	877.70
387.31	828.55
387.50	819.19
387.70	849.61
387.89	866.00
388.09	835.57
388.28	863.66
388.48	840.25
388.67	896.43
388.86	915.15
389.06	866.00
389.25	910.47
389.45	947.92
389.64	912.81
389.84	912.81
390.03	968.98
390.22	980.68
390.42	933.87
390.61	915.15
390.81	877.70
391.00	908.13
391.19	933.87
391.39	945.58
391.58	1022.81
391.78	973.66
391.97	1046.22
392.16	1025.15
392.36	976.00
392.55	910.47
392.75	945.58
392.94	926.85
393.13	957.28
393.33	858.98
393.52	947.92
393.71	1071.97
393.91	1041.54
394.10	1034.52
394.29	1032.18
394.49	1081.33
394.68	1167.93
394.88	1146.86
395.07	1233.46
395.26	1146.86
395.46	1095.37
395.65	1132.82
395.84	1219.42
396.04	1128.14
396.23	1167.93
396.42	1160.91
396.62	1193.67
396.81	1156.22
397.00	1118.78
397.19	1153.88
397.39	1242.82
397.58	1294.32
397.77	1228.78
397.97	1364.53
398.16	1280.27
398.35	1355.17
398.55	1291.98
398.74	1336.45
398.93	1418.36
399.12	1313.04
399.32	1336.45
399.51	1359.85
399.70	1394.96
399.90	1455.81
400.09	1441.77
400.28	1462.83
400.47	1486.24
400.67	1523.69
400.86	1434.75
401.05	1476.88
401.24	1488.58
401.44	1638.38
401.63	1563.48
401.82	1577.52
402.01	1465.18
402.21	1561.14
402.40	1502.62
402.59	1547.09
402.78	1633.69
402.97	1640.72
403.17	1568.16
403.36	1650.08
403.55	1600.93
403.74	1746.04
403.93	1748.38
404.13	1682.85
404.32	1710.93
404.51	1706.25
404.70	1813.92
404.89	1689.87
405.09	1846.68
405.28	1743.70
405.47	1710.93
405.66	1851.36
405.85	1820.94
406.05	1724.97
406.24	1753.06
406.43	1893.49
406.62	1935.62
406.81	2069.03
407.00	1830.30
407.20	1813.92
407.39	1827.96
407.58	1909.88
407.77	1987.11
407.96	2052.65
408.15	2090.10
408.34	1991.80
408.54	2047.97
408.73	2083.08
408.92	2003.50
409.11	1994.14
409.30	2155.63
409.49	2024.56
409.68	2104.14
409.87	2127.55
410.07	2195.42
410.26	2136.91
410.45	2193.08
410.64	2265.64
410.83	2284.36
411.02	2406.07
411.21	2338.20
411.40	2289.04
411.59	2363.94
411.78	2310.11
411.98	2319.47
412.17	2356.92
412.36	2403.73
412.55	2361.60
412.74	2597.99
412.93	2581.61
413.12	2537.14
413.31	2693.96
413.50	2546.50
413.69	2490.33
413.88	2677.57
414.07	2698.64
414.26	2642.46
414.45	2719.70
414.64	2759.49
414.83	2712.68
415.02	2663.53
415.22	2778.22
415.41	2768.85
415.60	2801.62
415.79	2834.39
415.98	2895.24
416.17	2984.18
416.36	2925.67
416.55	2988.86
416.74	3019.29
416.93	3028.65
417.12	3009.93
417.31	3042.70
417.50	3000.57
417.69	3131.64
417.88	3066.10
418.07	3173.77
418.26	3213.56
418.45	3211.22
418.64	3201.85
418.83	3248.66
419.02	3288.45
419.21	3323.56
419.39	3386.76
419.58	3260.37
419.77	3262.71
419.96	3407.82
420.15	3279.09
420.34	3307.18
420.53	3391.44
420.72	3503.78
420.91	3513.14
421.10	3548.25
421.29	3658.26
421.48	3461.65
421.67	3543.57
421.86	3478.04
422.05	3442.93
422.24	3412.50
422.43	3630.17
422.61	3625.49
422.80	3611.45
422.99	3674.64
423.18	3501.44
423.37	3583.36
423.56	3555.27
423.75	3623.15
423.94	3581.02
424.13	3478.04
424.32	3566.98
424.50	3630.17
424.69	3747.20
424.88	3679.32
425.07	3574.00
425.26	3506.12
425.45	3686.34
425.64	3672.30
425.83	3693.37
426.01	3620.81
426.20	3606.77
426.39	3705.07
426.58	3693.37
426.77	3648.90
426.96	3648.90
427.15	3655.92
427.33	3786.99
427.52	3786.99
427.71	3772.94
427.90	3918.06
428.09	3901.67
428.28	3765.92
428.46	3758.90
428.65	3904.01
428.84	4004.66
429.03	4016.36
429.22	3836.14
429.40	3791.67
429.59	3854.86
429.78	3721.45
429.97	3566.98
430.16	3723.79
430.34	3843.16
430.53	3936.78
430.72	3838.48
430.91	3971.89
431.10	3941.46
431.28	4084.23
431.47	4189.56
431.66	4360.42
431.85	4152.11
432.03	4280.84
432.22	4365.10
432.41	4320.63
432.60	4285.52
432.79	4194.24
432.97	4442.34
433.16	4287.86
433.35	4255.09
433.54	4374.46
433.72	4463.40
433.91	4440.00
434.10	4334.67
434.28	4381.48
434.47	4503.19
434.66	4620.22
434.85	4568.73
435.03	4620.22
435.22	4561.70
435.41	4676.39
435.59	4505.53
435.78	4685.75
435.97	4737.24
436.16	4770.01
436.34	4636.60
436.53	4727.88
436.72	4868.31
436.90	4585.11
437.09	4840.23
437.28	4664.69
437.46	4851.93
437.65	4894.06
437.84	4880.02
438.02	4873.00
438.21	4875.34
438.40	4880.02
438.58	4983.00
438.77	5057.90
438.96	5022.79
439.14	5226.42
439.33	5060.24
439.52	5107.05
439.70	5181.95
439.89	5245.14
440.08	5289.61
440.26	5310.68
440.45	5149.18
440.63	5469.83
440.82	5474.51
441.01	5490.90
441.19	5425.36
441.38	5577.50
441.57	5645.37
441.75	5563.45
441.94	5727.29
442.12	5797.51
442.31	5954.32
442.50	5736.65
442.68	5832.62
442.87	5708.57
443.05	5923.90
443.24	5841.98
443.43	5926.24
443.61	5886.45
443.80	6092.41
443.98	5881.77
444.17	5673.46
444.35	5867.72
444.54	6111.14
444.73	6127.52
444.91	5947.30
445.10	5937.94
445.28	5942.62
445.47	5849.00
445.65	5982.41
445.84	6080.71
446.02	6125.18
446.21	5951.98
446.39	5902.83
446.58	6197.74
446.77	6069.01
446.95	6019.86
447.14	6125.18
447.32	6228.17
447.51	6155.61
447.69	6179.01
447.88	6352.21
448.06	6132.20
448.25	6230.51
448.43	6155.61
448.62	6230.51
448.80	6174.33
448.99	6232.85
449.17	6312.42
449.36	6291.36
449.54	6422.43
449.73	6457.54
449.91	6403.71
450.10	6668.19
450.28	6534.78
450.46	6462.22
450.65	6569.88
450.83	6630.74
451.02	6558.18
451.20	6745.42
451.39	6719.68
451.57	6548.82
451.76	6373.28
451.94	6541.80
452.13	6733.72
452.31	6792.23
452.49	6513.71
452.68	6658.82
452.86	6682.23
453.05	6775.85
453.23	6822.66
453.42	6740.74
453.60	6572.22
453.78	6951.39
453.97	6794.58
454.15	6850.75
454.34	6736.06
454.52	6878.83
454.70	6899.90
454.89	6937.35
455.07	6878.83
455.26	7028.63
455.44	7023.95
455.62	7070.76
455.81	7293.11
455.99	7213.53
456.17	7265.02
456.36	7091.82
456.54	7353.96
456.73	7265.02
456.91	7428.86
457.09	7503.76
457.28	7545.89
457.46	7475.67
457.64	7550.57
457.83	7604.40
458.01	7325.88
458.19	7527.16
458.38	7592.70
458.56	7522.48
458.74	7749.51
458.93	7492.05
459.11	7683.98
459.29	7751.85
459.48	7545.89
459.66	7723.77
459.84	7723.77
460.03	7793.98
460.21	7782.28
460.39	7801.01
460.57	7831.43
460.76	7854.84
460.94	7946.12
461.12	7864.20
461.31	7878.24
461.49	7852.50
461.67	7939.10
461.85	8030.38
462.04	7861.86
462.22	8664.66
462.40	8360.39
462.59	8358.05
462.77	8147.40
462.95	8372.10
463.13	8236.35
463.32	8273.79
463.50	8280.82
463.68	8404.86
463.86	8358.05
464.05	8224.64
464.23	8334.65
464.41	8304.22
464.59	8374.44
464.78	8458.70
464.96	8418.91
465.14	8362.73
465.32	8519.55
465.50	8439.97
465.69	8699.77
465.87	8489.12
466.05	8425.93
466.23	8376.78
466.41	8629.56
466.60	8601.47
466.78	8386.14
466.96	8592.11
467.14	8641.26
467.32	8554.66
467.51	8784.03
467.69	8362.73
467.87	8662.32
468.05	8769.99
468.23	8685.73
468.41	8709.13
468.60	8671.68
468.78	9060.21
468.96	8844.88
469.14	9013.40
469.32	9029.79
469.50	8961.91
469.69	9057.87
469.87	8952.55
470.05	9121.07
470.23	8971.27
470.41	9179.58
470.59	9191.28
470.77	9247.46
470.95	9284.91
471.14	9291.93
471.32	9004.04
471.50	9689.82
471.68	9621.94
471.86	9561.09
472.04	9411.29
472.22	9673.43
472.40	9523.64
472.58	9525.98
472.77	9846.63
472.95	9722.59
473.13	10012.81
473.31	9760.03
473.49	9863.02
473.67	9769.40
473.85	10031.54
474.03	10162.61
474.21	10038.56
474.39	10244.52
474.57	10415.38
474.75	10485.60
474.93	10450.49
475.12	10354.53
475.30	10518.37
475.48	10490.28
475.66	10326.44
475.84	10354.53
476.02	10637.73
476.20	10581.56
476.38	10630.71
476.56	10906.90
476.74	11014.56
476.92	10899.87
477.10	10892.85
477.28	11066.05
477.46	11248.61
477.64	11281.38
477.82	11618.42
478.00	11653.53
478.18	11669.91
478.36	11590.33
478.54	11782.26
478.72	11861.84
478.90	11955.46
479.08	12147.38
479.26	12222.28
479.44	12170.79
479.62	12224.62
479.80	12463.35
479.98	12453.99
480.16	12741.88
480.34	12561.66
480.52	12666.98
480.70	12688.04
480.88	12262.07
481.06	12727.83
481.24	13109.34
481.41	13184.24
481.59	13404.25
481.77	13350.42
481.95	13439.36
482.13	13668.73
482.31	13713.20
482.49	14115.77
482.67	13666.39
482.85	13706.18
483.03	14068.96
483.21	14321.74
483.39	14394.29
483.57	14499.62
483.74	14445.79
483.92	14534.73
484.10	14523.02
484.28	14501.96
484.46	15009.86
484.64	15349.23
484.82	15103.48
485.00	14941.98
485.18	15225.18
485.35	15510.73
485.53	15339.87
485.71	15117.52
485.89	15653.50
486.07	15454.56
486.25	15536.48
486.43	15910.96
486.61	15803.30
486.78	16599.08
486.96	16365.03
487.14	16545.25
487.32	16781.64
487.50	16903.35
487.68	16931.44
487.85	17062.51
488.03	17238.05
488.21	17661.68
488.39	17355.07
488.57	17425.29
488.75	17710.83
488.92	17879.35
489.10	18200.01
489.28	18286.61
489.46	18464.49
489.64	18279.58
489.81	18967.70
489.99	18780.46
490.17	18750.03
490.35	18979.40
490.53	19084.73
490.70	19206.44
490.88	19066.00
491.06	19381.98
491.24	19627.73
491.41	19508.37
491.59	19527.09
491.77	19307.08
491.95	19789.23
492.13	20217.55
492.30	20100.52
492.48	20044.35
492.66	20327.55
492.84	20320.53
493.01	20666.93
493.19	20629.48
493.37	21317.60
493.54	21025.03
493.72	21116.31
493.90	21015.67
494.08	21338.66
494.25	22003.38
494.43	21673.36
494.61	22019.76
494.79	21813.79
494.96	21851.24
495.14	21766.98
495.32	22338.07
495.49	22263.18
495.67	22291.26
495.85	22717.24
496.02	22595.53
496.20	23309.40
496.38	22700.86
496.55	23147.90
496.73	23470.89
496.91	23194.71
497.09	23447.49
497.26	23477.91
497.44	23576.22
497.62	23566.85
497.79	23875.80
497.97	23578.56
498.14	24023.26
498.32	23903.89
498.50	24357.96
498.67	24549.88
498.85	24112.20
499.03	24664.57
499.20	24547.54
499.38	24463.28
499.56	24755.85
499.73	24683.29
499.91	24826.06
500.08	25209.91
500.26	24889.26
500.44	25261.40
500.61	25025.01
500.79	24992.24
500.97	25472.05
501.14	25830.15
501.32	25579.71
501.49	25762.28
501.67	25507.16
501.84	25972.92
502.02	25891.01
502.20	26324.01
502.37	25947.18
502.55	26302.94
502.72	26237.41
502.90	26305.28
503.07	26586.15
503.25	26288.90
503.43	26237.41
503.60	26661.04
503.78	26602.53
503.95	26473.80
504.13	26670.40
504.30	27035.53
504.48	27094.04
504.65	27349.16
504.83	27576.19
505.01	27686.20
505.18	27232.13
505.36	27688.54
505.53	27873.44
505.71	28395.38
505.88	28105.15
506.06	27889.82
506.23	28067.70
506.41	28070.04
506.58	28056.00
506.76	28081.75
506.93	28247.93
507.11	28229.20
507.28	28437.51
507.46	28168.35
507.63	28725.39
507.81	28467.94
507.98	28907.96
508.16	28706.67
508.33	29062.43
508.50	28905.62
508.68	28959.45
508.85	29153.71
509.03	29469.69
509.20	29778.64
509.38	29439.26
509.55	29631.18
509.73	29514.16
509.90	30075.88
510.08	29788.00
510.25	29975.24
510.42	29930.77
510.60	30354.41
510.77	30347.39
510.95	30139.08
511.12	30251.42
511.30	30134.40
511.47	30499.52
511.64	30471.43
511.82	30850.60
511.99	30604.84
512.17	30850.60
512.34	30541.65
512.51	30888.05
512.69	31096.36
512.86	30845.92
513.04	31187.64
513.21	31124.44
513.38	31314.03
513.56	30951.24
513.73	30962.95
513.90	31461.48
514.08	31070.61
514.25	31417.01
514.43	31496.59
514.60	31597.23
514.77	32240.88
514.95	32030.23
515.12	32011.51
515.29	32219.81
515.47	32130.87
515.64	32147.26
515.81	32210.45
515.99	32081.72
516.16	32254.92
516.33	32102.79
516.51	32266.63
516.68	31798.52
516.85	32023.21
517.03	32156.62
517.20	32624.73
517.37	32779.20
517.54	32868.14
517.72	32938.36
517.89	32671.54
518.06	32540.47
518.24	32563.87
518.41	32870.48
518.58	32989.85
518.75	32739.41
518.93	33340.93
519.10	32973.47
519.27	33617.11
519.45	33476.68
519.62	33558.60
519.79	33703.71
519.96	34096.92
520.14	33907.34
520.31	33977.56
520.48	33860.53
520.65	34026.71
520.83	34424.60
521.00	34628.23
521.17	34178.84
521.34	34450.35
521.52	34328.64
521.69	34370.77
521.86	34878.66
522.03	34408.22
522.20	34799.08
522.38	34771.00
522.55	34895.05
522.72	34632.91
522.89	34937.18
523.07	34927.81
523.24	34731.21
523.41	35463.80
523.58	34941.86
523.75	35218.04
523.92	35332.73
524.10	35765.73
524.27	35817.22
524.44	35927.22
524.61	35164.21
524.78	35981.06
524.96	35662.74
525.13	35983.40
525.30	35800.83
525.47	36430.44
525.64	36116.81
525.81	35936.59
525.98	35849.99
526.16	35466.14
526.33	35908.50
526.50	36163.62
526.67	35913.18
526.84	36081.70
527.01	35608.91
527.18	36273.62
527.36	36589.59
527.53	36524.06
527.70	36896.20
527.87	36650.45
528.04	36739.39
528.21	36657.47
528.38	36517.04
528.55	36931.31
528.72	37200.47
528.89	36863.44
529.07	37031.96
529.24	36823.65
529.41	37050.68
529.58	36837.69
529.75	36753.43
529.92	37460.27
530.09	37303.46
530.26	37656.88
530.43	37481.34
530.60	37322.18
530.77	37680.28
530.94	37862.85
531.11	37677.94
531.28	37699.01
531.46	38085.20
531.63	37766.88
531.80	37773.91
531.97	38059.45
532.14	37961.15
532.31	37586.66
532.48	38178.82
532.65	38139.03
532.82	38052.43
532.99	38445.64
533.16	37900.29
533.33	38014.98
533.50	38012.64
533.67	38249.03
533.84	38335.63
534.01	38546.28
534.18	38342.66
534.35	38707.78
534.52	38878.64
534.69	38799.06
534.86	38941.83
535.03	38682.03
535.20	39257.81
535.37	39269.51
535.54	39218.02
535.71	38546.28
535.88	38766.29
536.05	39168.87
536.22	39321.00
536.38	38775.66
536.55	38682.03
536.72	39416.96
536.89	39133.76
537.06	39346.75
537.23	39433.35
537.40	39143.12
537.57	39503.56
537.74	39611.23
537.91	39295.25
538.08	39552.71
538.25	39236.74
538.42	39571.44
538.59	39749.32
538.75	39543.35
538.92	39524.63
539.09	39580.80
539.26	39632.29
539.43	39693.15
539.60	39931.88
539.77	39763.36
539.94	39723.57
540.11	39952.94
540.28	40208.06
540.44	40013.80
540.61	40332.11
540.78	40076.99
540.95	39636.97
541.12	40088.70
541.29	40088.70
541.46	40484.25
541.62	40102.74
541.79	40509.99
541.96	39725.91
542.13	40170.61
542.30	40418.71
542.47	40584.89
542.63	40524.04
542.80	40861.07
542.97	40947.67
543.14	40889.16
543.31	40985.12
543.48	41324.50
543.64	41556.21
543.81	41361.95
543.98	41060.02
544.15	41057.68
544.32	41687.28
544.48	41727.07
544.65	41228.54
544.82	41357.27
544.99	40741.71
545.16	41455.57
545.32	41617.07
545.49	41450.89
545.66	41851.12
545.83	41916.65
546.00	41773.88
546.16	41593.66
546.33	41486.00
546.50	41289.39
546.67	41621.75
546.83	41099.81
547.00	41935.38
547.17	41612.38
547.34	41656.85
547.50	42005.59
547.67	41801.97
547.84	42202.20
548.00	41787.92
548.17	41968.15
548.34	42021.98
548.51	42209.22
548.67	42312.20
548.84	42347.31
549.01	41949.42
549.18	42300.50
549.34	42473.70
549.51	42351.99
549.68	42178.79
549.84	42445.62
550.01	42773.29
550.18	42511.15
550.34	42274.76
550.51	42415.19
550.68	42433.91
550.84	41832.39
551.01	42660.94
551.18	42426.89
551.34	42873.93
551.51	42792.01
551.68	42817.76
551.84	42948.83
552.01	42515.83
552.18	42883.30
552.34	42199.86
552.51	42995.64
552.68	43077.56
552.84	42958.19
553.01	43208.63
553.18	42923.08
553.34	43065.86
553.51	43098.62
553.67	43009.68
553.84	43267.14
554.01	43246.08
554.17	43072.88
554.34	43454.39
554.51	43466.09
554.67	43470.77
554.84	43299.91
555.00	42979.26
555.17	43367.79
555.33	43578.43
555.50	43578.43
555.67	43330.34
555.83	43517.58
556.00	43391.19
556.16	43658.01
556.33	43578.43
556.50	43468.43
556.66	43505.88
556.83	43463.75
556.99	43653.33
557.16	43782.06
557.32	43981.01
557.49	43276.51
557.65	43416.94
557.82	43517.58
557.98	43643.97
558.15	43412.26
558.32	43950.58
558.48	43665.03
558.65	44018.46
558.81	43793.76
558.98	44055.90
559.14	43346.72
559.31	43597.16
559.47	44142.50
559.64	44065.27
559.80	44261.87
559.97	44676.15
560.13	43957.60
560.30	44079.31
560.46	44329.75
560.63	44006.75
560.79	44362.51
560.96	44034.84
561.12	44151.87
561.29	44233.78
561.45	43866.32
561.61	43693.12
561.78	44306.34
561.94	43770.36
562.11	44299.32
562.27	44467.84
562.44	44144.84
562.60	44252.51
562.77	44535.71
562.93	44142.50
563.10	44217.40
563.26	43997.39
563.42	44252.51
563.59	44463.16
563.75	44175.27
563.92	44374.22
564.08	44697.21
564.24	44481.88
564.41	44598.91
564.57	44638.70
564.74	44605.93
564.90	44673.81
565.07	44421.03
565.23	44313.36
565.39	44421.03
565.56	44296.98
565.72	44217.40
565.88	44446.77
566.05	44477.20
566.21	44594.23
566.38	44327.41
566.54	44566.14
566.70	44479.54
566.87	44545.08
567.03	44414.01
567.19	44650.40
567.36	44744.02
567.52	44755.72
567.68	44835.30
567.85	44348.47
568.01	44577.84
568.17	44790.83
568.34	44641.04
568.50	44795.51
568.66	44638.70
568.83	44701.89
568.99	44554.44
569.15	44772.11
569.32	44561.46
569.48	44676.15
569.64	44994.46
569.81	45148.93
569.97	44495.92
570.13	44711.25
570.30	44500.61
570.46	44383.58
570.62	44980.42
570.78	44804.88
570.95	44697.21
571.11	44971.05
571.27	44694.87
571.43	44657.42
571.60	45359.58
571.76	44851.69
571.92	44715.93
572.09	44727.64
572.25	45010.84
572.41	44837.64
572.57	44978.07
572.74	45214.47
572.90	45338.52
573.06	45134.89
573.22	44828.28
573.38	44666.78
573.55	44236.12
573.71	45127.87
573.87	44765.09
574.03	44559.12
574.20	45034.25
574.36	44554.44
574.52	45048.29
574.68	44582.52
574.84	45130.21
575.01	45106.80
575.17	44945.31
575.33	44474.86
575.49	44835.30
575.65	45188.72
575.82	45275.32
575.98	45059.99
576.14	45270.64
576.30	45200.43
576.46	44779.13
576.62	44837.64
576.79	44800.19
576.95	44776.79
577.11	45352.56
577.27	45078.72
577.43	45357.24
577.59	44928.92
577.75	45001.48
577.92	44872.75
578.08	44870.41
578.24	44863.39
578.40	44828.28
578.56	44985.10
578.72	45202.77
578.88	45457.88
579.04	45071.70
579.21	45036.59
579.37	44744.02
579.53	45148.93
579.69	45043.61
579.85	45319.79
580.01	44992.12
580.17	44973.39
580.33	45354.90
580.49	45085.74
580.65	44919.56
580.82	45170.00
580.98	45235.53
581.14	44903.18
581.30	45195.74
581.46	44928.92
581.62	44985.10
581.78	44624.65
581.94	45244.90
582.10	45572.57
582.26	45296.39
582.42	45500.01
582.58	45333.84
582.74	45022.54
582.90	45146.59
583.06	45705.98
583.22	45008.50
583.38	45717.68
583.54	44957.01
583.70	45294.05
583.86	44769.77
584.02	45120.85
584.18	45202.77
584.34	44872.75
584.50	45581.93
584.66	45167.66
584.82	45258.94
584.98	45394.69
585.14	45195.74
585.30	45139.57
585.46	44987.44
585.62	45031.91
585.78	45195.74
585.94	44809.56
586.10	45375.97
586.26	45027.23
586.42	45078.72
586.58	45305.75
586.74	45638.11
586.90	44931.26
587.06	44994.46
587.22	45537.46
587.38	44978.07
587.54	45516.40
587.70	45640.45
587.86	45137.23
588.02	45291.71
588.18	45439.16
588.34	45268.30
588.49	44814.24
588.65	44652.74
588.81	45031.91
588.97	44971.05
589.13	45029.57
589.29	45158.30
589.45	45647.47
589.61	45319.79
589.77	45265.96
589.93	45361.92
590.08	44947.65
590.24	45317.45
