SpectraSuite Data File
++++++++++++++++++++++++++++++++++++
Date: Fri Oct 25 10:48:35 EDT 2013
User: price-jones
Dark Spectrum Present: No
Reference Spectrum Present: No
Number of Sampled Component Spectra: 1
Spectrometers: USB2+H05261
Integration Time (usec): 100000 (USB2+H05261)
Spectra Averaged: 1 (USB2+H05261)
Boxcar Smoothing: 0 (USB2+H05261)
Correct for Electrical Dark: No (USB2+H05261)
Strobe/Lamp Enabled: No (USB2+H05261)
Correct for Detector Non-linearity: No (USB2+H05261)
Correct for Stray Light: No (USB2+H05261)
Number of Pixels in Processed Spectrum: 2048
>>>>>Begin Processed Spectral Data<<<<<
365.73	156.82
365.92	156.82
366.12	156.82
366.32	79.58
366.52	56.17
366.72	56.17
366.91	0.00
367.11	7.02
367.31	67.88
367.51	95.96
367.70	58.51
367.90	21.06
368.10	42.13
368.30	60.85
368.49	32.77
368.69	63.19
368.89	74.90
369.09	42.13
369.28	67.88
369.48	110.01
369.68	156.82
369.87	49.15
370.07	147.45
370.27	177.88
370.47	227.03
370.66	416.62
370.86	484.49
371.06	461.09
371.25	505.56
371.45	512.58
371.65	465.77
371.84	449.38
372.04	514.92
372.24	545.34
372.44	552.37
372.63	498.53
372.83	627.26
373.03	547.69
373.22	503.22
373.42	543.00
373.62	528.96
373.81	564.07
374.01	716.20
374.21	545.34
374.40	650.67
374.60	660.03
374.79	596.84
374.99	627.26
375.19	631.94
375.38	599.18
375.58	674.07
375.78	566.41
375.97	674.07
376.17	608.54
376.37	622.58
376.56	688.12
376.76	627.26
376.95	699.82
377.15	683.44
377.35	660.03
377.54	718.54
377.74	580.45
377.93	643.65
378.13	784.08
378.33	877.70
378.52	697.48
378.72	643.65
378.91	676.41
379.11	645.99
379.31	730.25
379.50	653.01
379.70	669.39
379.89	739.61
380.09	723.23
380.28	702.16
380.48	760.67
380.68	732.59
380.87	723.23
381.07	821.53
381.26	727.91
381.46	805.14
381.65	823.87
381.85	720.88
382.04	725.57
382.24	730.25
382.43	788.76
382.63	678.76
382.83	730.25
383.02	725.57
383.22	779.40
383.41	784.08
383.61	800.46
383.80	835.57
384.00	856.64
384.19	802.80
384.39	819.19
384.58	751.31
384.78	826.21
384.97	802.80
385.17	830.89
385.36	748.97
385.56	770.04
385.75	837.91
385.95	898.77
386.14	917.49
386.34	983.02
386.53	875.36
386.72	751.31
386.92	931.53
387.11	858.98
387.31	868.34
387.50	940.90
387.70	849.61
387.89	957.28
388.09	964.30
388.28	873.02
388.48	922.17
388.67	1020.47
388.86	980.68
389.06	983.02
389.25	1102.39
389.45	1121.12
389.64	1004.09
389.84	1069.62
390.03	992.39
390.22	1039.20
390.42	1074.31
390.61	1097.71
390.81	1088.35
391.00	1191.33
391.19	1160.91
391.39	1095.37
391.58	1074.31
391.78	1100.05
391.97	992.39
392.16	1100.05
392.36	1125.80
392.55	1118.78
392.75	1078.99
392.94	1081.33
393.13	1055.58
393.33	1109.41
393.52	1109.41
393.71	1144.52
393.91	1172.61
394.10	1156.22
394.29	1242.82
394.49	1174.95
394.68	1275.59
394.88	1228.78
395.07	1284.95
395.26	1315.38
395.46	1277.93
395.65	1324.74
395.84	1270.91
396.04	1296.66
396.23	1303.68
396.42	1221.76
396.62	1299.00
396.81	1228.78
397.00	1259.21
397.19	1343.47
397.39	1399.64
397.58	1530.71
397.77	1507.30
397.97	1500.28
398.16	1465.18
398.35	1591.56
398.55	1526.03
398.74	1598.59
398.93	1600.93
399.12	1638.38
399.32	1633.69
399.51	1591.56
399.70	1626.67
399.90	1636.03
400.09	1605.61
400.28	1795.19
400.47	1685.19
400.67	1792.85
400.86	1652.42
401.05	1781.15
401.24	1717.95
401.44	1748.38
401.63	1802.21
401.82	1729.66
402.01	1785.83
402.21	1856.04
402.40	1870.09
402.59	1884.13
402.78	1912.22
402.97	1778.81
403.17	1844.34
403.36	1952.01
403.55	1930.94
403.74	1921.58
403.93	2003.50
404.13	1909.88
404.32	1956.69
404.51	1987.11
404.70	1968.39
404.89	2087.76
405.09	2125.21
405.28	2066.69
405.47	2099.46
405.66	1980.09
405.85	2047.97
406.05	2047.97
406.24	2167.34
406.43	2097.12
406.62	2099.46
406.81	2314.79
407.00	2172.02
407.20	2169.68
407.39	2111.16
407.58	2167.34
407.77	2186.06
407.96	2359.26
408.15	2260.96
408.34	2466.92
408.54	2406.07
408.73	2342.88
408.92	2448.20
409.11	2377.98
409.30	2429.48
409.49	2368.62
409.68	2480.97
409.87	2392.03
410.07	2485.65
410.26	2366.28
410.45	2443.52
410.64	2623.74
410.83	2633.10
411.02	2647.15
411.21	2750.13
411.40	2621.40
411.59	2818.00
411.78	2736.09
411.98	2750.13
412.17	2820.35
412.36	2839.07
412.55	2775.88
412.74	2794.60
412.93	2977.16
413.12	2881.20
413.31	3098.87
413.50	2902.26
413.69	3014.61
413.88	2920.99
414.07	2977.16
414.26	3068.44
414.45	3033.33
414.64	3150.36
414.83	3192.49
415.02	3084.83
415.22	3152.70
415.41	3311.86
415.60	3295.47
415.79	3344.63
415.98	3330.58
416.17	3382.07
416.36	3330.58
416.55	3372.71
416.74	3398.46
416.93	3440.59
417.12	3501.44
417.31	3456.97
417.50	3447.61
417.69	3665.28
417.88	3681.66
418.07	3581.02
418.26	3604.42
418.45	3557.61
418.64	3737.84
418.83	3705.07
419.02	3812.73
419.21	3747.20
419.39	3796.35
419.58	3592.72
419.77	3798.69
419.96	3742.52
420.15	3812.73
420.34	3775.28
420.53	3967.21
420.72	4098.28
420.91	3967.21
421.10	3922.74
421.29	3939.12
421.48	4053.81
421.67	3960.19
421.86	3974.23
422.05	3845.50
422.24	4021.04
422.43	3885.29
422.61	3939.12
422.80	4236.37
422.99	3892.31
423.18	3969.55
423.37	4173.18
423.56	4053.81
423.75	4156.79
423.94	4077.21
424.13	3777.62
424.32	3922.74
424.50	4077.21
424.69	4100.62
424.88	4152.11
425.07	4100.62
425.26	3920.40
425.45	4028.06
425.64	4128.70
425.83	4124.02
426.01	4231.69
426.20	4109.98
426.39	4091.26
426.58	4109.98
426.77	4077.21
426.96	4117.00
427.15	4070.19
427.33	4358.08
427.52	4194.24
427.71	4194.24
427.90	4306.59
428.09	4315.95
428.28	4276.16
428.46	4358.08
428.65	4351.06
428.84	4456.38
429.03	4517.23
429.22	4210.62
429.40	4435.32
429.59	4292.54
429.78	4161.47
429.97	4077.21
430.16	4245.73
430.34	4294.88
430.53	4367.44
430.72	4484.47
430.91	4407.23
431.10	4414.25
431.28	4542.98
431.47	4758.31
431.66	4936.19
431.85	4683.41
432.03	4760.65
432.22	4868.31
432.41	4870.65
432.60	4954.91
432.79	4837.89
432.97	4870.65
433.16	4793.42
433.35	4840.23
433.54	4945.55
433.72	4870.65
433.91	4851.93
434.10	5064.92
434.28	4966.62
434.47	5076.62
434.66	5102.37
434.85	5195.99
435.03	5107.05
435.22	5231.10
435.41	5364.51
435.59	5252.16
435.78	5284.93
435.97	5301.31
436.16	5289.61
436.34	5408.98
436.53	5254.50
436.72	5511.96
436.90	5310.68
437.09	5343.44
437.28	5151.52
437.46	5408.98
437.65	5338.76
437.84	5472.17
438.02	5298.97
438.21	5315.36
438.40	5551.75
438.58	5523.66
438.77	5694.52
438.96	5544.73
439.14	5666.44
439.33	5891.13
439.52	5825.59
439.70	5823.25
439.89	5926.24
440.08	5802.19
440.26	5877.09
440.45	5937.94
440.63	5984.75
440.82	6235.19
441.01	6246.89
441.19	6235.19
441.38	6293.70
441.57	6354.55
441.75	6345.19
441.94	6553.50
442.12	6590.95
442.31	6686.91
442.50	6616.69
442.68	6743.08
442.87	6441.15
443.05	6626.06
443.24	6810.96
443.43	6750.10
443.61	6565.20
443.80	6813.30
443.98	6572.22
444.17	6600.31
444.35	6836.70
444.54	6932.67
444.73	6970.12
444.91	6773.51
445.10	6722.02
445.28	6675.21
445.47	6679.89
445.65	6637.76
445.84	6647.12
446.02	6778.19
446.21	6717.34
446.39	6719.68
446.58	7002.88
446.77	6850.75
446.95	6827.34
447.14	6920.96
447.32	7049.69
447.51	6925.65
447.69	6839.05
447.88	7000.54
448.06	6860.11
448.25	7110.55
448.43	7077.78
448.62	6993.52
448.80	6932.67
448.99	6995.86
449.17	7021.61
449.36	7077.78
449.54	7211.19
449.73	7349.28
449.91	7346.94
450.10	7456.95
450.28	7714.41
450.46	7527.16
450.65	7538.87
450.83	7545.89
451.02	7412.48
451.20	7489.71
451.39	7496.74
451.57	7510.78
451.76	7337.58
451.94	7501.42
452.13	7435.88
452.31	7538.87
452.49	7318.86
452.68	7506.10
452.86	7412.48
453.05	7569.29
453.23	7761.22
453.42	7468.65
453.60	7487.37
453.78	7674.62
453.97	7674.62
454.15	7719.09
454.34	7541.21
454.52	7751.85
454.70	7728.45
454.89	7929.74
455.07	7861.86
455.26	7925.05
455.44	8180.17
455.62	7990.59
455.81	7976.55
455.99	8245.71
456.17	8255.07
456.36	8234.00
456.54	8285.50
456.73	8273.79
456.91	8681.05
457.09	8425.93
457.28	8578.06
457.46	8456.36
457.64	8500.83
457.83	8411.89
458.01	8229.32
458.19	8374.44
458.38	8435.29
458.56	8730.20
458.74	8446.99
458.93	8655.30
459.11	8449.33
459.29	8456.36
459.48	8739.56
459.66	8791.05
459.84	8631.90
460.03	8868.29
460.21	8903.40
460.39	8929.14
460.57	8781.69
460.76	8842.54
460.94	9104.68
461.12	8968.93
461.31	9046.17
461.49	8833.18
461.67	9069.58
461.85	9390.23
462.04	9029.79
462.22	9509.60
462.40	9434.70
462.59	9312.99
462.77	9338.74
462.95	9245.12
463.13	9193.62
463.32	9298.95
463.50	9472.15
463.68	9352.78
463.86	9280.22
464.05	9303.63
464.23	9221.71
464.41	9177.24
464.59	9202.99
464.78	9535.34
464.96	9423.00
465.14	9287.25
465.32	9617.26
465.50	9827.91
465.69	9785.78
465.87	9462.79
466.05	9603.22
466.23	9455.76
466.41	9699.18
466.60	9743.65
466.78	9509.60
466.96	9462.79
467.14	9743.65
467.32	9727.27
467.51	9781.10
467.69	9425.34
467.87	9671.09
468.05	10038.56
468.23	9818.55
468.41	9762.37
468.60	9961.32
468.78	10090.05
468.96	9848.97
469.14	10232.82
469.32	10153.24
469.50	9926.21
469.69	10022.17
469.87	10242.18
470.05	10209.42
470.23	10090.05
470.41	10324.10
470.59	10188.35
470.77	10303.04
470.95	10480.92
471.14	10499.64
471.32	10284.31
471.50	10609.65
471.68	10775.83
471.86	10794.55
472.04	10644.76
472.22	11033.29
472.40	10569.86
472.58	10684.55
472.77	10768.80
472.95	10993.50
473.13	11206.48
473.31	10993.50
473.49	11077.76
473.67	11009.88
473.85	10890.51
474.03	11485.01
474.21	11311.81
474.39	11501.39
474.57	11386.71
474.75	11559.91
474.93	11782.26
475.12	11538.84
475.30	11592.67
475.48	11566.93
475.66	11723.74
475.84	11651.19
476.02	11836.09
476.20	11768.21
476.38	12053.76
476.56	12437.61
476.74	12126.32
476.92	12231.64
477.10	12126.32
477.28	12453.99
477.46	12704.43
477.64	12624.85
477.82	12688.04
478.00	13146.79
478.18	13008.70
478.36	13015.72
478.54	13135.09
478.72	13404.25
478.90	13212.32
479.08	13577.45
479.26	13493.19
479.44	13696.82
479.62	14066.62
479.80	13940.23
479.98	14094.71
480.16	14368.55
480.34	14328.76
480.52	14223.44
480.70	13987.04
480.88	14122.79
481.06	14555.79
481.24	14312.38
481.41	14846.02
481.59	14579.20
481.77	15009.86
481.95	15028.58
482.13	15154.97
482.31	15145.61
482.49	15632.44
482.67	15150.29
482.85	15545.84
483.03	15775.21
483.21	16058.42
483.39	16020.97
483.57	15894.58
483.74	16009.26
483.92	15992.88
484.10	16287.79
484.28	16498.44
484.46	16521.84
484.64	17015.69
484.82	16678.66
485.00	16957.18
485.18	17130.38
485.35	16936.12
485.53	16643.55
485.71	16594.40
485.89	16989.95
486.07	17259.11
486.25	17130.38
486.43	17570.40
486.61	17867.65
486.78	17736.58
486.96	18174.26
487.14	18616.62
487.32	18450.44
487.50	18586.19
487.68	18813.23
487.85	19066.00
488.03	18984.09
488.21	19286.01
488.39	19363.25
488.57	19304.74
488.75	19370.27
488.92	19555.18
489.10	19976.47
489.28	20159.03
489.46	20353.30
489.64	20526.50
489.81	20842.47
489.99	20680.97
490.17	21095.25
490.35	21137.38
490.53	20786.30
490.70	21291.85
490.88	21158.44
491.06	21558.67
491.24	21572.72
491.41	21341.00
491.59	21467.39
491.77	21689.74
491.95	22232.75
492.13	22003.38
492.30	22361.48
492.48	22576.81
492.66	22553.40
492.84	22658.73
493.01	22630.64
493.19	22852.99
493.37	23243.86
493.54	23211.09
493.72	23452.17
493.90	23304.71
494.08	23700.26
494.25	23924.96
494.43	24360.30
494.61	24287.74
494.79	24233.91
494.96	24346.25
495.14	24257.31
495.32	24559.24
495.49	24348.59
495.67	24479.66
495.85	25284.81
496.02	25186.50
496.20	25390.13
496.38	25490.77
496.55	25219.27
496.73	25963.56
496.91	25766.96
497.09	25898.03
497.26	25792.70
497.44	25668.66
497.62	26192.94
497.79	25900.37
497.97	26061.87
498.14	26417.63
498.32	26810.84
498.50	26705.51
498.67	26845.94
498.85	26988.72
499.03	26817.86
499.20	26682.11
499.38	27218.09
499.56	27154.90
499.73	27126.81
499.91	27438.10
500.08	27775.14
500.26	27363.20
500.44	27798.54
500.61	27826.63
500.79	27639.39
500.97	27524.70
501.14	27814.93
501.32	28056.00
501.49	28081.75
501.67	28079.41
501.84	28119.20
502.02	28531.13
502.20	28854.12
502.37	28804.97
502.55	28776.89
502.72	28746.46
502.90	29083.50
503.07	28713.69
503.25	29170.10
503.43	28996.90
503.60	28844.76
503.78	29116.26
503.95	29518.84
504.13	29408.83
504.30	29645.23
504.48	29792.68
504.65	29993.97
504.83	29909.71
505.01	30459.73
505.18	29961.20
505.36	30398.88
505.53	29996.31
505.71	30838.90
505.88	30764.00
506.06	30464.41
506.23	30689.10
506.41	30328.66
506.58	31030.82
506.76	30761.66
506.93	30946.56
507.11	30787.41
507.28	31332.75
507.46	31519.99
507.63	30878.69
507.81	31807.88
507.98	31248.49
508.16	31452.12
508.33	31740.00
508.50	31931.93
508.68	32032.57
508.85	32086.40
509.03	32531.11
509.20	32077.04
509.38	32175.34
509.55	32531.11
509.73	32245.56
509.90	32439.82
510.08	32252.58
510.25	32308.76
510.42	32381.31
510.60	32598.98
510.77	33078.79
510.95	33497.75
511.12	32320.46
511.30	32905.59
511.47	33570.30
511.64	33354.97
511.82	34054.79
511.99	33310.50
512.17	33717.76
512.34	32891.55
512.51	33745.84
512.69	33923.72
512.86	33776.27
513.04	34499.50
513.21	33897.98
513.38	33804.36
513.56	33890.96
513.73	33734.14
513.90	34136.71
514.08	34195.23
514.25	33998.62
514.43	34326.30
514.60	34143.74
514.77	34281.83
514.95	34724.19
515.12	34558.01
515.29	34843.56
515.47	34890.37
515.64	34974.63
515.81	35227.40
515.99	34501.84
516.16	35164.21
516.33	34597.80
516.51	34572.05
516.68	34415.24
516.85	34431.62
517.03	34333.32
517.20	34771.00
517.37	35374.86
517.54	35468.48
517.72	35702.53
517.89	35328.05
518.06	35180.59
518.24	35108.04
518.41	35332.73
518.58	35562.10
518.75	36137.87
518.93	36189.36
519.10	35871.05
519.27	36479.59
519.45	35779.77
519.62	36395.33
519.79	36582.57
519.96	36638.75
520.14	36776.84
520.31	36025.53
520.48	36715.98
520.65	36765.14
520.83	37406.44
521.00	37034.30
521.17	37017.91
521.34	37102.17
521.52	37446.23
521.69	37652.20
521.86	37701.35
522.03	37214.52
522.20	37509.43
522.38	37525.81
522.55	37476.66
522.72	37837.10
522.89	37493.04
523.07	37890.93
523.24	37839.44
523.41	37921.36
523.58	37907.32
523.75	38305.21
523.92	38274.78
524.10	38590.75
524.27	38625.86
524.44	38506.49
524.61	38569.69
524.78	38696.08
524.96	38586.07
525.13	38593.09
525.30	38990.98
525.47	38925.45
525.64	38719.48
525.81	38457.34
525.98	38890.34
526.16	38576.71
526.33	38323.93
526.50	38721.82
526.67	38733.53
526.84	38572.03
527.01	38785.02
527.18	38899.70
527.36	39175.89
527.53	39150.14
527.70	39828.90
527.87	40048.91
528.04	39667.40
528.21	39438.03
528.38	39634.63
528.55	40535.74
528.72	39894.43
528.89	39840.60
529.07	39711.87
529.24	39824.22
529.41	39957.63
529.58	39468.45
529.75	39805.49
529.92	40526.38
530.09	40018.48
530.26	40587.23
530.43	40891.50
530.60	40285.30
530.77	40421.05
530.94	41041.29
531.11	40751.07
531.28	41083.42
531.46	40598.93
531.63	41102.15
531.80	41006.19
531.97	40950.01
532.14	40390.62
532.31	40229.13
532.48	40629.36
532.65	40725.32
532.82	40985.12
532.99	41170.02
533.16	41041.29
533.33	41420.46
533.50	41380.67
533.67	40980.44
533.84	41551.53
534.01	41280.03
534.18	41490.68
534.35	41921.34
534.52	41455.57
534.69	41521.10
534.86	41935.38
535.03	41619.41
535.20	41860.48
535.37	42277.10
535.54	42621.16
535.71	41738.77
535.88	42239.65
536.05	42164.75
536.22	41729.41
536.38	42202.20
536.55	41759.84
536.72	41900.27
536.89	41530.47
537.06	42234.97
537.23	42314.55
537.40	42234.97
537.57	42464.34
537.74	42000.91
537.91	42691.37
538.08	42789.67
538.25	42211.56
538.42	42466.68
538.59	42969.90
538.75	42202.20
538.92	42532.22
539.09	42698.39
539.26	42337.95
539.43	42373.06
539.60	42506.47
539.77	42328.59
539.94	42747.54
540.11	43030.75
540.28	42321.57
540.44	42628.18
540.61	42300.50
540.78	42754.57
540.95	42574.34
541.12	43035.43
541.29	42691.37
541.46	43335.02
541.62	43049.47
541.79	43129.05
541.96	43119.69
542.13	43379.49
542.30	43365.45
542.47	43646.31
542.63	43131.39
542.80	43665.03
542.97	43892.07
543.14	43957.60
543.31	43945.90
543.48	43796.10
543.64	44406.98
543.81	43920.15
543.98	43856.96
544.15	44332.09
544.32	44584.86
544.48	44643.38
544.65	44479.54
544.82	44404.64
544.99	43863.98
545.16	44479.54
545.32	44458.48
545.49	44048.88
545.66	44772.11
545.83	44650.40
546.00	44772.11
546.16	44105.06
546.33	44484.22
546.50	43992.71
546.67	44500.61
546.83	44282.94
547.00	44198.68
547.17	44531.03
547.34	44533.37
547.50	44444.43
547.67	45043.61
547.84	44542.74
548.00	45284.68
548.17	44935.95
548.34	44931.26
548.51	45406.39
548.67	45043.61
548.84	45043.61
549.01	45003.82
549.18	45038.93
549.34	45078.72
549.51	45485.97
549.68	45495.33
549.84	45139.57
550.01	44917.22
550.18	45022.54
550.34	45343.20
550.51	44889.13
550.68	45177.02
550.84	44832.96
551.01	45308.09
551.18	45460.23
551.34	45338.52
551.51	45610.02
551.68	45535.12
551.84	45244.90
552.01	45221.49
552.18	45249.58
552.34	45237.87
552.51	45237.87
552.68	45490.65
552.84	46019.61
553.01	45869.82
553.18	45771.52
553.34	45853.44
553.51	45251.92
553.67	45525.76
553.84	45876.84
554.01	45771.52
554.17	46054.72
554.34	46227.92
554.51	45970.46
554.67	46288.77
554.84	46389.42
555.00	45972.80
555.17	45979.82
555.33	45722.37
555.50	45584.27
555.67	45904.93
555.83	45968.12
556.00	45942.38
556.16	46747.52
556.33	46052.38
556.50	46054.72
556.66	46642.20
556.83	46057.06
556.99	46265.37
557.16	46031.32
557.32	45893.22
557.49	46080.47
557.65	46155.36
557.82	46461.97
557.98	46260.69
558.15	46511.13
558.32	46174.09
558.48	46450.27
558.65	46326.22
558.81	46377.72
558.98	46082.81
559.14	46403.46
559.31	45918.97
559.47	46134.30
559.64	46490.06
559.80	46401.12
559.97	46525.17
560.13	46211.54
560.30	46358.99
560.46	46621.13
560.63	46571.98
560.79	46607.09
560.96	46784.97
561.12	46396.44
561.29	46632.83
561.45	46607.09
561.61	46974.55
561.78	46995.62
561.94	46937.10
562.11	47047.11
562.27	46419.84
562.44	46848.16
562.60	47194.56
562.77	46941.78
562.93	46794.33
563.10	47019.02
563.26	46548.57
563.42	46997.96
563.59	46838.80
563.75	47058.81
563.92	47178.18
564.08	46967.53
564.24	46653.90
564.41	47161.79
564.57	46906.68
564.74	47199.24
564.90	46993.28
565.07	46913.70
565.23	46649.22
565.39	46724.11
565.56	47079.88
565.72	46768.58
565.88	47070.51
566.05	47440.32
566.21	46752.20
566.38	46815.40
566.54	46962.85
566.70	46911.36
566.87	47346.70
567.03	47470.75
567.19	47690.76
567.36	47161.79
567.52	47098.60
567.68	47049.45
567.85	47285.84
568.01	46995.62
568.17	46850.50
568.34	47243.71
568.50	47489.47
568.66	47107.96
568.83	47257.76
568.99	47178.18
569.15	47079.88
569.32	47199.24
569.48	46745.18
569.64	47248.39
569.81	47129.03
569.97	47040.09
570.13	47545.64
570.30	46745.18
570.46	46913.70
570.62	46731.14
570.78	46815.40
570.95	46909.02
571.11	47700.12
571.27	47065.83
571.43	47334.99
571.60	47180.52
571.76	47014.34
571.92	47398.19
572.09	47236.69
572.25	47515.22
572.41	47246.05
572.57	47379.46
572.74	47454.36
572.90	47365.42
573.06	47194.56
573.22	47468.40
573.38	47159.45
573.55	47028.38
573.71	47143.07
573.87	47220.31
574.03	47557.35
574.20	47210.95
574.36	47157.11
574.52	47639.26
574.68	47124.35
574.84	47309.25
575.01	47253.08
575.17	47178.18
575.33	47143.07
575.49	47384.15
575.65	47461.38
575.82	47325.63
575.98	46892.63
576.14	47416.91
576.30	47276.48
576.46	47236.69
576.62	47196.90
576.79	47358.40
576.95	46555.60
577.11	47100.94
577.27	47646.29
577.43	47086.90
577.59	47569.05
577.75	47274.14
577.92	46799.01
578.08	47065.83
578.24	46876.25
578.40	46983.91
578.56	47023.70
578.72	46909.02
578.88	47608.84
579.04	47311.59
579.21	47086.90
579.37	46995.62
579.53	47367.76
579.69	47330.31
579.85	47262.44
580.01	47739.91
580.17	47559.69
580.33	47379.46
580.49	47365.42
580.65	47255.42
580.82	47360.74
580.98	47159.45
581.14	47653.31
581.30	47449.68
581.46	47381.80
581.62	47690.76
581.78	47409.89
581.94	47222.65
582.10	47325.63
582.26	47463.72
582.42	47386.49
582.58	47573.73
582.74	47484.79
582.90	47327.97
583.06	47241.37
583.22	47585.43
583.38	47618.20
583.54	47461.38
583.70	47302.23
583.86	46979.23
584.02	47220.31
584.18	47358.40
584.34	47360.74
584.50	47178.18
584.66	47484.79
584.82	47152.43
584.98	47721.18
585.14	47487.13
585.30	47330.31
585.46	47243.71
585.62	46965.19
585.78	47246.05
585.94	46857.52
586.10	47487.13
586.26	47356.06
586.42	47475.43
586.58	47480.11
586.74	47503.51
586.90	47257.76
587.06	47414.57
587.22	47608.84
587.38	47140.73
587.54	47288.18
587.70	47320.95
587.86	47136.05
588.02	47239.03
588.18	47828.85
588.34	47276.48
588.49	47098.60
588.65	46845.82
588.81	46597.73
588.97	47103.28
589.13	46763.90
589.29	46546.23
589.45	46614.11
589.61	47239.03
589.77	47271.80
