SpectraSuite Data File
++++++++++++++++++++++++++++++++++++
Date: Fri Oct 25 10:47:49 EDT 2013
User: price-jones
Dark Spectrum Present: No
Reference Spectrum Present: No
Number of Sampled Component Spectra: 1
Spectrometers: USB2+H05261
Integration Time (usec): 100000 (USB2+H05261)
Spectra Averaged: 1 (USB2+H05261)
Boxcar Smoothing: 0 (USB2+H05261)
Correct for Electrical Dark: No (USB2+H05261)
Strobe/Lamp Enabled: No (USB2+H05261)
Correct for Detector Non-linearity: No (USB2+H05261)
Correct for Stray Light: No (USB2+H05261)
Number of Pixels in Processed Spectrum: 2048
>>>>>Begin Processed Spectral Data<<<<<
365.73	152.13
365.92	152.13
366.12	152.13
366.32	30.43
366.52	51.49
366.72	25.75
366.91	16.38
367.11	7.02
367.31	102.98
367.51	11.70
367.70	74.90
367.90	79.58
368.10	30.43
368.30	0.00
368.49	67.88
368.69	39.79
368.89	121.71
369.09	72.56
369.28	105.32
369.48	95.96
369.68	126.39
369.87	86.60
370.07	105.32
370.27	159.16
370.47	189.58
370.66	390.87
370.86	449.38
371.06	440.02
371.25	440.02
371.45	414.27
371.65	461.09
371.84	468.11
372.04	491.51
372.24	512.58
372.44	486.83
372.63	475.13
372.83	514.92
373.03	458.74
373.22	531.30
373.42	428.32
373.62	491.51
373.81	545.34
374.01	472.79
374.21	486.83
374.40	461.09
374.60	617.90
374.79	498.53
374.99	547.69
375.19	524.28
375.38	606.20
375.58	547.69
375.78	552.37
375.97	592.16
376.17	655.35
376.37	620.24
376.56	606.20
376.76	601.52
376.95	575.77
377.15	575.77
377.35	550.03
377.54	592.16
377.74	641.31
377.93	589.82
378.13	599.18
378.33	758.33
378.52	641.31
378.72	662.37
378.91	662.37
379.11	561.73
379.31	594.50
379.50	669.39
379.70	730.25
379.89	695.14
380.09	613.22
380.28	653.01
380.48	648.33
380.68	624.92
380.87	706.84
381.07	676.41
381.26	608.54
381.46	664.71
381.65	709.18
381.85	720.88
382.04	660.03
382.24	678.76
382.43	697.48
382.63	699.82
382.83	723.23
383.02	732.59
383.22	727.91
383.41	711.52
383.61	681.10
383.80	699.82
384.00	699.82
384.19	760.67
384.39	786.42
384.58	746.63
384.78	800.46
384.97	809.83
385.17	819.19
385.36	760.67
385.56	725.57
385.75	711.52
385.95	786.42
386.14	784.08
386.34	795.78
386.53	748.97
386.72	791.10
386.92	777.06
387.11	819.19
387.31	833.23
387.50	856.64
387.70	802.80
387.89	809.83
388.09	896.43
388.28	828.55
388.48	798.12
388.67	896.43
388.86	816.85
389.06	931.53
389.25	983.02
389.45	945.58
389.64	919.83
389.84	983.02
390.03	938.55
390.22	947.92
390.42	856.64
390.61	868.34
390.81	882.38
391.00	929.19
391.19	945.58
391.39	947.92
391.58	1001.75
391.78	1048.56
391.97	1011.11
392.16	905.79
392.36	957.28
392.55	1001.75
392.75	802.80
392.94	1032.18
393.13	968.98
393.33	940.90
393.52	987.71
393.71	1050.90
393.91	1116.44
394.10	1015.79
394.29	1219.42
394.49	1078.99
394.68	1097.71
394.88	1062.60
395.07	1151.54
395.26	1137.50
395.46	1174.95
395.65	1116.44
395.84	1144.52
396.04	1205.38
396.23	1196.01
396.42	1029.84
396.62	1078.99
396.81	1093.03
397.00	1144.52
397.19	1146.86
397.39	1196.01
397.58	1231.12
397.77	1235.80
397.97	1294.32
398.16	1306.02
398.35	1299.00
398.55	1299.00
398.74	1322.40
398.93	1376.24
399.12	1282.61
399.32	1331.76
399.51	1259.21
399.70	1411.34
399.90	1465.18
400.09	1439.43
400.28	1467.52
400.47	1385.60
400.67	1472.20
400.86	1364.53
401.05	1432.41
401.24	1437.09
401.44	1523.69
401.63	1523.69
401.82	1472.20
402.01	1406.66
402.21	1483.90
402.40	1556.46
402.59	1502.62
402.78	1495.60
402.97	1624.33
403.17	1626.67
403.36	1570.50
403.55	1582.20
403.74	1645.40
403.93	1565.82
404.13	1736.68
404.32	1671.14
404.51	1701.57
404.70	1830.30
404.89	1636.03
405.09	1797.53
405.28	1739.02
405.47	1664.12
405.66	1893.49
405.85	1823.28
406.05	1757.74
406.24	1839.66
406.43	1825.62
406.62	1727.32
406.81	1825.62
407.00	1825.62
407.20	1823.28
407.39	1881.79
407.58	1914.56
407.77	1916.90
407.96	1905.20
408.15	1914.56
408.34	1928.60
408.54	2012.86
408.73	1921.58
408.92	2012.86
409.11	2139.25
409.30	2043.29
409.49	2052.65
409.68	2141.59
409.87	1994.14
410.07	2069.03
410.26	2169.68
410.45	2099.46
410.64	2045.63
410.83	2169.68
411.02	2258.62
411.21	2321.81
411.40	2256.28
411.59	2249.25
411.78	2335.85
411.98	2401.39
412.17	2354.58
412.36	2347.56
412.55	2427.14
412.74	2471.61
412.93	2389.69
413.12	2438.84
413.31	2513.74
413.50	2523.10
413.69	2590.97
413.88	2558.21
414.07	2511.39
414.26	2715.02
414.45	2686.94
414.64	2548.84
414.83	2644.81
415.02	2665.87
415.22	2679.91
415.41	2752.47
415.60	2778.22
415.79	2722.04
415.98	2780.56
416.17	2799.28
416.36	2874.18
416.55	2883.54
416.74	2909.29
416.93	2759.49
417.12	2956.10
417.31	2892.90
417.50	2960.78
417.69	3105.89
417.88	3021.63
418.07	3141.00
418.26	3014.61
418.45	3084.83
418.64	3241.64
418.83	3117.59
419.02	3185.47
419.21	3187.81
419.39	3192.49
419.58	3192.49
419.77	3063.76
419.96	3243.98
420.15	3473.36
420.34	3269.73
420.53	3449.95
420.72	3358.67
420.91	3475.70
421.10	3398.46
421.29	3346.97
421.48	3471.01
421.67	3386.76
421.86	3309.52
422.05	3342.28
422.24	3487.40
422.43	3370.37
422.61	3541.23
422.80	3578.68
422.99	3517.83
423.18	3386.76
423.37	3623.15
423.56	3503.78
423.75	3463.99
423.94	3424.20
424.13	3218.24
424.32	3407.82
424.50	3574.00
424.69	3599.74
424.88	3658.26
425.07	3599.74
425.26	3351.65
425.45	3569.32
425.64	3578.68
425.83	3634.85
426.01	3597.40
426.20	3571.66
426.39	3676.98
426.58	3471.01
426.77	3599.74
426.96	3674.64
427.15	3606.77
427.33	3705.07
427.52	3574.00
427.71	3700.39
427.90	3667.62
428.09	3716.77
428.28	3740.18
428.46	3833.80
428.65	3763.58
428.84	3782.31
429.03	3927.42
429.22	3625.49
429.40	3796.35
429.59	3822.09
429.78	3662.94
429.97	3611.45
430.16	3747.20
430.34	3810.39
430.53	3922.74
430.72	3861.88
430.91	3791.67
431.10	4032.74
431.28	4028.06
431.47	4149.77
431.66	4271.48
431.85	4042.11
432.03	4079.55
432.22	4194.24
432.41	4093.60
432.60	4119.34
432.79	4196.58
432.97	4184.88
433.16	4236.37
433.35	4154.45
433.54	4222.33
433.72	4355.74
433.91	4234.03
434.10	4400.21
434.28	4327.65
434.47	4304.25
434.66	4468.08
434.85	4430.63
435.03	4461.06
435.22	4418.93
435.41	4695.11
435.59	4545.32
435.78	4676.39
435.97	4753.63
436.16	4629.58
436.34	4465.74
436.53	4585.11
436.72	4634.26
436.90	4552.34
437.09	4486.81
437.28	4486.81
437.46	4671.71
437.65	4655.33
437.84	5015.77
438.02	4746.61
438.21	4678.73
438.40	4561.70
438.58	4828.53
438.77	4851.93
438.96	4854.27
439.14	4997.04
439.33	5128.11
439.52	5174.92
439.70	5074.28
439.89	5046.20
440.08	5048.54
440.26	5006.41
440.45	5261.52
440.63	5177.26
440.82	5455.79
441.01	5224.08
441.19	5366.85
441.38	5474.51
441.57	5434.72
441.75	5488.56
441.94	5612.60
442.12	5650.05
442.31	5600.90
442.50	5617.29
442.68	5668.78
442.87	5750.70
443.05	5750.70
443.24	5813.89
443.43	5715.59
443.61	5643.03
443.80	6029.22
443.98	5537.71
444.17	5547.07
444.35	5940.28
444.54	5954.32
444.73	6104.12
444.91	5851.34
445.10	5703.89
445.28	5724.95
445.47	5746.02
445.65	5799.85
445.84	5942.62
446.02	5963.68
446.21	5935.60
446.39	5827.93
446.58	5923.90
446.77	6076.03
446.95	5933.26
447.14	5916.87
447.32	6071.35
447.51	5849.00
447.69	6127.52
447.88	6122.84
448.06	6061.99
448.25	6005.81
448.43	5991.77
448.62	5949.64
448.80	5865.38
448.99	6214.12
449.17	6237.53
449.36	6057.31
449.54	6282.00
449.73	6574.56
449.91	6443.49
450.10	6345.19
450.28	6509.03
450.46	6413.07
450.65	6520.73
450.83	6363.92
451.02	6520.73
451.20	6518.39
451.39	6347.53
451.57	6431.79
451.76	6466.90
451.94	6583.93
452.13	6380.30
452.31	6408.39
452.49	6272.64
452.68	6520.73
452.86	6553.50
453.05	6546.48
453.23	6623.72
453.42	6565.20
453.60	6595.63
453.78	6604.99
453.97	6504.35
454.15	6530.09
454.34	6609.67
454.52	6691.59
454.70	6803.94
454.89	6782.87
455.07	6888.20
455.26	6953.73
455.44	6888.20
455.62	6932.67
455.81	7131.61
455.99	7229.91
456.17	7136.29
456.36	7047.35
456.54	7133.95
456.73	7140.97
456.91	7414.82
457.09	7297.79
457.28	7227.57
457.46	7197.15
457.64	7267.36
457.83	7276.73
458.01	7246.30
458.19	7414.82
458.38	7360.98
458.56	7377.37
458.74	7433.54
458.93	7403.11
459.11	7391.41
459.29	7344.60
459.48	7517.80
459.66	7538.87
459.84	7651.21
460.03	7517.80
460.21	7576.31
460.39	7510.78
460.57	7583.34
460.76	7831.43
460.94	7768.24
461.12	7892.29
461.31	7679.30
461.49	7861.86
461.67	7948.46
461.85	8002.29
462.04	8025.70
462.22	8255.07
462.40	7918.03
462.59	8006.97
462.77	8011.65
462.95	8100.59
463.13	8091.23
463.32	8093.57
463.50	8257.41
463.68	8276.13
463.86	8091.23
464.05	8250.39
464.23	7967.18
464.41	8224.64
464.59	7978.89
464.78	8482.10
464.96	7946.12
465.14	8166.13
465.32	8376.78
465.50	8395.50
465.69	8477.42
465.87	8390.82
466.05	8446.99
466.23	8280.82
466.41	8299.54
466.60	8697.43
466.78	8301.88
466.96	8311.24
467.14	8290.18
467.32	8561.68
467.51	8458.70
467.69	8360.39
467.87	8505.51
468.05	8678.71
468.23	8491.46
468.41	8505.51
468.60	8587.43
468.78	8945.53
468.96	8571.04
469.14	8777.01
469.32	8896.38
469.50	8519.55
469.69	8697.43
469.87	8931.48
470.05	8814.46
470.23	8926.80
470.41	9013.40
470.59	9001.70
470.77	9177.24
470.95	9008.72
471.14	9100.00
471.32	9062.55
471.50	9366.82
471.68	9322.35
471.86	9430.02
472.04	9261.50
472.22	9511.94
472.40	9329.38
472.58	9500.23
472.77	9617.26
472.95	9558.75
473.13	9778.76
473.31	9554.07
473.49	9525.98
473.67	9640.67
473.85	9799.82
474.03	9919.19
474.21	10174.31
474.39	10162.61
474.57	9926.21
474.75	9853.66
474.93	10139.20
475.12	10054.94
475.30	10141.54
475.48	10445.81
475.66	10270.27
475.84	10293.68
476.02	10349.85
476.20	10272.61
476.38	10686.89
476.56	10956.05
476.74	10775.83
476.92	10700.93
477.10	10689.23
477.28	10932.64
477.46	10930.30
477.64	11159.67
477.82	11330.53
478.00	11358.62
478.18	11604.38
478.36	11382.03
478.54	11356.28
478.72	11468.62
478.90	11815.02
479.08	11875.88
479.26	12032.69
479.44	11999.93
479.62	11943.75
479.80	12147.38
479.98	12074.82
480.16	12650.60
480.34	12453.99
480.52	12535.91
480.70	12652.94
480.88	12266.75
481.06	12727.83
481.24	12648.26
481.41	13064.87
481.59	12989.97
481.77	12968.91
481.95	13050.83
482.13	13334.03
482.31	13181.90
482.49	13544.68
482.67	13540.00
482.85	13792.78
483.03	13792.78
483.21	13886.40
483.39	14267.91
483.57	14141.52
483.74	14068.96
483.92	14237.48
484.10	14295.99
484.28	14469.19
484.46	14850.70
484.64	14771.12
484.82	14335.78
485.00	14848.36
485.18	15047.30
485.35	15061.35
485.53	14600.26
485.71	14941.98
485.89	15297.74
486.07	15253.27
486.25	15562.22
486.43	15597.33
486.61	15833.72
486.78	15864.15
486.96	16065.44
487.14	16285.45
487.32	16367.37
487.50	16486.73
487.68	16458.65
487.85	16725.47
488.03	16987.61
488.21	16812.07
488.39	16975.91
488.57	17362.09
488.75	17046.12
488.92	17451.03
489.10	17788.07
489.28	17802.11
489.46	18040.85
489.64	17813.82
489.81	18258.52
489.99	18537.04
490.17	18633.00
490.35	18918.55
490.53	18551.09
490.70	18881.10
490.88	18637.69
491.06	19267.29
491.24	19054.30
491.41	18892.80
491.59	19021.53
491.77	19108.13
491.95	19550.49
492.13	19772.85
492.30	19850.08
492.48	19803.27
492.66	20018.60
492.84	19751.78
493.01	20545.22
493.19	20177.76
493.37	20409.47
493.54	20451.60
493.72	20467.98
493.90	20795.66
494.08	21020.35
494.25	20762.89
494.43	21174.83
494.61	21439.31
494.79	21488.46
494.96	21483.78
495.14	21652.30
495.32	21841.88
495.49	21820.81
495.67	22040.82
495.85	22239.77
496.02	22267.86
496.20	22291.26
496.38	22263.18
496.55	22586.17
496.73	23042.57
496.91	22642.34
497.09	22813.20
497.26	22860.01
497.44	23229.82
497.62	22827.24
497.79	23421.74
497.97	23658.14
498.14	23328.12
498.32	23431.10
498.50	23917.93
498.67	23934.32
498.85	23817.29
499.03	24187.10
499.20	24224.54
499.38	24208.16
499.56	24545.20
499.73	24694.99
499.91	24334.55
500.08	24634.14
500.26	24554.56
500.44	24643.50
500.61	24570.94
500.79	24996.92
500.97	24919.68
501.14	25532.90
501.32	25266.08
501.49	25228.63
501.67	25085.86
501.84	25411.20
502.02	25483.75
502.20	25776.32
502.37	25820.79
502.55	26157.83
502.72	25860.58
502.90	25666.31
503.07	26047.82
503.25	26197.62
503.43	26089.95
503.60	25834.83
503.78	26415.29
503.95	26232.72
504.13	26396.56
504.30	26436.35
504.48	26436.35
504.65	26735.94
504.83	26785.09
505.01	26876.37
505.18	27213.41
505.36	27145.53
505.53	27248.52
505.71	27206.39
505.88	27161.92
506.06	27030.85
506.23	27882.80
506.41	27061.27
506.58	27651.09
506.76	27761.09
506.93	27644.07
507.11	27882.80
507.28	27887.48
507.46	28009.19
507.63	28210.48
507.81	28154.30
507.98	28322.82
508.16	28231.54
508.33	28332.18
508.50	28540.49
508.68	28491.34
508.85	28591.98
509.03	28844.76
509.20	28659.86
509.38	28748.80
509.55	29053.07
509.73	29329.25
509.90	29291.80
510.08	28868.17
510.25	29282.44
510.42	29476.71
510.60	29825.45
510.77	29689.70
510.95	30092.27
511.12	29518.84
511.30	29607.78
511.47	30277.17
511.64	30199.93
511.82	30162.48
511.99	30267.81
512.17	30185.89
512.34	30038.44
512.51	30118.01
512.69	30527.61
512.86	30600.16
513.04	31007.42
513.21	30642.29
513.38	30766.34
513.56	30644.63
513.73	30441.01
513.90	30698.47
514.08	30679.74
514.25	31136.15
514.43	31007.42
514.60	31150.19
514.77	31367.86
514.95	31381.90
515.12	31536.38
515.29	31442.76
515.47	31381.90
515.64	31639.36
515.81	31349.14
515.99	31747.03
516.16	31702.56
516.33	31688.51
516.51	31594.89
516.68	31679.15
516.85	31515.31
517.03	31606.59
517.20	31850.01
517.37	32165.98
517.54	31943.63
517.72	31978.74
517.89	32079.38
518.06	32313.44
518.24	31826.60
518.41	32252.58
518.58	32496.00
518.75	32844.74
518.93	32472.59
519.10	32903.25
519.27	33046.02
519.45	32760.48
519.62	33219.22
519.79	33333.91
519.96	33474.34
520.14	33144.33
520.31	33340.93
520.48	33593.71
520.65	33223.90
520.83	34162.46
521.00	33713.08
521.17	33383.06
521.34	33390.08
521.52	33853.51
521.69	33755.21
521.86	34106.29
522.03	34251.40
522.20	34117.99
522.38	34396.51
522.55	34405.88
522.72	34513.54
522.89	34396.51
523.07	34593.12
523.24	34314.59
523.41	34625.89
523.58	34251.40
523.75	34497.16
523.92	34623.54
524.10	34485.45
524.27	34988.67
524.44	35344.43
524.61	35089.31
524.78	35447.41
524.96	35461.46
525.13	35543.38
525.30	35356.13
525.47	35786.79
525.64	35515.29
525.81	35667.42
525.98	35569.12
526.16	35323.36
526.33	35227.40
526.50	35679.13
526.67	35395.92
526.84	35770.41
527.01	35353.79
527.18	35658.06
527.36	35786.79
527.53	35840.62
527.70	36275.96
527.87	36367.24
528.04	36336.82
528.21	36425.76
528.38	36196.38
528.55	36224.47
528.72	36184.68
528.89	36769.82
529.07	36444.48
529.24	36339.16
529.41	36631.72
529.58	36451.50
529.75	36428.10
529.92	36823.65
530.09	36840.03
530.26	36973.44
530.43	37191.11
530.60	36751.09
530.77	36762.79
530.94	37502.40
531.11	37132.60
531.28	37340.91
531.46	37338.57
531.63	37148.98
531.80	37450.91
531.97	37118.56
532.14	37528.15
532.31	36891.52
532.48	37383.04
532.65	37422.83
532.82	37523.47
532.99	37846.46
533.16	37399.42
533.33	37233.24
533.50	38061.79
533.67	38162.43
533.84	37970.51
534.01	38010.30
534.18	37668.58
534.35	38401.17
534.52	37867.53
534.69	38394.15
534.86	38433.94
535.03	38419.89
535.20	38394.15
535.37	38363.72
535.54	38672.67
535.71	38000.94
535.88	38724.16
536.05	38567.35
536.22	38710.12
536.38	38864.60
536.55	38593.09
536.72	38445.64
536.89	38094.56
537.06	38284.14
537.23	38953.54
537.40	38651.61
537.57	38974.60
537.74	38813.10
537.91	39452.07
538.08	39161.84
538.25	38920.77
538.42	39152.48
538.59	39349.09
538.75	38944.17
538.92	39484.84
539.09	40095.72
539.26	39295.25
539.43	38988.64
539.60	39461.43
539.77	39297.59
539.94	39269.51
540.11	39332.70
540.28	39210.99
540.44	39491.86
540.61	39318.66
540.78	39643.99
540.95	39428.66
541.12	39725.91
541.29	39697.83
541.46	39459.09
541.62	40100.40
541.79	39667.40
541.96	39449.73
542.13	39887.41
542.30	40285.30
542.47	39658.04
542.63	40084.01
542.80	40402.33
542.97	40549.78
543.14	40739.36
543.31	40505.31
543.48	40634.04
543.64	41261.30
543.81	40804.90
543.98	40257.21
544.15	40505.31
544.32	41076.40
544.48	41277.69
544.65	40683.19
544.82	41038.95
544.99	40236.15
545.16	40753.41
545.32	40968.74
545.49	41303.43
545.66	41249.60
545.83	40975.76
546.00	41514.08
546.16	41258.96
546.33	40793.20
546.50	40980.44
546.67	40973.42
546.83	40982.78
547.00	41031.93
547.17	41317.48
547.34	41015.55
547.50	41076.40
547.67	41315.14
547.84	41429.82
548.00	42057.09
548.17	41954.10
548.34	41422.80
548.51	42066.45
548.67	41593.66
548.84	41682.60
549.01	41853.46
549.18	41998.57
549.34	41783.24
549.51	42043.04
549.68	41872.18
549.84	41635.79
550.01	41872.18
550.18	41874.52
550.34	42007.94
550.51	42314.55
550.68	41909.63
550.84	41530.47
551.01	42244.33
551.18	42363.70
551.34	42281.78
551.51	41799.63
551.68	42010.28
551.84	42333.27
552.01	41832.39
552.18	42469.02
552.34	41972.83
552.51	42490.09
552.68	42618.81
552.84	42307.52
553.01	42728.82
553.18	42263.05
553.34	42375.40
553.51	42410.51
553.67	42330.93
553.84	42817.76
554.01	42927.77
554.17	43030.75
554.34	42665.63
554.51	43182.88
554.67	42787.33
554.84	43192.25
555.00	42550.94
555.17	43192.25
555.33	42780.31
555.50	43079.90
555.67	43393.53
555.83	42862.23
556.00	42993.30
556.16	43456.73
556.33	43199.27
556.50	43257.78
556.66	42892.66
556.83	42962.87
556.99	43351.40
557.16	43349.06
557.32	43721.21
557.49	43419.28
557.65	43075.22
557.82	42710.10
557.98	43232.04
558.15	43393.53
558.32	43555.03
558.48	43292.89
558.65	43428.64
558.81	42937.13
558.98	43100.97
559.14	43608.86
559.31	43414.60
559.47	43758.66
559.64	43147.78
559.80	43739.93
559.97	43456.73
560.13	43367.79
560.30	43365.45
560.46	43913.13
560.63	43405.23
560.79	43220.33
560.96	43739.93
561.12	43878.02
561.29	44182.29
561.45	43496.52
561.61	43309.27
561.78	43658.01
561.94	43409.92
562.11	43599.50
562.27	43653.33
562.44	43569.07
562.60	43908.45
562.77	44116.76
562.93	43487.15
563.10	44123.78
563.26	44093.35
563.42	43964.62
563.59	43653.33
563.75	43777.38
563.92	44287.62
564.08	43391.19
564.24	43964.62
564.41	44280.60
564.57	44428.05
564.74	43753.97
564.90	44189.31
565.07	44332.09
565.23	44325.07
565.39	43981.01
565.56	43988.03
565.72	43835.89
565.88	44058.24
566.05	44137.82
566.21	44186.97
566.38	43945.90
566.54	44020.80
566.70	44451.45
566.87	44556.78
567.03	44402.30
567.19	44488.90
567.36	44296.98
567.52	44285.28
567.68	44561.46
567.85	44474.86
568.01	44236.12
568.17	44278.25
568.34	44205.70
568.50	43995.05
568.66	44287.62
568.83	44648.06
568.99	44245.49
569.15	44149.53
569.32	44360.17
569.48	44196.34
569.64	44584.86
569.81	44772.11
569.97	44194.00
570.13	44343.79
570.30	44285.28
570.46	44268.89
570.62	43765.68
570.78	43889.73
570.95	44355.49
571.11	44416.35
571.27	44350.81
571.43	44261.87
571.60	44552.10
571.76	44381.24
571.92	44018.46
572.09	44933.60
572.25	44561.46
572.41	44275.91
572.57	44582.52
572.74	44989.78
572.90	44495.92
573.06	44903.18
573.22	44495.92
573.38	44493.58
573.55	44341.45
573.71	44910.20
573.87	44147.18
574.03	44341.45
574.20	44245.49
574.36	44025.48
574.52	44655.08
574.68	44584.86
574.84	44533.37
575.01	44652.74
575.17	44156.55
575.33	44360.17
575.49	44505.29
575.65	44989.78
575.82	44933.60
575.98	44870.41
576.14	44919.56
576.30	44439.75
576.46	44594.23
576.62	44392.94
576.79	44275.91
576.95	44589.55
577.11	44388.26
577.27	44872.75
577.43	44687.85
577.59	44526.35
577.75	44601.25
577.92	44498.26
578.08	44091.01
578.24	44554.44
578.40	44376.56
578.56	44540.39
578.72	44706.57
578.88	45132.55
579.04	44575.50
579.21	44011.43
579.37	44444.43
579.53	44179.95
579.69	44395.28
579.85	44629.34
580.01	44535.71
580.17	44795.51
580.33	45146.59
580.49	44861.05
580.65	44758.06
580.82	44952.33
580.98	45085.74
581.14	44575.50
581.30	44573.16
581.46	44472.52
581.62	44601.25
581.78	44701.89
581.94	45146.59
582.10	44793.17
582.26	44814.24
582.42	44966.37
582.58	45118.51
582.74	44786.15
582.90	44587.21
583.06	44706.57
583.22	44835.30
583.38	45282.34
583.54	44605.93
583.70	45041.27
583.86	44924.24
584.02	44514.65
584.18	44760.40
584.34	44631.68
584.50	44961.69
584.66	44634.02
584.82	44540.39
584.98	44713.59
585.14	45034.25
585.30	44634.02
585.46	44645.72
585.62	44601.25
585.78	44470.18
585.94	44732.32
586.10	44467.84
586.26	44722.96
586.42	45034.25
586.58	44868.07
586.74	44772.11
586.90	44968.71
587.06	44552.10
587.22	44575.50
587.38	44498.26
587.54	44891.48
587.70	44861.05
587.86	45024.89
588.02	45027.23
588.18	44875.09
588.34	45055.31
588.49	44744.02
588.65	44304.00
588.81	44374.22
588.97	44474.86
589.13	44839.98
589.29	44921.90
589.45	44701.89
589.61	45144.25
589.77	44687.85
589.93	44978.07
590.08	45474.27
590.24	44994.46
