SpectraSuite Data File
++++++++++++++++++++++++++++++++++++
Date: Fri Oct 25 11:25:27 EDT 2013
User: price-jones
Dark Spectrum Present: No
Reference Spectrum Present: No
Number of Sampled Component Spectra: 1
Spectrometers: USB2+H05261
Integration Time (usec): 100000 (USB2+H05261)
Spectra Averaged: 1 (USB2+H05261)
Boxcar Smoothing: 0 (USB2+H05261)
Correct for Electrical Dark: No (USB2+H05261)
Strobe/Lamp Enabled: No (USB2+H05261)
Correct for Detector Non-linearity: No (USB2+H05261)
Correct for Stray Light: No (USB2+H05261)
Number of Pixels in Processed Spectrum: 2048
>>>>>Begin Processed Spectral Data<<<<<
365.73	266.82
365.92	266.82
366.12	266.82
366.32	145.11
366.52	119.37
366.72	126.39
366.91	133.41
367.11	149.79
367.31	91.28
367.51	177.88
367.70	161.50
367.90	126.39
368.10	124.05
368.30	173.20
368.49	142.77
368.69	231.71
368.89	198.95
369.09	126.39
369.28	142.77
369.48	170.86
369.68	182.56
369.87	175.54
370.07	191.92
370.27	212.99
370.47	337.04
370.66	596.84
370.86	627.26
371.06	669.39
371.25	664.71
371.45	657.69
371.65	648.33
371.84	580.45
372.04	685.78
372.24	737.27
372.44	711.52
372.63	763.01
372.83	763.01
373.03	739.61
373.22	683.44
373.42	802.80
373.62	781.74
373.81	748.97
374.01	753.65
374.21	798.12
374.40	807.48
374.60	791.10
374.79	847.27
374.99	861.32
375.19	814.51
375.38	912.81
375.58	847.27
375.78	840.25
375.97	866.00
376.17	903.45
376.37	849.61
376.56	814.51
376.76	858.98
376.95	849.61
377.15	964.30
377.35	908.13
377.54	889.40
377.74	880.04
377.93	891.74
378.13	990.05
378.33	866.00
378.52	912.81
378.72	1022.81
378.91	908.13
379.11	929.19
379.31	915.15
379.50	985.37
379.70	929.19
379.89	978.34
380.09	1093.03
380.28	1057.92
380.48	924.51
380.68	997.07
380.87	931.53
381.07	992.39
381.26	1029.84
381.46	1029.84
381.65	1104.73
381.85	1053.24
382.04	1022.81
382.24	976.00
382.43	1090.69
382.63	1064.94
382.83	1027.50
383.02	1107.07
383.22	1118.78
383.41	999.41
383.61	1043.88
383.80	1137.50
384.00	1165.59
384.19	1090.69
384.39	1146.86
384.58	1174.95
384.78	1174.95
384.97	1114.10
385.17	1144.52
385.36	1118.78
385.56	1137.50
385.75	1167.93
385.95	1144.52
386.14	1156.22
386.34	1123.46
386.53	1163.25
386.72	1207.72
386.92	1280.27
387.11	1226.44
387.31	1294.32
387.50	1266.23
387.70	1235.80
387.89	1238.14
388.09	1247.51
388.28	1245.16
388.48	1334.11
388.67	1324.74
388.86	1348.15
389.06	1357.51
389.25	1289.64
389.45	1362.19
389.64	1287.29
389.84	1376.24
390.03	1392.62
390.22	1418.36
390.42	1418.36
390.61	1308.36
390.81	1364.53
391.00	1411.34
391.19	1413.68
391.39	1394.96
391.58	1373.89
391.78	1441.77
391.97	1434.75
392.16	1448.79
392.36	1523.69
392.55	1476.88
392.75	1507.30
392.94	1519.01
393.13	1514.33
393.33	1465.18
393.52	1511.99
393.71	1657.10
393.91	1664.12
394.10	1490.92
394.29	1586.88
394.49	1614.97
394.68	1657.10
394.88	1598.59
395.07	1689.87
395.26	1668.80
395.46	1626.67
395.65	1727.32
395.84	1769.44
396.04	1788.17
396.23	1699.23
396.42	1678.16
396.62	1687.53
396.81	1860.73
397.00	1790.51
397.19	1755.40
397.39	1771.79
397.58	1687.53
397.77	1802.21
397.97	1816.26
398.16	1858.39
398.35	1933.28
398.55	1860.73
398.74	1844.34
398.93	1933.28
399.12	1909.88
399.32	1905.20
399.51	1900.52
399.70	1989.46
399.90	1998.82
400.09	2026.90
400.28	2092.44
400.47	2099.46
400.67	2111.16
400.86	2071.37
401.05	1987.11
401.24	2054.99
401.44	2104.14
401.63	2200.10
401.82	2165.00
402.01	2160.31
402.21	2216.49
402.40	2204.78
402.59	2125.21
402.78	2106.48
402.97	2069.03
403.17	2195.42
403.36	2319.47
403.55	2284.36
403.74	2321.81
403.93	2377.98
404.13	2356.92
404.32	2284.36
404.51	2422.45
404.70	2324.15
404.89	2354.58
405.09	2443.52
405.28	2406.07
405.47	2476.29
405.66	2511.39
405.85	2408.41
406.05	2516.08
406.24	2586.29
406.43	2569.91
406.62	2553.52
406.81	2605.02
407.00	2527.78
407.20	2600.34
407.39	2677.57
407.58	2729.06
407.77	2775.88
407.96	2682.25
408.15	2738.43
408.34	2766.51
408.54	2726.72
408.73	2789.92
408.92	2874.18
409.11	2834.39
409.30	2902.26
409.49	2909.29
409.68	2916.31
409.87	2813.32
410.07	2918.65
410.26	2998.23
410.45	2953.76
410.64	3040.36
410.83	3033.33
411.02	3091.85
411.21	3204.19
411.40	3206.53
411.59	3173.77
411.78	3145.68
411.98	3199.51
412.17	3105.89
412.36	3227.60
412.55	3283.77
412.74	3290.79
412.93	3459.31
413.12	3344.63
413.31	3494.42
413.50	3403.14
413.69	3459.31
413.88	3496.76
414.07	3681.66
414.26	3648.90
414.45	3590.38
414.64	3602.08
414.83	3765.92
415.02	3712.09
415.22	3726.13
415.41	3726.13
415.60	3831.46
415.79	3864.22
415.98	3922.74
416.17	4021.04
416.36	4072.53
416.55	3962.53
416.74	4222.33
416.93	4135.73
417.12	4117.00
417.31	4035.08
417.50	4100.62
417.69	4198.92
417.88	4140.41
418.07	4205.94
418.26	4248.07
418.45	4425.95
418.64	4587.45
418.83	4428.29
419.02	4388.50
419.21	4449.36
419.39	4528.94
419.58	4617.88
419.77	4404.89
419.96	4540.64
420.15	4571.07
420.34	4486.81
420.53	4671.71
420.72	4559.36
420.91	4720.86
421.10	4629.58
421.29	4716.18
421.48	4652.98
421.67	4723.20
421.86	4720.86
422.05	4695.11
422.24	4674.05
422.43	5039.17
422.61	4851.93
422.80	4847.25
422.99	4882.36
423.18	4788.74
423.37	4987.68
423.56	4847.25
423.75	4835.55
423.94	4849.59
424.13	4470.42
424.32	4744.27
424.50	4961.94
424.69	5025.13
424.88	5139.82
425.07	4891.72
425.26	4929.17
425.45	4940.87
425.64	5013.43
425.83	4868.31
426.01	5029.81
426.20	5046.20
426.39	4980.66
426.58	4945.55
426.77	5015.77
426.96	5057.90
427.15	5109.39
427.33	5090.67
427.52	5107.05
427.71	5186.63
427.90	5130.45
428.09	5135.14
428.28	5308.34
428.46	5418.34
428.65	5259.18
428.84	5504.94
429.03	5460.47
429.22	5228.76
429.40	5460.47
429.59	5338.76
429.78	5320.04
429.97	5186.63
430.16	5502.60
430.34	5502.60
430.53	5490.90
430.72	5687.50
430.91	5472.17
431.10	5708.57
431.28	5724.95
431.47	5720.27
431.66	5673.46
431.85	5636.01
432.03	5849.00
432.22	5916.87
432.41	5987.09
432.60	5792.83
432.79	5865.38
432.97	5849.00
433.16	5984.75
433.35	5888.79
433.54	5923.90
433.72	6106.46
433.91	6127.52
434.10	5970.71
434.28	5884.11
434.47	6036.24
434.66	6188.38
434.85	6246.89
435.03	6282.00
435.22	6146.25
435.41	6420.09
435.59	6274.98
435.78	6263.27
435.97	6305.40
436.16	6183.70
436.34	6415.41
436.53	6539.46
436.72	6600.31
436.90	6331.15
437.09	6387.32
437.28	6429.45
437.46	6574.56
437.65	6520.73
437.84	6628.40
438.02	6658.82
438.21	6815.64
438.40	6656.48
438.58	6911.60
438.77	6836.70
438.96	6995.86
439.14	7122.25
439.33	7068.42
439.52	7148.00
439.70	6939.69
439.89	7272.04
440.08	7304.81
440.26	7283.75
440.45	7133.95
440.63	7346.94
440.82	7719.09
441.01	7438.22
441.19	7637.17
441.38	7522.48
441.57	7709.72
441.75	7978.89
441.94	7784.62
442.12	7705.04
442.31	7918.03
442.50	8004.63
442.68	7801.01
442.87	7971.86
443.05	7901.65
443.24	8116.98
443.43	8131.02
443.61	8072.51
443.80	8351.03
443.98	8006.97
444.17	7758.88
444.35	8140.38
444.54	8322.94
444.73	8182.51
444.91	8112.30
445.10	8351.03
445.28	8201.24
445.47	8114.64
445.65	8294.86
445.84	8533.59
446.02	8271.45
446.21	8348.69
446.39	8341.67
446.58	8344.01
446.77	8414.23
446.95	8245.71
447.14	8205.92
447.32	8393.16
447.51	8542.96
447.69	8355.71
447.88	8528.91
448.06	8482.10
448.25	8484.44
448.43	8578.06
448.62	8306.56
448.80	8421.25
448.99	8587.43
449.17	8603.81
449.36	8514.87
449.54	8798.07
449.73	8788.71
449.91	8870.63
450.10	8945.53
450.28	8882.33
450.46	8936.17
450.65	8973.61
450.83	9055.53
451.02	8980.64
451.20	9296.61
451.39	9055.53
451.57	9111.71
451.76	8875.31
451.94	9025.11
452.13	9144.47
452.31	9132.77
452.49	9224.05
452.68	9139.79
452.86	9266.18
453.05	9301.29
453.23	9355.12
453.42	9376.19
453.60	9212.35
453.78	9383.21
453.97	9392.57
454.15	9413.63
454.34	9401.93
454.52	9603.22
454.70	9699.18
454.89	9504.92
455.07	9568.11
455.26	9804.50
455.44	9921.53
455.62	9968.34
455.81	9848.97
455.99	9666.41
456.17	9919.19
456.36	9879.40
456.54	10303.04
456.73	10153.24
456.91	10422.41
457.09	10384.96
457.28	10436.45
457.46	10303.04
457.64	10310.06
457.83	10370.91
458.01	10314.74
458.19	10539.43
458.38	10431.77
458.56	10476.24
458.74	10609.65
458.93	10530.07
459.11	10572.20
459.29	10635.39
459.48	10778.17
459.66	10733.70
459.84	10890.51
460.03	10904.56
460.21	10930.30
460.39	10874.13
460.57	10806.25
460.76	10839.02
460.94	11094.14
461.12	11040.31
461.31	10897.53
461.49	10883.49
461.67	11000.52
461.85	11485.01
462.04	11194.78
462.22	11639.48
462.40	11597.35
462.59	11447.56
462.77	11267.34
462.95	11485.01
463.13	11531.82
463.32	11648.85
463.50	11754.17
463.68	11576.29
463.86	11714.38
464.05	11454.58
464.23	11545.86
464.41	11726.08
464.59	11529.48
464.78	12009.29
464.96	11913.33
465.14	11786.94
465.32	12051.42
465.50	11976.52
465.69	12250.36
465.87	11932.05
466.05	11822.05
466.23	12016.31
466.41	12170.79
466.60	12367.39
466.78	11903.96
466.96	12189.51
467.14	12138.02
467.32	12194.19
467.51	12561.66
467.69	11927.37
467.87	12355.69
468.05	12315.90
468.23	12182.49
468.41	12568.68
468.60	12606.13
468.78	12596.76
468.96	12451.65
469.14	12643.57
469.32	12940.82
469.50	12383.77
469.69	12765.28
469.87	13018.06
470.05	13130.41
470.23	12901.03
470.41	13029.76
470.59	13004.02
470.77	12952.52
470.95	13085.94
471.14	13493.19
471.32	12784.01
471.50	13703.84
471.68	13324.67
471.86	13532.98
472.04	13741.29
472.22	14099.39
472.40	13713.20
472.58	13607.87
472.77	13832.57
472.95	14054.92
473.13	14588.56
473.31	14094.71
473.49	14054.92
473.67	13937.89
473.85	14157.90
474.03	14576.86
474.21	14251.52
474.39	14782.82
474.57	14595.58
474.75	14668.14
474.93	14862.40
475.12	14902.19
475.30	15033.26
475.48	14991.13
475.66	14918.57
475.84	15178.37
476.02	15332.85
476.20	15316.47
476.38	15618.39
476.56	15932.03
476.74	15667.55
476.92	15791.59
477.10	15697.97
477.28	15812.66
477.46	16084.16
477.64	16219.91
477.82	16439.92
478.00	16954.84
478.18	16517.16
478.36	16645.89
478.54	17001.65
478.72	16975.91
478.90	17046.12
479.08	17373.80
479.26	17547.00
479.44	17394.86
479.62	17701.47
479.80	17827.86
479.98	17947.23
480.16	18586.19
480.34	17965.95
480.52	18293.63
480.70	18647.05
480.88	18277.24
481.06	18487.89
481.24	18707.90
481.41	18810.89
481.59	19129.20
481.77	19428.79
481.95	19438.15
482.13	19349.21
482.31	19241.54
482.49	19833.70
482.67	19899.23
482.85	20269.04
483.03	20348.62
483.21	20451.60
483.39	20608.42
483.57	20762.89
483.74	20886.94
483.92	20751.19
484.10	20910.35
484.28	21329.30
484.46	21785.71
484.64	22036.14
484.82	21757.62
485.00	21956.57
485.18	22637.66
485.35	22621.28
485.53	22628.30
485.71	22803.84
485.89	23201.73
486.07	23108.11
486.25	23218.11
486.43	23274.29
486.61	23587.92
486.78	23803.25
486.96	23889.85
487.14	24449.24
487.32	24381.36
487.50	24779.25
487.68	24975.86
487.85	24875.21
488.03	25392.47
488.21	25895.69
488.39	25450.99
488.57	25699.08
488.75	26003.35
488.92	25876.96
489.10	26733.60
489.28	26431.67
489.46	26946.59
489.64	26881.05
489.81	27463.85
489.99	27054.25
490.17	27676.83
490.35	27866.42
490.53	27906.21
490.70	28240.90
490.88	28343.89
491.06	28811.99
491.24	28252.61
491.41	28856.46
491.59	29235.63
491.77	28842.42
491.95	29153.71
492.13	29315.21
492.30	29544.58
492.48	29694.38
492.66	29935.45
492.84	30293.55
493.01	30253.76
493.19	30408.24
493.37	30838.90
493.54	30864.64
493.72	31393.61
493.90	31510.63
494.08	31124.44
494.25	31480.21
494.43	31758.73
494.61	32208.11
494.79	32285.35
494.96	32112.15
495.14	32554.51
495.32	32884.53
495.49	33031.98
495.67	32421.10
495.85	33380.72
496.02	33717.76
496.20	33947.13
496.38	33811.38
496.55	33701.37
496.73	34417.58
496.91	33921.38
497.09	34405.88
497.26	34618.86
497.44	34410.56
497.62	35187.61
497.79	35772.75
497.97	34955.90
498.14	35810.20
498.32	36360.22
498.50	35854.67
498.67	36135.53
498.85	36128.51
499.03	36584.91
499.20	36486.61
499.38	36308.73
499.56	37240.26
499.73	36830.67
499.91	36828.33
500.08	37289.42
500.26	36954.72
500.44	37347.93
500.61	37958.81
500.79	37460.27
500.97	37830.08
501.14	38433.94
501.32	38609.48
501.49	38078.18
501.67	38314.57
501.84	39110.35
502.02	38120.31
502.20	38873.96
502.37	39168.87
502.55	38768.63
502.72	38778.00
502.90	39328.02
503.07	39374.83
503.25	39480.16
503.43	39543.35
503.60	39281.21
503.78	39929.54
503.95	40158.91
504.13	40006.78
504.30	40322.75
504.48	40266.58
504.65	40631.70
504.83	40570.85
505.01	40964.06
505.18	40987.46
505.36	41474.29
505.53	41155.98
505.71	41310.46
505.88	41123.21
506.06	41364.29
506.23	41366.63
506.41	41336.20
506.58	41818.35
506.76	41663.88
506.93	42057.09
507.11	41886.23
507.28	42122.62
507.46	42447.96
507.63	42368.38
507.81	42733.50
507.98	42773.29
508.16	42314.55
508.33	43143.09
508.50	43571.41
508.68	43206.29
508.85	43578.43
509.03	43440.34
509.20	43569.07
509.38	43782.06
509.55	43756.32
509.73	44184.63
509.90	44046.54
510.08	43859.30
510.25	44626.99
510.42	44669.12
510.60	44465.50
510.77	44552.10
510.95	45034.25
511.12	44758.06
511.30	45109.14
511.47	44898.50
511.64	44905.52
511.82	45631.08
511.99	45221.49
512.17	45766.84
512.34	45633.42
512.51	46040.68
512.69	45965.78
512.86	45670.87
513.04	46436.23
513.21	46155.36
513.38	46213.88
513.56	46337.93
513.73	46543.89
513.90	46848.16
514.08	46408.14
514.25	46820.08
514.43	46906.68
514.60	46658.58
514.77	46890.29
514.95	47519.90
515.12	47278.82
515.29	47044.77
515.47	47068.17
515.64	47634.58
515.81	47601.82
515.99	48079.28
516.16	48137.80
516.33	47744.59
516.51	48137.80
516.68	47966.94
516.85	48266.53
517.03	48542.71
517.20	48591.86
517.37	48254.82
517.54	48552.07
517.72	48318.02
517.89	48662.08
518.06	48844.64
518.24	49022.52
518.41	48617.61
518.58	48863.36
518.75	48889.11
518.93	49097.42
519.10	49244.87
519.27	49532.76
519.45	49471.90
519.62	49464.88
519.79	49696.59
519.96	49780.85
520.14	49771.49
520.31	49771.49
520.48	50064.06
520.65	49963.42
520.83	50300.45
521.00	50410.46
521.17	50281.73
521.34	50052.36
521.52	50387.05
521.69	50384.71
521.86	50714.73
522.03	51023.68
522.20	51054.11
522.38	51222.62
522.55	51241.35
522.72	51243.69
522.89	50782.60
523.07	51576.04
523.24	51363.06
523.41	51812.44
523.58	51260.07
523.75	51634.56
523.92	51501.15
524.10	51821.80
524.27	51583.07
524.44	51681.37
524.61	51980.96
524.78	51700.09
524.96	51952.87
525.13	51945.85
525.30	52240.76
525.47	52350.76
525.64	52308.63
525.81	52261.82
525.98	52357.78
526.16	52561.41
526.33	52355.44
526.50	52538.01
526.67	52624.60
526.84	52638.65
527.01	52589.50
527.18	52687.80
527.36	52629.29
527.53	52910.15
527.70	53434.43
527.87	53155.91
528.04	52823.55
528.21	53242.51
528.38	53085.69
528.55	53401.66
528.72	52982.71
528.89	53090.37
529.07	53167.61
529.24	52844.62
529.41	53474.22
529.58	53614.65
529.75	53146.54
529.92	53546.78
530.09	53579.54
530.26	53631.04
530.43	53989.14
530.60	53286.98
530.77	53609.97
530.94	53638.06
531.11	53792.53
531.28	54028.93
531.46	54005.52
531.63	54078.08
531.80	54108.50
531.97	54052.33
532.14	54164.68
532.31	54073.40
532.48	54101.48
532.65	54188.08
532.82	54064.03
532.99	54546.18
533.16	54190.42
533.33	54513.42
533.50	54546.18
533.67	54719.38
533.84	54728.75
534.01	54564.91
534.18	54525.12
534.35	55028.34
534.52	54915.99
534.69	54894.92
534.86	55121.96
535.03	54773.22
535.20	54972.16
535.37	54948.76
535.54	55370.05
535.71	54906.63
535.88	55002.59
536.05	55253.03
536.22	55402.82
536.38	55269.41
536.55	55267.07
536.72	55393.46
536.89	55007.27
537.06	55299.84
537.23	55501.12
537.40	55426.23
537.57	55173.45
537.74	55372.39
537.91	55983.27
538.08	55910.72
538.25	55505.80
538.42	55693.05
538.59	55936.46
538.75	55627.51
538.92	55590.06
539.09	55969.23
539.26	55789.01
539.43	55922.42
539.60	55969.23
539.77	56090.94
539.94	56109.66
540.11	56107.32
540.28	56184.56
540.44	56041.79
540.61	56205.62
540.78	56301.59
540.95	56278.18
541.12	56240.73
541.29	56273.50
541.46	56439.68
541.62	56580.11
541.79	56498.19
541.96	55964.55
542.13	56339.04
542.30	56369.46
542.47	56617.56
542.63	56577.77
542.80	56587.13
542.97	56825.87
543.14	56928.85
543.31	56818.84
543.48	56924.17
543.64	57289.29
543.81	57083.33
543.98	57041.20
544.15	56973.32
544.32	57169.93
544.48	57439.09
544.65	57212.06
544.82	57378.23
544.99	56940.55
545.16	57347.81
545.32	57111.41
545.49	57382.91
545.66	57729.31
545.83	57329.08
546.00	57556.11
546.16	57425.04
546.33	57516.32
546.50	57277.59
546.67	57516.32
546.83	57322.06
547.00	57572.50
547.17	57579.52
547.34	57476.54
547.50	57764.42
547.67	57935.28
547.84	57581.86
548.00	57904.85
548.17	57895.49
548.34	57801.87
548.51	58000.82
548.67	57769.10
548.84	57853.36
549.01	57853.36
549.18	57771.44
549.34	58148.27
549.51	58059.33
549.68	58169.33
549.84	58120.18
550.01	58279.34
550.18	58108.48
550.34	58035.92
550.51	58281.68
550.68	58298.06
550.84	58047.63
551.01	58307.43
551.18	58433.81
551.34	58218.49
551.51	58288.70
551.68	58347.21
551.84	58422.11
552.01	58192.74
552.18	58356.58
552.34	58192.74
552.51	58408.07
552.68	58391.68
552.84	58403.39
553.01	58717.02
553.18	58688.93
553.34	58660.85
553.51	58459.56
553.67	58702.98
553.84	58768.51
554.01	58728.72
554.17	58473.60
554.34	58698.30
554.51	58576.59
554.67	58759.15
554.84	58731.06
555.00	58904.26
555.17	58887.88
555.33	58897.24
555.50	58623.40
555.67	58801.28
555.83	58817.66
556.00	59000.22
556.16	59065.76
556.33	58857.45
556.50	59009.59
556.66	59100.87
556.83	58972.14
556.99	59061.08
557.16	59402.80
557.32	59255.34
557.49	59416.84
557.65	59182.79
557.82	59227.26
557.98	59288.11
558.15	59215.55
558.32	59348.96
558.48	59304.49
558.65	59262.36
558.81	59461.31
558.98	59428.54
559.14	59318.54
559.31	59419.18
559.47	59442.59
559.64	59444.93
559.80	59540.89
559.97	59634.51
560.13	59468.33
560.30	59627.49
560.46	59381.73
560.63	59618.13
560.79	59473.01
560.96	59765.58
561.12	59704.73
561.29	59690.68
561.45	59798.35
561.61	59306.83
561.78	59568.97
561.94	59667.28
562.11	59634.51
562.27	59807.71
562.44	59913.03
562.60	59819.41
562.77	59803.03
562.93	59505.78
563.10	60055.81
563.26	59728.13
563.42	59884.95
563.59	59952.82
563.75	59744.51
563.92	59927.08
564.08	59667.28
564.24	59943.46
564.41	59903.67
564.57	59971.55
564.74	59742.17
564.90	59952.82
565.07	60137.72
565.23	59891.97
565.39	60034.74
565.56	60025.38
565.72	59976.23
565.88	60123.68
566.05	59643.87
566.21	60100.28
566.38	60065.17
566.54	60053.47
566.70	60219.64
566.87	60203.26
567.03	60039.42
567.19	60446.68
567.36	60158.79
567.52	59966.87
567.68	60367.10
567.85	60018.36
568.01	60257.09
568.17	60163.47
568.34	60285.18
568.50	59945.80
568.66	60257.09
568.83	60219.64
568.99	60126.02
569.15	60236.03
569.32	60301.56
569.48	60191.56
569.64	60458.38
569.81	60196.24
569.97	59983.25
570.13	60310.92
570.30	60308.58
570.46	60369.44
570.62	60243.05
570.78	60163.47
570.95	60135.38
571.11	60406.89
571.27	60399.86
571.43	60170.49
571.60	60385.82
571.76	60306.24
571.92	60301.56
572.09	60392.84
572.25	60261.77
572.41	60240.71
572.57	60355.39
572.74	60605.83
572.90	60271.14
573.06	60191.56
573.22	60240.71
573.38	60610.51
573.55	60465.40
573.71	60601.15
573.87	60495.83
574.03	60336.67
574.20	60502.85
574.36	60336.67
574.52	60495.83
574.68	60495.83
574.84	60413.91
575.01	60486.46
575.17	60577.75
575.33	60526.25
575.49	60512.21
575.65	60643.28
575.82	60495.83
575.98	60519.23
576.14	60884.36
576.30	60830.52
576.46	60640.94
576.62	60458.38
576.79	60381.14
576.95	60456.04
577.11	60498.17
577.27	60577.75
577.43	60643.28
577.59	60526.25
577.75	60554.34
577.92	60526.25
578.08	60514.55
578.24	60631.58
578.40	60699.45
578.56	60697.11
578.72	60638.60
578.88	60718.18
579.04	60783.71
579.21	60566.04
579.37	60846.91
579.53	60753.29
579.69	60474.76
579.85	60615.19
580.01	60673.71
580.17	60582.43
580.33	60650.30
580.49	60598.81
580.65	60757.97
580.82	60547.32
580.98	60500.51
581.14	60647.96
581.30	60802.44
581.46	60706.47
581.62	60893.72
581.78	60598.81
581.94	60640.94
582.10	60743.92
582.26	60711.16
582.42	60654.98
582.58	60734.56
582.74	60814.14
582.90	60537.96
583.06	60669.03
583.22	60491.15
583.38	60549.66
583.54	60666.69
583.70	61034.15
583.86	60914.78
584.02	60582.43
584.18	60898.40
584.34	60879.67
584.50	60669.03
584.66	60802.44
584.82	60612.85
584.98	60718.18
585.14	60924.14
585.30	60776.69
585.46	60874.99
585.62	60706.47
585.78	60790.73
585.94	60697.11
586.10	60734.56
586.26	60767.33
586.42	60711.16
586.58	60804.78
586.74	60783.71
586.90	60816.48
587.06	60636.26
587.22	60989.68
587.38	60643.28
587.54	60870.31
587.70	61190.97
587.86	60961.59
588.02	60769.67
588.18	60889.04
588.34	60671.37
588.49	60879.67
