SpectraSuite Data File
++++++++++++++++++++++++++++++++++++
Date: Fri Oct 25 10:43:22 EDT 2013
User: price-jones
Dark Spectrum Present: No
Reference Spectrum Present: No
Number of Sampled Component Spectra: 1
Spectrometers: USB2+H05261
Integration Time (usec): 100000 (USB2+H05261)
Spectra Averaged: 1 (USB2+H05261)
Boxcar Smoothing: 0 (USB2+H05261)
Correct for Electrical Dark: No (USB2+H05261)
Strobe/Lamp Enabled: No (USB2+H05261)
Correct for Detector Non-linearity: No (USB2+H05261)
Correct for Stray Light: No (USB2+H05261)
Number of Pixels in Processed Spectrum: 2048
>>>>>Begin Processed Spectral Data<<<<<
365.73	182.56
365.92	182.56
366.12	182.56
366.32	0.00
366.52	0.00
366.72	42.13
366.91	0.00
367.11	46.81
367.31	42.13
367.51	0.00
367.70	0.00
367.90	18.72
368.10	4.68
368.30	0.00
368.49	23.41
368.69	0.00
368.89	56.17
369.09	0.00
369.28	156.82
369.48	56.17
369.68	154.48
369.87	128.73
370.07	131.07
370.27	119.37
370.47	212.99
370.66	332.36
370.86	393.21
371.06	386.19
371.25	423.64
371.45	482.15
371.65	428.32
371.84	433.00
372.04	442.36
372.24	456.40
372.44	540.66
372.63	500.87
372.83	554.71
373.03	573.43
373.22	451.72
373.42	589.82
373.62	547.69
373.81	423.64
374.01	613.22
374.21	538.32
374.40	543.00
374.60	580.45
374.79	545.34
374.99	566.41
375.19	552.37
375.38	589.82
375.58	629.60
375.78	594.50
375.97	592.16
376.17	613.22
376.37	505.56
376.56	615.56
376.76	603.86
376.95	561.73
377.15	613.22
377.35	627.26
377.54	629.60
377.74	695.14
377.93	610.88
378.13	674.07
378.33	732.59
378.52	697.48
378.72	662.37
378.91	638.97
379.11	582.79
379.31	571.09
379.50	685.78
379.70	683.44
379.89	620.24
380.09	627.26
380.28	711.52
380.48	725.57
380.68	648.33
380.87	671.73
381.07	744.29
381.26	746.63
381.46	727.91
381.65	748.97
381.85	730.25
382.04	613.22
382.24	634.29
382.43	678.76
382.63	760.67
382.83	664.71
383.02	847.27
383.22	760.67
383.41	716.20
383.61	774.72
383.80	788.76
384.00	767.70
384.19	798.12
384.39	807.48
384.58	844.93
384.78	784.08
384.97	795.78
385.17	812.17
385.36	798.12
385.56	788.76
385.75	823.87
385.95	835.57
386.14	858.98
386.34	842.59
386.53	873.02
386.72	830.89
386.92	842.59
387.11	795.78
387.31	823.87
387.50	795.78
387.70	866.00
387.89	992.39
388.09	894.08
388.28	856.64
388.48	858.98
388.67	1036.86
388.86	1029.84
389.06	1036.86
389.25	940.90
389.45	945.58
389.64	994.73
389.84	1008.77
390.03	1004.09
390.22	936.21
390.42	901.11
390.61	1057.92
390.81	980.68
391.00	1057.92
391.19	1083.67
391.39	1036.86
391.58	1130.48
391.78	1060.26
391.97	978.34
392.16	971.32
392.36	1039.20
392.55	987.71
392.75	1001.75
392.94	957.28
393.13	1020.47
393.33	952.60
393.52	1086.01
393.71	1095.37
393.91	1064.94
394.10	1081.33
394.29	1121.12
394.49	1217.08
394.68	1308.36
394.88	1203.04
395.07	1217.08
395.26	1156.22
395.46	1287.29
395.65	1263.89
395.84	1331.76
396.04	1338.79
396.23	1198.35
396.42	1146.86
396.62	1207.72
396.81	1240.48
397.00	1212.40
397.19	1343.47
397.39	1369.21
397.58	1416.02
397.77	1392.62
397.97	1362.19
398.16	1465.18
398.35	1500.28
398.55	1465.18
398.74	1502.62
398.93	1514.33
399.12	1556.46
399.32	1563.48
399.51	1523.69
399.70	1614.97
399.90	1526.03
400.09	1603.27
400.28	1692.21
400.47	1626.67
400.67	1607.95
400.86	1631.35
401.05	1619.65
401.24	1722.63
401.44	1657.10
401.63	1699.23
401.82	1743.70
402.01	1612.63
402.21	1729.66
402.40	1710.93
402.59	1760.08
402.78	1771.79
402.97	1886.47
403.17	1757.74
403.36	1771.79
403.55	1832.64
403.74	1877.11
403.93	1907.54
404.13	1865.41
404.32	1856.04
404.51	1865.41
404.70	1842.00
404.89	1928.60
405.09	2078.40
405.28	1977.75
405.47	2012.86
405.66	1914.56
405.85	2003.50
406.05	1933.28
406.24	2115.84
406.43	2019.88
406.62	2019.88
406.81	2125.21
407.00	2050.31
407.20	2036.27
407.39	2099.46
407.58	2172.02
407.77	2237.55
407.96	2275.00
408.15	2249.25
408.34	2263.30
408.54	2328.83
408.73	2244.57
408.92	2260.96
409.11	2319.47
409.30	2237.55
409.49	2253.94
409.68	2207.13
409.87	2312.45
410.07	2340.54
410.26	2410.75
410.45	2363.94
410.64	2370.96
410.83	2443.52
411.02	2534.80
411.21	2672.89
411.40	2579.27
411.59	2597.99
411.78	2691.62
411.98	2679.91
412.17	2743.11
412.36	2773.53
412.55	2747.79
412.74	2705.66
412.93	2738.43
413.12	2782.90
413.31	2920.99
413.50	2761.83
413.69	2899.92
413.88	3002.91
414.07	2841.41
414.26	2935.03
414.45	2888.22
414.64	2899.92
414.83	2988.86
415.02	2970.14
415.22	3026.31
415.41	3073.12
415.60	3318.88
415.79	3105.89
415.98	3225.26
416.17	3206.53
416.36	3180.79
416.55	3290.79
416.74	3356.33
416.93	3279.09
417.12	3295.47
417.31	3297.81
417.50	3300.16
417.69	3494.42
417.88	3379.73
418.07	3428.88
418.26	3482.72
418.45	3400.80
418.64	3590.38
418.83	3688.68
419.02	3658.26
419.21	3679.32
419.39	3716.77
419.58	3552.93
419.77	3648.90
419.96	3555.27
420.15	3815.07
420.34	3735.50
420.53	3749.54
420.72	3908.69
420.91	3880.61
421.10	3868.91
421.29	3850.18
421.48	3754.22
421.67	3885.29
421.86	3885.29
422.05	3765.92
422.24	3688.68
422.43	3714.43
422.61	3929.76
422.80	3932.10
422.99	3805.71
423.18	4039.76
423.37	4011.68
423.56	4018.70
423.75	3896.99
423.94	3911.04
424.13	3700.39
424.32	3878.27
424.50	3995.29
424.69	4016.36
424.88	4009.34
425.07	3824.44
425.26	3786.99
425.45	3936.78
425.64	3871.25
425.83	4023.38
426.01	4046.79
426.20	4051.47
426.39	3990.61
426.58	3950.82
426.77	3915.72
426.96	3962.53
427.15	3929.76
427.33	4114.66
427.52	4037.42
427.71	4173.18
427.90	4217.65
428.09	4152.11
428.28	4271.48
428.46	4107.64
428.65	4285.52
428.84	4346.37
429.03	4301.90
429.22	4241.05
429.40	4194.24
429.59	4154.45
429.78	3894.65
429.97	3852.52
430.16	3948.48
430.34	4088.92
430.53	4191.90
430.72	4311.27
430.91	4189.56
431.10	4362.76
431.28	4690.43
431.47	4542.98
431.66	4589.79
431.85	4650.64
432.03	4589.79
432.22	4744.27
432.41	4657.67
432.60	4645.96
432.79	4622.56
432.97	4727.88
433.16	4638.94
433.35	4550.00
433.54	4615.54
433.72	4606.17
433.91	4706.82
434.10	4685.75
434.28	4807.46
434.47	4779.37
434.66	4966.62
434.85	4985.34
435.03	5085.98
435.22	4854.27
435.41	5043.85
435.59	5137.48
435.78	5085.98
435.97	5114.07
436.16	5254.50
436.34	5205.35
436.53	5179.61
436.72	5369.19
436.90	4971.30
437.09	5252.16
437.28	5167.90
437.46	5235.78
437.65	5135.14
437.84	5191.31
438.02	5135.14
438.21	5184.29
438.40	5118.75
438.58	5261.52
438.77	5472.17
438.96	5514.30
439.14	5584.52
439.33	5572.82
439.52	5675.80
439.70	5579.84
439.89	5678.14
440.08	5675.80
440.26	5717.93
440.45	5661.76
440.63	5764.74
440.82	5944.96
441.01	5858.36
441.19	6083.05
441.38	6223.48
441.57	5951.98
441.75	6136.88
441.94	6354.55
442.12	6359.24
442.31	6499.67
442.50	6286.68
442.68	6335.83
442.87	6349.87
443.05	6520.73
443.24	6469.24
443.43	6253.91
443.61	6487.96
443.80	6672.87
443.98	6326.47
444.17	6225.82
444.35	6616.69
444.54	6607.33
444.73	6682.23
444.91	6565.20
445.10	6457.54
445.28	6502.01
445.47	6415.41
445.65	6483.28
445.84	6417.75
446.02	6579.25
446.21	6621.38
446.39	6574.56
446.58	6654.14
446.77	6637.76
446.95	6597.97
447.14	6850.75
447.32	6722.02
447.51	6693.93
447.69	6820.32
447.88	6740.74
448.06	6696.27
448.25	6686.91
448.43	6700.95
448.62	6780.53
448.80	6745.42
448.99	6911.60
449.17	6799.26
449.36	6843.73
449.54	7014.59
449.73	7049.69
449.91	7103.53
450.10	7037.99
450.28	7403.11
450.46	7140.97
450.65	7496.74
450.83	7101.19
451.02	7131.61
451.20	7332.90
451.39	7155.02
451.57	7342.26
451.76	7269.70
451.94	7321.20
452.13	7323.54
452.31	7342.26
452.49	7122.25
452.68	7351.62
452.86	7122.25
453.05	7349.28
453.23	7318.86
453.42	7440.56
453.60	7431.20
453.78	7358.64
453.97	7307.15
454.15	7515.46
454.34	7384.39
454.52	7576.31
454.70	7428.86
454.89	7566.95
455.07	7503.76
455.26	7674.62
455.44	7789.30
455.62	7901.65
455.81	7950.80
455.99	7873.56
456.17	8018.68
456.36	8018.68
456.54	8039.74
456.73	7971.86
456.91	8105.28
457.09	8086.55
457.28	8182.51
457.46	7922.71
457.64	8231.66
457.83	7861.86
458.01	8060.80
458.19	8173.15
458.38	8217.62
458.56	8325.29
458.74	8353.37
458.93	8404.86
459.11	8369.76
459.29	8294.86
459.48	8201.24
459.66	8444.65
459.84	8400.18
460.03	8566.36
460.21	8601.47
460.39	8439.97
460.57	8418.91
460.76	8461.04
460.94	8725.52
461.12	8840.20
461.31	8695.09
461.49	8823.82
461.67	8737.22
461.85	8910.42
462.04	8779.35
462.22	9530.66
462.40	8912.76
462.59	8879.99
462.77	8868.29
462.95	9235.75
463.13	9217.03
463.32	8924.46
463.50	8872.97
463.68	9207.67
463.86	8809.78
464.05	8854.25
464.23	8802.75
464.41	8978.30
464.59	8741.90
464.78	9322.35
464.96	9163.20
465.14	8952.55
465.32	9217.03
465.50	9261.50
465.69	9385.55
465.87	9210.01
466.05	9179.58
466.23	9341.08
466.41	9320.01
466.60	9540.02
466.78	9181.92
466.96	9305.97
467.14	9481.51
467.32	9408.95
467.51	9530.66
467.69	9334.06
467.87	9462.79
468.05	9650.03
468.23	9394.91
468.41	9591.52
468.60	9635.99
468.78	9830.25
468.96	9593.86
469.14	9942.60
469.32	9811.53
469.50	9689.82
469.69	9870.04
469.87	9916.85
470.05	9834.93
470.23	10033.88
470.41	9778.76
470.59	9769.40
470.77	10003.45
470.95	9980.04
471.14	10211.76
471.32	10106.43
471.50	10436.45
471.68	10239.84
471.86	10263.25
472.04	10494.96
472.22	10698.59
472.40	10494.96
472.58	10246.87
472.77	10583.90
472.95	10478.58
473.13	10998.18
473.31	10455.17
473.49	10623.69
473.67	10658.80
473.85	10927.96
474.03	10937.32
474.21	11084.78
474.39	11190.10
474.57	10883.49
474.75	11190.10
474.93	11136.27
475.12	11164.36
475.30	11147.97
475.48	11269.68
475.66	11101.16
475.84	11173.72
476.02	11421.81
476.20	11239.25
476.38	11754.17
476.56	12065.46
476.74	11690.98
476.92	11712.04
477.10	11946.09
477.28	12138.02
477.46	12046.74
477.64	12428.24
477.82	12346.33
478.00	12690.38
478.18	12685.70
478.36	12526.55
478.54	12461.01
478.72	12802.73
478.90	13099.98
479.08	13114.02
479.26	13209.98
479.44	13245.09
479.62	13207.64
479.80	13528.30
479.98	13509.57
480.16	13685.11
480.34	13418.29
480.52	13839.59
480.70	13937.89
480.88	13645.32
481.06	14162.58
481.24	14061.94
481.41	14321.74
481.59	14560.47
481.77	14207.05
481.95	14462.17
482.13	14483.24
482.31	14654.09
482.49	14930.28
482.67	14916.23
482.85	15051.99
483.03	15051.99
483.21	15349.23
483.39	15220.50
483.57	15506.05
483.74	15580.95
483.92	15592.65
484.10	15592.65
484.28	15894.58
484.46	16163.74
484.64	16086.50
484.82	16477.37
485.00	16243.32
485.18	16559.29
485.35	16430.56
485.53	16262.04
485.71	16479.71
485.89	16585.04
486.07	16512.48
486.25	16702.06
486.43	17095.27
486.61	17139.74
486.78	17219.32
486.96	17455.72
487.14	17657.00
487.32	17774.03
487.50	18277.24
487.68	18061.91
487.85	18511.30
488.03	18361.50
488.21	18649.39
488.39	18513.64
488.57	18628.32
488.75	18871.74
488.92	19246.23
489.10	19590.28
489.28	19721.35
489.46	19559.86
489.64	19564.54
489.81	20252.66
489.99	19995.20
490.17	20109.88
490.35	20531.18
490.53	20540.54
490.70	20510.11
490.88	20184.78
491.06	20861.19
491.24	20627.14
491.41	20910.35
491.59	20486.71
491.77	20779.28
491.95	20926.73
492.13	21205.25
492.30	21600.80
492.48	21612.51
492.66	21947.20
492.84	21881.67
493.01	22134.45
493.19	22216.36
493.37	22408.29
493.54	22623.62
493.72	22871.72
493.90	22665.75
494.08	23234.50
494.25	23080.02
494.43	23044.91
494.61	23335.14
494.79	23239.18
494.96	23442.81
495.14	23360.89
495.32	23747.08
495.49	23608.98
495.67	24194.12
495.85	24226.89
496.02	24467.96
496.20	24151.99
496.38	24629.46
496.55	24486.68
496.73	25064.80
496.91	24835.42
497.09	24870.53
497.26	25221.61
497.44	25242.68
497.62	25102.25
497.79	25518.86
497.97	24940.75
498.14	25687.38
498.32	25560.99
498.50	25507.16
498.67	26015.05
498.85	26073.57
499.03	26188.25
499.20	26333.37
499.38	26314.64
499.56	26368.48
499.73	26387.20
499.91	26373.16
500.08	27117.45
500.26	26724.24
500.44	26738.28
500.61	26859.99
500.79	26733.60
500.97	26635.30
501.14	27145.53
501.32	27009.78
501.49	27182.98
501.67	27129.15
501.84	27234.47
502.02	27552.79
502.20	27494.27
502.37	27466.19
502.55	27915.57
502.72	27864.08
502.90	27903.87
503.07	28308.78
503.25	27967.06
503.43	27962.38
503.60	28257.29
503.78	27953.02
503.95	28587.30
504.13	28744.12
504.30	28840.08
504.48	28311.12
504.65	28694.97
504.83	29064.77
505.01	28947.75
505.18	29259.04
505.36	29689.70
505.53	29560.97
505.71	29598.41
505.88	30024.39
506.06	29710.76
506.23	29535.22
506.41	29479.05
506.58	30195.25
506.76	30162.48
506.93	30040.78
507.11	30089.93
507.28	29869.92
507.46	30068.86
507.63	29895.66
507.81	30359.09
507.98	30059.50
508.16	30338.02
508.33	30752.30
508.50	30857.62
508.68	30967.63
508.85	31229.77
509.03	30906.77
509.20	30918.48
509.38	31227.43
509.55	31353.82
509.73	31447.44
509.90	31330.41
510.08	31098.70
510.25	31342.11
510.42	31857.03
510.60	32229.18
510.77	32034.91
510.95	32046.62
511.12	31805.54
511.30	31957.67
511.47	32449.19
511.64	32685.58
511.82	32135.56
511.99	32367.27
512.17	32474.93
512.34	32039.59
512.51	32594.30
512.69	32931.34
512.86	33003.89
513.04	33249.65
513.21	32952.40
513.38	32945.38
513.56	32919.63
513.73	32458.55
513.90	32921.98
514.08	33144.33
514.25	32870.48
514.43	33399.44
514.60	33015.60
514.77	33315.19
514.95	33942.45
515.12	33942.45
515.29	33584.35
515.47	34005.64
515.64	34452.69
515.81	33715.42
515.99	33916.70
516.16	33846.49
516.33	33600.73
516.51	33474.34
516.68	33022.62
516.85	33062.41
517.03	33734.14
517.20	34218.63
517.37	34071.18
517.54	34440.98
517.72	34373.11
517.89	34335.66
518.06	34213.95
518.24	34436.30
518.41	34239.70
518.58	34923.13
518.75	34373.11
518.93	34848.24
519.10	34895.05
519.27	35068.25
519.45	35147.82
519.62	35318.68
519.79	35119.74
519.96	35646.36
520.14	35475.50
520.31	35276.55
520.48	35211.02
520.65	35461.46
520.83	36137.87
521.00	35782.11
521.17	36114.47
521.34	36011.48
521.52	36233.83
521.69	36278.30
521.86	36320.43
522.03	36292.35
522.20	36196.38
522.38	36699.60
522.55	36596.62
522.72	36266.60
522.89	36271.28
523.07	36711.30
523.24	36327.45
523.41	37202.82
523.58	36584.91
523.75	37085.79
523.92	37184.09
524.10	37207.50
524.27	37441.55
524.44	37153.66
524.61	37614.75
524.78	37156.00
524.96	37324.52
525.13	37825.40
525.30	37565.60
525.47	37460.27
525.64	37825.40
525.81	37399.42
525.98	37399.42
526.16	37336.23
526.33	37266.01
526.50	37607.73
526.67	37336.23
526.84	37607.73
527.01	37748.16
527.18	37837.10
527.36	38363.72
527.53	38005.62
527.70	38637.56
527.87	38419.89
528.04	38183.50
528.21	38487.77
528.38	38459.68
528.55	38628.20
528.72	38792.04
528.89	38946.51
529.07	38897.36
529.24	38815.44
529.41	38920.77
529.58	38185.84
529.75	38988.64
529.92	39363.13
530.09	39145.46
530.26	38967.58
530.43	39225.04
530.60	39290.57
530.77	39199.29
530.94	39629.95
531.11	39182.91
531.28	39550.37
531.46	39421.64
531.63	39707.19
531.80	39585.48
531.97	39440.37
532.14	39433.35
532.31	39098.65
532.48	39356.11
532.65	39489.52
532.82	39129.08
532.99	39658.04
533.16	39882.73
533.33	39908.47
533.50	40135.51
533.67	40018.48
533.84	39704.85
534.01	39730.59
534.18	39798.47
534.35	40212.74
534.52	39854.64
534.69	40538.08
534.86	40383.60
535.03	40844.69
535.20	40589.57
535.37	40898.52
535.54	40905.54
535.71	40385.94
535.88	40631.70
536.05	40603.61
536.22	40631.70
536.38	40961.72
536.55	40755.75
536.72	40505.31
536.89	40486.59
537.06	40786.18
537.23	41371.31
537.40	40933.63
537.57	40980.44
537.74	40910.22
537.91	41673.24
538.08	41439.18
538.25	41446.21
538.42	41605.36
538.59	41514.08
538.75	40959.38
538.92	41265.99
539.09	41734.09
539.26	41478.97
539.43	41399.40
539.60	41167.68
539.77	41493.02
539.94	41397.06
540.11	41537.49
540.28	41478.97
540.44	41530.47
540.61	42012.62
540.78	41439.18
540.95	41556.21
541.12	41254.28
541.29	41556.21
541.46	42127.30
541.62	41626.43
541.79	42045.38
541.96	41546.85
542.13	42131.98
542.30	41698.98
542.47	42171.77
542.63	42078.15
542.80	41921.34
542.97	42401.14
543.14	42522.85
543.31	42373.06
543.48	42412.85
543.64	43042.45
543.81	42665.63
543.98	42859.89
544.15	42588.39
544.32	42930.11
544.48	42794.36
544.65	42581.37
544.82	42976.92
544.99	42754.57
545.16	42689.03
545.32	42628.18
545.49	43175.86
545.66	43157.14
545.83	43133.73
546.00	43161.82
546.16	43629.93
546.33	43234.38
546.50	42756.91
546.67	43065.86
546.83	42649.24
547.00	43243.74
547.17	43189.91
547.34	43189.91
547.50	43599.50
547.67	43426.30
547.84	43381.83
548.00	43545.67
548.17	43871.00
548.34	43248.42
548.51	43690.78
548.67	44039.52
548.84	43557.37
549.01	43955.26
549.18	43281.19
549.34	43648.65
549.51	43861.64
549.68	44137.82
549.84	43887.39
550.01	43894.41
550.18	43667.37
550.34	43744.61
550.51	44004.41
550.68	44119.10
550.84	43311.61
551.01	44212.72
551.18	43643.97
551.34	43777.38
551.51	44175.27
551.68	44201.02
551.84	43786.74
552.01	43707.16
552.18	44404.64
552.34	44081.65
552.51	44264.21
552.68	44044.20
552.84	44664.44
553.01	44744.02
553.18	44329.75
553.34	44385.92
553.51	44360.17
553.67	44509.97
553.84	44467.84
554.01	45162.98
554.17	44432.73
554.34	44561.46
554.51	44854.03
554.67	44921.90
554.84	44727.64
555.00	44872.75
555.17	44729.98
555.33	44744.02
555.50	44650.40
555.67	44678.49
555.83	44992.12
556.00	44875.09
556.16	44856.37
556.33	44851.69
556.50	44650.40
556.66	45221.49
556.83	44697.21
556.99	44388.26
557.16	44584.86
557.32	44748.70
557.49	44851.69
557.65	44589.55
557.82	45301.07
557.98	45010.84
558.15	45165.32
558.32	45366.60
558.48	44851.69
558.65	44814.24
558.81	45085.74
558.98	45015.52
559.14	45698.96
559.31	44491.24
559.47	45045.95
559.64	45191.06
559.80	45705.98
559.97	45120.85
560.13	45184.04
560.30	45198.09
560.46	45209.79
560.63	45205.11
560.79	45464.91
560.96	45689.60
561.12	45387.67
561.29	45275.32
561.45	45223.83
561.61	45099.78
561.78	45207.45
561.94	45151.27
562.11	45394.69
562.27	45137.23
562.44	45640.45
562.60	45385.33
562.77	45584.27
562.93	45558.53
563.10	45661.51
563.26	45385.33
563.42	45635.77
563.59	45230.85
563.75	45441.50
563.92	45787.90
564.08	45518.74
564.24	45481.29
564.41	45380.65
564.57	45521.08
564.74	45727.05
564.90	45322.13
565.07	45684.92
565.23	45815.99
565.39	45411.07
565.56	45399.37
565.72	45471.93
565.88	45170.00
566.05	45226.17
566.21	45652.15
566.38	45544.48
566.54	45528.10
566.70	45390.01
566.87	45663.85
567.03	46024.29
567.19	46162.39
567.36	45689.60
567.52	45860.46
567.68	45724.71
567.85	45212.13
568.01	45820.67
568.17	45535.12
568.34	45893.22
568.50	45872.16
568.66	45698.96
568.83	46061.74
568.99	45378.31
569.15	45633.42
569.32	45991.53
569.48	46017.27
569.64	46401.12
569.81	45979.82
569.97	45457.88
570.13	45607.68
570.30	45661.51
570.46	45572.57
570.62	45603.00
570.78	45387.67
570.95	45394.69
571.11	45865.14
571.27	45762.15
571.43	45694.28
571.60	45595.98
571.76	45914.29
571.92	46197.49
572.09	45776.20
572.25	46066.42
572.41	46101.53
572.57	46321.54
572.74	46698.37
572.90	45977.48
573.06	46000.89
573.22	45689.60
573.38	45724.71
573.55	45530.44
573.71	46101.53
573.87	46026.63
574.03	45738.75
574.20	46054.72
574.36	45713.00
574.52	45691.94
574.68	46012.59
574.84	45918.97
575.01	45490.65
575.17	45853.44
575.33	45542.14
575.49	45769.18
575.65	46246.65
575.82	46117.92
575.98	46061.74
576.14	46078.13
576.30	45956.42
576.46	45680.24
576.62	45717.68
576.79	46000.89
576.95	45603.00
577.11	45792.58
577.27	45865.14
577.43	46045.36
577.59	45916.63
577.75	45996.21
577.92	45382.99
578.08	45766.84
578.24	45837.05
578.40	46012.59
578.56	45975.14
578.72	45879.18
578.88	45944.72
579.04	46244.30
579.21	45970.46
579.37	45958.76
579.53	45930.67
579.69	45727.05
579.85	46005.57
580.01	45776.20
580.17	46031.32
580.33	45893.22
580.49	45530.44
580.65	46211.54
580.82	46319.20
580.98	46050.04
581.14	45518.74
581.30	46021.95
581.46	45954.08
581.62	46197.49
581.78	46153.02
581.94	46080.47
582.10	46148.34
582.26	46050.04
582.42	46225.58
582.58	46220.90
582.74	46071.10
582.90	46000.89
583.06	46234.94
583.22	46122.60
583.38	46731.14
583.54	46569.64
583.70	46045.36
583.86	45998.55
584.02	46248.99
584.18	46141.32
584.34	46148.34
584.50	46094.51
584.66	46220.90
584.82	45741.09
584.98	46433.89
585.14	46188.13
585.30	46155.36
585.46	46288.77
585.62	45755.13
585.78	45647.47
585.94	46050.04
586.10	45982.16
586.26	45834.71
586.42	46195.15
586.58	46237.28
586.74	46457.29
586.90	46033.66
587.06	45813.65
587.22	45762.15
587.38	45937.69
587.54	46316.86
587.70	46494.74
587.86	46160.05
588.02	45909.61
588.18	46003.23
588.34	45771.52
588.49	45579.59
588.65	45469.59
588.81	45490.65
588.97	45633.42
589.13	45441.50
589.29	45270.64
589.45	45780.88
589.61	46178.77
589.77	46117.92
589.93	45940.04
