SpectraSuite Data File
++++++++++++++++++++++++++++++++++++
Date: Fri Oct 25 10:44:32 EDT 2013
User: price-jones
Dark Spectrum Present: No
Reference Spectrum Present: No
Number of Sampled Component Spectra: 1
Spectrometers: USB2+H05261
Integration Time (usec): 100000 (USB2+H05261)
Spectra Averaged: 1 (USB2+H05261)
Boxcar Smoothing: 0 (USB2+H05261)
Correct for Electrical Dark: No (USB2+H05261)
Strobe/Lamp Enabled: No (USB2+H05261)
Correct for Detector Non-linearity: No (USB2+H05261)
Correct for Stray Light: No (USB2+H05261)
Number of Pixels in Processed Spectrum: 2048
>>>>>Begin Processed Spectral Data<<<<<
365.73	170.86
365.92	170.86
366.12	170.86
366.32	0.00
366.52	58.51
366.72	44.47
366.91	30.43
367.11	18.72
367.31	28.09
367.51	25.75
367.70	0.00
367.90	39.79
368.10	0.00
368.30	28.09
368.49	77.24
368.69	37.45
368.89	67.88
369.09	7.02
369.28	63.19
369.48	49.15
369.68	46.81
369.87	0.00
370.07	147.45
370.27	131.07
370.47	212.99
370.66	287.89
370.86	365.12
371.06	411.93
371.25	440.02
371.45	472.79
371.65	402.57
371.84	416.62
372.04	433.00
372.24	461.09
372.44	411.93
372.63	423.64
372.83	418.96
373.03	465.77
373.22	468.11
373.42	451.72
373.62	440.02
373.81	512.58
374.01	489.17
374.21	533.64
374.40	472.79
374.60	578.11
374.79	507.90
374.99	552.37
375.19	592.16
375.38	573.43
375.58	622.58
375.78	554.71
375.97	601.52
376.17	589.82
376.37	554.71
376.56	662.37
376.76	624.92
376.95	559.39
377.15	526.62
377.35	587.47
377.54	613.22
377.74	566.41
377.93	634.29
378.13	648.33
378.33	603.86
378.52	596.84
378.72	575.77
378.91	554.71
379.11	634.29
379.31	718.54
379.50	667.05
379.70	585.13
379.89	615.56
380.09	610.88
380.28	634.29
380.48	653.01
380.68	653.01
380.87	638.97
381.07	685.78
381.26	755.99
381.46	734.93
381.65	678.76
381.85	650.67
382.04	730.25
382.24	653.01
382.43	695.14
382.63	734.93
382.83	706.84
383.02	711.52
383.22	706.84
383.41	704.50
383.61	634.29
383.80	713.86
384.00	683.44
384.19	723.23
384.39	645.99
384.58	683.44
384.78	730.25
384.97	805.14
385.17	819.19
385.36	772.38
385.56	725.57
385.75	741.95
385.95	798.12
386.14	718.54
386.34	746.63
386.53	758.33
386.72	800.46
386.92	788.76
387.11	814.51
387.31	800.46
387.50	814.51
387.70	861.32
387.89	854.30
388.09	823.87
388.28	781.74
388.48	849.61
388.67	844.93
388.86	894.08
389.06	933.87
389.25	868.34
389.45	990.05
389.64	884.72
389.84	938.55
390.03	997.07
390.22	877.70
390.42	884.72
390.61	947.92
390.81	966.64
391.00	1008.77
391.19	985.37
391.39	997.07
391.58	1015.79
391.78	954.94
391.97	926.85
392.16	968.98
392.36	1020.47
392.55	1001.75
392.75	954.94
392.94	976.00
393.13	908.13
393.33	966.64
393.52	971.32
393.71	947.92
393.91	1015.79
394.10	1078.99
394.29	1060.26
394.49	990.05
394.68	1109.41
394.88	1184.31
395.07	1088.35
395.26	1107.07
395.46	1123.46
395.65	1093.03
395.84	1146.86
396.04	1256.87
396.23	1095.37
396.42	1135.16
396.62	1137.50
396.81	1170.27
397.00	1107.07
397.19	1114.10
397.39	1198.35
397.58	1282.61
397.77	1226.44
397.97	1242.82
398.16	1207.72
398.35	1378.58
398.55	1406.66
398.74	1341.13
398.93	1366.87
399.12	1303.68
399.32	1364.53
399.51	1451.13
399.70	1488.58
399.90	1380.92
400.09	1418.36
400.28	1460.49
400.47	1423.05
400.67	1476.88
400.86	1472.20
401.05	1521.35
401.24	1544.75
401.44	1528.37
401.63	1472.20
401.82	1460.49
402.01	1561.14
402.21	1610.29
402.40	1572.84
402.59	1614.97
402.78	1619.65
402.97	1547.09
403.17	1577.52
403.36	1626.67
403.55	1647.74
403.74	1717.95
403.93	1624.33
404.13	1640.72
404.32	1682.85
404.51	1692.21
404.70	1764.76
404.89	1689.87
405.09	1849.02
405.28	1760.08
405.47	1839.66
405.66	1774.13
405.85	1846.68
406.05	1778.81
406.24	1724.97
406.43	1778.81
406.62	1816.26
406.81	1956.69
407.00	1900.52
407.20	1926.26
407.39	1916.90
407.58	2062.01
407.77	1944.99
407.96	2078.40
408.15	2005.84
408.34	1996.48
408.54	2162.66
408.73	2113.50
408.92	2113.50
409.11	2160.31
409.30	2104.14
409.49	2150.95
409.68	2193.08
409.87	1933.28
410.07	2136.91
410.26	2179.04
410.45	2333.51
410.64	2228.19
410.83	2267.98
411.02	2319.47
411.21	2424.80
411.40	2314.79
411.59	2527.78
411.78	2312.45
411.98	2314.79
412.17	2462.24
412.36	2385.01
412.55	2417.77
412.74	2471.61
412.93	2555.86
413.12	2380.32
413.31	2644.81
413.50	2612.04
413.69	2729.06
413.88	2703.32
414.07	2628.42
414.26	2675.23
414.45	2726.72
414.64	2736.09
414.83	2867.16
415.02	2745.45
415.22	2913.97
415.41	2834.39
415.60	2881.20
415.79	2839.07
415.98	2890.56
416.17	2925.67
416.36	2897.58
416.55	2916.31
416.74	2888.22
416.93	2953.76
417.12	2993.55
417.31	3023.97
417.50	3019.29
417.69	3162.06
417.88	3122.27
418.07	3138.66
418.26	3049.72
418.45	3178.45
418.64	3370.37
418.83	3330.58
419.02	3152.70
419.21	3353.99
419.39	3267.39
419.58	3197.17
419.77	3269.73
419.96	3222.92
420.15	3353.99
420.34	3309.52
420.53	3304.84
420.72	3527.19
420.91	3492.08
421.10	3510.80
421.29	3445.27
421.48	3468.67
421.67	3421.86
421.86	3506.12
422.05	3517.83
422.24	3538.89
422.43	3555.27
422.61	3503.78
422.80	3620.81
422.99	3653.58
423.18	3627.83
423.37	3616.13
423.56	3651.24
423.75	3435.91
423.94	3545.91
424.13	3267.39
424.32	3309.52
424.50	3648.90
424.69	3782.31
424.88	3611.45
425.07	3627.83
425.26	3583.36
425.45	3648.90
425.64	3723.79
425.83	3632.51
426.01	3592.72
426.20	3733.15
426.39	3782.31
426.58	3595.06
426.77	3637.19
426.96	3737.84
427.15	3735.50
427.33	3779.97
427.52	3859.54
427.71	3904.01
427.90	3885.29
428.09	3770.60
428.28	3850.18
428.46	3726.13
428.65	3861.88
428.84	4028.06
429.03	4018.70
429.22	3747.20
429.40	3896.99
429.59	3868.91
429.78	3667.62
429.97	3705.07
430.16	3684.00
430.34	3812.73
430.53	3922.74
430.72	3887.63
430.91	3950.82
431.10	3796.35
431.28	4243.39
431.47	4222.33
431.66	4255.09
431.85	4126.36
432.03	4257.43
432.22	4421.27
432.41	4348.72
432.60	4313.61
432.79	4304.25
432.97	4329.99
433.16	4409.57
433.35	4318.29
433.54	4468.08
433.72	4451.70
433.91	4358.08
434.10	4451.70
434.28	4409.57
434.47	4470.42
434.66	4561.70
434.85	4779.37
435.03	4447.02
435.22	4594.47
435.41	4706.82
435.59	4641.28
435.78	4629.58
435.97	4660.01
436.16	4638.94
436.34	4631.92
436.53	4762.99
436.72	4875.34
436.90	4786.40
437.09	4880.02
437.28	4561.70
437.46	4823.84
437.65	4947.89
437.84	4854.27
438.02	4868.31
438.21	4891.72
438.40	4650.64
438.58	5048.54
438.77	4990.02
438.96	5022.79
439.14	5111.73
439.33	5228.76
439.52	5135.14
439.70	5217.05
439.89	5198.33
440.08	5394.93
440.26	5331.74
440.45	5245.14
440.63	5437.06
440.82	5554.09
441.01	5465.15
441.19	5535.37
441.38	5614.95
441.57	5647.71
441.75	5713.25
441.94	5734.31
442.12	5769.42
442.31	5813.89
442.50	5816.23
442.68	5769.42
442.87	5867.72
443.05	5898.15
443.24	5987.09
443.43	5888.79
443.61	5851.34
443.80	6087.73
443.98	5886.45
444.17	5701.54
444.35	6176.67
444.54	6026.88
444.73	5975.39
444.91	5949.64
445.10	5998.79
445.28	5973.05
445.47	5909.85
445.65	6143.91
445.84	5942.62
446.02	5940.28
446.21	5937.94
446.39	5954.32
446.58	6059.65
446.77	6136.88
446.95	5980.07
447.14	6169.65
447.32	6209.44
447.51	6214.12
447.69	6256.25
447.88	6115.82
448.06	6036.24
448.25	6061.99
448.43	6209.44
448.62	6171.99
448.80	6066.67
448.99	6303.06
449.17	6282.00
449.36	6349.87
449.54	6221.14
449.73	6387.32
449.91	6534.78
450.10	6600.31
450.28	6537.12
450.46	6326.47
450.65	6553.50
450.83	6630.74
451.02	6583.93
451.20	6619.04
451.39	6429.45
451.57	6850.75
451.76	6670.53
451.94	6593.29
452.13	6719.68
452.31	6745.42
452.49	6583.93
452.68	6717.34
452.86	6621.38
453.05	6600.31
453.23	6843.73
453.42	6619.04
453.60	6633.08
453.78	6867.13
453.97	6815.64
454.15	6782.87
454.34	6862.45
454.52	7014.59
454.70	6848.41
454.89	7005.22
455.07	7040.33
455.26	7087.14
455.44	7157.36
455.62	7009.90
455.81	7110.55
455.99	7288.43
456.17	7279.07
456.36	7152.68
456.54	7265.02
456.73	7368.01
456.91	7442.90
457.09	7571.63
457.28	7606.74
457.46	7368.01
457.64	7503.76
457.83	7623.12
458.01	7286.09
458.19	7613.76
458.38	7618.44
458.56	7623.12
458.74	7571.63
458.93	7681.64
459.11	7683.98
459.29	7597.38
459.48	7536.52
459.66	7723.77
459.84	7903.99
460.03	7669.94
460.21	7915.69
460.39	7866.54
460.57	7871.22
460.76	7859.52
460.94	7854.84
461.12	7922.71
461.31	7962.50
461.49	7988.25
461.67	8215.28
461.85	8081.87
462.04	8119.32
462.22	8432.95
462.40	8079.53
462.59	8166.13
462.77	8116.98
462.95	8264.43
463.13	8124.00
463.32	8053.78
463.50	8428.27
463.68	8425.93
463.86	8430.61
464.05	8348.69
464.23	8203.58
464.41	8423.59
464.59	8243.37
464.78	8662.32
464.96	8564.02
465.14	8360.39
465.32	8519.55
465.50	8617.85
465.69	8685.73
465.87	8451.67
466.05	8573.38
466.23	8468.06
466.41	8559.34
466.60	8727.86
466.78	8716.16
466.96	8549.98
467.14	8564.02
467.32	8734.88
467.51	8851.91
467.69	8683.39
467.87	8879.99
468.05	8933.82
468.23	8777.01
468.41	8554.66
468.60	8875.31
468.78	8982.98
468.96	8882.33
469.14	9081.28
469.32	9104.68
469.50	8748.92
469.69	8973.61
469.87	9135.11
470.05	9193.62
470.23	9146.81
470.41	9125.75
470.59	9151.49
470.77	9261.50
470.95	9177.24
471.14	9551.73
471.32	9327.03
471.50	9544.70
471.68	9448.74
471.86	9444.06
472.04	9572.79
472.22	9769.40
472.40	9528.32
472.58	9556.41
472.77	9853.66
472.95	9825.57
473.13	10094.73
473.31	9673.43
473.49	9858.34
473.67	9750.67
473.85	9970.68
474.03	10157.92
474.21	10125.16
474.39	10300.70
474.57	10232.82
474.75	10293.68
474.93	10340.49
475.12	10307.72
475.30	10408.36
475.48	10253.89
475.66	10616.67
475.84	10342.83
476.02	10628.37
476.20	10490.28
476.38	10794.55
476.56	11030.94
476.74	11208.83
476.92	10909.24
477.10	11105.84
477.28	11330.53
477.46	11218.19
477.64	11300.11
477.82	11342.24
478.00	11700.34
478.18	11641.82
478.36	11810.34
478.54	11693.32
478.72	11808.00
478.90	11817.36
479.08	12121.63
479.26	12381.43
479.44	12079.50
479.62	12126.32
479.80	12528.89
479.98	12507.82
480.16	12496.12
480.34	12564.00
480.52	12830.82
480.70	12863.58
480.88	12564.00
481.06	13149.13
481.24	13083.59
481.41	13125.72
481.59	13504.89
481.77	13252.11
481.95	13378.50
482.13	13451.06
482.31	13371.48
482.49	13947.25
482.67	14031.51
482.85	13907.46
483.03	14267.91
483.21	14146.20
483.39	14466.85
483.57	14295.99
483.74	14469.19
483.92	14560.47
484.10	14377.91
484.28	14895.17
484.46	15222.84
484.64	15124.54
484.82	15028.58
485.00	15180.71
485.18	15307.10
485.35	15552.86
485.53	15304.76
485.71	15463.92
485.89	15665.21
486.07	15578.61
486.25	15833.72
486.43	15887.56
486.61	16250.34
486.78	16018.63
486.96	16365.03
487.14	16741.85
487.32	16547.59
487.50	16500.78
487.68	17240.39
487.85	17465.08
488.03	17104.64
488.21	17231.02
488.39	17343.37
488.57	17537.63
488.75	17500.19
488.92	17884.03
489.10	18012.76
489.28	18197.67
489.46	18462.15
489.64	18188.30
489.81	18939.62
489.99	18647.05
490.17	18864.72
490.35	19087.07
490.53	18892.80
490.70	19213.46
490.88	19051.96
491.06	19393.68
491.24	19370.27
491.41	19360.91
491.59	19597.31
491.77	19328.14
491.95	19946.05
492.13	19805.61
492.30	20100.52
492.48	20456.28
492.66	20343.94
492.84	20554.58
493.01	20688.00
493.19	20652.89
493.37	21088.23
493.54	20985.24
493.72	21116.31
493.90	20697.36
494.08	21507.18
494.25	21593.78
494.43	21769.32
494.61	22132.11
494.79	21781.03
494.96	21968.27
495.14	21717.83
495.32	22134.45
495.49	22183.60
495.67	22508.93
495.85	22817.88
496.02	22728.94
496.20	22693.83
496.38	23087.04
496.55	23040.23
496.73	23452.17
496.91	23381.95
497.09	23543.45
497.26	23480.25
497.44	23674.52
497.62	23672.18
497.79	23737.71
497.97	23494.30
498.14	23953.04
498.32	24053.69
498.50	24156.67
498.67	24217.52
498.85	24250.29
499.03	24489.03
499.20	24453.92
499.38	24758.19
499.56	24896.28
499.73	24783.93
499.91	25095.22
500.08	25064.80
500.26	24725.42
500.44	25184.16
500.61	25383.11
500.79	25099.90
500.97	25223.95
501.14	25855.90
501.32	25472.05
501.49	25378.43
501.67	25898.03
501.84	25642.91
502.02	25888.67
502.20	25972.92
502.37	26555.72
502.55	26122.72
502.72	26363.79
502.90	26670.40
503.07	26345.07
503.25	26597.85
503.43	26705.51
503.60	26518.27
503.78	26621.25
503.95	26679.77
504.13	26764.03
504.30	27044.89
504.48	26836.58
504.65	27096.38
504.83	27466.19
505.01	28023.23
505.18	27550.45
505.36	27513.00
505.53	27587.89
505.71	27796.20
505.88	28058.34
506.06	27798.54
506.23	27927.27
506.41	27716.62
506.58	27639.39
506.76	27999.83
506.93	28435.17
507.11	28264.31
507.28	28079.41
507.46	28360.27
507.63	28531.13
507.81	28753.48
507.98	28320.48
508.16	28608.37
508.33	28912.64
508.50	28795.61
508.68	29193.50
508.85	29425.22
509.03	29280.10
509.20	29411.17
509.38	29759.91
509.55	29270.74
509.73	29699.06
509.90	29474.37
510.08	29619.48
510.25	29582.03
510.42	29792.68
510.60	30029.07
510.77	29984.60
510.95	30410.58
511.12	30015.03
511.30	30471.43
511.47	30764.00
511.64	30202.27
511.82	30581.44
511.99	30529.95
512.17	30714.85
512.34	30396.54
512.51	30930.18
512.69	31384.24
512.86	31562.12
513.04	31395.95
513.21	31288.28
513.38	31147.85
513.56	30927.84
513.73	30822.51
513.90	31449.78
514.08	31454.46
514.25	31564.46
514.43	31700.22
514.60	31407.65
514.77	31569.15
514.95	31920.23
515.12	31861.71
515.29	31971.72
515.47	32215.13
515.64	32334.50
515.81	31878.10
515.99	32154.28
516.16	32226.84
516.33	31740.00
516.51	32233.86
516.68	31679.15
516.85	31938.95
517.03	31901.50
517.20	32268.97
517.37	32517.06
517.54	32861.12
517.72	32460.89
517.89	32767.50
518.06	32198.75
518.24	32751.12
518.41	32477.27
518.58	32854.10
518.75	33186.46
518.93	33256.67
519.10	33305.82
519.27	33378.38
519.45	33069.43
519.62	33259.01
519.79	33642.86
519.96	33680.31
520.14	33944.79
520.31	33434.55
520.48	33511.79
520.65	33841.81
520.83	34312.25
521.00	34445.66
521.17	34040.75
521.34	33851.17
521.52	34389.49
521.69	34373.11
521.86	34323.96
522.03	34918.45
522.20	34876.32
522.38	34834.19
522.55	34590.78
522.72	34663.33
522.89	34611.84
523.07	34909.09
523.24	35084.63
523.41	35119.74
523.58	35086.97
523.75	35697.85
523.92	35136.12
524.10	35637.00
524.27	35344.43
524.44	35536.35
524.61	35835.94
524.78	35838.28
524.96	35466.14
525.13	36376.61
525.30	35594.87
525.47	36072.34
525.64	36210.43
525.81	35976.37
525.98	35908.50
526.16	35969.35
526.33	35461.46
526.50	35901.48
526.67	36030.21
526.84	35952.97
527.01	35882.75
527.18	36130.85
527.36	36388.31
527.53	36598.96
527.70	37013.23
527.87	37029.62
528.04	36664.49
528.21	36341.50
528.38	36400.01
528.55	36861.10
528.72	37010.89
528.89	37317.50
529.07	36872.80
529.24	37083.45
529.41	37436.87
529.58	37104.51
529.75	37146.64
529.92	37270.69
530.09	36961.74
530.26	37315.16
530.43	37584.32
530.60	37076.43
530.77	37762.20
530.94	37961.15
531.11	37574.96
531.28	37818.38
531.46	37801.99
531.63	37624.11
531.80	37818.38
531.97	37731.78
532.14	37764.54
532.31	37415.80
532.48	37963.49
532.65	37876.89
532.82	38185.84
532.99	38232.65
533.16	37736.46
533.33	38232.65
533.50	38209.25
533.67	37972.85
533.84	38188.18
534.01	38581.39
534.18	38117.96
534.35	38597.77
534.52	38590.75
534.69	38958.22
534.86	38211.59
535.03	38492.45
535.20	38904.38
535.37	39005.03
535.54	39147.80
535.71	38682.03
535.88	39274.19
536.05	38747.57
536.22	39021.41
536.38	38707.78
536.55	39093.97
536.72	38998.01
536.89	39030.77
537.06	39658.04
537.23	38831.83
537.40	39344.41
537.57	39199.29
537.74	39210.99
537.91	39508.24
538.08	39337.38
538.25	39199.29
538.42	39335.04
538.59	39555.05
538.75	39285.89
538.92	39498.88
539.09	39950.60
539.26	39746.98
539.43	39791.45
539.60	39943.58
539.77	39906.13
539.94	39744.64
540.11	39887.41
540.28	39814.85
540.44	39768.04
540.61	39969.33
540.78	39856.98
540.95	39908.47
541.12	39590.16
541.29	40041.88
541.46	40383.60
541.62	40299.34
541.79	40346.15
541.96	39908.47
542.13	40264.24
542.30	40044.23
542.47	40332.11
542.63	40285.30
542.80	40495.95
542.97	40687.87
543.14	41401.74
543.31	40994.48
543.48	41167.68
543.64	41104.49
543.81	41308.11
543.98	41397.06
544.15	40872.78
544.32	41570.25
544.48	41324.50
544.65	41514.08
544.82	41413.44
544.99	41038.95
545.16	41202.79
545.32	41043.63
545.49	41390.03
545.66	41364.29
545.83	41879.21
546.00	41612.38
546.16	41757.50
546.33	40912.56
546.50	41017.89
546.67	41514.08
546.83	40950.01
547.00	41921.34
547.17	41972.83
547.34	41656.85
547.50	41926.02
547.67	42029.00
547.84	41858.14
548.00	41743.45
548.17	42239.65
548.34	41757.50
548.51	42263.05
548.67	42354.33
548.84	42010.28
549.01	42122.62
549.18	41553.87
549.34	42244.33
549.51	42237.31
549.68	42164.75
549.84	42337.95
550.01	42260.71
550.18	41972.83
550.34	42719.46
550.51	42370.72
550.68	42504.13
550.84	42040.70
551.01	42483.06
551.18	42728.82
551.34	42649.24
551.51	42490.09
551.68	42251.35
551.84	42499.45
552.01	42490.09
552.18	43077.56
552.34	42649.24
552.51	42319.23
552.68	42969.90
552.84	43040.11
553.01	42911.38
553.18	43386.51
553.34	43122.03
553.51	43274.16
553.67	42625.84
553.84	43110.33
554.01	43543.33
554.17	43370.13
554.34	43019.05
554.51	42981.60
554.67	43342.04
554.84	42745.20
555.00	42838.83
555.17	42852.87
555.33	43241.40
555.50	43185.22
555.67	43112.67
555.83	43028.41
556.00	43332.68
556.16	43751.63
556.33	43533.96
556.50	43363.11
556.66	43746.95
556.83	43217.99
556.99	43742.27
557.16	43683.76
557.32	43798.44
557.49	43941.22
557.65	43117.35
557.82	43732.91
557.98	43475.45
558.15	43337.36
558.32	43835.89
558.48	43246.08
558.65	43285.87
558.81	43388.85
558.98	43414.60
559.14	43363.11
559.31	43304.59
559.47	43782.06
559.64	44170.59
559.80	43693.12
559.97	43543.33
560.13	43381.83
560.30	43718.87
560.46	43871.00
560.63	44107.40
560.79	43871.00
560.96	44217.40
561.12	44065.27
561.29	44025.48
561.45	43599.50
561.61	44151.87
561.78	43978.67
561.94	43835.89
562.11	44170.59
562.27	43693.12
562.44	43915.47
562.60	44144.84
562.77	44137.82
562.93	44023.14
563.10	44388.26
563.26	44268.89
563.42	44201.02
563.59	44238.47
563.75	43798.44
563.92	44516.99
564.08	44189.31
564.24	44158.89
564.41	44657.42
564.57	44018.46
564.74	44348.47
564.90	44282.94
565.07	43901.43
565.23	44009.09
565.39	44308.68
565.56	44516.99
565.72	44378.90
565.88	44151.87
566.05	44140.16
566.21	43929.51
566.38	43819.51
566.54	44226.76
566.70	44299.32
566.87	44463.16
567.03	44261.87
567.19	44753.38
567.36	44559.12
567.52	44210.38
567.68	44226.76
567.85	44437.41
568.01	44257.19
568.17	44294.64
568.34	44830.62
568.50	44266.55
568.66	44161.23
568.83	44404.64
568.99	44430.39
569.15	44619.97
569.32	44751.04
569.48	44350.81
569.64	44762.75
569.81	44701.89
569.97	44580.18
570.13	45020.20
570.30	44060.58
570.46	44189.31
570.62	44318.04
570.78	44449.11
570.95	44526.35
571.11	44566.14
571.27	44498.26
571.43	44287.62
571.60	44692.53
571.76	44343.79
571.92	44669.12
572.09	44790.83
572.25	44540.39
572.41	44603.59
572.57	44479.54
572.74	44748.70
572.90	44697.21
573.06	44559.12
573.22	44374.22
573.38	44802.53
573.55	44739.34
573.71	44797.85
573.87	44601.25
574.03	44882.11
574.20	44580.18
574.36	44498.26
574.52	44357.83
574.68	44498.26
574.84	44722.96
575.01	44605.93
575.17	44385.92
575.33	44210.38
575.49	44140.16
575.65	44786.15
575.82	44905.52
575.98	44697.21
576.14	45200.43
576.30	44783.81
576.46	44271.23
576.62	44708.91
576.79	44797.85
576.95	44409.32
577.11	44807.22
577.27	45186.38
577.43	44722.96
577.59	44596.57
577.75	44327.41
577.92	44079.31
578.08	44439.75
578.24	44289.96
578.40	44463.16
578.56	44762.75
578.72	44645.72
578.88	44987.44
579.04	44823.60
579.21	44844.66
579.37	44898.50
579.53	44928.92
579.69	44519.33
579.85	44575.50
580.01	44814.24
580.17	45385.33
580.33	44760.40
580.49	44802.53
580.65	45148.93
580.82	45427.46
580.98	44629.34
581.14	44718.28
581.30	45429.80
581.46	45127.87
581.62	44989.78
581.78	44772.11
581.94	45172.34
582.10	44477.20
582.26	44821.26
582.42	44425.71
582.58	44945.31
582.74	44940.63
582.90	44748.70
583.06	45226.17
583.22	45282.34
583.38	45216.81
583.54	44959.35
583.70	44769.77
583.86	44842.32
584.02	44521.67
584.18	44900.84
584.34	44975.73
584.50	44744.02
584.66	44762.75
584.82	44673.81
584.98	45291.71
585.14	45207.45
585.30	45151.27
585.46	44868.07
585.62	44711.25
585.78	45024.89
585.94	44177.61
586.10	45333.84
586.26	44830.62
586.42	45134.89
586.58	45504.70
586.74	44610.61
586.90	44353.15
587.06	44982.76
587.22	45118.51
587.38	44612.95
587.54	44547.42
587.70	45160.64
587.86	44891.48
588.02	44839.98
588.18	45595.98
588.34	45254.26
588.49	44898.50
588.65	44580.18
588.81	44685.51
588.97	45102.12
589.13	44575.50
589.29	44683.17
589.45	45027.23
589.61	45205.11
589.77	45132.55
589.93	45085.74
590.08	45116.17
590.24	45071.70
