SpectraSuite Data File
++++++++++++++++++++++++++++++++++++
Date: Fri Oct 25 10:44:14 EDT 2013
User: price-jones
Dark Spectrum Present: No
Reference Spectrum Present: No
Number of Sampled Component Spectra: 1
Spectrometers: USB2+H05261
Integration Time (usec): 100000 (USB2+H05261)
Spectra Averaged: 1 (USB2+H05261)
Boxcar Smoothing: 0 (USB2+H05261)
Correct for Electrical Dark: No (USB2+H05261)
Strobe/Lamp Enabled: No (USB2+H05261)
Correct for Detector Non-linearity: No (USB2+H05261)
Correct for Stray Light: No (USB2+H05261)
Number of Pixels in Processed Spectrum: 2048
>>>>>Begin Processed Spectral Data<<<<<
365.73	175.54
365.92	175.54
366.12	175.54
366.32	65.54
366.52	11.70
366.72	44.47
366.91	4.68
367.11	58.51
367.31	25.75
367.51	102.98
367.70	9.36
367.90	67.88
368.10	18.72
368.30	35.11
368.49	37.45
368.69	42.13
368.89	16.38
369.09	23.41
369.28	0.00
369.48	32.77
369.68	58.51
369.87	128.73
370.07	32.77
370.27	124.05
370.47	227.03
370.66	346.40
370.86	437.68
371.06	418.96
371.25	383.85
371.45	475.13
371.65	437.68
371.84	519.60
372.04	358.10
372.24	543.00
372.44	447.04
372.63	510.24
372.83	540.66
373.03	482.15
373.22	545.34
373.42	510.24
373.62	500.87
373.81	484.49
374.01	557.05
374.21	547.69
374.40	578.11
374.60	615.56
374.79	575.77
374.99	653.01
375.19	547.69
375.38	603.86
375.58	608.54
375.78	660.03
375.97	580.45
376.17	657.69
376.37	507.90
376.56	535.98
376.76	599.18
376.95	674.07
377.15	655.35
377.35	727.91
377.54	601.52
377.74	653.01
377.93	653.01
378.13	667.05
378.33	662.37
378.52	674.07
378.72	655.35
378.91	704.50
379.11	573.43
379.31	660.03
379.50	620.24
379.70	763.01
379.89	690.46
380.09	716.20
380.28	648.33
380.48	634.29
380.68	725.57
380.87	585.13
381.07	720.88
381.26	842.59
381.46	671.73
381.65	725.57
381.85	760.67
382.04	692.80
382.24	718.54
382.43	765.36
382.63	723.23
382.83	697.48
383.02	795.78
383.22	692.80
383.41	653.01
383.61	770.04
383.80	774.72
384.00	777.06
384.19	711.52
384.39	816.85
384.58	793.44
384.78	732.59
384.97	814.51
385.17	880.04
385.36	711.52
385.56	763.01
385.75	837.91
385.95	791.10
386.14	814.51
386.34	851.96
386.53	814.51
386.72	889.40
386.92	891.74
387.11	784.08
387.31	812.17
387.50	849.61
387.70	800.46
387.89	809.83
388.09	938.55
388.28	875.36
388.48	812.17
388.67	950.26
388.86	873.02
389.06	999.41
389.25	999.41
389.45	1015.79
389.64	929.19
389.84	985.37
390.03	1043.88
390.22	1043.88
390.42	992.39
390.61	1013.45
390.81	1048.56
391.00	1107.07
391.19	1050.90
391.39	1128.14
391.58	1013.45
391.78	1025.15
391.97	990.05
392.16	1027.50
392.36	1060.26
392.55	1121.12
392.75	1015.79
392.94	978.34
393.13	1039.20
393.33	959.62
393.52	978.34
393.71	1139.84
393.91	999.41
394.10	1104.73
394.29	1146.86
394.49	1165.59
394.68	1235.80
394.88	1188.99
395.07	1219.42
395.26	1266.23
395.46	1263.89
395.65	1219.42
395.84	1259.21
396.04	1142.18
396.23	1238.14
396.42	1128.14
396.62	1205.38
396.81	1188.99
397.00	1188.99
397.19	1334.11
397.39	1254.53
397.58	1409.00
397.77	1352.83
397.97	1446.45
398.16	1507.30
398.35	1563.48
398.55	1420.71
398.74	1427.73
398.93	1441.77
399.12	1427.73
399.32	1598.59
399.51	1486.24
399.70	1610.29
399.90	1523.69
400.09	1643.06
400.28	1465.18
400.47	1603.27
400.67	1467.52
400.86	1563.48
401.05	1610.29
401.24	1710.93
401.44	1577.52
401.63	1685.19
401.82	1739.02
402.01	1689.87
402.21	1785.83
402.40	1626.67
402.59	1652.42
402.78	1710.93
402.97	1706.25
403.17	1748.38
403.36	1720.29
403.55	1809.23
403.74	1771.79
403.93	1853.70
404.13	1837.32
404.32	1818.60
404.51	1806.89
404.70	1888.81
404.89	1884.13
405.09	1930.94
405.28	1923.92
405.47	1982.43
405.66	1937.96
405.85	1935.62
406.05	1888.81
406.24	1970.73
406.43	1998.82
406.62	1977.75
406.81	2047.97
407.00	2090.10
407.20	2073.71
407.39	2064.35
407.58	2122.87
407.77	2275.00
407.96	2221.17
408.15	2204.78
408.34	2183.72
408.54	2279.68
408.73	2204.78
408.92	2190.74
409.11	2279.68
409.30	2122.87
409.49	2221.17
409.68	2218.83
409.87	2324.15
410.07	2214.15
410.26	2284.36
410.45	2417.77
410.64	2413.09
410.83	2530.12
411.02	2459.90
411.21	2555.86
411.40	2602.68
411.59	2623.74
411.78	2686.94
411.98	2544.16
412.17	2712.68
412.36	2675.23
412.55	2743.11
412.74	2869.50
412.93	2696.30
413.12	2626.08
413.31	2703.32
413.50	2745.45
413.69	2719.70
413.88	2909.29
414.07	2984.18
414.26	2888.22
414.45	2876.52
414.64	2967.80
414.83	2956.10
415.02	2913.97
415.22	3199.51
415.41	3080.14
415.60	3117.59
415.79	3150.36
415.98	3229.94
416.17	3173.77
416.36	3314.20
416.55	3077.80
416.74	3148.02
416.93	3248.66
417.12	3166.74
417.31	3318.88
417.50	3349.31
417.69	3454.63
417.88	3384.41
418.07	3342.28
418.26	3295.47
418.45	3531.87
418.64	3503.78
418.83	3639.53
419.02	3496.76
419.21	3571.66
419.39	3473.36
419.58	3599.74
419.77	3468.67
419.96	3538.89
420.15	3588.04
420.34	3686.34
420.53	3794.01
420.72	3676.98
420.91	3801.03
421.10	3850.18
421.29	3861.88
421.48	3688.68
421.67	3749.54
421.86	3662.94
422.05	3716.77
422.24	3770.60
422.43	3840.82
422.61	3829.12
422.80	3882.95
422.99	3925.08
423.18	3974.23
423.37	3934.44
423.56	3915.72
423.75	3803.37
423.94	3824.44
424.13	3716.77
424.32	3847.84
424.50	3899.33
424.69	4002.32
424.88	3997.64
425.07	3840.82
425.26	3868.91
425.45	3889.97
425.64	3782.31
425.83	3957.85
426.01	3974.23
426.20	3936.78
426.39	4011.68
426.58	3939.12
426.77	3819.75
426.96	4046.79
427.15	3896.99
427.33	4138.07
427.52	3873.59
427.71	4156.79
427.90	3943.80
428.09	4117.00
428.28	4065.51
428.46	4215.30
428.65	4276.16
428.84	4124.02
429.03	4241.05
429.22	4166.15
429.40	4091.26
429.59	4063.17
429.78	3934.44
429.97	3868.91
430.16	4011.68
430.34	4088.92
430.53	4124.02
430.72	4142.75
430.91	4156.79
431.10	4329.99
431.28	4428.29
431.47	4535.96
431.66	4610.86
431.85	4540.64
432.03	4470.42
432.22	4608.51
432.41	4578.09
432.60	4615.54
432.79	4620.22
432.97	4730.22
433.16	4695.11
433.35	4723.20
433.54	4617.88
433.72	4603.83
433.91	4592.13
434.10	4709.16
434.28	4744.27
434.47	4805.12
434.66	4983.00
434.85	4908.10
435.03	5001.72
435.22	5001.72
435.41	5144.50
435.59	5041.51
435.78	5095.35
435.97	5095.35
436.16	5008.75
436.34	5174.92
436.53	5195.99
436.72	5217.05
436.90	5001.72
437.09	5083.64
437.28	5039.17
437.46	5172.58
437.65	5235.78
437.84	5240.46
438.02	5088.32
438.21	5095.35
438.40	5039.17
438.58	5296.63
438.77	5453.45
438.96	5530.69
439.14	5294.29
439.33	5579.84
439.52	5502.60
439.70	5533.03
439.89	5617.29
440.08	5528.35
440.26	5731.97
440.45	5762.40
440.63	5753.04
440.82	5982.41
441.01	5884.11
441.19	6059.65
441.38	6069.01
441.57	6125.18
441.75	6204.76
441.94	6289.02
442.12	6239.87
442.31	6307.74
442.50	6319.45
442.68	6249.23
442.87	6209.44
443.05	6310.08
443.24	6441.15
443.43	6375.62
443.61	6384.98
443.80	6609.67
443.98	6312.42
444.17	6216.46
444.35	6370.94
444.54	6459.88
444.73	6668.19
444.91	6349.87
445.10	6520.73
445.28	6537.12
445.47	6354.55
445.65	6490.31
445.84	6464.56
446.02	6478.60
446.21	6602.65
446.39	6663.51
446.58	6574.56
446.77	6544.14
446.95	6672.87
447.14	6579.25
447.32	6911.60
447.51	6583.93
447.69	6689.25
447.88	6593.29
448.06	6623.72
448.25	6705.63
448.43	6867.13
448.62	6712.66
448.80	6635.42
448.99	6738.40
449.17	6958.41
449.36	6717.34
449.54	7045.01
449.73	7112.89
449.91	6960.75
450.10	7073.10
450.28	7302.47
450.46	7133.95
450.65	7033.31
450.83	7150.34
451.02	7052.03
451.20	7115.23
451.39	7148.00
451.57	7110.55
451.76	6993.52
451.94	7164.38
452.13	7255.66
452.31	7148.00
452.49	7178.42
452.68	7321.20
452.86	7094.16
453.05	7155.02
453.23	7372.69
453.42	7304.81
453.60	7192.47
453.78	7552.91
453.97	7368.01
454.15	7328.22
454.34	7360.98
454.52	7325.88
454.70	7478.01
454.89	7449.93
455.07	7522.48
455.26	7543.55
455.44	7658.23
455.62	7740.15
455.81	7756.54
455.99	7719.09
456.17	7679.30
456.36	7702.70
456.54	7943.78
456.73	7887.61
456.91	8025.70
457.09	7903.99
457.28	8355.71
457.46	8191.88
457.64	8037.40
457.83	7857.18
458.01	7894.63
458.19	8182.51
458.38	8168.47
458.56	8358.05
458.74	8212.94
458.93	8079.53
459.11	8166.13
459.29	8250.39
459.48	8348.69
459.66	8248.05
459.84	8236.35
460.03	8542.96
460.21	8346.35
460.39	8423.59
460.57	8528.91
460.76	8571.04
460.94	8587.43
461.12	8652.96
461.31	8416.57
461.49	8610.83
461.67	8416.57
461.85	8863.61
462.04	8901.06
462.22	9081.28
462.40	8781.69
462.59	8671.68
462.77	8645.94
462.95	8879.99
463.13	8833.18
463.32	8788.71
463.50	8877.65
463.68	8992.34
463.86	9071.92
464.05	8980.64
464.23	8926.80
464.41	9121.07
464.59	8798.07
464.78	9060.21
464.96	9219.37
465.14	9029.79
465.32	8917.44
465.50	9263.84
465.69	9132.77
465.87	9324.69
466.05	9303.63
466.23	9146.81
466.41	9221.71
466.60	9401.93
466.78	9146.81
466.96	9245.12
467.14	9322.35
467.32	9331.72
467.51	9364.48
467.69	9053.19
467.87	9266.18
468.05	9614.92
468.23	9425.34
468.41	9448.74
468.60	9598.54
468.78	9474.49
468.96	9364.48
469.14	9535.34
469.32	9633.64
469.50	9320.01
469.69	9614.92
469.87	9905.15
470.05	9722.59
470.23	9841.95
470.41	9633.64
470.59	9745.99
470.77	9977.70
470.95	9907.49
471.14	10061.96
471.32	9626.62
471.50	10394.32
471.68	10331.12
471.86	10391.98
472.04	10218.78
472.22	10595.61
472.40	10162.61
472.58	10399.00
472.77	10471.56
472.95	10518.37
473.13	10953.71
473.31	10462.19
473.49	10389.64
473.67	10443.47
473.85	10640.08
474.03	10878.81
474.21	10988.82
474.39	11054.35
474.57	11126.91
474.75	11201.80
474.93	11229.89
475.12	11150.31
475.30	11080.10
475.48	10998.18
475.66	11229.89
475.84	11075.42
476.02	11260.32
476.20	11267.34
476.38	11630.12
476.56	11861.84
476.74	11740.13
476.92	11932.05
477.10	11740.13
477.28	11992.90
477.46	12166.10
477.64	12126.32
477.82	12131.00
478.00	12547.61
478.18	12280.79
478.36	12491.44
478.54	12564.00
478.72	12594.42
478.90	12744.22
479.08	12854.22
479.26	13242.75
479.44	13085.94
479.62	13376.16
479.80	13067.21
479.98	13146.79
480.16	13336.37
480.34	13493.19
480.52	13607.87
480.70	13422.97
480.88	13448.72
481.06	13949.59
481.24	13834.91
481.41	14141.52
481.59	14436.42
481.77	14249.18
481.95	14424.72
482.13	14457.49
482.31	14361.53
482.49	14871.76
482.67	14937.30
482.85	14956.02
483.03	14813.25
483.21	15150.29
483.39	15229.87
483.57	15442.85
483.74	15417.11
483.92	15723.72
484.10	15391.36
484.28	15779.89
484.46	16156.72
484.64	16123.95
484.82	15957.77
485.00	16079.48
485.18	16280.77
485.35	16173.10
485.53	16262.04
485.71	15988.20
485.89	16418.86
486.07	16336.94
486.25	16470.35
486.43	16744.19
486.61	17001.65
486.78	17472.10
486.96	17399.54
487.14	17495.50
487.32	17654.66
487.50	17907.44
487.68	17895.74
487.85	18090.00
488.03	18377.89
488.21	18239.79
488.39	18352.14
488.57	18405.97
488.75	18691.52
488.92	18665.77
489.10	19403.04
489.28	19278.99
489.46	19459.21
489.64	19356.23
489.81	19903.92
489.99	19941.36
490.17	20278.40
490.35	20549.90
490.53	20208.19
490.70	20472.67
490.88	20292.44
491.06	20835.45
491.24	20835.45
491.41	20301.81
491.59	20851.83
491.77	20575.65
491.95	20922.05
492.13	21158.44
492.30	21308.24
492.48	21364.41
492.66	21511.86
492.84	21752.94
493.01	22050.19
493.19	21799.75
493.37	22003.38
493.54	22181.26
493.72	22300.62
493.90	22665.75
494.08	22696.17
494.25	23002.78
494.43	23201.73
494.61	23356.21
494.79	23307.05
494.96	23187.69
495.14	23253.22
495.32	23552.81
495.49	23733.03
495.67	23396.00
495.85	24259.65
496.02	24098.16
496.20	24437.53
496.38	24264.33
496.55	24334.55
496.73	24821.38
496.91	24428.17
497.09	24919.68
497.26	25099.90
497.44	25003.94
497.62	24912.66
497.79	25558.65
497.97	25137.35
498.14	25483.75
498.32	25397.15
498.50	25820.79
498.67	25710.78
498.85	26277.19
499.03	25876.96
499.20	26134.42
499.38	26192.94
499.56	26452.73
499.73	26625.93
499.91	26204.64
500.08	26845.94
500.26	25818.45
500.44	26359.11
500.61	26445.71
500.79	26588.49
500.97	26810.84
501.14	27204.05
501.32	26888.07
501.49	27129.15
501.67	27377.25
501.84	26995.74
502.02	27346.82
502.20	27761.09
502.37	27693.22
502.55	27672.15
502.72	28063.02
502.90	27957.70
503.07	28023.23
503.25	28004.51
503.43	27878.12
503.60	27875.78
503.78	28114.52
503.95	28135.58
504.13	28599.01
504.30	28980.51
504.48	28430.49
504.65	28716.03
504.83	28903.28
505.01	29013.28
505.18	28840.08
505.36	29558.63
505.53	29631.18
505.71	29776.30
505.88	29647.57
506.06	29411.17
506.23	29579.69
506.41	29394.79
506.58	29729.48
506.76	29645.23
506.93	29687.36
507.11	29626.50
507.28	29785.66
507.46	30169.51
507.63	29874.60
507.81	30148.44
507.98	30008.01
508.16	30307.60
508.33	30518.25
508.50	30174.19
508.68	30576.76
508.85	30981.67
509.03	30787.41
509.20	30906.77
509.38	30890.39
509.55	31367.86
509.73	30810.81
509.90	30782.73
510.08	31189.98
510.25	31316.37
510.42	31276.58
510.60	31456.80
510.77	31531.70
510.95	31889.80
511.12	31955.33
511.30	32161.30
511.47	32048.96
511.64	32292.37
511.82	32238.54
511.99	31882.78
512.17	32521.74
512.34	32339.18
512.51	32760.48
512.69	32238.54
512.86	32531.11
513.04	32914.95
513.21	32786.22
513.38	32964.10
513.56	32804.95
513.73	32500.68
513.90	33017.94
514.08	33008.58
514.25	32936.02
514.43	33113.90
514.60	33048.36
514.77	33167.73
514.95	33577.33
515.12	33298.80
515.29	33455.62
515.47	33872.23
515.64	33797.34
515.81	33242.63
515.99	33926.07
516.16	33570.30
516.33	33429.87
516.51	34038.41
516.68	33251.99
516.85	32980.49
517.03	33731.80
517.20	33703.71
517.37	34162.46
517.54	34366.09
517.72	34075.86
517.89	33909.68
518.06	33890.96
518.24	34157.78
518.41	34373.11
518.58	34054.79
518.75	33926.07
518.93	34796.74
519.10	34567.37
519.27	34705.46
519.45	34827.17
519.62	35365.49
519.79	35468.48
519.96	34934.84
520.14	35318.68
520.31	35321.02
520.48	35353.79
520.65	35243.79
520.83	36137.87
521.00	35594.87
521.17	36116.81
521.34	35768.07
521.52	35786.79
521.69	36397.67
521.86	36275.96
522.03	36180.00
522.20	35817.22
522.38	36493.63
522.55	36446.82
522.72	36264.26
522.89	36418.74
523.07	36397.67
523.24	36343.84
523.41	36678.54
523.58	36718.32
523.75	37553.90
523.92	36837.69
524.10	37469.64
524.27	36957.06
524.44	37376.01
524.61	37261.33
524.78	37256.65
524.96	37799.65
525.13	37432.19
525.30	37820.72
525.47	37633.47
525.64	37652.20
525.81	37577.30
525.98	37310.48
526.16	37254.31
526.33	37158.34
526.50	37399.42
526.67	37010.89
526.84	37338.57
527.01	37432.19
527.18	37706.03
527.36	37816.04
527.53	37984.55
527.70	38543.94
527.87	38536.92
528.04	38352.02
528.21	38120.31
528.38	38323.93
528.55	38792.04
528.72	38623.52
528.89	38876.30
529.07	38574.37
529.24	38810.76
529.41	38373.08
529.58	38550.96
529.75	38745.23
529.92	38705.44
530.09	39192.27
530.26	39075.24
530.43	38986.30
530.60	39232.06
530.77	39391.22
530.94	39796.13
531.11	39365.47
531.28	39643.99
531.46	39749.32
531.63	39571.44
531.80	39206.31
531.97	39379.51
532.14	39526.97
532.31	39241.42
532.48	39297.59
532.65	39632.29
532.82	39564.42
532.99	39786.77
533.16	39604.20
533.33	39868.69
533.50	40425.73
533.67	39779.74
533.84	39716.55
534.01	40018.48
534.18	40245.51
534.35	40285.30
534.52	40154.23
534.69	40130.83
534.86	40456.16
535.03	40114.44
535.20	41069.38
535.37	40638.72
535.54	41151.30
535.71	40666.81
535.88	40385.94
536.05	40648.08
536.22	40776.81
536.38	40573.19
536.55	40821.28
536.72	41003.85
536.89	40498.29
537.06	40547.44
537.23	40638.72
537.40	40596.59
537.57	40769.79
537.74	41179.39
537.91	41509.40
538.08	41406.42
538.25	41090.44
538.42	40994.48
538.59	41820.69
538.75	40935.97
538.92	41251.94
539.09	41256.62
539.26	40985.12
539.43	41109.17
539.60	41317.48
539.77	40886.82
539.94	41303.43
540.11	41031.93
540.28	41591.32
540.44	41333.86
540.61	41219.17
540.78	41216.83
540.95	41205.13
541.12	41495.36
541.29	41691.96
541.46	41706.01
541.62	41916.65
541.79	41893.25
541.96	41340.88
542.13	42054.75
542.30	41792.61
542.47	41879.21
542.63	42225.60
542.80	41982.19
542.97	42050.06
543.14	42642.22
543.31	42553.28
543.48	42794.36
543.64	43014.37
543.81	43089.26
543.98	42623.50
544.15	42351.99
544.32	42885.64
544.48	43168.84
544.65	42810.74
544.82	42719.46
544.99	42693.71
545.16	42796.70
545.32	42913.72
545.49	43292.89
545.66	43536.30
545.83	43349.06
546.00	43271.82
546.16	42855.21
546.33	42705.41
546.50	43058.84
546.67	43430.98
546.83	42703.07
547.00	43227.35
547.17	43522.26
547.34	42752.23
547.50	43278.85
547.67	43405.23
547.84	43480.13
548.00	43683.76
548.17	44037.18
548.34	43934.20
548.51	43552.69
548.67	43683.76
548.84	43494.18
549.01	43168.84
549.18	43526.94
549.34	43833.55
549.51	43981.01
549.68	43973.98
549.84	44093.35
550.01	43590.14
550.18	43770.36
550.34	43789.08
550.51	43852.28
550.68	43903.77
550.84	43178.20
551.01	43985.69
551.18	44247.83
551.34	44055.90
551.51	44318.04
551.68	44374.22
551.84	44058.24
552.01	44493.58
552.18	43920.15
552.34	44079.31
552.51	44215.06
552.68	43800.79
552.84	44404.64
553.01	44327.41
553.18	44205.70
553.34	44058.24
553.51	43856.96
553.67	44170.59
553.84	44467.84
554.01	44837.64
554.17	44521.67
554.34	44725.30
554.51	44594.23
554.67	45059.99
554.84	45034.25
555.00	44428.05
555.17	44727.64
555.33	44676.15
555.50	44858.71
555.67	44746.36
555.83	44751.04
556.00	44816.58
556.16	45446.18
556.33	44816.58
556.50	44460.82
556.66	44975.73
556.83	44460.82
556.99	45591.30
557.16	44896.16
557.32	45067.02
557.49	44949.99
557.65	44959.35
557.82	45207.45
557.98	45340.86
558.15	45036.59
558.32	45275.32
558.48	44790.83
558.65	44837.64
558.81	44678.49
558.98	44603.59
559.14	44641.04
559.31	44919.56
559.47	45371.28
559.64	45436.82
559.80	45485.97
559.97	44942.97
560.13	45394.69
560.30	44917.22
560.46	45375.97
560.63	45366.60
560.79	45787.90
560.96	45382.99
561.12	45289.37
561.29	45277.66
561.45	45001.48
561.61	45284.68
561.78	45235.53
561.94	45193.40
562.11	45558.53
562.27	45244.90
562.44	45382.99
562.60	45717.68
562.77	45881.52
562.93	45350.22
563.10	45872.16
563.26	45352.56
563.42	45574.91
563.59	45312.77
563.75	45471.93
563.92	45619.38
564.08	45375.97
564.24	45677.90
564.41	45649.81
564.57	45507.04
564.74	45797.26
564.90	45574.91
565.07	45907.27
565.23	45436.82
565.39	45436.82
565.56	45951.74
565.72	45200.43
565.88	45670.87
566.05	45261.28
566.21	45757.47
566.38	45659.17
566.54	45691.94
566.70	45879.18
566.87	46504.10
567.03	45729.39
567.19	46073.45
567.36	45701.30
567.52	45584.27
567.68	45975.14
567.85	45429.80
568.01	46167.07
568.17	46014.93
568.34	45925.99
568.50	45715.34
568.66	45497.67
568.83	46209.20
568.99	45397.03
569.15	45591.30
569.32	45862.80
569.48	45591.30
569.64	45963.44
569.81	46153.02
569.97	45792.58
570.13	45968.12
570.30	45549.17
570.46	45958.76
570.62	45895.56
570.78	45331.50
570.95	45511.72
571.11	46010.25
571.27	45888.54
571.43	45720.02
571.60	45888.54
571.76	45684.92
571.92	45965.78
572.09	45771.52
572.25	45900.25
572.41	46309.84
572.57	45818.33
572.74	46431.55
572.90	45748.11
573.06	45914.29
573.22	45954.08
573.38	46000.89
573.55	46050.04
573.71	45851.09
573.87	46045.36
574.03	46061.74
574.20	46066.42
574.36	45972.80
574.52	45989.19
574.68	45710.66
574.84	45895.56
575.01	45851.09
575.17	45600.66
575.33	45930.67
575.49	46059.40
575.65	46213.88
575.82	46319.20
575.98	45848.75
576.14	46040.68
576.30	46059.40
576.46	45631.08
576.62	45741.09
576.79	45785.56
576.95	45574.91
577.11	45867.48
577.27	45904.93
577.43	45986.85
577.59	45808.96
577.75	46267.71
577.92	45411.07
578.08	45860.46
578.24	45984.51
578.40	45743.43
578.56	46230.26
578.72	46181.11
578.88	46277.07
579.04	45787.90
579.21	46487.72
579.37	45921.31
579.53	46071.10
579.69	46110.89
579.85	46122.60
580.01	46073.45
580.17	45993.87
580.33	46066.42
580.49	46244.30
580.65	46195.15
580.82	46412.82
580.98	45881.52
581.14	45766.84
581.30	46256.01
581.46	46174.09
581.62	46536.87
581.78	46176.43
581.94	46464.32
582.10	45993.87
582.26	46326.22
582.42	46389.42
582.58	46422.19
582.74	45642.79
582.90	46351.97
583.06	46429.21
583.22	45825.35
583.38	46464.32
583.54	46660.92
583.70	46150.68
583.86	46089.83
584.02	45855.78
584.18	46007.91
584.34	46005.57
584.50	46162.39
584.66	46047.70
584.82	45783.22
584.98	46415.16
585.14	46021.95
585.30	45993.87
585.46	46216.22
585.62	45832.37
585.78	45923.65
585.94	45717.68
586.10	46164.73
586.26	45848.75
586.42	46461.97
586.58	46082.81
586.74	46197.49
586.90	45895.56
587.06	46066.42
587.22	46433.89
587.38	45801.94
587.54	46143.66
587.70	46625.81
587.86	46204.52
588.02	46124.94
588.18	46412.82
588.34	45958.76
588.49	45762.15
588.65	45783.22
588.81	45654.49
588.97	45921.31
589.13	45649.81
589.29	45666.19
589.45	45951.74
589.61	46162.39
589.77	46195.15
589.93	45844.07
