SpectraSuite Data File
++++++++++++++++++++++++++++++++++++
Date: Fri Oct 25 11:22:35 EDT 2013
User: price-jones
Dark Spectrum Present: No
Reference Spectrum Present: No
Number of Sampled Component Spectra: 1
Spectrometers: USB2+H05261
Integration Time (usec): 100000 (USB2+H05261)
Spectra Averaged: 1 (USB2+H05261)
Boxcar Smoothing: 0 (USB2+H05261)
Correct for Electrical Dark: No (USB2+H05261)
Strobe/Lamp Enabled: No (USB2+H05261)
Correct for Detector Non-linearity: No (USB2+H05261)
Correct for Stray Light: No (USB2+H05261)
Number of Pixels in Processed Spectrum: 2048
>>>>>Begin Processed Spectral Data<<<<<
365.73	191.92
365.92	191.92
366.12	191.92
366.32	88.94
366.52	102.98
366.72	100.64
366.91	121.71
367.11	201.29
367.31	117.03
367.51	107.66
367.70	175.54
367.90	142.77
368.10	140.43
368.30	49.15
368.49	126.39
368.69	168.52
368.89	212.99
369.09	138.09
369.28	112.35
369.48	184.90
369.68	140.43
369.87	198.95
370.07	196.60
370.27	271.50
370.47	290.23
370.66	580.45
370.86	627.26
371.06	678.76
371.25	688.12
371.45	702.16
371.65	650.67
371.84	702.16
372.04	704.50
372.24	723.23
372.44	727.91
372.63	725.57
372.83	669.39
373.03	788.76
373.22	779.40
373.42	779.40
373.62	767.70
373.81	842.59
374.01	842.59
374.21	814.51
374.40	744.29
374.60	793.44
374.79	873.02
374.99	821.53
375.19	767.70
375.38	873.02
375.58	784.08
375.78	840.25
375.97	844.93
376.17	903.45
376.37	833.23
376.56	922.17
376.76	751.31
376.95	880.04
377.15	898.77
377.35	931.53
377.54	910.47
377.74	781.74
377.93	863.66
378.13	908.13
378.33	940.90
378.52	917.49
378.72	854.30
378.91	908.13
379.11	936.21
379.31	826.21
379.50	931.53
379.70	1055.58
379.89	1015.79
380.09	980.68
380.28	947.92
380.48	978.34
380.68	992.39
380.87	1034.52
381.07	985.37
381.26	1006.43
381.46	961.96
381.65	1128.14
381.85	1034.52
382.04	957.28
382.24	1029.84
382.43	1076.65
382.63	1069.62
382.83	1071.97
383.02	1062.60
383.22	1090.69
383.41	1104.73
383.61	1109.41
383.80	1132.82
384.00	1076.65
384.19	1097.71
384.39	1062.60
384.58	1160.91
384.78	1170.27
384.97	1069.62
385.17	1172.61
385.36	1057.92
385.56	1167.93
385.75	1170.27
385.95	1163.25
386.14	1277.93
386.34	1235.80
386.53	1228.78
386.72	1210.06
386.92	1280.27
387.11	1299.00
387.31	1336.45
387.50	1181.97
387.70	1303.68
387.89	1174.95
388.09	1287.29
388.28	1252.19
388.48	1291.98
388.67	1306.02
388.86	1275.59
389.06	1294.32
389.25	1394.96
389.45	1291.98
389.64	1324.74
389.84	1397.30
390.03	1338.79
390.22	1373.89
390.42	1383.26
390.61	1481.56
390.81	1406.66
391.00	1516.67
391.19	1479.22
391.39	1380.92
391.58	1341.13
391.78	1465.18
391.97	1500.28
392.16	1401.98
392.36	1661.78
392.55	1568.16
392.75	1507.30
392.94	1460.49
393.13	1474.54
393.33	1423.05
393.52	1584.54
393.71	1593.90
393.91	1593.90
394.10	1636.03
394.29	1638.38
394.49	1535.39
394.68	1689.87
394.88	1652.42
395.07	1720.29
395.26	1692.21
395.46	1736.68
395.65	1811.57
395.84	1678.16
396.04	1797.53
396.23	1781.15
396.42	1696.89
396.62	1853.70
396.81	1811.57
397.00	1771.79
397.19	1769.44
397.39	1804.55
397.58	1937.96
397.77	1935.62
397.97	1816.26
398.16	1769.44
398.35	1916.90
398.55	1902.86
398.74	1954.35
398.93	1980.09
399.12	2040.95
399.32	1884.13
399.51	1860.73
399.70	1987.11
399.90	2120.53
400.09	2094.78
400.28	2050.31
400.47	2050.31
400.67	2059.67
400.86	2101.80
401.05	2132.23
401.24	2174.36
401.44	2120.53
401.63	2237.55
401.82	2118.18
402.01	2115.84
402.21	2221.17
402.40	2253.94
402.59	2214.15
402.78	2221.17
402.97	2249.25
403.17	2204.78
403.36	2277.34
403.55	2466.92
403.74	2331.17
403.93	2333.51
404.13	2427.14
404.32	2420.11
404.51	2480.97
404.70	2441.18
404.89	2317.13
405.09	2480.97
405.28	2492.67
405.47	2518.42
405.66	2583.95
405.85	2555.86
406.05	2541.82
406.24	2663.53
406.43	2616.72
406.62	2661.19
406.81	2679.91
407.00	2609.70
407.20	2663.53
407.39	2778.22
407.58	2789.92
407.77	2736.09
407.96	2803.96
408.15	2832.05
408.34	2832.05
408.54	2855.45
408.73	2759.49
408.92	2913.97
409.11	2892.90
409.30	2909.29
409.49	3026.31
409.68	2888.22
409.87	2965.46
410.07	2981.84
410.26	2981.84
410.45	3070.78
410.64	3012.27
410.83	3143.34
411.02	3131.64
411.21	3199.51
411.40	3115.25
411.59	3288.45
411.78	3262.71
411.98	3225.26
412.17	3286.11
412.36	3288.45
412.55	3389.10
412.74	3337.60
412.93	3482.72
413.12	3346.97
413.31	3576.34
413.50	3555.27
413.69	3536.55
413.88	3538.89
414.07	3590.38
414.26	3674.64
414.45	3735.50
414.64	3686.34
414.83	3686.34
415.02	3810.39
415.22	3868.91
415.41	3845.50
415.60	3840.82
415.79	4004.66
415.98	3950.82
416.17	4077.21
416.36	3922.74
416.55	4021.04
416.74	4086.58
416.93	4063.17
417.12	4105.30
417.31	4117.00
417.50	4170.83
417.69	4140.41
417.88	4175.52
418.07	4248.07
418.26	4273.82
418.45	4311.27
418.64	4402.55
418.83	4540.64
419.02	4498.51
419.21	4440.00
419.39	4411.91
419.58	4507.87
419.77	4507.87
419.96	4538.30
420.15	4620.22
420.34	4723.20
420.53	4772.35
420.72	4674.05
420.91	4784.06
421.10	4938.53
421.29	4924.49
421.48	4650.64
421.67	4950.23
421.86	4786.40
422.05	4873.00
422.24	4922.15
422.43	4924.49
422.61	4884.70
422.80	5041.51
422.99	4830.87
423.18	4746.61
423.37	5167.90
423.56	4910.44
423.75	4894.06
423.94	4835.55
424.13	4624.90
424.32	4774.69
424.50	5074.28
424.69	5132.79
424.88	5067.26
425.07	4971.30
425.26	4805.12
425.45	5149.18
425.64	4884.70
425.83	5046.20
426.01	5034.49
426.20	5191.31
426.39	5102.37
426.58	5069.60
426.77	5064.92
426.96	5123.43
427.15	5210.03
427.33	5273.23
427.52	5104.71
427.71	5366.85
427.90	5369.19
428.09	5266.21
428.28	5373.87
428.46	5584.52
428.65	5416.00
428.84	5458.13
429.03	5671.12
429.22	5423.02
429.40	5509.62
429.59	5607.92
429.78	5296.63
429.97	5270.89
430.16	5343.44
430.34	5577.50
430.53	5788.14
430.72	5727.29
430.91	5479.19
431.10	5603.24
431.28	5797.51
431.47	5865.38
431.66	5891.13
431.85	5921.56
432.03	5928.58
432.22	6092.41
432.41	5893.47
432.60	6003.47
432.79	5877.09
432.97	5930.92
433.16	6010.50
433.35	6061.99
433.54	6120.50
433.72	6171.99
433.91	6078.37
434.10	6181.35
434.28	6061.99
434.47	6251.57
434.66	6406.05
434.85	6286.68
435.03	6291.36
435.22	6289.02
435.41	6555.84
435.59	6382.64
435.78	6576.91
435.97	6553.50
436.16	6389.66
436.34	6384.98
436.53	6478.60
436.72	6743.08
436.90	6558.18
437.09	6743.08
437.28	6677.55
437.46	6633.08
437.65	6839.05
437.84	6869.47
438.02	6803.94
438.21	6719.68
438.40	6747.76
438.58	6944.37
438.77	7052.03
438.96	6911.60
439.14	7178.42
439.33	7377.37
439.52	7358.64
439.70	7283.75
439.89	7499.08
440.08	7431.20
440.26	7590.36
440.45	7391.41
440.63	7229.91
440.82	7536.52
441.01	7524.82
441.19	7623.12
441.38	7796.32
441.57	7915.69
441.75	7843.14
441.94	7920.37
442.12	8070.17
442.31	8030.38
442.50	8173.15
442.68	8021.02
442.87	7955.48
443.05	8067.83
443.24	8430.61
443.43	8147.40
443.61	8250.39
443.80	8652.96
443.98	8046.76
444.17	7765.90
444.35	8374.44
444.54	8353.37
444.73	8524.23
444.91	8486.78
445.10	8503.17
445.28	8400.18
445.47	8304.22
445.65	8372.10
445.84	8491.46
446.02	8575.72
446.21	8564.02
446.39	8566.36
446.58	8482.10
446.77	8425.93
446.95	8339.33
447.14	8662.32
447.32	8821.48
447.51	8737.22
447.69	8571.04
447.88	8655.30
448.06	8582.74
448.25	8620.19
448.43	8812.12
448.62	8566.36
448.80	8498.49
448.99	8720.84
449.17	8840.20
449.36	8784.03
449.54	8901.06
449.73	8975.95
449.91	9142.13
450.10	9135.11
450.28	9160.86
450.46	9322.35
450.65	9228.73
450.83	9268.52
451.02	9116.39
451.20	9202.99
451.39	9310.65
451.57	9149.15
451.76	9172.56
451.94	9350.44
452.13	9401.93
452.31	9444.06
452.49	9163.20
452.68	9233.41
452.86	9493.21
453.05	9575.13
453.23	9430.02
453.42	9408.95
453.60	9533.00
453.78	9607.90
453.97	9401.93
454.15	9584.49
454.34	9664.07
454.52	9727.27
454.70	9703.86
454.89	9954.30
455.07	9724.93
455.26	10148.56
455.44	10171.97
455.62	10167.29
455.81	10052.60
455.99	10104.09
456.17	10319.42
456.36	10181.33
456.54	10260.91
456.73	10263.25
456.91	10597.95
457.09	10469.22
457.28	10796.89
457.46	10480.92
457.64	10633.05
457.83	10611.99
458.01	10441.13
458.19	10864.77
458.38	10761.78
458.56	10897.53
458.74	10839.02
458.93	10824.98
459.11	10679.86
459.29	10611.99
459.48	10977.11
459.66	11115.20
459.84	11063.71
460.03	10878.81
460.21	11297.77
460.39	11044.99
460.57	11030.94
460.76	11187.76
460.94	11243.93
461.12	11194.78
461.31	11356.28
461.49	11342.24
461.67	11428.84
461.85	11611.40
462.04	11393.73
462.22	11903.96
462.40	11822.05
462.59	11950.78
462.77	11377.34
462.95	11817.36
463.13	11772.89
463.32	11587.99
463.50	11939.07
463.68	11819.71
463.86	11950.78
464.05	11775.24
464.23	11723.74
464.41	12006.95
464.59	11850.13
464.78	12388.46
464.96	12369.73
465.14	11964.82
465.32	12170.79
465.50	12390.80
465.69	12299.52
465.87	12084.19
466.05	12215.26
466.23	12276.11
466.41	12374.41
466.60	12456.33
466.78	12451.65
466.96	12273.77
467.14	12428.24
467.32	12645.91
467.51	12587.40
467.69	12386.12
467.87	12617.83
468.05	12739.54
468.23	12517.18
468.41	12470.37
468.60	12821.45
468.78	13142.11
468.96	12521.87
469.14	12669.32
469.32	13214.66
469.50	12772.30
469.69	13128.06
469.87	13153.81
470.05	13256.79
470.23	13458.08
470.41	13296.58
470.59	13549.36
470.77	13481.49
470.95	13530.64
471.14	13603.19
471.32	13542.34
471.50	13685.11
471.68	13905.12
471.86	13930.87
472.04	13802.14
472.22	14410.68
472.40	13858.31
472.58	13905.12
472.77	13989.38
472.95	14263.22
473.13	14661.12
473.31	14253.86
473.49	14387.27
473.67	14363.87
473.85	14773.46
474.03	14700.90
474.21	14878.79
474.39	15021.56
474.57	14871.76
474.75	15049.64
474.93	15391.36
475.12	15126.88
475.30	15035.60
475.48	15229.87
475.66	15484.98
475.84	15494.35
476.02	15323.49
476.20	15543.50
476.38	15775.21
476.56	16046.71
476.74	16105.23
476.92	16039.69
477.10	16109.91
477.28	16210.55
477.46	16437.58
477.64	16449.28
477.82	16856.54
478.00	17369.12
478.18	17015.69
478.36	17011.01
478.54	17376.14
478.72	17518.91
478.90	17547.00
479.08	17619.55
479.26	17874.67
479.44	17951.91
479.62	17933.18
479.80	18382.57
479.98	18394.27
480.16	18764.07
480.34	18497.25
480.52	18871.74
480.70	18497.25
480.88	18553.43
481.06	18853.02
481.24	19033.24
481.41	19187.71
481.59	19737.74
481.77	19527.09
481.95	19777.53
482.13	20072.43
482.31	19917.96
482.49	20475.01
482.67	20414.15
482.85	20460.96
483.03	20835.45
483.21	21064.82
483.39	21256.75
483.57	21371.43
483.74	21635.91
483.92	21549.31
484.10	21305.90
484.28	21823.16
484.46	22113.38
484.64	22548.72
484.82	22267.86
485.00	22759.37
485.18	22836.61
485.35	23552.81
485.53	22988.74
485.71	23307.05
485.89	23796.23
486.07	23644.09
486.25	23513.02
486.43	23910.91
486.61	23929.64
486.78	23953.04
486.96	24634.14
487.14	24891.60
487.32	24744.14
487.50	24879.89
487.68	25474.39
487.85	25394.81
488.03	25659.29
488.21	26096.97
488.39	26071.23
488.57	26216.34
488.75	26260.81
488.92	26604.87
489.10	26878.71
489.28	26752.32
489.46	27419.38
489.64	27489.59
489.81	28147.28
489.99	27992.81
490.17	28048.98
490.35	28414.10
490.53	28697.31
490.70	29001.58
490.88	28498.36
491.06	28945.41
491.24	29163.08
491.41	29521.18
491.59	29359.68
491.77	29647.57
491.95	30012.69
492.13	30010.35
492.30	30354.41
492.48	30476.12
492.66	30471.43
492.84	30300.58
493.01	31262.54
493.19	31295.30
493.37	30904.43
493.54	31316.37
493.72	31601.91
493.90	31978.74
494.08	32355.57
494.25	32165.98
494.43	32781.54
494.61	32868.14
494.79	32608.34
494.96	32917.29
495.14	33467.32
495.32	33771.59
495.49	33315.19
495.67	33411.15
495.85	34359.06
496.02	34202.25
496.20	34347.36
496.38	34354.38
496.55	34155.44
496.73	35487.20
496.91	34988.67
497.09	35367.84
497.26	35505.93
497.44	34955.90
497.62	35674.45
497.79	35995.10
497.97	35739.98
498.14	36102.76
498.32	36453.84
498.50	36924.29
498.67	36947.70
498.85	36650.45
499.03	37031.96
499.20	37053.02
499.38	36994.51
499.56	37497.72
499.73	37343.25
499.91	37897.95
500.08	37996.26
500.26	38071.15
500.44	38005.62
500.61	38368.40
500.79	38129.67
500.97	38719.48
501.14	38806.08
501.32	38862.26
501.49	39016.73
501.67	38733.53
501.84	39533.99
502.02	39601.86
502.20	39517.60
502.37	39732.93
502.55	39433.35
502.72	39861.66
502.90	40053.59
503.07	40025.50
503.25	40320.41
503.43	40327.43
503.60	40524.04
503.78	40488.93
503.95	40879.80
504.13	40704.26
504.30	40987.46
504.48	40376.58
504.65	41471.95
504.83	41626.43
505.01	41500.04
505.18	41593.66
505.36	42153.05
505.53	41961.12
505.71	41790.27
505.88	42316.89
506.06	41816.01
506.23	42536.90
506.41	42113.26
506.58	42574.34
506.76	43065.86
506.93	43264.80
507.11	42801.38
507.28	43292.89
507.46	43309.27
507.63	43302.25
507.81	43840.57
507.98	43849.94
508.16	43587.80
508.33	44175.27
508.50	43803.13
508.68	43938.88
508.85	44123.78
509.03	44414.01
509.20	44500.61
509.38	44568.48
509.55	44587.21
509.73	44751.04
509.90	44893.82
510.08	45102.12
510.25	44898.50
510.42	45081.06
510.60	45172.34
510.77	45631.08
510.95	45844.07
511.12	45535.12
511.30	45647.47
511.47	46188.13
511.64	46190.47
511.82	46358.99
511.99	46162.39
512.17	47086.90
512.34	46223.24
512.51	46597.73
512.69	46581.34
512.86	46300.48
513.04	47199.24
513.21	47168.82
513.38	47110.30
513.56	47419.25
513.73	47161.79
513.90	47419.25
514.08	47468.40
514.25	47920.13
514.43	48067.58
514.60	47915.45
514.77	48198.65
514.95	48158.86
515.12	48098.01
515.29	48229.08
515.47	48460.79
515.64	48266.53
515.81	48203.33
515.99	48947.62
516.16	48671.44
516.33	49045.93
516.51	49052.95
516.68	48956.99
516.85	48809.53
517.03	49551.48
517.20	49373.60
517.37	49116.14
517.54	49478.92
517.72	49078.69
517.89	49415.73
518.06	49474.24
518.24	49607.65
518.41	49272.96
518.58	49457.86
518.75	49783.19
518.93	49881.50
519.10	49670.85
519.27	50052.36
519.45	49961.08
519.62	50162.36
519.79	50625.79
519.96	50403.44
520.14	50632.81
520.31	50403.44
520.48	50717.07
520.65	50920.70
520.83	50806.01
521.00	50869.20
521.17	50983.89
521.34	50789.62
521.52	51257.73
521.69	50979.21
521.86	51290.50
522.03	51538.60
522.20	51419.23
522.38	51744.56
522.55	51847.55
522.72	51477.74
522.89	51894.36
523.07	52074.58
523.24	51870.95
523.41	51882.66
523.58	52119.05
523.75	52460.77
523.92	52130.75
524.10	52388.21
524.27	52154.16
524.44	52406.94
524.61	52378.85
524.78	52406.94
524.96	52582.48
525.13	52825.89
525.30	52849.30
525.47	52926.53
525.64	52530.98
525.81	52844.62
525.98	53137.18
526.16	52809.51
526.33	53020.16
526.50	53457.84
526.67	53116.12
526.84	53352.51
527.01	53450.81
527.18	53038.88
527.36	53385.28
527.53	53378.26
527.70	53701.25
527.87	53656.78
528.04	53694.23
528.21	53741.04
528.38	53689.55
528.55	53806.58
528.72	53668.48
528.89	53776.15
529.07	53872.11
529.24	53638.06
529.41	54368.30
529.58	54150.63
529.75	54080.42
529.92	54122.55
530.09	54279.36
530.26	54396.39
530.43	54394.05
530.60	54408.09
530.77	54277.02
530.94	54473.63
531.11	54302.77
531.28	54253.62
531.46	54597.68
531.63	54513.42
531.80	54637.47
531.97	54740.45
532.14	54773.22
532.31	54915.99
532.48	54894.92
532.65	54632.78
532.82	54761.51
532.99	54876.20
533.16	54827.05
533.33	54993.23
533.50	55180.47
533.67	55166.43
533.84	55007.27
534.01	55110.25
534.18	55309.20
534.35	55543.25
534.52	55269.41
534.69	55508.14
534.86	55524.53
535.03	55192.17
535.20	55566.66
535.37	55667.30
535.54	55501.12
535.71	55505.80
535.88	55789.01
536.05	55730.50
536.22	55742.20
536.38	55753.90
536.55	55852.20
536.72	55891.99
536.89	55838.16
537.06	55973.91
537.23	55707.09
537.40	56158.81
537.57	55779.65
537.74	56046.47
537.91	56381.16
538.08	56097.96
538.25	55866.25
538.42	56229.03
538.59	56596.49
538.75	56367.12
538.92	56659.69
539.09	56610.54
539.26	56313.29
539.43	56397.55
539.60	56687.78
539.77	56537.98
539.94	56662.03
540.11	56629.26
540.28	56666.71
540.44	56828.21
540.61	56734.59
540.78	56699.48
540.95	56865.66
541.12	56973.32
541.29	56905.44
541.46	56919.49
541.62	56856.29
541.79	57085.67
541.96	56582.45
542.13	56989.70
542.30	57022.47
542.47	57326.74
542.63	57062.26
542.80	57048.22
542.97	57450.79
543.14	57490.58
543.31	57567.82
543.48	57450.79
543.64	57719.95
543.81	57633.35
543.98	57839.32
544.15	57616.97
544.32	57764.42
544.48	57888.47
544.65	57544.41
544.82	57631.01
544.99	57446.11
545.16	57851.02
545.32	57532.71
545.49	58049.97
545.66	58244.23
545.83	57822.93
546.00	58042.95
546.16	57888.47
546.33	57900.17
546.50	57822.93
546.67	58106.14
546.83	57682.50
547.00	58110.82
547.17	58066.35
547.34	57944.64
547.50	58080.39
547.67	58375.30
547.84	58138.91
548.00	58342.53
548.17	58536.80
548.34	58515.73
548.51	58749.79
548.67	58457.22
548.84	58520.41
549.01	58398.71
549.18	58628.08
549.34	58372.96
549.51	58438.50
549.68	58588.29
549.84	58710.00
550.01	58674.89
550.18	58555.52
550.34	58506.37
550.51	59002.56
550.68	58756.81
550.84	58436.16
551.01	58892.56
551.18	58618.72
551.34	58728.72
551.51	58911.28
551.68	58787.24
551.84	58808.30
552.01	58803.62
552.18	59018.95
552.34	58836.39
552.51	58915.96
552.68	58962.78
552.84	58967.46
553.01	59203.85
553.18	59110.23
553.34	59178.10
553.51	58850.43
553.67	59145.34
553.84	59196.83
554.01	59196.83
554.17	59051.72
554.34	59281.09
554.51	59278.75
554.67	59442.59
554.84	59377.05
555.00	59285.77
555.17	59206.19
555.33	59348.96
555.50	59318.54
555.67	59171.08
555.83	59402.80
556.00	59437.90
556.16	59838.14
556.33	59363.01
556.50	59482.37
556.66	59730.47
556.83	59456.63
556.99	59770.26
557.16	59791.33
557.32	59784.30
557.49	59882.61
557.65	59662.60
557.82	59599.40
557.98	59660.26
558.15	59821.75
558.32	60051.12
558.48	59721.11
558.65	59903.67
558.81	59613.44
558.98	59779.62
559.14	59856.86
559.31	59870.90
559.47	59952.82
559.64	60090.91
559.80	59788.98
559.97	60100.28
560.13	59955.16
560.30	60170.49
560.46	59941.12
560.63	60067.51
560.79	60058.15
560.96	60121.34
561.12	60308.58
561.29	60280.50
561.45	60065.17
561.61	60102.62
561.78	60111.98
561.94	60119.00
562.11	60076.87
562.27	60221.98
562.44	60257.09
562.60	60280.50
562.77	60465.40
562.93	60076.87
563.10	60268.79
563.26	60245.39
563.42	60568.38
563.59	60285.18
563.75	60252.41
563.92	60254.75
564.08	60299.22
564.24	60219.64
564.41	60439.65
564.57	60254.75
564.74	60439.65
564.90	60374.12
565.07	60404.55
565.23	60350.71
565.39	60350.71
565.56	60596.47
565.72	60261.77
565.88	60413.91
566.05	60268.79
566.21	60554.34
566.38	60654.98
566.54	60465.40
566.70	60608.17
566.87	60514.55
567.03	60526.25
567.19	60711.16
567.36	60694.77
567.52	60523.91
567.68	60704.13
567.85	60764.99
568.01	60687.75
568.17	60598.81
568.34	60563.70
568.50	60575.40
568.66	60542.64
568.83	60577.75
568.99	60465.40
569.15	60629.24
569.32	60650.30
569.48	60720.52
569.64	60823.50
569.81	60872.65
569.97	60811.80
570.13	60760.31
570.30	60706.47
570.46	60821.16
570.62	60928.83
570.78	60781.37
570.95	60828.18
571.11	60734.56
571.27	60804.78
571.43	60912.44
571.60	60992.02
571.76	60720.52
571.92	60980.32
572.09	60874.99
572.25	60912.44
572.41	60776.69
572.57	60870.31
572.74	61041.17
572.90	60872.65
573.06	60966.27
573.22	60849.25
573.38	60877.33
573.55	60889.04
573.71	61066.92
573.87	60891.38
574.03	60912.44
574.20	60992.02
574.36	60931.17
574.52	61036.49
574.68	61118.41
574.84	61169.90
575.01	61176.92
575.17	61020.11
575.33	61036.49
575.49	60863.29
575.65	61132.45
575.82	61099.68
575.98	61141.81
576.14	61073.94
576.30	61125.43
576.46	61076.28
576.62	61083.30
576.79	61066.92
576.95	60722.86
577.11	61130.11
577.27	60985.00
577.43	61010.74
577.59	60863.29
577.75	61076.28
577.92	61055.21
578.08	61045.85
578.24	61017.77
578.40	61137.13
578.56	61130.11
578.72	61151.18
578.88	61282.25
579.04	61340.76
579.21	61027.13
579.37	61212.03
579.53	61329.06
579.69	61087.98
579.85	60931.17
580.01	61010.74
580.17	60961.59
580.33	61190.97
580.49	61221.39
580.65	61202.67
580.82	61099.68
580.98	61052.87
581.14	61125.43
581.30	61326.72
581.46	61258.84
581.62	61120.75
581.78	61080.96
581.94	61132.45
582.10	61268.20
582.26	61071.60
582.42	61057.56
582.58	61155.86
582.74	61080.96
582.90	61036.49
583.06	61214.37
583.22	61160.54
583.38	61329.06
583.54	61380.55
583.70	61338.42
583.86	61216.71
584.02	61031.81
584.18	61134.79
584.34	60992.02
584.50	61380.55
584.66	61221.39
584.82	61010.74
584.98	61352.46
585.14	61258.84
585.30	61207.35
585.46	61347.78
585.62	61272.88
585.78	61277.57
585.94	60912.44
586.10	61090.32
586.26	61322.04
586.42	61415.66
586.58	61340.76
586.74	61219.05
586.90	61174.58
587.06	61237.78
587.22	61457.79
587.38	61307.99
587.54	61343.10
587.70	61443.74
587.86	61270.54
588.02	61371.19
588.18	61558.43
588.34	61354.80
