SpectraSuite Data File
++++++++++++++++++++++++++++++++++++
Date: Fri Oct 25 11:25:50 EDT 2013
User: price-jones
Dark Spectrum Present: No
Reference Spectrum Present: No
Number of Sampled Component Spectra: 1
Spectrometers: USB2+H05261
Integration Time (usec): 100000 (USB2+H05261)
Spectra Averaged: 1 (USB2+H05261)
Boxcar Smoothing: 0 (USB2+H05261)
Correct for Electrical Dark: No (USB2+H05261)
Strobe/Lamp Enabled: No (USB2+H05261)
Correct for Detector Non-linearity: No (USB2+H05261)
Correct for Stray Light: No (USB2+H05261)
Number of Pixels in Processed Spectrum: 2048
>>>>>Begin Processed Spectral Data<<<<<
365.73	259.80
365.92	259.80
366.12	259.80
366.32	156.82
366.52	79.58
366.72	177.88
366.91	131.07
367.11	147.45
367.31	131.07
367.51	98.30
367.70	133.41
367.90	145.11
368.10	131.07
368.30	65.54
368.49	222.35
368.69	173.20
368.89	161.50
369.09	142.77
369.28	168.52
369.48	236.39
369.68	112.35
369.87	231.71
370.07	201.29
370.27	217.67
370.47	301.93
370.66	636.63
370.86	638.97
371.06	650.67
371.25	692.80
371.45	629.60
371.65	669.39
371.84	674.07
372.04	748.97
372.24	798.12
372.44	664.71
372.63	739.61
372.83	751.31
373.03	763.01
373.22	704.50
373.42	800.46
373.62	840.25
373.81	814.51
374.01	844.93
374.21	812.17
374.40	809.83
374.60	866.00
374.79	821.53
374.99	870.68
375.19	842.59
375.38	800.46
375.58	856.64
375.78	901.11
375.97	866.00
376.17	842.59
376.37	809.83
376.56	875.36
376.76	858.98
376.95	910.47
377.15	884.72
377.35	903.45
377.54	992.39
377.74	889.40
377.93	896.43
378.13	1013.45
378.33	959.62
378.52	849.61
378.72	971.32
378.91	882.38
379.11	931.53
379.31	898.77
379.50	980.68
379.70	1088.35
379.89	985.37
380.09	919.83
380.28	887.06
380.48	957.28
380.68	990.05
380.87	1036.86
381.07	1078.99
381.26	1067.28
381.46	987.71
381.65	983.02
381.85	954.94
382.04	1083.67
382.24	1088.35
382.43	1001.75
382.63	1029.84
382.83	1123.46
383.02	1022.81
383.22	1132.82
383.41	1039.20
383.61	1095.37
383.80	1137.50
384.00	1181.97
384.19	1081.33
384.39	1102.39
384.58	1160.91
384.78	1097.71
384.97	1289.64
385.17	1167.93
385.36	1170.27
385.56	1203.04
385.75	1104.73
385.95	1132.82
386.14	1280.27
386.34	1181.97
386.53	1263.89
386.72	1174.95
386.92	1193.67
387.11	1247.51
387.31	1156.22
387.50	1193.67
387.70	1242.82
387.89	1219.42
388.09	1219.42
388.28	1411.34
388.48	1282.61
388.67	1235.80
388.86	1376.24
389.06	1362.19
389.25	1364.53
389.45	1350.49
389.64	1338.79
389.84	1387.94
390.03	1385.60
390.22	1364.53
390.42	1310.70
390.61	1303.68
390.81	1369.21
391.00	1371.55
391.19	1413.68
391.39	1404.32
391.58	1474.54
391.78	1483.90
391.97	1511.99
392.16	1413.68
392.36	1607.95
392.55	1579.86
392.75	1619.65
392.94	1612.63
393.13	1554.12
393.33	1509.65
393.52	1509.65
393.71	1577.52
393.91	1551.78
394.10	1516.67
394.29	1535.39
394.49	1551.78
394.68	1650.08
394.88	1720.29
395.07	1603.27
395.26	1612.63
395.46	1650.08
395.65	1650.08
395.84	1703.91
396.04	1879.45
396.23	1678.16
396.42	1849.02
396.62	1764.76
396.81	1776.47
397.00	1764.76
397.19	1849.02
397.39	1713.27
397.58	1795.19
397.77	1776.47
397.97	1809.23
398.16	1893.49
398.35	1858.39
398.55	1933.28
398.74	1942.64
398.93	2017.54
399.12	1961.37
399.32	1851.36
399.51	1940.30
399.70	2026.90
399.90	1961.37
400.09	1966.05
400.28	2031.58
400.47	2057.33
400.67	2118.18
400.86	2094.78
401.05	2045.63
401.24	2073.71
401.44	2129.89
401.63	2153.29
401.82	2045.63
402.01	2120.53
402.21	2169.68
402.40	2167.34
402.59	2197.76
402.78	2172.02
402.97	2207.13
403.17	2319.47
403.36	2284.36
403.55	2162.66
403.74	2403.73
403.93	2347.56
404.13	2385.01
404.32	2352.24
404.51	2377.98
404.70	2413.09
404.89	2455.22
405.09	2438.84
405.28	2443.52
405.47	2438.84
405.66	2462.24
405.85	2567.57
406.05	2518.42
406.24	2530.12
406.43	2509.05
406.62	2602.68
406.81	2733.75
407.00	2651.83
407.20	2637.78
407.39	2640.12
407.58	2682.25
407.77	2766.51
407.96	2764.17
408.15	2813.32
408.34	2593.31
408.54	2892.90
408.73	2855.45
408.92	2920.99
409.11	2848.43
409.30	2803.96
409.49	2839.07
409.68	2928.01
409.87	2932.69
410.07	2928.01
410.26	3007.59
410.45	2977.16
410.64	3059.08
410.83	3131.64
411.02	3033.33
411.21	3183.13
411.40	3148.02
411.59	3318.88
411.78	3173.77
411.98	3110.57
412.17	3204.19
412.36	3433.57
412.55	3382.07
412.74	3353.99
412.93	3574.00
413.12	3499.10
413.31	3552.93
413.50	3527.19
413.69	3508.46
413.88	3529.53
414.07	3595.06
414.26	3543.57
414.45	3555.27
414.64	3684.00
414.83	3655.92
415.02	3695.71
415.22	3775.28
415.41	3840.82
415.60	3723.79
415.79	3988.27
415.98	4049.13
416.17	4079.55
416.36	3960.19
416.55	3990.61
416.74	3934.44
416.93	4266.80
417.12	4081.89
417.31	4112.32
417.50	4098.28
417.69	4187.22
417.88	4243.39
418.07	4229.35
418.26	4315.95
418.45	4369.78
418.64	4533.62
418.83	4264.46
419.02	4456.38
419.21	4432.97
419.39	4624.90
419.58	4365.10
419.77	4540.64
419.96	4575.75
420.15	4681.07
420.34	4580.43
420.53	4760.65
420.72	4592.13
420.91	4713.84
421.10	4706.82
421.29	4755.97
421.48	4809.80
421.67	4767.67
421.86	4720.86
422.05	4760.65
422.24	4844.91
422.43	4880.02
422.61	4833.21
422.80	4826.18
422.99	4903.42
423.18	5128.11
423.37	5055.56
423.56	4987.68
423.75	4894.06
423.94	4943.21
424.13	4573.41
424.32	4861.29
424.50	4980.66
424.69	4978.32
424.88	5130.45
425.07	4774.69
425.26	4821.50
425.45	4891.72
425.64	4931.51
425.83	4968.96
426.01	4968.96
426.20	5034.49
426.39	5093.01
426.58	4975.98
426.77	5107.05
426.96	5214.71
427.15	5156.20
427.33	5172.58
427.52	5184.29
427.71	5116.41
427.90	5320.04
428.09	5226.42
428.28	5472.17
428.46	5352.81
428.65	5343.44
428.84	5493.24
429.03	5425.36
429.22	5338.76
429.40	5511.96
429.59	5397.28
429.78	5308.34
429.97	5238.12
430.16	5488.56
430.34	5640.69
430.53	5638.35
430.72	5572.82
430.91	5687.50
431.10	5654.73
431.28	5657.07
431.47	5603.24
431.66	5830.27
431.85	5792.83
432.03	5891.13
432.22	5968.37
432.41	5827.93
432.60	5818.57
432.79	6031.56
432.97	5893.47
433.16	5827.93
433.35	6010.50
433.54	6108.80
433.72	6155.61
433.91	6129.86
434.10	6179.01
434.28	6162.63
434.47	6239.87
434.66	6251.57
434.85	6282.00
435.03	6253.91
435.22	6083.05
435.41	6534.78
435.59	6373.28
435.78	6237.53
435.97	6394.34
436.16	6225.82
436.34	6471.58
436.53	6345.19
436.72	6719.68
436.90	6490.31
437.09	6754.79
437.28	6544.14
437.46	6560.52
437.65	6511.37
437.84	6827.34
438.02	6703.29
438.21	6651.80
438.40	6729.04
438.58	7045.01
438.77	7145.66
438.96	6991.18
439.14	7136.29
439.33	7016.93
439.52	7117.57
439.70	6991.18
439.89	7363.33
440.08	7332.90
440.26	7360.98
440.45	7190.13
440.63	7302.47
440.82	7726.11
441.01	7480.35
441.19	7557.59
441.38	7609.08
441.57	7726.11
441.75	7719.09
441.94	7737.81
442.12	7826.75
442.31	8009.31
442.50	7969.52
442.68	7901.65
442.87	8051.44
443.05	8088.89
443.24	8149.75
443.43	8067.83
443.61	8053.78
443.80	8549.98
443.98	8226.98
444.17	7810.37
444.35	8065.49
444.54	8437.63
444.73	8411.89
444.91	8334.65
445.10	8236.35
445.28	8454.02
445.47	8098.25
445.65	8208.26
445.84	8430.61
446.02	8535.93
446.21	8414.23
446.39	8402.52
446.58	8318.26
446.77	8393.16
446.95	8187.19
447.14	8477.42
447.32	8533.59
447.51	8332.31
447.69	8519.55
447.88	8463.38
448.06	8519.55
448.25	8379.12
448.43	8411.89
448.62	8599.13
448.80	8713.81
448.99	8596.79
449.17	8891.70
449.36	8641.26
449.54	8814.46
449.73	8805.10
449.91	9057.87
450.10	8957.23
450.28	9097.66
450.46	9043.83
450.65	8940.85
450.83	9062.55
451.02	8954.89
451.20	9170.22
451.39	9081.28
451.57	9392.57
451.76	9046.17
451.94	9137.45
452.13	9219.37
452.31	9394.91
452.49	9125.75
452.68	9280.22
452.86	9387.89
453.05	9261.50
453.23	9294.27
453.42	9497.89
453.60	9441.72
453.78	9589.17
453.97	9266.18
454.15	9430.02
454.34	9535.34
454.52	9809.19
454.70	9802.16
454.89	9837.27
455.07	9783.44
455.26	9638.33
455.44	9654.71
455.62	9874.72
455.81	10045.58
455.99	10087.71
456.17	9998.77
456.36	10026.86
456.54	10293.68
456.73	10040.90
456.91	10312.40
457.09	10377.94
457.28	10544.11
457.46	10443.47
457.64	10593.26
457.83	10490.28
458.01	10403.68
458.19	10794.55
458.38	10506.66
458.56	10721.99
458.74	10600.29
458.93	10696.25
459.11	10544.11
459.29	10775.83
459.48	10771.15
459.66	10853.06
459.84	10869.45
460.03	11143.29
460.21	11028.60
460.39	10958.39
460.57	10942.00
460.76	11066.05
460.94	11122.23
461.12	11145.63
461.31	11147.97
461.49	11154.99
461.67	11143.29
461.85	11393.73
462.04	11372.66
462.22	11782.26
462.40	11545.86
462.59	11370.32
462.77	11482.67
462.95	11765.87
463.13	11578.63
463.32	11440.54
463.50	11974.18
463.68	11831.41
463.86	11826.73
464.05	11620.76
464.23	11812.68
464.41	11957.80
464.59	11623.10
464.78	12315.90
464.96	11981.20
465.14	11939.07
465.32	11946.09
465.50	11892.26
465.69	12121.63
465.87	12109.93
466.05	12147.38
466.23	12063.12
466.41	12002.27
466.60	12299.52
466.78	12030.35
466.96	12170.79
467.14	12217.60
467.32	12224.62
467.51	12484.42
467.69	12147.38
467.87	12547.61
468.05	12622.51
468.23	12517.18
468.41	12229.30
468.60	12545.27
468.78	12720.81
468.96	12540.59
469.14	12662.30
469.32	12851.88
469.50	12629.53
469.69	12959.55
469.87	13221.69
470.05	12966.57
470.23	13144.45
470.41	12957.21
470.59	13397.23
470.77	13043.81
470.95	13135.09
471.14	13699.16
471.32	12987.63
471.50	13774.05
471.68	13483.83
471.86	13888.74
472.04	13671.07
472.22	13776.39
472.40	13530.64
472.58	13884.06
472.77	14003.43
472.95	14010.45
473.13	14569.83
473.31	14148.54
473.49	14022.15
473.67	14029.17
473.85	14223.44
474.03	14567.49
474.21	14670.48
474.39	14714.95
474.57	14686.86
474.75	15021.56
474.93	14801.55
475.12	14778.14
475.30	14944.32
475.48	15101.14
475.66	15227.53
475.84	15035.60
476.02	15358.60
476.20	15344.55
476.38	15646.48
476.56	16189.49
476.74	15896.92
476.92	15688.61
477.10	15733.08
477.28	16233.96
477.46	16163.74
477.64	16358.00
477.82	16652.91
478.00	16968.88
478.18	16826.11
478.36	16655.25
478.54	17191.23
478.72	17036.76
478.90	17219.32
479.08	17458.06
479.26	17642.96
479.44	17607.85
479.62	17832.54
479.80	17909.78
479.98	17923.82
480.16	18635.35
480.34	18370.86
480.52	18558.11
480.70	18473.85
480.88	18075.96
481.06	18993.45
481.24	18799.18
481.41	19358.57
481.59	19262.61
481.77	19433.47
481.95	19433.47
482.13	19477.94
482.31	19616.03
482.49	20411.81
482.67	19826.68
482.85	20664.59
483.03	20552.24
483.21	20533.52
483.39	21034.39
483.57	20844.81
483.74	20903.32
483.92	21146.74
484.10	21273.13
484.28	21458.03
484.46	21926.14
484.64	22218.71
484.82	21661.66
485.00	22642.34
485.18	22745.33
485.35	23168.96
485.53	22750.01
485.71	22876.40
485.89	23435.78
486.07	22909.16
486.25	23344.50
486.43	23583.24
486.61	23697.92
486.78	24224.54
486.96	24154.33
487.14	24601.37
487.32	24236.25
487.50	24954.79
487.68	24753.51
487.85	25216.93
488.03	25348.00
488.21	26167.19
488.39	25654.61
488.57	26129.74
488.75	25968.24
488.92	26668.06
489.10	26675.09
489.28	26654.02
489.46	27269.58
489.64	26909.14
489.81	27634.71
489.99	27508.32
490.17	27658.11
490.35	27960.04
490.53	28011.53
490.70	28182.39
490.88	28243.24
491.06	28173.03
491.24	28753.48
491.41	28947.75
491.59	29062.43
491.77	29399.47
491.95	29699.06
492.13	29598.41
492.30	29942.47
492.48	29820.77
492.66	30223.34
492.84	30043.12
493.01	30747.62
493.19	30410.58
493.37	30733.57
493.54	30843.58
493.72	31400.63
493.90	31206.36
494.08	31580.85
494.25	31931.93
494.43	32259.60
494.61	32053.64
494.79	32559.19
494.96	32486.64
495.14	32641.11
495.32	32975.81
495.49	33118.58
495.67	33654.56
495.85	33612.43
496.02	33610.09
496.20	34227.99
496.38	33979.90
496.55	34279.49
496.73	34588.44
496.91	34274.80
497.09	34799.08
497.26	34815.47
497.44	34660.99
497.62	35309.32
497.79	35934.24
497.97	35271.87
498.14	35920.20
498.32	36201.07
498.50	36180.00
498.67	36671.51
498.85	36643.43
499.03	36608.32
499.20	36634.06
499.38	36823.65
499.56	36804.92
499.73	37151.32
499.91	37113.87
500.08	37474.32
500.26	37493.04
500.44	38064.13
500.61	37724.75
500.79	37858.17
500.97	38227.97
501.14	38693.74
501.32	38361.38
501.49	38597.77
501.67	38417.55
501.84	38714.80
502.02	38857.57
502.20	38883.32
502.37	39147.80
502.55	39227.38
502.72	39262.49
502.90	39353.77
503.07	39147.80
503.25	39800.81
503.43	39234.40
503.60	39770.38
503.78	40144.87
503.95	40051.25
504.13	40369.56
504.30	40711.28
504.48	40793.20
504.65	40863.41
504.83	41003.85
505.01	41008.53
505.18	41038.95
505.36	41743.45
505.53	41212.15
505.71	41759.84
505.88	41357.27
506.06	41247.26
506.23	41476.63
506.41	41743.45
506.58	41982.19
506.76	41958.78
506.93	42321.57
507.11	41991.55
507.28	42323.91
507.46	42607.11
507.63	43103.31
507.81	43363.11
507.98	42679.67
508.16	42609.45
508.33	42972.24
508.50	43468.43
508.68	43435.66
508.85	44172.93
509.03	43686.10
509.20	44116.76
509.38	44215.06
509.55	44481.88
509.73	44444.43
509.90	44423.37
510.08	44500.61
510.25	44472.52
510.42	44289.96
510.60	44706.57
510.77	45106.80
510.95	45277.66
511.12	45148.93
511.30	45015.52
511.47	45052.97
511.64	45408.73
511.82	45633.42
511.99	45977.48
512.17	45801.94
512.34	45485.97
512.51	46176.43
512.69	46394.10
512.86	46253.67
513.04	46887.95
513.21	46155.36
513.38	46794.33
513.56	46639.86
513.73	46759.22
513.90	46667.94
514.08	46679.64
514.25	47491.81
514.43	47426.28
514.60	47536.28
514.77	47203.92
514.95	47721.18
515.12	47744.59
515.29	47672.03
515.47	47803.10
515.64	48114.39
515.81	47475.43
515.99	47856.93
516.16	48325.04
516.33	48002.05
516.51	48872.73
516.68	48437.39
516.85	48449.09
517.03	48746.34
517.20	48758.04
517.37	48470.15
517.54	48900.81
517.72	48865.70
517.89	49174.66
518.06	49188.70
518.24	48987.41
518.41	49186.36
518.58	49090.40
518.75	49581.91
518.93	49242.53
519.10	49478.92
519.27	49345.51
519.45	49404.03
519.62	49720.00
519.79	49766.81
519.96	49986.82
520.14	50012.57
520.31	49778.51
520.48	50241.94
520.65	49998.52
520.83	50602.38
521.00	50454.93
521.17	50309.82
521.34	50466.63
521.52	50564.93
521.69	50717.07
521.86	51082.19
522.03	50864.52
522.20	51222.62
522.38	51391.14
522.55	51313.90
522.72	51260.07
522.89	51227.31
523.07	51723.50
523.24	51210.92
523.41	51540.94
523.58	51332.63
523.75	51868.61
523.92	51643.92
524.10	51657.96
524.27	51763.29
524.44	52041.81
524.61	52074.58
524.78	51786.69
524.96	52711.20
525.13	52231.40
525.30	52224.37
525.47	52229.05
525.64	52399.91
525.81	52350.76
525.98	52500.56
526.16	52671.42
526.33	52612.90
526.50	52837.59
526.67	52823.55
526.84	52699.50
527.01	52435.02
527.18	52823.55
527.36	52844.62
527.53	52987.39
527.70	53085.69
527.87	53226.12
528.04	52788.44
528.21	53308.04
528.38	53059.94
528.55	53635.72
528.72	53448.47
528.89	53469.54
529.07	53343.15
529.24	53488.26
529.41	53715.29
529.58	53521.03
529.75	53755.08
529.92	53923.60
530.09	53741.04
530.26	54012.54
530.43	53916.58
530.60	53883.81
530.77	53780.83
530.94	54024.25
531.11	54049.99
531.28	53841.68
531.46	53886.15
531.63	54234.89
531.80	54040.63
531.97	54639.81
532.14	54433.84
532.31	54258.30
532.48	54583.63
532.65	54595.34
532.82	54279.36
532.99	54749.81
533.16	54300.43
533.33	54651.51
533.50	54789.60
533.67	54646.83
533.84	54607.04
534.01	54852.80
534.18	54892.58
534.35	55231.96
534.52	55051.74
534.69	55295.16
534.86	55126.64
535.03	55093.87
535.20	55063.44
535.37	54932.37
535.54	55168.77
535.71	55140.68
535.88	55313.88
536.05	55435.59
536.22	55412.18
536.38	55440.27
536.55	55407.50
536.72	55604.11
536.89	55330.26
537.06	55318.56
537.23	55707.09
537.40	55496.44
537.57	55580.70
537.74	55627.51
537.91	55915.40
538.08	55896.67
538.25	55674.32
538.42	56055.83
538.59	56107.32
538.75	55758.58
538.92	55978.59
539.09	56013.70
539.26	56048.81
539.43	55952.85
539.60	56339.04
539.77	56060.51
539.94	56580.11
540.11	56348.40
540.28	56280.52
540.44	56687.78
540.61	56264.14
540.78	56219.67
540.95	56392.87
541.12	56378.82
541.29	56320.31
541.46	56456.06
541.62	56411.59
541.79	56383.51
541.96	56306.27
542.13	56516.92
542.30	56582.45
542.47	56809.48
542.63	56657.35
542.80	56905.44
542.97	57031.83
543.14	57076.30
543.31	57223.76
543.48	57176.95
543.64	57378.23
543.81	57326.74
543.98	57509.30
544.15	57153.54
544.32	57296.31
544.48	57427.38
544.65	57408.66
544.82	57296.31
544.99	57015.45
545.16	57518.67
545.32	57504.62
545.49	57752.72
545.66	57670.80
545.83	57752.72
546.00	57907.19
546.16	57588.88
546.33	57364.19
546.50	57251.84
546.67	57628.67
546.83	57420.36
547.00	57656.76
547.17	57574.84
547.34	57715.27
547.50	57776.12
547.67	58078.05
547.84	57923.58
548.00	57989.11
548.17	58080.39
548.34	57876.77
548.51	58113.16
548.67	58234.87
548.84	57961.03
549.01	57939.96
549.18	58094.44
549.34	58064.01
549.51	58255.93
549.68	58269.98
549.84	58265.30
550.01	58159.97
550.18	58134.23
550.34	58541.48
550.51	58485.31
550.68	58351.90
550.84	58035.92
551.01	58473.60
551.18	58396.37
551.34	58347.21
551.51	58504.03
551.68	58618.72
551.84	58539.14
552.01	58417.43
552.18	58656.17
552.34	58525.10
552.51	58574.25
552.68	58518.07
552.84	58672.55
553.01	58930.01
553.18	58674.89
553.34	58719.36
553.51	58567.23
553.67	58672.55
553.84	58817.66
554.01	58787.24
554.17	59023.63
554.34	58869.15
554.51	58773.19
554.67	59210.87
554.84	58930.01
555.00	58871.49
555.17	58553.18
555.33	58850.43
555.50	58681.91
555.67	58857.45
555.83	58941.71
556.00	59103.21
556.16	59374.71
556.33	59178.10
556.50	59063.42
556.66	59264.70
556.83	59000.22
556.99	59290.45
557.16	59398.12
557.32	59428.54
557.49	59463.65
557.65	59180.45
557.82	59196.83
557.98	59213.21
558.15	59260.02
558.32	59463.65
558.48	59377.05
558.65	59468.33
558.81	59456.63
558.98	59379.39
559.14	59620.47
559.31	59604.08
559.47	59458.97
559.64	59561.95
559.80	59477.69
559.97	59723.45
560.13	59512.80
560.30	59604.08
560.46	59547.91
560.63	59657.91
560.79	59840.48
560.96	59489.40
561.12	59625.15
561.29	59737.49
561.45	59831.11
561.61	59833.46
561.78	59622.81
561.94	59796.01
562.11	59671.96
562.27	59784.30
562.44	59861.54
562.60	59978.57
562.77	59639.19
562.93	59716.43
563.10	60025.38
563.26	59810.05
563.42	60189.22
563.59	60011.34
563.75	60135.38
563.92	60114.32
564.08	59882.61
564.24	60292.20
564.41	60140.07
564.57	60137.72
564.74	59990.27
564.90	59941.12
565.07	60067.51
565.23	59983.25
565.39	60123.68
565.56	60067.51
565.72	60009.00
565.88	60126.02
566.05	60109.64
566.21	60041.76
566.38	60067.51
566.54	60179.85
566.70	60395.18
566.87	60280.50
567.03	60238.37
567.19	60385.82
567.36	60221.98
567.52	60170.49
567.68	60516.89
567.85	60341.35
568.01	60355.39
568.17	60278.16
568.34	60364.76
568.50	60273.48
568.66	60161.13
568.83	60580.09
568.99	60282.84
569.15	60369.44
569.32	60252.41
569.48	60465.40
569.64	60526.25
569.81	60278.16
569.97	60362.42
570.13	60388.16
570.30	60456.04
570.46	60608.17
570.62	60254.75
570.78	60406.89
570.95	60339.01
571.11	60596.47
571.27	60317.95
571.43	60584.77
571.60	60598.81
571.76	60392.84
571.92	60556.68
572.09	60378.80
572.25	60420.93
572.41	60570.72
572.57	60348.37
572.74	60636.26
572.90	60542.64
573.06	60533.28
573.22	60612.85
573.38	60559.02
573.55	60615.19
573.71	60736.90
573.87	60521.57
574.03	60573.06
574.20	60659.66
574.36	60559.02
574.52	60767.33
574.68	60664.35
574.84	60640.94
575.01	60481.78
575.17	60575.40
575.33	60610.51
575.49	60659.66
575.65	60573.06
575.82	60748.60
575.98	60739.24
576.14	60921.80
576.30	60654.98
576.46	60708.82
576.62	60708.82
576.79	60760.31
576.95	60598.81
577.11	60722.86
577.27	60743.92
577.43	60781.37
577.59	60416.25
577.75	60624.56
577.92	60683.07
578.08	60734.56
578.24	60732.22
578.40	60928.83
578.56	60947.55
578.72	60762.65
578.88	60879.67
579.04	61006.06
579.21	61006.06
579.37	60933.51
579.53	60835.20
579.69	60575.40
579.85	60816.48
580.01	60528.59
580.17	60687.75
580.33	60882.02
580.49	60940.53
580.65	60886.70
580.82	60800.10
580.98	60973.30
581.14	60722.86
581.30	60898.40
581.46	61013.08
581.62	60816.48
581.78	60645.62
581.94	60935.85
582.10	60811.80
582.26	60975.64
582.42	60699.45
582.58	60884.36
582.74	60860.95
582.90	60849.25
583.06	60739.24
583.22	60612.85
583.38	60788.39
583.54	60882.02
583.70	60924.14
583.86	60842.23
584.02	60734.56
584.18	61006.06
584.34	60914.78
584.50	61099.68
584.66	60947.55
584.82	60727.54
584.98	61113.73
585.14	60992.02
585.30	60898.40
585.46	61083.30
585.62	60940.53
585.78	61048.19
585.94	60795.42
586.10	60961.59
586.26	61109.05
586.42	60940.53
586.58	61258.84
586.74	61151.18
586.90	60912.44
587.06	60963.93
587.22	61062.24
587.38	60853.93
587.54	61169.90
587.70	61212.03
587.86	61048.19
588.02	61001.38
588.18	61186.28
588.34	60926.49
588.49	60940.53
