SpectraSuite Data File
++++++++++++++++++++++++++++++++++++
Date: Fri Oct 25 10:43:24 EDT 2013
User: price-jones
Dark Spectrum Present: No
Reference Spectrum Present: No
Number of Sampled Component Spectra: 1
Spectrometers: USB2+H05261
Integration Time (usec): 100000 (USB2+H05261)
Spectra Averaged: 1 (USB2+H05261)
Boxcar Smoothing: 0 (USB2+H05261)
Correct for Electrical Dark: No (USB2+H05261)
Strobe/Lamp Enabled: No (USB2+H05261)
Correct for Detector Non-linearity: No (USB2+H05261)
Correct for Stray Light: No (USB2+H05261)
Number of Pixels in Processed Spectrum: 2048
>>>>>Begin Processed Spectral Data<<<<<
365.73	53.83
365.92	53.83
366.12	53.83
366.32	35.11
366.52	14.04
366.72	102.98
366.91	0.00
367.11	0.00
367.31	21.06
367.51	18.72
367.70	0.00
367.90	16.38
368.10	28.09
368.30	16.38
368.49	37.45
368.69	4.68
368.89	81.92
369.09	7.02
369.28	37.45
369.48	70.22
369.68	35.11
369.87	67.88
370.07	84.26
370.27	117.03
370.47	161.50
370.66	358.10
370.86	491.51
371.06	472.79
371.25	489.17
371.45	390.87
371.65	463.43
371.84	397.89
372.04	475.13
372.24	493.85
372.44	447.04
372.63	475.13
372.83	468.11
373.03	463.43
373.22	510.24
373.42	519.60
373.62	507.90
373.81	526.62
374.01	580.45
374.21	524.28
374.40	519.60
374.60	606.20
374.79	503.22
374.99	641.31
375.19	589.82
375.38	559.39
375.58	552.37
375.78	606.20
375.97	557.05
376.17	688.12
376.37	575.77
376.56	594.50
376.76	517.26
376.95	627.26
377.15	641.31
377.35	629.60
377.54	671.73
377.74	617.90
377.93	643.65
378.13	610.88
378.33	624.92
378.52	585.13
378.72	631.94
378.91	685.78
379.11	638.97
379.31	662.37
379.50	620.24
379.70	706.84
379.89	638.97
380.09	594.50
380.28	678.76
380.48	688.12
380.68	681.10
380.87	695.14
381.07	653.01
381.26	751.31
381.46	737.27
381.65	660.03
381.85	706.84
382.04	727.91
382.24	704.50
382.43	697.48
382.63	662.37
382.83	674.07
383.02	716.20
383.22	772.38
383.41	784.08
383.61	657.69
383.80	732.59
384.00	791.10
384.19	758.33
384.39	741.95
384.58	795.78
384.78	873.02
384.97	767.70
385.17	819.19
385.36	798.12
385.56	763.01
385.75	784.08
385.95	830.89
386.14	819.19
386.34	887.06
386.53	795.78
386.72	777.06
386.92	842.59
387.11	866.00
387.31	821.53
387.50	805.14
387.70	791.10
387.89	884.72
388.09	858.98
388.28	840.25
388.48	816.85
388.67	936.21
388.86	931.53
389.06	1022.81
389.25	898.77
389.45	987.71
389.64	983.02
389.84	1064.94
390.03	976.00
390.22	1041.54
390.42	940.90
390.61	945.58
390.81	908.13
391.00	1050.90
391.19	971.32
391.39	1064.94
391.58	994.73
391.78	1100.05
391.97	1036.86
392.16	1123.46
392.36	1034.52
392.55	1015.79
392.75	968.98
392.94	924.51
393.13	1018.13
393.33	1006.43
393.52	1057.92
393.71	1160.91
393.91	1104.73
394.10	1149.20
394.29	1118.78
394.49	1137.50
394.68	1142.18
394.88	1266.23
395.07	1277.93
395.26	1191.33
395.46	1219.42
395.65	1277.93
395.84	1170.27
396.04	1299.00
396.23	1130.48
396.42	1102.39
396.62	1219.42
396.81	1172.61
397.00	1217.08
397.19	1242.82
397.39	1263.89
397.58	1306.02
397.77	1364.53
397.97	1343.47
398.16	1317.72
398.35	1296.66
398.55	1434.75
398.74	1420.71
398.93	1476.88
399.12	1455.81
399.32	1455.81
399.51	1493.26
399.70	1589.22
399.90	1537.73
400.09	1511.99
400.28	1572.84
400.47	1589.22
400.67	1575.18
400.86	1596.25
401.05	1619.65
401.24	1577.52
401.44	1638.38
401.63	1596.25
401.82	1640.72
402.01	1710.93
402.21	1706.25
402.40	1802.21
402.59	1626.67
402.78	1778.81
402.97	1753.06
403.17	1734.34
403.36	1694.55
403.55	1764.76
403.74	1860.73
403.93	1865.41
404.13	1886.47
404.32	1825.62
404.51	1898.17
404.70	1872.43
404.89	1858.39
405.09	1930.94
405.28	1884.13
405.47	1879.45
405.66	1959.03
405.85	1898.17
406.05	1998.82
406.24	2108.82
406.43	1949.67
406.62	1968.39
406.81	2092.44
407.00	1973.07
407.20	2017.54
407.39	2129.89
407.58	2059.67
407.77	2069.03
407.96	2235.21
408.15	2122.87
408.34	2204.78
408.54	2211.81
408.73	2265.64
408.92	2272.66
409.11	2310.11
409.30	2169.68
409.49	2232.87
409.68	2225.85
409.87	2221.17
410.07	2331.17
410.26	2354.58
410.45	2478.63
410.64	2448.20
410.83	2495.01
411.02	2422.45
411.21	2385.01
411.40	2406.07
411.59	2551.18
411.78	2473.95
411.98	2548.84
412.17	2703.32
412.36	2595.65
412.55	2551.18
412.74	2616.72
412.93	2647.15
413.12	2682.25
413.31	2761.83
413.50	2883.54
413.69	2822.69
413.88	2930.35
414.07	2832.05
414.26	2829.71
414.45	2796.94
414.64	2820.35
414.83	3028.65
415.02	2977.16
415.22	3038.02
415.41	3009.93
415.60	3066.10
415.79	3255.69
415.98	3108.23
416.17	3077.80
416.36	3309.52
416.55	3213.56
416.74	3150.36
416.93	3164.40
417.12	3199.51
417.31	3262.71
417.50	3183.13
417.69	3370.37
417.88	3302.50
418.07	3370.37
418.26	3356.33
418.45	3468.67
418.64	3606.77
418.83	3440.59
419.02	3524.85
419.21	3564.64
419.39	3566.98
419.58	3417.18
419.77	3557.61
419.96	3548.25
420.15	3627.83
420.34	3609.11
420.53	3700.39
420.72	3796.35
420.91	3772.94
421.10	3861.88
421.29	3948.48
421.48	3770.60
421.67	3749.54
421.86	3707.41
422.05	3723.79
422.24	3779.97
422.43	3639.53
422.61	3871.25
422.80	3815.07
422.99	3714.43
423.18	3845.50
423.37	3960.19
423.56	3913.38
423.75	3901.67
423.94	3850.18
424.13	3534.21
424.32	3733.15
424.50	3934.44
424.69	3878.27
424.88	3927.42
425.07	3801.03
425.26	3833.80
425.45	3817.41
425.64	3765.92
425.83	3794.01
426.01	4053.81
426.20	4044.45
426.39	3960.19
426.58	3868.91
426.77	3819.75
426.96	3999.98
427.15	3957.85
427.33	3892.31
427.52	4049.13
427.71	4023.38
427.90	4161.47
428.09	4177.86
428.28	4175.52
428.46	4058.49
428.65	4166.15
428.84	4227.01
429.03	4219.99
429.22	4072.53
429.40	4072.53
429.59	4133.39
429.78	3791.67
429.97	3948.48
430.16	3929.76
430.34	4128.70
430.53	4166.15
430.72	4065.51
430.91	4128.70
431.10	4194.24
431.28	4411.91
431.47	4496.17
431.66	4636.60
431.85	4428.29
432.03	4477.44
432.22	4573.41
432.41	4465.74
432.60	4648.30
432.79	4645.96
432.97	4744.27
433.16	4624.90
433.35	4589.79
433.54	4603.83
433.72	4690.43
433.91	4461.06
434.10	4765.33
434.28	4688.09
434.47	4807.46
434.66	4858.95
434.85	4849.59
435.03	4952.57
435.22	4917.47
435.41	4922.15
435.59	4805.12
435.78	5029.81
435.97	5153.86
436.16	5022.79
436.34	5090.67
436.53	5029.81
436.72	5163.22
436.90	4924.49
437.09	5186.63
437.28	5029.81
437.46	5252.16
437.65	5174.92
437.84	5004.07
438.02	5195.99
438.21	5100.03
438.40	5144.50
438.58	5315.36
438.77	5373.87
438.96	5418.34
439.14	5406.64
439.33	5497.92
439.52	5516.64
439.70	5486.22
439.89	5703.89
440.08	5636.01
440.26	5650.05
440.45	5610.26
440.63	5839.64
440.82	5816.23
441.01	5865.38
441.19	5956.66
441.38	5874.74
441.57	5923.90
441.75	5963.68
441.94	6183.70
442.12	6235.19
442.31	6214.12
442.50	6216.46
442.68	6338.17
442.87	6111.14
443.05	6230.51
443.24	6553.50
443.43	6289.02
443.61	6382.64
443.80	6590.95
443.98	6101.78
444.17	6066.67
444.35	6307.74
444.54	6406.05
444.73	6352.21
444.91	6389.66
445.10	6244.55
445.28	6377.96
445.47	6216.46
445.65	6310.08
445.84	6415.41
446.02	6478.60
446.21	6392.00
446.39	6511.37
446.58	6513.71
446.77	6623.72
446.95	6333.49
447.14	6576.91
447.32	6642.44
447.51	6588.61
447.69	6574.56
447.88	6487.96
448.06	6569.88
448.25	6738.40
448.43	6562.86
448.62	6649.46
448.80	6743.08
448.99	6736.06
449.17	6724.36
449.36	6553.50
449.54	6771.17
449.73	6981.82
449.91	7023.95
450.10	6956.07
450.28	7150.34
450.46	7087.14
450.65	7052.03
450.83	7183.10
451.02	7101.19
451.20	7077.78
451.39	6927.99
451.57	7014.59
451.76	7169.06
451.94	7368.01
452.13	7136.29
452.31	7012.24
452.49	7002.88
452.68	7183.10
452.86	7009.90
453.05	7267.36
453.23	6965.43
453.42	7143.32
453.60	7126.93
453.78	7227.57
453.97	7255.66
454.15	7295.45
454.34	7089.48
454.52	7300.13
454.70	7265.02
454.89	7337.58
455.07	7655.89
455.26	7400.77
455.44	7611.42
455.62	7466.31
455.81	7686.32
455.99	7763.56
456.17	7784.62
456.36	7627.81
456.54	7751.85
456.73	7611.42
456.91	7941.44
457.09	7997.61
457.28	7983.57
457.46	7864.20
457.64	8049.10
457.83	7896.97
458.01	7875.90
458.19	8191.88
458.38	7948.46
458.56	8009.31
458.74	8166.13
458.93	8159.11
459.11	8154.43
459.29	8283.16
459.48	8243.37
459.66	8133.36
459.84	8105.28
460.03	8489.12
460.21	8259.75
460.39	8351.03
460.57	8355.71
460.76	8692.75
460.94	8601.47
461.12	8547.64
461.31	8638.92
461.49	8496.14
461.67	8369.76
461.85	8540.61
462.04	8498.49
462.22	9249.80
462.40	8624.87
462.59	8667.00
462.77	8641.26
462.95	8552.32
463.13	8861.27
463.32	8896.38
463.50	8851.91
463.68	9004.04
463.86	8865.95
464.05	8746.58
464.23	8826.16
464.41	9034.47
464.59	8793.39
464.78	9095.32
464.96	9029.79
465.14	8945.53
465.32	9013.40
465.50	9032.13
465.69	9025.11
465.87	9146.81
466.05	8917.44
466.23	9078.94
466.41	9048.51
466.60	9322.35
466.78	9095.32
466.96	9088.30
467.14	9404.27
467.32	9067.24
467.51	9301.29
467.69	8968.93
467.87	9174.90
468.05	9291.93
468.23	9577.47
468.41	9427.68
468.60	9291.93
468.78	9399.59
468.96	9343.42
469.14	9434.70
469.32	9544.70
469.50	9298.95
469.69	9481.51
469.87	9701.52
470.05	9348.10
470.23	9502.58
470.41	9809.19
470.59	9921.53
470.77	9860.68
470.95	9832.59
471.14	9977.70
471.32	9944.94
471.50	9832.59
471.68	10141.54
471.86	10319.42
472.04	9980.04
472.22	10272.61
472.40	9877.06
472.58	10195.37
472.77	10389.64
472.95	10377.94
473.13	10684.55
473.31	10181.33
473.49	10307.72
473.67	10597.95
473.85	10420.06
474.03	10679.86
474.21	10810.93
474.39	10747.74
474.57	10799.23
474.75	10909.24
474.93	10902.22
475.12	10918.60
475.30	11122.23
475.48	11007.54
475.66	11117.54
475.84	11009.88
476.02	11265.00
476.20	11162.01
476.38	11346.92
476.56	11676.93
476.74	11475.65
476.92	11496.71
477.10	11494.37
477.28	11878.22
477.46	11929.71
477.64	11978.86
477.82	12140.36
478.00	12507.82
478.18	12044.40
478.36	12348.67
478.54	12334.62
478.72	12390.80
478.90	12802.73
479.08	12933.80
479.26	12994.65
479.44	12821.45
479.62	12912.74
479.80	13069.55
479.98	13298.92
480.16	13568.09
480.34	13607.87
480.52	13561.06
480.70	13687.45
480.88	13500.21
481.06	13542.34
481.24	13851.29
481.41	13895.76
481.59	13977.68
481.77	14054.92
481.95	14394.29
482.13	14263.22
482.31	14380.25
482.49	14780.48
482.67	14551.11
482.85	14759.42
483.03	14750.06
483.21	15087.09
483.39	14941.98
483.57	15021.56
483.74	15398.38
483.92	15360.94
484.10	15201.78
484.28	15618.39
484.46	15840.75
484.64	16145.02
484.82	15824.36
485.00	15676.91
485.18	16212.89
485.35	16327.58
485.53	16166.08
485.71	15712.02
485.89	16042.03
486.07	16133.31
486.25	16526.52
486.43	16446.94
486.61	16725.47
486.78	16772.28
486.96	16933.78
487.14	17184.21
487.32	17422.95
487.50	17575.08
487.68	17860.63
487.85	17989.36
488.03	18181.28
488.21	18270.22
488.39	18274.90
488.57	18258.52
488.75	18485.55
488.92	19019.19
489.10	19021.53
489.28	19110.47
489.46	19461.55
489.64	19286.01
489.81	19953.07
489.99	19683.91
490.17	19917.96
490.35	20032.65
490.53	20121.59
490.70	20053.71
490.88	20264.36
491.06	20746.51
491.24	20049.03
491.41	20262.02
491.59	20379.04
491.77	20013.92
491.95	20596.71
492.13	20870.56
492.30	21109.29
492.48	21626.55
492.66	21261.43
492.84	21647.61
493.01	21972.95
493.19	21837.20
493.37	22029.12
493.54	22078.27
493.72	22216.36
493.90	22349.78
494.08	22670.43
494.25	22534.68
494.43	22726.60
494.61	23033.21
494.79	22881.08
494.96	22979.38
495.14	23161.94
495.32	23236.84
495.49	23054.28
495.67	23473.23
495.85	23559.83
496.02	23962.40
496.20	23782.18
496.38	23758.78
496.55	24273.70
496.73	24395.40
496.91	24280.72
497.09	24416.47
497.26	24779.25
497.44	24500.73
497.62	24919.68
497.79	24996.92
497.97	24842.45
498.14	24945.43
498.32	24982.88
498.50	25170.12
498.67	25624.18
498.85	25642.91
499.03	25575.03
499.20	25848.88
499.38	25909.73
499.56	25879.30
499.73	26031.44
499.91	26312.30
500.08	26548.70
500.26	25940.16
500.44	26335.71
500.61	26403.58
500.79	26157.83
500.97	26462.10
501.14	26864.67
501.32	26827.22
501.49	26551.04
501.67	26815.52
501.84	27250.86
502.02	26993.40
502.20	27363.20
502.37	27520.02
502.55	27400.65
502.72	27669.81
502.90	27983.44
503.07	27323.41
503.25	27615.98
503.43	27513.00
503.60	27468.53
503.78	27688.54
503.95	27969.40
504.13	27835.99
504.30	28006.85
504.48	28224.52
504.65	28463.25
504.83	28797.95
505.01	29046.05
505.18	29017.96
505.36	28973.49
505.53	28802.63
505.71	28896.25
505.88	29113.92
506.06	28741.78
506.23	29467.34
506.41	29132.65
506.58	29263.72
506.76	29525.86
506.93	29614.80
507.11	29457.98
507.28	29390.11
507.46	29537.56
507.63	29675.65
507.81	29921.41
507.98	29570.33
508.16	29619.48
508.33	30167.16
508.50	30267.81
508.68	30206.95
508.85	30649.32
509.03	30448.03
509.20	30569.74
509.38	30139.08
509.55	31012.10
509.73	30923.16
509.90	31028.48
510.08	30969.97
510.25	30806.13
510.42	30878.69
510.60	31112.74
510.77	31374.88
510.95	31419.35
511.12	31716.60
511.30	31573.83
511.47	31903.84
511.64	31761.07
511.82	32114.49
511.99	31660.43
512.17	31756.39
512.34	31557.44
512.51	32072.36
512.69	32301.73
512.86	32259.60
513.04	32430.46
513.21	32425.78
513.38	32430.46
513.56	32821.33
513.73	32264.28
513.90	32437.48
514.08	32283.01
514.25	32833.04
514.43	32161.30
514.60	32933.68
514.77	33125.60
514.95	33050.70
515.12	32945.38
515.29	33472.00
515.47	33209.86
515.64	33780.95
515.81	33057.73
515.99	33200.50
516.16	33249.65
516.33	33329.23
516.51	33294.12
516.68	32936.02
516.85	32755.80
517.03	33179.43
517.20	33479.02
517.37	33785.63
517.54	34256.08
517.72	34054.79
517.89	33544.56
518.06	33743.50
518.24	33354.97
518.41	33984.58
518.58	33963.51
518.75	34209.27
518.93	34366.09
519.10	34160.12
519.27	34607.16
519.45	34129.69
519.62	34815.47
519.79	35089.31
519.96	35075.27
520.14	34810.79
520.31	34801.43
520.48	35068.25
520.65	35173.57
520.83	35171.23
521.00	35737.64
521.17	35484.86
521.34	35653.38
521.52	35433.37
521.69	35431.03
521.86	35674.45
522.03	35751.68
522.20	35531.67
522.38	35742.32
522.55	35772.75
522.72	35791.47
522.89	36058.29
523.07	36182.34
523.24	36130.85
523.41	36044.25
523.58	36219.79
523.75	37029.62
523.92	36315.75
524.10	36781.52
524.27	37345.59
524.44	36582.57
524.61	36711.30
524.78	36825.99
524.96	36767.48
525.13	36872.80
525.30	37237.92
525.47	37315.16
525.64	36891.52
525.81	36905.57
525.98	37069.40
526.16	36769.82
526.33	37036.64
526.50	36978.12
526.67	36598.96
526.84	36882.16
527.01	36748.75
527.18	37261.33
527.36	37907.32
527.53	37570.28
527.70	37844.12
527.87	37748.16
528.04	37794.97
528.21	38124.99
528.38	37811.35
528.55	38527.56
528.72	38300.53
528.89	38483.09
529.07	37738.80
529.24	38164.78
529.41	38169.46
529.58	38450.32
529.75	38258.40
529.92	38635.22
530.09	38314.57
530.26	38766.29
530.43	38679.69
530.60	38162.43
530.77	38490.11
530.94	39241.42
531.11	39037.80
531.28	38597.77
531.46	38873.96
531.63	39150.14
531.80	39077.58
531.97	38993.32
532.14	39119.71
532.31	38705.44
532.48	38672.67
532.65	39068.22
532.82	38902.04
532.99	39262.49
533.16	39255.46
533.33	39248.44
533.50	39868.69
533.67	39709.53
533.84	39377.17
534.01	39562.08
534.18	39372.49
534.35	39805.49
534.52	39784.43
534.69	39676.76
534.86	39945.92
535.03	40062.95
535.20	40353.18
535.37	40273.60
535.54	40652.76
535.71	39676.76
535.88	40088.70
536.05	40353.18
536.22	40172.96
536.38	40444.46
536.55	40194.02
536.72	40163.59
536.89	39688.46
537.06	40280.62
537.23	40863.41
537.40	40285.30
537.57	40610.64
537.74	40720.64
537.91	41069.38
538.08	40524.04
538.25	40364.88
538.42	40769.79
538.59	40905.54
538.75	40701.92
538.92	41020.23
539.09	41027.25
539.26	40942.99
539.43	40748.73
539.60	40994.48
539.77	40931.29
539.94	40715.96
540.11	40935.97
540.28	41116.19
540.44	40795.54
540.61	40769.79
540.78	40978.10
540.95	41205.13
541.12	41378.33
541.29	40722.98
541.46	41249.60
541.62	41715.37
541.79	41780.90
541.96	40737.02
542.13	41523.44
542.30	41521.10
542.47	41551.53
542.63	41741.11
542.80	41251.94
542.97	42120.28
543.14	42181.13
543.31	41930.70
543.48	42199.86
543.64	42419.87
543.81	42246.67
543.98	42499.45
544.15	42291.14
544.32	42363.70
544.48	42560.30
544.65	42061.77
544.82	42377.74
544.99	41743.45
545.16	42298.16
545.32	41867.50
545.49	42588.39
545.66	42726.48
545.83	42693.71
546.00	42445.62
546.16	42569.66
546.33	42328.59
546.50	42256.03
546.67	42937.13
546.83	42164.75
547.00	42696.05
547.17	42918.40
547.34	42174.11
547.50	42979.26
547.67	43323.32
547.84	42962.87
548.00	43374.81
548.17	42782.65
548.34	43206.29
548.51	43395.87
548.67	43468.43
548.84	43407.58
549.01	43016.71
549.18	43051.81
549.34	42993.30
549.51	43311.61
549.68	43199.27
549.84	43297.57
550.01	43756.32
550.18	43136.07
550.34	43278.85
550.51	43346.72
550.68	43203.95
550.84	42979.26
551.01	43559.71
551.18	43206.29
551.34	43409.92
551.51	43899.09
551.68	43622.90
551.84	43564.39
552.01	43672.06
552.18	43690.78
552.34	43456.73
552.51	43981.01
552.68	43971.64
552.84	43945.90
553.01	43910.79
553.18	43540.99
553.34	43725.89
553.51	43892.07
553.67	44222.08
553.84	44219.74
554.01	44442.09
554.17	44346.13
554.34	44158.89
554.51	44418.69
554.67	44175.27
554.84	43861.64
555.00	44168.25
555.17	43945.90
555.33	44285.28
555.50	44348.47
555.67	44346.13
555.83	44287.62
556.00	44240.81
556.16	44605.93
556.33	44304.00
556.50	44346.13
556.66	44245.49
556.83	44243.15
556.99	44037.18
557.16	44362.51
557.32	44154.21
557.49	44477.20
557.65	44149.53
557.82	44399.96
557.98	44589.55
558.15	44624.65
558.32	44694.87
558.48	44428.05
558.65	44477.20
558.81	44285.28
558.98	44362.51
559.14	44566.14
559.31	44472.52
559.47	44594.23
559.64	44748.70
559.80	44786.15
559.97	44917.22
560.13	44250.17
560.30	44643.38
560.46	44800.19
560.63	44767.43
560.79	44921.90
560.96	45010.84
561.12	44917.22
561.29	44542.74
561.45	44699.55
561.61	44732.32
561.78	44458.48
561.94	44687.85
562.11	44996.80
562.27	45027.23
562.44	44378.90
562.60	45144.25
562.77	45137.23
562.93	44987.44
563.10	45081.06
563.26	44802.53
563.42	45153.62
563.59	45055.31
563.75	45048.29
563.92	45563.21
564.08	45195.74
564.24	45411.07
564.41	44879.77
564.57	45052.97
564.74	45240.21
564.90	44980.42
565.07	45324.47
565.23	45052.97
565.39	45315.11
565.56	44971.05
565.72	44601.25
565.88	45006.16
566.05	44985.10
566.21	45057.65
566.38	44804.88
566.54	44879.77
566.70	45617.04
566.87	45825.35
567.03	45205.11
567.19	46106.21
567.36	45546.82
567.52	45705.98
567.68	45544.48
567.85	44605.93
568.01	45488.31
568.17	45333.84
568.34	45626.40
568.50	45432.14
568.66	45055.31
568.83	45581.93
568.99	45177.02
569.15	45343.20
569.32	45418.10
569.48	44821.26
569.64	45717.68
569.81	45743.43
569.97	45141.91
570.13	45478.95
570.30	45453.20
570.46	45132.55
570.62	44821.26
570.78	44931.26
570.95	44767.43
571.11	45574.91
571.27	44851.69
571.43	45284.68
571.60	45378.31
571.76	45354.90
571.92	45095.10
572.09	45045.95
572.25	45603.00
572.41	45701.30
572.57	45839.39
572.74	45869.82
572.90	45366.60
573.06	45469.59
573.22	45993.87
573.38	45757.47
573.55	44964.03
573.71	45579.59
573.87	45705.98
574.03	45366.60
574.20	45528.10
574.36	45364.26
574.52	45345.54
574.68	45170.00
574.84	45453.20
575.01	45460.23
575.17	45305.75
575.33	45057.65
575.49	45345.54
575.65	45907.27
575.82	45518.74
575.98	45212.13
576.14	45677.90
576.30	45607.68
576.46	45722.37
576.62	45560.87
576.79	45392.35
576.95	45249.58
577.11	45450.86
577.27	45961.10
577.43	45284.68
577.59	45387.67
577.75	45132.55
577.92	45347.88
578.08	45181.70
578.24	45085.74
578.40	45429.80
578.56	45661.51
578.72	45242.56
578.88	46038.34
579.04	46038.34
579.21	45319.79
579.37	45530.44
579.53	45394.69
579.69	45382.99
579.85	45326.81
580.01	45560.87
580.17	45432.14
580.33	45792.58
580.49	45464.91
580.65	45717.68
580.82	45633.42
580.98	45549.17
581.14	45382.99
581.30	45881.52
581.46	45401.71
581.62	46043.02
581.78	45530.44
581.94	45675.55
582.10	45820.67
582.26	45762.15
582.42	45469.59
582.58	45558.53
582.74	45698.96
582.90	46028.98
583.06	45930.67
583.22	46045.36
583.38	45717.68
583.54	45727.05
583.70	45722.37
583.86	45879.18
584.02	45495.33
584.18	45909.61
584.34	45603.00
584.50	45710.66
584.66	45717.68
584.82	45757.47
584.98	45542.14
585.14	45652.15
585.30	45514.06
585.46	45411.07
585.62	45483.63
585.78	45624.06
585.94	45441.50
586.10	45727.05
586.26	45071.70
586.42	45617.04
586.58	45668.53
586.74	45841.73
586.90	45539.80
587.06	45771.52
587.22	45818.33
587.38	45308.09
587.54	45904.93
587.70	45954.08
587.86	45605.34
588.02	45385.33
588.18	45593.64
588.34	45132.55
588.49	45081.06
588.65	45518.74
588.81	45546.82
588.97	45340.86
589.13	45277.66
589.29	45132.55
589.45	45638.11
589.61	45895.56
589.77	45837.05
589.93	45741.09
590.08	45846.41
