SpectraSuite Data File
++++++++++++++++++++++++++++++++++++
Date: Fri Oct 25 11:23:24 EDT 2013
User: price-jones
Dark Spectrum Present: No
Reference Spectrum Present: No
Number of Sampled Component Spectra: 1
Spectrometers: USB2+H05261
Integration Time (usec): 100000 (USB2+H05261)
Spectra Averaged: 1 (USB2+H05261)
Boxcar Smoothing: 0 (USB2+H05261)
Correct for Electrical Dark: No (USB2+H05261)
Strobe/Lamp Enabled: No (USB2+H05261)
Correct for Detector Non-linearity: No (USB2+H05261)
Correct for Stray Light: No (USB2+H05261)
Number of Pixels in Processed Spectrum: 2048
>>>>>Begin Processed Spectral Data<<<<<
365.73	283.20
365.92	283.20
366.12	283.20
366.32	100.64
366.52	142.77
366.72	154.48
366.91	142.77
367.11	140.43
367.31	79.58
367.51	77.24
367.70	112.35
367.90	175.54
368.10	198.95
368.30	147.45
368.49	154.48
368.69	182.56
368.89	135.75
369.09	159.16
369.28	184.90
369.48	156.82
369.68	182.56
369.87	180.22
370.07	138.09
370.27	243.42
370.47	339.38
370.66	559.39
370.86	610.88
371.06	599.18
371.25	709.18
371.45	704.50
371.65	688.12
371.84	674.07
372.04	718.54
372.24	695.14
372.44	746.63
372.63	744.29
372.83	805.14
373.03	688.12
373.22	753.65
373.42	793.44
373.62	837.91
373.81	842.59
374.01	819.19
374.21	791.10
374.40	856.64
374.60	786.42
374.79	840.25
374.99	798.12
375.19	828.55
375.38	854.30
375.58	814.51
375.78	889.40
375.97	873.02
376.17	863.66
376.37	866.00
376.56	868.34
376.76	821.53
376.95	849.61
377.15	842.59
377.35	898.77
377.54	1011.11
377.74	894.08
377.93	873.02
378.13	884.72
378.33	896.43
378.52	926.85
378.72	971.32
378.91	933.87
379.11	964.30
379.31	938.55
379.50	919.83
379.70	947.92
379.89	987.71
380.09	945.58
380.28	971.32
380.48	1006.43
380.68	983.02
380.87	980.68
381.07	1004.09
381.26	992.39
381.46	978.34
381.65	1083.67
381.85	976.00
382.04	987.71
382.24	1081.33
382.43	1043.88
382.63	1046.22
382.83	1048.56
383.02	1114.10
383.22	1132.82
383.41	1060.26
383.61	1109.41
383.80	1128.14
384.00	1142.18
384.19	1130.48
384.39	1093.03
384.58	1160.91
384.78	1203.04
384.97	1226.44
385.17	1114.10
385.36	1064.94
385.56	1205.38
385.75	1210.06
385.95	1184.31
386.14	1188.99
386.34	1193.67
386.53	1172.61
386.72	1097.71
386.92	1186.65
387.11	1284.95
387.31	1235.80
387.50	1334.11
387.70	1188.99
387.89	1254.53
388.09	1282.61
388.28	1270.91
388.48	1378.58
388.67	1327.08
388.86	1207.72
389.06	1324.74
389.25	1327.08
389.45	1373.89
389.64	1315.38
389.84	1404.32
390.03	1338.79
390.22	1390.28
390.42	1366.87
390.61	1460.49
390.81	1500.28
391.00	1413.68
391.19	1416.02
391.39	1465.18
391.58	1418.36
391.78	1530.71
391.97	1547.09
392.16	1376.24
392.36	1500.28
392.55	1549.43
392.75	1551.78
392.94	1507.30
393.13	1516.67
393.33	1530.71
393.52	1577.52
393.71	1533.05
393.91	1624.33
394.10	1575.18
394.29	1638.38
394.49	1699.23
394.68	1640.72
394.88	1591.56
395.07	1666.46
395.26	1654.76
395.46	1666.46
395.65	1708.59
395.84	1682.85
396.04	1823.28
396.23	1708.59
396.42	1696.89
396.62	1825.62
396.81	1701.57
397.00	1727.32
397.19	1757.74
397.39	1762.42
397.58	1893.49
397.77	1827.96
397.97	1989.46
398.16	1933.28
398.35	1930.94
398.55	1863.07
398.74	1916.90
398.93	1963.71
399.12	1952.01
399.32	1982.43
399.51	2022.22
399.70	2040.95
399.90	2001.16
400.09	2015.20
400.28	2062.01
400.47	2024.56
400.67	2200.10
400.86	2134.57
401.05	2010.52
401.24	2200.10
401.44	2008.18
401.63	2256.28
401.82	2193.08
402.01	2160.31
402.21	2162.66
402.40	2256.28
402.59	2263.30
402.78	2209.47
402.97	2223.51
403.17	2251.60
403.36	2249.25
403.55	2277.34
403.74	2394.37
403.93	2296.07
404.13	2434.16
404.32	2321.81
404.51	2373.30
404.70	2422.45
404.89	2424.80
405.09	2396.71
405.28	2513.74
405.47	2380.32
405.66	2513.74
405.85	2466.92
406.05	2616.72
406.24	2401.39
406.43	2663.53
406.62	2693.96
406.81	2616.72
407.00	2509.05
407.20	2654.17
407.39	2682.25
407.58	2649.49
407.77	2799.28
407.96	2771.19
408.15	2750.13
408.34	2665.87
408.54	2853.11
408.73	2832.05
408.92	2818.00
409.11	2995.89
409.30	2876.52
409.49	2958.44
409.68	2991.20
409.87	3080.14
410.07	2991.20
410.26	3098.87
410.45	3080.14
410.64	2939.71
410.83	3103.55
411.02	3110.57
411.21	3122.27
411.40	3215.90
411.59	3307.18
411.78	3211.22
411.98	3126.96
412.17	3379.73
412.36	3339.94
412.55	3386.76
412.74	3412.50
412.93	3342.28
413.12	3480.38
413.31	3541.23
413.50	3508.46
413.69	3419.52
413.88	3571.66
414.07	3550.59
414.26	3674.64
414.45	3618.47
414.64	3658.26
414.83	3719.11
415.02	3691.02
415.22	3871.25
415.41	3829.12
415.60	3934.44
415.79	3934.44
415.98	4037.42
416.17	4149.77
416.36	3941.46
416.55	4180.20
416.74	4170.83
416.93	4016.36
417.12	4112.32
417.31	4156.79
417.50	4205.94
417.69	4334.67
417.88	4287.86
418.07	4287.86
418.26	4470.42
418.45	4327.65
418.64	4456.38
418.83	4421.27
419.02	4524.26
419.21	4542.98
419.39	4568.73
419.58	4477.44
419.77	4601.49
419.96	4725.54
420.15	4585.11
420.34	4535.96
420.53	4821.50
420.72	4718.52
420.91	4697.46
421.10	4657.67
421.29	4849.59
421.48	4753.63
421.67	4882.36
421.86	4723.20
422.05	4788.74
422.24	4723.20
422.43	4861.29
422.61	4938.53
422.80	5053.22
422.99	4851.93
423.18	4987.68
423.37	5074.28
423.56	5165.56
423.75	4793.42
423.94	5043.85
424.13	4732.56
424.32	4805.12
424.50	5048.54
424.69	5210.03
424.88	5076.62
425.07	5088.32
425.26	4938.53
425.45	4985.34
425.64	5102.37
425.83	5093.01
426.01	5095.35
426.20	5046.20
426.39	4915.12
426.58	5135.14
426.77	5064.92
426.96	5259.18
427.15	5275.57
427.33	5245.14
427.52	5104.71
427.71	5282.59
427.90	5259.18
428.09	5352.81
428.28	5387.91
428.46	5263.86
428.65	5270.89
428.84	5408.98
429.03	5547.07
429.22	5324.72
429.40	5416.00
429.59	5514.30
429.78	5245.14
429.97	5313.02
430.16	5497.92
430.34	5584.52
430.53	5678.14
430.72	5685.16
430.91	5746.02
431.10	5579.84
431.28	5769.42
431.47	5760.06
431.66	5930.92
431.85	5813.89
432.03	5928.58
432.22	6111.14
432.41	6090.07
432.60	5975.39
432.79	6033.90
432.97	6017.52
433.16	6022.20
433.35	6040.92
433.54	6052.63
433.72	6279.66
433.91	6150.93
434.10	6263.27
434.28	5994.11
434.47	6317.11
434.66	6179.01
434.85	6359.24
435.03	6356.90
435.22	6221.14
435.41	6502.01
435.59	6520.73
435.78	6504.35
435.97	6445.84
436.16	6464.56
436.34	6555.84
436.53	6494.99
436.72	6520.73
436.90	6633.08
437.09	6656.48
437.28	6553.50
437.46	6731.38
437.65	6616.69
437.84	6705.63
438.02	6888.20
438.21	6649.46
438.40	6441.15
438.58	7105.87
438.77	7007.56
438.96	7023.95
439.14	7091.82
439.33	7201.83
439.52	7166.72
439.70	7253.32
439.89	7344.60
440.08	7435.88
440.26	7468.65
440.45	7435.88
440.63	7538.87
440.82	7639.51
441.01	7494.40
441.19	7669.94
441.38	7723.77
441.57	7623.12
441.75	7782.28
441.94	8051.44
442.12	7953.14
442.31	8042.08
442.50	8006.97
442.68	8016.33
442.87	8002.29
443.05	8093.57
443.24	8262.09
443.43	8276.13
443.61	8191.88
443.80	8627.21
443.98	8051.44
444.17	7918.03
444.35	8152.09
444.54	8348.69
444.73	8479.76
444.91	8393.16
445.10	8381.46
445.28	8315.92
445.47	8177.83
445.65	8482.10
445.84	8505.51
446.02	8510.19
446.21	8568.70
446.39	8517.21
446.58	8767.65
446.77	8470.40
446.95	8203.58
447.14	8531.25
447.32	8547.64
447.51	8510.19
447.69	8554.66
447.88	8709.13
448.06	8517.21
448.25	8617.85
448.43	8477.42
448.62	8751.26
448.80	8498.49
448.99	8772.33
449.17	8861.27
449.36	8730.20
449.54	8872.97
449.73	8959.57
449.91	9008.72
450.10	9146.81
450.28	9174.90
450.46	8980.64
450.65	9083.62
450.83	9167.88
451.02	8926.80
451.20	9163.20
451.39	9228.73
451.57	9200.65
451.76	9078.94
451.94	9235.75
452.13	9366.82
452.31	9418.32
452.49	9284.91
452.68	9371.50
452.86	9516.62
453.05	9474.49
453.23	9556.41
453.42	9530.66
453.60	9366.82
453.78	9565.77
453.97	9504.92
454.15	9568.11
454.34	9701.52
454.52	9706.20
454.70	9591.52
454.89	9825.57
455.07	9949.62
455.26	9827.91
455.44	9951.96
455.62	9846.63
455.81	10136.86
455.99	10054.94
456.17	10111.11
456.36	9923.87
456.54	10164.95
456.73	10209.42
456.91	10555.82
457.09	10501.98
457.28	10391.98
457.46	10303.04
457.64	10511.35
457.83	10658.80
458.01	10534.75
458.19	10871.79
458.38	10663.48
458.56	10684.55
458.74	10930.30
458.93	10656.46
459.11	10934.98
459.29	10438.79
459.48	10803.91
459.66	10626.03
459.84	10799.23
460.03	11126.91
460.21	10998.18
460.39	11105.84
460.57	10970.09
460.76	11014.56
460.94	11307.13
461.12	11304.79
461.31	11159.67
461.49	11351.60
461.67	11309.47
461.85	11616.08
462.04	11241.59
462.22	11609.06
462.40	11487.35
462.59	11559.91
462.77	11419.47
462.95	11698.00
463.13	11817.36
463.32	11480.33
463.50	11831.41
463.68	11669.91
463.86	12030.35
464.05	11751.83
464.23	11789.28
464.41	11934.39
464.59	11735.45
464.78	12166.10
464.96	12009.29
465.14	11920.35
465.32	12119.29
465.50	11999.93
465.69	12248.02
465.87	12517.18
466.05	12074.82
466.23	12091.21
466.41	12081.85
466.60	12678.68
466.78	12283.13
466.96	12334.62
467.14	12542.93
467.32	12390.80
467.51	12730.17
467.69	12442.29
467.87	12468.03
468.05	12896.35
468.23	12500.80
468.41	12402.50
468.60	12650.60
468.78	12865.92
468.96	12659.96
469.14	12821.45
469.32	13060.19
469.50	12500.80
469.69	13167.85
469.87	13186.58
470.05	13294.24
470.23	13273.18
470.41	13429.99
470.59	13408.93
470.77	13369.14
470.95	13184.24
471.14	13490.85
471.32	13102.32
471.50	13589.15
471.68	13661.71
471.86	13811.50
472.04	13647.66
472.22	14097.05
472.40	13738.94
472.58	13877.04
472.77	13902.78
472.95	14303.01
473.13	14764.10
473.31	14469.19
473.49	14127.47
473.67	14253.86
473.85	14223.44
474.03	14876.44
474.21	14565.15
474.39	14661.12
474.57	15023.90
474.75	14817.93
474.93	15000.49
475.12	14904.53
475.30	15279.02
475.48	14864.74
475.66	15190.08
475.84	15295.40
476.02	15908.62
476.20	15693.29
476.38	15674.57
476.56	16018.63
476.74	16353.32
476.92	15878.19
477.10	15854.79
477.28	16079.48
477.46	16126.29
477.64	16341.62
477.82	16854.20
478.00	17034.42
478.18	16776.96
478.36	17193.58
478.54	17261.45
478.72	17378.48
478.90	17151.45
479.08	17549.34
479.26	17703.81
479.44	17919.14
479.62	17982.34
479.80	18115.75
479.98	18473.85
480.16	18815.57
480.34	18490.23
480.52	18719.60
480.70	18794.50
480.88	18391.93
481.06	18841.31
481.24	18965.36
481.41	19171.33
481.59	19576.24
481.77	19716.67
481.95	19896.89
482.13	19737.74
482.31	19894.55
482.49	20372.02
482.67	20379.04
482.85	20926.73
483.03	21034.39
483.21	20566.29
483.39	20924.39
483.57	20842.47
483.74	21097.59
483.92	21282.49
484.10	21411.22
484.28	21951.88
484.46	22291.26
484.64	22710.22
484.82	21984.65
485.00	22586.17
485.18	22916.19
485.35	22967.68
485.53	23054.28
485.71	23271.95
485.89	23374.93
486.07	23587.92
486.25	23384.29
486.43	23854.74
486.61	24151.99
486.78	24215.18
486.96	24554.56
487.14	24835.42
487.32	24416.47
487.50	24837.76
487.68	25090.54
487.85	25839.51
488.03	25537.59
488.21	26001.01
488.39	25956.54
488.57	26352.09
488.75	26637.64
488.92	26618.91
489.10	27159.58
489.28	26710.19
489.46	27562.15
489.64	27138.51
489.81	27527.04
489.99	27962.38
490.17	28147.28
490.35	28479.64
490.53	28322.82
490.70	28591.98
490.88	28629.43
491.06	29228.61
491.24	29006.26
491.41	29434.58
491.59	29280.10
491.77	29490.75
491.95	29823.11
492.13	29750.55
492.30	30022.05
492.48	29909.71
492.66	30541.65
492.84	29989.28
493.01	31056.57
493.19	30955.93
493.37	31409.99
493.54	31278.92
493.72	32030.23
493.90	31742.35
494.08	31971.72
494.25	31999.80
494.43	32566.21
494.61	33029.64
494.79	32865.80
494.96	32542.81
495.14	33022.62
495.32	33266.03
495.49	33308.16
495.67	33780.95
495.85	33731.80
496.02	34047.77
496.20	34153.10
496.38	34108.63
496.55	34375.45
496.73	35166.55
496.91	35033.14
497.09	35063.57
497.26	35372.52
497.44	35206.34
497.62	35604.23
497.79	35899.14
497.97	35943.61
498.14	35866.37
498.32	36577.89
498.50	36402.35
498.67	37064.72
498.85	36676.19
499.03	37172.39
499.20	36935.99
499.38	37022.59
499.56	37125.58
499.73	36992.17
499.91	37277.71
500.08	37860.51
500.26	37759.86
500.44	37734.12
500.61	38181.16
500.79	37958.81
500.97	38726.50
501.14	38705.44
501.32	39192.27
501.49	38340.32
501.67	38932.47
501.84	39402.92
502.02	39468.45
502.20	39210.99
502.37	39379.51
502.55	39220.36
502.72	39779.74
502.90	39789.11
503.07	39557.39
503.25	40289.98
503.43	39941.24
503.60	40395.31
503.78	40584.89
503.95	40968.74
504.13	40636.38
504.30	40900.86
504.48	40364.88
504.65	41301.09
504.83	41312.80
505.01	41390.03
505.18	41209.81
505.36	41619.41
505.53	41743.45
505.71	41820.69
505.88	42122.62
506.06	41895.59
506.23	42143.69
506.41	42445.62
506.58	42534.56
506.76	42562.64
506.93	42979.26
507.11	42508.81
507.28	43229.69
507.46	42801.38
507.63	42864.57
507.81	43693.12
507.98	43299.91
508.16	43068.20
508.33	43707.16
508.50	43966.96
508.68	43973.98
508.85	44133.14
509.03	44339.11
509.20	44048.88
509.38	44320.38
509.55	44460.82
509.73	44699.55
509.90	44671.46
510.08	44542.74
510.25	45130.21
510.42	45022.54
510.60	44914.88
510.77	45464.91
510.95	45916.63
511.12	45610.02
511.30	45986.85
511.47	46075.79
511.64	45591.30
511.82	46326.22
511.99	46394.10
512.17	46117.92
512.34	46047.70
512.51	46894.97
512.69	46649.22
512.86	46609.43
513.04	46913.70
513.21	46857.52
513.38	47239.03
513.56	47077.54
513.73	47079.88
513.90	47358.40
514.08	47091.58
514.25	47566.71
514.43	47803.10
514.60	47620.54
514.77	47538.62
514.95	47686.07
515.12	47910.77
515.29	48048.86
515.47	48339.08
515.64	48100.35
515.81	48009.07
515.99	48432.71
516.16	48598.88
516.33	48509.94
516.51	48804.85
516.68	48765.06
516.85	48584.84
517.03	48985.07
517.20	49008.48
517.37	49158.27
517.54	49102.10
517.72	49001.46
517.89	49464.88
518.06	49628.72
518.24	49373.60
518.41	49507.01
518.58	49450.84
518.75	49687.23
518.93	49996.18
519.10	49820.64
519.27	50174.06
519.45	50281.73
519.62	50344.92
519.79	50160.02
519.96	50078.10
520.14	50389.39
520.31	50466.63
520.48	50925.38
520.65	50740.47
520.83	50937.08
521.00	51023.68
521.17	50815.37
521.34	50724.09
521.52	50990.91
521.69	50988.57
521.86	51168.79
522.03	51253.05
522.20	51821.80
522.38	51812.44
522.55	51662.64
522.72	51400.50
522.89	51540.94
523.07	51952.87
523.24	51540.94
523.41	52168.20
523.58	51796.06
523.75	52229.05
523.92	52275.87
524.10	52229.05
524.27	52210.33
524.44	51913.08
524.61	52404.59
524.78	52186.92
524.96	52289.91
525.13	52472.47
525.30	52495.88
525.47	52428.00
525.64	52666.73
525.81	52828.23
525.98	52830.57
526.16	52790.78
526.33	52912.49
526.50	53073.99
526.67	53219.10
526.84	53181.65
527.01	52903.13
527.18	53219.10
527.36	53488.26
527.53	53380.60
527.70	53666.14
527.87	53631.04
528.04	53322.08
528.21	53296.34
528.38	53364.21
528.55	53808.92
528.72	53282.30
528.89	53848.71
529.07	53506.99
529.24	53769.13
529.41	53581.88
529.58	53893.18
529.75	54012.54
529.92	53844.02
530.09	53851.05
530.26	54145.95
530.43	54274.68
530.60	54094.46
530.77	53815.94
530.94	54174.04
531.11	54274.68
531.28	54571.93
531.46	54368.30
531.63	54419.80
531.80	54445.54
531.97	54532.14
532.14	54703.00
532.31	54672.57
532.48	54681.94
532.65	54759.17
532.82	54693.64
532.99	54855.14
533.16	54862.16
533.33	55114.94
533.50	55231.96
533.67	54777.90
533.84	54766.20
534.01	55157.06
534.18	55044.72
534.35	55561.98
534.52	55388.78
534.69	55526.87
534.86	55309.20
535.03	55440.27
535.20	55213.24
535.37	55402.82
535.54	55412.18
535.71	55601.77
535.88	55852.20
536.05	55550.27
536.22	55728.16
536.38	55737.52
536.55	56018.38
536.72	55763.26
536.89	55639.22
537.06	55880.29
537.23	55859.23
537.40	55899.01
537.57	55983.27
537.74	56051.15
537.91	56025.40
538.08	56004.34
538.25	56016.04
538.42	55910.72
538.59	56498.19
538.75	55910.72
538.92	56186.90
539.09	56427.98
539.26	56287.54
539.43	56374.14
539.60	56332.01
539.77	56404.57
539.94	56868.00
540.11	56275.84
540.28	56451.38
540.44	56727.56
540.61	56678.41
540.78	56481.81
540.95	56652.67
541.12	56357.76
541.29	56669.05
541.46	56811.82
541.62	56722.88
541.79	56942.89
541.96	56659.69
542.13	56956.94
542.30	56687.78
542.47	57233.12
542.63	57006.09
542.80	57155.88
542.97	57223.76
543.14	57378.23
543.31	57301.00
543.48	57443.77
543.64	57659.10
543.81	57724.63
543.98	57446.11
544.15	57488.24
544.32	57588.88
544.48	57710.59
544.65	57558.45
544.82	57453.13
544.99	57350.15
545.16	57722.29
545.32	57539.73
545.49	57790.17
545.66	57949.32
545.83	57708.25
546.00	57876.77
546.16	57836.98
546.33	57762.08
546.50	57530.37
546.67	58019.54
546.83	57621.65
547.00	57989.11
547.17	57881.45
547.34	57872.09
547.50	58045.29
547.67	58108.48
547.84	58035.92
548.00	58433.81
548.17	58478.28
548.34	58379.98
548.51	58387.00
548.67	58277.00
548.84	58461.90
549.01	58195.08
549.18	58424.45
549.34	58504.03
549.51	58511.05
549.68	58663.19
549.84	58639.78
550.01	58370.62
550.18	58576.59
550.34	58497.01
550.51	58588.29
550.68	58581.27
550.84	58314.45
551.01	58649.14
551.18	58529.78
551.34	58665.53
551.51	58932.35
551.68	58599.99
551.84	58688.93
552.01	58557.86
552.18	58871.49
552.34	58918.31
552.51	58922.99
552.68	58845.75
552.84	58749.79
553.01	59105.55
553.18	59042.35
553.34	59124.27
553.51	59009.59
553.67	58972.14
553.84	59105.55
554.01	59114.91
554.17	59255.34
554.34	59051.72
554.51	59304.49
554.67	59084.48
554.84	59318.54
555.00	59161.72
555.17	59072.78
555.33	59220.23
555.50	58927.67
555.67	59044.69
555.83	59288.11
556.00	59405.14
556.16	59601.74
556.33	59407.48
556.50	59393.43
556.66	59561.95
556.83	59255.34
556.99	59416.84
557.16	59664.94
557.32	59744.51
557.49	59840.48
557.65	59377.05
557.82	59636.85
557.98	59468.33
558.15	59697.70
558.32	59695.36
558.48	59543.23
558.65	59707.07
558.81	59580.68
558.98	59648.55
559.14	59756.22
559.31	60020.70
559.47	59821.75
559.64	59803.03
559.80	59887.29
559.97	59896.65
560.13	59573.66
560.30	59880.27
560.46	59971.55
560.63	59966.87
560.79	59945.80
560.96	59819.41
561.12	59987.93
561.29	59994.95
561.45	60051.12
561.61	59803.03
561.78	60069.85
561.94	60104.96
562.11	60116.66
562.27	59941.12
562.44	59913.03
562.60	60186.88
562.77	60168.15
562.93	60102.62
563.10	60224.32
563.26	60051.12
563.42	60561.36
563.59	60032.40
563.75	60250.07
563.92	60266.45
564.08	60224.32
564.24	60456.04
564.41	60289.86
564.57	60252.41
564.74	60275.82
564.90	60563.70
565.07	60200.92
565.23	60299.22
565.39	60493.49
565.56	60411.57
565.72	60086.23
565.88	60444.33
566.05	60294.54
566.21	60334.33
566.38	60395.18
566.54	60453.70
566.70	60425.61
566.87	60727.54
567.03	60388.16
567.19	60521.57
567.36	60582.43
567.52	60252.41
567.68	60584.77
567.85	60544.98
568.01	60687.75
568.17	60591.79
568.34	60598.81
568.50	60453.70
568.66	60437.31
568.83	60720.52
568.99	60479.44
569.15	60486.46
569.32	60624.56
569.48	60458.38
569.64	60540.30
569.81	60446.68
569.97	60563.70
570.13	60636.26
570.30	60479.44
570.46	60633.92
570.62	60825.84
570.78	60769.67
570.95	60591.79
571.11	60680.73
571.27	60699.45
571.43	60912.44
571.60	60739.24
571.76	60814.14
571.92	60781.37
572.09	60589.45
572.25	60715.84
572.41	60676.05
572.57	60952.23
572.74	61127.77
572.90	60940.53
573.06	60968.61
573.22	60776.69
573.38	60676.05
573.55	60779.03
573.71	60889.04
573.87	60823.50
574.03	60694.77
574.20	60683.07
574.36	60767.33
574.52	61010.74
574.68	60907.76
574.84	61041.17
575.01	60987.34
575.17	60816.48
575.33	60839.89
575.49	61031.81
575.65	60851.59
575.82	61141.81
575.98	61062.24
576.14	61197.99
576.30	61092.66
576.46	60860.95
576.62	60856.27
576.79	60992.02
576.95	60622.22
577.11	60945.21
577.27	61020.11
577.43	60949.89
577.59	60832.86
577.75	60956.91
577.92	60786.05
578.08	60931.17
578.24	61125.43
578.40	61052.87
578.56	60912.44
578.72	60982.66
578.88	61235.44
579.04	61240.12
579.21	61057.56
579.37	61087.98
579.53	61167.56
579.69	60989.68
579.85	60729.88
580.01	60816.48
580.17	60788.39
580.33	61097.34
580.49	61155.86
580.65	61006.06
580.82	60846.91
580.98	60921.80
581.14	60851.59
581.30	61038.83
581.46	60935.85
581.62	61312.67
581.78	60893.72
581.94	61050.53
582.10	61010.74
582.26	61066.92
582.42	61134.79
582.58	61013.08
582.74	61160.54
582.90	61027.13
583.06	61052.87
583.22	61064.58
583.38	61155.86
583.54	60994.36
583.70	61113.73
583.86	61151.18
584.02	61158.20
584.18	61017.77
584.34	61183.94
584.50	60914.78
584.66	61226.07
584.82	60781.37
584.98	61249.48
585.14	61258.84
585.30	60945.21
585.46	61291.61
585.62	61216.71
585.78	61352.46
585.94	60994.36
586.10	61272.88
586.26	61258.84
586.42	61153.52
586.58	61235.44
586.74	61153.52
586.90	61120.75
587.06	61076.28
587.22	61160.54
587.38	61188.63
587.54	61366.51
587.70	61275.22
587.86	61205.01
588.02	61378.21
588.18	61293.95
588.34	61174.58
588.49	61141.81
