SpectraSuite Data File
++++++++++++++++++++++++++++++++++++
Date: Fri Oct 25 11:23:34 EDT 2013
User: price-jones
Dark Spectrum Present: No
Reference Spectrum Present: No
Number of Sampled Component Spectra: 1
Spectrometers: USB2+H05261
Integration Time (usec): 100000 (USB2+H05261)
Spectra Averaged: 1 (USB2+H05261)
Boxcar Smoothing: 0 (USB2+H05261)
Correct for Electrical Dark: No (USB2+H05261)
Strobe/Lamp Enabled: No (USB2+H05261)
Correct for Detector Non-linearity: No (USB2+H05261)
Correct for Stray Light: No (USB2+H05261)
Number of Pixels in Processed Spectrum: 2048
>>>>>Begin Processed Spectral Data<<<<<
365.73	245.76
365.92	245.76
366.12	245.76
366.32	161.50
366.52	180.22
366.72	95.96
366.91	37.45
367.11	124.05
367.31	65.54
367.51	147.45
367.70	147.45
367.90	88.94
368.10	107.66
368.30	154.48
368.49	77.24
368.69	88.94
368.89	117.03
369.09	191.92
369.28	149.79
369.48	217.67
369.68	175.54
369.87	201.29
370.07	147.45
370.27	217.67
370.47	353.42
370.66	589.82
370.86	627.26
371.06	702.16
371.25	695.14
371.45	636.63
371.65	674.07
371.84	748.97
372.04	711.52
372.24	711.52
372.44	648.33
372.63	690.46
372.83	779.40
373.03	779.40
373.22	669.39
373.42	772.38
373.62	709.18
373.81	823.87
374.01	800.46
374.21	788.76
374.40	837.91
374.60	809.83
374.79	777.06
374.99	809.83
375.19	821.53
375.38	866.00
375.58	910.47
375.78	849.61
375.97	882.38
376.17	908.13
376.37	842.59
376.56	840.25
376.76	866.00
376.95	833.23
377.15	863.66
377.35	833.23
377.54	863.66
377.74	903.45
377.93	812.17
378.13	887.06
378.33	957.28
378.52	947.92
378.72	915.15
378.91	933.87
379.11	966.64
379.31	919.83
379.50	994.73
379.70	952.60
379.89	954.94
380.09	938.55
380.28	985.37
380.48	1022.81
380.68	896.43
380.87	1008.77
381.07	1041.54
381.26	1071.97
381.46	1013.45
381.65	1011.11
381.85	1018.13
382.04	980.68
382.24	1057.92
382.43	1100.05
382.63	1036.86
382.83	1025.15
383.02	1125.80
383.22	1104.73
383.41	1034.52
383.61	1067.28
383.80	1097.71
384.00	1100.05
384.19	1107.07
384.39	1102.39
384.58	1107.07
384.78	1165.59
384.97	1142.18
385.17	1160.91
385.36	1177.29
385.56	1170.27
385.75	1177.29
385.95	1123.46
386.14	1275.59
386.34	1205.38
386.53	1259.21
386.72	1252.19
386.92	1224.10
387.11	1224.10
387.31	1301.34
387.50	1284.95
387.70	1235.80
387.89	1238.14
388.09	1289.64
388.28	1280.27
388.48	1355.17
388.67	1296.66
388.86	1259.21
389.06	1327.08
389.25	1359.85
389.45	1306.02
389.64	1404.32
389.84	1462.83
390.03	1420.71
390.22	1423.05
390.42	1416.02
390.61	1371.55
390.81	1275.59
391.00	1378.58
391.19	1434.75
391.39	1336.45
391.58	1476.88
391.78	1549.43
391.97	1504.96
392.16	1509.65
392.36	1554.12
392.55	1493.26
392.75	1586.88
392.94	1647.74
393.13	1476.88
393.33	1575.18
393.52	1549.43
393.71	1603.27
393.91	1593.90
394.10	1577.52
394.29	1598.59
394.49	1554.12
394.68	1603.27
394.88	1568.16
395.07	1720.29
395.26	1652.42
395.46	1629.01
395.65	1760.08
395.84	1736.68
396.04	1797.53
396.23	1760.08
396.42	1839.66
396.62	1750.72
396.81	1912.22
397.00	1746.04
397.19	1774.13
397.39	1762.42
397.58	1753.06
397.77	1844.34
397.97	1736.68
398.16	1872.43
398.35	1961.37
398.55	1935.62
398.74	1865.41
398.93	1959.03
399.12	2003.50
399.32	1970.73
399.51	1961.37
399.70	1975.41
399.90	1989.46
400.09	2043.29
400.28	2108.82
400.47	2033.93
400.67	2029.24
400.86	2101.80
401.05	2050.31
401.24	2111.16
401.44	2136.91
401.63	2188.40
401.82	2139.25
402.01	2064.35
402.21	2223.51
402.40	2242.23
402.59	2099.46
402.78	2209.47
402.97	2228.19
403.17	2289.04
403.36	2282.02
403.55	2242.23
403.74	2289.04
403.93	2298.41
404.13	2396.71
404.32	2408.41
404.51	2349.90
404.70	2443.52
404.89	2338.20
405.09	2518.42
405.28	2544.16
405.47	2352.24
405.66	2483.31
405.85	2551.18
406.05	2495.01
406.24	2597.99
406.43	2525.44
406.62	2637.78
406.81	2628.42
407.00	2499.69
407.20	2569.91
407.39	2551.18
407.58	2731.41
407.77	2682.25
407.96	2745.45
408.15	2731.41
408.34	2719.70
408.54	2722.04
408.73	2724.38
408.92	2878.86
409.11	2771.19
409.30	2862.48
409.49	2942.05
409.68	2895.24
409.87	2942.05
410.07	2935.03
410.26	3002.91
410.45	3019.29
410.64	2956.10
410.83	3141.00
411.02	3145.68
411.21	2946.73
411.40	3115.25
411.59	3194.83
411.78	3152.70
411.98	3197.17
412.17	3279.09
412.36	3262.71
412.55	3410.16
412.74	3363.35
412.93	3426.54
413.12	3281.43
413.31	3545.91
413.50	3487.40
413.69	3588.04
413.88	3616.13
414.07	3639.53
414.26	3651.24
414.45	3714.43
414.64	3758.90
414.83	3782.31
415.02	3763.58
415.22	3791.67
415.41	3761.24
415.60	3723.79
415.79	3859.54
415.98	3878.27
416.17	3908.69
416.36	4023.38
416.55	3985.93
416.74	4095.94
416.93	3992.95
417.12	4138.07
417.31	4035.08
417.50	4072.53
417.69	4325.31
417.88	4393.19
418.07	4306.59
418.26	4320.63
418.45	4339.35
418.64	4505.53
418.83	4369.78
419.02	4337.01
419.21	4695.11
419.39	4601.49
419.58	4411.91
419.77	4407.23
419.96	4620.22
420.15	4622.56
420.34	4620.22
420.53	4573.41
420.72	4634.26
420.91	4660.01
421.10	4657.67
421.29	4901.08
421.48	4650.64
421.67	4786.40
421.86	4669.37
422.05	4891.72
422.24	4863.63
422.43	4971.30
422.61	4692.77
422.80	4961.94
422.99	4748.95
423.18	4933.85
423.37	4990.02
423.56	4903.42
423.75	4964.28
423.94	4919.81
424.13	4622.56
424.32	4835.55
424.50	5081.30
424.69	5210.03
424.88	5069.60
425.07	4943.21
425.26	4821.50
425.45	4980.66
425.64	4912.78
425.83	5006.41
426.01	4957.25
426.20	5093.01
426.39	5046.20
426.58	5116.41
426.77	5022.79
426.96	5139.82
427.15	5123.43
427.33	5146.84
427.52	5188.97
427.71	5259.18
427.90	5121.09
428.09	5219.39
428.28	5357.49
428.46	5277.91
428.65	5427.70
428.84	5526.00
429.03	5439.40
429.22	5317.70
429.40	5408.98
429.59	5504.94
429.78	5233.44
429.97	5305.99
430.16	5518.98
430.34	5689.84
430.53	5504.94
430.72	5582.18
430.91	5645.37
431.10	5617.29
431.28	5708.57
431.47	5926.24
431.66	5715.59
431.85	5879.43
432.03	5832.62
432.22	5984.75
432.41	5900.49
432.60	5813.89
432.79	6019.86
432.97	6024.54
433.16	6162.63
433.35	6127.52
433.54	5834.96
433.72	6092.41
433.91	5951.98
434.10	6125.18
434.28	5991.77
434.47	6237.53
434.66	6396.68
434.85	6150.93
435.03	6314.77
435.22	6377.96
435.41	6567.54
435.59	6462.22
435.78	6581.59
435.97	6363.92
436.16	6619.04
436.34	6509.03
436.53	6546.48
436.72	6712.66
436.90	6457.54
437.09	6806.28
437.28	6441.15
437.46	6541.80
437.65	6583.93
437.84	6785.21
438.02	6665.85
438.21	6731.38
438.40	6775.85
438.58	6963.09
438.77	7023.95
438.96	6888.20
439.14	7063.74
439.33	7201.83
439.52	7033.31
439.70	7267.36
439.89	7328.22
440.08	7220.55
440.26	7122.25
440.45	7426.52
440.63	7543.55
440.82	7634.83
441.01	7496.74
441.19	7571.63
441.38	7644.19
441.57	7896.97
441.75	7826.75
441.94	7922.71
442.12	7983.57
442.31	8035.06
442.50	7990.59
442.68	7932.08
442.87	8063.15
443.05	8018.68
443.24	8285.50
443.43	8025.70
443.61	8175.49
443.80	8383.80
443.98	8093.57
444.17	7754.19
444.35	8397.84
444.54	8304.22
444.73	8224.64
444.91	8269.11
445.10	8329.97
445.28	8404.86
445.47	8374.44
445.65	8322.94
445.84	8428.27
446.02	8617.85
446.21	8250.39
446.39	8226.98
446.58	8528.91
446.77	8585.08
446.95	8264.43
447.14	8468.06
447.32	8549.98
447.51	8648.28
447.69	8524.23
447.88	8578.06
448.06	8418.91
448.25	8769.99
448.43	8575.72
448.62	8437.63
448.80	8739.56
448.99	8793.39
449.17	8746.58
449.36	8746.58
449.54	8739.56
449.73	8706.79
449.91	8929.14
450.10	9001.70
450.28	9064.89
450.46	9128.09
450.65	9036.81
450.83	9085.96
451.02	9195.96
451.20	9036.81
451.39	9200.65
451.57	9062.55
451.76	9116.39
451.94	9064.89
452.13	9369.16
452.31	9252.14
452.49	9085.96
452.68	9462.79
452.86	9430.02
453.05	9420.66
453.23	9610.24
453.42	9181.92
453.60	9385.55
453.78	9427.68
453.97	9467.47
454.15	9631.30
454.34	9462.79
454.52	9685.14
454.70	9645.35
454.89	9717.90
455.07	9834.93
455.26	10204.74
455.44	10066.64
455.62	9799.82
455.81	9902.81
455.99	10207.08
456.17	9937.91
456.36	10050.26
456.54	10141.54
456.73	10441.13
456.91	10516.03
457.09	10459.85
457.28	10794.55
457.46	10478.58
457.64	10422.41
457.83	10443.47
458.01	10494.96
458.19	10691.57
458.38	10693.91
458.56	10824.98
458.74	10857.75
458.93	10705.61
459.11	10771.15
459.29	10815.62
459.48	10916.26
459.66	10874.13
459.84	10946.69
460.03	11089.46
460.21	10913.92
460.39	10934.98
460.57	11143.29
460.76	11070.73
460.94	11276.70
461.12	11407.77
461.31	11005.20
461.49	11227.55
461.67	11438.20
461.85	11489.69
462.04	11349.26
462.22	11761.19
462.40	11569.27
462.59	11646.51
462.77	11365.64
462.95	11702.68
463.13	11599.70
463.32	11606.72
463.50	11918.01
463.68	11854.81
463.86	11845.45
464.05	11733.11
464.23	11653.53
464.41	11960.14
464.59	11578.63
464.78	11906.31
464.96	11908.65
465.14	11854.81
465.32	12072.48
465.50	12044.40
465.69	12540.59
465.87	12058.44
466.05	12208.23
466.23	12231.64
466.41	12339.30
466.60	12498.46
466.78	12091.21
466.96	12463.35
467.14	12276.11
467.32	12545.27
467.51	12751.24
467.69	12222.28
467.87	12580.38
468.05	12507.82
468.23	12432.93
468.41	12343.99
468.60	12809.75
468.78	12992.31
468.96	12741.88
469.14	12947.84
469.32	13046.15
469.50	12589.74
469.69	13001.68
469.87	13001.68
470.05	13350.42
470.23	13135.09
470.41	13362.12
470.59	13238.07
470.77	13247.43
470.95	13240.41
471.14	13792.78
471.32	13160.83
471.50	13645.32
471.68	13804.48
471.86	13703.84
472.04	13762.35
472.22	14005.77
472.40	13724.90
472.58	13710.86
472.77	13837.25
472.95	14148.54
473.13	14473.87
473.31	14073.64
473.49	14083.00
473.67	14274.93
473.85	14483.24
474.03	14689.20
474.21	14752.40
474.39	14839.00
474.57	14806.23
474.75	14855.38
474.93	15197.10
475.12	14864.74
475.30	15211.14
475.48	15087.09
475.66	15346.89
475.84	15145.61
476.02	15295.40
476.20	15681.59
476.38	15719.04
476.56	16013.95
476.74	15960.11
476.92	15829.04
477.10	15896.92
477.28	16196.51
477.46	16149.70
477.64	16042.03
477.82	16732.49
478.00	17238.05
478.18	16531.20
478.36	16919.73
478.54	17242.73
478.72	17170.17
478.90	17362.09
479.08	17685.09
479.26	17841.90
479.44	17914.46
479.62	17972.97
479.80	18008.08
479.98	18242.14
480.16	18513.64
480.34	18267.88
480.52	18651.73
480.70	18654.07
480.88	18483.21
481.06	18728.97
481.24	18714.92
481.41	19089.41
481.59	19330.48
481.77	19728.38
481.95	19824.34
482.13	19754.12
482.31	19520.07
482.49	20386.07
482.67	20367.34
482.85	20463.30
483.03	20568.63
483.21	20730.12
483.39	20741.83
483.57	20922.05
483.74	21315.26
483.92	21605.49
484.10	21514.20
484.28	21947.20
484.46	22272.54
484.64	22141.47
484.82	21909.75
485.00	22443.40
485.18	22700.86
485.35	22810.86
485.53	22726.60
485.71	23353.87
485.89	23475.57
486.07	23482.59
486.25	23562.17
486.43	23740.05
486.61	23967.09
486.78	24016.24
486.96	24212.84
487.14	24802.66
487.32	24552.22
487.50	24868.19
487.68	24943.09
487.85	24835.42
488.03	25479.07
488.21	25862.92
488.39	25816.11
488.57	26071.23
488.75	26122.72
488.92	26857.65
489.10	26768.71
489.28	26698.49
489.46	27421.72
489.64	27009.78
489.81	27679.18
489.99	27599.60
490.17	28048.98
490.35	28322.82
490.53	28205.80
490.70	28622.41
490.88	28807.31
491.06	28903.28
491.24	28907.96
491.41	29123.29
491.59	30089.93
491.77	29523.52
491.95	29677.99
492.13	30071.20
492.30	30012.69
492.48	30384.83
492.66	30033.75
492.84	30569.74
493.01	30958.27
493.19	30764.00
493.37	31253.17
493.54	31063.59
493.72	31962.36
493.90	31613.62
494.08	32084.06
494.25	31510.63
494.43	32268.97
494.61	32657.49
494.79	32341.52
494.96	32416.42
495.14	32598.98
495.32	33270.72
495.49	33184.12
495.67	33429.87
495.85	33874.57
496.02	33935.43
496.20	34225.65
496.38	34026.71
496.55	34227.99
496.73	34738.23
496.91	34419.92
497.09	34801.43
497.26	35264.85
497.44	35164.21
497.62	35536.35
497.79	36165.96
497.97	35590.19
498.14	36177.66
498.32	36474.91
498.50	36294.69
498.67	36533.42
498.85	36589.59
499.03	36811.95
499.20	36809.61
499.38	37034.30
499.56	37296.44
499.73	37385.38
499.91	37179.41
500.08	37848.80
500.26	36886.84
500.44	37757.52
500.61	37855.82
500.79	38029.02
500.97	38260.74
501.14	38204.56
501.32	38625.86
501.49	38485.43
501.67	39229.72
501.84	38885.66
502.02	38754.59
502.20	39281.21
502.37	39519.95
502.55	39573.78
502.72	39365.47
502.90	39688.46
503.07	39271.85
503.25	39604.20
503.43	40062.95
503.60	40311.05
503.78	40631.70
503.95	40425.73
504.13	40975.76
504.30	40460.84
504.48	40907.88
504.65	40816.60
504.83	41331.52
505.01	41247.26
505.18	41221.52
505.36	42050.06
505.53	41406.42
505.71	41785.58
505.88	41801.97
506.06	41708.35
506.23	42174.11
506.41	41897.93
506.58	42424.55
506.76	42323.91
506.93	42422.21
507.11	42548.60
507.28	42483.06
507.46	43042.45
507.63	43468.43
507.81	43744.61
507.98	42878.61
508.16	43213.31
508.33	43800.79
508.50	43852.28
508.68	43831.21
508.85	44245.49
509.03	44325.07
509.20	43782.06
509.38	44142.50
509.55	44645.72
509.73	44781.47
509.90	44900.84
510.08	44673.81
510.25	44554.44
510.42	44664.44
510.60	44924.24
510.77	45467.25
510.95	45551.51
511.12	45151.27
511.30	45106.80
511.47	45581.93
511.64	45485.97
511.82	45649.81
511.99	45595.98
512.17	46167.07
512.34	45752.79
512.51	46354.31
512.69	46679.64
512.86	46389.42
513.04	46775.61
513.21	46377.72
513.38	46890.29
513.56	47189.88
513.73	46761.56
513.90	46976.89
514.08	47325.63
514.25	47667.35
514.43	47508.19
514.60	47353.72
514.77	47318.61
514.95	47903.74
515.12	47416.91
515.29	47936.51
515.47	48016.09
515.64	48119.07
515.81	47873.32
515.99	48135.46
516.16	48575.48
516.33	48484.20
516.51	48669.10
516.68	48641.01
516.85	48339.08
517.03	48821.23
517.20	48926.56
517.37	48999.12
517.54	48931.24
517.72	49111.46
517.89	48783.79
518.06	49242.53
518.24	49467.22
518.41	49509.35
518.58	48954.64
518.75	49336.15
518.93	49705.96
519.10	49560.84
519.27	49851.07
519.45	49551.48
519.62	50267.69
519.79	50302.79
519.96	49932.99
520.14	50248.96
520.31	50468.97
520.48	50796.65
520.65	50714.73
520.83	50684.30
521.00	50777.92
521.17	50679.62
521.34	50925.38
521.52	51047.08
521.69	51035.38
521.86	50848.14
522.03	50976.87
522.20	51489.45
522.38	51615.83
522.55	51456.68
522.72	51859.25
522.89	51309.22
523.07	51950.53
523.24	51299.86
523.41	51845.21
523.58	51688.39
523.75	51812.44
523.92	51969.26
524.10	52135.43
524.27	51908.40
524.44	52097.98
524.61	52357.78
524.78	52217.35
524.96	52411.62
525.13	52100.32
525.30	52416.30
525.47	52570.77
525.64	52425.66
525.81	52966.32
525.98	52589.50
526.16	52753.33
526.33	52823.55
526.50	53090.37
526.67	52982.71
526.84	52989.73
527.01	53118.46
527.18	53083.35
527.36	53282.30
527.53	53322.08
527.70	53399.32
527.87	53464.86
528.04	53113.78
528.21	53336.13
528.38	53509.33
528.55	53525.71
528.72	53408.68
528.89	53719.98
529.07	53420.39
529.24	53633.38
529.41	53844.02
529.58	53771.47
529.75	53876.79
529.92	53778.49
530.09	54028.93
530.26	54337.88
530.43	54178.72
530.60	53900.20
530.77	54199.79
530.94	54188.08
531.11	54138.93
531.28	54429.16
531.46	54391.71
531.63	54227.87
531.80	54370.64
531.97	54630.44
532.14	54518.10
532.31	54246.60
532.48	54707.68
532.65	54564.91
532.82	54714.70
532.99	54808.32
533.16	54918.33
533.33	54820.03
533.50	55054.08
533.67	54805.98
533.84	54752.15
534.01	54880.88
534.18	55098.55
534.35	55529.21
534.52	55199.19
534.69	55054.08
534.86	55421.55
535.03	55114.94
535.20	55285.79
535.37	55494.10
535.54	55379.42
535.71	55194.51
535.88	55451.97
536.05	55643.90
536.22	55873.27
536.38	55627.51
536.55	55791.35
536.72	55906.04
536.89	55412.18
537.06	55866.25
537.23	55973.91
537.40	55597.09
537.57	55735.18
537.74	55856.88
537.91	56030.08
538.08	56058.17
538.25	55873.27
538.42	56172.86
538.59	56238.39
538.75	56083.92
538.92	56156.47
539.09	56303.93
539.26	56240.73
539.43	56282.86
539.60	56196.26
539.77	56348.40
539.94	56516.92
540.11	56413.93
540.28	56631.60
540.44	56404.57
540.61	56552.02
540.78	56507.55
540.95	56547.34
541.12	56456.06
541.29	56582.45
541.46	56608.20
541.62	56687.78
541.79	56474.79
541.96	56207.97
542.13	56680.75
542.30	56779.06
542.47	57027.15
542.63	56863.32
542.80	57104.39
542.97	57223.76
543.14	57254.18
543.31	57279.93
543.48	57202.69
543.64	57453.13
543.81	57420.36
543.98	57455.47
544.15	57361.85
544.32	57558.45
544.48	57628.67
544.65	57333.76
544.82	57439.09
544.99	57249.50
545.16	57916.56
545.32	57446.11
545.49	57804.21
545.66	57773.78
545.83	57724.63
546.00	57764.42
546.16	57839.32
546.33	57755.06
546.50	57841.66
546.67	57670.80
546.83	57542.07
547.00	57820.59
547.17	57626.33
547.34	57682.50
547.50	58068.69
547.67	58040.60
547.84	57993.79
548.00	58220.83
548.17	58169.33
548.34	58225.51
548.51	58473.60
548.67	58204.44
548.84	58101.46
549.01	58234.87
549.18	58246.57
549.34	58213.80
549.51	58370.62
549.68	58588.29
549.84	58492.33
550.01	58307.43
550.18	58527.44
550.34	58532.12
550.51	58583.61
550.68	58494.67
550.84	58445.52
551.01	58679.57
551.18	58585.95
551.34	58639.78
551.51	58592.97
551.68	58789.58
551.84	58520.41
552.01	58599.99
552.18	58829.37
552.34	58501.69
552.51	58829.37
552.68	58731.06
552.84	58775.53
553.01	59133.63
553.18	59082.14
553.34	59091.51
553.51	58831.71
553.67	58969.80
553.84	59032.99
554.01	58974.48
554.17	59028.31
554.34	58897.24
554.51	59302.15
554.67	58866.81
554.84	59157.04
555.00	59072.78
555.17	59021.29
555.33	59030.65
555.50	58710.00
555.67	58958.09
555.83	59283.43
556.00	59206.19
556.16	59435.56
556.33	59346.62
556.50	59358.33
556.66	59487.06
556.83	59358.33
556.99	59451.95
557.16	59601.74
557.32	59655.57
557.49	59828.77
557.65	59248.32
557.82	59430.88
557.98	59332.58
558.15	59561.95
558.32	59606.42
558.48	59458.97
558.65	59681.32
558.81	59648.55
558.98	59669.62
559.14	59821.75
559.31	59641.53
559.47	59634.51
559.64	59585.36
559.80	59889.63
559.97	59934.10
560.13	59639.19
560.30	59938.78
560.46	59859.20
560.63	59690.68
560.79	59833.46
560.96	59987.93
561.12	59922.40
561.29	60107.30
561.45	59730.47
561.61	59887.29
561.78	59817.07
561.94	59671.96
562.11	59997.29
562.27	59973.89
562.44	59861.54
562.60	60224.32
562.77	59992.61
562.93	59760.90
563.10	60205.60
563.26	60034.74
563.42	60296.88
563.59	60137.72
563.75	60313.26
563.92	60200.92
564.08	59948.14
564.24	60289.86
564.41	60221.98
564.57	60137.72
564.74	60329.65
564.90	60170.49
565.07	60224.32
565.23	60207.94
565.39	60317.95
565.56	60266.45
565.72	60137.72
565.88	60254.75
566.05	60093.25
566.21	60104.96
566.38	60273.48
566.54	60219.64
566.70	60423.27
566.87	60346.03
567.03	60313.26
567.19	60589.45
567.36	60371.78
567.52	60367.10
567.68	60596.47
567.85	60470.08
568.01	60561.36
568.17	60210.28
568.34	60514.55
568.50	60317.95
568.66	60458.38
568.83	60432.63
568.99	60427.95
569.15	60444.33
569.32	60427.95
569.48	60294.54
569.64	60622.22
569.81	60453.70
569.97	60254.75
570.13	60479.44
570.30	60402.21
570.46	60554.34
570.62	60556.68
570.78	60463.06
570.95	60444.33
571.11	60720.52
571.27	60453.70
571.43	60568.38
571.60	60779.03
571.76	60657.32
571.92	60678.39
572.09	60659.66
572.25	60734.56
572.41	60591.79
572.57	60673.71
572.74	60662.00
572.90	60505.19
573.06	60704.13
573.22	60559.02
573.38	60666.69
573.55	60643.28
573.71	60865.63
573.87	60874.99
574.03	60767.33
574.20	60720.52
574.36	60587.11
574.52	60734.56
574.68	60867.97
574.84	60935.85
575.01	60846.91
575.17	60734.56
575.33	60687.75
575.49	60587.11
575.65	60942.87
575.82	60624.56
575.98	60821.16
576.14	61104.37
576.30	60898.40
576.46	60851.59
576.62	60718.18
576.79	60912.44
576.95	60734.56
577.11	60802.44
577.27	60994.36
577.43	61059.90
577.59	60652.64
577.75	60823.50
577.92	60727.54
578.08	60807.12
578.24	60851.59
578.40	60940.53
578.56	60959.25
578.72	60989.68
578.88	61127.77
579.04	61052.87
579.21	61062.24
579.37	61111.39
579.53	61216.71
579.69	60713.50
579.85	60694.77
580.01	60952.23
580.17	60879.67
580.33	61109.05
580.49	61029.47
580.65	60959.25
580.82	60954.57
580.98	60879.67
581.14	60870.31
581.30	61050.53
581.46	61111.39
581.62	60968.61
581.78	60893.72
581.94	61155.86
582.10	60933.51
582.26	61031.81
582.42	60912.44
582.58	61062.24
582.74	60865.63
582.90	61010.74
583.06	61162.88
583.22	60903.08
583.38	60968.61
583.54	61015.43
583.70	61083.30
583.86	61066.92
584.02	60818.82
584.18	61113.73
584.34	60996.70
584.50	61099.68
584.66	60968.61
584.82	60858.61
584.98	61315.01
585.14	61240.12
585.30	60968.61
585.46	61212.03
585.62	61197.99
585.78	61160.54
585.94	60961.59
586.10	61017.77
586.26	61242.46
586.42	61003.72
586.58	61104.37
586.74	61155.86
586.90	61111.39
587.06	60940.53
587.22	61151.18
587.38	61064.58
587.54	61312.67
587.70	61275.22
587.86	61172.24
588.02	61139.47
588.18	61347.78
588.34	61165.22
588.49	60956.91
