SpectraSuite Data File
++++++++++++++++++++++++++++++++++++
Date: Fri Oct 25 11:22:54 EDT 2013
User: price-jones
Dark Spectrum Present: No
Reference Spectrum Present: No
Number of Sampled Component Spectra: 1
Spectrometers: USB2+H05261
Integration Time (usec): 100000 (USB2+H05261)
Spectra Averaged: 1 (USB2+H05261)
Boxcar Smoothing: 0 (USB2+H05261)
Correct for Electrical Dark: No (USB2+H05261)
Strobe/Lamp Enabled: No (USB2+H05261)
Correct for Detector Non-linearity: No (USB2+H05261)
Correct for Stray Light: No (USB2+H05261)
Number of Pixels in Processed Spectrum: 2048
>>>>>Begin Processed Spectral Data<<<<<
365.73	241.08
365.92	241.08
366.12	241.08
366.32	131.07
366.52	238.73
366.72	205.97
366.91	79.58
367.11	215.33
367.31	184.90
367.51	142.77
367.70	117.03
367.90	117.03
368.10	124.05
368.30	53.83
368.49	131.07
368.69	142.77
368.89	180.22
369.09	135.75
369.28	131.07
369.48	110.01
369.68	182.56
369.87	145.11
370.07	189.58
370.27	180.22
370.47	311.29
370.66	592.16
370.86	676.41
371.06	629.60
371.25	772.38
371.45	645.99
371.65	683.44
371.84	608.54
372.04	704.50
372.24	723.23
372.44	751.31
372.63	744.29
372.83	664.71
373.03	727.91
373.22	732.59
373.42	730.25
373.62	727.91
373.81	777.06
374.01	805.14
374.21	873.02
374.40	744.29
374.60	861.32
374.79	807.48
374.99	807.48
375.19	791.10
375.38	744.29
375.58	821.53
375.78	830.89
375.97	889.40
376.17	957.28
376.37	866.00
376.56	912.81
376.76	924.51
376.95	854.30
377.15	816.85
377.35	940.90
377.54	954.94
377.74	891.74
377.93	919.83
378.13	908.13
378.33	933.87
378.52	940.90
378.72	940.90
378.91	947.92
379.11	952.60
379.31	915.15
379.50	870.68
379.70	968.98
379.89	954.94
380.09	1020.47
380.28	1001.75
380.48	1048.56
380.68	990.05
380.87	1078.99
381.07	999.41
381.26	1027.50
381.46	1032.18
381.65	1020.47
381.85	1067.28
382.04	1022.81
382.24	1043.88
382.43	1083.67
382.63	1043.88
382.83	1135.16
383.02	1006.43
383.22	1074.31
383.41	1020.47
383.61	1062.60
383.80	1170.27
384.00	1132.82
384.19	1043.88
384.39	1100.05
384.58	1130.48
384.78	1149.20
384.97	1135.16
385.17	1193.67
385.36	1191.33
385.56	1186.65
385.75	1128.14
385.95	1193.67
386.14	1224.10
386.34	1191.33
386.53	1193.67
386.72	1217.08
386.92	1249.85
387.11	1303.68
387.31	1280.27
387.50	1214.74
387.70	1210.06
387.89	1296.66
388.09	1247.51
388.28	1277.93
388.48	1284.95
388.67	1437.09
388.86	1296.66
389.06	1301.34
389.25	1341.13
389.45	1376.24
389.64	1301.34
389.84	1348.15
390.03	1329.42
390.22	1355.17
390.42	1355.17
390.61	1341.13
390.81	1401.98
391.00	1432.41
391.19	1439.43
391.39	1451.13
391.58	1476.88
391.78	1451.13
391.97	1453.47
392.16	1521.35
392.36	1610.29
392.55	1514.33
392.75	1614.97
392.94	1509.65
393.13	1561.14
393.33	1448.79
393.52	1547.09
393.71	1629.01
393.91	1540.07
394.10	1528.37
394.29	1614.97
394.49	1659.44
394.68	1680.50
394.88	1593.90
395.07	1593.90
395.26	1694.55
395.46	1769.44
395.65	1678.16
395.84	1748.38
396.04	1732.00
396.23	1827.96
396.42	1757.74
396.62	1682.85
396.81	1739.02
397.00	1774.13
397.19	1788.17
397.39	1785.83
397.58	1849.02
397.77	1790.51
397.97	1804.55
398.16	1830.30
398.35	1863.07
398.55	1809.23
398.74	1902.86
398.93	1982.43
399.12	1879.45
399.32	1919.24
399.51	1919.24
399.70	2087.76
399.90	2038.61
400.09	1914.56
400.28	1909.88
400.47	2083.08
400.67	2080.74
400.86	1987.11
401.05	2143.93
401.24	2097.12
401.44	2099.46
401.63	2223.51
401.82	2129.89
402.01	2150.95
402.21	2204.78
402.40	2270.32
402.59	2172.02
402.78	2216.49
402.97	2256.28
403.17	2352.24
403.36	2331.17
403.55	2352.24
403.74	2401.39
403.93	2347.56
404.13	2359.26
404.32	2382.67
404.51	2354.58
404.70	2436.50
404.89	2382.67
405.09	2523.10
405.28	2595.65
405.47	2492.67
405.66	2525.44
405.85	2588.63
406.05	2513.74
406.24	2553.52
406.43	2689.28
406.62	2717.36
406.81	2628.42
407.00	2455.22
407.20	2649.49
407.39	2684.59
407.58	2600.34
407.77	2693.96
407.96	2757.15
408.15	2850.77
408.34	2691.62
408.54	2759.49
408.73	2862.48
408.92	2857.79
409.11	3005.25
409.30	2848.43
409.49	2923.33
409.68	2949.08
409.87	2846.09
410.07	3063.76
410.26	3115.25
410.45	3002.91
410.64	3030.99
410.83	2993.55
411.02	3038.02
411.21	3173.77
411.40	3141.00
411.59	3321.22
411.78	3225.26
411.98	3243.98
412.17	3246.32
412.36	3300.16
412.55	3499.10
412.74	3391.44
412.93	3494.42
413.12	3468.67
413.31	3412.50
413.50	3449.95
413.69	3447.61
413.88	3684.00
414.07	3639.53
414.26	3765.92
414.45	3632.51
414.64	3723.79
414.83	3758.90
415.02	3817.41
415.22	3927.42
415.41	3864.22
415.60	3889.97
415.79	3929.76
415.98	4021.04
416.17	4032.74
416.36	3889.97
416.55	4114.66
416.74	4105.30
416.93	3899.33
417.12	4166.15
417.31	4156.79
417.50	4278.50
417.69	4395.53
417.88	4255.09
418.07	4215.30
418.26	4276.16
418.45	4461.06
418.64	4660.01
418.83	4442.34
419.02	4699.80
419.21	4582.77
419.39	4678.73
419.58	4550.00
419.77	4484.47
419.96	4634.26
420.15	4667.03
420.34	4702.14
420.53	4706.82
420.72	4777.03
420.91	4734.90
421.10	4741.93
421.29	4821.50
421.48	4697.46
421.67	4854.27
421.86	4868.31
422.05	4875.34
422.24	5011.09
422.43	4952.57
422.61	4985.34
422.80	5055.56
422.99	4975.98
423.18	4994.70
423.37	4973.64
423.56	4889.38
423.75	4943.21
423.94	4959.60
424.13	4606.17
424.32	4901.08
424.50	5200.67
424.69	5109.39
424.88	5163.22
425.07	4950.23
425.26	4992.36
425.45	5125.77
425.64	5011.09
425.83	4933.85
426.01	5043.85
426.20	5053.22
426.39	5032.15
426.58	5132.79
426.77	5102.37
426.96	5198.33
427.15	5057.90
427.33	5327.06
427.52	5275.57
427.71	5507.28
427.90	5371.53
428.09	5371.53
428.28	5397.28
428.46	5348.12
428.65	5500.26
428.84	5617.29
429.03	5621.97
429.22	5404.30
429.40	5547.07
429.59	5631.33
429.78	5359.83
429.97	5460.47
430.16	5448.77
430.34	5633.67
430.53	5823.25
430.72	5668.78
430.91	5769.42
431.10	5729.63
431.28	5944.96
431.47	5790.49
431.66	5809.21
431.85	5673.46
432.03	6017.52
432.22	6017.52
432.41	5933.26
432.60	6024.54
432.79	5951.98
432.97	6045.60
433.16	6094.76
433.35	6038.58
433.54	6228.17
433.72	6085.39
433.91	5980.07
434.10	6202.42
434.28	6118.16
434.47	6221.14
434.66	6450.52
434.85	6389.66
435.03	6260.93
435.22	6314.77
435.41	6581.59
435.59	6445.84
435.78	6406.05
435.97	6586.27
436.16	6534.78
436.34	6586.27
436.53	6558.18
436.72	6663.51
436.90	6445.84
437.09	6679.89
437.28	6572.22
437.46	6548.82
437.65	6773.51
437.84	6885.86
438.02	6822.66
438.21	6932.67
438.40	6789.89
438.58	7021.61
438.77	7030.97
438.96	6981.82
439.14	7201.83
439.33	7148.00
439.52	7328.22
439.70	7400.77
439.89	7375.03
440.08	7349.28
440.26	7506.10
440.45	7426.52
440.63	7489.71
440.82	7655.89
441.01	7761.22
441.19	7803.35
441.38	7784.62
441.57	7735.47
441.75	7805.69
441.94	8088.89
442.12	7901.65
442.31	8320.60
442.50	8060.80
442.68	7953.14
442.87	8194.22
443.05	8241.03
443.24	8372.10
443.43	8177.83
443.61	8271.45
443.80	8631.90
443.98	8208.26
444.17	7981.23
444.35	8280.82
444.54	8304.22
444.73	8332.31
444.91	8442.31
445.10	8533.59
445.28	8393.16
445.47	8498.49
445.65	8418.91
445.84	8329.97
446.02	8599.13
446.21	8528.91
446.39	8468.06
446.58	8662.32
446.77	8624.87
446.95	8411.89
447.14	8418.91
447.32	8549.98
447.51	8575.72
447.69	8615.51
447.88	8575.72
448.06	8542.96
448.25	8470.40
448.43	8732.54
448.62	8695.09
448.80	8681.05
448.99	8568.70
449.17	8851.91
449.36	8690.41
449.54	8805.10
449.73	8901.06
449.91	9015.74
450.10	9036.81
450.28	9188.94
450.46	9123.41
450.65	9163.20
450.83	9177.24
451.02	9423.00
451.20	9247.46
451.39	9254.48
451.57	9104.68
451.76	9076.60
451.94	9252.14
452.13	9488.53
452.31	9200.65
452.49	9275.54
452.68	9561.09
452.86	9521.30
453.05	9600.88
453.23	9357.46
453.42	9444.06
453.60	9366.82
453.78	9563.43
453.97	9774.08
454.15	9898.13
454.34	9298.95
454.52	9753.01
454.70	9694.50
454.89	9804.50
455.07	9891.10
455.26	9966.00
455.44	10078.35
455.62	10078.35
455.81	10092.39
455.99	10251.55
456.17	10097.07
456.36	10319.42
456.54	10176.65
456.73	10403.68
456.91	10459.85
457.09	10394.32
457.28	10565.18
457.46	10443.47
457.64	10647.10
457.83	10707.95
458.01	10656.46
458.19	10787.53
458.38	10822.64
458.56	11112.86
458.74	11009.88
458.93	10778.17
459.11	10766.46
459.29	10843.70
459.48	11042.65
459.66	10778.17
459.84	11014.56
460.03	11049.67
460.21	10937.32
460.39	11239.25
460.57	11150.31
460.76	11178.40
460.94	11337.56
461.12	11122.23
461.31	10972.43
461.49	11321.17
461.67	11335.21
461.85	11770.55
462.04	11459.26
462.22	11915.67
462.40	11548.20
462.59	11482.67
462.77	11737.79
462.95	11337.56
463.13	11803.32
463.32	11871.20
463.50	11707.36
463.68	11749.49
463.86	11995.25
464.05	11822.05
464.23	11817.36
464.41	12046.74
464.59	11808.00
464.78	12318.24
464.96	12219.94
465.14	11927.37
465.32	12224.62
465.50	12355.69
465.69	12191.85
465.87	12381.43
466.05	12297.17
466.23	12374.41
466.41	12479.74
466.60	12751.24
466.78	12482.08
466.96	12425.90
467.14	12493.78
467.32	12430.59
467.51	12901.03
467.69	12332.28
467.87	12610.81
468.05	12765.28
468.23	12671.66
468.41	12573.36
468.60	12697.41
468.78	12746.56
468.96	12592.08
469.14	13025.08
469.32	12938.48
469.50	12910.40
469.69	13235.73
469.87	13355.10
470.05	13350.42
470.23	13128.06
470.41	13408.93
470.59	13303.60
470.77	13556.38
470.95	13392.55
471.14	14045.55
471.32	13373.82
471.50	13474.46
471.68	13542.34
471.86	13928.53
472.04	13703.84
472.22	14003.43
472.40	13710.86
472.58	14223.44
472.77	13977.68
472.95	14115.77
473.13	14778.14
473.31	14335.78
473.49	13998.74
473.67	14317.06
473.85	14424.72
474.03	14885.81
474.21	14831.97
474.39	14642.39
474.57	14862.40
474.75	14782.82
474.93	15185.40
475.12	15082.41
475.30	15293.06
475.48	15456.90
475.66	15232.21
475.84	15236.89
476.02	15351.57
476.20	15983.52
476.38	15658.18
476.56	16109.91
476.74	16114.59
476.92	15887.56
477.10	16004.58
477.28	16360.34
477.46	16460.99
477.64	16741.85
477.82	16486.73
478.00	17097.61
478.18	17090.59
478.36	17125.70
478.54	17238.05
478.72	17329.33
478.90	17500.19
479.08	17678.07
479.26	17937.87
479.44	17874.67
479.62	18174.26
479.80	18235.11
479.98	18317.03
480.16	19009.83
480.34	18665.77
480.52	18799.18
480.70	18834.29
480.88	18377.89
481.06	19096.43
481.24	18895.14
481.41	19372.61
481.59	19562.20
481.77	19646.46
481.95	19625.39
482.13	20086.48
482.31	20051.37
482.49	20147.33
482.67	20467.98
482.85	20606.08
483.03	21151.42
483.21	21113.97
483.39	21326.96
483.57	20741.83
483.74	21436.97
483.92	21504.84
484.10	21572.72
484.28	22104.02
484.46	22141.47
484.64	22431.69
484.82	22328.71
485.00	22820.22
485.18	22939.59
485.35	23384.29
485.53	23257.90
485.71	23576.22
485.89	23599.62
486.07	23183.01
486.25	23498.98
486.43	23798.57
486.61	23789.20
486.78	24051.34
486.96	24196.46
487.14	24498.39
487.32	24753.51
487.50	24723.08
487.68	25109.27
487.85	25703.76
488.03	25781.00
488.21	26157.83
488.39	26080.59
488.57	26300.60
488.75	26431.67
488.92	26876.37
489.10	26932.54
489.28	27213.41
489.46	27573.85
489.64	27098.72
489.81	27791.52
489.99	28002.17
490.17	28163.67
490.35	28311.12
490.53	28701.99
490.70	28833.06
490.88	28453.89
491.06	29069.45
491.24	28968.81
491.41	29439.26
491.59	29408.83
491.77	29720.12
491.95	30307.60
492.13	30036.09
492.30	30118.01
492.48	30422.28
492.66	30340.36
492.84	30607.19
493.01	31321.05
493.19	30962.95
493.37	31290.62
493.54	31351.48
493.72	31974.06
493.90	32123.85
494.08	31934.27
494.25	32409.40
494.43	32566.21
494.61	32905.59
494.79	32598.98
494.96	32683.24
495.14	32982.83
495.32	33696.69
495.49	33422.85
495.67	33661.58
495.85	33832.44
496.02	33862.87
496.20	34323.96
496.38	34478.43
496.55	34319.28
496.73	35206.34
496.91	34719.51
497.09	35054.20
497.26	35236.77
497.44	35250.81
497.62	35807.86
497.79	36252.56
497.97	35880.41
498.14	36376.61
498.32	36343.84
498.50	36404.69
498.67	36931.31
498.85	36947.70
499.03	37170.05
499.20	37130.26
499.38	37024.93
499.56	37453.25
499.73	37907.32
499.91	37673.26
500.08	37783.27
500.26	37539.85
500.44	37720.07
500.61	37853.48
500.79	38005.62
500.97	38752.25
501.14	38976.94
501.32	39173.55
501.49	39168.87
501.67	39222.70
501.84	39187.59
502.02	39072.90
502.20	39358.45
502.37	39522.29
502.55	39887.41
502.72	40231.47
502.90	39732.93
503.07	39550.37
503.25	40472.54
503.43	40348.50
503.60	40509.99
503.78	40390.62
503.95	40851.71
504.13	41324.50
504.30	40945.33
504.48	40781.49
504.65	41247.26
504.83	41780.90
505.01	41621.75
505.18	41380.67
505.36	42092.19
505.53	41855.80
505.71	42335.61
505.88	42394.12
506.06	41394.71
506.23	42707.76
506.41	42328.59
506.58	42815.42
506.76	42557.96
506.93	42939.47
507.11	42686.69
507.28	43000.32
507.46	43297.57
507.63	43384.17
507.81	43622.90
507.98	43377.15
508.16	43402.89
508.33	43807.81
508.50	44107.40
508.68	44430.39
508.85	44589.55
509.03	43983.35
509.20	44624.65
509.38	44479.54
509.55	44978.07
509.73	45219.15
509.90	44931.26
510.08	44650.40
510.25	45361.92
510.42	45158.30
510.60	45240.21
510.77	45827.69
510.95	45436.82
511.12	45724.71
511.30	45478.95
511.47	45790.24
511.64	45682.58
511.82	46351.97
511.99	45713.00
512.17	46401.12
512.34	46361.33
512.51	46553.26
512.69	46543.89
512.86	46845.82
513.04	46600.07
513.21	47168.82
513.38	47040.09
513.56	47723.52
513.73	47253.08
513.90	47887.36
514.08	46789.65
514.25	47917.79
514.43	47477.77
514.60	47990.34
514.77	47447.34
514.95	47791.40
515.12	47690.76
515.29	48088.65
515.47	48303.98
515.64	48367.17
515.81	48203.33
515.99	48425.68
516.16	48741.66
516.33	49076.35
516.51	49052.95
516.68	48673.78
516.85	48879.75
517.03	49287.00
517.20	49081.03
517.37	49214.44
517.54	49759.79
517.72	49153.59
517.89	49677.87
518.06	49822.98
518.24	49563.18
518.41	49441.48
518.58	49607.65
518.75	49734.04
518.93	49944.69
519.10	49441.48
519.27	49865.11
519.45	50373.01
519.62	50738.13
519.79	50450.25
519.96	50431.52
520.14	50461.95
520.31	50438.54
520.48	50845.80
520.65	50480.67
520.83	51227.31
521.00	51082.19
521.17	50990.91
521.34	51100.92
521.52	50969.85
521.69	51107.94
521.86	51423.91
522.03	51136.02
522.20	51744.56
522.38	51379.44
522.55	51646.26
522.72	51896.70
522.89	51758.61
523.07	51987.98
523.24	52069.90
523.41	52109.69
523.58	51519.87
523.75	52285.23
523.92	52191.61
524.10	52561.41
524.27	52582.48
524.44	52460.77
524.61	52390.55
524.78	52196.29
524.96	52261.82
525.13	52552.05
525.30	52566.09
525.47	53050.58
525.64	53081.01
525.81	52919.51
525.98	53198.04
526.16	52547.37
526.33	52882.06
526.50	53160.59
526.67	53010.79
526.84	53024.84
527.01	53198.04
527.18	53387.62
527.36	53226.12
527.53	53532.73
527.70	53497.62
527.87	53717.64
528.04	53207.40
528.21	53614.65
528.38	53418.05
528.55	53993.82
528.72	53488.26
528.89	53801.89
529.07	53656.78
529.24	53673.16
529.41	53642.74
529.58	54042.97
529.75	54014.88
529.92	54068.72
530.09	53710.61
530.26	54227.87
530.43	54562.57
530.60	54230.21
530.77	54213.83
530.94	54445.54
531.11	54361.28
531.28	54557.89
531.46	54635.13
531.63	54651.51
531.80	54719.38
531.97	54752.15
532.14	54913.65
532.31	54670.23
532.48	55089.19
532.65	54951.10
532.82	54712.36
532.99	54897.27
533.16	54738.11
533.33	55281.11
533.50	55121.96
533.67	55103.23
533.84	54883.22
534.01	55215.58
534.18	55159.41
534.35	55833.48
534.52	55189.83
534.69	55707.09
534.86	55648.58
535.03	55348.99
535.20	55620.49
535.37	55662.62
535.54	55576.02
535.71	55456.65
535.88	55927.10
536.05	55779.65
536.22	56104.98
536.38	55913.06
536.55	55910.72
536.72	55632.19
536.89	55812.41
537.06	55739.86
537.23	56062.85
537.40	55824.12
537.57	55896.67
537.74	56121.37
537.91	56156.47
538.08	56301.59
538.25	55922.42
538.42	56259.46
538.59	56210.31
538.75	56320.31
538.92	56252.44
539.09	56430.32
539.26	56332.01
539.43	56547.34
539.60	56320.31
539.77	56540.32
539.94	56949.92
540.11	56568.41
540.28	56816.50
540.44	56802.46
540.61	56713.52
540.78	56868.00
540.95	56741.61
541.12	56729.90
541.29	56907.79
541.46	56839.91
541.62	56802.46
541.79	57073.96
541.96	56720.54
542.13	56875.02
542.30	56577.77
542.47	57216.74
542.63	56947.57
542.80	57059.92
542.97	57413.34
543.14	57293.97
543.31	57261.21
543.48	57502.28
543.64	57649.74
543.81	57462.49
543.98	57434.41
544.15	57621.65
544.32	57726.97
544.48	57691.86
544.65	57544.41
544.82	57572.50
544.99	57359.51
545.16	57776.12
545.32	57684.84
545.49	58047.63
545.66	58017.20
545.83	57722.29
546.00	57904.85
546.16	57771.44
546.33	57886.13
546.50	57780.81
546.67	57932.94
546.83	57748.04
547.00	57916.56
547.17	58174.02
547.34	57991.45
547.50	58234.87
547.67	58471.26
547.84	58354.24
548.00	58489.99
548.17	58387.00
548.34	58218.49
548.51	58450.20
548.67	58452.54
548.84	58351.90
549.01	58342.53
549.18	58454.88
549.34	58323.81
549.51	58372.96
549.68	58820.00
549.84	58749.79
550.01	58501.69
550.18	58602.33
550.34	58717.02
550.51	58880.86
550.68	58742.77
550.84	58326.15
551.01	58962.78
551.18	58588.29
551.34	58768.51
551.51	58848.09
551.68	58838.73
551.84	58754.47
552.01	58745.11
552.18	59103.21
552.34	58686.59
552.51	58829.37
552.68	58789.58
552.84	58887.88
553.01	59096.19
553.18	59089.16
553.34	58995.54
553.51	58990.86
553.67	59264.70
553.84	59164.06
554.01	59210.87
554.17	59260.02
554.34	59278.75
554.51	59224.92
554.67	59150.02
554.84	59271.73
555.00	59199.17
555.17	59077.46
555.33	59107.89
555.50	59121.93
555.67	59227.26
555.83	59114.91
556.00	59423.86
556.16	59803.03
556.33	59796.01
556.50	59475.35
556.66	59561.95
556.83	59470.67
556.99	59725.79
557.16	59636.85
557.32	59788.98
557.49	59831.11
557.65	59709.41
557.82	59487.06
557.98	59608.76
558.15	59653.23
558.32	59695.36
558.48	59578.34
558.65	59732.81
558.81	59496.42
558.98	59983.25
559.14	59788.98
559.31	59887.29
559.47	59840.48
559.64	60060.49
559.80	59945.80
559.97	60018.36
560.13	59774.94
560.30	59840.48
560.46	59971.55
560.63	60259.43
560.79	60140.07
560.96	60016.02
561.12	60128.36
561.29	60109.64
561.45	60170.49
561.61	60409.23
561.78	60097.94
561.94	60069.85
562.11	60100.28
562.27	60119.00
562.44	60219.64
562.60	60392.84
562.77	60196.24
562.93	59842.82
563.10	60207.94
563.26	60170.49
563.42	60530.93
563.59	60177.51
563.75	60250.07
563.92	60205.60
564.08	60163.47
564.24	60484.12
564.41	60374.12
564.57	60303.90
564.74	60542.64
564.90	60437.31
565.07	60341.35
565.23	60163.47
565.39	60479.44
565.56	60458.38
565.72	60479.44
565.88	60434.97
566.05	60317.95
566.21	60514.55
566.38	60453.70
566.54	60341.35
566.70	60502.85
566.87	60680.73
567.03	60289.86
567.19	60514.55
567.36	60472.42
567.52	60472.42
567.68	60610.51
567.85	60657.32
568.01	60746.26
568.17	60608.17
568.34	60853.93
568.50	60708.82
568.66	60427.95
568.83	60640.94
568.99	60507.53
569.15	60612.85
569.32	60528.59
569.48	60683.07
569.64	60701.79
569.81	60570.72
569.97	60650.30
570.13	60577.75
570.30	60605.83
570.46	60727.54
570.62	60669.03
570.78	60711.16
570.95	60786.05
571.11	60767.33
571.27	60830.52
571.43	60746.26
571.60	60912.44
571.76	60804.78
571.92	60879.67
572.09	60736.90
572.25	60910.10
572.41	60860.95
572.57	60842.23
572.74	60926.49
572.90	60935.85
573.06	60708.82
573.22	60912.44
573.38	60879.67
573.55	60755.63
573.71	61085.64
573.87	60931.17
574.03	60711.16
574.20	61027.13
574.36	60673.71
574.52	61008.40
574.68	60750.94
574.84	60985.00
575.01	60912.44
575.17	60828.18
575.33	61066.92
575.49	61008.40
575.65	61048.19
575.82	60996.70
575.98	61027.13
576.14	61076.28
576.30	61151.18
576.46	60846.91
576.62	60921.80
576.79	60800.10
576.95	60767.33
577.11	61015.43
577.27	60935.85
577.43	61116.07
577.59	61095.00
577.75	60793.07
577.92	61010.74
578.08	61017.77
578.24	61034.15
578.40	61092.66
578.56	61188.63
578.72	61207.35
578.88	61315.01
579.04	61300.97
579.21	61195.65
579.37	61153.52
579.53	61209.69
579.69	60762.65
579.85	61158.20
580.01	61153.52
580.17	61045.85
580.33	61167.56
580.49	61219.05
580.65	61319.70
580.82	61027.13
580.98	60996.70
581.14	60898.40
581.30	61041.17
581.46	61158.20
581.62	61193.31
581.78	61078.62
581.94	61226.07
582.10	61013.08
582.26	61099.68
582.42	61083.30
582.58	61202.67
582.74	61144.16
582.90	60945.21
583.06	60996.70
583.22	60970.96
583.38	61410.98
583.54	61165.22
583.70	61183.94
583.86	61181.60
584.02	61153.52
584.18	61237.78
584.34	61298.63
584.50	61151.18
584.66	60900.74
584.82	61069.26
584.98	61261.18
585.14	61357.14
585.30	61167.56
585.46	61083.30
585.62	61322.04
585.78	61406.30
585.94	61277.57
586.10	61272.88
586.26	61228.41
586.42	61315.01
586.58	61352.46
586.74	61389.91
586.90	61069.26
587.06	61123.09
587.22	61268.20
587.38	61181.60
587.54	61392.25
587.70	61410.98
587.86	61233.10
588.02	61305.65
588.18	61420.34
588.34	61214.37
