SpectraSuite Data File
++++++++++++++++++++++++++++++++++++
Date: Fri Oct 25 10:44:08 EDT 2013
User: price-jones
Dark Spectrum Present: No
Reference Spectrum Present: No
Number of Sampled Component Spectra: 1
Spectrometers: USB2+H05261
Integration Time (usec): 100000 (USB2+H05261)
Spectra Averaged: 1 (USB2+H05261)
Boxcar Smoothing: 0 (USB2+H05261)
Correct for Electrical Dark: No (USB2+H05261)
Strobe/Lamp Enabled: No (USB2+H05261)
Correct for Detector Non-linearity: No (USB2+H05261)
Correct for Stray Light: No (USB2+H05261)
Number of Pixels in Processed Spectrum: 2048
>>>>>Begin Processed Spectral Data<<<<<
365.73	128.73
365.92	128.73
366.12	128.73
366.32	21.06
366.52	32.77
366.72	21.06
366.91	0.00
367.11	32.77
367.31	30.43
367.51	0.00
367.70	42.13
367.90	23.41
368.10	0.00
368.30	67.88
368.49	21.06
368.69	39.79
368.89	72.56
369.09	91.28
369.28	23.41
369.48	0.00
369.68	110.01
369.87	72.56
370.07	112.35
370.27	126.39
370.47	227.03
370.66	404.91
370.86	348.74
371.06	505.56
371.25	482.15
371.45	358.10
371.65	444.70
371.84	498.53
372.04	526.62
372.24	475.13
372.44	571.09
372.63	458.74
372.83	472.79
373.03	423.64
373.22	472.79
373.42	433.00
373.62	477.47
373.81	475.13
374.01	507.90
374.21	592.16
374.40	533.64
374.60	514.92
374.79	594.50
374.99	592.16
375.19	599.18
375.38	559.39
375.58	585.13
375.78	589.82
375.97	589.82
376.17	606.20
376.37	629.60
376.56	615.56
376.76	645.99
376.95	622.58
377.15	606.20
377.35	648.33
377.54	631.94
377.74	566.41
377.93	566.41
378.13	664.71
378.33	718.54
378.52	706.84
378.72	664.71
378.91	671.73
379.11	734.93
379.31	638.97
379.50	692.80
379.70	685.78
379.89	650.67
380.09	624.92
380.28	657.69
380.48	657.69
380.68	648.33
380.87	730.25
381.07	725.57
381.26	697.48
381.46	669.39
381.65	763.01
381.85	699.82
382.04	718.54
382.24	690.46
382.43	645.99
382.63	599.18
382.83	777.06
383.02	727.91
383.22	739.61
383.41	709.18
383.61	744.29
383.80	807.48
384.00	791.10
384.19	744.29
384.39	821.53
384.58	844.93
384.78	781.74
384.97	849.61
385.17	781.74
385.36	737.27
385.56	711.52
385.75	763.01
385.95	830.89
386.14	910.47
386.34	791.10
386.53	807.48
386.72	805.14
386.92	1011.11
387.11	901.11
387.31	938.55
387.50	926.85
387.70	835.57
387.89	863.66
388.09	908.13
388.28	849.61
388.48	898.77
388.67	919.83
388.86	898.77
389.06	973.66
389.25	985.37
389.45	905.79
389.64	954.94
389.84	1039.20
390.03	992.39
390.22	1064.94
390.42	1029.84
390.61	1036.86
390.81	985.37
391.00	1041.54
391.19	1050.90
391.39	1067.28
391.58	985.37
391.78	997.07
391.97	1050.90
392.16	990.05
392.36	999.41
392.55	1013.45
392.75	968.98
392.94	1055.58
393.13	997.07
393.33	1095.37
393.52	1067.28
393.71	1071.97
393.91	1146.86
394.10	1144.52
394.29	1142.18
394.49	1158.57
394.68	1203.04
394.88	1188.99
395.07	1252.19
395.26	1177.29
395.46	1193.67
395.65	1188.99
395.84	1097.71
396.04	1289.64
396.23	1177.29
396.42	1158.57
396.62	1081.33
396.81	1163.25
397.00	1203.04
397.19	1409.00
397.39	1261.55
397.58	1303.68
397.77	1350.49
397.97	1352.83
398.16	1409.00
398.35	1460.49
398.55	1392.62
398.74	1427.73
398.93	1495.60
399.12	1465.18
399.32	1497.94
399.51	1497.94
399.70	1582.20
399.90	1528.37
400.09	1490.92
400.28	1554.12
400.47	1600.93
400.67	1666.46
400.86	1605.61
401.05	1657.10
401.24	1694.55
401.44	1699.23
401.63	1675.82
401.82	1652.42
402.01	1722.63
402.21	1696.89
402.40	1792.85
402.59	1687.53
402.78	1692.21
402.97	1717.95
403.17	1788.17
403.36	1753.06
403.55	1795.19
403.74	1802.21
403.93	1746.04
404.13	1902.86
404.32	1844.34
404.51	1778.81
404.70	1912.22
404.89	1834.98
405.09	1975.41
405.28	1916.90
405.47	1877.11
405.66	2045.63
405.85	1954.35
406.05	1909.88
406.24	1858.39
406.43	2087.76
406.62	2005.84
406.81	2104.14
407.00	2019.88
407.20	2050.31
407.39	2047.97
407.58	2064.35
407.77	2160.31
407.96	2186.06
408.15	2267.98
408.34	2197.76
408.54	2239.89
408.73	2312.45
408.92	2352.24
409.11	2258.62
409.30	2363.94
409.49	2253.94
409.68	2349.90
409.87	2218.83
410.07	2314.79
410.26	2349.90
410.45	2326.49
410.64	2345.22
410.83	2396.71
411.02	2487.99
411.21	2544.16
411.40	2651.83
411.59	2719.70
411.78	2527.78
411.98	2619.06
412.17	2675.23
412.36	2691.62
412.55	2693.96
412.74	2640.12
412.93	2661.19
413.12	2705.66
413.31	2726.72
413.50	2829.71
413.69	2785.24
413.88	2874.18
414.07	2803.96
414.26	2848.43
414.45	2829.71
414.64	2876.52
414.83	2946.73
415.02	2991.20
415.22	2979.50
415.41	3119.93
415.60	3117.59
415.79	3080.14
415.98	3185.47
416.17	3108.23
416.36	3201.85
416.55	3164.40
416.74	3197.17
416.93	3141.00
417.12	3225.26
417.31	3391.44
417.50	3344.63
417.69	3496.76
417.88	3461.65
418.07	3382.07
418.26	3412.50
418.45	3426.54
418.64	3660.60
418.83	3494.42
419.02	3569.32
419.21	3510.80
419.39	3489.74
419.58	3428.88
419.77	3522.51
419.96	3592.72
420.15	3555.27
420.34	3665.28
420.53	3751.88
420.72	3749.54
420.91	3815.07
421.10	3822.09
421.29	3915.72
421.48	3765.92
421.67	3840.82
421.86	3810.39
422.05	3805.71
422.24	3740.18
422.43	3805.71
422.61	3730.81
422.80	4028.06
422.99	3840.82
423.18	3920.40
423.37	4004.66
423.56	3889.97
423.75	3885.29
423.94	3803.37
424.13	3714.43
424.32	3648.90
424.50	3908.69
424.69	3974.23
424.88	3992.95
425.07	3857.20
425.26	3915.72
425.45	3882.95
425.64	3948.48
425.83	4056.15
426.01	4021.04
426.20	4018.70
426.39	3946.14
426.58	3995.29
426.77	4018.70
426.96	4009.34
427.15	4065.51
427.33	4102.96
427.52	3920.40
427.71	4121.68
427.90	4147.43
428.09	4201.26
428.28	4276.16
428.46	4084.23
428.65	4084.23
428.84	4161.47
429.03	4297.22
429.22	4023.38
429.40	4117.00
429.59	4039.76
429.78	4025.72
429.97	3915.72
430.16	3868.91
430.34	4149.77
430.53	4053.81
430.72	4224.67
430.91	4119.34
431.10	4376.80
431.28	4594.47
431.47	4432.97
431.66	4514.89
431.85	4514.89
432.03	4615.54
432.22	4568.73
432.41	4636.60
432.60	4592.13
432.79	4631.92
432.97	4704.48
433.16	4814.48
433.35	4587.45
433.54	4636.60
433.72	4606.17
433.91	4615.54
434.10	4760.65
434.28	4730.22
434.47	4847.25
434.66	4910.44
434.85	4887.04
435.03	5074.28
435.22	4971.30
435.41	5121.09
435.59	4994.70
435.78	5191.31
435.97	5135.14
436.16	5151.52
436.34	5135.14
436.53	4997.04
436.72	5228.76
436.90	5102.37
437.09	5179.61
437.28	5076.62
437.46	5104.71
437.65	5142.16
437.84	5179.61
438.02	4952.57
438.21	5067.26
438.40	5160.88
438.58	5217.05
438.77	5392.59
438.96	5378.55
439.14	5495.58
439.33	5621.97
439.52	5593.88
439.70	5423.02
439.89	5659.42
440.08	5584.52
440.26	5806.87
440.45	5806.87
440.63	5820.91
440.82	5856.02
441.01	5851.34
441.19	5783.46
441.38	6022.20
441.57	5884.11
441.75	6064.33
441.94	6174.33
442.12	6228.17
442.31	6424.77
442.50	6190.72
442.68	6214.12
442.87	6296.04
443.05	6270.30
443.24	6457.54
443.43	6326.47
443.61	6485.62
443.80	6485.62
443.98	6333.49
444.17	6188.38
444.35	6511.37
444.54	6567.54
444.73	6392.00
444.91	6450.52
445.10	6368.60
445.28	6443.49
445.47	6335.83
445.65	6452.86
445.84	6665.85
446.02	6607.33
446.21	6621.38
446.39	6569.88
446.58	6579.25
446.77	6553.50
446.95	6492.65
447.14	6663.51
447.32	6612.01
447.51	6668.19
447.69	6757.13
447.88	6523.07
448.06	6707.98
448.25	6679.89
448.43	6738.40
448.62	6597.97
448.80	6612.01
448.99	6682.23
449.17	6729.04
449.36	6850.75
449.54	6857.77
449.73	7000.54
449.91	7136.29
450.10	6998.20
450.28	7162.04
450.46	7035.65
450.65	7143.32
450.83	7246.30
451.02	7155.02
451.20	6979.48
451.39	7314.17
451.57	7126.93
451.76	7129.27
451.94	7094.16
452.13	7199.49
452.31	7192.47
452.49	6930.33
452.68	7028.63
452.86	7255.66
453.05	7323.54
453.23	7360.98
453.42	7372.69
453.60	7286.09
453.78	7398.43
453.97	7337.58
454.15	7258.00
454.34	7208.85
454.52	7456.95
454.70	7529.50
454.89	7527.16
455.07	7641.85
455.26	7679.30
455.44	7705.04
455.62	7782.28
455.81	7573.97
455.99	7763.56
456.17	7669.94
456.36	7676.96
456.54	7950.80
456.73	8079.53
456.91	8161.45
457.09	7906.33
457.28	8175.49
457.46	7967.18
457.64	7918.03
457.83	8051.44
458.01	7803.35
458.19	8198.90
458.38	8133.36
458.56	8196.56
458.74	8217.62
458.93	8154.43
459.11	8044.42
459.29	8145.06
459.48	8301.88
459.66	8208.26
459.84	8379.12
460.03	8491.46
460.21	8517.21
460.39	8482.10
460.57	8339.33
460.76	8650.62
460.94	8599.13
461.12	8599.13
461.31	8671.68
461.49	8603.81
461.67	8498.49
461.85	8746.58
462.04	8704.45
462.22	9123.41
462.40	8924.46
462.59	8858.93
462.77	8758.28
462.95	8795.73
463.13	8835.52
463.32	8844.88
463.50	8933.82
463.68	9188.94
463.86	9202.99
464.05	8774.67
464.23	8833.18
464.41	8987.66
464.59	8894.04
464.78	8910.42
464.96	9158.52
465.14	8896.38
465.32	9060.21
465.50	9142.13
465.69	9210.01
465.87	9184.26
466.05	8985.32
466.23	9090.64
466.41	9233.41
466.60	9249.80
466.78	9032.13
466.96	8980.64
467.14	9217.03
467.32	9231.07
467.51	9465.13
467.69	9163.20
467.87	9245.12
468.05	9486.19
468.23	9336.40
468.41	9308.31
468.60	9364.48
468.78	9469.81
468.96	9570.45
469.14	9486.19
469.32	9818.55
469.50	9217.03
469.69	9561.09
469.87	9703.86
470.05	9853.66
470.23	9593.86
470.41	9628.96
470.59	9907.49
470.77	9907.49
470.95	9750.67
471.14	10043.24
471.32	10120.48
471.50	10094.73
471.68	10373.25
471.86	10338.15
472.04	10251.55
472.22	10492.62
472.40	10171.97
472.58	10153.24
472.77	10387.30
472.95	10417.72
473.13	10757.10
473.31	10635.39
473.49	10394.32
473.67	10546.45
473.85	10588.58
474.03	10930.30
474.21	10726.68
474.39	10937.32
474.57	10803.91
474.75	11063.71
474.93	11173.72
475.12	11101.16
475.30	11323.51
475.48	10972.43
475.66	11286.06
475.84	11253.30
476.02	11307.13
476.20	11300.11
476.38	11573.95
476.56	11747.15
476.74	11723.74
476.92	11707.36
477.10	11789.28
477.28	12028.01
477.46	11950.78
477.64	12325.26
477.82	12182.49
478.00	12652.94
478.18	12472.71
478.36	12449.31
478.54	12573.36
478.72	12538.25
478.90	12950.18
479.08	13022.74
479.26	12929.12
479.44	12961.89
479.62	13006.36
479.80	13071.89
479.98	13137.43
480.16	13579.79
480.34	13425.31
480.52	13851.29
480.70	13472.12
480.88	13568.09
481.06	13956.61
481.24	13951.93
481.41	13928.53
481.59	14312.38
481.77	14424.72
481.95	14277.27
482.13	14892.83
482.31	14490.26
482.49	14698.56
482.67	14586.22
482.85	14836.66
483.03	15171.35
483.21	15250.93
483.39	15431.15
483.57	15222.84
483.74	15344.55
483.92	15475.62
484.10	15391.36
484.28	15805.64
484.46	16327.58
484.64	16102.89
484.82	15995.22
485.00	16177.78
485.18	16322.90
485.35	16573.33
485.53	16102.89
485.71	16353.32
485.89	16304.17
486.07	16437.58
486.25	16734.83
486.43	16683.34
486.61	16940.80
486.78	17085.91
486.96	17331.67
487.14	17624.23
487.32	17607.85
487.50	17923.82
487.68	17825.52
487.85	18223.41
488.03	18326.39
488.21	18668.11
488.39	18579.17
488.57	18455.12
488.75	18792.16
488.92	18906.85
489.10	19183.03
489.28	19152.60
489.46	19777.53
489.64	19318.78
489.81	19775.19
489.99	20065.41
490.17	20154.35
490.35	20257.34
490.53	20098.18
490.70	20049.03
490.88	20425.86
491.06	20903.32
491.24	20446.92
491.41	20741.83
491.59	20868.22
491.77	20585.01
491.95	20985.24
492.13	20994.61
492.30	21448.67
492.48	21699.11
492.66	21811.45
492.84	21785.71
493.01	22082.95
493.19	21778.68
493.37	22164.87
493.54	22487.87
493.72	22745.33
493.90	22302.96
494.08	22429.35
494.25	23007.47
494.43	22815.54
494.61	23220.45
494.79	23363.23
494.96	23555.15
495.14	23307.05
495.32	23468.55
495.49	23431.10
495.67	23733.03
495.85	24006.87
496.02	23974.11
496.20	24233.91
496.38	23887.51
496.55	24350.93
496.73	24542.86
496.91	24500.73
497.09	24809.68
497.26	24762.87
497.44	24919.68
497.62	25167.78
497.79	25029.69
497.97	25214.59
498.14	25120.97
498.32	25303.53
498.50	25312.89
498.67	25919.09
498.85	26043.14
499.03	26045.48
499.20	25965.90
499.38	26483.16
499.56	26258.47
499.73	26216.34
499.91	26469.12
500.08	26312.30
500.26	26221.02
500.44	26614.23
500.61	26579.12
500.79	26352.09
500.97	26604.87
501.14	26948.93
501.32	27171.28
501.49	27143.19
501.67	27302.35
501.84	27211.07
502.02	27498.95
502.20	27630.02
502.37	27866.42
502.55	27522.36
502.72	27702.58
502.90	28184.73
503.07	27756.41
503.25	27768.12
503.43	27763.43
503.60	28189.41
503.78	27960.04
503.95	28652.84
504.13	28322.82
504.30	28521.77
504.48	28910.30
504.65	28912.64
504.83	28570.92
505.01	28943.06
505.18	28924.34
505.36	29617.14
505.53	29563.31
505.71	29479.05
505.88	29347.98
506.06	29406.49
506.23	29603.10
506.41	29261.38
506.58	29895.66
506.76	29720.12
506.93	29895.66
507.11	29940.13
507.28	29570.33
507.46	29752.89
507.63	30038.44
507.81	30223.34
507.98	29832.47
508.16	30284.19
508.33	30824.86
508.50	30848.26
508.68	30670.38
508.85	30551.01
509.03	30752.30
509.20	30885.71
509.38	31103.38
509.55	31040.18
509.73	30923.16
509.90	31255.51
510.08	31243.81
510.25	31646.38
510.42	31452.12
510.60	31817.24
510.77	31583.19
510.95	31850.01
511.12	31723.62
511.30	32074.70
511.47	32285.35
511.64	32510.04
511.82	32278.33
511.99	32208.11
512.17	32173.00
512.34	31938.95
512.51	32184.71
512.69	32268.97
512.86	32615.37
513.04	32503.02
513.21	32889.21
513.38	32744.09
513.56	32587.28
513.73	32400.04
513.90	32936.02
514.08	33041.34
514.25	33076.45
514.43	32919.63
514.60	33003.89
514.77	33118.58
514.95	33490.73
515.12	33467.32
515.29	33909.68
515.47	33949.47
515.64	33670.95
515.81	33481.36
515.99	33755.21
516.16	34075.86
516.33	33392.42
516.51	33453.28
516.68	33015.60
516.85	32919.63
517.03	33649.88
517.20	33420.51
517.37	33855.85
517.54	34249.06
517.72	34033.73
517.89	34387.15
518.06	33865.21
518.24	33846.49
518.41	34487.79
518.58	34574.39
518.75	34366.09
518.93	34796.74
519.10	34370.77
519.27	34906.75
519.45	35023.78
519.62	34962.92
519.79	35234.42
519.96	35269.53
520.14	35541.03
520.31	35086.97
520.48	35426.35
520.65	35339.75
520.83	35732.96
521.00	36182.34
521.17	35534.01
521.34	35637.00
521.52	36201.07
521.69	36182.34
521.86	36048.93
522.03	36114.47
522.20	36371.92
522.38	36299.37
522.55	36568.53
522.72	36091.06
522.89	36091.06
523.07	36383.63
523.24	35995.10
523.41	36814.29
523.58	36692.58
523.75	37111.53
523.92	37141.96
524.10	37174.73
524.27	37577.30
524.44	37368.99
524.61	37549.21
524.78	37457.93
524.96	37474.32
525.13	37654.54
525.30	37464.96
525.47	37486.02
525.64	37376.01
525.81	37895.61
525.98	37511.77
526.16	37151.32
526.33	37296.44
526.50	37811.35
526.67	37104.51
526.84	37223.88
527.01	37085.79
527.18	37741.14
527.36	38176.48
527.53	38176.48
527.70	38389.47
527.87	38550.96
528.04	38342.66
528.21	38759.27
528.38	38817.78
528.55	38202.22
528.72	38953.54
528.89	38511.17
529.07	38904.38
529.24	38593.09
529.41	39005.03
529.58	38639.90
529.75	38419.89
529.92	38897.36
530.09	39225.04
530.26	38749.91
530.43	39505.90
530.60	38969.92
530.77	39056.52
530.94	39447.39
531.11	39604.20
531.28	39543.35
531.46	39136.10
531.63	39206.31
531.80	39449.73
531.97	39356.11
532.14	39330.36
532.31	39510.58
532.48	39477.82
532.65	39950.60
532.82	39260.15
532.99	39648.68
533.16	39695.49
533.33	39456.75
533.50	39913.16
533.67	40177.64
533.84	40002.10
534.01	40025.50
534.18	39702.51
534.35	40257.21
534.52	40308.71
534.69	40168.27
534.86	40545.10
535.03	40470.20
535.20	40818.94
535.37	41148.96
535.54	41024.91
535.71	40521.69
535.88	40774.47
536.05	40830.65
536.22	40573.19
536.38	40624.68
536.55	40830.65
536.72	40687.87
536.89	40451.48
537.06	40769.79
537.23	41469.61
537.40	40924.27
537.57	41125.55
537.74	41036.61
537.91	41523.44
538.08	41172.36
538.25	41118.53
538.42	41027.25
538.59	41361.95
538.75	40875.12
538.92	41048.32
539.09	41385.35
539.26	41256.62
539.43	41340.88
539.60	41163.00
539.77	41607.70
539.94	41041.29
540.11	41453.23
540.28	41750.48
540.44	41549.19
540.61	41347.90
540.78	41141.94
540.95	41429.82
541.12	41394.71
541.29	41490.68
541.46	41954.10
541.62	41998.57
541.79	42162.41
541.96	41385.35
542.13	42124.96
542.30	42059.43
542.47	42382.42
542.63	42010.28
542.80	42157.73
542.97	42356.67
543.14	42637.54
543.31	42602.43
543.48	42586.05
543.64	43096.28
543.81	42937.13
543.98	43047.13
544.15	42579.03
544.32	42813.08
544.48	43154.80
544.65	42768.61
544.82	43070.54
544.99	42522.85
545.16	42796.70
545.32	42878.61
545.49	43026.07
545.66	43672.06
545.83	43201.61
546.00	43229.69
546.16	42953.51
546.33	42632.86
546.50	42827.12
546.67	43285.87
546.83	42705.41
547.00	42878.61
547.17	43316.29
547.34	42932.45
547.50	42691.37
547.67	43590.14
547.84	43075.22
548.00	43580.78
548.17	44041.86
548.34	43662.69
548.51	43438.00
548.67	43356.08
548.84	43931.86
549.01	43243.74
549.18	43419.28
549.34	43948.24
549.51	43866.32
549.68	44151.87
549.84	43955.26
550.01	44062.93
550.18	43746.95
550.34	43899.09
550.51	44051.22
550.68	44156.55
550.84	43550.35
551.01	43955.26
551.18	44367.20
551.34	43992.71
551.51	44296.98
551.68	44484.22
551.84	44189.31
552.01	44542.74
552.18	44486.56
552.34	43929.51
552.51	44095.69
552.68	44481.88
552.84	44264.21
553.01	44542.74
553.18	44163.57
553.34	44502.95
553.51	43899.09
553.67	44676.15
553.84	44818.92
554.01	44774.45
554.17	44495.92
554.34	44446.77
554.51	44495.92
554.67	44945.31
554.84	45202.77
555.00	44437.41
555.17	44634.02
555.33	44552.10
555.50	44491.24
555.67	44446.77
555.83	44821.26
556.00	44385.92
556.16	45102.12
556.33	45116.17
556.50	44996.80
556.66	44856.37
556.83	44432.73
556.99	45263.62
557.16	44889.13
557.32	44671.46
557.49	45146.59
557.65	44870.41
557.82	44788.49
557.98	44912.54
558.15	45158.30
558.32	45366.60
558.48	45216.81
558.65	45027.23
558.81	45132.55
558.98	44912.54
559.14	44783.81
559.31	45427.46
559.47	45532.78
559.64	45471.93
559.80	45134.89
559.97	45869.82
560.13	44762.75
560.30	45474.27
560.46	45277.66
560.63	45537.46
560.79	45757.47
560.96	45539.80
561.12	45481.29
561.29	45422.78
561.45	44945.31
561.61	45345.54
561.78	45539.80
561.94	45448.52
562.11	45373.63
562.27	45560.87
562.44	45553.85
562.60	45579.59
562.77	45904.93
562.93	45233.19
563.10	46040.68
563.26	45139.57
563.42	45867.48
563.59	45492.99
563.75	45556.19
563.92	45991.53
564.08	45488.31
564.24	45483.63
564.41	46012.59
564.57	45764.49
564.74	45790.24
564.90	45745.77
565.07	45815.99
565.23	45844.07
565.39	45247.24
565.56	46279.41
565.72	45701.30
565.88	45595.98
566.05	45474.27
566.21	45319.79
566.38	45666.19
566.54	45607.68
566.70	45881.52
566.87	46326.22
567.03	45872.16
567.19	46394.10
567.36	45837.05
567.52	45390.01
567.68	45984.51
567.85	45879.18
568.01	46108.55
568.17	45490.65
568.34	45911.95
568.50	45975.14
568.66	46110.89
568.83	45830.03
568.99	45661.51
569.15	45371.28
569.32	45855.78
569.48	45663.85
569.64	46080.47
569.81	45956.42
569.97	45801.94
570.13	45879.18
570.30	45535.12
570.46	45518.74
570.62	45492.99
570.78	45708.32
570.95	45378.31
571.11	45673.21
571.27	45481.29
571.43	45670.87
571.60	45663.85
571.76	45839.39
571.92	46073.45
572.09	45811.31
572.25	45511.72
572.41	45839.39
572.57	46017.27
572.74	46597.73
572.90	46354.31
573.06	46075.79
573.22	45794.92
573.38	45855.78
573.55	45823.01
573.71	46209.20
573.87	45902.59
574.03	46248.99
574.20	46087.49
574.36	46054.72
574.52	46024.29
574.68	45755.13
574.84	46167.07
575.01	45858.12
575.17	46087.49
575.33	45794.92
575.49	45865.14
575.65	46122.60
575.82	46328.56
575.98	45940.04
576.14	46115.58
576.30	45949.40
576.46	45968.12
576.62	45752.79
576.79	46038.34
576.95	45808.96
577.11	45612.36
577.27	46398.78
577.43	46288.77
577.59	45904.93
577.75	46251.33
577.92	45301.07
578.08	46117.92
578.24	45628.74
578.40	45897.91
578.56	46089.83
578.72	46319.20
578.88	46057.06
579.04	46314.52
579.21	46054.72
579.37	46117.92
579.53	45900.25
579.69	46103.87
579.85	46117.92
580.01	46302.82
580.17	45947.06
580.33	46096.85
580.49	46351.97
580.65	46618.79
580.82	46185.79
580.98	46005.57
581.14	45942.38
581.30	46260.69
581.46	45949.40
581.62	46454.95
581.78	46265.37
581.94	46569.64
582.10	46110.89
582.26	46398.78
582.42	46230.26
582.58	46033.66
582.74	46298.14
582.90	46040.68
583.06	46670.28
583.22	46511.13
583.38	46396.44
583.54	46609.43
583.70	46796.67
583.86	46202.18
584.02	45591.30
584.18	46017.27
584.34	45970.46
584.50	46131.96
584.66	46036.00
584.82	46380.06
584.98	46202.18
585.14	46775.61
585.30	45937.69
585.46	46422.19
585.62	46302.82
585.78	45907.27
585.94	46136.64
586.10	46298.14
586.26	45865.14
586.42	46117.92
586.58	46866.89
586.74	46497.08
586.90	46096.85
587.06	46099.19
587.22	46394.10
587.38	46387.08
587.54	46061.74
587.70	45876.84
587.86	46375.37
588.02	46178.77
588.18	46492.40
588.34	46141.32
588.49	45813.65
588.65	45137.23
588.81	45750.45
588.97	45801.94
589.13	45729.39
589.29	45914.29
589.45	45937.69
589.61	46124.94
589.77	46246.65
589.93	46340.27
