SpectraSuite Data File
++++++++++++++++++++++++++++++++++++
Date: Fri Oct 25 11:26:07 EDT 2013
User: price-jones
Dark Spectrum Present: No
Reference Spectrum Present: No
Number of Sampled Component Spectra: 1
Spectrometers: USB2+H05261
Integration Time (usec): 100000 (USB2+H05261)
Spectra Averaged: 1 (USB2+H05261)
Boxcar Smoothing: 0 (USB2+H05261)
Correct for Electrical Dark: No (USB2+H05261)
Strobe/Lamp Enabled: No (USB2+H05261)
Correct for Detector Non-linearity: No (USB2+H05261)
Correct for Stray Light: No (USB2+H05261)
Number of Pixels in Processed Spectrum: 2048
>>>>>Begin Processed Spectral Data<<<<<
365.73	119.37
365.92	119.37
366.12	119.37
366.32	124.05
366.52	142.77
366.72	168.52
366.91	161.50
367.11	145.11
367.31	102.98
367.51	60.85
367.70	119.37
367.90	212.99
368.10	182.56
368.30	102.98
368.49	110.01
368.69	175.54
368.89	126.39
369.09	166.18
369.28	170.86
369.48	110.01
369.68	205.97
369.87	196.60
370.07	208.31
370.27	210.65
370.47	351.08
370.66	585.13
370.86	624.92
371.06	610.88
371.25	674.07
371.45	617.90
371.65	608.54
371.84	697.48
372.04	713.86
372.24	683.44
372.44	685.78
372.63	746.63
372.83	767.70
373.03	690.46
373.22	784.08
373.42	788.76
373.62	725.57
373.81	821.53
374.01	861.32
374.21	833.23
374.40	880.04
374.60	767.70
374.79	842.59
374.99	891.74
375.19	870.68
375.38	858.98
375.58	835.57
375.78	950.26
375.97	905.79
376.17	1013.45
376.37	840.25
376.56	842.59
376.76	795.78
376.95	823.87
377.15	926.85
377.35	978.34
377.54	945.58
377.74	898.77
377.93	912.81
378.13	964.30
378.33	990.05
378.52	887.06
378.72	968.98
378.91	877.70
379.11	964.30
379.31	912.81
379.50	961.96
379.70	1004.09
379.89	997.07
380.09	1039.20
380.28	950.26
380.48	992.39
380.68	994.73
380.87	994.73
381.07	1034.52
381.26	992.39
381.46	1083.67
381.65	1060.26
381.85	994.73
382.04	1011.11
382.24	1114.10
382.43	1135.16
382.63	1067.28
382.83	1060.26
383.02	1179.63
383.22	1088.35
383.41	1071.97
383.61	1149.20
383.80	1071.97
384.00	1053.24
384.19	1181.97
384.39	1109.41
384.58	1062.60
384.78	1233.46
384.97	1153.88
385.17	1146.86
385.36	1158.57
385.56	1207.72
385.75	1121.12
385.95	1212.40
386.14	1334.11
386.34	1252.19
386.53	1198.35
386.72	1167.93
386.92	1174.95
387.11	1268.57
387.31	1261.55
387.50	1210.06
387.70	1231.12
387.89	1217.08
388.09	1275.59
388.28	1289.64
388.48	1369.21
388.67	1320.06
388.86	1306.02
389.06	1296.66
389.25	1380.92
389.45	1373.89
389.64	1280.27
389.84	1420.71
390.03	1345.81
390.22	1380.92
390.42	1310.70
390.61	1409.00
390.81	1493.26
391.00	1423.05
391.19	1430.07
391.39	1535.39
391.58	1343.47
391.78	1523.69
391.97	1420.71
392.16	1455.81
392.36	1530.71
392.55	1462.83
392.75	1530.71
392.94	1570.50
393.13	1519.01
393.33	1479.22
393.52	1547.09
393.71	1591.56
393.91	1607.95
394.10	1577.52
394.29	1694.55
394.49	1624.33
394.68	1523.69
394.88	1673.48
395.07	1612.63
395.26	1696.89
395.46	1760.08
395.65	1682.85
395.84	1764.76
396.04	1774.13
396.23	1689.87
396.42	1673.48
396.62	1708.59
396.81	1764.76
397.00	1792.85
397.19	1722.63
397.39	1764.76
397.58	1926.26
397.77	1732.00
397.97	1825.62
398.16	1823.28
398.35	2054.99
398.55	1870.09
398.74	1898.17
398.93	1989.46
399.12	2054.99
399.32	1905.20
399.51	1877.11
399.70	1966.05
399.90	2017.54
400.09	1982.43
400.28	2052.65
400.47	2057.33
400.67	2052.65
400.86	2052.65
401.05	2125.21
401.24	2113.50
401.44	2125.21
401.63	2179.04
401.82	2118.18
402.01	2129.89
402.21	2080.74
402.40	2139.25
402.59	2120.53
402.78	2277.34
402.97	2235.21
403.17	2284.36
403.36	2202.44
403.55	2282.02
403.74	2392.03
403.93	2368.62
404.13	2352.24
404.32	2436.50
404.51	2347.56
404.70	2452.88
404.89	2333.51
405.09	2478.63
405.28	2434.16
405.47	2420.11
405.66	2520.76
405.85	2492.67
406.05	2480.97
406.24	2583.95
406.43	2459.90
406.62	2635.44
406.81	2658.85
407.00	2579.27
407.20	2651.83
407.39	2602.68
407.58	2654.17
407.77	2771.19
407.96	2700.98
408.15	2789.92
408.34	2682.25
408.54	2853.11
408.73	2778.22
408.92	2820.35
409.11	2942.05
409.30	2949.08
409.49	2841.41
409.68	2825.03
409.87	2939.71
410.07	2878.86
410.26	3091.85
410.45	2953.76
410.64	3028.65
410.83	3016.95
411.02	3136.32
411.21	3136.32
411.40	3138.66
411.59	3288.45
411.78	3148.02
411.98	3155.04
412.17	3255.69
412.36	3199.51
412.55	3302.50
412.74	3538.89
412.93	3342.28
413.12	3353.99
413.31	3489.74
413.50	3534.21
413.69	3438.25
413.88	3658.26
414.07	3557.61
414.26	3623.15
414.45	3613.79
414.64	3574.00
414.83	3896.99
415.02	3789.33
415.22	3815.07
415.41	3772.94
415.60	3700.39
415.79	3887.63
415.98	3847.84
416.17	4032.74
416.36	4042.11
416.55	4044.45
416.74	4145.09
416.93	4081.89
417.12	4065.51
417.31	4180.20
417.50	4208.28
417.69	4236.37
417.88	4269.14
418.07	4341.69
418.26	4180.20
418.45	4386.16
418.64	4500.85
418.83	4322.97
419.02	4489.15
419.21	4449.36
419.39	4461.06
419.58	4479.79
419.77	4423.61
419.96	4578.09
420.15	4578.09
420.34	4496.17
420.53	4596.81
420.72	4727.88
420.91	4660.01
421.10	4638.94
421.29	4643.62
421.48	4610.86
421.67	4830.87
421.86	4851.93
422.05	4812.14
422.24	4758.31
422.43	4919.81
422.61	4938.53
422.80	4837.89
422.99	5076.62
423.18	4954.91
423.37	4926.83
423.56	4947.89
423.75	4887.04
423.94	4819.16
424.13	4526.60
424.32	4767.67
424.50	4924.49
424.69	5083.64
424.88	5102.37
425.07	5207.69
425.26	4922.15
425.45	4842.57
425.64	5001.72
425.83	4997.04
426.01	5041.51
426.20	5217.05
426.39	5116.41
426.58	5013.43
426.77	5067.26
426.96	5041.51
427.15	5088.32
427.33	5163.22
427.52	5277.91
427.71	5453.45
427.90	5261.52
428.09	5125.77
428.28	5219.39
428.46	5261.52
428.65	5465.15
428.84	5533.03
429.03	5610.26
429.22	5310.68
429.40	5481.53
429.59	5427.70
429.78	5305.99
429.97	5132.79
430.16	5514.30
430.34	5511.96
430.53	5631.33
430.72	5748.36
430.91	5621.97
431.10	5570.48
431.28	5710.91
431.47	5867.72
431.66	5905.17
431.85	5788.14
432.03	5944.96
432.22	5942.62
432.41	5926.24
432.60	5818.57
432.79	5919.21
432.97	5973.05
433.16	5987.09
433.35	5884.11
433.54	6239.87
433.72	6092.41
433.91	6143.91
434.10	6118.16
434.28	6061.99
434.47	6265.61
434.66	6356.90
434.85	6319.45
435.03	6389.66
435.22	6399.02
435.41	6513.71
435.59	6373.28
435.78	6368.60
435.97	6303.06
436.16	6356.90
436.34	6464.56
436.53	6436.47
436.72	6623.72
436.90	6441.15
437.09	6724.36
437.28	6384.98
437.46	6574.56
437.65	6780.53
437.84	6523.07
438.02	6801.60
438.21	6761.81
438.40	6588.61
438.58	7077.78
438.77	6960.75
438.96	6981.82
439.14	7075.44
439.33	7066.08
439.52	7136.29
439.70	7204.17
439.89	7400.77
440.08	7274.38
440.26	7377.37
440.45	7201.83
440.63	7445.24
440.82	7478.01
441.01	7581.00
441.19	7569.29
441.38	7648.87
441.57	7707.38
441.75	7808.03
441.94	7805.69
442.12	7913.35
442.31	7889.95
442.50	7882.92
442.68	7798.66
442.87	8091.23
443.05	7925.05
443.24	8308.90
443.43	8002.29
443.61	8124.00
443.80	8360.39
443.98	7918.03
444.17	7913.35
444.35	8109.96
444.54	8475.08
444.73	8124.00
444.91	8299.54
445.10	8489.12
445.28	8341.67
445.47	8243.37
445.65	8414.23
445.84	8432.95
446.02	8404.86
446.21	8320.60
446.39	8472.74
446.58	8442.31
446.77	8372.10
446.95	8414.23
447.14	8409.54
447.32	8652.96
447.51	8465.72
447.69	8449.33
447.88	8386.14
448.06	8437.63
448.25	8542.96
448.43	8428.27
448.62	8676.37
448.80	8575.72
448.99	8826.16
449.17	8751.26
449.36	8589.77
449.54	8872.97
449.73	8697.43
449.91	8990.00
450.10	8830.84
450.28	9085.96
450.46	9022.77
450.65	9102.34
450.83	9046.17
451.02	9025.11
451.20	9193.62
451.39	9137.45
451.57	9179.58
451.76	9029.79
451.94	9261.50
452.13	9224.05
452.31	9348.10
452.49	9018.08
452.68	9547.05
452.86	9334.06
453.05	9408.95
453.23	9528.32
453.42	9341.08
453.60	9317.67
453.78	9495.55
453.97	9334.06
454.15	9664.07
454.34	9376.19
454.52	9706.20
454.70	9598.54
454.89	9703.86
455.07	9795.14
455.26	9710.88
455.44	10015.15
455.62	9951.96
455.81	9839.61
455.99	9853.66
456.17	9987.07
456.36	10094.73
456.54	9912.17
456.73	10394.32
456.91	10394.32
457.09	10368.57
457.28	10480.92
457.46	10270.27
457.64	10359.21
457.83	10558.16
458.01	10471.56
458.19	10614.33
458.38	10415.38
458.56	10850.72
458.74	10764.12
458.93	10642.42
459.11	10672.84
459.29	10633.05
459.48	10794.55
459.66	10626.03
459.84	10904.56
460.03	10909.24
460.21	10890.51
460.39	10925.62
460.57	11131.59
460.76	10991.16
460.94	11180.74
461.12	11206.48
461.31	11080.10
461.49	10843.70
461.67	11194.78
461.85	11229.89
462.04	11382.03
462.22	11992.90
462.40	11412.45
462.59	11592.67
462.77	11520.12
462.95	11674.59
463.13	11613.74
463.32	11686.29
463.50	11583.31
463.68	11716.72
463.86	11763.53
464.05	11681.61
464.23	11747.15
464.41	11857.15
464.59	11587.99
464.78	11918.01
464.96	12023.33
465.14	11957.80
465.32	11992.90
465.50	12250.36
465.69	12231.64
465.87	12224.62
466.05	12152.06
466.23	12184.83
466.41	12505.48
466.60	12400.16
466.78	12042.06
466.96	12084.19
467.14	12093.55
467.32	12353.35
467.51	12711.45
467.69	12023.33
467.87	12369.73
468.05	12671.66
468.23	12505.48
468.41	12482.08
468.60	12479.74
468.78	12741.88
468.96	12606.13
469.14	12896.35
469.32	13121.04
469.50	12418.88
469.69	12947.84
469.87	13146.79
470.05	13032.10
470.23	13411.27
470.41	13153.81
470.59	13357.44
470.77	13130.41
470.95	13025.08
471.14	13483.83
471.32	13404.25
471.50	13364.46
471.68	13680.43
471.86	13537.66
472.04	13928.53
472.22	13790.44
472.40	13554.04
472.58	13715.54
472.77	13961.30
472.95	14223.44
473.13	14555.79
473.31	13872.36
473.49	14064.28
473.67	13919.17
473.85	14331.10
474.03	14494.94
474.21	14672.82
474.39	14710.27
474.57	14630.69
474.75	15000.49
474.93	14862.40
475.12	15164.33
475.30	14967.73
475.48	14831.97
475.66	15281.36
475.84	14930.28
476.02	15103.48
476.20	15297.74
476.38	15620.74
476.56	15648.82
476.74	15843.09
476.92	16013.95
477.10	15702.65
477.28	15936.71
477.46	16187.14
477.64	16346.30
477.82	16294.81
478.00	16858.88
478.18	16865.90
478.36	16849.52
478.54	16840.15
478.72	16964.20
478.90	17256.77
479.08	17357.41
479.26	17654.66
479.44	17483.80
479.62	17809.14
479.80	18008.08
479.98	18078.30
480.16	18633.00
480.34	18134.47
480.52	18466.83
480.70	18686.84
480.88	18312.35
481.06	18658.75
481.24	18642.37
481.41	19026.21
481.59	19176.01
481.77	19482.62
481.95	19428.79
482.13	19613.69
482.31	19735.40
482.49	20322.87
482.67	20318.19
482.85	20444.58
483.03	20568.63
483.21	20858.85
483.39	20900.98
483.57	20762.89
483.74	20816.72
483.92	21074.18
484.10	21343.35
484.28	21696.77
484.46	21488.46
484.64	22040.82
484.82	21727.19
485.00	22246.79
485.18	22738.30
485.35	23080.02
485.53	22986.40
485.71	23110.45
485.89	23428.76
486.07	22948.95
486.25	23498.98
486.43	23761.12
486.61	23798.57
486.78	24074.75
486.96	24098.16
487.14	24276.04
487.32	24568.60
487.50	24617.75
487.68	24802.66
487.85	25553.97
488.03	25273.10
488.21	25610.14
488.39	25699.08
488.57	25991.65
488.75	26169.53
488.92	26541.68
489.10	26546.36
489.28	26558.06
489.46	27105.74
489.64	26899.78
489.81	27615.98
489.99	27489.59
490.17	27667.47
490.35	27847.69
490.53	28261.97
490.70	28147.28
490.88	28428.15
491.06	28671.56
491.24	28634.11
491.41	29001.58
491.59	29734.17
491.77	29139.67
491.95	29970.56
492.13	29404.15
492.30	29872.26
492.48	30089.93
492.66	30293.55
492.84	30478.46
493.01	30394.20
493.19	30417.60
493.37	30895.07
493.54	31269.56
493.72	31620.64
493.90	31604.25
494.08	31711.92
494.25	31667.45
494.43	32020.87
494.61	32325.14
494.79	32479.61
494.96	32421.10
495.14	32884.53
495.32	33174.75
495.49	32933.68
495.67	32961.76
495.85	33710.74
496.02	33883.94
496.20	33710.74
496.38	34108.63
496.55	33855.85
496.73	34635.25
496.91	34492.47
497.09	34789.72
497.26	34983.99
497.44	34679.72
497.62	35316.34
497.79	35580.82
497.97	35367.84
498.14	36163.62
498.32	35824.24
498.50	36339.16
498.67	36374.27
498.85	36070.00
499.03	36381.29
499.20	36893.86
499.38	36992.17
499.56	36905.57
499.73	36891.52
499.91	37233.24
500.08	37500.06
500.26	37137.28
500.44	37181.75
500.61	37668.58
500.79	37830.08
500.97	38071.15
501.14	38637.56
501.32	38712.46
501.49	38403.51
501.67	38464.36
501.84	39210.99
502.02	38656.29
502.20	38651.61
502.37	39494.20
502.55	39243.76
502.72	38998.01
502.90	39316.32
503.07	39318.66
503.25	39845.28
503.43	39489.52
503.60	39906.13
503.78	40280.62
503.95	39796.13
504.13	40158.91
504.30	40648.08
504.48	40332.11
504.65	40762.77
504.83	41041.29
505.01	41420.46
505.18	40947.67
505.36	41598.34
505.53	41001.50
505.71	41832.39
505.88	41851.12
506.06	41141.94
506.23	41764.52
506.41	41748.14
506.58	41715.37
506.76	41724.73
506.93	42473.70
507.11	42094.53
507.28	42319.23
507.46	42625.84
507.63	42815.42
507.81	42946.49
507.98	43037.77
508.16	43482.47
508.33	43613.54
508.50	43459.07
508.68	43681.42
508.85	43969.30
509.03	43601.84
509.20	44130.80
509.38	43995.05
509.55	44236.12
509.73	44109.74
509.90	44439.75
510.08	43962.28
510.25	44659.76
510.42	44933.60
510.60	44842.32
510.77	45460.23
510.95	45467.25
511.12	44847.00
511.30	44788.49
511.47	45209.79
511.64	45780.88
511.82	46021.95
511.99	45663.85
512.17	45855.78
512.34	45860.46
512.51	46148.34
512.69	46099.19
512.86	46485.38
513.04	46494.74
513.21	46564.96
513.38	47119.66
513.56	46815.40
513.73	46714.75
513.90	46571.98
514.08	46979.23
514.25	46899.65
514.43	47419.25
514.60	47370.10
514.77	47023.70
514.95	47461.38
515.12	47477.77
515.29	47414.57
515.47	48016.09
515.64	48329.72
515.81	47732.89
515.99	47992.68
516.16	47964.60
516.33	48217.38
516.51	48641.01
516.68	48376.53
516.85	48142.48
517.03	48758.04
517.20	48884.43
517.37	48748.68
517.54	48605.91
517.72	48643.35
517.89	48989.75
518.06	49312.75
518.24	48968.69
518.41	49144.23
518.58	49432.11
518.75	49277.64
518.93	49553.82
519.10	49200.40
519.27	49769.15
519.45	49397.01
519.62	49703.62
519.79	50293.43
519.96	50057.04
520.14	49879.16
520.31	49918.95
520.48	50225.56
520.65	50454.93
520.83	50604.72
521.00	50506.42
521.17	50742.81
521.34	50693.66
521.52	50358.97
521.69	50822.39
521.86	50862.18
522.03	51084.53
522.20	51416.89
522.38	51480.08
522.55	51466.04
522.72	51365.40
522.89	51334.97
523.07	51569.02
523.24	51407.53
523.41	51798.40
523.58	51311.56
523.75	51901.38
523.92	51491.79
524.10	51739.88
524.27	52025.43
524.44	51749.24
524.61	52226.71
524.78	51915.42
524.96	52116.71
525.13	52095.64
525.30	52392.89
525.47	52271.18
525.64	52657.37
525.81	52589.50
525.98	52397.57
526.16	52310.97
526.33	52402.25
526.50	53099.73
526.67	52818.87
526.84	53017.82
527.01	52886.74
527.18	52802.49
527.36	53013.13
527.53	52797.80
527.70	53055.26
527.87	53345.49
528.04	52938.24
528.21	53326.77
528.38	53294.00
528.55	53340.81
528.72	53544.44
528.89	53254.21
529.07	53329.11
529.24	53352.51
529.41	53645.08
529.58	53647.42
529.75	53394.64
529.92	53689.55
530.09	53731.68
530.26	54145.95
530.43	53911.90
530.60	53642.74
530.77	53909.56
530.94	53846.36
531.11	53939.99
531.28	54115.53
531.46	54003.18
531.63	54202.13
531.80	54248.94
531.97	54248.94
532.14	54560.23
532.31	54300.43
532.48	54710.02
532.65	54450.22
532.82	54305.11
532.99	54595.34
533.16	54731.09
533.33	54515.76
533.50	55145.36
533.67	54712.36
533.84	54567.25
534.01	54766.20
534.18	54672.57
534.35	55304.52
534.52	54986.21
534.69	54993.23
534.86	55344.31
535.03	54873.86
535.20	54953.44
535.37	55100.89
535.54	55587.72
535.71	55194.51
535.88	55054.08
536.05	55484.74
536.22	55533.89
536.38	55749.22
536.55	55379.42
536.72	55711.77
536.89	55173.45
537.06	55550.27
537.23	55693.05
537.40	55597.09
537.57	55552.62
537.74	55767.94
537.91	56121.37
538.08	56011.36
538.25	55723.47
538.42	55854.54
538.59	56013.70
538.75	55927.10
538.92	55941.14
539.09	56217.33
539.26	56327.33
539.43	55948.17
539.60	56236.05
539.77	56219.67
539.94	56652.67
540.11	56355.42
540.28	56238.39
540.44	56484.15
540.61	56395.21
540.78	56364.78
540.95	56320.31
541.12	56121.37
541.29	56416.27
541.46	56566.07
541.62	56537.98
541.79	56526.28
541.96	56236.05
542.13	56456.06
542.30	56322.65
542.47	56729.90
542.63	56851.61
542.80	56666.71
542.97	57031.83
543.14	57265.89
543.31	57092.69
543.48	57083.33
543.64	57406.32
543.81	57104.39
543.98	57361.85
544.15	57261.21
544.32	57488.24
544.48	57689.52
544.65	57172.27
544.82	57385.25
544.99	57350.15
545.16	57521.01
545.32	57235.46
545.49	57497.60
545.66	57640.37
545.83	57457.81
546.00	57755.06
546.16	57570.16
546.33	57600.58
546.50	57317.38
546.67	57844.00
546.83	57506.96
547.00	57558.45
547.17	57668.46
547.34	57523.35
547.50	58134.23
547.67	58199.76
547.84	57792.51
548.00	57958.69
548.17	57989.11
548.34	57996.13
548.51	58026.56
548.67	58113.16
548.84	58188.06
549.01	58024.22
549.18	58183.38
549.34	58272.32
549.51	58176.36
549.68	58328.49
549.84	58192.74
550.01	58550.84
550.18	58218.49
550.34	58450.20
550.51	58508.71
550.68	58447.86
550.84	58220.83
551.01	58546.16
551.18	58351.90
551.34	58576.59
551.51	58494.67
551.68	58663.19
551.84	58412.75
552.01	58475.94
552.18	58511.05
552.34	58295.72
552.51	58712.34
552.68	58368.28
552.84	58522.76
553.01	58789.58
553.18	58733.40
553.34	58827.02
553.51	58887.88
553.67	58925.33
553.84	58880.86
554.01	58738.08
554.17	59035.33
554.34	59304.49
554.51	58862.13
554.67	59030.65
554.84	58932.35
555.00	58958.09
555.17	59068.10
555.33	59119.59
555.50	58728.72
555.67	58958.09
555.83	59056.40
556.00	59025.97
556.16	59332.58
556.33	59093.85
556.50	59224.92
556.66	59325.56
556.83	59025.97
556.99	59480.03
557.16	59416.84
557.32	59407.48
557.49	59536.21
557.65	59346.62
557.82	59194.49
557.98	59463.65
558.15	59245.98
558.32	59430.88
558.48	59290.45
558.65	59456.63
558.81	59475.35
558.98	59276.41
559.14	59559.61
559.31	59444.93
559.47	59669.62
559.64	59814.73
559.80	59615.79
559.97	59639.19
560.13	59545.57
560.30	59611.10
560.46	59632.17
560.63	59791.33
560.79	59819.41
560.96	59856.86
561.12	59770.26
561.29	59908.35
561.45	59676.64
561.61	59812.39
561.78	59784.30
561.94	59571.32
562.11	59824.09
562.27	59980.91
562.44	59732.81
562.60	60023.04
562.77	59959.84
562.93	59838.14
563.10	59875.58
563.26	60097.94
563.42	60168.15
563.59	60032.40
563.75	59887.29
563.92	59962.18
564.08	59927.08
564.24	60177.51
564.41	60039.42
564.57	60229.01
564.74	59941.12
564.90	60006.65
565.07	60158.79
565.23	60009.00
565.39	60083.89
565.56	60191.56
565.72	60004.31
565.88	60280.50
566.05	60168.15
566.21	60079.21
566.38	60144.75
566.54	60034.74
566.70	60331.99
566.87	60439.65
567.03	59913.03
567.19	60526.25
567.36	60296.88
567.52	60313.26
567.68	60434.97
567.85	60254.75
568.01	60416.25
568.17	60130.70
568.34	60275.82
568.50	60203.26
568.66	60175.17
568.83	60392.84
568.99	60472.42
569.15	60381.14
569.32	60252.41
569.48	60367.10
569.64	60334.33
569.81	60121.34
569.97	60355.39
570.13	60327.31
570.30	60165.81
570.46	60577.75
570.62	60610.51
570.78	60397.52
570.95	60395.18
571.11	60474.76
571.27	60364.76
571.43	60451.36
571.60	60722.86
571.76	60549.66
571.92	60584.77
572.09	60582.43
572.25	60568.38
572.41	60514.55
572.57	60704.13
572.74	60769.67
572.90	60275.82
573.06	60552.00
573.22	60587.11
573.38	60612.85
573.55	60746.26
573.71	60629.24
573.87	60570.72
574.03	60516.89
574.20	60582.43
574.36	60484.12
574.52	60624.56
574.68	60680.73
574.84	60690.09
575.01	60865.63
575.17	60928.83
575.33	60640.94
575.49	60654.98
575.65	60725.20
575.82	60781.37
575.98	60629.24
576.14	60970.96
576.30	60963.93
576.46	60502.85
576.62	60704.13
576.79	60741.58
576.95	60523.91
577.11	60783.71
577.27	60973.30
577.43	60837.54
577.59	60919.46
577.75	60846.91
577.92	60645.62
578.08	60392.84
578.24	60643.28
578.40	60996.70
578.56	60837.54
578.72	60753.29
578.88	60905.42
579.04	60879.67
579.21	60804.78
579.37	61052.87
579.53	60891.38
579.69	60533.28
579.85	60781.37
580.01	61139.47
580.17	60753.29
580.33	60912.44
580.49	60999.04
580.65	60961.59
580.82	60776.69
580.98	60692.43
581.14	60917.12
581.30	60970.96
581.46	60837.54
581.62	60935.85
581.78	60680.73
581.94	60818.82
582.10	60835.20
582.26	60818.82
582.42	60706.47
582.58	61001.38
582.74	60872.65
582.90	60713.50
583.06	60860.95
583.22	60673.71
583.38	60704.13
583.54	60830.52
583.70	61020.11
583.86	60802.44
584.02	60774.35
584.18	61050.53
584.34	60970.96
584.50	61015.43
584.66	60753.29
584.82	60872.65
584.98	60949.89
585.14	60907.76
585.30	60800.10
585.46	61095.00
585.62	60968.61
585.78	61050.53
585.94	60825.84
586.10	61062.24
586.26	60896.06
586.42	61034.15
586.58	61085.64
586.74	60959.25
586.90	61078.62
587.06	61116.07
587.22	61139.47
587.38	60825.84
587.54	61106.71
587.70	61022.45
587.86	61008.40
588.02	61153.52
588.18	61244.80
588.34	60896.06
588.49	60952.23
