SpectraSuite Data File
++++++++++++++++++++++++++++++++++++
Date: Fri Oct 25 11:33:25 EDT 2013
User: price-jones
Dark Spectrum Present: No
Reference Spectrum Present: No
Number of Sampled Component Spectra: 1
Spectrometers: USB2+H05261
Integration Time (usec): 100000 (USB2+H05261)
Spectra Averaged: 1 (USB2+H05261)
Boxcar Smoothing: 0 (USB2+H05261)
Correct for Electrical Dark: No (USB2+H05261)
Strobe/Lamp Enabled: No (USB2+H05261)
Correct for Detector Non-linearity: No (USB2+H05261)
Correct for Stray Light: No (USB2+H05261)
Number of Pixels in Processed Spectrum: 2048
>>>>>Begin Processed Spectral Data<<<<<
365.73	229.37
365.92	229.37
366.12	229.37
366.32	196.60
366.52	231.71
366.72	159.16
366.91	170.86
367.11	124.05
367.31	175.54
367.51	124.05
367.70	203.63
367.90	166.18
368.10	154.48
368.30	145.11
368.49	91.28
368.69	243.42
368.89	145.11
369.09	156.82
369.28	191.92
369.48	243.42
369.68	262.14
369.87	290.23
370.07	236.39
370.27	313.63
370.47	290.23
370.66	470.45
370.86	468.11
371.06	561.73
371.25	552.37
371.45	510.24
371.65	564.07
371.84	500.87
372.04	554.71
372.24	596.84
372.44	510.24
372.63	517.26
372.83	543.00
373.03	564.07
373.22	568.75
373.42	617.90
373.62	594.50
373.81	688.12
374.01	622.58
374.21	603.86
374.40	603.86
374.60	725.57
374.79	610.88
374.99	580.45
375.19	636.63
375.38	681.10
375.58	650.67
375.78	678.76
375.97	674.07
376.17	727.91
376.37	667.05
376.56	561.73
376.76	695.14
376.95	620.24
377.15	716.20
377.35	711.52
377.54	674.07
377.74	692.80
377.93	648.33
378.13	774.72
378.33	741.95
378.52	781.74
378.72	699.82
378.91	723.23
379.11	676.41
379.31	739.61
379.50	777.06
379.70	858.98
379.89	727.91
380.09	716.20
380.28	770.04
380.48	798.12
380.68	791.10
380.87	739.61
381.07	784.08
381.26	781.74
381.46	755.99
381.65	873.02
381.85	758.33
382.04	741.95
382.24	793.44
382.43	819.19
382.63	706.84
382.83	826.21
383.02	727.91
383.22	826.21
383.41	755.99
383.61	774.72
383.80	837.91
384.00	777.06
384.19	777.06
384.39	873.02
384.58	856.64
384.78	866.00
384.97	854.30
385.17	844.93
385.36	840.25
385.56	873.02
385.75	791.10
385.95	870.68
386.14	880.04
386.34	863.66
386.53	844.93
386.72	868.34
386.92	940.90
387.11	884.72
387.31	903.45
387.50	884.72
387.70	882.38
387.89	842.59
388.09	931.53
388.28	866.00
388.48	903.45
388.67	901.11
388.86	933.87
389.06	887.06
389.25	875.36
389.45	940.90
389.64	875.36
389.84	1020.47
390.03	968.98
390.22	978.34
390.42	924.51
390.61	847.27
390.81	978.34
391.00	1001.75
391.19	1020.47
391.39	1001.75
391.58	1074.31
391.78	1078.99
391.97	926.85
392.16	1001.75
392.36	1071.97
392.55	1025.15
392.75	1123.46
392.94	1013.45
393.13	1071.97
393.33	1053.24
393.52	1139.84
393.71	1146.86
393.91	1053.24
394.10	1011.11
394.29	1125.80
394.49	1074.31
394.68	1188.99
394.88	1163.25
395.07	1142.18
395.26	1144.52
395.46	1203.04
395.65	1193.67
395.84	1165.59
396.04	1170.27
396.23	1219.42
396.42	1226.44
396.62	1177.29
396.81	1266.23
397.00	1170.27
397.19	1203.04
397.39	1153.88
397.58	1296.66
397.77	1226.44
397.97	1301.34
398.16	1287.29
398.35	1334.11
398.55	1242.82
398.74	1273.25
398.93	1334.11
399.12	1299.00
399.32	1212.40
399.51	1280.27
399.70	1446.45
399.90	1313.04
400.09	1369.21
400.28	1390.28
400.47	1352.83
400.67	1401.98
400.86	1406.66
401.05	1469.86
401.24	1406.66
401.44	1446.45
401.63	1469.86
401.82	1404.32
402.01	1500.28
402.21	1537.73
402.40	1427.73
402.59	1526.03
402.78	1469.86
402.97	1523.69
403.17	1661.78
403.36	1437.09
403.55	1502.62
403.74	1537.73
403.93	1586.88
404.13	1572.84
404.32	1612.63
404.51	1624.33
404.70	1729.66
404.89	1603.27
405.09	1734.34
405.28	1694.55
405.47	1687.53
405.66	1755.40
405.85	1666.46
406.05	1652.42
406.24	1762.42
406.43	1825.62
406.62	1755.40
406.81	1797.53
407.00	1757.74
407.20	1809.23
407.39	1813.92
407.58	2024.56
407.77	1844.34
407.96	1954.35
408.15	1912.22
408.34	1860.73
408.54	1980.09
408.73	1942.64
408.92	1872.43
409.11	2010.52
409.30	2005.84
409.49	2050.31
409.68	2043.29
409.87	1956.69
410.07	2090.10
410.26	2033.93
410.45	2104.14
410.64	2186.06
410.83	2071.37
411.02	2066.69
411.21	2150.95
411.40	1968.39
411.59	2286.70
411.78	2211.81
411.98	2153.29
412.17	2235.21
412.36	2279.68
412.55	2373.30
412.74	2354.58
412.93	2263.30
413.12	2377.98
413.31	2443.52
413.50	2396.71
413.69	2385.01
413.88	2464.58
414.07	2473.95
414.26	2462.24
414.45	2462.24
414.64	2572.25
414.83	2539.48
415.02	2565.23
415.22	2691.62
415.41	2818.00
415.60	2717.36
415.79	2675.23
415.98	2661.19
416.17	2794.60
416.36	2782.90
416.55	2754.81
416.74	2855.45
416.93	2803.96
417.12	2722.04
417.31	2949.08
417.50	2916.31
417.69	3038.02
417.88	3014.61
418.07	2981.84
418.26	2958.44
418.45	2993.55
418.64	3112.91
418.83	3091.85
419.02	3070.78
419.21	3035.67
419.39	3101.21
419.58	3136.32
419.77	3042.70
419.96	3063.76
420.15	3311.86
420.34	3173.77
420.53	3047.38
420.72	3166.74
420.91	3386.76
421.10	3239.30
421.29	3321.22
421.48	3307.18
421.67	3445.27
421.86	3321.22
422.05	3403.14
422.24	3311.86
422.43	3375.05
422.61	3274.41
422.80	3361.01
422.99	3447.61
423.18	3522.51
423.37	3400.80
423.56	3588.04
423.75	3407.82
423.94	3295.47
424.13	3208.87
424.32	3286.11
424.50	3534.21
424.69	3574.00
424.88	3583.36
425.07	3473.36
425.26	3365.69
425.45	3499.10
425.64	3466.33
425.83	3588.04
426.01	3644.21
426.20	3478.04
426.39	3480.38
426.58	3417.18
426.77	3438.25
426.96	3618.47
427.15	3536.55
427.33	3588.04
427.52	3588.04
427.71	3581.02
427.90	3698.05
428.09	3674.64
428.28	3655.92
428.46	3730.81
428.65	3772.94
428.84	3803.37
429.03	3838.48
429.22	3667.62
429.40	3779.97
429.59	3747.20
429.78	3705.07
429.97	3815.07
430.16	3822.09
430.34	3803.37
430.53	3999.98
430.72	3913.38
430.91	3932.10
431.10	3864.22
431.28	4107.64
431.47	4093.60
431.66	4009.34
431.85	4009.34
432.03	4032.74
432.22	4021.04
432.41	4011.68
432.60	4065.51
432.79	4077.21
432.97	4180.20
433.16	4276.16
433.35	4065.51
433.54	4203.60
433.72	4060.83
433.91	4182.54
434.10	4269.14
434.28	4219.99
434.47	4292.54
434.66	4367.44
434.85	4329.99
435.03	4428.29
435.22	4259.78
435.41	4550.00
435.59	4479.79
435.78	4416.59
435.97	4447.02
436.16	4217.65
436.34	4318.29
436.53	4414.25
436.72	4550.00
436.90	4571.07
437.09	4582.77
437.28	4440.00
437.46	4454.04
437.65	4550.00
437.84	4748.95
438.02	4669.37
438.21	4629.58
438.40	4608.51
438.58	4840.23
438.77	4798.10
438.96	4748.95
439.14	4915.12
439.33	4947.89
439.52	4980.66
439.70	4865.97
439.89	4868.31
440.08	4973.64
440.26	4999.38
440.45	4980.66
440.63	5114.07
440.82	5240.46
441.01	4971.30
441.19	5263.86
441.38	5261.52
441.57	5387.91
441.75	5413.66
441.94	5350.46
442.12	5423.02
442.31	5448.77
442.50	5458.13
442.68	5514.30
442.87	5472.17
443.05	5404.30
443.24	5579.84
443.43	5650.05
443.61	5673.46
443.80	5607.92
443.98	5544.73
444.17	5523.66
444.35	5724.95
444.54	5699.20
444.73	5708.57
444.91	5621.97
445.10	5628.99
445.28	5781.12
445.47	5570.48
445.65	5617.29
445.84	5912.19
446.02	5738.99
446.21	5673.46
446.39	5853.68
446.58	5797.51
446.77	5874.74
446.95	5713.25
447.14	5790.49
447.32	5837.30
447.51	5743.67
447.69	5820.91
447.88	5785.80
448.06	5916.87
448.25	5886.45
448.43	5877.09
448.62	5715.59
448.80	5720.27
448.99	5970.71
449.17	6005.81
449.36	5790.49
449.54	6033.90
449.73	6001.13
449.91	6080.71
450.10	6080.71
450.28	6314.77
450.46	6305.40
450.65	6186.04
450.83	6038.58
451.02	6125.18
451.20	6127.52
451.39	6207.10
451.57	6092.41
451.76	6246.89
451.94	6413.07
452.13	6338.17
452.31	6195.40
452.49	6164.97
452.68	6244.55
452.86	6195.40
453.05	6286.68
453.23	6492.65
453.42	6366.26
453.60	6260.93
453.78	6445.84
453.97	6375.62
454.15	6506.69
454.34	6450.52
454.52	6497.33
454.70	6696.27
454.89	6487.96
455.07	6630.74
455.26	6607.33
455.44	6846.07
455.62	6855.43
455.81	6789.89
455.99	6913.94
456.17	6902.24
456.36	6813.30
456.54	6970.12
456.73	7157.36
456.91	7157.36
457.09	7117.57
457.28	7124.59
457.46	7087.14
457.64	7218.21
457.83	7070.76
458.01	7005.22
458.19	7311.83
458.38	7225.23
458.56	7183.10
458.74	7302.47
458.93	7243.96
459.11	7302.47
459.29	7295.45
459.48	7302.47
459.66	7452.27
459.84	7365.67
460.03	7578.65
460.21	7424.18
460.39	7576.31
460.57	7485.03
460.76	7564.61
460.94	7552.91
461.12	7468.65
461.31	7613.76
461.49	7658.23
461.67	7545.89
461.85	7815.05
462.04	7552.91
462.22	7995.27
462.40	7793.98
462.59	7721.43
462.77	7665.25
462.95	7943.78
463.13	7868.88
463.32	7903.99
463.50	7723.77
463.68	7840.79
463.86	7957.82
464.05	7761.22
464.23	7875.90
464.41	7976.55
464.59	7850.16
464.78	8346.35
464.96	8079.53
465.14	8037.40
465.32	8121.66
465.50	8287.84
465.69	8311.24
465.87	8348.69
466.05	8072.51
466.23	8210.60
466.41	8147.40
466.60	8273.79
466.78	8245.71
466.96	8149.75
467.14	8194.22
467.32	8297.20
467.51	8367.42
467.69	8142.72
467.87	8538.27
468.05	8477.42
468.23	8638.92
468.41	8428.27
468.60	8601.47
468.78	8421.25
468.96	8395.50
469.14	8589.77
469.32	8704.45
469.50	8451.67
469.69	8882.33
469.87	8795.73
470.05	8936.17
470.23	8730.20
470.41	8957.23
470.59	8945.53
470.77	8961.91
470.95	8781.69
471.14	9179.58
471.32	8812.12
471.50	9008.72
471.68	9128.09
471.86	9125.75
472.04	9238.09
472.22	9195.96
472.40	9219.37
472.58	9270.86
472.77	9479.17
472.95	9687.48
473.13	9753.01
473.31	9488.53
473.49	9694.50
473.67	9530.66
473.85	9563.43
474.03	9757.69
474.21	9689.82
474.39	9722.59
474.57	9956.64
474.75	10012.81
474.93	10204.74
475.12	10104.09
475.30	10087.71
475.48	10033.88
475.66	10455.17
475.84	10174.31
476.02	10160.27
476.20	10270.27
476.38	10534.75
476.56	10789.87
476.74	10630.71
476.92	10707.95
477.10	10794.55
477.28	10829.66
477.46	10759.44
477.64	10862.43
477.82	10965.41
478.00	11243.93
478.18	11089.46
478.36	11290.74
478.54	11447.56
478.72	11613.74
478.90	11597.35
479.08	11559.91
479.26	11435.86
479.44	11613.74
479.62	11892.26
479.80	11800.98
479.98	12355.69
480.16	12355.69
480.34	12100.57
480.52	12283.13
480.70	12343.99
480.88	12233.98
481.06	12187.17
481.24	12453.99
481.41	12503.14
481.59	12950.18
481.77	13015.72
481.95	12917.42
482.13	13109.34
482.31	13081.25
482.49	13123.38
482.67	13209.98
482.85	13743.63
483.03	13809.16
483.21	13788.10
483.39	14043.21
483.57	13708.52
483.74	13902.78
483.92	14162.58
484.10	14115.77
484.28	14473.87
484.46	14431.74
484.64	14754.74
484.82	14712.61
485.00	14670.48
485.18	15136.24
485.35	15314.13
485.53	15112.84
485.71	15321.15
485.89	15426.47
486.07	15274.34
486.25	15573.92
486.43	15648.82
486.61	15536.48
486.78	15971.82
486.96	15962.45
487.14	16121.61
487.32	16137.99
487.50	16381.41
487.68	16542.91
487.85	16814.41
488.03	16919.73
488.21	17181.87
488.39	17202.94
488.57	17193.58
488.75	17415.93
488.92	17813.82
489.10	17605.51
489.28	17820.84
489.46	17972.97
489.64	17909.78
489.81	18228.09
489.99	18216.39
490.17	18373.21
490.35	18508.96
490.53	18794.50
490.70	18815.57
490.88	18745.35
491.06	18972.38
491.24	18759.39
491.41	19475.60
491.59	19576.24
491.77	19379.64
491.95	19632.41
492.13	19613.69
492.30	19992.86
492.48	19976.47
492.66	19742.42
492.84	19941.36
493.01	20278.40
493.19	20318.19
493.37	20524.16
493.54	20559.27
493.72	20933.75
493.90	20716.08
494.08	20912.69
494.25	20978.22
494.43	21125.68
494.61	21233.34
494.79	21671.02
494.96	21500.16
495.14	21743.58
495.32	21689.74
495.49	22106.36
495.67	21944.86
495.85	22347.44
496.02	22202.32
496.20	22483.19
496.38	22778.09
496.55	22815.54
496.73	22932.57
496.91	22820.22
497.09	23054.28
497.26	23332.80
497.44	23208.75
497.62	23323.44
497.79	23513.02
497.97	23260.24
498.14	23791.55
498.32	23889.85
498.50	23740.05
498.67	24264.33
498.85	24217.52
499.03	24032.62
499.20	24133.26
499.38	24168.37
499.56	24673.93
499.73	24514.77
499.91	24790.95
500.08	24938.41
500.26	24844.79
500.44	24980.54
500.61	24987.56
500.79	24875.21
500.97	25308.21
501.14	25570.35
501.32	25806.75
501.49	25132.67
501.67	25352.68
501.84	25872.28
502.02	25640.57
502.20	25909.73
502.37	26148.46
502.55	25972.92
502.72	26019.74
502.90	26169.53
503.07	26066.55
503.25	26366.13
503.43	26150.81
503.60	26824.88
503.78	26649.34
503.95	26590.83
504.13	26686.79
504.30	26764.03
504.48	26960.63
504.65	26920.84
504.83	27513.00
505.01	27473.21
505.18	27016.80
505.36	27473.21
505.53	27400.65
505.71	27889.82
505.88	27580.87
506.06	27267.24
506.23	27868.76
506.41	27599.60
506.58	28123.88
506.76	28027.92
506.93	28140.26
507.11	28313.46
507.28	28463.25
507.46	28250.27
507.63	28238.56
507.81	28788.59
507.98	28507.72
508.16	28641.14
508.33	29039.03
508.50	29083.50
508.68	28982.85
508.85	29287.12
509.03	28811.99
509.20	28844.76
509.38	29500.11
509.55	29324.57
509.73	29006.26
509.90	29722.46
510.08	29593.73
510.25	29469.69
510.42	29589.05
510.60	29764.59
510.77	30178.87
510.95	30415.26
511.12	29993.97
511.30	30022.05
511.47	30417.60
511.64	30522.93
511.82	30602.50
511.99	30424.62
512.17	30995.71
512.34	30780.39
512.51	30663.36
512.69	30895.07
512.86	30630.59
513.04	31173.60
513.21	31218.07
513.38	31342.11
513.56	31508.29
513.73	31164.23
513.90	31372.54
514.08	30981.67
514.25	31426.37
514.43	31711.92
514.60	32114.49
514.77	31587.87
514.95	32051.30
515.12	31702.56
515.29	31737.66
515.47	32400.04
515.64	32205.77
515.81	31967.04
515.99	32381.31
516.16	32760.48
516.33	32683.24
516.51	32376.63
516.68	32470.25
516.85	32917.29
517.03	33048.36
517.20	32645.79
517.37	32957.08
517.54	33043.68
517.72	33109.22
517.89	33221.56
518.06	33605.41
518.24	33202.84
518.41	32814.31
518.58	33357.32
518.75	33244.97
518.93	33706.05
519.10	33385.40
519.27	33722.44
519.45	33684.99
519.62	34103.95
519.79	34012.66
519.96	33865.21
520.14	34108.63
520.31	34045.43
520.48	34274.80
520.65	34281.83
520.83	34794.40
521.00	34389.49
521.17	34415.24
521.34	34469.07
521.52	34525.24
521.69	34567.37
521.86	34625.89
522.03	34983.99
522.20	35049.52
522.38	35056.54
522.55	34993.35
522.72	35196.98
522.89	35629.98
523.07	35707.21
523.24	35145.48
523.41	35594.87
523.58	35316.34
523.75	35988.08
523.92	35393.58
524.10	35714.23
524.27	35679.13
524.44	35810.20
524.61	36105.10
524.78	35697.85
524.96	36292.35
525.13	36435.12
525.30	36383.63
525.47	36383.63
525.64	36315.75
525.81	36360.22
525.98	36608.32
526.16	36610.66
526.33	36538.10
526.50	36870.46
526.67	37017.91
526.84	36786.20
527.01	37041.32
527.18	36856.42
527.36	37109.19
527.53	37120.90
527.70	37137.28
527.87	37212.18
528.04	37394.74
528.21	37368.99
528.38	37574.96
528.55	37504.74
528.72	37670.92
528.89	37771.57
529.07	37401.76
529.24	37645.18
529.41	37617.09
529.58	37731.78
529.75	37556.24
529.92	37736.46
530.09	38164.78
530.26	37783.27
530.43	38204.56
530.60	37338.57
530.77	37963.49
530.94	38337.98
531.11	37881.57
531.28	38174.14
531.46	38232.65
531.63	38464.36
531.80	38773.31
531.97	38110.94
532.14	38380.10
532.31	38476.07
532.48	38660.97
532.65	38986.30
532.82	39119.71
532.99	38880.98
533.16	38628.20
533.33	38770.97
533.50	38969.92
533.67	38909.07
533.84	39047.16
534.01	38955.88
534.18	38967.58
534.35	39543.35
534.52	39452.07
534.69	39824.22
534.86	39555.05
535.03	39489.52
535.20	39316.32
535.37	39913.16
535.54	39728.25
535.71	39578.46
535.88	39952.94
536.05	39632.29
536.22	40231.47
536.38	39800.81
536.55	39871.03
536.72	40046.57
536.89	39896.77
537.06	39920.18
537.23	40470.20
537.40	40004.44
537.57	40444.46
537.74	39978.69
537.91	40552.12
538.08	40315.73
538.25	40439.78
538.42	40465.52
538.59	40732.34
538.75	40271.26
538.92	40194.02
539.09	40905.54
539.26	40238.49
539.43	40999.16
539.60	41165.34
539.77	40935.97
539.94	41258.96
540.11	41195.77
540.28	41097.47
540.44	40730.00
540.61	41312.80
540.78	41024.91
540.95	41230.88
541.12	41022.57
541.29	41352.58
541.46	41010.87
541.62	41371.31
541.79	41092.79
541.96	41570.25
542.13	41448.55
542.30	41853.46
542.47	42092.19
542.63	41820.69
542.80	42073.47
542.97	42185.82
543.14	42106.24
543.31	42071.13
543.48	42251.35
543.64	42541.58
543.81	42033.68
543.98	42356.67
544.15	42085.17
544.32	42529.87
544.48	43077.56
544.65	42405.83
544.82	42719.46
544.99	42726.48
545.16	42691.37
545.32	42555.62
545.49	42974.58
545.66	43304.59
545.83	42873.93
546.00	43026.07
546.16	43056.50
546.33	43035.43
546.50	42677.33
546.67	42955.85
546.83	42939.47
547.00	42902.02
547.17	42988.62
547.34	42782.65
547.50	42920.74
547.67	43335.02
547.84	43196.93
548.00	43257.78
548.17	43899.09
548.34	43973.98
548.51	43812.49
548.67	43580.78
548.84	43461.41
549.01	43400.55
549.18	43063.52
549.34	43377.15
549.51	43665.03
549.68	43880.36
549.84	43583.12
550.01	43990.37
550.18	43592.48
550.34	44088.67
550.51	44245.49
550.68	44165.91
550.84	43812.49
551.01	44020.80
551.18	43669.72
551.34	43959.94
551.51	43718.87
551.68	43882.70
551.84	44414.01
552.01	43737.59
552.18	44458.48
552.34	44266.55
552.51	44669.12
552.68	44191.65
552.84	44626.99
553.01	44748.70
553.18	43976.33
553.34	44093.35
553.51	44156.55
553.67	44601.25
553.84	44638.70
554.01	44502.95
554.17	44720.62
554.34	44905.52
554.51	44313.36
554.67	45052.97
554.84	44942.97
555.00	44615.29
555.17	45170.00
555.33	44928.92
555.50	44818.92
555.67	45263.62
555.83	44952.33
556.00	45146.59
556.16	45495.33
556.33	45057.65
556.50	45420.44
556.66	45036.59
556.83	44919.56
556.99	45162.98
557.16	45343.20
557.32	45741.09
557.49	45598.32
557.65	45413.41
557.82	45162.98
557.98	45144.25
558.15	45595.98
558.32	45586.61
558.48	45553.85
558.65	45647.47
558.81	45581.93
558.98	45708.32
559.14	45544.48
559.31	45441.50
559.47	45457.88
559.64	45558.53
559.80	45818.33
559.97	45666.19
560.13	45930.67
560.30	45635.77
560.46	46000.89
560.63	46291.12
560.79	45907.27
560.96	46169.41
561.12	45951.74
561.29	46085.15
561.45	46073.45
561.61	45708.32
561.78	45642.79
561.94	46061.74
562.11	46066.42
562.27	46197.49
562.44	45904.93
562.60	46014.93
562.77	45972.80
562.93	45982.16
563.10	46518.15
563.26	45876.84
563.42	46637.51
563.59	46281.75
563.75	46080.47
563.92	45904.93
564.08	46082.81
564.24	46532.19
564.41	46520.49
564.57	46319.20
564.74	46225.58
564.90	45935.35
565.07	46246.65
565.23	46354.31
565.39	46476.02
565.56	46571.98
565.72	46368.35
565.88	46469.00
566.05	46731.14
566.21	46209.20
566.38	46300.48
566.54	46990.94
566.70	46660.92
566.87	46017.27
567.03	46333.24
567.19	47075.19
567.36	46199.83
567.52	46597.73
567.68	47110.30
567.85	46576.66
568.01	47229.67
568.17	46721.77
568.34	46377.72
568.50	46665.60
568.66	46319.20
568.83	46653.90
568.99	46728.80
569.15	46845.82
569.32	46897.31
569.48	46461.97
569.64	47114.98
569.81	46824.76
569.97	46946.47
570.13	47079.88
570.30	46691.35
570.46	46857.52
570.62	46890.29
570.78	46775.61
570.95	47260.10
571.11	47026.04
571.27	46925.40
571.43	46944.12
571.60	46492.40
571.76	46490.06
571.92	47178.18
572.09	46941.78
572.25	46632.83
572.41	47363.08
572.57	46871.57
572.74	47234.35
572.90	47056.47
573.06	46941.78
573.22	47253.08
573.38	46953.49
573.55	46902.00
573.71	47751.61
573.87	47089.24
574.03	47168.82
574.20	46965.19
574.36	47435.64
574.52	47257.76
574.68	47306.91
574.84	47400.53
575.01	47590.11
575.17	47407.55
575.33	47253.08
575.49	46951.15
575.65	47447.34
575.82	47353.72
575.98	47187.54
576.14	47810.12
576.30	47540.96
576.46	47068.17
576.62	47000.30
576.79	47430.96
576.95	47122.01
577.11	47009.66
577.27	47131.37
577.43	47365.42
577.59	47220.31
577.75	47318.61
577.92	47224.99
578.08	47334.99
578.24	46962.85
578.40	47150.09
578.56	47473.09
578.72	47250.74
578.88	47559.69
579.04	47419.25
579.21	47653.31
579.37	47601.82
579.53	47491.81
579.69	47426.28
579.85	47248.39
580.01	47159.45
580.17	47224.99
580.33	47779.70
580.49	47463.72
580.65	47562.03
580.82	47978.64
580.98	47339.68
581.14	47557.35
581.30	47351.38
581.46	47206.26
581.62	47227.33
581.78	47220.31
581.94	47643.94
582.10	47442.66
582.26	47498.83
582.42	47473.09
582.58	47229.67
582.74	47674.37
582.90	47681.39
583.06	47775.02
583.22	47590.11
583.38	47447.34
583.54	47641.60
583.70	47686.07
583.86	47519.90
584.02	47398.19
584.18	47800.76
584.34	47767.99
584.50	47767.99
584.66	47735.23
584.82	47688.42
584.98	48128.44
585.14	47941.19
585.30	47239.03
585.46	47669.69
585.62	47608.84
585.78	48041.84
585.94	47187.54
586.10	47419.25
586.26	47735.23
586.42	47583.09
586.58	47683.73
586.74	47632.24
586.90	47674.37
587.06	47936.51
587.22	47901.40
587.38	47374.78
587.54	47660.33
587.70	47927.15
587.86	48074.60
588.02	47849.91
588.18	47611.18
588.34	48027.79
588.49	47545.64
588.65	47578.41
588.81	47810.12
588.97	48107.37
589.13	47707.14
589.29	47683.73
589.45	47667.35
589.61	48142.48
589.77	47959.92
589.93	48090.99
