SpectraSuite Data File
++++++++++++++++++++++++++++++++++++
Date: Fri Oct 25 10:44:48 EDT 2013
User: price-jones
Dark Spectrum Present: No
Reference Spectrum Present: No
Number of Sampled Component Spectra: 1
Spectrometers: USB2+H05261
Integration Time (usec): 100000 (USB2+H05261)
Spectra Averaged: 1 (USB2+H05261)
Boxcar Smoothing: 0 (USB2+H05261)
Correct for Electrical Dark: No (USB2+H05261)
Strobe/Lamp Enabled: No (USB2+H05261)
Correct for Detector Non-linearity: No (USB2+H05261)
Correct for Stray Light: No (USB2+H05261)
Number of Pixels in Processed Spectrum: 2048
>>>>>Begin Processed Spectral Data<<<<<
365.73	142.77
365.92	142.77
366.12	142.77
366.32	93.62
366.52	14.04
366.72	53.83
366.91	35.11
367.11	0.00
367.31	7.02
367.51	67.88
367.70	25.75
367.90	32.77
368.10	0.00
368.30	100.64
368.49	0.00
368.69	42.13
368.89	23.41
369.09	35.11
369.28	18.72
369.48	42.13
369.68	74.90
369.87	112.35
370.07	95.96
370.27	135.75
370.47	177.88
370.66	376.83
370.86	337.04
371.06	416.62
371.25	503.22
371.45	404.91
371.65	444.70
371.84	468.11
372.04	489.17
372.24	496.19
372.44	475.13
372.63	538.32
372.83	470.45
373.03	498.53
373.22	489.17
373.42	526.62
373.62	500.87
373.81	500.87
374.01	521.94
374.21	507.90
374.40	617.90
374.60	573.43
374.79	547.69
374.99	547.69
375.19	566.41
375.38	498.53
375.58	596.84
375.78	552.37
375.97	610.88
376.17	550.03
376.37	596.84
376.56	561.73
376.76	566.41
376.95	564.07
377.15	566.41
377.35	589.82
377.54	627.26
377.74	575.77
377.93	627.26
378.13	634.29
378.33	582.79
378.52	552.37
378.72	594.50
378.91	540.66
379.11	608.54
379.31	582.79
379.50	547.69
379.70	641.31
379.89	685.78
380.09	669.39
380.28	624.92
380.48	599.18
380.68	599.18
380.87	475.13
381.07	678.76
381.26	732.59
381.46	657.69
381.65	741.95
381.85	699.82
382.04	620.24
382.24	674.07
382.43	592.16
382.63	638.97
382.83	629.60
383.02	683.44
383.22	655.35
383.41	711.52
383.61	676.41
383.80	678.76
384.00	734.93
384.19	601.52
384.39	770.04
384.58	720.88
384.78	650.67
384.97	699.82
385.17	704.50
385.36	807.48
385.56	683.44
385.75	676.41
385.95	711.52
386.14	788.76
386.34	767.70
386.53	788.76
386.72	727.91
386.92	791.10
387.11	826.21
387.31	889.40
387.50	748.97
387.70	774.72
387.89	812.17
388.09	777.06
388.28	847.27
388.48	821.53
388.67	856.64
388.86	849.61
389.06	903.45
389.25	847.27
389.45	985.37
389.64	903.45
389.84	926.85
390.03	887.06
390.22	1025.15
390.42	933.87
390.61	905.79
390.81	901.11
391.00	997.07
391.19	887.06
391.39	926.85
391.58	1004.09
391.78	947.92
391.97	922.17
392.16	880.04
392.36	945.58
392.55	917.49
392.75	1013.45
392.94	961.96
393.13	945.58
393.33	966.64
393.52	1036.86
393.71	1074.31
393.91	1104.73
394.10	931.53
394.29	1062.60
394.49	1151.54
394.68	1132.82
394.88	1083.67
395.07	1130.48
395.26	1132.82
395.46	1118.78
395.65	1090.69
395.84	1156.22
396.04	1191.33
396.23	1043.88
396.42	1095.37
396.62	1153.88
396.81	1142.18
397.00	1057.92
397.19	1226.44
397.39	1165.59
397.58	1224.10
397.77	1224.10
397.97	1186.65
398.16	1294.32
398.35	1411.34
398.55	1174.95
398.74	1390.28
398.93	1324.74
399.12	1296.66
399.32	1371.55
399.51	1355.17
399.70	1296.66
399.90	1266.23
400.09	1416.02
400.28	1432.41
400.47	1355.17
400.67	1446.45
400.86	1427.73
401.05	1411.34
401.24	1446.45
401.44	1465.18
401.63	1530.71
401.82	1523.69
402.01	1511.99
402.21	1533.05
402.40	1565.82
402.59	1453.47
402.78	1448.79
402.97	1558.80
403.17	1624.33
403.36	1621.99
403.55	1586.88
403.74	1724.97
403.93	1750.72
404.13	1593.90
404.32	1577.52
404.51	1643.06
404.70	1722.63
404.89	1631.35
405.09	1755.40
405.28	1675.82
405.47	1701.57
405.66	1797.53
405.85	1680.50
406.05	1788.17
406.24	1717.95
406.43	1799.87
406.62	1832.64
406.81	1839.66
407.00	1795.19
407.20	1799.87
407.39	1872.43
407.58	1966.05
407.77	1907.54
407.96	1799.87
408.15	1884.13
408.34	1881.79
408.54	1928.60
408.73	2071.37
408.92	2062.01
409.11	1940.30
409.30	2090.10
409.49	2097.12
409.68	1982.43
409.87	2026.90
410.07	2050.31
410.26	2038.61
410.45	2106.48
410.64	2157.97
410.83	2223.51
411.02	2092.44
411.21	2293.72
411.40	2270.32
411.59	2300.75
411.78	2303.09
411.98	2188.40
412.17	2352.24
412.36	2342.88
412.55	2415.43
412.74	2459.90
412.93	2527.78
413.12	2424.80
413.31	2511.39
413.50	2478.63
413.69	2466.92
413.88	2633.10
414.07	2492.67
414.26	2579.27
414.45	2569.91
414.64	2649.49
414.83	2668.21
415.02	2619.06
415.22	2686.94
415.41	2782.90
415.60	2689.28
415.79	2736.09
415.98	2965.46
416.17	2822.69
416.36	2932.69
416.55	2923.33
416.74	2920.99
416.93	2970.14
417.12	2888.22
417.31	2995.89
417.50	2918.65
417.69	3087.17
417.88	3063.76
418.07	3023.97
418.26	3091.85
418.45	3038.02
418.64	3213.56
418.83	3141.00
419.02	3103.55
419.21	3192.49
419.39	3215.90
419.58	3281.43
419.77	3171.43
419.96	3204.19
420.15	3382.07
420.34	3297.81
420.53	3393.78
420.72	3372.71
420.91	3541.23
421.10	3494.42
421.29	3351.65
421.48	3356.33
421.67	3503.78
421.86	3358.67
422.05	3307.18
422.24	3433.57
422.43	3438.25
422.61	3669.96
422.80	3471.01
422.99	3424.20
423.18	3396.12
423.37	3480.38
423.56	3520.17
423.75	3445.27
423.94	3522.51
424.13	3321.22
424.32	3349.31
424.50	3574.00
424.69	3454.63
424.88	3620.81
425.07	3522.51
425.26	3531.87
425.45	3424.20
425.64	3529.53
425.83	3627.83
426.01	3534.21
426.20	3662.94
426.39	3681.66
426.58	3700.39
426.77	3644.21
426.96	3639.53
427.15	3548.25
427.33	3747.20
427.52	3779.97
427.71	3742.52
427.90	3641.87
428.09	3681.66
428.28	3688.68
428.46	3726.13
428.65	3782.31
428.84	3892.31
429.03	3992.95
429.22	3782.31
429.40	3843.16
429.59	3866.56
429.78	3630.17
429.97	3574.00
430.16	3784.65
430.34	3845.50
430.53	3819.75
430.72	3868.91
430.91	3983.59
431.10	3772.94
431.28	4030.40
431.47	4126.36
431.66	3988.27
431.85	4170.83
432.03	4241.05
432.22	4299.56
432.41	4184.88
432.60	4250.41
432.79	4180.20
432.97	4250.41
433.16	4292.54
433.35	4184.88
433.54	4224.67
433.72	4418.93
433.91	4273.82
434.10	4297.22
434.28	4320.63
434.47	4311.27
434.66	4503.19
434.85	4463.40
435.03	4393.19
435.22	4477.44
435.41	4510.21
435.59	4601.49
435.78	4482.13
435.97	4648.30
436.16	4531.28
436.34	4512.55
436.53	4624.90
436.72	4760.65
436.90	4463.40
437.09	4697.46
437.28	4533.62
437.46	4507.87
437.65	4678.73
437.84	4709.16
438.02	4772.35
438.21	4697.46
438.40	4821.50
438.58	4957.25
438.77	4961.94
438.96	4798.10
439.14	5039.17
439.33	4971.30
439.52	5027.47
439.70	5163.22
439.89	5111.73
440.08	5090.67
440.26	5128.11
440.45	5025.13
440.63	5160.88
440.82	5451.11
441.01	5434.72
441.19	5568.13
441.38	5549.41
441.57	5425.36
441.75	5621.97
441.94	5675.80
442.12	5692.18
442.31	5748.36
442.50	5701.54
442.68	5647.71
442.87	5682.82
443.05	5563.45
443.24	5628.99
443.43	5640.69
443.61	5750.70
443.80	6059.65
443.98	5645.37
444.17	5610.26
444.35	5900.49
444.54	5879.43
444.73	5818.57
444.91	5790.49
445.10	5841.98
445.28	5926.24
445.47	5757.72
445.65	5799.85
445.84	5989.43
446.02	5973.05
446.21	5907.51
446.39	5790.49
446.58	6029.22
446.77	6050.28
446.95	5937.94
447.14	5921.56
447.32	6050.28
447.51	6047.94
447.69	6031.56
447.88	5951.98
448.06	6029.22
448.25	6069.01
448.43	6087.73
448.62	6132.20
448.80	6155.61
448.99	6150.93
449.17	6057.31
449.36	6015.18
449.54	6321.79
449.73	6324.13
449.91	6375.62
450.10	6375.62
450.28	6335.83
450.46	6544.14
450.65	6342.85
450.83	6480.94
451.02	6445.84
451.20	6628.40
451.39	6551.16
451.57	6459.88
451.76	6307.74
451.94	6427.11
452.13	6251.57
452.31	6455.20
452.49	6448.18
452.68	6452.86
452.86	6555.84
453.05	6665.85
453.23	6658.82
453.42	6537.12
453.60	6696.27
453.78	6712.66
453.97	6607.33
454.15	6733.72
454.34	6626.06
454.52	6707.98
454.70	6834.36
454.89	6717.34
455.07	6764.15
455.26	6951.39
455.44	6691.59
455.62	6923.30
455.81	6883.52
455.99	6853.09
456.17	7077.78
456.36	6939.69
456.54	7007.56
456.73	7199.49
456.91	7349.28
457.09	7265.02
457.28	7339.92
457.46	7274.38
457.64	7183.10
457.83	7269.70
458.01	7213.53
458.19	7564.61
458.38	7344.60
458.56	7475.67
458.74	7412.48
458.93	7375.03
459.11	7351.62
459.29	7433.54
459.48	7494.40
459.66	7398.43
459.84	7452.27
460.03	7726.11
460.21	7658.23
460.39	7688.66
460.57	7721.43
460.76	7782.28
460.94	7826.75
461.12	7815.05
461.31	7695.68
461.49	7712.07
461.67	7728.45
461.85	7997.61
462.04	7939.10
462.22	8131.02
462.40	8100.59
462.59	7911.01
462.77	7964.84
462.95	8091.23
463.13	8009.31
463.32	7967.18
463.50	8023.36
463.68	8156.77
463.86	8147.40
464.05	7983.57
464.23	8079.53
464.41	8318.26
464.59	7974.21
464.78	8409.54
464.96	8168.47
465.14	8294.86
465.32	8379.12
465.50	8313.58
465.69	8383.80
465.87	8409.54
466.05	8484.44
466.23	8210.60
466.41	8439.97
466.60	8468.06
466.78	8360.39
466.96	8505.51
467.14	8292.52
467.32	8512.53
467.51	8690.41
467.69	8329.97
467.87	8456.36
468.05	8657.64
468.23	8475.08
468.41	8601.47
468.60	8540.61
468.78	8711.47
468.96	8711.47
469.14	8777.01
469.32	8760.63
469.50	8702.11
469.69	8812.12
469.87	8805.10
470.05	9018.08
470.23	8938.51
470.41	9050.85
470.59	9025.11
470.77	9074.26
470.95	9055.53
471.14	9207.67
471.32	9158.52
471.50	9245.12
471.68	9102.34
471.86	9137.45
472.04	9329.38
472.22	9799.82
472.40	9128.09
472.58	9432.36
472.77	9430.02
472.95	9540.02
473.13	9860.68
473.31	9614.92
473.49	9554.07
473.67	9643.01
473.85	9638.33
474.03	9956.64
474.21	9944.94
474.39	10057.28
474.57	9961.32
474.75	10045.58
474.93	10097.07
475.12	10047.92
475.30	10207.08
475.48	10176.65
475.66	10305.38
475.84	10073.67
476.02	10366.23
476.20	10539.43
476.38	10450.49
476.56	10768.80
476.74	10668.16
476.92	10626.03
477.10	10824.98
477.28	11145.63
477.46	10841.36
477.64	10925.62
477.82	11239.25
478.00	11297.77
478.18	11475.65
478.36	11297.77
478.54	11545.86
478.72	11499.05
478.90	11695.66
479.08	11714.38
479.26	11861.84
479.44	11597.35
479.62	11852.47
479.80	11992.90
479.98	12290.15
480.16	12168.45
480.34	12482.08
480.52	12758.26
480.70	12432.93
480.88	12269.09
481.06	12578.04
481.24	12634.21
481.41	12858.90
481.59	13060.19
481.77	13170.19
481.95	13209.98
482.13	13289.56
482.31	13256.79
482.49	13579.79
482.67	13570.43
482.85	13521.27
483.03	13752.99
483.21	13902.78
483.39	14019.81
483.57	13930.87
483.74	14052.58
483.92	14314.72
484.10	13998.74
484.28	14359.19
484.46	14764.10
484.64	15016.88
484.82	14506.64
485.00	14789.85
485.18	15255.61
485.35	15246.25
485.53	15061.35
485.71	14944.32
485.89	15185.40
486.07	15419.45
486.25	15255.61
486.43	15466.26
486.61	16002.24
486.78	15985.86
486.96	15857.13
487.14	15997.56
487.32	16191.83
487.50	16292.47
487.68	16505.46
487.85	16973.56
488.03	17034.42
488.21	16959.52
488.39	17076.55
488.57	17172.51
488.75	17181.87
488.92	17422.95
489.10	17816.16
489.28	17642.96
489.46	18015.10
489.64	17710.83
489.81	18188.30
489.99	18188.30
490.17	18485.55
490.35	18452.78
490.53	18558.11
490.70	18717.26
490.88	19058.98
491.06	18881.10
491.24	18817.91
491.41	19026.21
491.59	19037.92
491.77	19218.14
491.95	19349.21
492.13	19711.99
492.30	19763.48
492.48	19517.73
492.66	19887.53
492.84	19826.68
493.01	20114.56
493.19	20112.22
493.37	20313.51
493.54	20411.81
493.72	20713.74
493.90	20886.94
494.08	20985.24
494.25	21415.90
494.43	21399.52
494.61	21441.65
494.79	21362.07
494.96	21535.27
495.14	21509.52
495.32	21397.18
495.49	21986.99
495.67	21965.93
495.85	22108.70
496.02	22176.58
496.20	22546.38
496.38	22431.69
496.55	22417.65
496.73	22831.93
496.91	22656.39
497.09	22569.79
497.26	22738.30
497.44	23054.28
497.62	23112.79
497.79	23627.71
497.97	23117.47
498.14	23480.25
498.32	23496.64
498.50	23726.01
498.67	24301.78
498.85	23831.33
499.03	24041.98
499.20	23983.47
499.38	24044.32
499.56	24531.15
499.73	24240.93
499.91	24423.49
500.08	24856.49
500.26	24311.14
500.44	24631.80
500.61	24704.35
500.79	24805.00
500.97	24589.67
501.14	25172.46
501.32	25015.65
501.49	25282.47
501.67	25043.73
501.84	25120.97
502.02	25221.61
502.20	25802.07
502.37	25640.57
502.55	25696.74
502.72	25614.82
502.90	25671.00
503.07	25919.09
503.25	26101.65
503.43	25827.81
503.60	26616.57
503.78	25993.99
503.95	26153.15
504.13	25979.95
504.30	26654.02
504.48	26574.44
504.65	26717.22
504.83	26726.58
505.01	26850.63
505.18	27056.59
505.36	27241.50
505.53	27440.44
505.71	27431.08
505.88	27421.72
506.06	27199.37
506.23	27527.04
506.41	27318.73
506.58	27782.16
506.76	27613.64
506.93	27623.00
507.11	27768.12
507.28	27742.37
507.46	27990.47
507.63	27992.81
507.81	27992.81
507.98	28149.62
508.16	28446.87
508.33	28163.67
508.50	28430.49
508.68	28828.38
508.85	28802.63
509.03	28655.18
509.20	28975.83
509.38	29029.66
509.55	28966.47
509.73	29333.93
509.90	29483.73
510.08	28811.99
510.25	28964.13
510.42	29329.25
510.60	29514.16
510.77	29628.84
510.95	29811.40
511.12	29535.22
511.30	29563.31
511.47	29926.09
511.64	29825.45
511.82	30019.71
511.99	29490.75
512.17	29869.92
512.34	29984.60
512.51	30541.65
512.69	30658.68
512.86	30478.46
513.04	30604.84
513.21	30473.78
513.38	30703.15
513.56	30160.14
513.73	30621.23
513.90	31007.42
514.08	30522.93
514.25	31019.12
514.43	31016.78
514.60	31070.61
514.77	31229.77
514.95	31297.64
515.12	30815.49
515.29	31281.26
515.47	31545.74
515.64	31592.55
515.81	31234.45
515.99	31454.46
516.16	31356.16
516.33	31732.98
516.51	31608.93
516.68	31431.05
516.85	31103.38
517.03	31409.99
517.20	31917.89
517.37	31637.02
517.54	32048.96
517.72	32329.82
517.89	31978.74
518.06	32201.09
518.24	32283.01
518.41	32156.62
518.58	31915.54
518.75	32198.75
518.93	32711.33
519.10	32547.49
519.27	32659.84
519.45	32526.42
519.62	33294.12
519.79	33151.35
519.96	32863.46
520.14	33240.29
520.31	32701.96
520.48	33310.50
520.65	33645.20
520.83	33778.61
521.00	33804.36
521.17	33383.06
521.34	33329.23
521.52	33357.32
521.69	33975.22
521.86	33841.81
522.03	33991.60
522.20	34108.63
522.38	34129.69
522.55	34139.05
522.72	33930.75
522.89	34157.78
523.07	34424.60
523.24	34192.89
523.41	34408.22
523.58	34665.67
523.75	34820.15
523.92	34653.97
524.10	34998.03
524.27	34567.37
524.44	34864.62
524.61	34789.72
524.78	35082.29
524.96	35398.26
525.13	35227.40
525.30	35653.38
525.47	35145.48
525.64	35330.39
525.81	35164.21
525.98	35283.58
526.16	35222.72
526.33	35098.67
526.50	35220.38
526.67	35103.35
526.84	35220.38
527.01	35285.92
527.18	35543.38
527.36	35606.57
527.53	35889.77
527.70	36156.60
527.87	35974.03
528.04	35725.94
528.21	36034.89
528.38	35983.40
528.55	36142.55
528.72	36467.89
528.89	36519.38
529.07	36470.23
529.24	36280.64
529.41	36250.22
529.58	36418.74
529.75	36439.80
529.92	36844.71
530.09	36945.36
530.26	36547.47
530.43	36921.95
530.60	36961.74
530.77	36603.64
530.94	36947.70
531.11	36928.97
531.28	37280.05
531.46	37053.02
531.63	36917.27
531.80	36849.39
531.97	37404.10
532.14	37277.71
532.31	36765.14
532.48	37366.65
532.65	37090.47
532.82	37668.58
532.99	37525.81
533.16	37020.25
533.33	37816.04
533.50	37750.50
533.67	37691.99
533.84	37364.31
534.01	37546.87
534.18	37441.55
534.35	38183.50
534.52	37860.51
534.69	37874.55
534.86	37876.89
535.03	38153.07
535.20	38412.87
535.37	38698.42
535.54	38714.80
535.71	38115.62
535.88	38440.96
536.05	38204.56
536.22	38602.46
536.38	38380.10
536.55	38239.67
536.72	38691.40
536.89	38539.26
537.06	38567.35
537.23	38469.04
537.40	38766.29
537.57	38817.78
537.74	38724.16
537.91	39222.70
538.08	38904.38
538.25	38555.64
538.42	39225.04
538.59	39077.58
538.75	39012.05
538.92	38862.26
539.09	39253.12
539.26	39072.90
539.43	39154.82
539.60	39253.12
539.77	39419.30
539.94	39068.22
540.11	39154.82
540.28	39445.05
540.44	39147.80
540.61	39281.21
540.78	39122.05
540.95	39398.24
541.12	39367.81
541.29	39442.71
541.46	39777.40
541.62	39578.46
541.79	39824.22
541.96	39423.98
542.13	39716.55
542.30	39365.47
542.47	39597.18
542.63	39959.97
542.80	39683.78
542.97	40205.72
543.14	40458.50
543.31	40414.03
543.48	40526.38
543.64	41036.61
543.81	40388.28
543.98	40287.64
544.15	40678.51
544.32	40488.93
544.48	41134.92
544.65	40428.07
544.82	40753.41
544.99	40397.65
545.16	40842.35
545.32	40535.74
545.49	41165.34
545.66	41392.37
545.83	41076.40
546.00	41195.77
546.16	41179.39
546.33	40964.06
546.50	40807.24
546.67	41055.34
546.83	40549.78
547.00	40811.92
547.17	41048.32
547.34	41418.12
547.50	41195.77
547.67	41696.64
547.84	41045.97
548.00	41467.27
548.17	41572.60
548.34	41722.39
548.51	41869.84
548.67	41670.90
548.84	41654.51
549.01	41371.31
549.18	41481.31
549.34	41537.49
549.51	41535.15
549.68	41783.24
549.84	41755.16
550.01	42061.77
550.18	41642.81
550.34	41642.81
550.51	41982.19
550.68	41895.59
550.84	41663.88
551.01	42115.60
551.18	41867.50
551.34	41977.51
551.51	42232.63
551.68	42068.79
551.84	42272.42
552.01	42026.66
552.18	42258.37
552.34	42183.48
552.51	42518.17
552.68	42237.31
552.84	42557.96
553.01	42473.70
553.18	42260.71
553.34	42256.03
553.51	41865.16
553.67	42295.82
553.84	42689.03
554.01	42368.38
554.17	42508.81
554.34	42522.85
554.51	42754.57
554.67	42780.31
554.84	42735.84
555.00	42639.88
555.17	42473.70
555.33	42548.60
555.50	42136.66
555.67	42431.57
555.83	42710.10
556.00	42483.06
556.16	42934.79
556.33	42710.10
556.50	42522.85
556.66	43098.62
556.83	42665.63
556.99	42927.77
557.16	43033.09
557.32	42993.30
557.49	43063.52
557.65	42457.32
557.82	42405.83
557.98	42899.68
558.15	43468.43
558.32	43264.80
558.48	43112.67
558.65	43072.88
558.81	43072.88
558.98	42752.23
559.14	42705.41
559.31	43318.64
559.47	42939.47
559.64	43215.65
559.80	43416.94
559.97	43896.75
560.13	43056.50
560.30	43028.41
560.46	43414.60
560.63	43398.21
560.79	43552.69
560.96	43833.55
561.12	43620.56
561.29	43737.59
561.45	43428.64
561.61	43330.34
561.78	43718.87
561.94	43658.01
562.11	43105.65
562.27	43292.89
562.44	43763.34
562.60	43805.47
562.77	43751.63
562.93	43054.15
563.10	43512.90
563.26	43339.70
563.42	43859.30
563.59	43398.21
563.75	43435.66
563.92	43599.50
564.08	43658.01
564.24	44172.93
564.41	43957.60
564.57	43983.35
564.74	43615.88
564.90	43519.92
565.07	43683.76
565.23	43658.01
565.39	43770.36
565.56	44051.22
565.72	43753.97
565.88	43945.90
566.05	43552.69
566.21	43545.67
566.38	43578.43
566.54	44053.56
566.70	43838.23
566.87	43899.09
567.03	43868.66
567.19	44444.43
567.36	43969.30
567.52	43913.13
567.68	43908.45
567.85	43995.05
568.01	44095.69
568.17	43704.82
568.34	43803.13
568.50	43517.58
568.66	43999.73
568.83	43978.67
568.99	43718.87
569.15	44154.21
569.32	43789.08
569.48	43281.19
569.64	44212.72
569.81	43927.17
569.97	43976.33
570.13	43779.72
570.30	43658.01
570.46	44086.33
570.62	43543.33
570.78	43487.15
570.95	44004.41
571.11	44252.51
571.27	44088.67
571.43	43695.46
571.60	43674.40
571.76	43849.94
571.92	44114.42
572.09	44102.71
572.25	43882.70
572.41	44079.31
572.57	44275.91
572.74	44622.31
572.90	44325.07
573.06	44423.37
573.22	43955.26
573.38	44231.44
573.55	44418.69
573.71	44233.78
573.87	43840.57
574.03	44133.14
574.20	44428.05
574.36	44390.60
574.52	44119.10
574.68	44243.15
574.84	44245.49
575.01	44130.80
575.17	44292.30
575.33	43985.69
575.49	43531.62
575.65	44009.09
575.82	44491.24
575.98	44116.76
576.14	44229.10
576.30	44236.12
576.46	44570.82
576.62	44170.59
576.79	44474.86
576.95	44154.21
577.11	43859.30
577.27	44201.02
577.43	43957.60
577.59	44123.78
577.75	44257.19
577.92	43847.60
578.08	44172.93
578.24	44247.83
578.40	43613.54
578.56	44264.21
578.72	44442.09
578.88	44638.70
579.04	44364.85
579.21	44271.23
579.37	44233.78
579.53	44308.68
579.69	44304.00
579.85	44524.01
580.01	44437.41
580.17	44350.81
580.33	44495.92
580.49	44390.60
580.65	44142.50
580.82	44697.21
580.98	44259.53
581.14	44596.57
581.30	44449.11
581.46	44673.81
581.62	44435.07
581.78	44140.16
581.94	44421.03
582.10	44236.12
582.26	44137.82
582.42	44336.77
582.58	44542.74
582.74	44516.99
582.90	44837.64
583.06	44474.86
583.22	44355.49
583.38	44608.27
583.54	44414.01
583.70	44414.01
583.86	44226.76
584.02	44217.40
584.18	44425.71
584.34	44493.58
584.50	44540.39
584.66	44369.54
584.82	44662.10
584.98	44685.51
585.14	44626.99
585.30	44219.74
585.46	44605.93
585.62	44079.31
585.78	44296.98
585.94	44093.35
586.10	44098.03
586.26	44605.93
586.42	44671.46
586.58	44678.49
586.74	44350.81
586.90	44292.30
587.06	44273.57
587.22	44549.76
587.38	44315.70
587.54	44786.15
587.70	44711.25
587.86	44931.26
588.02	44507.63
588.18	44949.99
588.34	44453.79
588.49	44025.48
588.65	44278.25
588.81	44226.76
588.97	44212.72
589.13	44507.63
589.29	44325.07
589.45	44753.38
589.61	44804.88
589.77	44732.32
589.93	44493.58
590.08	44706.57
590.24	44713.59
