SpectraSuite Data File
++++++++++++++++++++++++++++++++++++
Date: Fri Oct 25 11:26:24 EDT 2013
User: price-jones
Dark Spectrum Present: No
Reference Spectrum Present: No
Number of Sampled Component Spectra: 1
Spectrometers: USB2+H05261
Integration Time (usec): 100000 (USB2+H05261)
Spectra Averaged: 1 (USB2+H05261)
Boxcar Smoothing: 0 (USB2+H05261)
Correct for Electrical Dark: No (USB2+H05261)
Strobe/Lamp Enabled: No (USB2+H05261)
Correct for Detector Non-linearity: No (USB2+H05261)
Correct for Stray Light: No (USB2+H05261)
Number of Pixels in Processed Spectrum: 2048
>>>>>Begin Processed Spectral Data<<<<<
365.73	266.82
365.92	266.82
366.12	266.82
366.32	142.77
366.52	184.90
366.72	175.54
366.91	124.05
367.11	147.45
367.31	131.07
367.51	154.48
367.70	84.26
367.90	173.20
368.10	145.11
368.30	131.07
368.49	138.09
368.69	180.22
368.89	187.24
369.09	124.05
369.28	198.95
369.48	119.37
369.68	149.79
369.87	236.39
370.07	177.88
370.27	292.57
370.47	308.95
370.66	655.35
370.86	655.35
371.06	650.67
371.25	678.76
371.45	631.94
371.65	669.39
371.84	681.10
372.04	711.52
372.24	758.33
372.44	704.50
372.63	767.70
372.83	823.87
373.03	685.78
373.22	807.48
373.42	816.85
373.62	812.17
373.81	814.51
374.01	835.57
374.21	837.91
374.40	856.64
374.60	795.78
374.79	851.96
374.99	786.42
375.19	828.55
375.38	844.93
375.58	816.85
375.78	905.79
375.97	840.25
376.17	866.00
376.37	894.08
376.56	889.40
376.76	903.45
376.95	978.34
377.15	983.02
377.35	861.32
377.54	936.21
377.74	840.25
377.93	919.83
378.13	903.45
378.33	931.53
378.52	1027.50
378.72	957.28
378.91	957.28
379.11	947.92
379.31	889.40
379.50	952.60
379.70	901.11
379.89	1069.62
380.09	1029.84
380.28	1034.52
380.48	959.62
380.68	952.60
380.87	905.79
381.07	1008.77
381.26	1132.82
381.46	1057.92
381.65	1160.91
381.85	1078.99
382.04	1083.67
382.24	1100.05
382.43	1081.33
382.63	1118.78
382.83	1071.97
383.02	1137.50
383.22	1020.47
383.41	1074.31
383.61	1053.24
383.80	1158.57
384.00	1128.14
384.19	1181.97
384.39	1188.99
384.58	1149.20
384.78	1191.33
384.97	1217.08
385.17	1093.03
385.36	1170.27
385.56	1165.59
385.75	1196.01
385.95	1163.25
386.14	1221.76
386.34	1240.48
386.53	1238.14
386.72	1203.04
386.92	1287.29
387.11	1226.44
387.31	1282.61
387.50	1261.55
387.70	1270.91
387.89	1249.85
388.09	1263.89
388.28	1345.81
388.48	1355.17
388.67	1268.57
388.86	1287.29
389.06	1301.34
389.25	1357.51
389.45	1299.00
389.64	1324.74
389.84	1406.66
390.03	1359.85
390.22	1385.60
390.42	1296.66
390.61	1387.94
390.81	1387.94
391.00	1467.52
391.19	1390.28
391.39	1504.96
391.58	1472.20
391.78	1378.58
391.97	1511.99
392.16	1448.79
392.36	1563.48
392.55	1561.14
392.75	1458.15
392.94	1497.94
393.13	1584.54
393.33	1638.38
393.52	1507.30
393.71	1558.80
393.91	1582.20
394.10	1638.38
394.29	1535.39
394.49	1633.69
394.68	1657.10
394.88	1717.95
395.07	1755.40
395.26	1631.35
395.46	1689.87
395.65	1657.10
395.84	1717.95
396.04	1717.95
396.23	1734.34
396.42	1701.57
396.62	1879.45
396.81	1722.63
397.00	1827.96
397.19	1797.53
397.39	1806.89
397.58	1914.56
397.77	1799.87
397.97	1858.39
398.16	1820.94
398.35	1879.45
398.55	1846.68
398.74	1846.68
398.93	1881.79
399.12	1860.73
399.32	1980.09
399.51	1930.94
399.70	2054.99
399.90	2052.65
400.09	1949.67
400.28	2106.48
400.47	1968.39
400.67	1949.67
400.86	2080.74
401.05	2125.21
401.24	2064.35
401.44	2071.37
401.63	2043.29
401.82	2064.35
402.01	2005.84
402.21	2092.44
402.40	2146.27
402.59	2153.29
402.78	2165.00
402.97	2197.76
403.17	2270.32
403.36	2249.25
403.55	2256.28
403.74	2345.22
403.93	2340.54
404.13	2333.51
404.32	2335.85
404.51	2354.58
404.70	2431.82
404.89	2340.54
405.09	2356.92
405.28	2492.67
405.47	2459.90
405.66	2551.18
405.85	2513.74
406.05	2457.56
406.24	2511.39
406.43	2513.74
406.62	2647.15
406.81	2609.70
407.00	2576.93
407.20	2527.78
407.39	2663.53
407.58	2785.24
407.77	2860.13
407.96	2696.30
408.15	2778.22
408.34	2700.98
408.54	2672.89
408.73	2621.40
408.92	2871.84
409.11	2801.62
409.30	2832.05
409.49	2998.23
409.68	2906.95
409.87	2841.41
410.07	3028.65
410.26	3007.59
410.45	2974.82
410.64	3131.64
410.83	3068.44
411.02	2984.18
411.21	3126.96
411.40	3000.57
411.59	3180.79
411.78	3187.81
411.98	3248.66
412.17	3087.17
412.36	3241.64
412.55	3258.03
412.74	3382.07
412.93	3391.44
413.12	3293.13
413.31	3590.38
413.50	3559.95
413.69	3541.23
413.88	3466.33
414.07	3583.36
414.26	3644.21
414.45	3613.79
414.64	3534.21
414.83	3819.75
415.02	3829.12
415.22	3798.69
415.41	3812.73
415.60	3822.09
415.79	3899.33
415.98	3932.10
416.17	3932.10
416.36	3955.51
416.55	3939.12
416.74	3969.55
416.93	4004.66
417.12	4081.89
417.31	4168.49
417.50	4173.18
417.69	4175.52
417.88	4245.73
418.07	4198.92
418.26	4299.56
418.45	4236.37
418.64	4547.66
418.83	4416.59
419.02	4521.92
419.21	4472.76
419.39	4449.36
419.58	4435.32
419.77	4465.74
419.96	4620.22
420.15	4575.75
420.34	4568.73
420.53	4568.73
420.72	4587.45
420.91	4599.15
421.10	4624.90
421.29	4828.53
421.48	4580.43
421.67	4695.11
421.86	4917.47
422.05	4868.31
422.24	4943.21
422.43	4833.21
422.61	5050.88
422.80	4973.64
422.99	4798.10
423.18	4767.67
423.37	4978.32
423.56	4931.51
423.75	4884.70
423.94	4830.87
424.13	4589.79
424.32	4828.53
424.50	5001.72
424.69	5008.75
424.88	5055.56
425.07	4926.83
425.26	4861.29
425.45	4926.83
425.64	4870.65
425.83	4821.50
426.01	4854.27
426.20	4978.32
426.39	5088.32
426.58	5062.58
426.77	5050.88
426.96	5088.32
427.15	5039.17
427.33	5261.52
427.52	5067.26
427.71	5238.12
427.90	5097.69
428.09	5275.57
428.28	5294.29
428.46	5373.87
428.65	5238.12
428.84	5483.88
429.03	5343.44
429.22	5352.81
429.40	5397.28
429.59	5458.13
429.78	5350.46
429.97	5149.18
430.16	5561.11
430.34	5610.26
430.53	5687.50
430.72	5582.18
430.91	5631.33
431.10	5533.03
431.28	5626.65
431.47	5600.90
431.66	5795.17
431.85	5841.98
432.03	5839.64
432.22	5832.62
432.41	5954.32
432.60	5898.15
432.79	6010.50
432.97	6017.52
433.16	5935.60
433.35	5944.96
433.54	5959.00
433.72	6061.99
433.91	5977.73
434.10	6204.76
434.28	6195.40
434.47	6282.00
434.66	6160.29
434.85	6181.35
435.03	6413.07
435.22	6333.49
435.41	6331.15
435.59	6239.87
435.78	6361.58
435.97	6314.77
436.16	6417.75
436.34	6609.67
436.53	6527.75
436.72	6509.03
436.90	6408.39
437.09	6469.24
437.28	6382.64
437.46	6548.82
437.65	6633.08
437.84	6698.61
438.02	6715.00
438.21	6654.14
438.40	6579.25
438.58	6820.32
438.77	7073.10
438.96	6822.66
439.14	6944.37
439.33	7295.45
439.52	7344.60
439.70	7218.21
439.89	7508.44
440.08	7241.62
440.26	7330.56
440.45	7424.18
440.63	7382.05
440.82	7681.64
441.01	7494.40
441.19	7555.25
441.38	7693.34
441.57	7585.68
441.75	7791.64
441.94	7925.05
442.12	7866.54
442.31	7840.79
442.50	7765.90
442.68	7918.03
442.87	7999.95
443.05	7964.84
443.24	8065.49
443.43	8037.40
443.61	8084.21
443.80	8327.63
443.98	8013.99
444.17	7946.12
444.35	8168.47
444.54	8210.60
444.73	8287.84
444.91	8191.88
445.10	8292.52
445.28	8156.77
445.47	8280.82
445.65	8437.63
445.84	8369.76
446.02	8432.95
446.21	8374.44
446.39	8339.33
446.58	8456.36
446.77	8552.32
446.95	8381.46
447.14	8271.45
447.32	8514.87
447.51	8465.72
447.69	8472.74
447.88	8411.89
448.06	8695.09
448.25	8439.97
448.43	8549.98
448.62	8617.85
448.80	8496.14
448.99	8865.95
449.17	8662.32
449.36	8454.02
449.54	8807.44
449.73	8821.48
449.91	8964.25
450.10	8999.36
450.28	8903.40
450.46	9104.68
450.65	8872.97
450.83	9177.24
451.02	8933.82
451.20	9076.60
451.39	9074.26
451.57	9303.63
451.76	9095.32
451.94	9020.42
452.13	9280.22
452.31	9240.44
452.49	9139.79
452.68	9202.99
452.86	9310.65
453.05	9359.80
453.23	9373.85
453.42	9362.14
453.60	9259.16
453.78	9465.13
453.97	9542.36
454.15	9603.22
454.34	9465.13
454.52	9764.72
454.70	9689.82
454.89	9802.16
455.07	9635.99
455.26	9703.86
455.44	9907.49
455.62	9891.10
455.81	9806.84
455.99	9809.19
456.17	10106.43
456.36	9963.66
456.54	10218.78
456.73	10040.90
456.91	10373.25
457.09	10216.44
457.28	10366.23
457.46	10403.68
457.64	10583.90
457.83	10483.26
458.01	10305.38
458.19	10553.48
458.38	10368.57
458.56	10731.36
458.74	10714.97
458.93	10661.14
459.11	10705.61
459.29	10546.45
459.48	10778.17
459.66	10658.80
459.84	10953.71
460.03	10939.66
460.21	11150.31
460.39	10864.77
460.57	10939.66
460.76	10967.75
460.94	11183.08
461.12	11103.50
461.31	11248.61
461.49	11026.26
461.67	11052.01
461.85	11363.30
462.04	11293.08
462.22	11667.57
462.40	11763.53
462.59	11218.19
462.77	11480.33
462.95	11695.66
463.13	11503.73
463.32	11597.35
463.50	11761.19
463.68	11796.30
463.86	11719.06
464.05	11658.21
464.23	11676.93
464.41	11913.33
464.59	11782.26
464.78	11995.25
464.96	11798.64
465.14	11784.60
465.32	12046.74
465.50	12102.91
465.69	12215.26
465.87	11817.36
466.05	12105.25
466.23	12159.08
466.41	12123.98
466.60	12528.89
466.78	12105.25
466.96	12215.26
467.14	12042.06
467.32	12259.73
467.51	12695.07
467.69	11995.25
467.87	12189.51
468.05	12430.59
468.23	12128.66
468.41	12250.36
468.60	12617.83
468.78	12802.73
468.96	12669.32
469.14	12688.04
469.32	12837.84
469.50	12535.91
469.69	12741.88
469.87	13172.54
470.05	13081.25
470.23	13027.42
470.41	13146.79
470.59	13186.58
470.77	13102.32
470.95	13149.13
471.14	13291.90
471.32	13114.02
471.50	13413.61
471.68	13289.56
471.86	13591.49
472.04	13635.96
472.22	13921.51
472.40	13678.09
472.58	13994.06
472.77	13680.43
472.95	13862.99
473.13	14424.72
473.31	13930.87
473.49	13923.85
473.67	14193.01
473.85	14228.12
474.03	14553.45
474.21	14731.33
474.39	14626.01
474.57	14630.69
474.75	14888.15
474.93	15119.86
475.12	14745.38
475.30	14831.97
475.48	14843.68
475.66	14991.13
475.84	15066.03
476.02	15218.16
476.20	15161.99
476.38	15466.26
476.56	16060.76
476.74	15866.49
476.92	16084.16
477.10	15873.51
477.28	16123.95
477.46	16145.02
477.64	16395.45
477.82	16435.24
478.00	16931.44
478.18	16659.93
478.36	16664.61
478.54	16919.73
478.72	17146.76
478.90	17329.33
479.08	17640.62
479.26	17631.26
479.44	17752.96
479.62	17727.22
479.80	18368.52
479.98	18026.81
480.16	18251.50
480.34	18146.17
480.52	18499.59
480.70	18239.79
480.88	18125.11
481.06	18490.23
481.24	18728.97
481.41	18878.76
481.59	19264.95
481.77	19377.30
481.95	19351.55
482.13	19550.49
482.31	19697.95
482.49	20187.12
482.67	19976.47
482.85	20184.78
483.03	20577.99
483.21	20622.46
483.39	20858.85
483.57	20702.04
483.74	21198.23
483.92	21284.83
484.10	20945.45
484.28	21703.79
484.46	21977.63
484.64	22333.39
484.82	21734.21
485.00	21963.59
485.18	22876.40
485.35	22562.76
485.53	22871.72
485.71	23009.81
485.89	23440.47
486.07	22815.54
486.25	23370.25
486.43	23623.03
486.61	23826.65
486.78	23913.25
486.96	23807.93
487.14	24222.20
487.32	24592.01
487.50	24430.51
487.68	24959.47
487.85	25120.97
488.03	25319.92
488.21	25467.37
488.39	25465.03
488.57	25876.96
488.75	25993.99
488.92	26651.68
489.10	26483.16
489.28	26534.65
489.46	26993.40
489.64	26820.20
489.81	27482.57
489.99	27541.08
490.17	27761.09
490.35	28112.17
490.53	27997.49
490.70	28135.58
490.88	28170.69
491.06	28734.76
491.24	28800.29
491.41	28826.04
491.59	28922.00
491.77	29422.87
491.95	29172.44
492.13	29710.76
492.30	29612.46
492.48	29881.62
492.66	29930.77
492.84	30101.63
493.01	30771.02
493.19	30508.88
493.37	30878.69
493.54	31166.57
493.72	31491.91
493.90	31285.94
494.08	31295.30
494.25	31903.84
494.43	31573.83
494.61	32175.34
494.79	32435.14
494.96	32102.79
495.14	32608.34
495.32	32720.69
495.49	33060.07
495.67	33188.80
495.85	33237.95
496.02	33577.33
496.20	33626.48
496.38	33825.42
496.55	34164.80
496.73	34684.40
496.91	34195.23
497.09	34792.06
497.26	34787.38
497.44	34871.64
497.62	35058.88
497.79	35477.84
497.97	35138.46
498.14	36039.57
498.32	36041.91
498.50	35768.07
498.67	36690.24
498.85	36299.37
499.03	36353.20
499.20	36517.04
499.38	36636.41
499.56	36751.09
499.73	36957.06
499.91	36945.36
500.08	37624.11
500.26	37024.93
500.44	37177.07
500.61	37483.68
500.79	37523.47
500.97	37684.97
501.14	38293.50
501.32	38656.29
501.49	38471.39
501.67	38653.95
501.84	38307.55
502.02	38691.40
502.20	39042.48
502.37	38911.41
502.55	39257.81
502.72	39182.91
502.90	39152.48
503.07	39145.46
503.25	39557.39
503.43	39218.02
503.60	40205.72
503.78	39976.35
503.95	40060.61
504.13	39859.32
504.30	40722.98
504.48	40240.83
504.65	40769.79
504.83	40767.45
505.01	41364.29
505.18	40774.47
505.36	40987.46
505.53	41191.09
505.71	40982.78
505.88	41347.90
506.06	41240.24
506.23	41670.90
506.41	41780.90
506.58	41701.32
506.76	42300.50
506.93	42064.11
507.11	42501.79
507.28	41968.15
507.46	42506.47
507.63	42656.26
507.81	42869.25
507.98	42384.76
508.16	42831.80
508.33	43077.56
508.50	43065.86
508.68	43543.33
508.85	43636.95
509.03	43384.17
509.20	43611.20
509.38	44009.09
509.55	44191.65
509.73	44236.12
509.90	44275.91
510.08	44285.28
510.25	44463.16
510.42	44411.67
510.60	44521.67
510.77	44772.11
510.95	44957.01
511.12	44250.17
511.30	44896.16
511.47	45118.51
511.64	44980.42
511.82	46007.91
511.99	45584.27
512.17	45670.87
512.34	45652.15
512.51	46031.32
512.69	46227.92
512.86	46064.08
513.04	46204.52
513.21	46160.05
513.38	46560.28
513.56	46705.39
513.73	46562.62
513.90	47079.88
514.08	46906.68
514.25	46913.70
514.43	47178.18
514.60	47126.69
514.77	47257.76
514.95	47346.70
515.12	47861.61
515.29	47194.56
515.47	47957.58
515.64	48315.68
515.81	47594.79
515.99	47896.72
516.16	48381.21
516.33	48086.31
516.51	48229.08
516.68	48322.70
516.85	48589.52
517.03	48741.66
517.20	48561.44
517.37	48140.14
517.54	48772.08
517.72	48669.10
517.89	48924.22
518.06	49078.69
518.24	48832.94
518.41	49221.47
518.58	48985.07
518.75	49216.78
518.93	49081.03
519.10	49319.77
519.27	49532.76
519.45	49462.54
519.62	49965.76
519.79	49591.27
519.96	49675.53
520.14	49916.61
520.31	49764.47
520.48	50052.36
520.65	49851.07
520.83	50365.99
521.00	50506.42
521.17	50115.55
521.34	50539.19
521.52	50632.81
521.69	50429.18
521.86	50511.10
522.03	50937.08
522.20	51332.63
522.38	51007.29
522.55	51021.34
522.72	50862.18
522.89	51056.45
523.07	51393.48
523.24	51026.02
523.41	51297.52
523.58	51442.63
523.75	51655.62
523.92	51447.32
524.10	51426.25
524.27	51955.21
524.44	51700.09
524.61	52065.22
524.78	51828.82
524.96	51800.74
525.13	52034.79
525.30	52025.43
525.47	52713.55
525.64	52156.50
525.81	52486.51
525.98	52458.43
526.16	52308.63
526.33	52519.28
526.50	53139.52
526.67	52526.30
526.84	52917.17
527.01	52629.29
527.18	52523.96
527.36	52900.79
527.53	52877.38
527.70	52942.92
527.87	53181.65
528.04	53160.59
528.21	53326.77
528.38	52800.15
528.55	53052.92
528.72	53392.30
528.89	53415.71
529.07	53099.73
529.24	53043.56
529.41	53638.06
529.58	53633.38
529.75	53525.71
529.92	53696.57
530.09	53530.39
530.26	53708.27
530.43	53738.70
530.60	53591.25
530.77	53495.28
530.94	53958.71
531.11	53939.99
531.28	54073.40
531.46	54019.56
531.63	54223.19
531.80	53797.21
531.97	54150.63
532.14	54082.76
532.31	54485.33
532.48	54288.73
532.65	54291.07
532.82	54260.64
532.99	54468.95
533.16	54312.13
533.33	54749.81
533.50	54801.30
533.67	54497.03
533.84	54365.96
534.01	54705.34
534.18	54625.76
534.35	54939.39
534.52	54976.84
534.69	55011.95
534.86	54700.66
535.03	54836.41
535.20	55070.46
535.37	55086.85
535.54	55255.37
535.71	55147.70
535.88	55056.42
536.05	55400.48
536.22	55395.80
536.38	55337.29
536.55	55470.70
536.72	55569.00
536.89	55238.98
537.06	55409.84
537.23	55517.51
537.40	55426.23
537.57	55648.58
537.74	55580.70
537.91	55842.84
538.08	55657.94
538.25	55561.98
538.42	55863.91
538.59	56109.66
538.75	55725.81
538.92	55728.16
539.09	56107.32
539.26	55917.74
539.43	55966.89
539.60	56023.06
539.77	56296.91
539.94	56282.86
540.11	56332.01
540.28	56477.13
540.44	56243.07
540.61	56133.07
540.78	56470.11
540.95	56097.96
541.12	56219.67
541.29	56395.21
541.46	56453.72
541.62	56336.69
541.79	56566.07
541.96	56343.72
542.13	56507.55
542.30	56486.49
542.47	56722.88
542.63	56926.51
542.80	56863.32
542.97	56949.92
543.14	57003.75
543.31	56870.34
543.48	57102.05
543.64	56924.17
543.81	57272.91
543.98	57251.84
544.15	57207.37
544.32	57364.19
544.48	57413.34
544.65	57298.65
544.82	57286.95
544.99	57226.10
545.16	57366.53
545.32	57340.78
545.49	57427.38
545.66	57506.96
545.83	57518.67
546.00	57628.67
546.16	57411.00
546.33	57366.53
546.50	57258.87
546.67	57619.31
546.83	57467.17
547.00	57750.38
547.17	57375.89
547.34	57745.70
547.50	57771.44
547.67	57942.30
547.84	57848.68
548.00	57879.11
548.17	58082.73
548.34	57897.83
548.51	58192.74
548.67	58103.80
548.84	57738.68
549.01	58024.22
549.18	57972.73
549.34	58073.37
549.51	58300.40
549.68	58281.68
549.84	58176.36
550.01	58178.70
550.18	58150.61
550.34	58218.49
550.51	58230.19
550.68	58220.83
550.84	57883.79
551.01	58457.22
551.18	58251.25
551.34	58328.49
551.51	58536.80
551.68	58487.65
551.84	58178.70
552.01	58272.32
552.18	58590.63
552.34	58241.89
552.51	58375.30
552.68	58269.98
552.84	58747.45
553.01	58784.90
553.18	58499.35
553.34	58712.34
553.51	58667.87
553.67	58707.66
553.84	58777.87
554.01	58880.86
554.17	58827.02
554.34	58883.20
554.51	58726.38
554.67	58862.13
554.84	58665.53
555.00	58866.81
555.17	58855.11
555.33	58913.62
555.50	58782.55
555.67	58892.56
555.83	58939.37
556.00	58988.52
556.16	59430.88
556.33	59098.53
556.50	58944.05
556.66	59171.08
556.83	59114.91
556.99	59250.66
557.16	59501.10
557.32	59306.83
557.49	59353.65
557.65	59229.60
557.82	59185.13
557.98	59194.49
558.15	59257.68
558.32	59309.18
558.48	59414.50
558.65	59285.77
558.81	59269.39
558.98	59442.59
559.14	59274.07
559.31	59531.53
559.47	59517.48
559.64	59391.09
559.80	59510.46
559.97	59695.36
560.13	59428.54
560.30	59224.92
560.46	59615.79
560.63	59774.94
560.79	59627.49
560.96	59477.69
561.12	59463.65
561.29	59746.86
561.45	59788.98
561.61	59678.98
561.78	59831.11
561.94	59683.66
562.11	59681.32
562.27	59564.29
562.44	59896.65
562.60	60280.50
562.77	59931.76
562.93	59810.05
563.10	59877.93
563.26	59774.94
563.42	60123.68
563.59	60065.17
563.75	59704.73
563.92	59660.26
564.08	59877.93
564.24	60020.70
564.41	60004.31
564.57	60104.96
564.74	59817.07
564.90	60006.65
565.07	59999.63
565.23	59948.14
565.39	60060.49
565.56	60116.66
565.72	60245.39
565.88	59980.91
566.05	59966.87
566.21	59964.52
566.38	60025.38
566.54	60168.15
566.70	60287.52
566.87	60144.75
567.03	59973.89
567.19	60381.14
567.36	60065.17
567.52	60142.41
567.68	60383.48
567.85	60104.96
568.01	60308.58
568.17	60163.47
568.34	60210.28
568.50	60261.77
568.66	60348.37
568.83	60353.05
568.99	60200.92
569.15	60395.18
569.32	60252.41
569.48	60268.79
569.64	60411.57
569.81	60140.07
569.97	60158.79
570.13	60430.29
570.30	60076.87
570.46	60224.32
570.62	60273.48
570.78	60430.29
570.95	60353.05
571.11	60505.19
571.27	60409.23
571.43	60254.75
571.60	60629.24
571.76	60472.42
571.92	60580.09
572.09	60530.93
572.25	60383.48
572.41	60479.44
572.57	60526.25
572.74	60687.75
572.90	60463.06
573.06	60346.03
573.22	60364.76
573.38	60516.89
573.55	60584.77
573.71	60760.31
573.87	60685.41
574.03	60559.02
574.20	60530.93
574.36	60594.13
574.52	60484.12
574.68	60566.04
574.84	60746.26
575.01	60619.88
575.17	60542.64
575.33	60559.02
575.49	60367.10
575.65	60554.34
575.82	60650.30
575.98	60615.19
576.14	60999.04
576.30	60568.38
576.46	60542.64
576.62	60594.13
576.79	60629.24
576.95	60624.56
577.11	60720.52
577.27	60640.94
577.43	60835.20
577.59	60624.56
577.75	60713.50
577.92	60603.49
578.08	60633.92
578.24	60741.58
578.40	60867.97
578.56	60891.38
578.72	60701.79
578.88	60664.35
579.04	60924.14
579.21	60640.94
579.37	61015.43
579.53	60790.73
579.69	60601.15
579.85	60762.65
580.01	60591.79
580.17	60617.53
580.33	60966.27
580.49	60687.75
580.65	60793.07
580.82	60849.25
580.98	60832.86
581.14	60619.88
581.30	60966.27
581.46	60774.35
581.62	60760.31
581.78	60477.10
581.94	60741.58
582.10	60832.86
582.26	60954.57
582.42	60725.20
582.58	60977.98
582.74	60680.73
582.90	60842.23
583.06	60992.02
583.22	60683.07
583.38	60725.20
583.54	60837.54
583.70	61013.08
583.86	60786.05
584.02	60891.38
584.18	60874.99
584.34	60795.42
584.50	60839.89
584.66	60877.33
584.82	60650.30
584.98	60917.12
585.14	61062.24
585.30	60790.73
585.46	60940.53
585.62	60910.10
585.78	60938.19
585.94	60697.11
586.10	61015.43
586.26	60987.34
586.42	60992.02
586.58	60959.25
586.74	60959.25
586.90	60846.91
587.06	60743.92
587.22	60973.30
587.38	60835.20
587.54	61064.58
587.70	61235.44
587.86	60954.57
588.02	61010.74
588.18	61029.47
588.34	60910.10
588.49	60963.93
