SpectraSuite Data File
++++++++++++++++++++++++++++++++++++
Date: Fri Oct 25 11:25:02 EDT 2013
User: price-jones
Dark Spectrum Present: No
Reference Spectrum Present: No
Number of Sampled Component Spectra: 1
Spectrometers: USB2+H05261
Integration Time (usec): 100000 (USB2+H05261)
Spectra Averaged: 1 (USB2+H05261)
Boxcar Smoothing: 0 (USB2+H05261)
Correct for Electrical Dark: No (USB2+H05261)
Strobe/Lamp Enabled: No (USB2+H05261)
Correct for Detector Non-linearity: No (USB2+H05261)
Correct for Stray Light: No (USB2+H05261)
Number of Pixels in Processed Spectrum: 2048
>>>>>Begin Processed Spectral Data<<<<<
365.73	234.05
365.92	234.05
366.12	234.05
366.32	152.13
366.52	84.26
366.72	131.07
366.91	81.92
367.11	124.05
367.31	145.11
367.51	175.54
367.70	156.82
367.90	189.58
368.10	112.35
368.30	145.11
368.49	138.09
368.69	170.86
368.89	168.52
369.09	154.48
369.28	175.54
369.48	180.22
369.68	147.45
369.87	220.01
370.07	245.76
370.27	196.60
370.47	348.74
370.66	575.77
370.86	636.63
371.06	648.33
371.25	610.88
371.45	676.41
371.65	655.35
371.84	692.80
372.04	720.88
372.24	723.23
372.44	657.69
372.63	774.72
372.83	716.20
373.03	683.44
373.22	784.08
373.42	795.78
373.62	774.72
373.81	793.44
374.01	851.96
374.21	772.38
374.40	884.72
374.60	858.98
374.79	812.17
374.99	858.98
375.19	884.72
375.38	882.38
375.58	882.38
375.78	931.53
375.97	903.45
376.17	884.72
376.37	795.78
376.56	844.93
376.76	922.17
376.95	835.57
377.15	884.72
377.35	819.19
377.54	903.45
377.74	976.00
377.93	891.74
378.13	847.27
378.33	919.83
378.52	933.87
378.72	919.83
378.91	978.34
379.11	978.34
379.31	896.43
379.50	896.43
379.70	968.98
379.89	971.32
380.09	985.37
380.28	990.05
380.48	954.94
380.68	1015.79
380.87	1006.43
381.07	973.66
381.26	1025.15
381.46	943.24
381.65	976.00
381.85	1036.86
382.04	1116.44
382.24	1011.11
382.43	1027.50
382.63	1046.22
382.83	1013.45
383.02	1158.57
383.22	1184.31
383.41	1111.75
383.61	1076.65
383.80	1074.31
384.00	1116.44
384.19	1170.27
384.39	1071.97
384.58	1170.27
384.78	1128.14
384.97	1170.27
385.17	1118.78
385.36	1203.04
385.56	1224.10
385.75	1200.69
385.95	1217.08
386.14	1177.29
386.34	1203.04
386.53	1200.69
386.72	1151.54
386.92	1310.70
387.11	1249.85
387.31	1282.61
387.50	1217.08
387.70	1268.57
387.89	1191.33
388.09	1313.04
388.28	1299.00
388.48	1261.55
388.67	1268.57
388.86	1341.13
389.06	1188.99
389.25	1301.34
389.45	1329.42
389.64	1376.24
389.84	1416.02
390.03	1357.51
390.22	1338.79
390.42	1383.26
390.61	1345.81
390.81	1521.35
391.00	1320.06
391.19	1373.89
391.39	1434.75
391.58	1423.05
391.78	1451.13
391.97	1399.64
392.16	1432.41
392.36	1554.12
392.55	1458.15
392.75	1516.67
392.94	1542.41
393.13	1514.33
393.33	1462.83
393.52	1554.12
393.71	1593.90
393.91	1579.86
394.10	1509.65
394.29	1593.90
394.49	1596.25
394.68	1657.10
394.88	1675.82
395.07	1652.42
395.26	1631.35
395.46	1579.86
395.65	1720.29
395.84	1678.16
396.04	1741.36
396.23	1746.04
396.42	1902.86
396.62	1741.36
396.81	1720.29
397.00	1778.81
397.19	1757.74
397.39	1799.87
397.58	1830.30
397.77	1753.06
397.97	1797.53
398.16	1863.07
398.35	1863.07
398.55	1874.77
398.74	1865.41
398.93	1905.20
399.12	1909.88
399.32	1905.20
399.51	1893.49
399.70	2059.67
399.90	1928.60
400.09	2022.22
400.28	2045.63
400.47	2073.71
400.67	2045.63
400.86	2029.24
401.05	2029.24
401.24	2043.29
401.44	2143.93
401.63	2190.74
401.82	2019.88
402.01	2045.63
402.21	2153.29
402.40	2167.34
402.59	2176.70
402.78	2132.23
402.97	2230.53
403.17	2244.57
403.36	2267.98
403.55	2279.68
403.74	2321.81
403.93	2359.26
404.13	2317.13
404.32	2408.41
404.51	2328.83
404.70	2401.39
404.89	2410.75
405.09	2394.37
405.28	2487.99
405.47	2347.56
405.66	2459.90
405.85	2614.38
406.05	2478.63
406.24	2527.78
406.43	2590.97
406.62	2588.63
406.81	2710.34
407.00	2567.57
407.20	2633.10
407.39	2668.21
407.58	2754.81
407.77	2565.23
407.96	2729.06
408.15	2883.54
408.34	2747.79
408.54	2708.00
408.73	2820.35
408.92	2754.81
409.11	2771.19
409.30	2818.00
409.49	2923.33
409.68	2848.43
409.87	2937.37
410.07	2958.44
410.26	2913.97
410.45	2897.58
410.64	2960.78
410.83	2984.18
411.02	3082.49
411.21	3002.91
411.40	3075.46
411.59	3297.81
411.78	3262.71
411.98	3194.83
412.17	3243.98
412.36	3286.11
412.55	3328.24
412.74	3351.65
412.93	3361.01
413.12	3428.88
413.31	3489.74
413.50	3562.30
413.69	3426.54
413.88	3660.60
414.07	3543.57
414.26	3618.47
414.45	3592.72
414.64	3651.24
414.83	3693.37
415.02	3782.31
415.22	3875.93
415.41	3815.07
415.60	3885.29
415.79	3784.65
415.98	3911.04
416.17	4023.38
416.36	3892.31
416.55	4072.53
416.74	4004.66
416.93	3969.55
417.12	4170.83
417.31	4081.89
417.50	4131.05
417.69	4243.39
417.88	4189.56
418.07	4231.69
418.26	4248.07
418.45	4348.72
418.64	4496.17
418.83	4470.42
419.02	4376.80
419.21	4456.38
419.39	4479.79
419.58	4397.87
419.77	4381.48
419.96	4409.57
420.15	4557.02
420.34	4636.60
420.53	4601.49
420.72	4821.50
420.91	4627.24
421.10	4716.18
421.29	4837.89
421.48	4812.14
421.67	4877.68
421.86	4643.62
422.05	4678.73
422.24	4805.12
422.43	4753.63
422.61	4814.48
422.80	5032.15
422.99	4816.82
423.18	4884.70
423.37	4973.64
423.56	5039.17
423.75	4833.21
423.94	4791.08
424.13	4550.00
424.32	4751.29
424.50	4999.38
424.69	5060.24
424.88	4889.38
425.07	4917.47
425.26	4933.85
425.45	5076.62
425.64	4896.40
425.83	4961.94
426.01	5032.15
426.20	4947.89
426.39	4992.36
426.58	5060.24
426.77	4865.97
426.96	5200.67
427.15	5083.64
427.33	5132.79
427.52	5041.51
427.71	5191.31
427.90	5334.08
428.09	5259.18
428.28	5451.11
428.46	5203.01
428.65	5404.30
428.84	5352.81
429.03	5493.24
429.22	5378.55
429.40	5401.96
429.59	5430.04
429.78	5310.68
429.97	5050.88
430.16	5434.72
430.34	5472.17
430.53	5631.33
430.72	5753.04
430.91	5593.88
431.10	5476.85
431.28	5654.73
431.47	5743.67
431.66	5783.46
431.85	5694.52
432.03	5783.46
432.22	6101.78
432.41	5837.30
432.60	5823.25
432.79	5947.30
432.97	5884.11
433.16	6094.76
433.35	6012.84
433.54	6162.63
433.72	6188.38
433.91	6101.78
434.10	6113.48
434.28	5963.68
434.47	6127.52
434.66	6207.10
434.85	6338.17
435.03	6387.32
435.22	6181.35
435.41	6392.00
435.59	6368.60
435.78	6249.23
435.97	6480.94
436.16	6338.17
436.34	6326.47
436.53	6537.12
436.72	6576.91
436.90	6413.07
437.09	6480.94
437.28	6413.07
437.46	6593.29
437.65	6562.86
437.84	6590.95
438.02	6729.04
438.21	6841.39
438.40	6593.29
438.58	6871.81
438.77	7070.76
438.96	7042.67
439.14	6977.14
439.33	7091.82
439.52	7080.12
439.70	7262.68
439.89	7227.57
440.08	7185.44
440.26	7449.93
440.45	7325.88
440.63	7279.07
440.82	7447.58
441.01	7398.43
441.19	7527.16
441.38	7772.92
441.57	7695.68
441.75	7908.67
441.94	7922.71
442.12	7808.03
442.31	8051.44
442.50	7948.46
442.68	7920.37
442.87	7997.61
443.05	8018.68
443.24	8264.43
443.43	8095.91
443.61	8255.07
443.80	8423.59
443.98	8049.10
444.17	7866.54
444.35	8177.83
444.54	8177.83
444.73	8269.11
444.91	8432.95
445.10	8217.62
445.28	8222.30
445.47	8369.76
445.65	8011.65
445.84	8617.85
446.02	8568.70
446.21	8325.29
446.39	8421.25
446.58	8290.18
446.77	8390.82
446.95	8299.54
447.14	8388.48
447.32	8271.45
447.51	8407.20
447.69	8416.57
447.88	8437.63
448.06	8599.13
448.25	8383.80
448.43	8655.30
448.62	8762.97
448.80	8561.68
448.99	8748.92
449.17	8601.47
449.36	8690.41
449.54	8781.69
449.73	8990.00
449.91	9100.00
450.10	8917.44
450.28	9085.96
450.46	9284.91
450.65	9004.04
450.83	8908.08
451.02	8889.35
451.20	9081.28
451.39	9100.00
451.57	8957.23
451.76	9015.74
451.94	9205.33
452.13	9327.03
452.31	9228.73
452.49	9322.35
452.68	9350.44
452.86	9235.75
453.05	9516.62
453.23	9547.05
453.42	9383.21
453.60	9364.48
453.78	9460.45
453.97	9394.91
454.15	9411.29
454.34	9453.42
454.52	9504.92
454.70	9682.80
454.89	9834.93
455.07	9619.60
455.26	9851.31
455.44	9860.68
455.62	9769.40
455.81	9724.93
455.99	9968.34
456.17	9923.87
456.36	10106.43
456.54	9902.81
456.73	10139.20
456.91	10450.49
457.09	10296.02
457.28	10523.05
457.46	10370.91
457.64	10501.98
457.83	10462.19
458.01	10314.74
458.19	10944.34
458.38	10581.56
458.56	10729.02
458.74	10675.18
458.93	10623.69
459.11	10696.25
459.29	10747.74
459.48	10829.66
459.66	10647.10
459.84	10822.64
460.03	11283.72
460.21	10932.64
460.39	10874.13
460.57	10750.08
460.76	11082.44
460.94	11150.31
461.12	11229.89
461.31	11028.60
461.49	10920.94
461.67	10981.79
461.85	11529.48
462.04	11199.46
462.22	11754.17
462.40	11527.14
462.59	11468.62
462.77	11538.84
462.95	11602.04
463.13	11506.07
463.32	11501.39
463.50	11508.41
463.68	11936.73
463.86	11775.24
464.05	11564.59
464.23	11627.78
464.41	11747.15
464.59	11735.45
464.78	11950.78
464.96	11948.43
465.14	11910.99
465.32	12016.31
465.50	12039.72
465.69	11910.99
465.87	12114.61
466.05	12002.27
466.23	12400.16
466.41	12287.81
466.60	12355.69
466.78	12002.27
466.96	11922.69
467.14	12334.62
467.32	12456.33
467.51	12732.51
467.69	12278.45
467.87	12243.34
468.05	12528.89
468.23	12203.55
468.41	12414.20
468.60	12100.57
468.78	12549.95
468.96	12514.84
469.14	12784.01
469.32	12781.67
469.50	12587.40
469.69	12814.43
469.87	13214.66
470.05	13128.06
470.23	13128.06
470.41	13015.72
470.59	13249.77
470.77	13008.70
470.95	13214.66
471.14	13277.86
471.32	13212.32
471.50	13589.15
471.68	13610.22
471.86	13664.05
472.04	13650.00
472.22	13781.07
472.40	13624.26
472.58	13837.25
472.77	13832.57
472.95	14115.77
473.13	14338.12
473.31	14122.79
473.49	13937.89
473.67	14029.17
473.85	14218.75
474.03	14429.40
474.21	14417.70
474.39	14675.16
474.57	14527.71
474.75	14878.79
474.93	15019.22
475.12	14909.21
475.30	15183.06
475.48	14892.83
475.66	15028.58
475.84	15171.35
476.02	15316.47
476.20	15328.17
476.38	15623.08
476.56	16107.57
476.74	15920.32
476.92	15960.11
477.10	15796.28
477.28	16049.05
477.46	16196.51
477.64	16257.36
477.82	16308.85
478.00	16896.33
478.18	16739.51
478.36	16959.52
478.54	17158.47
478.72	17146.76
478.90	17212.30
479.08	17390.18
479.26	17554.02
479.44	17841.90
479.62	17671.04
479.80	17956.59
479.98	18059.57
480.16	18377.89
480.34	18298.31
480.52	18649.39
480.70	18822.59
480.88	18590.88
481.06	18813.23
481.24	18745.35
481.41	18649.39
481.59	19101.11
481.77	19229.84
481.95	19578.58
482.13	19559.86
482.31	19433.47
482.49	20046.69
482.67	19850.08
482.85	20418.83
483.03	20458.62
483.21	20690.34
483.39	20648.21
483.57	20835.45
483.74	21322.28
483.92	21570.38
484.10	21039.08
484.28	21715.49
484.46	21820.81
484.64	22134.45
484.82	22167.21
485.00	22075.93
485.18	22434.03
485.35	22977.04
485.53	22684.47
485.71	22848.31
485.89	23543.45
486.07	23108.11
486.25	23302.37
486.43	23555.15
486.61	23641.75
486.78	23847.72
486.96	24084.11
487.14	24437.53
487.32	24741.80
487.50	24741.80
487.68	24629.46
487.85	24966.49
488.03	25656.95
488.21	25773.98
488.39	25474.39
488.57	25858.24
488.75	26148.46
488.92	26286.56
489.10	26789.77
489.28	26497.20
489.46	26628.27
489.64	26757.00
489.81	27213.41
489.99	27477.89
490.17	27637.05
490.35	28100.47
490.53	27946.00
490.70	28329.84
490.88	27976.42
491.06	28975.83
491.24	28470.28
491.41	28772.21
491.59	28669.22
491.77	29312.87
491.95	29441.60
492.13	29748.21
492.30	29755.23
492.48	29785.66
492.66	30061.84
492.84	30398.88
493.01	30574.42
493.19	30483.14
493.37	30787.41
493.54	31201.68
493.72	31367.86
493.90	31234.45
494.08	31695.53
494.25	31812.56
494.43	31534.04
494.61	32245.56
494.79	32477.27
494.96	32278.33
495.14	32786.22
495.32	33235.61
495.49	32533.45
495.67	33209.86
495.85	32903.25
496.02	34169.48
496.20	33750.52
496.38	34022.03
496.55	34326.30
496.73	34668.02
496.91	34553.33
497.09	34384.81
497.26	34508.86
497.44	34850.58
497.62	35452.09
497.79	35721.26
497.97	35519.97
498.14	35629.98
498.32	36189.36
498.50	36226.81
498.67	36346.18
498.85	36189.36
499.03	36100.42
499.20	36339.16
499.38	36697.26
499.56	37188.77
499.73	37099.83
499.91	37322.18
500.08	37226.22
500.26	37296.44
500.44	37509.43
500.61	38080.52
500.79	37404.10
500.97	37757.52
501.14	39002.69
501.32	38445.64
501.49	38239.67
501.67	38850.55
501.84	38815.44
502.02	38733.53
502.20	38806.08
502.37	38918.43
502.55	39189.93
502.72	39438.03
502.90	39358.45
503.07	39260.15
503.25	39543.35
503.43	39072.90
503.60	40435.10
503.78	40130.83
503.95	40018.48
504.13	40126.14
504.30	40669.15
504.48	40500.63
504.65	40685.53
504.83	40912.56
505.01	40898.52
505.18	41277.69
505.36	41200.45
505.53	41235.56
505.71	41411.10
505.88	41677.92
506.06	40900.86
506.23	41801.97
506.41	41610.04
506.58	41600.68
506.76	41647.49
506.93	42415.19
507.11	42454.98
507.28	42700.73
507.46	42614.13
507.63	42082.83
507.81	43115.01
507.98	42452.64
508.16	42899.68
508.33	43323.32
508.50	43849.94
508.68	43222.67
508.85	43592.48
509.03	43737.59
509.20	43700.14
509.38	44594.23
509.55	44264.21
509.73	44081.65
509.90	44222.08
510.08	44025.48
510.25	44861.05
510.42	44650.40
510.60	44994.46
510.77	45010.84
510.95	45301.07
511.12	44954.67
511.30	45326.81
511.47	45528.10
511.64	45902.59
511.82	45944.72
511.99	45329.16
512.17	45867.48
512.34	45691.94
512.51	46447.93
512.69	46436.23
512.86	45881.52
513.04	46469.00
513.21	46614.11
513.38	46630.49
513.56	46656.24
513.73	46761.56
513.90	46660.92
514.08	46759.22
514.25	46995.62
514.43	47374.78
514.60	47445.00
514.77	46976.89
514.95	47384.15
515.12	47777.36
515.29	47386.49
515.47	47995.03
515.64	47983.32
515.81	47845.23
515.99	47924.81
516.16	48334.40
516.33	47995.03
516.51	48643.35
516.68	48399.94
516.85	48128.44
517.03	48318.02
517.20	48399.94
517.37	49195.72
517.54	48662.08
517.72	48952.30
517.89	48776.76
518.06	49059.97
518.24	48872.73
518.41	49020.18
518.58	49270.62
518.75	49083.37
518.93	49226.15
519.10	49308.07
519.27	49860.43
519.45	49397.01
519.62	50148.32
519.79	49551.48
519.96	49921.29
520.14	50426.84
520.31	50103.85
520.48	50120.23
520.65	50223.22
520.83	50560.25
521.00	50424.50
521.17	50216.19
521.34	50506.42
521.52	50323.86
521.69	50857.50
521.86	50738.13
522.03	51084.53
522.20	51337.31
522.38	51349.01
522.55	51407.53
522.72	51297.52
522.89	51061.13
523.07	51681.37
523.24	51271.78
523.41	51629.88
523.58	51255.39
523.75	51758.61
523.92	51615.83
524.10	51538.60
524.27	51899.04
524.44	52048.83
524.61	52137.77
524.78	51936.49
524.96	52158.84
525.13	52140.11
525.30	52261.82
525.47	52350.76
525.64	52289.91
525.81	52526.30
525.98	52582.48
526.16	52416.30
526.33	52472.47
526.50	53167.61
526.67	52685.46
526.84	52935.90
527.01	52767.38
527.18	52584.82
527.36	52900.79
527.53	52877.38
527.70	53078.67
527.87	53352.51
528.04	52853.98
528.21	53284.64
528.38	53081.01
528.55	53200.38
528.72	53066.97
528.89	53188.67
529.07	53436.77
529.24	53153.57
529.41	53762.11
529.58	53558.48
529.75	53654.44
529.92	53673.16
530.09	53560.82
530.26	53897.86
530.43	53839.34
530.60	53872.11
530.77	53712.95
530.94	53909.56
531.11	53787.85
531.28	53944.67
531.46	54152.97
531.63	54087.44
531.80	54124.89
531.97	54443.20
532.14	54356.60
532.31	54417.46
532.48	54429.16
532.65	54679.60
532.82	54314.47
532.99	54564.91
533.16	54529.80
533.33	54695.98
533.50	54569.59
533.67	54595.34
533.84	54660.87
534.01	54527.46
534.18	54784.92
534.35	54885.56
534.52	55077.49
534.69	55133.66
534.86	55194.51
535.03	54958.12
535.20	55346.65
535.37	55164.09
535.54	55356.01
535.71	54976.84
535.88	55093.87
536.05	55482.40
536.22	55320.90
536.38	55517.51
536.55	55391.12
536.72	55611.13
536.89	55220.26
537.06	55566.66
537.23	55676.66
537.40	55564.32
537.57	55714.11
537.74	55718.79
537.91	55868.59
538.08	55592.40
538.25	55723.47
538.42	55608.79
538.59	56079.24
538.75	55873.27
538.92	55873.27
539.09	56287.54
539.26	56041.79
539.43	56114.34
539.60	55948.17
539.77	56217.33
539.94	56479.47
540.11	56371.80
540.28	56360.10
540.44	56339.04
540.61	56566.07
540.78	56381.16
540.95	56196.26
541.12	56268.82
541.29	56275.84
541.46	56385.85
541.62	56505.21
541.79	56601.18
541.96	56144.77
542.13	56542.66
542.30	56589.47
542.47	56741.61
542.63	56722.88
542.80	56952.26
542.97	56954.60
543.14	56978.00
543.31	57200.35
543.48	57169.93
543.64	57490.58
543.81	57347.81
543.98	57310.36
544.15	57169.93
544.32	57378.23
544.48	57169.93
544.65	57165.24
544.82	57420.36
544.99	57357.17
545.16	57387.60
545.32	57350.15
545.49	57656.76
545.66	57836.98
545.83	57565.48
546.00	57549.09
546.16	57591.22
546.33	57495.26
546.50	57216.74
546.67	57640.37
546.83	57247.16
547.00	57694.21
547.17	57579.52
547.34	57640.37
547.50	57822.93
547.67	58106.14
547.84	58082.73
548.00	58073.37
548.17	58082.73
548.34	57808.89
548.51	58354.24
548.67	58204.44
548.84	58019.54
549.01	58019.54
549.18	58040.60
549.34	57989.11
549.51	58274.66
549.68	58131.89
549.84	58295.72
550.01	58454.88
550.18	58209.12
550.34	58300.40
550.51	58351.90
550.68	58209.12
550.84	58377.64
551.01	58550.84
551.18	58468.92
551.34	58534.46
551.51	58279.34
551.68	58628.08
551.84	58529.78
552.01	58291.04
552.18	58499.35
552.34	58316.79
552.51	58539.14
552.68	58433.81
552.84	58445.52
553.01	58766.17
553.18	58801.28
553.34	58920.65
553.51	58665.53
553.67	58618.72
553.84	58972.14
554.01	58934.69
554.17	58866.81
554.34	59018.95
554.51	58939.37
554.67	58932.35
554.84	58962.78
555.00	59021.29
555.17	58733.40
555.33	58885.54
555.50	58946.39
555.67	58927.67
555.83	58850.43
556.00	59011.93
556.16	59496.42
556.33	59154.70
556.50	59269.39
556.66	59210.87
556.83	59091.51
556.99	59391.09
557.16	59517.48
557.32	59414.50
557.49	59409.82
557.65	59260.02
557.82	59311.52
557.98	59320.88
558.15	59334.92
558.32	59398.12
558.48	59358.33
558.65	59435.56
558.81	59269.39
558.98	59608.76
559.14	59309.18
559.31	59784.30
559.47	59650.89
559.64	59430.88
559.80	59583.02
559.97	59615.79
560.13	59641.53
560.30	59531.53
560.46	59568.97
560.63	59756.22
560.79	59781.96
560.96	59948.14
561.12	59751.54
561.29	59700.04
561.45	59835.80
561.61	59622.81
561.78	59737.49
561.94	59866.22
562.11	59758.56
562.27	59973.89
562.44	59952.82
562.60	59882.61
562.77	59929.42
562.93	59793.67
563.10	60086.23
563.26	59791.33
563.42	60210.28
563.59	59824.09
563.75	60013.68
563.92	59856.86
564.08	59999.63
564.24	60065.17
564.41	60144.75
564.57	59997.29
564.74	59814.73
564.90	60165.81
565.07	59922.40
565.23	60034.74
565.39	59976.23
565.56	60086.23
565.72	59842.82
565.88	60104.96
566.05	60013.68
566.21	60083.89
566.38	60357.74
566.54	60130.70
566.70	60116.66
566.87	60355.39
567.03	60369.44
567.19	60456.04
567.36	60317.95
567.52	60097.94
567.68	60460.72
567.85	60343.69
568.01	60247.73
568.17	60289.86
568.34	60343.69
568.50	60343.69
568.66	60292.20
568.83	60214.96
568.99	60257.09
569.15	60236.03
569.32	60259.43
569.48	60418.59
569.64	60261.77
569.81	60198.58
569.97	60259.43
570.13	60259.43
570.30	60264.11
570.46	60477.10
570.62	60411.57
570.78	60467.74
570.95	60409.23
571.11	60563.70
571.27	60423.27
571.43	60446.68
571.60	60376.46
571.76	60441.99
571.92	60638.60
572.09	60624.56
572.25	60493.49
572.41	60472.42
572.57	60413.91
572.74	60622.22
572.90	60603.49
573.06	60563.70
573.22	60500.51
573.38	60589.45
573.55	60416.25
573.71	60783.71
573.87	60514.55
574.03	60556.68
574.20	60554.34
574.36	60430.29
574.52	60865.63
574.68	60746.26
574.84	60722.86
575.01	60640.94
575.17	60636.26
575.33	60446.68
575.49	60570.72
575.65	60692.43
575.82	60638.60
575.98	60664.35
576.14	60928.83
576.30	60650.30
576.46	60645.62
576.62	60669.03
576.79	60640.94
576.95	60704.13
577.11	60685.41
577.27	60858.61
577.43	60736.90
577.59	60598.81
577.75	60690.09
577.92	60692.43
578.08	60643.28
578.24	60715.84
578.40	61001.38
578.56	60931.17
578.72	60692.43
578.88	60973.30
579.04	60858.61
579.21	60783.71
579.37	60945.21
579.53	60856.27
579.69	60669.03
579.85	60753.29
580.01	60842.23
580.17	60533.28
580.33	60853.93
580.49	60711.16
580.65	60982.66
580.82	60832.86
580.98	60767.33
581.14	60809.46
581.30	60933.51
581.46	60734.56
581.62	60676.05
581.78	60713.50
581.94	60757.97
582.10	60626.90
582.26	60844.57
582.42	60924.14
582.58	60839.89
582.74	60949.89
582.90	60748.60
583.06	60746.26
583.22	60849.25
583.38	60736.90
583.54	60860.95
583.70	60844.57
583.86	61013.08
584.02	60898.40
584.18	61041.17
584.34	60867.97
584.50	60797.76
584.66	60769.67
584.82	60884.36
584.98	60825.84
585.14	60970.96
585.30	61029.47
585.46	61017.77
585.62	61123.09
585.78	61221.39
585.94	60837.54
586.10	60905.42
586.26	60844.57
586.42	60898.40
586.58	60905.42
586.74	60851.59
586.90	61003.72
587.06	60720.52
587.22	60905.42
587.38	60966.27
587.54	61160.54
587.70	61202.67
587.86	60896.06
588.02	60980.32
588.18	61242.46
588.34	61043.51
588.49	60924.14
