SpectraSuite Data File
++++++++++++++++++++++++++++++++++++
Date: Fri Oct 25 10:47:45 EDT 2013
User: price-jones
Dark Spectrum Present: No
Reference Spectrum Present: No
Number of Sampled Component Spectra: 1
Spectrometers: USB2+H05261
Integration Time (usec): 100000 (USB2+H05261)
Spectra Averaged: 1 (USB2+H05261)
Boxcar Smoothing: 0 (USB2+H05261)
Correct for Electrical Dark: No (USB2+H05261)
Strobe/Lamp Enabled: No (USB2+H05261)
Correct for Detector Non-linearity: No (USB2+H05261)
Correct for Stray Light: No (USB2+H05261)
Number of Pixels in Processed Spectrum: 2048
>>>>>Begin Processed Spectral Data<<<<<
365.73	119.37
365.92	119.37
366.12	119.37
366.32	79.58
366.52	86.60
366.72	53.83
366.91	0.00
367.11	30.43
367.31	0.00
367.51	72.56
367.70	32.77
367.90	58.51
368.10	0.00
368.30	77.24
368.49	35.11
368.69	135.75
368.89	72.56
369.09	56.17
369.28	128.73
369.48	25.75
369.68	67.88
369.87	124.05
370.07	102.98
370.27	184.90
370.47	156.82
370.66	325.33
370.86	358.10
371.06	400.23
371.25	468.11
371.45	465.77
371.65	486.83
371.84	404.91
372.04	437.68
372.24	468.11
372.44	400.23
372.63	521.94
372.83	486.83
373.03	447.04
373.22	564.07
373.42	468.11
373.62	550.03
373.81	552.37
374.01	510.24
374.21	535.98
374.40	472.79
374.60	500.87
374.79	435.34
374.99	634.29
375.19	550.03
375.38	535.98
375.58	566.41
375.78	589.82
375.97	678.76
376.17	589.82
376.37	573.43
376.56	601.52
376.76	641.31
376.95	596.84
377.15	552.37
377.35	552.37
377.54	627.26
377.74	606.20
377.93	585.13
378.13	573.43
378.33	681.10
378.52	608.54
378.72	540.66
378.91	629.60
379.11	631.94
379.31	498.53
379.50	587.47
379.70	678.76
379.89	739.61
380.09	681.10
380.28	599.18
380.48	643.65
380.68	645.99
380.87	657.69
381.07	699.82
381.26	692.80
381.46	664.71
381.65	596.84
381.85	648.33
382.04	641.31
382.24	727.91
382.43	678.76
382.63	732.59
382.83	704.50
383.02	760.67
383.22	711.52
383.41	662.37
383.61	746.63
383.80	699.82
384.00	695.14
384.19	723.23
384.39	753.65
384.58	723.23
384.78	718.54
384.97	758.33
385.17	718.54
385.36	685.78
385.56	774.72
385.75	720.88
385.95	781.74
386.14	763.01
386.34	765.36
386.53	777.06
386.72	753.65
386.92	748.97
387.11	877.70
387.31	777.06
387.50	816.85
387.70	798.12
387.89	830.89
388.09	809.83
388.28	840.25
388.48	830.89
388.67	861.32
388.86	880.04
389.06	826.21
389.25	830.89
389.45	950.26
389.64	943.24
389.84	985.37
390.03	992.39
390.22	912.81
390.42	896.43
390.61	809.83
390.81	847.27
391.00	961.96
391.19	1011.11
391.39	912.81
391.58	919.83
391.78	947.92
391.97	940.90
392.16	978.34
392.36	992.39
392.55	964.30
392.75	947.92
392.94	926.85
393.13	1011.11
393.33	924.51
393.52	980.68
393.71	1015.79
393.91	1132.82
394.10	1034.52
394.29	1111.75
394.49	1029.84
394.68	1034.52
394.88	1078.99
395.07	1100.05
395.26	1158.57
395.46	1015.79
395.65	1118.78
395.84	1078.99
396.04	1181.97
396.23	1034.52
396.42	1177.29
396.62	1130.48
396.81	1156.22
397.00	1160.91
397.19	1057.92
397.39	1177.29
397.58	1294.32
397.77	1240.48
397.97	1240.48
398.16	1240.48
398.35	1345.81
398.55	1249.85
398.74	1352.83
398.93	1373.89
399.12	1287.29
399.32	1301.34
399.51	1366.87
399.70	1369.21
399.90	1324.74
400.09	1418.36
400.28	1446.45
400.47	1411.34
400.67	1397.30
400.86	1409.00
401.05	1502.62
401.24	1483.90
401.44	1451.13
401.63	1523.69
401.82	1446.45
402.01	1453.47
402.21	1589.22
402.40	1497.94
402.59	1516.67
402.78	1514.33
402.97	1654.76
403.17	1650.08
403.36	1568.16
403.55	1624.33
403.74	1582.20
403.93	1657.10
404.13	1610.29
404.32	1626.67
404.51	1614.97
404.70	1621.99
404.89	1699.23
405.09	1724.97
405.28	1769.44
405.47	1617.31
405.66	1760.08
405.85	1703.91
406.05	1699.23
406.24	1792.85
406.43	1811.57
406.62	1851.36
406.81	1900.52
407.00	1881.79
407.20	1865.41
407.39	1877.11
407.58	1933.28
407.77	1905.20
407.96	1987.11
408.15	1916.90
408.34	1837.32
408.54	1966.05
408.73	2003.50
408.92	2059.67
409.11	2064.35
409.30	2085.42
409.49	2069.03
409.68	1970.73
409.87	2054.99
410.07	2113.50
410.26	2101.80
410.45	2069.03
410.64	2169.68
410.83	2225.85
411.02	2139.25
411.21	2209.47
411.40	2272.66
411.59	2298.41
411.78	2263.30
411.98	2214.15
412.17	2328.83
412.36	2310.11
412.55	2284.36
412.74	2485.65
412.93	2434.16
413.12	2340.54
413.31	2569.91
413.50	2363.94
413.69	2495.01
413.88	2464.58
414.07	2551.18
414.26	2693.96
414.45	2574.59
414.64	2588.63
414.83	2658.85
415.02	2679.91
415.22	2698.64
415.41	2710.34
415.60	2743.11
415.79	2750.13
415.98	2832.05
416.17	2740.77
416.36	2949.08
416.55	2871.84
416.74	2836.73
416.93	2850.77
417.12	2869.50
417.31	3075.46
417.50	2846.09
417.69	3056.74
417.88	2998.23
418.07	3073.12
418.26	3251.00
418.45	3162.06
418.64	3218.24
418.83	3208.87
419.02	3145.68
419.21	3260.37
419.39	3325.90
419.58	3040.36
419.77	3222.92
419.96	3288.45
420.15	3344.63
420.34	3286.11
420.53	3330.58
420.72	3269.73
420.91	3321.22
421.10	3353.99
421.29	3311.86
421.48	3379.73
421.67	3290.79
421.86	3389.10
422.05	3372.71
422.24	3471.01
422.43	3428.88
422.61	3431.23
422.80	3449.95
422.99	3461.65
423.18	3578.68
423.37	3515.48
423.56	3571.66
423.75	3520.17
423.94	3403.14
424.13	3332.92
424.32	3459.31
424.50	3674.64
424.69	3576.34
424.88	3665.28
425.07	3351.65
425.26	3475.70
425.45	3543.57
425.64	3499.10
425.83	3499.10
426.01	3496.76
426.20	3604.42
426.39	3606.77
426.58	3674.64
426.77	3536.55
426.96	3583.36
427.15	3501.44
427.33	3665.28
427.52	3590.38
427.71	3676.98
427.90	3672.30
428.09	3761.24
428.28	3651.24
428.46	3868.91
428.65	3777.62
428.84	3887.63
429.03	3920.40
429.22	3716.77
429.40	3702.73
429.59	3878.27
429.78	3735.50
429.97	3599.74
430.16	3822.09
430.34	3751.88
430.53	3850.18
430.72	3845.50
430.91	3911.04
431.10	3896.99
431.28	3885.29
431.47	4086.58
431.66	4133.39
431.85	4070.19
432.03	4032.74
432.22	4266.80
432.41	4219.99
432.60	4369.78
432.79	4159.13
432.97	4273.82
433.16	4313.61
433.35	4135.73
433.54	4198.92
433.72	4264.46
433.91	4264.46
434.10	4339.35
434.28	4180.20
434.47	4304.25
434.66	4407.23
434.85	4437.66
435.03	4535.96
435.22	4400.21
435.41	4706.82
435.59	4407.23
435.78	4444.68
435.97	4655.33
436.16	4573.41
436.34	4671.71
436.53	4643.62
436.72	4582.77
436.90	4589.79
437.09	4554.68
437.28	4568.73
437.46	4599.15
437.65	4573.41
437.84	4716.18
438.02	4674.05
438.21	4697.46
438.40	4624.90
438.58	4983.00
438.77	4823.84
438.96	4891.72
439.14	4945.55
439.33	4973.64
439.52	5151.52
439.70	5221.74
439.89	5303.65
440.08	4957.25
440.26	5085.98
440.45	5146.84
440.63	5301.31
440.82	5226.42
441.01	5282.59
441.19	5469.83
441.38	5472.17
441.57	5392.59
441.75	5509.62
441.94	5453.45
442.12	5530.69
442.31	5621.97
442.50	5708.57
442.68	5643.03
442.87	5593.88
443.05	5521.32
443.24	5699.20
443.43	5795.17
443.61	5806.87
443.80	5865.38
443.98	5781.12
444.17	5612.60
444.35	5907.51
444.54	5849.00
444.73	5724.95
444.91	5877.09
445.10	5713.25
445.28	5797.51
445.47	5696.86
445.65	5781.12
445.84	5717.93
446.02	5914.53
446.21	5940.28
446.39	5940.28
446.58	5820.91
446.77	6026.88
446.95	5872.40
447.14	5930.92
447.32	6061.99
447.51	5944.96
447.69	5788.14
447.88	5977.73
448.06	6169.65
448.25	6141.57
448.43	6223.48
448.62	5942.62
448.80	5989.43
448.99	6183.70
449.17	6263.27
449.36	6036.24
449.54	6265.61
449.73	6218.80
449.91	6256.25
450.10	6214.12
450.28	6420.09
450.46	6298.38
450.65	6499.67
450.83	6303.06
451.02	6333.49
451.20	6366.26
451.39	6321.79
451.57	6312.42
451.76	6452.86
451.94	6403.71
452.13	6583.93
452.31	6389.66
452.49	6417.75
452.68	6438.81
452.86	6272.64
453.05	6394.34
453.23	6462.22
453.42	6415.41
453.60	6583.93
453.78	6693.93
453.97	6485.62
454.15	6513.71
454.34	6539.46
454.52	6602.65
454.70	6707.98
454.89	6684.57
455.07	6923.30
455.26	6789.89
455.44	7033.31
455.62	6888.20
455.81	6792.23
455.99	6974.80
456.17	6890.54
456.36	7119.91
456.54	7187.79
456.73	7077.78
456.91	7318.86
457.09	7236.94
457.28	7272.04
457.46	7082.46
457.64	7279.07
457.83	7126.93
458.01	7250.98
458.19	7253.32
458.38	7190.13
458.56	7515.46
458.74	7400.77
458.93	7466.31
459.11	7557.59
459.29	7302.47
459.48	7527.16
459.66	7581.00
459.84	7672.28
460.03	7611.42
460.21	7707.38
460.39	7520.14
460.57	7414.82
460.76	7761.22
460.94	7918.03
461.12	7751.85
461.31	7728.45
461.49	7761.22
461.67	7676.96
461.85	7784.62
462.04	7847.82
462.22	8257.41
462.40	7824.41
462.59	8030.38
462.77	7948.46
462.95	7833.77
463.13	8032.72
463.32	8152.09
463.50	8142.72
463.68	8252.73
463.86	8081.87
464.05	7915.69
464.23	7964.84
464.41	8290.18
464.59	8044.42
464.78	8229.32
464.96	8241.03
465.14	8030.38
465.32	8126.34
465.50	8269.11
465.69	8351.03
465.87	8208.26
466.05	8287.84
466.23	8409.54
466.41	8264.43
466.60	8650.62
466.78	8341.67
466.96	8248.05
467.14	8486.78
467.32	8416.57
467.51	8678.71
467.69	8351.03
467.87	8521.89
468.05	8557.00
468.23	8535.93
468.41	8622.53
468.60	8718.50
468.78	8711.47
468.96	8667.00
469.14	8751.26
469.32	8720.84
469.50	8669.34
469.69	8713.81
469.87	9165.54
470.05	8875.31
470.23	8966.59
470.41	8908.08
470.59	9102.34
470.77	8973.61
470.95	9039.15
471.14	9432.36
471.32	8945.53
471.50	9067.24
471.68	9296.61
471.86	9238.09
472.04	9142.13
472.22	9540.02
472.40	9160.86
472.58	9394.91
472.77	9373.85
472.95	9603.22
473.13	9954.30
473.31	9591.52
473.49	9514.28
473.67	9631.30
473.85	9556.41
474.03	9994.09
474.21	9785.78
474.39	9958.98
474.57	9734.29
474.75	9895.78
474.93	10317.08
475.12	9966.00
475.30	10083.03
475.48	10087.71
475.66	10148.56
475.84	10064.30
476.02	10338.15
476.20	10394.32
476.38	10511.35
476.56	10714.97
476.74	10679.86
476.92	10885.83
477.10	10827.32
477.28	10965.41
477.46	10920.94
477.64	11026.26
477.82	10972.43
478.00	11417.13
478.18	11213.51
478.36	11426.50
478.54	11494.37
478.72	11531.82
478.90	11548.20
479.08	11946.09
479.26	11922.69
479.44	12009.29
479.62	11674.59
479.80	11936.73
479.98	12273.77
480.16	12264.41
480.34	12430.59
480.52	12451.65
480.70	12594.42
480.88	12212.92
481.06	12507.82
481.24	12732.51
481.41	12767.62
481.59	12596.76
481.77	13083.59
481.95	12877.63
482.13	13139.77
482.31	13268.50
482.49	13542.34
482.67	13451.06
482.85	13675.75
483.03	13867.67
483.21	13834.91
483.39	13841.93
483.57	13973.00
483.74	14295.99
483.92	13928.53
484.10	14118.11
484.28	14331.10
484.46	14834.32
484.64	14747.72
484.82	14551.11
485.00	14721.97
485.18	14839.00
485.35	15143.27
485.53	14909.21
485.71	15157.31
485.89	15398.38
486.07	15166.67
486.25	15281.36
486.43	15557.54
486.61	15747.12
486.78	15913.30
486.96	15768.19
487.14	16056.08
487.32	16098.20
487.50	16264.38
487.68	16673.98
487.85	16802.71
488.03	16795.68
488.21	16905.69
488.39	17076.55
488.57	17015.69
488.75	17345.71
488.92	17783.39
489.10	17689.77
489.28	17804.46
489.46	17926.16
489.64	17902.76
489.81	18274.90
489.99	18377.89
490.17	18071.28
490.35	18497.25
490.53	18588.53
490.70	18738.33
490.88	18331.08
491.06	19183.03
491.24	19178.35
491.41	18890.46
491.59	19211.12
491.77	19061.32
491.95	19168.99
492.13	19613.69
492.30	19552.84
492.48	19857.10
492.66	19936.68
492.84	20163.72
493.01	20011.58
493.19	20156.69
493.37	20823.75
493.54	20559.27
493.72	20601.40
493.90	20793.32
494.08	21074.18
494.25	20952.48
494.43	21202.91
494.61	21158.44
494.79	21268.45
494.96	21507.18
495.14	21467.39
495.32	21853.58
495.49	21500.16
495.67	21898.05
495.85	22040.82
496.02	22036.14
496.20	22448.08
496.38	22122.74
496.55	22298.28
496.73	22635.32
496.91	22527.66
497.09	23028.53
497.26	23068.32
497.44	22771.07
497.62	22991.08
497.79	23241.52
497.97	22951.29
498.14	23262.58
498.32	23403.02
498.50	23400.68
498.67	23824.31
498.85	24025.60
499.03	24208.16
499.20	24034.96
499.38	24184.76
499.56	24030.28
499.73	23969.43
499.91	24442.21
500.08	24685.63
500.26	24364.98
500.44	24549.88
500.61	24772.23
500.79	24594.35
500.97	25069.48
501.14	25142.03
501.32	25181.82
501.49	25633.55
501.67	25296.51
501.84	25322.26
502.02	25324.60
502.20	25436.94
502.37	25853.56
502.55	25514.18
502.72	25757.60
502.90	25699.08
503.07	25867.60
503.25	26068.89
503.43	25986.97
503.60	26050.16
503.78	26160.17
503.95	26253.79
504.13	26218.68
504.30	26040.80
504.48	26733.60
504.65	26635.30
504.83	26745.30
505.01	26813.18
505.18	26820.20
505.36	27360.86
505.53	27056.59
505.71	27384.27
505.88	27452.14
506.06	26789.77
506.23	27367.88
506.41	27136.17
506.58	27718.96
506.76	27447.46
506.93	27889.82
507.11	27285.97
507.28	27798.54
507.46	28025.57
507.63	27784.50
507.81	28432.83
507.98	27716.62
508.16	28245.58
508.33	28397.72
508.50	28379.00
508.68	28173.03
508.85	28727.74
509.03	28374.31
509.20	28821.36
509.38	28779.23
509.55	29046.05
509.73	29116.26
509.90	29102.22
510.08	29151.37
510.25	29301.17
510.42	29436.92
510.60	29635.86
510.77	29390.11
510.95	29867.58
511.12	30359.09
511.30	29778.64
511.47	29727.14
511.64	30160.14
511.82	30071.20
511.99	30146.10
512.17	30153.12
512.34	29984.60
512.51	30331.00
512.69	30726.55
512.86	30768.68
513.04	30920.82
513.21	30267.81
513.38	30480.80
513.56	30338.02
513.73	30110.99
513.90	31016.78
514.08	30558.03
514.25	30731.23
514.43	31089.34
514.60	30941.88
514.77	31180.62
514.95	31323.39
515.12	30778.04
515.29	31147.85
515.47	31861.71
515.64	31325.73
515.81	31718.94
515.99	31402.97
516.16	31611.28
516.33	31686.17
516.51	31679.15
516.68	31405.31
516.85	31379.56
517.03	31515.31
517.20	31505.95
517.37	32093.43
517.54	31955.33
517.72	31700.22
517.89	32051.30
518.06	32088.74
518.24	32081.72
518.41	32004.49
518.58	31950.65
518.75	32320.46
518.93	32402.38
519.10	32395.35
519.27	32863.46
519.45	32929.00
519.62	33422.85
519.79	33048.36
519.96	32987.51
520.14	33605.41
520.31	33130.28
520.48	33420.51
520.65	33270.72
520.83	33940.11
521.00	33378.38
521.17	33357.32
521.34	33532.86
521.52	33755.21
521.69	33944.79
521.86	33694.35
522.03	33727.12
522.20	34235.02
522.38	33825.42
522.55	34487.79
522.72	34216.29
522.89	33780.95
523.07	34272.46
523.24	34078.20
523.41	34316.93
523.58	34625.89
523.75	34944.20
523.92	34663.33
524.10	34792.06
524.27	34986.33
524.44	35072.93
524.61	35002.71
524.78	35398.26
524.96	35220.38
525.13	35112.72
525.30	35629.98
525.47	35332.73
525.64	35292.94
525.81	35091.65
525.98	35346.77
526.16	35126.76
526.33	35302.30
526.50	35234.42
526.67	35103.35
526.84	35491.88
527.01	35552.74
527.18	35402.94
527.36	35524.65
527.53	35784.45
527.70	36137.87
527.87	35924.88
528.04	35913.18
528.21	35861.69
528.38	35995.10
528.55	36151.91
528.72	36238.51
528.89	36507.68
529.07	36264.26
529.24	36381.29
529.41	36479.59
529.58	36327.45
529.75	36362.56
529.92	36657.47
530.09	36364.90
530.26	36772.16
530.43	36280.64
530.60	36514.70
530.77	36952.38
530.94	36982.80
531.11	37130.26
531.28	37008.55
531.46	37364.31
531.63	37663.90
531.80	37031.96
531.97	37048.34
532.14	37202.82
532.31	37418.14
532.48	37380.70
532.65	37163.03
532.82	37055.36
532.99	37474.32
533.16	37202.82
533.33	37216.86
533.50	37897.95
533.67	37888.59
533.84	37525.81
534.01	37263.67
534.18	37399.42
534.35	38405.85
534.52	38141.37
534.69	38087.54
534.86	37897.95
535.03	38160.09
535.20	38148.39
535.37	38632.88
535.54	38986.30
535.71	38122.65
535.88	38457.34
536.05	38555.64
536.22	38635.22
536.38	38562.67
536.55	38394.15
536.72	38560.33
536.89	38218.61
537.06	38611.82
537.23	39091.63
537.40	38043.07
537.57	38712.46
537.74	38398.83
537.91	38986.30
538.08	38600.12
538.25	38785.02
538.42	38869.28
538.59	39194.61
538.75	38686.71
538.92	38808.42
539.09	39627.61
539.26	39304.62
539.43	39632.29
539.60	39112.69
539.77	39498.88
539.94	39309.30
540.11	39257.81
540.28	39346.75
540.44	39393.56
540.61	39412.28
540.78	38958.22
540.95	39323.34
541.12	39363.13
541.29	39372.49
541.46	39625.27
541.62	39370.15
541.79	39978.69
541.96	39016.73
542.13	39859.32
542.30	39871.03
542.47	39981.03
542.63	39864.00
542.80	39934.22
542.97	40643.40
543.14	40100.40
543.31	40336.79
543.48	40535.74
543.64	40790.86
543.81	40451.48
543.98	40231.47
544.15	40460.84
544.32	40788.52
544.48	40870.43
544.65	40575.53
544.82	40858.73
544.99	40399.99
545.16	40556.80
545.32	40818.94
545.49	40968.74
545.66	41134.92
545.83	41055.34
546.00	41275.35
546.16	40865.75
546.33	41263.64
546.50	40774.47
546.67	40945.33
546.83	40254.87
547.00	41263.64
547.17	41305.77
547.34	40999.16
547.50	41317.48
547.67	41317.48
547.84	41310.46
548.00	41715.37
548.17	41432.16
548.34	41303.43
548.51	41682.60
548.67	42052.41
548.84	41972.83
549.01	41883.89
549.18	41605.36
549.34	41888.57
549.51	41951.76
549.68	42005.59
549.84	41549.19
550.01	41848.78
550.18	41598.34
550.34	41916.65
550.51	41677.92
550.68	41897.93
550.84	41556.21
551.01	42150.71
551.18	41757.50
551.34	42148.37
551.51	42223.26
551.68	42337.95
551.84	42146.03
552.01	42321.57
552.18	42143.69
552.34	41823.03
552.51	42529.87
552.68	42249.01
552.84	42396.46
553.01	42749.88
553.18	42337.95
553.34	42351.99
553.51	42314.55
553.67	42272.42
553.84	42518.17
554.01	42614.13
554.17	42487.74
554.34	42307.52
554.51	42595.41
554.67	43206.29
554.84	42614.13
555.00	42810.74
555.17	42801.38
555.33	42300.50
555.50	42394.12
555.67	42775.63
555.83	42768.61
556.00	43150.12
556.16	43248.42
556.33	42983.94
556.50	43196.93
556.66	43208.63
556.83	42747.54
556.99	43335.02
557.16	42906.70
557.32	43491.83
557.49	43023.73
557.65	43068.20
557.82	43100.97
557.98	42913.72
558.15	42733.50
558.32	43318.64
558.48	42986.28
558.65	43281.19
558.81	43196.93
558.98	43409.92
559.14	42892.66
559.31	43501.20
559.47	43285.87
559.64	43505.88
559.80	43393.53
559.97	43335.02
560.13	43622.90
560.30	43519.92
560.46	43402.89
560.63	43728.23
560.79	43412.26
560.96	43721.21
561.12	43257.78
561.29	43662.69
561.45	43583.12
561.61	43470.77
561.78	43978.67
561.94	43143.09
562.11	43477.79
562.27	43449.70
562.44	43679.08
562.60	43620.56
562.77	43950.58
562.93	43786.74
563.10	43690.78
563.26	43337.36
563.42	43917.81
563.59	43798.44
563.75	43349.06
563.92	44168.25
564.08	43981.01
564.24	44123.78
564.41	44231.44
564.57	44032.50
564.74	43515.24
564.90	44296.98
565.07	44201.02
565.23	43629.93
565.39	44158.89
565.56	43861.64
565.72	43889.73
565.88	44107.40
566.05	44278.25
566.21	43791.42
566.38	43945.90
566.54	44177.61
566.70	44105.06
566.87	44406.98
567.03	43882.70
567.19	44456.14
567.36	44357.83
567.52	44381.24
567.68	44350.81
567.85	44100.37
568.01	44322.72
568.17	43786.74
568.34	44170.59
568.50	43964.62
568.66	44009.09
568.83	44198.68
568.99	44105.06
569.15	43866.32
569.32	44327.41
569.48	43969.30
569.64	44619.97
569.81	44086.33
569.97	44245.49
570.13	44081.65
570.30	44076.97
570.46	44060.58
570.62	43749.29
570.78	44198.68
570.95	44158.89
571.11	44088.67
571.27	44472.52
571.43	43723.55
571.60	43863.98
571.76	44680.83
571.92	44346.13
572.09	44130.80
572.25	44175.27
572.41	44369.54
572.57	44362.51
572.74	44921.90
572.90	44570.82
573.06	44484.22
573.22	44533.37
573.38	44304.00
573.55	44058.24
573.71	44456.14
573.87	43838.23
574.03	44189.31
574.20	44641.04
574.36	44201.02
574.52	44706.57
574.68	44729.98
574.84	44727.64
575.01	44212.72
575.17	44744.02
575.33	44451.45
575.49	44502.95
575.65	44865.73
575.82	44774.45
575.98	44072.29
576.14	44926.58
576.30	44233.78
576.46	44215.06
576.62	44631.68
576.79	44411.67
576.95	44610.61
577.11	44016.11
577.27	44769.77
577.43	44807.22
577.59	44374.22
577.75	44428.05
577.92	44151.87
578.08	44369.54
578.24	44083.99
578.40	44467.84
578.56	44556.78
578.72	44308.68
578.88	44598.91
579.04	44479.54
579.21	44093.35
579.37	44507.63
579.53	44575.50
579.69	44788.49
579.85	44666.78
580.01	44596.57
580.17	44832.96
580.33	45305.75
580.49	44608.27
580.65	45088.08
580.82	44549.76
580.98	44460.82
581.14	44701.89
581.30	44676.15
581.46	45099.78
581.62	44301.66
581.78	44540.39
581.94	44842.32
582.10	44278.25
582.26	44725.30
582.42	44329.75
582.58	44748.70
582.74	44704.23
582.90	44458.48
583.06	44854.03
583.22	44734.66
583.38	45041.27
583.54	44722.96
583.70	44839.98
583.86	44605.93
584.02	44114.42
584.18	44837.64
584.34	44928.92
584.50	44399.96
584.66	44545.08
584.82	44662.10
584.98	44889.13
585.14	44954.67
585.30	44793.17
585.46	44545.08
585.62	44465.50
585.78	44814.24
585.94	43988.03
586.10	44535.71
586.26	44484.22
586.42	44779.13
586.58	44783.81
586.74	44516.99
586.90	44528.69
587.06	44507.63
587.22	44591.89
587.38	44612.95
587.54	45102.12
587.70	45170.00
587.86	44910.20
588.02	44715.93
588.18	45017.86
588.34	44397.62
588.49	44175.27
588.65	44423.37
588.81	44292.30
588.97	44315.70
589.13	44650.40
589.29	44622.31
589.45	44973.39
589.61	44790.83
589.77	45305.75
589.93	44657.42
590.08	44673.81
590.24	44821.26
