SpectraSuite Data File
++++++++++++++++++++++++++++++++++++
Date: Fri Oct 25 11:34:10 EDT 2013
User: price-jones
Dark Spectrum Present: No
Reference Spectrum Present: No
Number of Sampled Component Spectra: 1
Spectrometers: USB2+H05261
Integration Time (usec): 100000 (USB2+H05261)
Spectra Averaged: 1 (USB2+H05261)
Boxcar Smoothing: 0 (USB2+H05261)
Correct for Electrical Dark: No (USB2+H05261)
Strobe/Lamp Enabled: No (USB2+H05261)
Correct for Detector Non-linearity: No (USB2+H05261)
Correct for Stray Light: No (USB2+H05261)
Number of Pixels in Processed Spectrum: 2048
>>>>>Begin Processed Spectral Data<<<<<
365.73	290.23
365.92	290.23
366.12	290.23
366.32	203.63
366.52	182.56
366.72	266.82
366.91	105.32
367.11	121.71
367.31	170.86
367.51	196.60
367.70	222.35
367.90	227.03
368.10	140.43
368.30	98.30
368.49	191.92
368.69	177.88
368.89	276.18
369.09	283.20
369.28	175.54
369.48	152.13
369.68	208.31
369.87	250.44
370.07	238.73
370.27	311.29
370.47	306.61
370.66	496.19
370.86	500.87
371.06	510.24
371.25	545.34
371.45	543.00
371.65	571.09
371.84	531.30
372.04	528.96
372.24	648.33
372.44	571.09
372.63	578.11
372.83	627.26
373.03	610.88
373.22	643.65
373.42	678.76
373.62	566.41
373.81	615.56
374.01	695.14
374.21	638.97
374.40	613.22
374.60	653.01
374.79	622.58
374.99	580.45
375.19	681.10
375.38	706.84
375.58	580.45
375.78	676.41
375.97	723.23
376.17	641.31
376.37	774.72
376.56	610.88
376.76	643.65
376.95	699.82
377.15	685.78
377.35	655.35
377.54	734.93
377.74	650.67
377.93	713.86
378.13	653.01
378.33	699.82
378.52	655.35
378.72	702.16
378.91	784.08
379.11	741.95
379.31	699.82
379.50	657.69
379.70	634.29
379.89	683.44
380.09	723.23
380.28	739.61
380.48	758.33
380.68	760.67
380.87	784.08
381.07	697.48
381.26	765.36
381.46	688.12
381.65	753.65
381.85	746.63
382.04	786.42
382.24	732.59
382.43	725.57
382.63	781.74
382.83	767.70
383.02	765.36
383.22	816.85
383.41	833.23
383.61	760.67
383.80	847.27
384.00	786.42
384.19	882.38
384.39	748.97
384.58	851.96
384.78	755.99
384.97	777.06
385.17	856.64
385.36	863.66
385.56	880.04
385.75	784.08
385.95	802.80
386.14	849.61
386.34	840.25
386.53	805.14
386.72	889.40
386.92	891.74
387.11	851.96
387.31	898.77
387.50	800.46
387.70	842.59
387.89	908.13
388.09	922.17
388.28	884.72
388.48	924.51
388.67	863.66
388.86	884.72
389.06	898.77
389.25	884.72
389.45	940.90
389.64	901.11
389.84	926.85
390.03	945.58
390.22	997.07
390.42	966.64
390.61	917.49
390.81	976.00
391.00	1029.84
391.19	966.64
391.39	1011.11
391.58	1062.60
391.78	983.02
391.97	971.32
392.16	994.73
392.36	1029.84
392.55	1069.62
392.75	997.07
392.94	1057.92
393.13	1013.45
393.33	1011.11
393.52	966.64
393.71	1025.15
393.91	1081.33
394.10	1069.62
394.29	1081.33
394.49	1116.44
394.68	1111.75
394.88	983.02
395.07	1160.91
395.26	1191.33
395.46	1132.82
395.65	1118.78
395.84	1160.91
396.04	1252.19
396.23	1156.22
396.42	1071.97
396.62	1207.72
396.81	1242.82
397.00	1205.38
397.19	1172.61
397.39	1181.97
397.58	1170.27
397.77	1261.55
397.97	1331.76
398.16	1268.57
398.35	1214.74
398.55	1163.25
398.74	1266.23
398.93	1376.24
399.12	1235.80
399.32	1165.59
399.51	1299.00
399.70	1348.15
399.90	1352.83
400.09	1420.71
400.28	1317.72
400.47	1366.87
400.67	1394.96
400.86	1423.05
401.05	1322.40
401.24	1392.62
401.44	1378.58
401.63	1507.30
401.82	1397.30
402.01	1380.92
402.21	1474.54
402.40	1509.65
402.59	1495.60
402.78	1521.35
402.97	1416.02
403.17	1467.52
403.36	1526.03
403.55	1575.18
403.74	1519.01
403.93	1523.69
404.13	1542.41
404.32	1647.74
404.51	1575.18
404.70	1610.29
404.89	1533.05
405.09	1589.22
405.28	1717.95
405.47	1708.59
405.66	1673.48
405.85	1696.89
406.05	1502.62
406.24	1701.57
406.43	1717.95
406.62	1724.97
406.81	1750.72
407.00	1694.55
407.20	1844.34
407.39	1863.07
407.58	1755.40
407.77	1809.23
407.96	1774.13
408.15	1834.98
408.34	1881.79
408.54	1963.71
408.73	1933.28
408.92	1888.81
409.11	1933.28
409.30	1937.96
409.49	1940.30
409.68	1914.56
409.87	1959.03
410.07	2057.33
410.26	1989.46
410.45	1970.73
410.64	2059.67
410.83	2073.71
411.02	2118.18
411.21	2172.02
411.40	2108.82
411.59	2087.76
411.78	2106.48
411.98	2160.31
412.17	2155.63
412.36	2239.89
412.55	2267.98
412.74	2228.19
412.93	2186.06
413.12	2347.56
413.31	2363.94
413.50	2249.25
413.69	2331.17
413.88	2548.84
414.07	2335.85
414.26	2464.58
414.45	2375.64
414.64	2478.63
414.83	2593.31
415.02	2539.48
415.22	2525.44
415.41	2504.37
415.60	2492.67
415.79	2590.97
415.98	2682.25
416.17	2747.79
416.36	2775.88
416.55	2719.70
416.74	2696.30
416.93	2647.15
417.12	2710.34
417.31	2825.03
417.50	2754.81
417.69	2979.50
417.88	2832.05
418.07	2815.66
418.26	2775.88
418.45	2977.16
418.64	2981.84
418.83	2881.20
419.02	2932.69
419.21	2925.67
419.39	3155.04
419.58	2972.48
419.77	2935.03
419.96	3141.00
420.15	3075.46
420.34	3131.64
420.53	3119.93
420.72	3117.59
420.91	3269.73
421.10	3185.47
421.29	3302.50
421.48	3103.55
421.67	3232.28
421.86	3363.35
422.05	3236.96
422.24	3166.74
422.43	3323.56
422.61	3173.77
422.80	3346.97
422.99	3447.61
423.18	3325.90
423.37	3335.26
423.56	3328.24
423.75	3236.96
423.94	3246.32
424.13	3019.29
424.32	3030.99
424.50	3361.01
424.69	3363.35
424.88	3478.04
425.07	3330.58
425.26	3309.52
425.45	3337.60
425.64	3396.12
425.83	3293.13
426.01	3307.18
426.20	3377.39
426.39	3382.07
426.58	3520.17
426.77	3274.41
426.96	3538.89
427.15	3419.52
427.33	3370.37
427.52	3410.16
427.71	3531.87
427.90	3566.98
428.09	3655.92
428.28	3569.32
428.46	3728.47
428.65	3611.45
428.84	3623.15
429.03	3698.05
429.22	3562.30
429.40	3578.68
429.59	3510.80
429.78	3672.30
429.97	3564.64
430.16	3653.58
430.34	3665.28
430.53	3735.50
430.72	3779.97
430.91	3833.80
431.10	3789.33
431.28	3843.16
431.47	3709.75
431.66	4072.53
431.85	3854.86
432.03	3948.48
432.22	3927.42
432.41	3943.80
432.60	4051.47
432.79	4023.38
432.97	4098.28
433.16	4049.13
433.35	3922.74
433.54	3866.56
433.72	4086.58
433.91	4086.58
434.10	4180.20
434.28	4109.98
434.47	4306.59
434.66	4177.86
434.85	4107.64
435.03	4238.71
435.22	4074.87
435.41	4168.49
435.59	4210.62
435.78	4147.43
435.97	4301.90
436.16	4297.22
436.34	4337.01
436.53	4320.63
436.72	4372.12
436.90	4379.14
437.09	4496.17
437.28	4234.03
437.46	4320.63
437.65	4454.04
437.84	4409.57
438.02	4416.59
438.21	4622.56
438.40	4393.19
438.58	4615.54
438.77	4816.82
438.96	4617.88
439.14	4830.87
439.33	4629.58
439.52	4734.90
439.70	4765.33
439.89	4814.48
440.08	4938.53
440.26	5020.45
440.45	4896.40
440.63	5076.62
440.82	5076.62
441.01	4936.19
441.19	5081.30
441.38	4992.36
441.57	5146.84
441.75	5165.56
441.94	5259.18
442.12	5284.93
442.31	5411.32
442.50	5277.91
442.68	5158.54
442.87	5289.61
443.05	5270.89
443.24	5291.95
443.43	5397.28
443.61	5385.57
443.80	5467.49
443.98	5383.23
444.17	5291.95
444.35	5446.43
444.54	5439.40
444.73	5420.68
444.91	5369.19
445.10	5394.93
445.28	5624.31
445.47	5418.34
445.65	5540.05
445.84	5479.19
446.02	5504.94
446.21	5626.65
446.39	5420.68
446.58	5853.68
446.77	5696.86
446.95	5502.60
447.14	5444.09
447.32	5591.54
447.51	5551.75
447.69	5586.86
447.88	5458.13
448.06	5652.39
448.25	5472.17
448.43	5504.94
448.62	5650.05
448.80	5685.16
448.99	5696.86
449.17	5881.77
449.36	5724.95
449.54	5694.52
449.73	5980.07
449.91	5806.87
450.10	5926.24
450.28	5968.37
450.46	6179.01
450.65	5977.73
450.83	5933.26
451.02	5994.11
451.20	5994.11
451.39	5961.34
451.57	6076.03
451.76	6155.61
451.94	6132.20
452.13	6069.01
452.31	6073.69
452.49	6019.86
452.68	6176.67
452.86	6174.33
453.05	6207.10
453.23	6120.50
453.42	5987.09
453.60	6214.12
453.78	6286.68
453.97	6270.30
454.15	6361.58
454.34	6176.67
454.52	6448.18
454.70	6338.17
454.89	6420.09
455.07	6431.79
455.26	6340.51
455.44	6616.69
455.62	6497.33
455.81	6630.74
455.99	6733.72
456.17	6597.97
456.36	6724.36
456.54	6670.53
456.73	6796.92
456.91	6801.60
457.09	6902.24
457.28	6801.60
457.46	6764.15
457.64	6946.71
457.83	6918.62
458.01	6707.98
458.19	6998.20
458.38	6874.15
458.56	7096.50
458.74	6958.41
458.93	7068.42
459.11	6944.37
459.29	7066.08
459.48	7075.44
459.66	7126.93
459.84	7119.91
460.03	7098.84
460.21	7192.47
460.39	7248.64
460.57	7269.70
460.76	7382.05
460.94	7253.32
461.12	7321.20
461.31	7332.90
461.49	7213.53
461.67	7321.20
461.85	7489.71
462.04	7358.64
462.22	7796.32
462.40	7559.93
462.59	7623.12
462.77	7730.79
462.95	7676.96
463.13	7438.22
463.32	7667.60
463.50	7634.83
463.68	7824.41
463.86	7758.88
464.05	7590.36
464.23	7630.15
464.41	7901.65
464.59	7705.04
464.78	7915.69
464.96	7894.63
465.14	7805.69
465.32	7955.48
465.50	7878.24
465.69	8060.80
465.87	7908.67
466.05	7796.32
466.23	7864.20
466.41	8128.68
466.60	8166.13
466.78	7861.86
466.96	7957.82
467.14	7934.42
467.32	8081.87
467.51	8032.72
467.69	7925.05
467.87	8294.86
468.05	8177.83
468.23	8065.49
468.41	8231.66
468.60	8292.52
468.78	8187.19
468.96	8315.92
469.14	8418.91
469.32	8500.83
469.50	8142.72
469.69	8531.25
469.87	8681.05
470.05	8367.42
470.23	8559.34
470.41	8416.57
470.59	8613.17
470.77	8652.96
470.95	8517.21
471.14	8889.35
471.32	8648.28
471.50	8748.92
471.68	8669.34
471.86	8812.12
472.04	8704.45
472.22	9053.19
472.40	8861.27
472.58	8908.08
472.77	8947.87
472.95	9205.33
473.13	9418.32
473.31	9125.75
473.49	9287.25
473.67	9011.06
473.85	9294.27
474.03	9528.32
474.21	9685.14
474.39	9514.28
474.57	9647.69
474.75	9661.73
474.93	9399.59
475.12	9614.92
475.30	9565.77
475.48	9682.80
475.66	9958.98
475.84	9872.38
476.02	9935.57
476.20	10104.09
476.38	10214.10
476.56	10251.55
476.74	10209.42
476.92	10389.64
477.10	10396.66
477.28	10331.12
477.46	10501.98
477.64	10317.08
477.82	10810.93
478.00	10972.43
478.18	10843.70
478.36	11080.10
478.54	11147.97
478.72	10899.87
478.90	11173.72
479.08	11372.66
479.26	11309.47
479.44	11438.20
479.62	11637.14
479.80	11562.25
479.98	11768.21
480.16	11791.62
480.34	11676.93
480.52	11836.09
480.70	11946.09
480.88	11988.22
481.06	12189.51
481.24	12332.28
481.41	12196.53
481.59	12285.47
481.77	12507.82
481.95	12751.24
482.13	12720.81
482.31	12669.32
482.49	13011.04
482.67	12985.29
482.85	12957.21
483.03	13125.72
483.21	13270.84
483.39	13362.12
483.57	13383.18
483.74	13635.96
483.92	13844.27
484.10	13429.99
484.28	13926.19
484.46	14148.54
484.64	14235.14
484.82	14071.30
485.00	14277.27
485.18	14373.23
485.35	14747.72
485.53	14703.25
485.71	14824.95
485.89	15054.33
486.07	14934.96
486.25	14944.32
486.43	15063.69
486.61	15143.27
486.78	15545.84
486.96	15215.82
487.14	15838.41
487.32	15775.21
487.50	15609.03
487.68	16004.58
487.85	16217.57
488.03	16418.86
488.21	16868.24
488.39	16519.50
488.57	16725.47
488.75	16367.37
488.92	16978.25
489.10	17137.40
489.28	17312.94
489.46	17106.98
489.64	17207.62
489.81	17551.68
489.99	17612.53
490.17	17701.47
490.35	17958.93
490.53	18359.16
490.70	18361.50
490.88	18129.79
491.06	18431.72
491.24	18398.95
491.41	18530.02
491.59	18574.49
491.77	18740.67
491.95	18738.33
492.13	19087.07
492.30	19372.61
492.48	18892.80
492.66	19548.15
492.84	19391.34
493.01	19398.36
493.19	19501.34
493.37	19772.85
493.54	19988.18
493.72	20273.72
493.90	20205.84
494.08	20262.02
494.25	20437.56
494.43	20570.97
494.61	20594.37
494.79	20900.98
494.96	20617.78
495.14	20996.95
495.32	21053.12
495.49	20945.45
495.67	21268.45
495.85	21156.10
496.02	21537.61
496.20	21659.32
496.38	21781.03
496.55	21888.69
496.73	22148.49
496.91	22097.00
497.09	22113.38
497.26	22466.80
497.44	22328.71
497.62	22558.08
497.79	22939.59
497.97	22651.70
498.14	22766.39
498.32	22911.50
498.50	23246.20
498.67	23510.68
498.85	23133.86
499.03	23557.49
499.20	23295.35
499.38	23566.85
499.56	23674.52
499.73	23899.21
499.91	23988.15
500.08	24119.22
500.26	23948.36
500.44	24102.84
500.61	23969.43
500.79	24465.62
500.97	24465.62
501.14	24854.15
501.32	24538.18
501.49	24720.74
501.67	24807.34
501.84	24992.24
502.02	24957.13
502.20	24945.43
502.37	25010.96
502.55	24716.06
502.72	25015.65
502.90	25062.46
503.07	25441.62
503.25	25535.24
503.43	25294.17
503.60	25781.00
503.78	25855.90
503.95	25893.35
504.13	25766.96
504.30	25933.14
504.48	26181.23
504.65	26136.76
504.83	26258.47
505.01	26412.95
505.18	26192.94
505.36	26710.19
505.53	26583.80
505.71	26684.45
505.88	26843.60
506.06	26621.25
506.23	26925.52
506.41	26862.33
506.58	26780.41
506.76	27084.68
506.93	27426.40
507.11	27454.48
507.28	27442.78
507.46	27543.42
507.63	27339.80
507.81	27768.12
507.98	27686.20
508.16	27704.92
508.33	27599.60
508.50	27882.80
508.68	27910.89
508.85	28098.13
509.03	27953.02
509.20	28208.14
509.38	28437.51
509.55	28491.34
509.73	28250.27
509.90	28533.47
510.08	28987.53
510.25	28187.07
510.42	28774.55
510.60	28903.28
510.77	29048.39
510.95	29525.86
511.12	29039.03
511.30	29003.92
511.47	29039.03
511.64	29415.85
511.82	29359.68
511.99	29249.67
512.17	29542.24
512.34	29523.52
512.51	29720.12
512.69	30134.40
512.86	29656.93
513.04	29956.52
513.21	30176.53
513.38	30094.61
513.56	30132.06
513.73	30188.23
513.90	30150.78
514.08	30614.21
514.25	30518.25
514.43	30836.56
514.60	30595.48
514.77	30862.30
514.95	31126.78
515.12	31026.14
515.29	30986.35
515.47	31112.74
515.64	31152.53
515.81	31159.55
515.99	31239.13
516.16	31562.12
516.33	31524.68
516.51	31449.78
516.68	31438.08
516.85	31318.71
517.03	31749.37
517.20	32201.09
517.37	31742.35
517.54	31864.05
517.72	31988.10
517.89	32041.93
518.06	31978.74
518.24	32034.91
518.41	31915.54
518.58	32271.31
518.75	32554.51
518.93	32327.48
519.10	32060.66
519.27	32723.03
519.45	32425.78
519.62	32884.53
519.79	32971.13
519.96	32655.15
520.14	32788.56
520.31	33024.96
520.48	33034.32
520.65	33141.99
520.83	33551.58
521.00	33570.30
521.17	33308.16
521.34	33612.43
521.52	33474.34
521.69	33333.91
521.86	33462.64
522.03	33600.73
522.20	33972.88
522.38	34328.64
522.55	34108.63
522.72	34024.37
522.89	34513.54
523.07	34101.61
523.24	33970.54
523.41	34352.04
523.58	34089.90
523.75	34693.76
523.92	34838.87
524.10	34780.36
524.27	34719.51
524.44	34974.63
524.61	34520.56
524.78	35028.46
524.96	34817.81
525.13	35021.44
525.30	35594.87
525.47	35641.68
525.64	34974.63
525.81	35548.06
525.98	35318.68
526.16	35234.42
526.33	35152.51
526.50	35845.30
526.67	35035.48
526.84	35477.84
527.01	35899.14
527.18	35613.59
527.36	36158.94
527.53	35957.65
527.70	36411.71
527.87	36306.39
528.04	35842.96
528.21	36233.83
528.38	36081.70
528.55	36416.40
528.72	35861.69
528.89	36261.92
529.07	36692.58
529.24	36123.83
529.41	36327.45
529.58	36669.17
529.75	36645.77
529.92	36423.42
530.09	36620.02
530.26	36559.17
530.43	36999.19
530.60	36676.19
530.77	36598.96
530.94	36816.63
531.11	36634.06
531.28	36872.80
531.46	36514.70
531.63	37036.64
531.80	36802.58
531.97	37132.60
532.14	37457.93
532.31	37186.43
532.48	37261.33
532.65	37790.29
532.82	37816.04
532.99	37617.09
533.16	37390.06
533.33	37691.99
533.50	37975.19
533.67	37563.26
533.84	37670.92
534.01	38078.18
534.18	37783.27
534.35	38316.91
534.52	37764.54
534.69	38450.32
534.86	38848.21
535.03	38136.69
535.20	38113.28
535.37	38726.50
535.54	38892.68
535.71	38433.94
535.88	38747.57
536.05	38717.14
536.22	38515.86
536.38	38412.87
536.55	38274.78
536.72	38796.72
536.89	38443.30
537.06	38370.74
537.23	38983.96
537.40	38611.82
537.57	38691.40
537.74	38969.92
537.91	39215.68
538.08	39075.24
538.25	38426.92
538.42	38719.48
538.59	39377.17
538.75	39077.58
538.92	39372.49
539.09	39400.58
539.26	39758.68
539.43	39386.54
539.60	39529.31
539.77	39426.32
539.94	40004.44
540.11	39739.96
540.28	39758.68
540.44	39913.16
540.61	39835.92
540.78	39669.74
540.95	39819.53
541.12	39948.26
541.29	39784.43
541.46	40119.12
541.62	40374.24
541.79	40133.17
541.96	40128.48
542.13	39517.60
542.30	40191.68
542.47	39992.73
542.63	40217.43
542.80	40521.69
542.97	40898.52
543.14	40603.61
543.31	40512.33
543.48	41076.40
543.64	41195.77
543.81	41160.66
543.98	41209.81
544.15	40741.71
544.32	41251.94
544.48	41324.50
544.65	41361.95
544.82	41261.30
544.99	41102.15
545.16	40975.76
545.32	40950.01
545.49	41656.85
545.66	41673.24
545.83	41518.76
546.00	41801.97
546.16	41684.94
546.33	41345.56
546.50	40905.54
546.67	41336.20
546.83	41172.36
547.00	41677.92
547.17	41071.72
547.34	41481.31
547.50	41827.71
547.67	42312.20
547.84	41684.94
548.00	41743.45
548.17	42394.12
548.34	41996.23
548.51	42384.76
548.67	42253.69
548.84	41991.55
549.01	41816.01
549.18	42419.87
549.34	42204.54
549.51	42293.48
549.68	42293.48
549.84	42075.81
550.01	42230.29
550.18	42033.68
550.34	42389.44
550.51	42555.62
550.68	42422.21
550.84	42429.23
551.01	42930.11
551.18	42197.52
551.34	42773.29
551.51	42347.31
551.68	42714.78
551.84	42721.80
552.01	42543.92
552.18	42646.90
552.34	42777.97
552.51	42932.45
552.68	42796.70
552.84	42726.48
553.01	43339.70
553.18	43119.69
553.34	43037.77
553.51	43122.03
553.67	43342.04
553.84	43086.92
554.01	43653.33
554.17	43168.84
554.34	43552.69
554.51	43365.45
554.67	43409.92
554.84	43426.30
555.00	43274.16
555.17	43079.90
555.33	43548.01
555.50	43452.05
555.67	43789.08
555.83	43136.07
556.00	43456.73
556.16	43885.04
556.33	43784.40
556.50	43833.55
556.66	44093.35
556.83	43496.52
556.99	43845.26
557.16	43641.63
557.32	44161.23
557.49	43959.94
557.65	43615.88
557.82	43849.94
557.98	43700.14
558.15	43824.19
558.32	43800.79
558.48	44020.80
558.65	44425.71
558.81	43800.79
558.98	43906.11
559.14	44168.25
559.31	43824.19
559.47	44189.31
559.64	44414.01
559.80	44126.12
559.97	44411.67
560.13	43894.41
560.30	44381.24
560.46	44278.25
560.63	44320.38
560.79	44626.99
560.96	44650.40
561.12	44535.71
561.29	44816.58
561.45	44685.51
561.61	44706.57
561.78	44418.69
561.94	44598.91
562.11	44306.34
562.27	44737.00
562.44	44629.34
562.60	45095.10
562.77	45043.61
562.93	44273.57
563.10	45244.90
563.26	44538.05
563.42	44973.39
563.59	44734.66
563.75	44355.49
563.92	44910.20
564.08	44760.40
564.24	44919.56
564.41	44556.78
564.57	45139.57
564.74	45223.83
564.90	44854.03
565.07	45350.22
565.23	44975.73
565.39	45074.04
565.56	45230.85
565.72	44910.20
565.88	45029.57
566.05	44985.10
566.21	45256.60
566.38	44935.95
566.54	45507.04
566.70	45439.16
566.87	45242.56
567.03	44961.69
567.19	45450.86
567.36	45240.21
567.52	45691.94
567.68	45462.57
567.85	45170.00
568.01	45226.17
568.17	45294.05
568.34	45619.38
568.50	45092.76
568.66	45343.20
568.83	45216.81
568.99	45535.12
569.15	45319.79
569.32	45186.38
569.48	45315.11
569.64	45478.95
569.81	45759.81
569.97	45612.36
570.13	45734.07
570.30	45043.61
570.46	45455.54
570.62	45762.15
570.78	45118.51
570.95	45546.82
571.11	45787.90
571.27	45247.24
571.43	45401.71
571.60	45361.92
571.76	45216.81
571.92	45457.88
572.09	45710.66
572.25	45483.63
572.41	44992.12
572.57	45528.10
572.74	45794.92
572.90	45570.23
573.06	45893.22
573.22	45834.71
573.38	45724.71
573.55	45708.32
573.71	46174.09
573.87	45916.63
574.03	45593.64
574.20	46136.64
574.36	45968.12
574.52	45970.46
574.68	46211.54
574.84	45392.35
575.01	45900.25
575.17	46078.13
575.33	45799.60
575.49	45801.94
575.65	45900.25
575.82	46078.13
575.98	45420.44
576.14	46281.75
576.30	46190.47
576.46	45818.33
576.62	45984.51
576.79	45881.52
576.95	45713.00
577.11	45413.41
577.27	45993.87
577.43	45628.74
577.59	45743.43
577.75	45354.90
577.92	45848.75
578.08	45933.01
578.24	45535.12
578.40	46082.81
578.56	46136.64
578.72	45776.20
578.88	46258.35
579.04	45890.88
579.21	45972.80
579.37	45923.65
579.53	46305.16
579.69	45818.33
579.85	45614.70
580.01	45776.20
580.17	46061.74
580.33	46078.13
580.49	45825.35
580.65	46281.75
580.82	45600.66
580.98	45755.13
581.14	45755.13
581.30	46176.43
581.46	46103.87
581.62	45944.72
581.78	45633.42
581.94	46366.01
582.10	46150.68
582.26	46092.17
582.42	46183.45
582.58	46665.60
582.74	46047.70
582.90	46085.15
583.06	46548.57
583.22	46260.69
583.38	46108.55
583.54	46717.09
583.70	46099.19
583.86	46101.53
584.02	46078.13
584.18	46742.84
584.34	46244.30
584.50	46539.21
584.66	46719.43
584.82	46370.69
584.98	46515.81
585.14	46349.63
585.30	46110.89
585.46	46398.78
585.62	46094.51
585.78	46286.43
585.94	45640.45
586.10	46064.08
586.26	46227.92
586.42	46047.70
586.58	46272.39
586.74	46014.93
586.90	46529.85
587.06	45937.69
587.22	46274.73
587.38	46073.45
587.54	46373.03
587.70	46717.09
587.86	46410.48
588.02	45956.42
588.18	46487.72
588.34	46171.75
588.49	46461.97
588.65	46368.35
588.81	46225.58
588.97	46817.74
589.13	46323.88
589.29	46412.82
589.45	46494.74
589.61	46799.01
589.77	46784.97
589.93	46485.38
590.08	46768.58
