SpectraSuite Data File
++++++++++++++++++++++++++++++++++++
Date: Fri Oct 25 10:47:26 EDT 2013
User: price-jones
Dark Spectrum Present: No
Reference Spectrum Present: No
Number of Sampled Component Spectra: 1
Spectrometers: USB2+H05261
Integration Time (usec): 100000 (USB2+H05261)
Spectra Averaged: 1 (USB2+H05261)
Boxcar Smoothing: 0 (USB2+H05261)
Correct for Electrical Dark: No (USB2+H05261)
Strobe/Lamp Enabled: No (USB2+H05261)
Correct for Detector Non-linearity: No (USB2+H05261)
Correct for Stray Light: No (USB2+H05261)
Number of Pixels in Processed Spectrum: 2048
>>>>>Begin Processed Spectral Data<<<<<
365.73	72.56
365.92	72.56
366.12	72.56
366.32	79.58
366.52	49.15
366.72	72.56
366.91	65.54
367.11	23.41
367.31	21.06
367.51	86.60
367.70	18.72
367.90	91.28
368.10	0.00
368.30	56.17
368.49	18.72
368.69	72.56
368.89	46.81
369.09	63.19
369.28	65.54
369.48	77.24
369.68	105.32
369.87	161.50
370.07	77.24
370.27	121.71
370.47	217.67
370.66	440.02
370.86	362.78
371.06	484.49
371.25	447.04
371.45	421.30
371.65	440.02
371.84	472.79
372.04	388.53
372.24	456.40
372.44	449.38
372.63	479.81
372.83	465.77
373.03	507.90
373.22	442.36
373.42	500.87
373.62	550.03
373.81	458.74
374.01	608.54
374.21	587.47
374.40	538.32
374.60	540.66
374.79	557.05
374.99	559.39
375.19	573.43
375.38	582.79
375.58	664.71
375.78	660.03
375.97	629.60
376.17	566.41
376.37	603.86
376.56	533.64
376.76	507.90
376.95	526.62
377.15	596.84
377.35	559.39
377.54	594.50
377.74	631.94
377.93	636.63
378.13	580.45
378.33	671.73
378.52	641.31
378.72	688.12
378.91	650.67
379.11	582.79
379.31	592.16
379.50	585.13
379.70	681.10
379.89	716.20
380.09	636.63
380.28	685.78
380.48	709.18
380.68	610.88
380.87	599.18
381.07	636.63
381.26	664.71
381.46	589.82
381.65	685.78
381.85	667.05
382.04	704.50
382.24	711.52
382.43	564.07
382.63	695.14
382.83	669.39
383.02	685.78
383.22	765.36
383.41	624.92
383.61	748.97
383.80	823.87
384.00	734.93
384.19	681.10
384.39	674.07
384.58	704.50
384.78	830.89
384.97	758.33
385.17	772.38
385.36	723.23
385.56	748.97
385.75	763.01
385.95	774.72
386.14	840.25
386.34	667.05
386.53	842.59
386.72	725.57
386.92	732.59
387.11	842.59
387.31	791.10
387.50	798.12
387.70	894.08
387.89	791.10
388.09	847.27
388.28	854.30
388.48	833.23
388.67	868.34
388.86	873.02
389.06	929.19
389.25	877.70
389.45	821.53
389.64	922.17
389.84	924.51
390.03	894.08
390.22	898.77
390.42	912.81
390.61	912.81
390.81	858.98
391.00	1043.88
391.19	919.83
391.39	945.58
391.58	978.34
391.78	980.68
391.97	1032.18
392.16	912.81
392.36	966.64
392.55	917.49
392.75	971.32
392.94	950.26
393.13	858.98
393.33	999.41
393.52	1020.47
393.71	1083.67
393.91	1008.77
394.10	1067.28
394.29	1039.20
394.49	1067.28
394.68	1069.62
394.88	1210.06
395.07	1146.86
395.26	1128.14
395.46	1107.07
395.65	1139.84
395.84	1177.29
396.04	1093.03
396.23	1071.97
396.42	1078.99
396.62	1165.59
396.81	1214.74
397.00	1146.86
397.19	1228.78
397.39	1137.50
397.58	1231.12
397.77	1275.59
397.97	1177.29
398.16	1228.78
398.35	1280.27
398.55	1268.57
398.74	1357.51
398.93	1380.92
399.12	1291.98
399.32	1310.70
399.51	1294.32
399.70	1282.61
399.90	1343.47
400.09	1401.98
400.28	1399.64
400.47	1320.06
400.67	1373.89
400.86	1355.17
401.05	1460.49
401.24	1483.90
401.44	1284.95
401.63	1502.62
401.82	1476.88
402.01	1444.11
402.21	1511.99
402.40	1537.73
402.59	1490.92
402.78	1563.48
402.97	1516.67
403.17	1596.25
403.36	1558.80
403.55	1614.97
403.74	1650.08
403.93	1631.35
404.13	1673.48
404.32	1549.43
404.51	1589.22
404.70	1699.23
404.89	1607.95
405.09	1717.95
405.28	1664.12
405.47	1689.87
405.66	1851.36
405.85	1699.23
406.05	1661.78
406.24	1785.83
406.43	1748.38
406.62	1802.21
406.81	1858.39
407.00	1774.13
407.20	1703.91
407.39	1898.17
407.58	1874.77
407.77	1872.43
407.96	1839.66
408.15	1982.43
408.34	1942.64
408.54	1902.86
408.73	2015.20
408.92	1973.07
409.11	1968.39
409.30	1980.09
409.49	2122.87
409.68	2031.58
409.87	2071.37
410.07	1968.39
410.26	2111.16
410.45	2043.29
410.64	2069.03
410.83	2099.46
411.02	2026.90
411.21	2333.51
411.40	2263.30
411.59	2338.20
411.78	2321.81
411.98	2291.38
412.17	2420.11
412.36	2256.28
412.55	2305.43
412.74	2366.28
412.93	2375.64
413.12	2333.51
413.31	2469.27
413.50	2530.12
413.69	2410.75
413.88	2534.80
414.07	2438.84
414.26	2588.63
414.45	2551.18
414.64	2677.57
414.83	2658.85
415.02	2590.97
415.22	2808.64
415.41	2799.28
415.60	2715.02
415.79	2708.00
415.98	2832.05
416.17	2878.86
416.36	2888.22
416.55	2864.82
416.74	2988.86
416.93	2918.65
417.12	2869.50
417.31	2829.71
417.50	2918.65
417.69	3023.97
417.88	3087.17
418.07	3087.17
418.26	3047.38
418.45	3049.72
418.64	3070.78
418.83	3049.72
419.02	3068.44
419.21	3145.68
419.39	3098.87
419.58	3349.31
419.77	3148.02
419.96	3241.64
420.15	3222.92
420.34	3157.38
420.53	3234.62
420.72	3255.69
420.91	3325.90
421.10	3321.22
421.29	3459.31
421.48	3344.63
421.67	3365.69
421.86	3356.33
422.05	3398.46
422.24	3468.67
422.43	3403.14
422.61	3515.48
422.80	3372.71
422.99	3433.57
423.18	3550.59
423.37	3456.97
423.56	3417.18
423.75	3442.93
423.94	3419.52
424.13	3260.37
424.32	3445.27
424.50	3634.85
424.69	3648.90
424.88	3503.78
425.07	3543.57
425.26	3499.10
425.45	3412.50
425.64	3485.06
425.83	3330.58
426.01	3564.64
426.20	3459.31
426.39	3637.19
426.58	3456.97
426.77	3492.08
426.96	3513.14
427.15	3667.62
427.33	3775.28
427.52	3716.77
427.71	3691.02
427.90	3662.94
428.09	3854.86
428.28	3777.62
428.46	3676.98
428.65	3822.09
428.84	3868.91
429.03	3772.94
429.22	3744.86
429.40	3691.02
429.59	3761.24
429.78	3674.64
429.97	3529.53
430.16	3681.66
430.34	3798.69
430.53	3873.59
430.72	3824.44
430.91	3929.76
431.10	4051.47
431.28	4039.76
431.47	4039.76
431.66	4159.13
431.85	4105.30
432.03	4187.22
432.22	4070.19
432.41	4119.34
432.60	4166.15
432.79	4219.99
432.97	4198.92
433.16	4198.92
433.35	4191.90
433.54	4119.34
433.72	4128.70
433.91	4203.60
434.10	4224.67
434.28	4255.09
434.47	4301.90
434.66	4376.80
434.85	4325.31
435.03	4322.97
435.22	4493.83
435.41	4561.70
435.59	4573.41
435.78	4526.60
435.97	4601.49
436.16	4400.21
436.34	4498.51
436.53	4559.36
436.72	4660.01
436.90	4472.76
437.09	4655.33
437.28	4531.28
437.46	4582.77
437.65	4585.11
437.84	4601.49
438.02	4692.77
438.21	4798.10
438.40	4461.06
438.58	4791.08
438.77	4805.12
438.96	4732.56
439.14	4908.10
439.33	5036.83
439.52	5013.43
439.70	4929.17
439.89	5069.60
440.08	5123.43
440.26	5055.56
440.45	5163.22
440.63	5219.39
440.82	5160.88
441.01	5181.95
441.19	5277.91
441.38	5247.48
441.57	5390.25
441.75	5577.50
441.94	5664.10
442.12	5767.08
442.31	5692.18
442.50	5757.72
442.68	5619.63
442.87	5607.92
443.05	5593.88
443.24	5898.15
443.43	5509.62
443.61	5692.18
443.80	5898.15
443.98	5699.20
444.17	5528.35
444.35	5902.83
444.54	5877.09
444.73	5771.76
444.91	5788.14
445.10	5832.62
445.28	5905.17
445.47	5678.14
445.65	5886.45
445.84	5921.56
446.02	5858.36
446.21	5870.06
446.39	5792.83
446.58	5916.87
446.77	5947.30
446.95	5902.83
447.14	5884.11
447.32	5956.66
447.51	5935.60
447.69	5881.77
447.88	6001.13
448.06	6008.16
448.25	5916.87
448.43	5947.30
448.62	5973.05
448.80	5968.37
448.99	6001.13
449.17	6160.29
449.36	6164.97
449.54	6141.57
449.73	6389.66
449.91	6291.36
450.10	6190.72
450.28	6345.19
450.46	6375.62
450.65	6359.24
450.83	6286.68
451.02	6459.88
451.20	6504.35
451.39	6293.70
451.57	6317.11
451.76	6176.67
451.94	6534.78
452.13	6427.11
452.31	6415.41
452.49	6366.26
452.68	6452.86
452.86	6431.79
453.05	6422.43
453.23	6558.18
453.42	6480.94
453.60	6513.71
453.78	6576.91
453.97	6541.80
454.15	6633.08
454.34	6588.61
454.52	6684.57
454.70	6670.53
454.89	6656.48
455.07	6649.46
455.26	6836.70
455.44	6944.37
455.62	6902.24
455.81	6822.66
455.99	6892.88
456.17	6979.48
456.36	6836.70
456.54	7054.37
456.73	7026.29
456.91	7021.61
457.09	7002.88
457.28	7447.58
457.46	7213.53
457.64	7157.36
457.83	7295.45
458.01	7211.19
458.19	7414.82
458.38	7370.35
458.56	7290.77
458.74	7461.63
458.93	7288.43
459.11	7372.69
459.29	7379.71
459.48	7435.88
459.66	7459.29
459.84	7501.42
460.03	7592.70
460.21	7559.93
460.39	7541.21
460.57	7550.57
460.76	7543.55
460.94	7548.23
461.12	7616.10
461.31	7707.38
461.49	7700.36
461.67	7597.38
461.85	7775.26
462.04	7646.53
462.22	8238.69
462.40	8009.31
462.59	7927.39
462.77	7936.76
462.95	8042.08
463.13	8032.72
463.32	7960.16
463.50	8084.21
463.68	8086.55
463.86	8187.19
464.05	7896.97
464.23	8011.65
464.41	8156.77
464.59	8028.04
464.78	8042.08
464.96	8184.85
465.14	8028.04
465.32	8332.31
465.50	8374.44
465.69	8306.56
465.87	8311.24
466.05	8212.94
466.23	8301.88
466.41	8320.60
466.60	8549.98
466.78	8402.52
466.96	8437.63
467.14	8381.46
467.32	8402.52
467.51	8442.31
467.69	8149.75
467.87	8365.07
468.05	8505.51
468.23	8547.64
468.41	8521.89
468.60	8669.34
468.78	8709.13
468.96	8416.57
469.14	8613.17
469.32	8601.47
469.50	8388.48
469.69	8868.29
469.87	8924.46
470.05	8917.44
470.23	8903.40
470.41	8652.96
470.59	8903.40
470.77	8959.57
470.95	8919.78
471.14	8990.00
471.32	9004.04
471.50	9413.63
471.68	9303.63
471.86	9334.06
472.04	9301.29
472.22	9558.75
472.40	9224.05
472.58	9507.26
472.77	9535.34
472.95	9610.24
473.13	9893.44
473.31	9610.24
473.49	9575.13
473.67	9357.46
473.85	9537.68
474.03	9935.57
474.21	9933.23
474.39	10050.26
474.57	9977.70
474.75	9785.78
474.93	9998.77
475.12	9909.83
475.30	10195.37
475.48	10258.57
475.66	10092.39
475.84	9998.77
476.02	10174.31
476.20	10270.27
476.38	10724.33
476.56	10525.39
476.74	10846.04
476.92	10684.55
477.10	10602.63
477.28	10984.13
477.46	10754.76
477.64	10801.57
477.82	11185.42
478.00	10970.09
478.18	11281.38
478.36	11468.62
478.54	11452.24
478.72	11372.66
478.90	11435.86
479.08	11875.88
479.26	12006.95
479.44	12020.99
479.62	11721.40
479.80	12060.78
479.98	12109.93
480.16	12320.58
480.34	12334.62
480.52	12416.54
480.70	12306.54
480.88	12201.21
481.06	12601.44
481.24	12837.84
481.41	12753.58
481.59	12994.65
481.77	12933.80
481.95	13062.53
482.13	13139.77
482.31	13128.06
482.49	13582.13
482.67	13554.04
482.85	13685.11
483.03	13624.26
483.21	13942.57
483.39	14068.96
483.57	14120.45
483.74	13870.01
483.92	14078.32
484.10	14059.60
484.28	14293.65
484.46	14726.65
484.64	14647.07
484.82	14520.68
485.00	14703.25
485.18	14752.40
485.35	15030.92
485.53	14810.91
485.71	14998.15
485.89	15426.47
486.07	15126.88
486.25	15197.10
486.43	15220.50
486.61	15957.77
486.78	15843.09
486.96	15871.17
487.14	16231.62
487.32	15997.56
487.50	16428.22
487.68	16444.60
487.85	16678.66
488.03	16793.34
488.21	16807.39
488.39	17048.46
488.57	17067.19
488.75	17205.28
488.92	17469.76
489.10	17596.15
489.28	17399.54
489.46	17879.35
489.64	17701.47
489.81	18314.69
489.99	18143.83
490.17	18223.41
490.35	18471.51
490.53	18546.40
490.70	18534.70
490.88	18417.68
491.06	18981.74
491.24	18927.91
491.41	19101.11
491.59	18948.98
491.77	19070.68
491.95	19288.35
492.13	19143.24
492.30	19688.59
492.48	19864.13
492.66	19700.29
492.84	19782.21
493.01	19969.45
493.19	20032.65
493.37	20360.32
493.54	20411.81
493.72	20734.81
493.90	20280.74
494.08	20924.39
494.25	20851.83
494.43	21015.67
494.61	21303.56
494.79	21254.40
494.96	21184.19
495.14	21467.39
495.32	21350.37
495.49	21586.76
495.67	21965.93
495.85	21947.20
496.02	21872.31
496.20	22197.64
496.38	22080.61
496.55	22153.17
496.73	22803.84
496.91	22698.52
497.09	22876.40
497.26	22977.04
497.44	23075.34
497.62	22881.08
497.79	23213.43
497.97	23082.36
498.14	23311.74
498.32	23426.42
498.50	23498.98
498.67	23744.73
498.85	23810.27
499.03	23871.12
499.20	23983.47
499.38	23859.42
499.56	24142.63
499.73	24219.86
499.91	24128.58
500.08	24491.37
500.26	24177.73
500.44	24311.14
500.61	24624.78
500.79	24636.48
500.97	24643.50
501.14	24994.58
501.32	25008.62
501.49	24704.35
501.67	25303.53
501.84	25474.39
502.02	25418.22
502.20	25535.24
502.37	25743.55
502.55	25490.77
502.72	25322.26
502.90	25876.96
503.07	25633.55
503.25	25500.14
503.43	25804.41
503.60	25951.86
503.78	26396.56
503.95	26316.98
504.13	26391.88
504.30	26799.13
504.48	26490.18
504.65	26724.24
504.83	26618.91
505.01	26684.45
505.18	27023.83
505.36	27051.91
505.53	26944.25
505.71	27297.67
505.88	27428.74
506.06	27204.05
506.23	27386.61
506.41	27311.71
506.58	27307.03
506.76	27445.12
506.93	27742.37
507.11	27573.85
507.28	27875.78
507.46	27824.29
507.63	28013.87
507.81	28224.52
507.98	28261.97
508.16	27946.00
508.33	28236.22
508.50	28435.17
508.68	28556.88
508.85	29022.64
509.03	28680.92
509.20	28879.87
509.38	28694.97
509.55	29071.79
509.73	29364.36
509.90	29385.43
510.08	28994.56
510.25	29137.33
510.42	29287.12
510.60	29542.24
510.77	29390.11
510.95	29479.05
511.12	29706.08
511.30	29720.12
511.47	29780.98
511.64	30155.46
511.82	29764.59
511.99	30174.19
512.17	29907.37
512.34	29745.87
512.51	30031.41
512.69	30684.42
512.86	30342.70
513.04	30356.75
513.21	30256.11
513.38	30506.54
513.56	30436.33
513.73	30438.67
513.90	30494.84
514.08	30448.03
514.25	31063.59
514.43	30979.33
514.60	30675.06
514.77	30806.13
514.95	31370.20
515.12	31290.62
515.29	31101.04
515.47	31515.31
515.64	31424.03
515.81	31335.09
515.99	31365.52
516.16	31044.87
516.33	31391.26
516.51	31847.67
516.68	31424.03
516.85	31103.38
517.03	31702.56
517.20	31835.97
517.37	31725.96
517.54	31842.99
517.72	32002.14
517.89	32308.76
518.06	31934.27
518.24	32231.52
518.41	32119.17
518.58	32229.18
518.75	32280.67
518.93	32959.42
519.10	32659.84
519.27	32584.94
519.45	32589.62
519.62	32713.67
519.79	33273.06
519.96	33287.10
520.14	33031.98
520.31	33078.79
520.48	33156.03
520.65	33097.52
520.83	33577.33
521.00	33528.17
521.17	33523.49
521.34	33544.56
521.52	33778.61
521.69	33652.22
521.86	33764.57
522.03	34433.96
522.20	34110.97
522.38	33919.04
522.55	34265.44
522.72	33975.22
522.89	33975.22
523.07	34302.89
523.24	34270.12
523.41	34499.50
523.58	34190.55
523.75	34515.88
523.92	34253.74
524.10	34476.09
524.27	34937.18
524.44	35126.76
524.61	35047.18
524.78	34911.43
524.96	35115.06
525.13	35196.98
525.30	34923.13
525.47	35152.51
525.64	34869.30
525.81	35257.83
525.98	35089.31
526.16	35056.54
526.33	35103.35
526.50	35800.83
526.67	35150.17
526.84	35529.33
527.01	35381.88
527.18	35573.80
527.36	35964.67
527.53	35587.85
527.70	36299.37
527.87	35908.50
528.04	36013.82
528.21	36123.83
528.38	36264.26
528.55	36325.11
528.72	36442.14
528.89	36650.45
529.07	36416.40
529.24	36332.14
529.41	36346.18
529.58	36517.04
529.75	36479.59
529.92	36561.51
530.09	36734.71
530.26	37083.45
530.43	36613.00
530.60	36259.58
530.77	36486.61
530.94	36879.82
531.11	36556.83
531.28	36800.24
531.46	37062.38
531.63	37425.17
531.80	37127.92
531.97	37078.77
532.14	36830.67
532.31	36917.27
532.48	37207.50
532.65	37771.57
532.82	37277.71
532.99	37790.29
533.16	37062.38
533.33	37528.15
533.50	37947.11
533.67	37673.26
533.84	37626.45
534.01	37596.03
534.18	38087.54
534.35	38033.71
534.52	37600.71
534.69	38239.67
534.86	37818.38
535.03	38363.72
535.20	38370.74
535.37	38447.98
535.54	38197.54
535.71	37958.81
535.88	38291.16
536.05	38190.52
536.22	38698.42
536.38	38298.19
536.55	38417.55
536.72	38593.09
536.89	38389.47
537.06	38195.20
537.23	38717.14
537.40	38288.82
537.57	38588.41
537.74	38728.84
537.91	38911.41
538.08	38843.53
538.25	38820.13
538.42	38934.81
538.59	39365.47
538.75	38927.79
538.92	39063.54
539.09	39096.31
539.26	39096.31
539.43	38880.98
539.60	39236.74
539.77	39337.38
539.94	39194.61
540.11	38859.91
540.28	39208.65
540.44	39344.41
540.61	39484.84
540.78	39335.04
540.95	39271.85
541.12	38939.49
541.29	39395.90
541.46	39269.51
541.62	39950.60
541.79	39849.96
541.96	39693.15
542.13	39683.78
542.30	39466.11
542.47	39627.61
542.63	40072.31
542.80	39576.12
542.97	40332.11
543.14	40210.40
543.31	40467.86
543.48	40313.39
543.64	41104.49
543.81	40437.44
543.98	40268.92
544.15	40135.51
544.32	40765.11
544.48	40760.43
544.65	40563.82
544.82	40896.18
544.99	40100.40
545.16	40821.28
545.32	40598.93
545.49	41268.33
545.66	41132.57
545.83	41148.96
546.00	41242.58
546.16	41294.07
546.33	40650.42
546.50	40596.59
546.67	40697.24
546.83	40395.31
547.00	40900.86
547.17	40650.42
547.34	40851.71
547.50	41371.31
547.67	41553.87
547.84	41219.17
548.00	41865.16
548.17	41823.03
548.34	41233.22
548.51	41776.22
548.67	41876.86
548.84	41584.30
549.01	41640.47
549.18	41684.94
549.34	41778.56
549.51	41804.31
549.68	41862.82
549.84	41626.43
550.01	41603.02
550.18	41832.39
550.34	41780.90
550.51	41677.92
550.68	41663.88
550.84	41368.97
551.01	41933.04
551.18	41881.55
551.34	41991.55
551.51	41907.29
551.68	42047.72
551.84	41869.84
552.01	41584.30
552.18	42672.65
552.34	41731.75
552.51	42014.96
552.68	41392.37
552.84	42457.32
553.01	42841.17
553.18	42487.74
553.34	42127.30
553.51	42122.62
553.67	42045.38
553.84	42574.34
554.01	42710.10
554.17	42611.79
554.34	42794.36
554.51	42330.93
554.67	42944.15
554.84	42642.22
555.00	42579.03
555.17	43049.47
555.33	42199.86
555.50	42672.65
555.67	42801.38
555.83	42895.00
556.00	43030.75
556.16	43356.08
556.33	43335.02
556.50	42609.45
556.66	42784.99
556.83	43115.01
556.99	43016.71
557.16	43225.01
557.32	43131.39
557.49	42649.24
557.65	42859.89
557.82	42682.01
557.98	43246.08
558.15	43248.42
558.32	43035.43
558.48	43166.50
558.65	43487.15
558.81	43070.54
558.98	43611.20
559.14	43225.01
559.31	43239.06
559.47	43346.72
559.64	43636.95
559.80	43309.27
559.97	43594.82
560.13	43557.37
560.30	42761.59
560.46	43023.73
560.63	43601.84
560.79	43543.33
560.96	43622.90
561.12	43349.06
561.29	43213.31
561.45	43496.52
561.61	43709.50
561.78	43447.36
561.94	43196.93
562.11	43428.64
562.27	43430.98
562.44	43686.10
562.60	43786.74
562.77	44161.23
562.93	43391.19
563.10	43739.93
563.26	43217.99
563.42	43545.67
563.59	43576.09
563.75	43920.15
563.92	43892.07
564.08	43660.35
564.24	43686.10
564.41	43761.00
564.57	43550.35
564.74	44121.44
564.90	44296.98
565.07	44133.14
565.23	43969.30
565.39	43662.69
565.56	44320.38
565.72	43756.32
565.88	43819.51
566.05	44062.93
566.21	43997.39
566.38	43882.70
566.54	43475.45
566.70	44002.07
566.87	43999.73
567.03	44135.48
567.19	44226.76
567.36	44151.87
567.52	44264.21
567.68	44296.98
567.85	44168.25
568.01	43847.60
568.17	43821.85
568.34	44165.91
568.50	44423.37
568.66	44011.43
568.83	44414.01
568.99	43824.19
569.15	44119.10
569.32	43728.23
569.48	43952.92
569.64	44563.80
569.81	43941.22
569.97	43899.09
570.13	43913.13
570.30	43945.90
570.46	44065.27
570.62	43676.74
570.78	43683.76
570.95	44336.77
571.11	44552.10
571.27	44210.38
571.43	44004.41
571.60	44516.99
571.76	43990.37
571.92	44495.92
572.09	44079.31
572.25	43971.64
572.41	43941.22
572.57	44308.68
572.74	44502.95
572.90	44325.07
573.06	44168.25
573.22	44442.09
573.38	44147.18
573.55	43894.41
573.71	45050.63
573.87	44074.63
574.03	43988.03
574.20	44208.04
574.36	44238.47
574.52	44816.58
574.68	44406.98
574.84	44472.52
575.01	43969.30
575.17	44704.23
575.33	44177.61
575.49	44086.33
575.65	44673.81
575.82	44687.85
575.98	44449.11
576.14	44788.49
576.30	44355.49
576.46	44362.51
576.62	44533.37
576.79	44266.55
576.95	44425.71
577.11	43990.37
577.27	44474.86
577.43	44605.93
577.59	44685.51
577.75	44194.00
577.92	44411.67
578.08	44715.93
578.24	43948.24
578.40	44528.69
578.56	44488.90
578.72	44711.25
578.88	44643.38
579.04	44498.26
579.21	44271.23
579.37	44439.75
579.53	44456.14
579.69	44053.56
579.85	44711.25
580.01	44399.96
580.17	44715.93
580.33	44800.19
580.49	44989.78
580.65	44832.96
580.82	44552.10
580.98	44561.46
581.14	44610.61
581.30	44694.87
581.46	44722.96
581.62	44521.67
581.78	44807.22
581.94	44982.76
582.10	44790.83
582.26	44837.64
582.42	44690.19
582.58	44680.83
582.74	44545.08
582.90	44137.82
583.06	45132.55
583.22	44652.74
583.38	44631.68
583.54	44816.58
583.70	44718.28
583.86	44423.37
584.02	44301.66
584.18	44399.96
584.34	44968.71
584.50	44652.74
584.66	44629.34
584.82	44514.65
584.98	44631.68
585.14	45050.63
585.30	44343.79
585.46	44208.04
585.62	44416.35
585.78	44451.45
585.94	44369.54
586.10	44818.92
586.26	44648.06
586.42	44715.93
586.58	44931.26
586.74	44912.54
586.90	44421.03
587.06	44292.30
587.22	44996.80
587.38	44332.09
587.54	45020.20
587.70	45029.57
587.86	44900.84
588.02	44388.26
588.18	45006.16
588.34	45109.14
588.49	44591.89
588.65	44643.38
588.81	44591.89
588.97	44432.73
589.13	44505.29
589.29	44624.65
589.45	44781.47
589.61	44435.07
589.77	44893.82
589.93	44980.42
590.08	45078.72
590.24	44809.56
