SpectraSuite Data File
++++++++++++++++++++++++++++++++++++
Date: Fri Oct 25 10:47:09 EDT 2013
User: price-jones
Dark Spectrum Present: No
Reference Spectrum Present: No
Number of Sampled Component Spectra: 1
Spectrometers: USB2+H05261
Integration Time (usec): 100000 (USB2+H05261)
Spectra Averaged: 1 (USB2+H05261)
Boxcar Smoothing: 0 (USB2+H05261)
Correct for Electrical Dark: No (USB2+H05261)
Strobe/Lamp Enabled: No (USB2+H05261)
Correct for Detector Non-linearity: No (USB2+H05261)
Correct for Stray Light: No (USB2+H05261)
Number of Pixels in Processed Spectrum: 2048
>>>>>Begin Processed Spectral Data<<<<<
365.73	168.52
365.92	168.52
366.12	168.52
366.32	84.26
366.52	39.79
366.72	23.41
366.91	105.32
367.11	11.70
367.31	16.38
367.51	9.36
367.70	46.81
367.90	88.94
368.10	112.35
368.30	0.00
368.49	0.00
368.69	84.26
368.89	77.24
369.09	49.15
369.28	133.41
369.48	65.54
369.68	112.35
369.87	72.56
370.07	126.39
370.27	131.07
370.47	212.99
370.66	348.74
370.86	379.17
371.06	454.06
371.25	463.43
371.45	388.53
371.65	463.43
371.84	458.74
372.04	458.74
372.24	491.51
372.44	456.40
372.63	451.72
372.83	505.56
373.03	524.28
373.22	479.81
373.42	517.26
373.62	543.00
373.81	510.24
374.01	601.52
374.21	578.11
374.40	510.24
374.60	526.62
374.79	447.04
374.99	608.54
375.19	648.33
375.38	528.96
375.58	512.58
375.78	585.13
375.97	582.79
376.17	568.75
376.37	564.07
376.56	482.15
376.76	468.11
376.95	613.22
377.15	662.37
377.35	603.86
377.54	674.07
377.74	594.50
377.93	573.43
378.13	592.16
378.33	692.80
378.52	575.77
378.72	706.84
378.91	631.94
379.11	603.86
379.31	599.18
379.50	578.11
379.70	645.99
379.89	702.16
380.09	713.86
380.28	596.84
380.48	594.50
380.68	622.58
380.87	688.12
381.07	653.01
381.26	667.05
381.46	660.03
381.65	634.29
381.85	704.50
382.04	624.92
382.24	617.90
382.43	681.10
382.63	692.80
382.83	667.05
383.02	674.07
383.22	730.25
383.41	662.37
383.61	716.20
383.80	763.01
384.00	653.01
384.19	770.04
384.39	655.35
384.58	748.97
384.78	711.52
384.97	734.93
385.17	713.86
385.36	737.27
385.56	767.70
385.75	734.93
385.95	788.76
386.14	781.74
386.34	777.06
386.53	786.42
386.72	744.29
386.92	844.93
387.11	755.99
387.31	781.74
387.50	795.78
387.70	798.12
387.89	929.19
388.09	887.06
388.28	870.68
388.48	823.87
388.67	793.44
388.86	898.77
389.06	856.64
389.25	835.57
389.45	915.15
389.64	861.32
389.84	887.06
390.03	964.30
390.22	880.04
390.42	863.66
390.61	868.34
390.81	877.70
391.00	983.02
391.19	910.47
391.39	898.77
391.58	877.70
391.78	908.13
391.97	940.90
392.16	896.43
392.36	1022.81
392.55	957.28
392.75	966.64
392.94	884.72
393.13	980.68
393.33	898.77
393.52	983.02
393.71	987.71
393.91	999.41
394.10	938.55
394.29	1022.81
394.49	1097.71
394.68	994.73
394.88	1095.37
395.07	1097.71
395.26	1050.90
395.46	1083.67
395.65	1076.65
395.84	1069.62
396.04	1149.20
396.23	1095.37
396.42	985.37
396.62	1093.03
396.81	1114.10
397.00	1203.04
397.19	1107.07
397.39	1170.27
397.58	1167.93
397.77	1174.95
397.97	1235.80
398.16	1177.29
398.35	1359.85
398.55	1226.44
398.74	1263.89
398.93	1348.15
399.12	1247.51
399.32	1247.51
399.51	1247.51
399.70	1406.66
399.90	1249.85
400.09	1446.45
400.28	1336.45
400.47	1320.06
400.67	1371.55
400.86	1345.81
401.05	1390.28
401.24	1526.03
401.44	1437.09
401.63	1474.54
401.82	1523.69
402.01	1547.09
402.21	1483.90
402.40	1540.07
402.59	1483.90
402.78	1530.71
402.97	1467.52
403.17	1657.10
403.36	1565.82
403.55	1502.62
403.74	1568.16
403.93	1570.50
404.13	1572.84
404.32	1666.46
404.51	1474.54
404.70	1579.86
404.89	1689.87
405.09	1696.89
405.28	1753.06
405.47	1598.59
405.66	1757.74
405.85	1661.78
406.05	1694.55
406.24	1764.76
406.43	1661.78
406.62	1853.70
406.81	1757.74
407.00	1818.60
407.20	1748.38
407.39	1818.60
407.58	1879.45
407.77	1884.13
407.96	1975.41
408.15	1898.17
408.34	1940.30
408.54	1856.04
408.73	1954.35
408.92	1961.37
409.11	1977.75
409.30	1996.48
409.49	1947.33
409.68	1944.99
409.87	1900.52
410.07	1996.48
410.26	2005.84
410.45	2106.48
410.64	2108.82
410.83	2148.61
411.02	2122.87
411.21	2197.76
411.40	2153.29
411.59	2193.08
411.78	2237.55
411.98	2139.25
412.17	2181.38
412.36	2335.85
412.55	2331.17
412.74	2450.54
412.93	2333.51
413.12	2401.39
413.31	2497.35
413.50	2359.26
413.69	2380.32
413.88	2518.42
414.07	2492.67
414.26	2567.57
414.45	2555.86
414.64	2588.63
414.83	2600.34
415.02	2682.25
415.22	2686.94
415.41	2693.96
415.60	2855.45
415.79	2686.94
415.98	2752.47
416.17	2766.51
416.36	2782.90
416.55	2843.75
416.74	2867.16
416.93	2775.88
417.12	2981.84
417.31	3005.25
417.50	2958.44
417.69	2981.84
417.88	2932.69
418.07	2935.03
418.26	3091.85
418.45	3045.04
418.64	3180.79
418.83	3056.74
419.02	3094.19
419.21	3089.51
419.39	3019.29
419.58	3150.36
419.77	3136.32
419.96	3173.77
420.15	3169.09
420.34	3138.66
420.53	3159.72
420.72	3309.52
420.91	3260.37
421.10	3349.31
421.29	3311.86
421.48	3302.50
421.67	3449.95
421.86	3248.66
422.05	3353.99
422.24	3391.44
422.43	3398.46
422.61	3353.99
422.80	3473.36
422.99	3426.54
423.18	3384.41
423.37	3435.91
423.56	3342.28
423.75	3412.50
423.94	3311.86
424.13	3215.90
424.32	3300.16
424.50	3482.72
424.69	3449.95
424.88	3452.29
425.07	3510.80
425.26	3410.16
425.45	3447.61
425.64	3592.72
425.83	3400.80
426.01	3667.62
426.20	3403.14
426.39	3478.04
426.58	3440.59
426.77	3613.79
426.96	3487.40
427.15	3609.11
427.33	3576.34
427.52	3585.70
427.71	3588.04
427.90	3611.45
428.09	3611.45
428.28	3662.94
428.46	3758.90
428.65	3674.64
428.84	3819.75
429.03	3824.44
429.22	3733.15
429.40	3791.67
429.59	3709.75
429.78	3499.10
429.97	3557.61
430.16	3538.89
430.34	3843.16
430.53	3822.09
430.72	3871.25
430.91	3889.97
431.10	3871.25
431.28	4081.89
431.47	4107.64
431.66	4177.86
431.85	4107.64
432.03	4194.24
432.22	4208.28
432.41	4109.98
432.60	4009.34
432.79	4079.55
432.97	4365.10
433.16	4128.70
433.35	4081.89
433.54	4166.15
433.72	4234.03
433.91	4173.18
434.10	4210.62
434.28	4219.99
434.47	4404.89
434.66	4322.97
434.85	4430.63
435.03	4454.04
435.22	4360.42
435.41	4587.45
435.59	4486.81
435.78	4496.17
435.97	4554.68
436.16	4423.61
436.34	4519.57
436.53	4369.78
436.72	4638.94
436.90	4491.49
437.09	4517.23
437.28	4645.96
437.46	4606.17
437.65	4540.64
437.84	4699.80
438.02	4592.13
438.21	4636.60
438.40	4559.36
438.58	4807.46
438.77	4926.83
438.96	4798.10
439.14	4861.29
439.33	4833.21
439.52	4922.15
439.70	4903.42
439.89	4978.32
440.08	4992.36
440.26	5081.30
440.45	4943.21
440.63	5142.16
440.82	5226.42
441.01	5104.71
441.19	5174.92
441.38	5210.03
441.57	5364.51
441.75	5441.75
441.94	5624.31
442.12	5507.28
442.31	5383.23
442.50	5483.88
442.68	5401.96
442.87	5497.92
443.05	5645.37
443.24	5809.21
443.43	5561.11
443.61	5626.65
443.80	5940.28
443.98	5605.58
444.17	5554.09
444.35	5600.90
444.54	5802.19
444.73	5579.84
444.91	5776.44
445.10	5750.70
445.28	5792.83
445.47	5778.78
445.65	5696.86
445.84	5638.35
446.02	5729.63
446.21	5717.93
446.39	5762.40
446.58	5830.27
446.77	5743.67
446.95	5624.31
447.14	5919.21
447.32	6033.90
447.51	5783.46
447.69	5755.38
447.88	5797.51
448.06	6015.18
448.25	5949.64
448.43	5921.56
448.62	5891.13
448.80	5760.06
448.99	5912.19
449.17	6129.86
449.36	6113.48
449.54	6171.99
449.73	6108.80
449.91	6162.63
450.10	6251.57
450.28	6352.21
450.46	6197.74
450.65	6256.25
450.83	6345.19
451.02	6303.06
451.20	6363.92
451.39	6132.20
451.57	6342.85
451.76	6239.87
451.94	6324.13
452.13	6328.81
452.31	6417.75
452.49	6314.77
452.68	6462.22
452.86	6392.00
453.05	6349.87
453.23	6476.26
453.42	6431.79
453.60	6382.64
453.78	6532.44
453.97	6497.33
454.15	6417.75
454.34	6408.39
454.52	6715.00
454.70	6677.55
454.89	6757.13
455.07	6565.20
455.26	6609.67
455.44	6773.51
455.62	6799.26
455.81	6689.25
455.99	6862.45
456.17	6923.30
456.36	6918.62
456.54	6778.19
456.73	6960.75
456.91	7056.72
457.09	7145.66
457.28	7176.08
457.46	6902.24
457.64	7047.35
457.83	7103.53
458.01	6986.50
458.19	7360.98
458.38	7077.78
458.56	7438.22
458.74	7396.09
458.93	7372.69
459.11	7438.22
459.29	7236.94
459.48	7332.90
459.66	7274.38
459.84	7419.50
460.03	7522.48
460.21	7515.46
460.39	7412.48
460.57	7826.75
460.76	7438.22
460.94	7480.35
461.12	7674.62
461.31	7770.58
461.49	7576.31
461.67	7630.15
461.85	7705.04
462.04	7644.19
462.22	8241.03
462.40	7826.75
462.59	7927.39
462.77	7775.26
462.95	7777.60
463.13	7740.15
463.32	7892.29
463.50	7875.90
463.68	7878.24
463.86	7985.91
464.05	7789.30
464.23	8112.30
464.41	7976.55
464.59	7934.42
464.78	8138.04
464.96	8044.42
465.14	8077.19
465.32	8159.11
465.50	8409.54
465.69	8201.24
465.87	8168.47
466.05	8226.98
466.23	8196.56
466.41	8236.35
466.60	8519.55
466.78	8308.90
466.96	8304.22
467.14	8241.03
467.32	8409.54
467.51	8299.54
467.69	8088.89
467.87	8360.39
468.05	8524.23
468.23	8311.24
468.41	8437.63
468.60	8559.34
468.78	8531.25
468.96	8486.78
469.14	8734.88
469.32	8620.19
469.50	8540.61
469.69	8791.05
469.87	8753.60
470.05	8765.31
470.23	8692.75
470.41	8662.32
470.59	8826.16
470.77	8798.07
470.95	8823.82
471.14	8947.87
471.32	8819.14
471.50	9043.83
471.68	9039.15
471.86	9282.56
472.04	9298.95
472.22	9392.57
472.40	9359.80
472.58	9198.31
472.77	9219.37
472.95	9500.23
473.13	9778.76
473.31	9408.95
473.49	9305.97
473.67	9390.23
473.85	9516.62
474.03	9720.24
474.21	9767.06
474.39	10001.11
474.57	9776.42
474.75	10094.73
474.93	9909.83
475.12	9745.99
475.30	10099.41
475.48	10057.28
475.66	9912.17
475.84	10080.69
476.02	10235.16
476.20	10251.55
476.38	10396.66
476.56	10501.98
476.74	10572.20
476.92	10532.41
477.10	10483.26
477.28	10806.25
477.46	10810.93
477.64	10949.03
477.82	11042.65
478.00	10909.24
478.18	10981.79
478.36	11286.06
478.54	11211.17
478.72	11199.46
478.90	11494.37
479.08	11527.14
479.26	11686.29
479.44	11620.76
479.62	11985.88
479.80	11831.41
479.98	12018.65
480.16	12421.22
480.34	12248.02
480.52	12343.99
480.70	12290.15
480.88	12145.04
481.06	12343.99
481.24	12360.37
481.41	12746.56
481.59	12753.58
481.77	12748.90
481.95	12931.46
482.13	13069.55
482.31	13158.49
482.49	13247.43
482.67	13214.66
482.85	13378.50
483.03	13486.17
483.21	13462.76
483.39	13715.54
483.57	13860.65
483.74	13886.40
483.92	13949.59
484.10	13926.19
484.28	14377.91
484.46	14712.61
484.64	14684.52
484.82	14410.68
485.00	14682.18
485.18	14869.42
485.35	15000.49
485.53	14869.42
485.71	14904.53
485.89	15136.24
486.07	15255.61
486.25	15300.08
486.43	15459.24
486.61	15377.32
486.78	15517.75
486.96	15756.49
487.14	16238.64
487.32	15836.06
487.50	16362.69
487.68	16397.79
487.85	16596.74
488.03	16765.26
488.21	16741.85
488.39	16695.04
488.57	17064.85
488.75	17018.04
488.92	17514.23
489.10	17572.74
489.28	17757.64
489.46	17504.87
489.64	17364.43
489.81	18221.07
489.99	18064.25
490.17	18410.65
490.35	18457.46
490.53	18174.26
490.70	18347.46
490.88	18492.57
491.06	18595.56
491.24	18993.45
491.41	19082.39
491.59	18834.29
491.77	19026.21
491.95	18963.02
492.13	19222.82
492.30	19187.71
492.48	19419.42
492.66	19506.02
492.84	19693.27
493.01	19859.45
493.19	19740.08
493.37	20315.85
493.54	20411.81
493.72	20533.52
493.90	20304.15
494.08	20844.81
494.25	20851.83
494.43	21008.65
494.61	21231.00
494.79	21156.10
494.96	21198.23
495.14	21128.02
495.32	21472.07
495.49	21418.24
495.67	21610.17
495.85	21769.32
496.02	21617.19
496.20	21942.52
496.38	22157.85
496.55	22218.71
496.73	22396.59
496.91	22345.09
497.09	22469.14
497.26	22857.67
497.44	22742.99
497.62	22890.44
497.79	23030.87
497.97	22930.23
498.14	23309.40
498.32	23501.32
498.50	23431.10
498.67	23623.03
498.85	23477.91
499.03	23948.36
499.20	23999.85
499.38	23506.00
499.56	24086.45
499.73	23924.96
499.91	23843.04
500.08	24201.14
500.26	24067.73
500.44	24643.50
500.61	24472.64
500.79	24404.77
500.97	24386.04
501.14	24833.08
501.32	25053.09
501.49	24917.34
501.67	24723.08
501.84	25156.08
502.02	25076.50
502.20	25443.96
502.37	25596.10
502.55	25076.50
502.72	25628.87
502.90	25493.12
503.07	25603.12
503.25	25797.38
503.43	25537.59
503.60	25759.94
503.78	26054.84
503.95	25776.32
504.13	26022.08
504.30	26101.65
504.48	26401.24
504.65	26457.42
504.83	26841.26
505.01	26431.67
505.18	26644.66
505.36	26888.07
505.53	26644.66
505.71	27187.66
505.88	27129.15
506.06	26698.49
506.23	26991.06
506.41	27075.32
506.58	27300.01
506.76	27339.80
506.93	27377.25
507.11	27370.22
507.28	27637.05
507.46	27651.09
507.63	27424.06
507.81	27814.93
507.98	27840.67
508.16	27985.79
508.33	27845.35
508.50	28168.35
508.68	28168.35
508.85	28512.41
509.03	28238.56
509.20	28180.05
509.38	28652.84
509.55	28524.11
509.73	28851.78
509.90	28460.91
510.08	28842.42
510.25	28774.55
510.42	29312.87
510.60	28898.59
510.77	28790.93
510.95	29436.92
511.12	29146.69
511.30	29687.36
511.47	29432.24
511.64	29638.20
511.82	29516.50
511.99	29390.11
512.17	29738.85
512.34	30022.05
512.51	30012.69
512.69	29778.64
512.86	29825.45
513.04	30373.13
513.21	30085.25
513.38	30588.46
513.56	30396.54
513.73	30068.86
513.90	30319.30
514.08	30478.46
514.25	30696.13
514.43	30789.75
514.60	30206.95
514.77	30775.70
514.95	31112.74
515.12	31068.27
515.29	31014.44
515.47	31307.01
515.64	31164.23
515.81	31185.30
515.99	31257.85
516.16	31241.47
516.33	31519.99
516.51	31557.44
516.68	31377.22
516.85	31255.51
517.03	31379.56
517.20	31510.63
517.37	31484.89
517.54	31908.52
517.72	31566.81
517.89	31175.94
518.06	31868.73
518.24	32039.59
518.41	32079.38
518.58	32130.87
518.75	32168.32
518.93	32259.60
519.10	32109.81
519.27	32716.01
519.45	32561.53
519.62	32833.04
519.79	32753.46
519.96	32755.80
520.14	33219.22
520.31	32844.74
520.48	32900.91
520.65	33141.99
520.83	33263.69
521.00	33287.10
521.17	33039.00
521.34	33544.56
521.52	33525.83
521.69	33383.06
521.86	33766.91
522.03	33556.26
522.20	33603.07
522.38	33860.53
522.55	33954.15
522.72	33811.38
522.89	33930.75
523.07	33652.22
523.24	34071.18
523.41	34026.71
523.58	34110.97
523.75	34873.98
523.92	34370.77
524.10	34403.53
524.27	34452.69
524.44	34560.35
524.61	34829.51
524.78	34740.57
524.96	34595.46
525.13	34747.59
525.30	35159.53
525.47	35047.18
525.64	35093.99
525.81	35014.41
525.98	35241.45
526.16	35044.84
526.33	35115.06
526.50	35564.44
526.67	35330.39
526.84	35037.82
527.01	34735.89
527.18	35152.51
527.36	35557.42
527.53	35634.66
527.70	35962.33
527.87	35903.82
528.04	35681.47
528.21	36130.85
528.38	35697.85
528.55	35859.35
528.72	35768.07
528.89	36493.63
529.07	36119.15
529.24	36154.26
529.41	36086.38
529.58	36177.66
529.75	35899.14
529.92	36170.64
530.09	36474.91
530.26	36435.12
530.43	36538.10
530.60	35901.48
530.77	36212.77
530.94	36615.34
531.11	36491.29
531.28	36346.18
531.46	36825.99
531.63	36800.24
531.80	36751.09
531.97	37296.44
532.14	37226.22
532.31	37235.58
532.48	36959.40
532.65	37137.28
532.82	37584.32
532.99	37383.04
533.16	36830.67
533.33	37294.10
533.50	37612.41
533.67	37411.12
533.84	37404.10
534.01	37013.23
534.18	37427.51
534.35	37727.10
534.52	37560.92
534.69	37673.26
534.86	37556.24
535.03	37443.89
535.20	37909.66
535.37	38026.68
535.54	38106.26
535.71	37858.17
535.88	37965.83
536.05	38005.62
536.22	38061.79
536.38	38347.34
536.55	38218.61
536.72	38202.22
536.89	37762.20
537.06	38160.09
537.23	38581.39
537.40	38483.09
537.57	38340.32
537.74	38616.50
537.91	38689.06
538.08	38747.57
538.25	38377.76
538.42	38689.06
538.59	38616.50
538.75	38712.46
538.92	38869.28
539.09	38782.68
539.26	39028.43
539.43	39119.71
539.60	38955.88
539.77	38604.80
539.94	39112.69
540.11	38983.96
540.28	39276.53
540.44	39332.70
540.61	39131.42
540.78	39152.48
540.95	39545.69
541.12	39072.90
541.29	39178.23
541.46	39480.16
541.62	39461.43
541.79	39615.91
541.96	38972.26
542.13	38904.38
542.30	38916.09
542.47	39470.79
542.63	39517.60
542.80	39999.76
542.97	40123.80
543.14	39999.76
543.31	39859.32
543.48	39985.71
543.64	40610.64
543.81	40105.08
543.98	40196.36
544.15	40158.91
544.32	40556.80
544.48	40282.96
544.65	40280.62
544.82	40156.57
544.99	40212.74
545.16	40863.41
545.32	40610.64
545.49	40828.30
545.66	40830.65
545.83	40718.30
546.00	41064.70
546.16	40802.56
546.33	40751.07
546.50	39995.07
546.67	40673.83
546.83	40266.58
547.00	40870.43
547.17	40842.35
547.34	40685.53
547.50	41013.21
547.67	41125.55
547.84	40631.70
548.00	41078.74
548.17	41130.23
548.34	41036.61
548.51	41991.55
548.67	41563.23
548.84	41347.90
549.01	41331.52
549.18	41258.96
549.34	41535.15
549.51	41247.26
549.68	41926.02
549.84	41495.36
550.01	41507.06
550.18	41640.47
550.34	41542.17
550.51	41177.04
550.68	41486.00
550.84	41249.60
551.01	42040.70
551.18	41460.25
551.34	41621.75
551.51	41949.42
551.68	42089.85
551.84	41696.64
552.01	41926.02
552.18	41551.53
552.34	41684.94
552.51	42202.20
552.68	41888.57
552.84	42085.17
553.01	42312.20
553.18	42052.41
553.34	42075.81
553.51	41902.61
553.67	42319.23
553.84	42726.48
554.01	42642.22
554.17	42359.02
554.34	42471.36
554.51	42209.22
554.67	42649.24
554.84	42579.03
555.00	42478.38
555.17	41818.35
555.33	42300.50
555.50	42527.53
555.67	42738.18
555.83	42759.25
556.00	42815.42
556.16	42763.93
556.33	42794.36
556.50	42911.38
556.66	42909.04
556.83	42213.90
556.99	42916.06
557.16	42932.45
557.32	42990.96
557.49	42789.67
557.65	42354.33
557.82	42644.56
557.98	42815.42
558.15	42899.68
558.32	42918.40
558.48	42749.88
558.65	42663.28
558.81	43250.76
558.98	42993.30
559.14	43065.86
559.31	42787.33
559.47	43012.02
559.64	43182.88
559.80	43299.91
559.97	42904.36
560.13	42946.49
560.30	43136.07
560.46	43166.50
560.63	43138.41
560.79	43356.08
560.96	43239.06
561.12	43302.25
561.29	43105.65
561.45	43271.82
561.61	43578.43
561.78	43168.84
561.94	43133.73
562.11	43262.46
562.27	43482.47
562.44	43276.51
562.60	43316.29
562.77	43533.96
562.93	42848.19
563.10	43346.72
563.26	43086.92
563.42	43583.12
563.59	43559.71
563.75	43072.88
563.92	43557.37
564.08	43648.65
564.24	43585.46
564.41	43578.43
564.57	43428.64
564.74	43702.48
564.90	43732.91
565.07	43784.40
565.23	43297.57
565.39	43489.49
565.56	43878.02
565.72	43515.24
565.88	43571.41
566.05	43597.16
566.21	43728.23
566.38	43370.13
566.54	43646.31
566.70	43681.42
566.87	44208.04
567.03	44119.10
567.19	43924.83
567.36	43922.49
567.52	43744.61
567.68	43838.23
567.85	43791.42
568.01	43866.32
568.17	43667.37
568.34	44271.23
568.50	43688.44
568.66	43655.67
568.83	43784.40
568.99	43473.11
569.15	43835.89
569.32	43585.46
569.48	43838.23
569.64	44020.80
569.81	43971.64
569.97	43906.11
570.13	43744.61
570.30	43931.86
570.46	43522.26
570.62	43931.86
570.78	43695.46
570.95	44074.63
571.11	44196.34
571.27	44039.52
571.43	43957.60
571.60	44229.10
571.76	43854.62
571.92	44222.08
572.09	43924.83
572.25	44098.03
572.41	44030.16
572.57	43856.96
572.74	44205.70
572.90	44133.14
573.06	43922.49
573.22	44027.82
573.38	44158.89
573.55	43924.83
573.71	43702.48
573.87	43510.56
574.03	43749.29
574.20	44374.22
574.36	43955.26
574.52	44280.60
574.68	44259.53
574.84	44561.46
575.01	44100.37
575.17	44250.17
575.33	43906.11
575.49	43758.66
575.65	44315.70
575.82	44694.87
575.98	44051.22
576.14	44617.63
576.30	44430.39
576.46	44034.84
576.62	43875.68
576.79	44369.54
576.95	43936.54
577.11	43901.43
577.27	44500.61
577.43	44240.81
577.59	44545.08
577.75	44519.33
577.92	43728.23
578.08	44121.44
578.24	43976.33
578.40	44519.33
578.56	43863.98
578.72	44037.18
578.88	44395.28
579.04	44591.89
579.21	44362.51
579.37	44088.67
579.53	44126.12
579.69	43948.24
579.85	44353.15
580.01	44273.57
580.17	44559.12
580.33	44196.34
580.49	44472.52
580.65	44371.88
580.82	44559.12
580.98	44582.52
581.14	44329.75
581.30	44362.51
581.46	44355.49
581.62	44449.11
581.78	43957.60
581.94	44409.32
582.10	44208.04
582.26	44339.11
582.42	44444.43
582.58	44751.04
582.74	44041.86
582.90	44509.97
583.06	44587.21
583.22	44524.01
583.38	44746.36
583.54	44577.84
583.70	44004.41
583.86	44140.16
584.02	43805.47
584.18	44137.82
584.34	44467.84
584.50	44861.05
584.66	43938.88
584.82	44341.45
584.98	44830.62
585.14	44797.85
585.30	44584.86
585.46	44573.16
585.62	44250.17
585.78	44584.86
585.94	44224.42
586.10	44449.11
586.26	44584.86
586.42	44732.32
586.58	44690.19
586.74	44378.90
586.90	44175.27
587.06	44271.23
587.22	44987.44
587.38	44072.29
587.54	44336.77
587.70	44509.97
587.86	44612.95
588.02	44926.58
588.18	44760.40
588.34	44439.75
588.49	43756.32
588.65	44339.11
588.81	43758.66
588.97	44414.01
589.13	44435.07
589.29	44320.38
589.45	44509.97
589.61	44725.30
589.77	44947.65
589.93	44907.86
590.08	44428.05
590.24	44729.98
590.40	44706.57
