SpectraSuite Data File
++++++++++++++++++++++++++++++++++++
Date: Fri Oct 25 10:48:19 EDT 2013
User: price-jones
Dark Spectrum Present: No
Reference Spectrum Present: No
Number of Sampled Component Spectra: 1
Spectrometers: USB2+H05261
Integration Time (usec): 100000 (USB2+H05261)
Spectra Averaged: 1 (USB2+H05261)
Boxcar Smoothing: 0 (USB2+H05261)
Correct for Electrical Dark: No (USB2+H05261)
Strobe/Lamp Enabled: No (USB2+H05261)
Correct for Detector Non-linearity: No (USB2+H05261)
Correct for Stray Light: No (USB2+H05261)
Number of Pixels in Processed Spectrum: 2048
>>>>>Begin Processed Spectral Data<<<<<
365.73	142.77
365.92	142.77
366.12	142.77
366.32	93.62
366.52	53.83
366.72	86.60
366.91	0.00
367.11	49.15
367.31	0.00
367.51	18.72
367.70	133.41
367.90	53.83
368.10	60.85
368.30	21.06
368.49	23.41
368.69	93.62
368.89	84.26
369.09	18.72
369.28	81.92
369.48	56.17
369.68	67.88
369.87	63.19
370.07	28.09
370.27	168.52
370.47	241.08
370.66	374.49
370.86	444.70
371.06	498.53
371.25	552.37
371.45	482.15
371.65	524.28
371.84	489.17
372.04	505.56
372.24	554.71
372.44	550.03
372.63	535.98
372.83	550.03
373.03	524.28
373.22	489.17
373.42	531.30
373.62	571.09
373.81	552.37
374.01	603.86
374.21	599.18
374.40	580.45
374.60	624.92
374.79	589.82
374.99	655.35
375.19	678.76
375.38	641.31
375.58	685.78
375.78	685.78
375.97	662.37
376.17	690.46
376.37	704.50
376.56	657.69
376.76	606.20
376.95	629.60
377.15	706.84
377.35	795.78
377.54	685.78
377.74	718.54
377.93	695.14
378.13	704.50
378.33	685.78
378.52	645.99
378.72	755.99
378.91	734.93
379.11	676.41
379.31	777.06
379.50	706.84
379.70	737.27
379.89	704.50
380.09	662.37
380.28	732.59
380.48	784.08
380.68	720.88
380.87	739.61
381.07	784.08
381.26	695.14
381.46	744.29
381.65	739.61
381.85	688.12
382.04	699.82
382.24	814.51
382.43	723.23
382.63	732.59
382.83	777.06
383.02	812.17
383.22	711.52
383.41	734.93
383.61	772.38
383.80	868.34
384.00	875.36
384.19	802.80
384.39	840.25
384.58	765.36
384.78	894.08
384.97	840.25
385.17	777.06
385.36	823.87
385.56	891.74
385.75	809.83
385.95	821.53
386.14	837.91
386.34	903.45
386.53	858.98
386.72	877.70
386.92	959.62
387.11	950.26
387.31	933.87
387.50	898.77
387.70	929.19
387.89	896.43
388.09	938.55
388.28	983.02
388.48	1001.75
388.67	1039.20
388.86	964.30
389.06	1013.45
389.25	1027.50
389.45	983.02
389.64	1004.09
389.84	1076.65
390.03	1074.31
390.22	1093.03
390.42	1095.37
390.61	1048.56
390.81	1055.58
391.00	1062.60
391.19	1179.63
391.39	1174.95
391.58	1207.72
391.78	1107.07
391.97	1139.84
392.16	1097.71
392.36	1123.46
392.55	1093.03
392.75	1001.75
392.94	929.19
393.13	1097.71
393.33	1034.52
393.52	1039.20
393.71	1217.08
393.91	1062.60
394.10	1132.82
394.29	1247.51
394.49	1188.99
394.68	1214.74
394.88	1179.63
395.07	1334.11
395.26	1338.79
395.46	1331.76
395.65	1261.55
395.84	1242.82
396.04	1231.12
396.23	1238.14
396.42	1179.63
396.62	1231.12
396.81	1336.45
397.00	1261.55
397.19	1350.49
397.39	1392.62
397.58	1500.28
397.77	1453.47
397.97	1479.22
398.16	1451.13
398.35	1568.16
398.55	1474.54
398.74	1497.94
398.93	1600.93
399.12	1638.38
399.32	1521.35
399.51	1479.22
399.70	1577.52
399.90	1607.95
400.09	1633.69
400.28	1687.53
400.47	1577.52
400.67	1701.57
400.86	1657.10
401.05	1708.59
401.24	1832.64
401.44	1748.38
401.63	1710.93
401.82	1816.26
402.01	1741.36
402.21	1762.42
402.40	1844.34
402.59	1806.89
402.78	1865.41
402.97	1933.28
403.17	1764.76
403.36	1984.77
403.55	2010.52
403.74	1921.58
403.93	1973.07
404.13	1973.07
404.32	1963.71
404.51	1907.54
404.70	2003.50
404.89	1970.73
405.09	2083.08
405.28	1977.75
405.47	1970.73
405.66	2132.23
405.85	1975.41
406.05	2115.84
406.24	2062.01
406.43	2167.34
406.62	2101.80
406.81	2216.49
407.00	2094.78
407.20	2078.40
407.39	2148.61
407.58	2167.34
407.77	2312.45
407.96	2310.11
408.15	2352.24
408.34	2385.01
408.54	2363.94
408.73	2434.16
408.92	2389.69
409.11	2448.20
409.30	2513.74
409.49	2387.35
409.68	2445.86
409.87	2368.62
410.07	2455.22
410.26	2441.18
410.45	2490.33
410.64	2541.82
410.83	2726.72
411.02	2595.65
411.21	2808.64
411.40	2581.61
411.59	2656.51
411.78	2689.28
411.98	2719.70
412.17	2818.00
412.36	2874.18
412.55	2813.32
412.74	2633.10
412.93	2869.50
413.12	2836.73
413.31	3105.89
413.50	3033.33
413.69	2899.92
413.88	3049.72
414.07	3016.95
414.26	3049.72
414.45	3009.93
414.64	3016.95
414.83	3265.05
415.02	3232.28
415.22	3133.98
415.41	3211.22
415.60	3204.19
415.79	3187.81
415.98	3293.13
416.17	3307.18
416.36	3410.16
416.55	3300.16
416.74	3421.86
416.93	3435.91
417.12	3283.77
417.31	3513.14
417.50	3361.01
417.69	3496.76
417.88	3625.49
418.07	3545.91
418.26	3637.19
418.45	3632.51
418.64	3772.94
418.83	3784.65
419.02	3726.13
419.21	3684.00
419.39	3658.26
419.58	3616.13
419.77	3571.66
419.96	3768.26
420.15	3880.61
420.34	3847.84
420.53	3901.67
420.72	3960.19
420.91	3941.46
421.10	3946.14
421.29	3964.87
421.48	3889.97
421.67	3955.51
421.86	3857.20
422.05	3941.46
422.24	3943.80
422.43	3882.95
422.61	4128.70
422.80	4093.60
422.99	4117.00
423.18	4095.94
423.37	4063.17
423.56	4086.58
423.75	4088.92
423.94	4112.32
424.13	3801.03
424.32	3971.89
424.50	4170.83
424.69	4128.70
424.88	4203.60
425.07	4133.39
425.26	4016.36
425.45	4044.45
425.64	4011.68
425.83	4063.17
426.01	4079.55
426.20	4290.20
426.39	4018.70
426.58	4018.70
426.77	4156.79
426.96	4170.83
427.15	4170.83
427.33	4304.25
427.52	4117.00
427.71	4322.97
427.90	4390.84
428.09	4421.27
428.28	4348.72
428.46	4285.52
428.65	4283.18
428.84	4524.26
429.03	4528.94
429.22	4329.99
429.40	4145.09
429.59	4313.61
429.78	4166.15
429.97	4119.34
430.16	4065.51
430.34	4077.21
430.53	4177.86
430.72	4264.46
430.91	4351.06
431.10	4550.00
431.28	4826.18
431.47	4805.12
431.66	4833.21
431.85	4582.77
432.03	4704.48
432.22	4788.74
432.41	4819.16
432.60	4924.49
432.79	4835.55
432.97	4929.17
433.16	4798.10
433.35	4807.46
433.54	4774.69
433.72	4856.61
433.91	4945.55
434.10	4924.49
434.28	4770.01
434.47	5069.60
434.66	5097.69
434.85	4994.70
435.03	5069.60
435.22	5132.79
435.41	5387.91
435.59	5228.76
435.78	5413.66
435.97	5444.09
436.16	5373.87
436.34	5460.47
436.53	5345.78
436.72	5472.17
436.90	5181.95
437.09	5387.91
437.28	5284.93
437.46	5313.02
437.65	5476.85
437.84	5474.51
438.02	5341.10
438.21	5268.55
438.40	5434.72
438.58	5612.60
438.77	5586.86
438.96	5738.99
439.14	5795.17
439.33	5762.40
439.52	5853.68
439.70	5600.90
439.89	5907.51
440.08	5729.63
440.26	5893.47
440.45	5764.74
440.63	6019.86
440.82	6200.08
441.01	6202.42
441.19	6225.82
441.38	6443.49
441.57	6389.66
441.75	6349.87
441.94	6555.84
442.12	6544.14
442.31	6633.08
442.50	6586.27
442.68	6527.75
442.87	6511.37
443.05	6576.91
443.24	6642.44
443.43	6623.72
443.61	6640.10
443.80	6813.30
443.98	6633.08
444.17	6387.32
444.35	6677.55
444.54	6825.00
444.73	6773.51
444.91	6588.61
445.10	6569.88
445.28	6600.31
445.47	6513.71
445.65	6356.90
445.84	6913.94
446.02	6902.24
446.21	6801.60
446.39	6717.34
446.58	6909.26
446.77	7117.57
446.95	6839.05
447.14	6960.75
447.32	7019.27
447.51	6733.72
447.69	6869.47
447.88	6967.77
448.06	6913.94
448.25	6843.73
448.43	6951.39
448.62	7061.40
448.80	6733.72
448.99	7021.61
449.17	7239.28
449.36	7075.44
449.54	7213.53
449.73	7272.04
449.91	7412.48
450.10	7473.33
450.28	7384.39
450.46	7419.50
450.65	7417.16
450.83	7566.95
451.02	7370.35
451.20	7541.21
451.39	7644.19
451.57	7681.64
451.76	7482.69
451.94	7499.08
452.13	7676.96
452.31	7393.75
452.49	7419.50
452.68	7316.51
452.86	7569.29
453.05	7756.54
453.23	7438.22
453.42	7412.48
453.60	7665.25
453.78	7707.38
453.97	7513.12
454.15	7616.10
454.34	7627.81
454.52	7845.48
454.70	7744.83
454.89	7854.84
455.07	7761.22
455.26	8035.06
455.44	7985.91
455.62	8079.53
455.81	7934.42
455.99	8156.77
456.17	8152.09
456.36	8215.28
456.54	8226.98
456.73	8184.85
456.91	8449.33
457.09	8531.25
457.28	8554.66
457.46	8390.82
457.64	8411.89
457.83	8332.31
458.01	8276.13
458.19	8470.40
458.38	8381.46
458.56	8510.19
458.74	8730.20
458.93	8418.91
459.11	8552.32
459.29	8482.10
459.48	8592.11
459.66	8664.66
459.84	8758.28
460.03	8739.56
460.21	8568.70
460.39	8718.50
460.57	8793.39
460.76	8748.92
460.94	9090.64
461.12	8968.93
461.31	8910.42
461.49	8851.91
461.67	8994.68
461.85	9123.41
462.04	8879.99
462.22	9500.23
462.40	9430.02
462.59	9116.39
462.77	9064.89
462.95	9170.22
463.13	9088.30
463.32	8973.61
463.50	9542.36
463.68	9291.93
463.86	9291.93
464.05	9291.93
464.23	9067.24
464.41	9331.72
464.59	9202.99
464.78	9563.43
464.96	9455.76
465.14	9427.68
465.32	9535.34
465.50	9598.54
465.69	9563.43
465.87	9610.24
466.05	9427.68
466.23	9619.60
466.41	9460.45
466.60	9678.12
466.78	9530.66
466.96	9366.82
467.14	9767.06
467.32	9760.03
467.51	9750.67
467.69	9652.37
467.87	9713.22
468.05	9820.89
468.23	9785.78
468.41	9860.68
468.60	9755.35
468.78	9830.25
468.96	9846.63
469.14	10012.81
469.32	10176.65
469.50	9909.83
469.69	10080.69
469.87	10183.67
470.05	9916.85
470.23	10202.40
470.41	10289.00
470.59	10183.67
470.77	10345.17
470.95	10272.61
471.14	10366.23
471.32	10340.49
471.50	10782.85
471.68	10619.01
471.86	10530.07
472.04	10611.99
472.22	10792.21
472.40	10764.12
472.58	10801.57
472.77	10876.47
472.95	10951.37
473.13	11194.78
473.31	10953.71
473.49	11014.56
473.67	11012.22
473.85	11246.27
474.03	11328.19
474.21	11391.39
474.39	11339.90
474.57	11412.45
474.75	11417.13
474.93	11346.92
475.12	11468.62
475.30	11639.48
475.48	11761.19
475.66	11843.11
475.84	11524.80
476.02	11751.83
476.20	11693.32
476.38	11969.50
476.56	12262.07
476.74	12238.66
476.92	12294.83
477.10	12198.87
477.28	12486.76
477.46	12304.20
477.64	12486.76
477.82	12898.69
478.00	13006.36
478.18	13029.76
478.36	12947.84
478.54	13055.51
478.72	13289.56
478.90	13214.66
479.08	13657.03
479.26	13572.77
479.44	13671.07
479.62	13638.30
479.80	13668.73
479.98	13788.10
480.16	14073.64
480.34	14083.00
480.52	14284.29
480.70	14235.14
480.88	14085.34
481.06	14139.18
481.24	14331.10
481.41	14789.85
481.59	14815.59
481.77	14721.97
481.95	15014.54
482.13	14913.89
482.31	15000.49
482.49	15442.85
482.67	15255.61
482.85	15484.98
483.03	15676.91
483.21	15796.28
483.39	15990.54
483.57	15749.46
483.74	15971.82
483.92	16100.55
484.10	16098.20
484.28	16196.51
484.46	16631.85
484.64	17064.85
484.82	16287.79
485.00	16631.85
485.18	17041.44
485.35	17018.04
485.53	16460.99
485.71	16681.00
485.89	16957.18
486.07	16872.92
486.25	17280.18
486.43	17326.99
486.61	17486.14
486.78	17542.32
486.96	17933.18
487.14	18078.30
487.32	18197.67
487.50	18548.75
487.68	18724.29
487.85	18780.46
488.03	19000.47
488.21	19257.93
488.39	19220.48
488.57	18892.80
488.75	19386.66
488.92	19587.94
489.10	19744.76
489.28	20004.56
489.46	20299.47
489.64	20238.61
489.81	20594.37
489.99	20748.85
490.17	20805.02
490.35	21067.16
490.53	20964.18
490.70	21355.05
490.88	21242.70
491.06	21759.96
491.24	21429.94
491.41	21191.21
491.59	21521.23
491.77	21160.78
491.95	21357.39
492.13	21951.88
492.30	22057.21
492.48	22497.23
492.66	22258.49
492.84	22520.63
493.01	23047.26
493.19	22494.89
493.37	22995.76
493.54	22965.34
493.72	23206.41
493.90	23529.41
494.08	23473.23
494.25	23784.52
494.43	24030.28
494.61	24079.43
494.79	24254.97
494.96	24163.69
495.14	24030.28
495.32	24339.23
495.49	24336.89
495.67	24421.15
495.85	24910.32
496.02	24617.75
496.20	24884.58
496.38	25195.87
496.55	25266.08
496.73	25671.00
496.91	25441.62
497.09	26008.03
497.26	25891.01
497.44	25862.92
497.62	25998.67
497.79	26015.05
497.97	25825.47
498.14	25986.97
498.32	26082.93
498.50	26494.86
498.67	26852.97
498.85	26757.00
499.03	26654.02
499.20	27091.70
499.38	27197.02
499.56	27140.85
499.73	27456.82
499.91	27185.32
500.08	27716.62
500.26	27295.33
500.44	27164.26
500.61	27702.58
500.79	27346.82
500.97	27772.80
501.14	28273.67
501.32	27634.71
501.49	27929.61
501.67	28283.03
501.84	28325.16
502.02	28336.87
502.20	28896.25
502.37	28489.00
502.55	28886.89
502.72	29343.30
502.90	28519.43
503.07	28816.68
503.25	28912.64
503.43	28987.53
503.60	28793.27
503.78	28929.02
503.95	28858.81
504.13	29270.74
504.30	29724.80
504.48	29102.22
504.65	30078.22
504.83	29846.51
505.01	30054.82
505.18	29940.13
505.36	30382.49
505.53	30349.73
505.71	30614.21
505.88	30635.27
506.06	30331.00
506.23	30504.20
506.41	29942.47
506.58	31033.16
506.76	30506.54
506.93	31236.79
507.11	30967.63
507.28	30960.61
507.46	30937.20
507.63	31019.12
507.81	31089.34
507.98	31335.09
508.16	31197.00
508.33	31660.43
508.50	31725.96
508.68	31704.90
508.85	32060.66
509.03	32086.40
509.20	31770.43
509.38	32404.72
509.55	32549.83
509.73	32180.03
509.90	32547.49
510.08	32299.39
510.25	32259.60
510.42	32048.96
510.60	32425.78
510.77	32858.78
510.95	33305.82
511.12	32821.33
511.30	33013.26
511.47	33376.04
511.64	33261.35
511.82	33338.59
511.99	33008.58
512.17	33352.63
512.34	32910.27
512.51	33825.42
512.69	33514.13
512.86	33809.04
513.04	34017.35
513.21	34043.09
513.38	34045.43
513.56	33769.25
513.73	33479.02
513.90	34015.01
514.08	33933.09
514.25	34148.42
514.43	34277.15
514.60	34068.84
514.77	34075.86
514.95	34291.19
515.12	34806.11
515.29	34438.64
515.47	34871.64
515.64	34881.00
515.81	35054.20
515.99	34466.73
516.16	34548.65
516.33	34181.18
516.51	34476.09
516.68	34232.68
516.85	34094.58
517.03	34733.55
517.20	34974.63
517.37	35222.72
517.54	35091.65
517.72	35407.62
517.89	34960.58
518.06	34941.86
518.24	35185.27
518.41	35091.65
518.58	35557.42
518.75	35576.14
518.93	36154.26
519.10	35761.05
519.27	36030.21
519.45	35627.63
519.62	36369.58
519.79	36105.10
519.96	36587.25
520.14	36912.59
520.31	36655.13
520.48	36797.90
520.65	36563.85
520.83	37038.98
521.00	36978.12
521.17	36650.45
521.34	37048.34
521.52	37132.60
521.69	37359.63
521.86	37275.37
522.03	37378.36
522.20	37493.04
522.38	37092.81
522.55	37357.29
522.72	37322.18
522.89	37401.76
523.07	37862.85
523.24	37474.32
523.41	37900.29
523.58	37684.97
523.75	38223.29
523.92	37869.87
524.10	38546.28
524.27	38286.48
524.44	38162.43
524.61	38513.52
524.78	38632.88
524.96	38632.88
525.13	38511.17
525.30	39028.43
525.47	39246.10
525.64	38820.13
525.81	38761.61
525.98	38246.69
526.16	38354.36
526.33	38286.48
526.50	38806.08
526.67	38433.94
526.84	38169.46
527.01	38457.34
527.18	38686.71
527.36	38930.13
527.53	39407.60
527.70	39356.11
527.87	39154.82
528.04	39438.03
528.21	39206.31
528.38	39117.37
528.55	39831.24
528.72	40013.80
528.89	39852.30
529.07	39941.24
529.24	39522.29
529.41	40273.60
529.58	39868.69
529.75	39517.60
529.92	39945.92
530.09	40147.21
530.26	40512.33
530.43	40243.17
530.60	40226.79
530.77	40076.99
530.94	40718.30
531.11	40170.61
531.28	41160.66
531.46	40318.07
531.63	40566.16
531.80	40409.35
531.97	40601.27
532.14	40524.04
532.31	40278.28
532.48	40437.44
532.65	40898.52
532.82	40407.01
532.99	40545.10
533.16	40643.40
533.33	40685.53
533.50	41031.93
533.67	41177.04
533.84	41062.36
534.01	41043.63
534.18	41493.02
534.35	41607.70
534.52	41516.42
534.69	41345.56
534.86	41567.91
535.03	41329.18
535.20	41832.39
535.37	41439.18
535.54	41998.57
535.71	42003.25
535.88	41457.91
536.05	41832.39
536.22	41909.63
536.38	42003.25
536.55	41804.31
536.72	41752.82
536.89	41422.80
537.06	41481.31
537.23	41661.54
537.40	42302.84
537.57	42169.43
537.74	42373.06
537.91	42396.46
538.08	42199.86
538.25	42326.25
538.42	42597.75
538.59	42234.97
538.75	42211.56
538.92	42380.08
539.09	42632.86
539.26	42270.08
539.43	42480.72
539.60	42326.25
539.77	42391.78
539.94	42651.58
540.11	42384.76
540.28	42543.92
540.44	42260.71
540.61	42618.81
540.78	42417.53
540.95	42433.91
541.12	42892.66
541.29	42899.68
541.46	42735.84
541.62	43005.00
541.79	43213.31
541.96	42691.37
542.13	42883.30
542.30	43316.29
542.47	43126.71
542.63	43065.86
542.80	43077.56
542.97	43274.16
543.14	43880.36
543.31	43714.19
543.48	44116.76
543.64	44018.46
543.81	43821.85
543.98	44194.00
544.15	43920.15
544.32	44013.77
544.48	44376.56
544.65	43962.28
544.82	44243.15
544.99	43849.94
545.16	43761.00
545.32	43831.21
545.49	44339.11
545.66	44357.83
545.83	44020.80
546.00	44636.36
546.16	44186.97
546.33	43971.64
546.50	44130.80
546.67	44076.97
546.83	44088.67
547.00	44685.51
547.17	44748.70
547.34	44109.74
547.50	44147.18
547.67	44641.04
547.84	44502.95
548.00	44793.17
548.17	44622.31
548.34	44446.77
548.51	44975.73
548.67	44765.09
548.84	44666.78
549.01	45076.38
549.18	44954.67
549.34	44982.76
549.51	44914.88
549.68	44861.05
549.84	44868.07
550.01	44968.71
550.18	45092.76
550.34	44933.60
550.51	45050.63
550.68	45031.91
550.84	44371.88
551.01	45148.93
551.18	45155.96
551.34	45071.70
551.51	45434.48
551.68	45296.39
551.84	45411.07
552.01	45439.16
552.18	45495.33
552.34	45198.09
552.51	45352.56
552.68	45291.71
552.84	45605.34
553.01	45832.37
553.18	45645.13
553.34	45338.52
553.51	45392.35
553.67	45804.28
553.84	45703.64
554.01	46010.25
554.17	45841.73
554.34	45986.85
554.51	45415.76
554.67	46038.34
554.84	46036.00
555.00	45703.64
555.17	45319.79
555.33	46021.95
555.50	45942.38
555.67	46003.23
555.83	45762.15
556.00	46127.28
556.16	46265.37
556.33	45937.69
556.50	46085.15
556.66	46155.36
556.83	45897.91
556.99	46241.96
557.16	46014.93
557.32	46057.06
557.49	46307.50
557.65	45729.39
557.82	46094.51
557.98	46033.66
558.15	45869.82
558.32	46415.16
558.48	46160.05
558.65	46087.49
558.81	46391.76
558.98	46391.76
559.14	45991.53
559.31	46344.95
559.47	46536.87
559.64	46286.43
559.80	46719.43
559.97	46508.79
560.13	46316.86
560.30	46274.73
560.46	46501.76
560.63	46347.29
560.79	46513.47
560.96	46773.27
561.12	46630.49
561.29	46497.08
561.45	46518.15
561.61	46445.59
561.78	46241.96
561.94	46302.82
562.11	46763.90
562.27	46010.25
562.44	46571.98
562.60	47072.85
562.77	46522.83
562.93	46340.27
563.10	46843.48
563.26	46260.69
563.42	46660.92
563.59	46696.03
563.75	46316.86
563.92	46763.90
564.08	47131.37
564.24	47232.01
564.41	46791.99
564.57	46967.53
564.74	46686.67
564.90	46801.35
565.07	46476.02
565.23	46607.09
565.39	46644.54
565.56	46909.02
565.72	46588.36
565.88	46848.16
566.05	46927.74
566.21	46866.89
566.38	46728.80
566.54	46934.76
566.70	47161.79
566.87	47157.11
567.03	47054.13
567.19	47023.70
567.36	46857.52
567.52	46925.40
567.68	46909.02
567.85	46890.29
568.01	46726.46
568.17	46876.25
568.34	47129.03
568.50	47189.88
568.66	46843.48
568.83	46794.33
568.99	46820.08
569.15	46777.95
569.32	47093.92
569.48	46684.33
569.64	46983.91
569.81	47199.24
569.97	47026.04
570.13	46880.93
570.30	46422.19
570.46	46857.52
570.62	46883.27
570.78	46490.06
570.95	46937.10
571.11	47210.95
571.27	47002.64
571.43	46560.28
571.60	47206.26
571.76	47178.18
571.92	46920.72
572.09	47351.38
572.25	47049.45
572.41	47091.58
572.57	47232.01
572.74	47482.45
572.90	47459.04
573.06	47114.98
573.22	47255.42
573.38	47215.63
573.55	46944.12
573.71	47140.73
573.87	46656.24
574.03	46925.40
574.20	47194.56
574.36	46904.34
574.52	47105.62
574.68	47004.98
574.84	47276.48
575.01	47082.22
575.17	47061.15
575.33	47136.05
575.49	47091.58
575.65	47356.06
575.82	47587.77
575.98	46803.69
576.14	47667.35
576.30	47407.55
576.46	47138.39
576.62	47304.57
576.79	47133.71
576.95	46740.50
577.11	47023.70
577.27	47253.08
577.43	47208.61
577.59	47351.38
577.75	46581.34
577.92	46976.89
578.08	46859.87
578.24	47007.32
578.40	47140.73
578.56	47210.95
578.72	46916.04
578.88	47014.34
579.04	46986.25
579.21	47189.88
579.37	47096.26
579.53	47100.94
579.69	46747.52
579.85	47374.78
580.01	47215.63
580.17	46976.89
580.33	47377.12
580.49	47033.07
580.65	47449.68
580.82	47555.00
580.98	47325.63
581.14	47182.86
581.30	47398.19
581.46	47625.22
581.62	47072.85
581.78	47107.96
581.94	47566.71
582.10	47405.21
582.26	47437.98
582.42	47105.62
582.58	47767.99
582.74	46806.03
582.90	47543.30
583.06	47391.17
583.22	47573.73
583.38	47576.07
583.54	47557.35
583.70	47311.59
583.86	47559.69
584.02	47192.22
584.18	47714.16
584.34	47173.50
584.50	47276.48
584.66	47070.51
584.82	47381.80
584.98	47508.19
585.14	47004.98
585.30	47140.73
585.46	47714.16
585.62	46892.63
585.78	47131.37
585.94	46883.27
586.10	47096.26
586.26	47012.00
586.42	47676.71
586.58	47313.93
586.74	47304.57
586.90	47002.64
587.06	47229.67
587.22	47526.92
587.38	46972.21
587.54	47665.01
587.70	47367.76
587.86	47260.10
588.02	47402.87
588.18	47068.17
588.34	47459.04
588.49	47154.77
588.65	46663.26
588.81	46990.94
588.97	46930.08
589.13	46817.74
589.29	46848.16
589.45	47356.06
589.61	47580.75
589.77	47498.83
