SpectraSuite Data File
++++++++++++++++++++++++++++++++++++
Date: Fri Oct 25 11:25:58 EDT 2013
User: price-jones
Dark Spectrum Present: No
Reference Spectrum Present: No
Number of Sampled Component Spectra: 1
Spectrometers: USB2+H05261
Integration Time (usec): 100000 (USB2+H05261)
Spectra Averaged: 1 (USB2+H05261)
Boxcar Smoothing: 0 (USB2+H05261)
Correct for Electrical Dark: No (USB2+H05261)
Strobe/Lamp Enabled: No (USB2+H05261)
Correct for Detector Non-linearity: No (USB2+H05261)
Correct for Stray Light: No (USB2+H05261)
Number of Pixels in Processed Spectrum: 2048
>>>>>Begin Processed Spectral Data<<<<<
365.73	241.08
365.92	241.08
366.12	241.08
366.32	198.95
366.52	173.20
366.72	175.54
366.91	100.64
367.11	126.39
367.31	147.45
367.51	102.98
367.70	95.96
367.90	112.35
368.10	84.26
368.30	163.84
368.49	79.58
368.69	194.26
368.89	182.56
369.09	95.96
369.28	187.24
369.48	248.10
369.68	222.35
369.87	198.95
370.07	194.26
370.27	280.86
370.47	325.33
370.66	620.24
370.86	620.24
371.06	669.39
371.25	779.40
371.45	641.31
371.65	784.08
371.84	634.29
372.04	674.07
372.24	695.14
372.44	692.80
372.63	650.67
372.83	739.61
373.03	751.31
373.22	695.14
373.42	751.31
373.62	751.31
373.81	828.55
374.01	760.67
374.21	802.80
374.40	812.17
374.60	828.55
374.79	802.80
374.99	777.06
375.19	784.08
375.38	847.27
375.58	821.53
375.78	903.45
375.97	870.68
376.17	915.15
376.37	814.51
376.56	798.12
376.76	936.21
376.95	884.72
377.15	910.47
377.35	880.04
377.54	931.53
377.74	837.91
377.93	910.47
378.13	952.60
378.33	1015.79
378.52	943.24
378.72	983.02
378.91	922.17
379.11	999.41
379.31	957.28
379.50	1001.75
379.70	952.60
379.89	1006.43
380.09	987.71
380.28	947.92
380.48	987.71
380.68	976.00
380.87	1039.20
381.07	1039.20
381.26	1100.05
381.46	985.37
381.65	983.02
381.85	1004.09
382.04	1046.22
382.24	1097.71
382.43	1057.92
382.63	1090.69
382.83	1081.33
383.02	1088.35
383.22	1109.41
383.41	1158.57
383.61	1078.99
383.80	1170.27
384.00	1144.52
384.19	1170.27
384.39	1268.57
384.58	1132.82
384.78	1139.84
384.97	1217.08
385.17	1146.86
385.36	1060.26
385.56	1184.31
385.75	1118.78
385.95	1093.03
386.14	1200.69
386.34	1121.12
386.53	1158.57
386.72	1259.21
386.92	1252.19
387.11	1313.04
387.31	1287.29
387.50	1156.22
387.70	1324.74
387.89	1268.57
388.09	1240.48
388.28	1240.48
388.48	1294.32
388.67	1390.28
388.86	1299.00
389.06	1394.96
389.25	1420.71
389.45	1329.42
389.64	1245.16
389.84	1425.39
390.03	1338.79
390.22	1376.24
390.42	1357.51
390.61	1336.45
390.81	1399.64
391.00	1329.42
391.19	1448.79
391.39	1401.98
391.58	1376.24
391.78	1474.54
391.97	1348.15
392.16	1394.96
392.36	1600.93
392.55	1509.65
392.75	1490.92
392.94	1427.73
393.13	1441.77
393.33	1572.84
393.52	1589.22
393.71	1575.18
393.91	1708.59
394.10	1544.75
394.29	1561.14
394.49	1542.41
394.68	1614.97
394.88	1603.27
395.07	1671.14
395.26	1654.76
395.46	1692.21
395.65	1739.02
395.84	1797.53
396.04	1739.02
396.23	1802.21
396.42	1722.63
396.62	1764.76
396.81	1717.95
397.00	1750.72
397.19	1792.85
397.39	1708.59
397.58	1930.94
397.77	1811.57
397.97	1839.66
398.16	1825.62
398.35	1837.32
398.55	1870.09
398.74	1858.39
398.93	2017.54
399.12	1996.48
399.32	1963.71
399.51	1842.00
399.70	1970.73
399.90	1870.09
400.09	2054.99
400.28	2118.18
400.47	2019.88
400.67	2052.65
400.86	2080.74
401.05	2043.29
401.24	1975.41
401.44	2113.50
401.63	2132.23
401.82	2162.66
402.01	2092.44
402.21	2179.04
402.40	2188.40
402.59	2141.59
402.78	2193.08
402.97	2202.44
403.17	2275.00
403.36	2277.34
403.55	2347.56
403.74	2319.47
403.93	2382.67
404.13	2377.98
404.32	2300.75
404.51	2385.01
404.70	2303.09
404.89	2485.65
405.09	2473.95
405.28	2495.01
405.47	2499.69
405.66	2471.61
405.85	2516.08
406.05	2495.01
406.24	2597.99
406.43	2614.38
406.62	2649.49
406.81	2532.46
407.00	2502.03
407.20	2558.21
407.39	2668.21
407.58	2644.81
407.77	2670.55
407.96	2796.94
408.15	2731.41
408.34	2771.19
408.54	2836.73
408.73	2810.98
408.92	2696.30
409.11	2724.38
409.30	2836.73
409.49	2853.11
409.68	2918.65
409.87	2970.14
410.07	2977.16
410.26	3077.80
410.45	2960.78
410.64	3119.93
410.83	2995.89
411.02	2972.48
411.21	3089.51
411.40	3288.45
411.59	3171.43
411.78	3166.74
411.98	3157.38
412.17	3290.79
412.36	3307.18
412.55	3300.16
412.74	3377.39
412.93	3419.52
413.12	3377.39
413.31	3555.27
413.50	3471.01
413.69	3363.35
413.88	3653.58
414.07	3419.52
414.26	3700.39
414.45	3751.88
414.64	3700.39
414.83	3765.92
415.02	3674.64
415.22	3819.75
415.41	3819.75
415.60	3866.56
415.79	3915.72
415.98	3985.93
416.17	3978.91
416.36	3960.19
416.55	3889.97
416.74	4070.19
416.93	4030.40
417.12	3960.19
417.31	4098.28
417.50	4198.92
417.69	4250.41
417.88	4208.28
418.07	4201.26
418.26	4379.14
418.45	4229.35
418.64	4458.72
418.83	4479.79
419.02	4463.40
419.21	4517.23
419.39	4444.68
419.58	4287.86
419.77	4435.32
419.96	4573.41
420.15	4638.94
420.34	4540.64
420.53	4706.82
420.72	4643.62
420.91	4683.41
421.10	4713.84
421.29	4814.48
421.48	4624.90
421.67	4753.63
421.86	4732.56
422.05	4865.97
422.24	4732.56
422.43	4816.82
422.61	4849.59
422.80	5055.56
422.99	4966.62
423.18	5097.69
423.37	4957.25
423.56	4938.53
423.75	4870.65
423.94	4798.10
424.13	4582.77
424.32	4828.53
424.50	4940.87
424.69	5100.03
424.88	4992.36
425.07	5039.17
425.26	4929.17
425.45	4891.72
425.64	4952.57
425.83	4938.53
426.01	5018.11
426.20	5050.88
426.39	5160.88
426.58	4894.06
426.77	5090.67
426.96	5195.99
427.15	5186.63
427.33	5268.55
427.52	5184.29
427.71	5294.29
427.90	5357.49
428.09	5277.91
428.28	5287.27
428.46	5270.89
428.65	5305.99
428.84	5514.30
429.03	5453.45
429.22	5308.34
429.40	5439.40
429.59	5535.37
429.78	5291.95
429.97	5341.10
430.16	5572.82
430.34	5687.50
430.53	5769.42
430.72	5650.05
430.91	5591.54
431.10	5624.31
431.28	5841.98
431.47	5762.40
431.66	5809.21
431.85	5710.91
432.03	5902.83
432.22	5809.21
432.41	5802.19
432.60	5942.62
432.79	5891.13
432.97	6059.65
433.16	6015.18
433.35	5811.55
433.54	6036.24
433.72	6157.95
433.91	6181.35
434.10	6092.41
434.28	6148.59
434.47	6211.78
434.66	6307.74
434.85	6324.13
435.03	6537.12
435.22	6087.73
435.41	6487.96
435.59	6356.90
435.78	6420.09
435.97	6483.28
436.16	6242.21
436.34	6321.79
436.53	6441.15
436.72	6637.76
436.90	6553.50
437.09	6595.63
437.28	6511.37
437.46	6544.14
437.65	6590.95
437.84	6820.32
438.02	6623.72
438.21	6843.73
438.40	6663.51
438.58	6946.71
438.77	7066.08
438.96	6892.88
439.14	6958.41
439.33	7204.17
439.52	7225.23
439.70	7204.17
439.89	7325.88
440.08	7435.88
440.26	7363.33
440.45	7239.28
440.63	7407.80
440.82	7581.00
441.01	7506.10
441.19	7595.04
441.38	7672.28
441.57	7632.49
441.75	7714.41
441.94	7971.86
442.12	8009.31
442.31	7985.91
442.50	7899.31
442.68	7889.95
442.87	7887.61
443.05	8009.31
443.24	8205.92
443.43	8224.64
443.61	8084.21
443.80	8451.67
443.98	7925.05
444.17	7756.54
444.35	8362.73
444.54	8315.92
444.73	8336.99
444.91	8524.23
445.10	8308.90
445.28	8362.73
445.47	8360.39
445.65	8393.16
445.84	8425.93
446.02	8533.59
446.21	8456.36
446.39	8542.96
446.58	8500.83
446.77	8468.06
446.95	8163.79
447.14	8423.59
447.32	8446.99
447.51	8601.47
447.69	8355.71
447.88	8470.40
448.06	8575.72
448.25	8540.61
448.43	8610.83
448.62	8519.55
448.80	8559.34
448.99	8793.39
449.17	9022.77
449.36	8772.33
449.54	8681.05
449.73	9006.38
449.91	9102.34
450.10	8922.12
450.28	8917.44
450.46	9282.56
450.65	9081.28
450.83	8936.17
451.02	8997.02
451.20	9327.03
451.39	8997.02
451.57	9121.07
451.76	9296.61
451.94	9186.60
452.13	9217.03
452.31	8980.64
452.49	9100.00
452.68	9394.91
452.86	9352.78
453.05	9362.14
453.23	9448.74
453.42	9411.29
453.60	9345.76
453.78	9376.19
453.97	9348.10
454.15	9338.74
454.34	9359.80
454.52	9696.84
454.70	9643.01
454.89	9923.87
455.07	9757.69
455.26	9870.04
455.44	9958.98
455.62	9898.13
455.81	9895.78
455.99	9973.02
456.17	10073.67
456.36	10040.90
456.54	10239.84
456.73	10399.00
456.91	10420.06
457.09	10396.66
457.28	10548.79
457.46	10221.12
457.64	10656.46
457.83	10492.62
458.01	10452.83
458.19	10707.95
458.38	10424.75
458.56	10686.89
458.74	10576.88
458.93	10689.23
459.11	10668.16
459.29	10801.57
459.48	10436.45
459.66	10794.55
459.84	10841.36
460.03	11147.97
460.21	10883.49
460.39	10897.53
460.57	11145.63
460.76	11084.78
460.94	11452.24
461.12	11250.96
461.31	10932.64
461.49	11286.06
461.67	10752.42
461.85	11487.35
462.04	11400.75
462.22	11791.62
462.40	11683.95
462.59	11477.99
462.77	11440.54
462.95	11332.87
463.13	11580.97
463.32	11550.54
463.50	11470.97
463.68	11702.68
463.86	11826.73
464.05	11541.18
464.23	11702.68
464.41	11953.12
464.59	11627.78
464.78	12042.06
464.96	11800.98
465.14	12187.17
465.32	12112.27
465.50	12044.40
465.69	12187.17
465.87	12006.95
466.05	12030.35
466.23	11976.52
466.41	12374.41
466.60	12355.69
466.78	12102.91
466.96	12311.22
467.14	12128.66
467.32	12390.80
467.51	12636.55
467.69	11971.84
467.87	12402.50
468.05	12594.42
468.23	12250.36
468.41	12414.20
468.60	12613.15
468.78	12688.04
468.96	12556.97
469.14	12697.41
469.32	12884.65
469.50	12589.74
469.69	12940.82
469.87	13013.38
470.05	12938.48
470.23	12957.21
470.41	13172.54
470.59	13378.50
470.77	13123.38
470.95	13345.73
471.14	13490.85
471.32	13221.69
471.50	13434.68
471.68	13706.18
471.86	13551.70
472.04	13738.94
472.22	14019.81
472.40	13900.44
472.58	13741.29
472.77	14181.31
472.95	14174.28
473.13	14485.58
473.31	13980.02
473.49	14111.09
473.67	14176.62
473.85	14389.61
474.03	14445.79
474.21	14417.70
474.39	14728.99
474.57	14602.60
474.75	14813.25
474.93	14862.40
475.12	14691.54
475.30	15094.11
475.48	14862.40
475.66	14988.79
475.84	15211.14
476.02	15442.85
476.20	15632.44
476.38	15714.36
476.56	15740.10
476.74	15894.58
476.92	15594.99
477.10	15740.10
477.28	16018.63
477.46	16166.08
477.64	16217.57
477.82	16528.86
478.00	16542.91
478.18	16788.66
478.36	16816.75
478.54	17212.30
478.72	17259.11
478.90	17359.75
479.08	17488.48
479.26	17930.84
479.44	17734.24
479.62	17813.82
479.80	18015.10
479.98	17958.93
480.16	18735.99
480.34	18242.14
480.52	18504.28
480.70	18291.29
480.88	18225.75
481.06	18717.26
481.24	18623.64
481.41	19129.20
481.59	19351.55
481.77	19278.99
481.95	19506.02
482.13	19447.51
482.31	19749.44
482.49	20086.48
482.67	19889.87
482.85	20381.38
483.03	20311.17
483.21	20500.75
483.39	20987.58
483.57	20723.10
483.74	21116.31
483.92	21310.58
484.10	21181.85
484.28	21881.67
484.46	21806.77
484.64	22363.82
484.82	21916.78
485.00	22022.10
485.18	22588.51
485.35	22932.57
485.53	22504.25
485.71	22960.66
485.89	23632.39
486.07	23105.77
486.25	23538.77
486.43	23428.76
486.61	23667.50
486.78	23943.68
486.96	23985.81
487.14	24629.46
487.32	24795.64
487.50	24837.76
487.68	24800.32
487.85	25200.55
488.03	25568.01
488.21	25940.16
488.39	25673.34
488.57	25633.55
488.75	25989.31
488.92	26160.17
489.10	26675.09
489.28	26604.87
489.46	27164.26
489.64	26904.46
489.81	27262.56
489.99	27400.65
490.17	27618.32
490.35	28044.30
490.53	28067.70
490.70	28056.00
490.88	28409.42
491.06	28723.05
491.24	28704.33
491.41	28709.01
491.59	29156.05
491.77	29455.64
491.95	29406.49
492.13	29818.42
492.30	29949.50
492.48	29759.91
492.66	30490.16
492.84	30139.08
493.01	30724.21
493.19	30883.37
493.37	30838.90
493.54	31290.62
493.72	31426.37
493.90	31508.29
494.08	31644.04
494.25	32079.38
494.43	31662.77
494.61	32393.01
494.79	32662.18
494.96	32257.26
495.14	32390.67
495.32	33039.00
495.49	32755.80
495.67	33095.18
495.85	33420.51
496.02	33535.20
496.20	33773.93
496.38	33919.04
496.55	34235.02
496.73	35061.22
496.91	34405.88
497.09	34775.68
497.26	35063.57
497.44	34370.77
497.62	35440.39
497.79	35824.24
497.97	35629.98
498.14	35665.08
498.32	35861.69
498.50	35976.37
498.67	36605.98
498.85	36086.38
499.03	36350.86
499.20	36479.59
499.38	37017.91
499.56	36603.64
499.73	37329.20
499.91	36734.71
500.08	37614.75
500.26	36917.27
500.44	37769.22
500.61	37745.82
500.79	37989.24
500.97	38068.81
501.14	38480.75
501.32	38501.81
501.49	38670.33
501.67	38838.85
501.84	38993.32
502.02	38543.94
502.20	39028.43
502.37	39290.57
502.55	38850.55
502.72	39477.82
502.90	39620.59
503.07	39580.80
503.25	39452.07
503.43	39370.15
503.60	40016.14
503.78	40320.41
503.95	39941.24
504.13	40184.66
504.30	40498.29
504.48	40140.19
504.65	40561.48
504.83	40996.82
505.01	41074.06
505.18	41113.85
505.36	41778.56
505.53	41401.74
505.71	41507.06
505.88	41834.74
506.06	41425.14
506.23	41659.20
506.41	41511.74
506.58	41804.31
506.76	42335.61
506.93	42319.23
507.11	41816.01
507.28	42417.53
507.46	42499.45
507.63	42698.39
507.81	43007.34
507.98	42447.96
508.16	42972.24
508.33	43592.48
508.50	43414.60
508.68	43335.02
508.85	43810.15
509.03	44119.10
509.20	44020.80
509.38	44662.10
509.55	44371.88
509.73	44472.52
509.90	44341.45
510.08	44334.43
510.25	44638.70
510.42	44301.66
510.60	44893.82
510.77	44938.29
510.95	45336.18
511.12	45111.49
511.30	45116.17
511.47	45261.28
511.64	45359.58
511.82	45813.65
511.99	45558.53
512.17	45743.43
512.34	46213.88
512.51	46298.14
512.69	45993.87
512.86	46380.06
513.04	46621.13
513.21	46763.90
513.38	46483.04
513.56	47065.83
513.73	46827.10
513.90	46724.11
514.08	46333.24
514.25	47203.92
514.43	47105.62
514.60	47402.87
514.77	47185.20
514.95	47700.12
515.12	47248.39
515.29	47636.92
515.47	48072.26
515.64	48285.25
515.81	47833.53
515.99	48271.21
516.16	48086.31
516.33	48296.95
516.51	48425.68
516.68	48463.13
516.85	48114.39
517.03	48900.81
517.20	49010.82
517.37	48641.01
517.54	48507.60
517.72	48917.20
517.89	49006.14
518.06	48814.21
518.24	48631.65
518.41	49193.38
518.58	49125.50
518.75	49088.06
518.93	49947.03
519.10	49212.10
519.27	49581.91
519.45	49745.75
519.62	49900.22
519.79	49963.42
519.96	49787.88
520.14	49916.61
520.31	50092.15
520.48	50110.87
520.65	50255.98
520.83	50820.05
521.00	50667.92
521.17	50284.07
521.34	50637.49
521.52	50733.45
521.69	50831.75
521.86	50810.69
522.03	51379.44
522.20	51189.86
522.38	51522.21
522.55	51363.06
522.72	51330.29
522.89	51250.71
523.07	51241.35
523.24	51147.73
523.41	51807.76
523.58	51330.29
523.75	51627.54
523.92	51538.60
524.10	51714.14
524.27	51608.81
524.44	52034.79
524.61	52093.30
524.78	52069.90
524.96	52154.16
525.13	52212.67
525.30	52280.55
525.47	52425.66
525.64	52285.23
525.81	52811.85
525.98	52669.08
526.16	52364.81
526.33	52317.99
526.50	52924.19
526.67	52486.51
526.84	52814.19
527.01	52868.02
527.18	52996.75
527.36	52835.25
527.53	53095.05
527.70	53467.20
527.87	53441.45
528.04	53174.63
528.21	53265.91
528.38	53308.04
528.55	53584.22
528.72	53418.05
528.89	53420.39
529.07	53303.36
529.24	53584.22
529.41	53565.50
529.58	53755.08
529.75	53661.46
529.92	53504.65
530.09	53703.59
530.26	53790.19
530.43	53961.05
530.60	53806.58
530.77	53734.02
530.94	54117.87
531.11	53801.89
531.28	54129.57
531.46	54138.93
531.63	53947.01
531.80	53968.07
531.97	54190.42
532.14	54314.47
532.31	53986.80
532.48	54513.42
532.65	54578.95
532.82	54452.56
532.99	54894.92
533.16	54417.46
533.33	54759.17
533.50	54607.04
533.67	54859.82
533.84	54862.16
534.01	54834.07
534.18	54913.65
534.35	55229.62
534.52	54988.55
534.69	55126.64
534.86	55341.97
535.03	55033.02
535.20	55178.13
535.37	55253.03
535.54	55379.42
535.71	55105.57
535.88	55498.78
536.05	55327.92
536.22	55679.00
536.38	55456.65
536.55	55386.44
536.72	55552.62
536.89	55346.65
537.06	55735.18
537.23	55714.11
537.40	55625.17
537.57	55517.51
537.74	55767.94
537.91	55941.14
538.08	55929.44
538.25	55683.69
538.42	55826.46
538.59	56278.18
538.75	55810.07
538.92	55913.06
539.09	56065.19
539.26	55821.78
539.43	56034.77
539.60	56388.19
539.77	56385.85
539.94	56610.54
540.11	56250.09
540.28	56280.52
540.44	56172.86
540.61	56516.92
540.78	56484.15
540.95	56446.70
541.12	56229.03
541.29	56367.12
541.46	56512.23
541.62	56619.90
541.79	56811.82
541.96	56259.46
542.13	56327.33
542.30	56725.22
542.47	56816.50
542.63	56956.94
542.80	57130.14
542.97	56879.70
543.14	57099.71
543.31	56980.34
543.48	57174.61
543.64	57441.43
543.81	57277.59
543.98	57205.03
544.15	57268.23
544.32	57432.07
544.48	57453.13
544.65	57200.35
544.82	57291.63
544.99	57104.39
545.16	57537.39
545.32	57378.23
545.49	57579.52
545.66	57846.34
545.83	57614.63
546.00	57818.25
546.16	57502.28
546.33	57675.48
546.50	57539.73
546.67	57954.00
546.83	57513.98
547.00	57865.06
547.17	57586.54
547.34	57783.15
547.50	57682.50
547.67	58251.25
547.84	57848.68
548.00	58038.26
548.17	58258.27
548.34	58129.54
548.51	58291.04
548.67	58178.70
548.84	57975.07
549.01	58099.12
549.18	57932.94
549.34	58213.80
549.51	58478.28
549.68	58258.27
549.84	58394.03
550.01	58387.00
550.18	58349.56
550.34	58251.25
550.51	58422.11
550.68	58211.46
550.84	58391.68
551.01	58532.12
551.18	58361.26
551.34	58541.48
551.51	58436.16
551.68	58389.34
551.84	58623.40
552.01	58349.56
552.18	58475.94
552.34	58604.67
552.51	58557.86
552.68	58532.12
552.84	58508.71
553.01	58915.96
553.18	58812.98
553.34	58857.45
553.51	58616.38
553.67	58784.90
553.84	58979.16
554.01	58731.06
554.17	58965.12
554.34	58911.28
554.51	58892.56
554.67	58883.20
554.84	59166.40
555.00	58969.80
555.17	58822.34
555.33	59068.10
555.50	58901.92
555.67	58904.26
555.83	58941.71
556.00	59058.74
556.16	59468.33
556.33	59208.53
556.50	59250.66
556.66	59346.62
556.83	59180.45
556.99	59269.39
557.16	59456.63
557.32	59360.67
557.49	59543.23
557.65	59262.36
557.82	59309.18
557.98	59276.41
558.15	59351.30
558.32	59419.18
558.48	59391.09
558.65	59302.15
558.81	59388.75
558.98	59330.24
559.14	59449.61
559.31	59449.61
559.47	59414.50
559.64	59608.76
559.80	59543.23
559.97	59674.30
560.13	59559.61
560.30	59737.49
560.46	59611.10
560.63	59758.56
560.79	59709.41
560.96	59803.03
561.12	59664.94
561.29	59765.58
561.45	59639.19
561.61	59704.73
561.78	59604.08
561.94	59662.60
562.11	59866.22
562.27	60179.85
562.44	59976.23
562.60	59791.33
562.77	59945.80
562.93	59910.69
563.10	60044.10
563.26	59810.05
563.42	60161.13
563.59	59873.24
563.75	59931.76
563.92	59959.84
564.08	59964.52
564.24	60154.11
564.41	60020.70
564.57	60020.70
564.74	59985.59
564.90	60140.07
565.07	59994.95
565.23	60062.83
565.39	60088.57
565.56	60158.79
565.72	60072.19
565.88	60154.11
566.05	59962.18
566.21	59964.52
566.38	60205.60
566.54	60296.88
566.70	60107.30
566.87	60273.48
567.03	60037.08
567.19	60451.36
567.36	60151.77
567.52	60097.94
567.68	60315.61
567.85	60147.09
568.01	60390.50
568.17	60371.78
568.34	60463.06
568.50	60217.30
568.66	60229.01
568.83	60430.29
568.99	60238.37
569.15	60275.82
569.32	60519.23
569.48	60268.79
569.64	60439.65
569.81	60413.91
569.97	60324.97
570.13	60575.40
570.30	60498.17
570.46	60423.27
570.62	60666.69
570.78	60498.17
570.95	60381.14
571.11	60535.62
571.27	60364.76
571.43	60479.44
571.60	60619.88
571.76	60439.65
571.92	60439.65
572.09	60514.55
572.25	60577.75
572.41	60526.25
572.57	60563.70
572.74	60860.95
572.90	60395.18
573.06	60378.80
573.22	60542.64
573.38	60722.86
573.55	60521.57
573.71	60657.32
573.87	60781.37
574.03	60559.02
574.20	60659.66
574.36	60544.98
574.52	60708.82
574.68	60645.62
574.84	60748.60
575.01	60966.27
575.17	60699.45
575.33	60446.68
575.49	60554.34
575.65	60601.15
575.82	60809.46
575.98	60795.42
576.14	60917.12
576.30	60750.94
576.46	60537.96
576.62	60739.24
576.79	60743.92
576.95	60584.77
577.11	60692.43
577.27	60748.60
577.43	60837.54
577.59	60556.68
577.75	60650.30
577.92	60666.69
578.08	60643.28
578.24	60704.13
578.40	60959.25
578.56	60898.40
578.72	60718.18
578.88	60912.44
579.04	61003.72
579.21	60910.10
579.37	61172.24
579.53	60985.00
579.69	60617.53
579.85	60680.73
580.01	60825.84
580.17	60633.92
580.33	60788.39
580.49	61041.17
580.65	60764.99
580.82	60905.42
580.98	60779.03
581.14	60896.06
581.30	60963.93
581.46	60931.17
581.62	60870.31
581.78	60830.52
581.94	60893.72
582.10	60837.54
582.26	60917.12
582.42	60853.93
582.58	60797.76
582.74	60697.11
582.90	60992.02
583.06	60985.00
583.22	60685.41
583.38	60715.84
583.54	60807.12
583.70	60994.36
583.86	60903.08
584.02	60804.78
584.18	60999.04
584.34	60907.76
584.50	61029.47
584.66	60837.54
584.82	60839.89
584.98	61064.58
585.14	60938.19
585.30	60793.07
585.46	60975.64
585.62	60931.17
585.78	60851.59
585.94	60694.77
586.10	60954.57
586.26	60924.14
586.42	60963.93
586.58	61123.09
586.74	61043.51
586.90	60975.64
587.06	61076.28
587.22	61027.13
587.38	60970.96
587.54	61190.97
587.70	61190.97
587.86	61027.13
588.02	60912.44
588.18	61073.94
588.34	60977.98
588.49	60938.19
