SpectraSuite Data File
++++++++++++++++++++++++++++++++++++
Date: Fri Oct 25 11:26:39 EDT 2013
User: price-jones
Dark Spectrum Present: No
Reference Spectrum Present: No
Number of Sampled Component Spectra: 1
Spectrometers: USB2+H05261
Integration Time (usec): 100000 (USB2+H05261)
Spectra Averaged: 1 (USB2+H05261)
Boxcar Smoothing: 0 (USB2+H05261)
Correct for Electrical Dark: No (USB2+H05261)
Strobe/Lamp Enabled: No (USB2+H05261)
Correct for Detector Non-linearity: No (USB2+H05261)
Correct for Stray Light: No (USB2+H05261)
Number of Pixels in Processed Spectrum: 2048
>>>>>Begin Processed Spectral Data<<<<<
365.73	212.99
365.92	212.99
366.12	212.99
366.32	152.13
366.52	198.95
366.72	229.37
366.91	138.09
367.11	161.50
367.31	149.79
367.51	105.32
367.70	182.56
367.90	198.95
368.10	194.26
368.30	140.43
368.49	70.22
368.69	170.86
368.89	145.11
369.09	142.77
369.28	152.13
369.48	142.77
369.68	152.13
369.87	236.39
370.07	245.76
370.27	259.80
370.47	313.63
370.66	552.37
370.86	657.69
371.06	674.07
371.25	730.25
371.45	681.10
371.65	732.59
371.84	702.16
372.04	664.71
372.24	725.57
372.44	727.91
372.63	791.10
372.83	779.40
373.03	800.46
373.22	671.73
373.42	758.33
373.62	755.99
373.81	781.74
374.01	812.17
374.21	812.17
374.40	877.70
374.60	861.32
374.79	844.93
374.99	802.80
375.19	788.76
375.38	887.06
375.58	873.02
375.78	880.04
375.97	866.00
376.17	929.19
376.37	854.30
376.56	842.59
376.76	858.98
376.95	901.11
377.15	938.55
377.35	994.73
377.54	870.68
377.74	1020.47
377.93	933.87
378.13	835.57
378.33	905.79
378.52	875.36
378.72	1025.15
378.91	950.26
379.11	875.36
379.31	990.05
379.50	1006.43
379.70	1034.52
379.89	992.39
380.09	1083.67
380.28	954.94
380.48	1029.84
380.68	997.07
380.87	959.62
381.07	1020.47
381.26	992.39
381.46	1039.20
381.65	1064.94
381.85	1055.58
382.04	1029.84
382.24	1062.60
382.43	1071.97
382.63	1053.24
382.83	1048.56
383.02	1081.33
383.22	1104.73
383.41	997.07
383.61	1062.60
383.80	1074.31
384.00	1184.31
384.19	1118.78
384.39	1174.95
384.58	1196.01
384.78	1135.16
384.97	1144.52
385.17	1186.65
385.36	1135.16
385.56	1144.52
385.75	1088.35
385.95	1238.14
386.14	1200.69
386.34	1144.52
386.53	1252.19
386.72	1214.74
386.92	1350.49
387.11	1322.40
387.31	1259.21
387.50	1268.57
387.70	1252.19
387.89	1252.19
388.09	1397.30
388.28	1287.29
388.48	1317.72
388.67	1338.79
388.86	1210.06
389.06	1275.59
389.25	1306.02
389.45	1390.28
389.64	1315.38
389.84	1411.34
390.03	1359.85
390.22	1455.81
390.42	1425.39
390.61	1404.32
390.81	1446.45
391.00	1465.18
391.19	1423.05
391.39	1453.47
391.58	1416.02
391.78	1547.09
391.97	1411.34
392.16	1519.01
392.36	1643.06
392.55	1467.52
392.75	1579.86
392.94	1659.44
393.13	1600.93
393.33	1540.07
393.52	1575.18
393.71	1586.88
393.91	1647.74
394.10	1600.93
394.29	1556.46
394.49	1633.69
394.68	1682.85
394.88	1624.33
395.07	1732.00
395.26	1743.70
395.46	1629.01
395.65	1734.34
395.84	1703.91
396.04	1722.63
396.23	1741.36
396.42	1753.06
396.62	1842.00
396.81	1870.09
397.00	1746.04
397.19	1743.70
397.39	1851.36
397.58	1874.77
397.77	1867.75
397.97	1926.26
398.16	1839.66
398.35	1907.54
398.55	1816.26
398.74	1930.94
398.93	1853.70
399.12	1914.56
399.32	1844.34
399.51	1898.17
399.70	1940.30
399.90	2078.40
400.09	2115.84
400.28	2083.08
400.47	2003.50
400.67	2146.27
400.86	2092.44
401.05	2143.93
401.24	2118.18
401.44	2122.87
401.63	2141.59
401.82	2111.16
402.01	2200.10
402.21	2176.70
402.40	2225.85
402.59	2249.25
402.78	2289.04
402.97	2223.51
403.17	2188.40
403.36	2258.62
403.55	2296.07
403.74	2296.07
403.93	2342.88
404.13	2345.22
404.32	2317.13
404.51	2427.14
404.70	2448.20
404.89	2427.14
405.09	2429.48
405.28	2455.22
405.47	2509.05
405.66	2581.61
405.85	2583.95
406.05	2572.25
406.24	2509.05
406.43	2539.48
406.62	2553.52
406.81	2621.40
407.00	2595.65
407.20	2565.23
407.39	2513.74
407.58	2686.94
407.77	2703.32
407.96	2836.73
408.15	2733.75
408.34	2759.49
408.54	2895.24
408.73	2857.79
408.92	2799.28
409.11	2963.12
409.30	2932.69
409.49	3005.25
409.68	2869.50
409.87	2897.58
410.07	3007.59
410.26	3002.91
410.45	3047.38
410.64	2949.08
410.83	3080.14
411.02	3049.72
411.21	3136.32
411.40	3204.19
411.59	3274.41
411.78	3307.18
411.98	3236.96
412.17	3293.13
412.36	3321.22
412.55	3417.18
412.74	3353.99
412.93	3463.99
413.12	3328.24
413.31	3536.55
413.50	3574.00
413.69	3403.14
413.88	3438.25
414.07	3417.18
414.26	3737.84
414.45	3726.13
414.64	3779.97
414.83	3730.81
415.02	3791.67
415.22	3983.59
415.41	3763.58
415.60	3695.71
415.79	3875.93
415.98	4065.51
416.17	4077.21
416.36	4100.62
416.55	4133.39
416.74	4072.53
416.93	3992.95
417.12	4088.92
417.31	4248.07
417.50	4264.46
417.69	4252.75
417.88	4313.61
418.07	4252.75
418.26	4255.09
418.45	4271.48
418.64	4442.34
418.83	4484.47
419.02	4505.53
419.21	4587.45
419.39	4704.48
419.58	4519.57
419.77	4461.06
419.96	4610.86
420.15	4697.46
420.34	4554.68
420.53	4669.37
420.72	4739.58
420.91	4856.61
421.10	4772.35
421.29	4919.81
421.48	4758.31
421.67	4840.23
421.86	4706.82
422.05	4751.29
422.24	4833.21
422.43	4802.78
422.61	4901.08
422.80	4929.17
422.99	4898.74
423.18	5060.24
423.37	5013.43
423.56	5032.15
423.75	4954.91
423.94	4880.02
424.13	4690.43
424.32	4781.71
424.50	5123.43
424.69	5259.18
424.88	5083.64
425.07	5093.01
425.26	4950.23
425.45	5057.90
425.64	5043.85
425.83	4975.98
426.01	4964.28
426.20	5123.43
426.39	5006.41
426.58	5064.92
426.77	5205.35
426.96	5130.45
427.15	5153.86
427.33	5263.86
427.52	5121.09
427.71	5249.82
427.90	5401.96
428.09	5441.75
428.28	5383.23
428.46	5371.53
428.65	5486.22
428.84	5455.79
429.03	5547.07
429.22	5479.19
429.40	5462.81
429.59	5324.72
429.78	5277.91
429.97	5097.69
430.16	5579.84
430.34	5703.89
430.53	5678.14
430.72	5708.57
430.91	5823.25
431.10	5589.20
431.28	5715.59
431.47	5788.14
431.66	5863.04
431.85	5668.78
432.03	6127.52
432.22	6045.60
432.41	5949.64
432.60	5937.94
432.79	5930.92
432.97	6080.71
433.16	6188.38
433.35	6071.35
433.54	6087.73
433.72	6232.85
433.91	6179.01
434.10	6136.88
434.28	6146.25
434.47	6167.31
434.66	6204.76
434.85	6333.49
435.03	6394.34
435.22	6190.72
435.41	6445.84
435.59	6375.62
435.78	6504.35
435.97	6492.65
436.16	6518.39
436.34	6546.48
436.53	6537.12
436.72	6707.98
436.90	6560.52
437.09	6686.91
437.28	6537.12
437.46	6506.69
437.65	6551.16
437.84	6789.89
438.02	6745.42
438.21	6782.87
438.40	6616.69
438.58	6993.52
438.77	7110.55
438.96	7000.54
439.14	7180.76
439.33	7265.02
439.52	7192.47
439.70	7435.88
439.89	7351.62
440.08	7318.86
440.26	7510.78
440.45	7440.56
440.63	7461.63
440.82	7946.12
441.01	7602.06
441.19	7611.42
441.38	7648.87
441.57	7581.00
441.75	7911.01
441.94	8032.72
442.12	8105.28
442.31	8107.62
442.50	8058.46
442.68	8067.83
442.87	8035.06
443.05	8173.15
443.24	8278.47
443.43	8168.47
443.61	8367.42
443.80	8393.16
443.98	8035.06
444.17	7833.77
444.35	8124.00
444.54	8498.49
444.73	8360.39
444.91	8449.33
445.10	8500.83
445.28	8332.31
445.47	8273.79
445.65	8430.61
445.84	8395.50
446.02	8755.94
446.21	8458.70
446.39	8493.80
446.58	8559.34
446.77	8421.25
446.95	8379.12
447.14	8549.98
447.32	8685.73
447.51	8578.06
447.69	8767.65
447.88	8514.87
448.06	8542.96
448.25	8587.43
448.43	8669.34
448.62	8664.66
448.80	8557.00
448.99	8585.08
449.17	8671.68
449.36	8767.65
449.54	8741.90
449.73	8919.78
449.91	9149.15
450.10	9102.34
450.28	9296.61
450.46	9280.22
450.65	8840.20
450.83	9123.41
451.02	9055.53
451.20	9195.96
451.39	9282.56
451.57	9195.96
451.76	9165.54
451.94	9282.56
452.13	9525.98
452.31	9238.09
452.49	9128.09
452.68	9296.61
452.86	9483.85
453.05	9408.95
453.23	9511.94
453.42	9415.98
453.60	9469.81
453.78	9507.26
453.97	9437.04
454.15	9469.81
454.34	9575.13
454.52	9783.44
454.70	9736.63
454.89	9823.23
455.07	9729.61
455.26	9933.23
455.44	10094.73
455.62	10015.15
455.81	9879.40
455.99	10003.45
456.17	10265.59
456.36	10181.33
456.54	10289.00
456.73	10424.75
456.91	10401.34
457.09	10307.72
457.28	10527.73
457.46	10443.47
457.64	10562.84
457.83	10553.48
458.01	10492.62
458.19	10607.31
458.38	10583.90
458.56	10630.71
458.74	10703.27
458.93	10780.51
459.11	10967.75
459.29	10656.46
459.48	10740.72
459.66	10909.24
459.84	10904.56
460.03	11101.16
460.21	11073.07
460.39	10995.84
460.57	11108.18
460.76	11304.79
460.94	11272.02
461.12	11108.18
461.31	11316.49
461.49	11466.28
461.67	11396.07
461.85	11517.78
462.04	11342.24
462.22	11470.97
462.40	11545.86
462.59	11405.43
462.77	11705.02
462.95	11454.58
463.13	11676.93
463.32	11719.06
463.50	11667.57
463.68	11929.71
463.86	11885.24
464.05	11744.81
464.23	11604.38
464.41	11712.04
464.59	12191.85
464.78	12315.90
464.96	11957.80
465.14	12126.32
465.32	12180.15
465.50	12140.36
465.69	12154.40
465.87	12091.21
466.05	12336.96
466.23	12355.69
466.41	12299.52
466.60	12540.59
466.78	12292.49
466.96	12301.86
467.14	12198.87
467.32	12489.10
467.51	12716.13
467.69	12208.23
467.87	12437.61
468.05	12753.58
468.23	12615.49
468.41	12676.34
468.60	12622.51
468.78	12751.24
468.96	12751.24
469.14	12842.52
469.32	12896.35
469.50	12578.04
469.69	13036.78
469.87	13406.59
470.05	13078.91
470.23	13373.82
470.41	13170.19
470.59	13301.26
470.77	13413.61
470.95	13369.14
471.14	13472.12
471.32	13198.28
471.50	13657.03
471.68	13720.22
471.86	13795.12
472.04	13671.07
472.22	13860.65
472.40	13827.88
472.58	13982.36
472.77	14122.79
472.95	14059.60
473.13	14712.61
473.31	14188.33
473.49	14408.34
473.67	14101.73
473.85	14422.38
474.03	14869.42
474.21	14609.62
474.39	15042.62
474.57	14736.01
474.75	14909.21
474.93	14864.74
475.12	15103.48
475.30	15194.76
475.48	14998.15
475.66	15377.32
475.84	15250.93
476.02	15585.63
476.20	15728.40
476.38	15815.00
476.56	16011.60
476.74	16107.57
476.92	16255.02
477.10	15707.34
477.28	16191.83
477.46	16353.32
477.64	16439.92
477.82	16617.80
478.00	17125.70
478.18	16996.97
478.36	17003.99
478.54	17284.86
478.72	17331.67
478.90	17422.95
479.08	17362.09
479.26	17586.79
479.44	17589.13
479.62	17991.70
479.80	18082.98
479.98	18443.42
480.16	18633.00
480.34	18305.33
480.52	18441.08
480.70	18743.01
480.88	18754.71
481.06	18684.50
481.24	19239.20
481.41	19154.94
481.59	19302.40
481.77	19534.11
481.95	19709.65
482.13	19688.59
482.31	19840.72
482.49	20297.13
482.67	19988.18
482.85	20514.80
483.03	20575.65
483.21	21060.14
483.39	20980.56
483.57	21013.33
483.74	21305.90
483.92	21387.82
484.10	21341.00
484.28	21809.11
484.46	22043.17
484.64	22391.91
484.82	22141.47
485.00	22427.01
485.18	22761.71
485.35	22948.95
485.53	22955.97
485.71	23239.18
485.89	23864.10
486.07	23494.30
486.25	23194.71
486.43	23410.04
486.61	23857.08
486.78	24247.95
486.96	24460.94
487.14	24552.22
487.32	25191.19
487.50	24744.14
487.68	25137.35
487.85	25525.88
488.03	25596.10
488.21	25956.54
488.39	25958.88
488.57	26106.34
488.75	26602.53
488.92	26522.95
489.10	26829.56
489.28	26717.22
489.46	27321.07
489.64	26735.94
489.81	27793.86
489.99	28016.21
490.17	27924.93
490.35	28252.61
490.53	28472.62
490.70	28442.19
490.88	28414.10
491.06	28884.55
491.24	28912.64
491.41	29039.03
491.59	29495.43
491.77	29256.70
491.95	29715.44
492.13	29710.76
492.30	29965.88
492.48	29972.90
492.66	30185.89
492.84	30670.38
493.01	30813.15
493.19	30773.36
493.37	31079.97
493.54	31555.10
493.72	31611.28
493.90	31580.85
494.08	31737.66
494.25	31957.67
494.43	32341.52
494.61	32521.74
494.79	32561.53
494.96	32458.55
495.14	32570.90
495.32	33528.17
495.49	33266.03
495.67	33399.44
495.85	33736.48
496.02	34000.96
496.20	33975.22
496.38	33949.47
496.55	34071.18
496.73	34941.86
496.91	34752.27
497.09	34979.31
497.26	35026.12
497.44	35119.74
497.62	35557.42
497.79	36044.25
497.97	35409.96
498.14	36191.70
498.32	36128.51
498.50	36088.72
498.67	36685.56
498.85	36245.54
499.03	36919.61
499.20	37254.31
499.38	37500.06
499.56	37193.45
499.73	37280.05
499.91	37237.92
500.08	37677.94
500.26	37743.48
500.44	37813.70
500.61	38253.72
500.79	38040.73
500.97	38588.41
501.14	39086.95
501.32	38291.16
501.49	38602.46
501.67	38639.90
501.84	39161.84
502.02	39126.74
502.20	39651.02
502.37	39470.79
502.55	39533.99
502.72	39555.05
502.90	39564.42
503.07	39791.45
503.25	39835.92
503.43	39789.11
503.60	40271.26
503.78	40355.52
503.95	40259.55
504.13	40528.72
504.30	41268.33
504.48	40505.31
504.65	40795.54
504.83	41048.32
505.01	41715.37
505.18	41200.45
505.36	41794.95
505.53	41518.76
505.71	42183.48
505.88	42073.47
506.06	41844.10
506.23	41982.19
506.41	41975.17
506.58	42162.41
506.76	42288.80
506.93	43023.73
507.11	42457.32
507.28	42616.47
507.46	42883.30
507.63	43147.78
507.81	43234.38
507.98	42927.77
508.16	43229.69
508.33	43519.92
508.50	44088.67
508.68	44002.07
508.85	43950.58
509.03	44390.60
509.20	44266.55
509.38	44500.61
509.55	44500.61
509.73	44879.77
509.90	44634.02
510.08	44999.14
510.25	44879.77
510.42	44868.07
510.60	45202.77
510.77	45064.67
510.95	45539.80
511.12	45553.85
511.30	45401.71
511.47	45811.31
511.64	45717.68
511.82	45893.22
511.99	45387.67
512.17	45935.35
512.34	46316.86
512.51	46988.60
512.69	46721.77
512.86	46649.22
513.04	46857.52
513.21	46829.44
513.38	47012.00
513.56	47014.34
513.73	46869.23
513.90	46958.17
514.08	47035.41
514.25	47519.90
514.43	47756.29
514.60	47540.96
514.77	48065.24
514.95	47807.78
515.12	47576.07
515.29	47618.20
515.47	48311.00
515.64	48488.88
515.81	48172.91
515.99	48168.22
516.16	48832.94
516.33	48645.69
516.51	48488.88
516.68	48774.42
516.85	48832.94
517.03	49282.32
517.20	49139.55
517.37	49074.01
517.54	48748.68
517.72	49305.73
517.89	49228.49
518.06	49340.83
518.24	49490.63
518.41	49350.20
518.58	49553.82
518.75	49441.48
518.93	49797.24
519.10	49808.94
519.27	49932.99
519.45	49673.19
519.62	50134.28
519.79	50490.04
519.96	50188.11
520.14	50342.58
520.31	50358.97
520.48	50665.58
520.65	50497.06
520.83	50761.54
521.00	50880.91
521.17	50492.38
521.34	50995.59
521.52	50948.78
521.69	51210.92
521.86	51271.78
522.03	51246.03
522.20	51463.70
522.38	51608.81
522.55	51367.74
522.72	51255.39
522.89	51283.48
523.07	51611.15
523.24	51515.19
523.41	51763.29
523.58	51728.18
523.75	52294.59
523.92	51929.47
524.10	51929.47
524.27	52439.70
524.44	52271.18
524.61	52317.99
524.78	52090.96
524.96	52149.48
525.13	52526.30
525.30	52296.93
525.47	52816.53
525.64	52584.82
525.81	53029.52
525.98	52959.30
526.16	52900.79
526.33	52942.92
526.50	53144.20
526.67	52879.72
526.84	53111.44
527.01	53158.25
527.18	53104.41
527.36	52954.62
527.53	53240.17
527.70	53319.74
527.87	53371.24
528.04	53212.08
528.21	53399.32
528.38	53446.13
528.55	53434.43
528.72	53638.06
528.89	53584.22
529.07	53595.93
529.24	53675.51
529.41	53815.94
529.58	53687.21
529.75	53439.11
529.92	53982.12
530.09	53818.28
530.26	54021.90
530.43	54148.29
530.60	54031.27
530.77	54082.76
530.94	54241.92
531.11	54188.08
531.28	54195.10
531.46	54475.97
531.63	54431.50
531.80	54564.91
531.97	54536.82
532.14	54721.72
532.31	54438.52
532.48	54630.44
532.65	54408.09
532.82	54899.61
532.99	54805.98
533.16	54361.28
533.33	55243.66
533.50	54979.18
533.67	54862.16
533.84	54901.95
534.01	55299.84
534.18	55089.19
534.35	55505.80
534.52	55063.44
534.69	55341.97
534.86	55253.03
535.03	55145.36
535.20	55292.82
535.37	55470.70
535.54	55559.64
535.71	55440.27
535.88	55477.72
536.05	55367.71
536.22	55583.04
536.38	55627.51
536.55	55386.44
536.72	55725.81
536.89	55669.64
537.06	55681.34
537.23	55845.18
537.40	55604.11
537.57	55697.73
537.74	55725.81
537.91	55999.66
538.08	56034.77
538.25	55753.90
538.42	55927.10
538.59	56320.31
538.75	56240.73
538.92	55959.87
539.09	56226.69
539.26	56069.87
539.43	56397.55
539.60	56367.12
539.77	56402.23
539.94	56266.48
540.11	56406.91
540.28	56678.41
540.44	56479.47
540.61	56427.98
540.78	56430.32
540.95	56479.47
541.12	56222.01
541.29	56479.47
541.46	56900.76
541.62	56566.07
541.79	56713.52
541.96	56683.09
542.13	56500.53
542.30	56750.97
542.47	56942.89
542.63	57160.56
542.80	56860.97
542.97	57265.89
543.14	57275.25
543.31	57352.49
543.48	57247.16
543.64	57654.42
543.81	57425.04
543.98	57460.15
544.15	57556.11
544.32	57673.14
544.48	57642.71
544.65	57560.79
544.82	57558.45
544.99	57497.60
545.16	57616.97
545.32	57619.31
545.49	57928.26
545.66	57652.08
545.83	57867.40
546.00	57715.27
546.16	57841.66
546.33	57694.21
546.50	57743.36
546.67	57762.08
546.83	57621.65
547.00	57794.85
547.17	57462.49
547.34	57733.99
547.50	58028.90
547.67	58178.70
547.84	58351.90
548.00	58035.92
548.17	58464.24
548.34	58192.74
548.51	58361.26
548.67	58314.45
548.84	58113.16
549.01	58042.95
549.18	58253.59
549.34	58206.78
549.51	58534.46
549.68	58391.68
549.84	58431.47
550.01	58539.14
550.18	58447.86
550.34	58625.74
550.51	58611.70
550.68	58597.65
550.84	58316.79
551.01	58663.19
551.18	58632.76
551.34	58590.63
551.51	58658.51
551.68	58585.95
551.84	58749.79
552.01	58646.80
552.18	58642.12
552.34	58609.35
552.51	58789.58
552.68	58482.97
552.84	58621.06
553.01	58871.49
553.18	58777.87
553.34	58969.80
553.51	58714.68
553.67	59058.74
553.84	59189.81
554.01	59325.56
554.17	58990.86
554.34	59023.63
554.51	59135.98
554.67	59178.10
554.84	58997.88
555.00	58969.80
555.17	59049.38
555.33	59121.93
555.50	59075.12
555.67	58988.52
555.83	59168.74
556.00	59124.27
556.16	59702.38
556.33	59250.66
556.50	59344.28
556.66	59416.84
556.83	59194.49
556.99	59430.88
557.16	59435.56
557.32	59437.90
557.49	59648.55
557.65	59323.22
557.82	59601.74
557.98	59639.19
558.15	59451.95
558.32	59629.83
558.48	59594.72
558.65	59749.20
558.81	59587.70
558.98	59781.96
559.14	59634.51
559.31	59819.41
559.47	59597.06
559.64	59770.26
559.80	59681.32
559.97	60046.44
560.13	59718.77
560.30	59838.14
560.46	59875.58
560.63	59889.63
560.79	59906.01
560.96	59891.97
561.12	60006.65
561.29	59957.50
561.45	60027.72
561.61	59868.56
561.78	60090.91
561.94	59966.87
562.11	60074.53
562.27	60165.81
562.44	60147.09
562.60	60027.72
562.77	60102.62
562.93	59934.10
563.10	60217.30
563.26	60030.06
563.42	60116.66
563.59	60086.23
563.75	60041.76
563.92	60053.47
564.08	60060.49
564.24	60114.32
564.41	60355.39
564.57	60378.80
564.74	60224.32
564.90	60240.71
565.07	60189.22
565.23	60184.54
565.39	60310.92
565.56	60343.69
565.72	60191.56
565.88	60324.97
566.05	60432.63
566.21	60301.56
566.38	60163.47
566.54	60336.67
566.70	60467.74
566.87	60493.49
567.03	60217.30
567.19	60505.19
567.36	60381.14
567.52	60605.83
567.68	60542.64
567.85	60224.32
568.01	60519.23
568.17	60317.95
568.34	60449.02
568.50	60336.67
568.66	60582.43
568.83	60544.98
568.99	60331.99
569.15	60418.59
569.32	60505.19
569.48	60479.44
569.64	60544.98
569.81	60732.22
569.97	60561.36
570.13	60680.73
570.30	60495.83
570.46	60713.50
570.62	60507.53
570.78	60669.03
570.95	60535.62
571.11	60673.71
571.27	60643.28
571.43	60584.77
571.60	60697.11
571.76	60559.02
571.92	60715.84
572.09	60734.56
572.25	60647.96
572.41	60736.90
572.57	60622.22
572.74	60867.97
572.90	60388.16
573.06	60837.54
573.22	60694.77
573.38	60800.10
573.55	60626.90
573.71	60921.80
573.87	60811.80
574.03	60671.37
574.20	60921.80
574.36	60523.91
574.52	60816.48
574.68	60938.19
574.84	60816.48
575.01	60907.76
575.17	60867.97
575.33	60743.92
575.49	60706.47
575.65	60912.44
575.82	60910.10
575.98	60807.12
576.14	60999.04
576.30	60863.29
576.46	60931.17
576.62	60900.74
576.79	60776.69
576.95	60626.90
577.11	60863.29
577.27	60786.05
577.43	60814.14
577.59	60893.72
577.75	60867.97
577.92	60884.36
578.08	60804.78
578.24	60935.85
578.40	61120.75
578.56	61165.22
578.72	60924.14
578.88	61064.58
579.04	60968.61
579.21	61045.85
579.37	61116.07
579.53	61027.13
579.69	60783.71
579.85	60874.99
580.01	60874.99
580.17	60734.56
580.33	60914.78
580.49	61151.18
580.65	61085.64
580.82	60928.83
580.98	60697.11
581.14	61057.56
581.30	61233.10
581.46	61092.66
581.62	61134.79
581.78	60802.44
581.94	60867.97
582.10	60790.73
582.26	60926.49
582.42	60970.96
582.58	61127.77
582.74	60903.08
582.90	61041.17
583.06	61207.35
583.22	60954.57
583.38	60814.14
583.54	61069.26
583.70	61090.32
583.86	61162.88
584.02	61003.72
584.18	61127.77
584.34	61205.01
584.50	61059.90
584.66	60970.96
584.82	60963.93
584.98	61186.28
585.14	61277.57
585.30	61069.26
585.46	61001.38
585.62	60947.55
585.78	61120.75
585.94	60989.68
586.10	61064.58
586.26	61125.43
586.42	61085.64
586.58	61359.48
586.74	61034.15
586.90	61209.69
587.06	61207.35
587.22	61160.54
587.38	61064.58
587.54	61080.96
587.70	61357.14
587.86	61181.60
588.02	61165.22
588.18	61464.81
588.34	61066.92
