SpectraSuite Data File
++++++++++++++++++++++++++++++++++++
Date: Fri Oct 25 10:44:35 EDT 2013
User: price-jones
Dark Spectrum Present: No
Reference Spectrum Present: No
Number of Sampled Component Spectra: 1
Spectrometers: USB2+H05261
Integration Time (usec): 100000 (USB2+H05261)
Spectra Averaged: 1 (USB2+H05261)
Boxcar Smoothing: 0 (USB2+H05261)
Correct for Electrical Dark: No (USB2+H05261)
Strobe/Lamp Enabled: No (USB2+H05261)
Correct for Detector Non-linearity: No (USB2+H05261)
Correct for Stray Light: No (USB2+H05261)
Number of Pixels in Processed Spectrum: 2048
>>>>>Begin Processed Spectral Data<<<<<
365.73	149.79
365.92	149.79
366.12	149.79
366.32	51.49
366.52	25.75
366.72	0.00
366.91	0.00
367.11	49.15
367.31	4.68
367.51	28.09
367.70	51.49
367.90	0.00
368.10	30.43
368.30	46.81
368.49	21.06
368.69	114.69
368.89	67.88
369.09	30.43
369.28	70.22
369.48	124.05
369.68	88.94
369.87	93.62
370.07	46.81
370.27	142.77
370.47	227.03
370.66	376.83
370.86	470.45
371.06	374.49
371.25	538.32
371.45	369.80
371.65	456.40
371.84	395.55
372.04	409.59
372.24	475.13
372.44	451.72
372.63	564.07
372.83	440.02
373.03	489.17
373.22	456.40
373.42	472.79
373.62	547.69
373.81	535.98
374.01	503.22
374.21	505.56
374.40	573.43
374.60	564.07
374.79	510.24
374.99	585.13
375.19	550.03
375.38	521.94
375.58	599.18
375.78	557.05
375.97	606.20
376.17	624.92
376.37	622.58
376.56	606.20
376.76	531.30
376.95	664.71
377.15	603.86
377.35	587.47
377.54	669.39
377.74	631.94
377.93	578.11
378.13	671.73
378.33	615.56
378.52	608.54
378.72	589.82
378.91	645.99
379.11	636.63
379.31	655.35
379.50	610.88
379.70	685.78
379.89	641.31
380.09	634.29
380.28	653.01
380.48	716.20
380.68	685.78
380.87	596.84
381.07	634.29
381.26	643.65
381.46	641.31
381.65	657.69
381.85	634.29
382.04	739.61
382.24	676.41
382.43	662.37
382.63	716.20
382.83	734.93
383.02	704.50
383.22	772.38
383.41	645.99
383.61	655.35
383.80	751.31
384.00	716.20
384.19	744.29
384.39	655.35
384.58	664.71
384.78	774.72
384.97	753.65
385.17	704.50
385.36	741.95
385.56	678.76
385.75	697.48
385.95	772.38
386.14	753.65
386.34	720.88
386.53	748.97
386.72	807.48
386.92	814.51
387.11	758.33
387.31	837.91
387.50	697.48
387.70	868.34
387.89	798.12
388.09	847.27
388.28	828.55
388.48	826.21
388.67	858.98
388.86	896.43
389.06	880.04
389.25	945.58
389.45	908.13
389.64	901.11
389.84	882.38
390.03	957.28
390.22	990.05
390.42	856.64
390.61	952.60
390.81	877.70
391.00	875.36
391.19	940.90
391.39	882.38
391.58	978.34
391.78	954.94
391.97	997.07
392.16	943.24
392.36	1025.15
392.55	889.40
392.75	917.49
392.94	926.85
393.13	1006.43
393.33	873.02
393.52	990.05
393.71	1057.92
393.91	1048.56
394.10	983.02
394.29	1095.37
394.49	1095.37
394.68	1132.82
394.88	1071.97
395.07	1144.52
395.26	1142.18
395.46	1074.31
395.65	1130.48
395.84	1139.84
396.04	1174.95
396.23	1123.46
396.42	1123.46
396.62	1142.18
396.81	1156.22
397.00	1179.63
397.19	1193.67
397.39	1273.25
397.58	1214.74
397.77	1299.00
397.97	1238.14
398.16	1198.35
398.35	1313.04
398.55	1327.08
398.74	1252.19
398.93	1348.15
399.12	1383.26
399.32	1413.68
399.51	1352.83
399.70	1418.36
399.90	1362.19
400.09	1427.73
400.28	1420.71
400.47	1352.83
400.67	1404.32
400.86	1497.94
401.05	1423.05
401.24	1465.18
401.44	1556.46
401.63	1650.08
401.82	1521.35
402.01	1584.54
402.21	1547.09
402.40	1563.48
402.59	1547.09
402.78	1600.93
402.97	1596.25
403.17	1703.91
403.36	1619.65
403.55	1659.44
403.74	1614.97
403.93	1565.82
404.13	1621.99
404.32	1659.44
404.51	1668.80
404.70	1724.97
404.89	1514.33
405.09	1720.29
405.28	1762.42
405.47	1699.23
405.66	1820.94
405.85	1769.44
406.05	1820.94
406.24	1722.63
406.43	1797.53
406.62	1881.79
406.81	1937.96
407.00	1813.92
407.20	1860.73
407.39	1834.98
407.58	1902.86
407.77	1914.56
407.96	1994.14
408.15	1916.90
408.34	1914.56
408.54	2008.18
408.73	2012.86
408.92	2024.56
409.11	2050.31
409.30	2101.80
409.49	2003.50
409.68	2097.12
409.87	2113.50
410.07	2146.27
410.26	2033.93
410.45	2183.72
410.64	2207.13
410.83	2223.51
411.02	2202.44
411.21	2310.11
411.40	2249.25
411.59	2246.91
411.78	2291.38
411.98	2436.50
412.17	2438.84
412.36	2363.94
412.55	2485.65
412.74	2511.39
412.93	2492.67
413.12	2422.45
413.31	2656.51
413.50	2614.38
413.69	2565.23
413.88	2574.59
414.07	2530.12
414.26	2593.31
414.45	2637.78
414.64	2670.55
414.83	2626.08
415.02	2731.41
415.22	2799.28
415.41	2745.45
415.60	2874.18
415.79	2829.71
415.98	2906.95
416.17	2890.56
416.36	2991.20
416.55	2857.79
416.74	2881.20
416.93	2963.12
417.12	2953.76
417.31	2956.10
417.50	3042.70
417.69	3204.19
417.88	3112.91
418.07	3035.67
418.26	3096.53
418.45	3138.66
418.64	3183.13
418.83	3225.26
419.02	3138.66
419.21	3269.73
419.39	3211.22
419.58	3169.09
419.77	3049.72
419.96	3363.35
420.15	3328.24
420.34	3255.69
420.53	3351.65
420.72	3393.78
420.91	3353.99
421.10	3382.07
421.29	3496.76
421.48	3325.90
421.67	3517.83
421.86	3368.03
422.05	3541.23
422.24	3510.80
422.43	3501.44
422.61	3515.48
422.80	3538.89
422.99	3538.89
423.18	3527.19
423.37	3503.78
423.56	3644.21
423.75	3513.14
423.94	3595.06
424.13	3337.60
424.32	3463.99
424.50	3531.87
424.69	3566.98
424.88	3669.96
425.07	3679.32
425.26	3571.66
425.45	3595.06
425.64	3618.47
425.83	3803.37
426.01	3712.09
426.20	3634.85
426.39	3716.77
426.58	3578.68
426.77	3571.66
426.96	3777.62
427.15	3639.53
427.33	3880.61
427.52	3712.09
427.71	3894.65
427.90	3744.86
428.09	3843.16
428.28	3779.97
428.46	3824.44
428.65	3751.88
428.84	3941.46
429.03	3819.75
429.22	3845.50
429.40	3812.73
429.59	3810.39
429.78	3651.24
429.97	3679.32
430.16	3805.71
430.34	3782.31
430.53	3822.09
430.72	3948.48
430.91	3878.27
431.10	4014.02
431.28	4142.75
431.47	4131.05
431.66	4189.56
431.85	4095.94
432.03	4091.26
432.22	4224.67
432.41	4227.01
432.60	4407.23
432.79	4374.46
432.97	4397.87
433.16	4332.33
433.35	4236.37
433.54	4248.07
433.72	4432.97
433.91	4297.22
434.10	4280.84
434.28	4339.35
434.47	4365.10
434.66	4444.68
434.85	4428.29
435.03	4561.70
435.22	4475.10
435.41	4648.30
435.59	4594.47
435.78	4685.75
435.97	4702.14
436.16	4704.48
436.34	4585.11
436.53	4634.26
436.72	4798.10
436.90	4514.89
437.09	4676.39
437.28	4547.66
437.46	4699.80
437.65	4652.98
437.84	4662.35
438.02	4854.27
438.21	4847.25
438.40	4765.33
438.58	5011.09
438.77	5142.16
438.96	4973.64
439.14	5163.22
439.33	5214.71
439.52	5142.16
439.70	4968.96
439.89	5277.91
440.08	5277.91
440.26	5261.52
440.45	5275.57
440.63	5305.99
440.82	5547.07
441.01	5518.98
441.19	5518.98
441.38	5561.11
441.57	5446.43
441.75	5570.48
441.94	5703.89
442.12	5535.37
442.31	5717.93
442.50	5727.29
442.68	5621.97
442.87	5776.44
443.05	5818.57
443.24	5783.46
443.43	5898.15
443.61	5968.37
443.80	6090.07
443.98	5788.14
444.17	5729.63
444.35	5856.02
444.54	5987.09
444.73	5914.53
444.91	5982.41
445.10	5973.05
445.28	5959.00
445.47	5891.13
445.65	5949.64
445.84	5888.79
446.02	5928.58
446.21	5778.78
446.39	5959.00
446.58	5968.37
446.77	5975.39
446.95	5933.26
447.14	5919.21
447.32	6071.35
447.51	6099.44
447.69	5991.77
447.88	6200.08
448.06	6122.84
448.25	6181.35
448.43	6017.52
448.62	6146.25
448.80	6047.94
448.99	6267.95
449.17	6148.59
449.36	6223.48
449.54	6253.91
449.73	6394.34
449.91	6256.25
450.10	6366.26
450.28	6392.00
450.46	6537.12
450.65	6492.65
450.83	6478.60
451.02	6537.12
451.20	6490.31
451.39	6581.59
451.57	6436.47
451.76	6518.39
451.94	6494.99
452.13	6644.78
452.31	6623.72
452.49	6464.56
452.68	6436.47
452.86	6363.92
453.05	6616.69
453.23	6633.08
453.42	6560.52
453.60	6602.65
453.78	6759.47
453.97	6808.62
454.15	6471.58
454.34	6794.58
454.52	6883.52
454.70	6822.66
454.89	6789.89
455.07	6881.18
455.26	6810.96
455.44	7073.10
455.62	6974.80
455.81	6951.39
455.99	7117.57
456.17	7103.53
456.36	7105.87
456.54	7143.32
456.73	7201.83
456.91	7265.02
457.09	7232.26
457.28	7389.07
457.46	7232.26
457.64	7260.34
457.83	7372.69
458.01	7229.91
458.19	7616.10
458.38	7393.75
458.56	7531.84
458.74	7365.67
458.93	7555.25
459.11	7552.91
459.29	7520.14
459.48	7826.75
459.66	7709.72
459.84	7548.23
460.03	7831.43
460.21	7803.35
460.39	7777.60
460.57	7761.22
460.76	7878.24
460.94	7793.98
461.12	8013.99
461.31	7999.95
461.49	7852.50
461.67	7845.48
461.85	8091.23
462.04	8077.19
462.22	8336.99
462.40	8231.66
462.59	8102.93
462.77	8224.64
462.95	8140.38
463.13	8124.00
463.32	8166.13
463.50	8329.97
463.68	8177.83
463.86	8358.05
464.05	8184.85
464.23	8271.45
464.41	8479.76
464.59	8264.43
464.78	8461.04
464.96	8241.03
465.14	8184.85
465.32	8219.96
465.50	8355.71
465.69	8627.21
465.87	8400.18
466.05	8475.08
466.23	8142.72
466.41	8273.79
466.60	8641.26
466.78	8290.18
466.96	8332.31
467.14	8351.03
467.32	8624.87
467.51	8847.22
467.69	8545.30
467.87	8587.43
468.05	8655.30
468.23	8580.40
468.41	8344.01
468.60	8613.17
468.78	8798.07
468.96	8732.54
469.14	9027.45
469.32	8966.59
469.50	8812.12
469.69	8952.55
469.87	8926.80
470.05	9062.55
470.23	9022.77
470.41	9163.20
470.59	9327.03
470.77	9050.85
470.95	9022.77
471.14	9217.03
471.32	9085.96
471.50	9432.36
471.68	9399.59
471.86	9238.09
472.04	9282.56
472.22	9790.46
472.40	9320.01
472.58	9626.62
472.77	9554.07
472.95	9778.76
473.13	9961.32
473.31	9521.30
473.49	9570.45
473.67	9633.64
473.85	9961.32
474.03	10054.94
474.21	10031.54
474.39	10230.48
474.57	10078.35
474.75	10036.22
474.93	10237.50
475.12	10132.18
475.30	10190.69
475.48	10450.49
475.66	10267.93
475.84	10370.91
476.02	10279.63
476.20	10553.48
476.38	10668.16
476.56	11044.99
476.74	10810.93
476.92	10970.09
477.10	10972.43
477.28	10995.84
477.46	10860.09
477.64	11201.80
477.82	11180.74
478.00	11571.61
478.18	11669.91
478.36	11442.88
478.54	11644.17
478.72	11440.54
478.90	11836.09
479.08	11901.62
479.26	11964.82
479.44	12002.27
479.62	12105.25
479.80	12177.81
479.98	12163.76
480.16	12596.76
480.34	12418.88
480.52	12540.59
480.70	12716.13
480.88	12524.21
481.06	12737.20
481.24	12617.83
481.41	13048.49
481.59	13167.85
481.77	13221.69
481.95	13195.94
482.13	13207.64
482.31	13338.71
482.49	13827.88
482.67	13572.77
482.85	14012.79
483.03	14047.90
483.21	14221.10
483.39	13982.36
483.57	14171.94
483.74	14244.50
483.92	14094.71
484.10	14300.67
484.28	14340.46
484.46	14813.25
484.64	14799.21
484.82	14661.12
485.00	14829.63
485.18	15147.95
485.35	15283.70
485.53	15225.18
485.71	15169.01
485.89	15396.04
486.07	15417.11
486.25	15566.90
486.43	15662.86
486.61	15854.79
486.78	15932.03
486.96	16191.83
487.14	16439.92
487.32	16449.28
487.50	16837.81
487.68	16769.94
487.85	16816.75
488.03	17170.17
488.21	17235.70
488.39	17460.40
488.57	17128.04
488.75	17425.29
488.92	17535.29
489.10	17921.48
489.28	18082.98
489.46	18258.52
489.64	18176.60
489.81	18597.90
489.99	18326.39
490.17	18707.90
490.35	18845.99
490.53	18794.50
490.70	19073.03
490.88	18799.18
491.06	19377.30
491.24	19496.66
491.41	19117.50
491.59	19351.55
491.77	19405.38
491.95	19543.47
492.13	19800.93
492.30	19824.34
492.48	20013.92
492.66	19971.79
492.84	20255.00
493.01	20428.20
493.19	20119.24
493.37	20629.48
493.54	20458.62
493.72	20938.43
493.90	21113.97
494.08	21238.02
494.25	21359.73
494.43	21259.09
494.61	21523.57
494.79	21610.17
494.96	21385.47
495.14	21886.35
495.32	21984.65
495.49	22239.77
495.67	22108.70
495.85	22136.79
496.02	22544.04
496.20	22501.91
496.38	22752.35
496.55	22738.30
496.73	22984.06
496.91	22951.29
497.09	23000.44
497.26	23204.07
497.44	23138.54
497.62	23452.17
497.79	23578.56
497.97	23613.66
498.14	23763.46
498.32	23681.54
498.50	23812.61
498.67	24011.56
498.85	24259.65
499.03	24067.73
499.20	24187.10
499.38	24266.67
499.56	24491.37
499.73	24753.51
499.91	24582.65
500.08	25041.39
500.26	24409.45
500.44	24910.32
500.61	24783.93
500.79	24907.98
500.97	25184.16
501.14	25621.84
501.32	25298.85
501.49	25270.76
501.67	25465.03
501.84	25467.37
502.02	25600.78
502.20	25907.39
502.37	25977.61
502.55	26064.21
502.72	26057.18
502.90	26118.04
503.07	26001.01
503.25	26403.58
503.43	26202.30
503.60	26260.81
503.78	25902.71
503.95	26235.06
504.13	26356.77
504.30	26721.90
504.48	26494.86
504.65	26998.08
504.83	26951.27
505.01	27007.44
505.18	27201.71
505.36	27412.35
505.53	27318.73
505.71	27480.23
505.88	27803.22
506.06	27267.24
506.23	27725.99
506.41	27564.49
506.58	27599.60
506.76	28208.14
506.93	27913.23
507.11	27625.34
507.28	28222.18
507.46	28109.83
507.63	28261.97
507.81	28175.37
507.98	28077.07
508.16	28390.70
508.33	28472.62
508.50	28676.24
508.68	29085.84
508.85	28989.88
509.03	28379.00
509.20	29399.47
509.38	29125.63
509.55	29273.08
509.73	29528.20
509.90	29184.14
510.08	29481.39
510.25	29160.73
510.42	29701.40
510.60	29764.59
510.77	29736.51
510.95	29628.84
511.12	29689.70
511.30	30024.39
511.47	30178.87
511.64	30464.41
511.82	30403.56
511.99	29855.87
512.17	30316.96
512.34	30265.47
512.51	30738.26
512.69	30532.29
512.86	30892.73
513.04	31021.46
513.21	30417.60
513.38	30593.14
513.56	31087.00
513.73	30513.56
513.90	30796.77
514.08	30906.77
514.25	31201.68
514.43	31281.26
514.60	31175.94
514.77	31379.56
514.95	31875.76
515.12	31683.83
515.29	31730.64
515.47	31772.77
515.64	31938.95
515.81	31812.56
515.99	31658.09
516.16	31211.04
516.33	32006.83
516.51	31800.86
516.68	31618.30
516.85	31744.69
517.03	31723.62
517.20	32503.02
517.37	32488.98
517.54	32627.07
517.72	32421.10
517.89	32170.66
518.06	32060.66
518.24	32112.15
518.41	32404.72
518.58	32704.31
518.75	32435.14
518.93	32807.29
519.10	32767.50
519.27	32973.47
519.45	32669.20
519.62	32924.32
519.79	32917.29
519.96	33179.43
520.14	33446.26
520.31	33146.67
520.48	33422.85
520.65	33251.99
520.83	34071.18
521.00	34019.69
521.17	33867.55
521.34	34153.10
521.52	34146.08
521.69	33727.12
521.86	34242.04
522.03	34398.85
522.20	33942.45
522.38	34525.24
522.55	34452.69
522.72	34015.01
522.89	34417.58
523.07	34298.21
523.24	34684.40
523.41	34696.10
523.58	34745.25
523.75	35297.62
523.92	35248.47
524.10	35131.44
524.27	35346.77
524.44	35063.57
524.61	35124.42
524.78	35150.17
524.96	35601.89
525.13	35278.89
525.30	35739.98
525.47	35796.15
525.64	35587.85
525.81	35374.86
525.98	35079.95
526.16	34913.77
526.33	35709.55
526.50	35395.92
526.67	35255.49
526.84	35805.52
527.01	35737.64
527.18	35934.24
527.36	35969.35
527.53	35985.74
527.70	36416.40
527.87	36432.78
528.04	35793.81
528.21	36334.48
528.38	36121.49
528.55	36566.19
528.72	36650.45
528.89	36669.17
529.07	36896.20
529.24	36233.83
529.41	36613.00
529.58	36854.08
529.75	36657.47
529.92	36718.32
530.09	36896.20
530.26	37251.97
530.43	37275.37
530.60	36847.05
530.77	37237.92
530.94	37347.93
531.11	37296.44
531.28	37809.01
531.46	37233.24
531.63	37663.90
531.80	37336.23
531.97	37544.53
532.14	37179.41
532.31	36842.37
532.48	37315.16
532.65	37303.46
532.82	37411.12
532.99	37804.33
533.16	37193.45
533.33	37900.29
533.50	37865.19
533.67	37912.00
533.84	37851.14
534.01	37897.95
534.18	37982.21
534.35	38246.69
534.52	38117.96
534.69	38396.49
534.86	38185.84
535.03	38059.45
535.20	38160.09
535.37	38986.30
535.54	38714.80
535.71	38515.86
535.88	38677.35
536.05	38595.43
536.22	39014.39
536.38	38639.90
536.55	38749.91
536.72	38534.58
536.89	38536.92
537.06	38888.00
537.23	38845.87
537.40	39084.61
537.57	39225.04
537.74	38892.68
537.91	39129.08
538.08	39236.74
538.25	39105.67
538.42	39175.89
538.59	39344.41
538.75	38763.95
538.92	39129.08
539.09	39594.84
539.26	39356.11
539.43	39119.71
539.60	39606.55
539.77	39044.82
539.94	39318.66
540.11	39470.79
540.28	39505.90
540.44	39531.65
540.61	39793.79
540.78	39545.69
540.95	39880.39
541.12	39405.26
541.29	39739.96
541.46	39749.32
541.62	40329.77
541.79	40116.78
541.96	39526.97
542.13	39751.66
542.30	39812.51
542.47	40109.76
542.63	40416.37
542.80	40435.10
542.97	40615.32
543.14	40601.27
543.31	40367.22
543.48	40811.92
543.64	40858.73
543.81	41024.91
543.98	41163.00
544.15	40231.47
544.32	41022.57
544.48	41261.30
544.65	40783.83
544.82	40893.84
544.99	40540.42
545.16	41041.29
545.32	40701.92
545.49	40978.10
545.66	41797.29
545.83	41523.44
546.00	41249.60
546.16	41165.34
546.33	41027.25
546.50	41064.70
546.67	40802.56
546.83	40832.99
547.00	41694.30
547.17	41024.91
547.34	41523.44
547.50	41439.18
547.67	42024.32
547.84	41666.22
548.00	41811.33
548.17	42218.58
548.34	41460.25
548.51	42089.85
548.67	42026.66
548.84	41879.21
549.01	41593.66
549.18	41773.88
549.34	42010.28
549.51	41968.15
549.68	41900.27
549.84	41888.57
550.01	42141.35
550.18	42197.52
550.34	41713.03
550.51	42129.64
550.68	41874.52
550.84	41790.27
551.01	42312.20
551.18	41921.34
551.34	41778.56
551.51	42344.97
551.68	42314.55
551.84	42628.18
552.01	42113.26
552.18	42356.67
552.34	41937.72
552.51	42148.37
552.68	42525.19
552.84	42932.45
553.01	42450.30
553.18	42541.58
553.34	42162.41
553.51	42515.83
553.67	42721.80
553.84	42686.69
554.01	43072.88
554.17	42698.39
554.34	42993.30
554.51	42712.44
554.67	43103.31
554.84	42794.36
555.00	42742.86
555.17	42642.22
555.33	42890.32
555.50	42363.70
555.67	43178.20
555.83	42616.47
556.00	42927.77
556.16	42939.47
556.33	43075.22
556.50	43194.59
556.66	43033.09
556.83	42574.34
556.99	43459.07
557.16	43356.08
557.32	43452.05
557.49	42871.59
557.65	42691.37
557.82	42958.19
557.98	43194.59
558.15	43243.74
558.32	43438.00
558.48	43636.95
558.65	43372.47
558.81	43461.41
558.98	43019.05
559.14	43152.46
559.31	43136.07
559.47	43859.30
559.64	43735.25
559.80	43753.97
559.97	43569.07
560.13	43416.94
560.30	43189.91
560.46	43552.69
560.63	43807.81
560.79	43697.80
560.96	44425.71
561.12	43627.59
561.29	43655.67
561.45	43674.40
561.61	43929.51
561.78	43707.16
561.94	43585.46
562.11	43342.04
562.27	43779.72
562.44	43913.13
562.60	43833.55
562.77	44032.50
562.93	44179.95
563.10	43997.39
563.26	43533.96
563.42	43906.11
563.59	43555.03
563.75	43770.36
563.92	43627.59
564.08	44268.89
564.24	44360.17
564.41	44151.87
564.57	44100.37
564.74	43913.13
564.90	43999.73
565.07	43793.76
565.23	43643.97
565.39	43927.17
565.56	44072.29
565.72	43391.19
565.88	43922.49
566.05	44172.93
566.21	43721.21
566.38	43695.46
566.54	43950.58
566.70	43885.04
566.87	44612.95
567.03	44252.51
567.19	44762.75
567.36	44044.20
567.52	43775.04
567.68	44631.68
567.85	44041.86
568.01	44067.61
568.17	44107.40
568.34	44425.71
568.50	44509.97
568.66	43880.36
568.83	44315.70
568.99	43826.53
569.15	43761.00
569.32	43962.28
569.48	43847.60
569.64	43973.98
569.81	44285.28
569.97	44442.09
570.13	44219.74
570.30	43833.55
570.46	43908.45
570.62	44201.02
570.78	44102.71
570.95	44011.43
571.11	44292.30
571.27	44219.74
571.43	44353.15
571.60	44781.47
571.76	44219.74
571.92	44306.34
572.09	44264.21
572.25	43894.41
572.41	44133.14
572.57	43969.30
572.74	44364.85
572.90	44170.59
573.06	44406.98
573.22	44477.20
573.38	44037.18
573.55	44542.74
573.71	44399.96
573.87	43964.62
574.03	44196.34
574.20	44292.30
574.36	44219.74
574.52	44397.62
574.68	44516.99
574.84	44701.89
575.01	44411.67
575.17	44318.04
575.33	44474.86
575.49	44140.16
575.65	44224.42
575.82	44910.20
575.98	44142.50
576.14	44362.51
576.30	44865.73
576.46	44325.07
576.62	44079.31
576.79	44254.85
576.95	44083.99
577.11	44348.47
577.27	44818.92
577.43	44648.06
577.59	44378.90
577.75	44516.99
577.92	44275.91
578.08	44311.02
578.24	43838.23
578.40	44374.22
578.56	43908.45
578.72	44737.00
578.88	44229.10
579.04	44439.75
579.21	44381.24
579.37	44807.22
579.53	44561.46
579.69	44322.72
579.85	44568.48
580.01	44734.66
580.17	44266.55
580.33	44938.29
580.49	44524.01
580.65	44692.53
580.82	44105.06
580.98	44528.69
581.14	44575.50
581.30	44603.59
581.46	44540.39
581.62	44802.53
581.78	44814.24
581.94	44655.08
582.10	44624.65
582.26	44622.31
582.42	44676.15
582.58	44748.70
582.74	44233.78
582.90	44666.78
583.06	44739.34
583.22	45038.93
583.38	44928.92
583.54	44938.29
583.70	44416.35
583.86	44708.91
584.02	44470.18
584.18	44428.05
584.34	44376.56
584.50	44629.34
584.66	44252.51
584.82	44198.68
584.98	45193.40
585.14	44980.42
585.30	44451.45
585.46	44584.86
585.62	44683.17
585.78	44580.18
585.94	44172.93
586.10	44374.22
586.26	44535.71
586.42	44790.83
586.58	44561.46
586.74	44839.98
586.90	44308.68
587.06	44339.11
587.22	44203.36
587.38	43910.79
587.54	44673.81
587.70	45041.27
587.86	44884.45
588.02	45048.29
588.18	44797.85
588.34	44643.38
588.49	44432.73
588.65	44013.77
588.81	44196.34
588.97	44470.18
589.13	44334.43
589.29	44336.77
589.45	44165.91
589.61	44816.58
589.77	44533.37
589.93	44818.92
590.08	44921.90
590.24	44797.85
