SpectraSuite Data File
++++++++++++++++++++++++++++++++++++
Date: Fri Oct 25 11:34:03 EDT 2013
User: price-jones
Dark Spectrum Present: No
Reference Spectrum Present: No
Number of Sampled Component Spectra: 1
Spectrometers: USB2+H05261
Integration Time (usec): 100000 (USB2+H05261)
Spectra Averaged: 1 (USB2+H05261)
Boxcar Smoothing: 0 (USB2+H05261)
Correct for Electrical Dark: No (USB2+H05261)
Strobe/Lamp Enabled: No (USB2+H05261)
Correct for Detector Non-linearity: No (USB2+H05261)
Correct for Stray Light: No (USB2+H05261)
Number of Pixels in Processed Spectrum: 2048
>>>>>Begin Processed Spectral Data<<<<<
365.73	201.29
365.92	201.29
366.12	201.29
366.32	210.65
366.52	248.10
366.72	189.58
366.91	191.92
367.11	121.71
367.31	88.94
367.51	166.18
367.70	255.12
367.90	196.60
368.10	168.52
368.30	184.90
368.49	224.69
368.69	187.24
368.89	161.50
369.09	182.56
369.28	203.63
369.48	198.95
369.68	196.60
369.87	308.95
370.07	262.14
370.27	273.84
370.47	299.59
370.66	451.72
370.86	470.45
371.06	552.37
371.25	535.98
371.45	571.09
371.65	615.56
371.84	521.94
372.04	472.79
372.24	543.00
372.44	650.67
372.63	575.77
372.83	592.16
373.03	580.45
373.22	610.88
373.42	688.12
373.62	580.45
373.81	631.94
374.01	613.22
374.21	664.71
374.40	648.33
374.60	697.48
374.79	566.41
374.99	674.07
375.19	643.65
375.38	594.50
375.58	648.33
375.78	650.67
375.97	664.71
376.17	692.80
376.37	667.05
376.56	648.33
376.76	645.99
376.95	648.33
377.15	688.12
377.35	669.39
377.54	737.27
377.74	688.12
377.93	720.88
378.13	643.65
378.33	655.35
378.52	650.67
378.72	800.46
378.91	737.27
379.11	713.86
379.31	751.31
379.50	741.95
379.70	746.63
379.89	683.44
380.09	662.37
380.28	685.78
380.48	713.86
380.68	734.93
380.87	809.83
381.07	760.67
381.26	748.97
381.46	732.59
381.65	727.91
381.85	718.54
382.04	685.78
382.24	767.70
382.43	699.82
382.63	744.29
382.83	816.85
383.02	842.59
383.22	896.43
383.41	807.48
383.61	786.42
383.80	751.31
384.00	748.97
384.19	779.40
384.39	823.87
384.58	833.23
384.78	758.33
384.97	828.55
385.17	903.45
385.36	727.91
385.56	863.66
385.75	863.66
385.95	830.89
386.14	856.64
386.34	875.36
386.53	805.14
386.72	945.58
386.92	917.49
387.11	901.11
387.31	898.77
387.50	887.06
387.70	800.46
387.89	866.00
388.09	842.59
388.28	875.36
388.48	875.36
388.67	837.91
388.86	926.85
389.06	887.06
389.25	915.15
389.45	854.30
389.64	919.83
389.84	985.37
390.03	999.41
390.22	971.32
390.42	922.17
390.61	894.08
390.81	966.64
391.00	936.21
391.19	992.39
391.39	1034.52
391.58	1055.58
391.78	994.73
391.97	983.02
392.16	954.94
392.36	1006.43
392.55	1069.62
392.75	1078.99
392.94	994.73
393.13	1067.28
393.33	1076.65
393.52	1088.35
393.71	985.37
393.91	1097.71
394.10	1097.71
394.29	1132.82
394.49	1041.54
394.68	1121.12
394.88	1139.84
395.07	1090.69
395.26	1109.41
395.46	1165.59
395.65	1160.91
395.84	1167.93
396.04	1263.89
396.23	1137.50
396.42	1165.59
396.62	1125.80
396.81	1186.65
397.00	1144.52
397.19	1174.95
397.39	1256.87
397.58	1284.95
397.77	1163.25
397.97	1149.20
398.16	1137.50
398.35	1231.12
398.55	1214.74
398.74	1287.29
398.93	1226.44
399.12	1249.85
399.32	1320.06
399.51	1282.61
399.70	1355.17
399.90	1249.85
400.09	1352.83
400.28	1334.11
400.47	1357.51
400.67	1390.28
400.86	1291.98
401.05	1404.32
401.24	1455.81
401.44	1434.75
401.63	1409.00
401.82	1507.30
402.01	1406.66
402.21	1406.66
402.40	1432.41
402.59	1474.54
402.78	1542.41
402.97	1446.45
403.17	1465.18
403.36	1568.16
403.55	1584.54
403.74	1526.03
403.93	1465.18
404.13	1614.97
404.32	1619.65
404.51	1600.93
404.70	1680.50
404.89	1612.63
405.09	1652.42
405.28	1666.46
405.47	1671.14
405.66	1621.99
405.85	1715.61
406.05	1753.06
406.24	1717.95
406.43	1694.55
406.62	1856.04
406.81	1900.52
407.00	1722.63
407.20	1736.68
407.39	1795.19
407.58	1834.98
407.77	1959.03
407.96	1867.75
408.15	1902.86
408.34	1846.68
408.54	1891.15
408.73	1877.11
408.92	1879.45
409.11	1827.96
409.30	2073.71
409.49	1877.11
409.68	1858.39
409.87	1980.09
410.07	1954.35
410.26	2031.58
410.45	2052.65
410.64	2038.61
410.83	2094.78
411.02	2071.37
411.21	2207.13
411.40	2115.84
411.59	2129.89
411.78	2209.47
411.98	2129.89
412.17	2120.53
412.36	2289.04
412.55	2232.87
412.74	2359.26
412.93	2223.51
413.12	2258.62
413.31	2403.73
413.50	2310.11
413.69	2303.09
413.88	2487.99
414.07	2389.69
414.26	2429.48
414.45	2548.84
414.64	2530.12
414.83	2476.29
415.02	2612.04
415.22	2459.90
415.41	2450.54
415.60	2548.84
415.79	2726.72
415.98	2719.70
416.17	2661.19
416.36	2700.98
416.55	2806.30
416.74	2661.19
416.93	2708.00
417.12	2738.43
417.31	2808.64
417.50	2860.13
417.69	2874.18
417.88	2843.75
418.07	2918.65
418.26	2925.67
418.45	2935.03
418.64	3155.04
418.83	3014.61
419.02	2979.50
419.21	3087.17
419.39	3035.67
419.58	3066.10
419.77	3042.70
419.96	3033.33
420.15	3150.36
420.34	3124.62
420.53	3164.40
420.72	3204.19
420.91	3190.15
421.10	3208.87
421.29	3126.96
421.48	3234.62
421.67	3110.57
421.86	3185.47
422.05	3199.51
422.24	3260.37
422.43	3253.34
422.61	3365.69
422.80	3286.11
422.99	3389.10
423.18	3297.81
423.37	3318.88
423.56	3251.00
423.75	3321.22
423.94	3262.71
424.13	3288.45
424.32	3236.96
424.50	3393.78
424.69	3372.71
424.88	3419.52
425.07	3478.04
425.26	3346.97
425.45	3487.40
425.64	3428.88
425.83	3300.16
426.01	3393.78
426.20	3372.71
426.39	3419.52
426.58	3440.59
426.77	3463.99
426.96	3557.61
427.15	3550.59
427.33	3400.80
427.52	3452.29
427.71	3351.65
427.90	3541.23
428.09	3630.17
428.28	3637.19
428.46	3667.62
428.65	3592.72
428.84	3611.45
429.03	3726.13
429.22	3471.01
429.40	3679.32
429.59	3716.77
429.78	3651.24
429.97	3536.55
430.16	3592.72
430.34	3730.81
430.53	3859.54
430.72	3684.00
430.91	3871.25
431.10	3775.28
431.28	3920.40
431.47	3995.29
431.66	3971.89
431.85	3758.90
432.03	3955.51
432.22	4011.68
432.41	3969.55
432.60	3894.65
432.79	3995.29
432.97	4067.85
433.16	4065.51
433.35	4032.74
433.54	4121.68
433.72	4154.45
433.91	4058.49
434.10	4058.49
434.28	3974.23
434.47	4234.03
434.66	4117.00
434.85	4105.30
435.03	4327.65
435.22	4154.45
435.41	4351.06
435.59	4332.33
435.78	4435.32
435.97	4241.05
436.16	4311.27
436.34	4311.27
436.53	4346.37
436.72	4411.91
436.90	4280.84
437.09	4430.63
437.28	4264.46
437.46	4447.02
437.65	4475.10
437.84	4573.41
438.02	4456.38
438.21	4447.02
438.40	4568.73
438.58	4711.50
438.77	4627.24
438.96	4650.64
439.14	4751.29
439.33	4821.50
439.52	4826.18
439.70	4784.06
439.89	4954.91
440.08	4971.30
440.26	4945.55
440.45	4945.55
440.63	4905.76
440.82	5198.33
441.01	5060.24
441.19	5036.83
441.38	5046.20
441.57	5200.67
441.75	5153.86
441.94	5305.99
442.12	5322.38
442.31	5233.44
442.50	5324.72
442.68	5291.95
442.87	5284.93
443.05	5385.57
443.24	5568.13
443.43	5280.25
443.61	5507.28
443.80	5708.57
443.98	5387.91
444.17	5174.92
444.35	5643.03
444.54	5418.34
444.73	5614.95
444.91	5490.90
445.10	5472.17
445.28	5547.07
445.47	5570.48
445.65	5507.28
445.84	5645.37
446.02	5596.22
446.21	5617.29
446.39	5600.90
446.58	5734.31
446.77	5834.96
446.95	5500.26
447.14	5694.52
447.32	5879.43
447.51	5577.50
447.69	5682.82
447.88	5703.89
448.06	5713.25
448.25	5781.12
448.43	5628.99
448.62	5614.95
448.80	5575.16
448.99	5893.47
449.17	5738.99
449.36	5680.48
449.54	5837.30
449.73	5863.04
449.91	5874.74
450.10	6092.41
450.28	5923.90
450.46	5984.75
450.65	5984.75
450.83	6092.41
451.02	5940.28
451.20	6066.67
451.39	6017.52
451.57	6047.94
451.76	6061.99
451.94	6047.94
452.13	6317.11
452.31	6097.10
452.49	6076.03
452.68	6251.57
452.86	6040.92
453.05	6218.80
453.23	6420.09
453.42	6150.93
453.60	6282.00
453.78	6328.81
453.97	6317.11
454.15	6406.05
454.34	6401.37
454.52	6303.06
454.70	6494.99
454.89	6338.17
455.07	6506.69
455.26	6518.39
455.44	6588.61
455.62	6368.60
455.81	6590.95
455.99	6469.24
456.17	6656.48
456.36	6700.95
456.54	6806.28
456.73	6710.32
456.91	6956.07
457.09	6642.44
457.28	7040.33
457.46	6764.15
457.64	6855.43
457.83	6911.60
458.01	6927.99
458.19	7108.21
458.38	7110.55
458.56	7101.19
458.74	7068.42
458.93	7119.91
459.11	7225.23
459.29	7133.95
459.48	7246.30
459.66	7082.46
459.84	7178.42
460.03	7150.34
460.21	7248.64
460.39	7169.06
460.57	7386.73
460.76	7360.98
460.94	7428.86
461.12	7250.98
461.31	7339.92
461.49	7204.17
461.67	7363.33
461.85	7550.57
462.04	7391.41
462.22	7768.24
462.40	7691.00
462.59	7506.10
462.77	7606.74
462.95	7620.78
463.13	7506.10
463.32	7552.91
463.50	7751.85
463.68	7803.35
463.86	7878.24
464.05	7875.90
464.23	7786.96
464.41	7793.98
464.59	7691.00
464.78	7967.18
464.96	7812.71
465.14	7920.37
465.32	7779.94
465.50	8098.25
465.69	7978.89
465.87	8025.70
466.05	8205.92
466.23	7969.52
466.41	8175.49
466.60	8098.25
466.78	7831.43
466.96	7988.25
467.14	8119.32
467.32	8229.32
467.51	8245.71
467.69	8053.78
467.87	8060.80
468.05	8325.29
468.23	8187.19
468.41	8210.60
468.60	8215.28
468.78	8444.65
468.96	8376.78
469.14	8435.29
469.32	8358.05
469.50	8273.79
469.69	8571.04
469.87	8667.00
470.05	8524.23
470.23	8634.24
470.41	8533.59
470.59	8610.83
470.77	8664.66
470.95	8786.37
471.14	8917.44
471.32	8582.74
471.50	8842.54
471.68	9001.70
471.86	8912.76
472.04	9116.39
472.22	9252.14
472.40	8807.44
472.58	9053.19
472.77	9146.81
472.95	9046.17
473.13	9423.00
473.31	9123.41
473.49	9202.99
473.67	9195.96
473.85	9210.01
474.03	9657.05
474.21	9469.81
474.39	9497.89
474.57	9586.83
474.75	9628.96
474.93	9769.40
475.12	9600.88
475.30	9736.63
475.48	9804.50
475.66	9816.21
475.84	9760.03
476.02	9853.66
476.20	10200.05
476.38	10090.05
476.56	10487.94
476.74	10312.40
476.92	10061.96
477.10	10246.87
477.28	10445.81
477.46	10485.60
477.64	10670.50
477.82	10794.55
478.00	10958.39
478.18	11000.52
478.36	11180.74
478.54	11147.97
478.72	11026.26
478.90	11346.92
479.08	11477.99
479.26	11566.93
479.44	11360.96
479.62	11641.82
479.80	11641.82
479.98	11587.99
480.16	12086.53
480.34	11833.75
480.52	11953.12
480.70	12032.69
480.88	11992.90
481.06	12233.98
481.24	12306.54
481.41	12535.91
481.59	12645.91
481.77	12301.86
481.95	12669.32
482.13	12884.65
482.31	12776.98
482.49	13081.25
482.67	13170.19
482.85	13172.54
483.03	13376.16
483.21	13453.40
483.39	13488.51
483.57	13621.92
483.74	13694.47
483.92	13841.93
484.10	13717.88
484.28	13949.59
484.46	14134.50
484.64	14295.99
484.82	14235.14
485.00	14520.68
485.18	14731.33
485.35	14864.74
485.53	14462.17
485.71	14761.76
485.89	15061.35
486.07	15136.24
486.25	15126.88
486.43	15276.68
486.61	15372.64
486.78	15541.16
486.96	15611.37
487.14	15690.95
487.32	15995.22
487.50	16006.92
487.68	16079.48
487.85	16306.51
488.03	16250.34
488.21	16877.60
488.39	16493.76
488.57	16931.44
488.75	16620.14
488.92	16915.05
489.10	16957.18
489.28	17233.36
489.46	17532.95
489.64	17319.96
489.81	17708.49
489.99	17413.59
490.17	17891.06
490.35	17984.68
490.53	18190.64
490.70	18284.26
490.88	18120.43
491.06	18532.36
491.24	18693.86
491.41	18874.08
491.59	18806.20
491.77	18530.02
491.95	18864.72
492.13	19154.94
492.30	19192.39
492.48	19190.05
492.66	19522.41
492.84	19632.41
493.01	19770.51
493.19	19861.79
493.37	19910.94
493.54	20009.24
493.72	20203.50
493.90	20081.80
494.08	20336.91
494.25	20308.83
494.43	20603.74
494.61	20765.23
494.79	20987.58
494.96	20908.01
495.14	21053.12
495.32	21221.64
495.49	21373.77
495.67	21514.20
495.85	21612.51
496.02	21802.09
496.20	21816.13
496.38	21776.34
496.55	22235.09
496.73	22415.31
496.91	22314.67
497.09	22272.54
497.26	22455.10
497.44	22419.99
497.62	22742.99
497.79	22979.38
497.97	22822.56
498.14	23000.44
498.32	23185.35
498.50	23143.22
498.67	23529.41
498.85	23285.99
499.03	23683.88
499.20	23543.45
499.38	23637.07
499.56	23718.99
499.73	23847.72
499.91	24210.50
500.08	24020.92
500.26	24149.65
500.44	24369.66
500.61	24304.12
500.79	24182.42
500.97	24720.74
501.14	24641.16
501.32	24783.93
501.49	24769.89
501.67	25125.65
501.84	24936.07
502.02	25067.14
502.20	25387.79
502.37	24842.45
502.55	25479.07
502.72	25560.99
502.90	25572.69
503.07	25472.05
503.25	25273.10
503.43	25652.27
503.60	25745.89
503.78	26174.21
503.95	25792.70
504.13	26342.73
504.30	26146.12
504.48	26225.70
504.65	26389.54
504.83	26375.50
505.01	26574.44
505.18	26759.34
505.36	26993.40
505.53	26700.83
505.71	27145.53
505.88	26881.05
506.06	26792.11
506.23	26850.63
506.41	26661.04
506.58	26822.54
506.76	27009.78
506.93	27426.40
507.11	27644.07
507.28	27463.85
507.46	27625.34
507.63	27744.71
507.81	27915.57
507.98	27552.79
508.16	28002.17
508.33	27740.03
508.50	27992.81
508.68	28271.33
508.85	28437.51
509.03	28243.24
509.20	28318.14
509.38	28758.16
509.55	28680.92
509.73	28758.16
509.90	28701.99
510.08	28739.44
510.25	28709.01
510.42	29001.58
510.60	29139.67
510.77	29013.28
510.95	29542.24
511.12	29476.71
511.30	29125.63
511.47	29722.46
511.64	29677.99
511.82	29886.30
511.99	29577.35
512.17	29654.59
512.34	29795.02
512.51	30450.37
512.69	30349.73
512.86	30410.58
513.04	30579.10
513.21	30033.75
513.38	30419.94
513.56	30895.07
513.73	30583.78
513.90	30890.39
514.08	30773.36
514.25	30859.96
514.43	30890.39
514.60	31171.25
514.77	30792.09
514.95	31079.97
515.12	31290.62
515.29	31175.94
515.47	31220.41
515.64	31302.32
515.81	31257.85
515.99	31543.40
516.16	32027.89
516.33	31630.00
516.51	31917.89
516.68	31936.61
516.85	31957.67
517.03	32299.39
517.20	32381.31
517.37	32121.51
517.54	32205.77
517.72	32048.96
517.89	32285.35
518.06	32666.86
518.24	32470.25
518.41	32477.27
518.58	32533.45
518.75	32339.18
518.93	32624.73
519.10	32622.39
519.27	32500.68
519.45	32783.88
519.62	33060.07
519.79	33130.28
519.96	33022.62
520.14	33359.66
520.31	33071.77
520.48	33434.55
520.65	33315.19
520.83	33556.26
521.00	33909.68
521.17	33509.45
521.34	33591.37
521.52	34120.33
521.69	33907.34
521.86	34108.63
522.03	33687.33
522.20	34026.71
522.38	34188.21
522.55	34251.40
522.72	33935.43
522.89	34616.52
523.07	34499.50
523.24	34759.30
523.41	34487.79
523.58	34445.66
523.75	34698.44
523.92	34534.60
524.10	34731.21
524.27	35119.74
524.44	35424.01
524.61	35484.86
524.78	35178.25
524.96	35721.26
525.13	35049.52
525.30	35800.83
525.47	35962.33
525.64	35409.96
525.81	35534.01
525.98	35739.98
526.16	35248.47
526.33	35438.05
526.50	35676.79
526.67	35241.45
526.84	35739.98
527.01	35328.05
527.18	35962.33
527.36	35880.41
527.53	36079.36
527.70	36290.01
527.87	36666.83
528.04	35906.16
528.21	36114.47
528.38	36683.22
528.55	36343.84
528.72	36465.55
528.89	36437.46
529.07	36346.18
529.24	36460.87
529.41	36978.12
529.58	36725.35
529.75	37074.09
529.92	36582.57
530.09	36938.33
530.26	37053.02
530.43	36900.89
530.60	36397.67
530.77	36844.71
530.94	37434.53
531.11	37017.91
531.28	37029.62
531.46	37223.88
531.63	37352.61
531.80	37537.51
531.97	37579.64
532.14	37675.60
532.31	37490.70
532.48	37916.68
532.65	38024.34
532.82	37584.32
532.99	37783.27
533.16	37804.33
533.33	37827.74
533.50	37560.92
533.67	38181.16
533.84	37731.78
534.01	38146.05
534.18	38265.42
534.35	38326.27
534.52	38450.32
534.69	38742.89
534.86	38667.99
535.03	38492.45
535.20	39112.69
535.37	38628.20
535.54	38679.69
535.71	38845.87
535.88	38969.92
536.05	38703.10
536.22	39082.27
536.38	38939.49
536.55	38682.03
536.72	38700.76
536.89	38815.44
537.06	38878.64
537.23	39278.87
537.40	38897.36
537.57	38880.98
537.74	39274.19
537.91	39725.91
538.08	39475.48
538.25	39049.50
538.42	39271.85
538.59	39538.67
538.75	39250.78
538.92	39845.28
539.09	39796.13
539.26	39693.15
539.43	39756.34
539.60	39592.50
539.77	39510.58
539.94	39971.67
540.11	39887.41
540.28	40158.91
540.44	39899.11
540.61	39915.50
540.78	39943.58
540.95	39793.79
541.12	40100.40
541.29	39842.94
541.46	40549.78
541.62	40439.78
541.79	40678.51
541.96	40147.21
542.13	40135.51
542.30	40084.01
542.47	40587.23
542.63	40781.49
542.80	41022.57
542.97	41008.53
543.14	40924.27
543.31	40994.48
543.48	41144.28
543.64	41331.52
543.81	40821.28
543.98	41273.01
544.15	41493.02
544.32	41397.06
544.48	41816.01
544.65	41256.62
544.82	41429.82
544.99	41642.81
545.16	41336.20
545.32	41294.07
545.49	41598.34
545.66	42103.90
545.83	41717.71
546.00	41682.60
546.16	41883.89
546.33	41813.67
546.50	41902.61
546.67	41918.99
546.83	41361.95
547.00	41991.55
547.17	41862.82
547.34	41851.12
547.50	41855.80
547.67	42211.56
547.84	42169.43
548.00	42256.03
548.17	42780.31
548.34	42363.70
548.51	42717.12
548.67	42550.94
548.84	42389.44
549.01	42019.64
549.18	42251.35
549.34	42698.39
549.51	42820.10
549.68	42749.88
549.84	42705.41
550.01	42979.26
550.18	42291.14
550.34	42899.68
550.51	42784.99
550.68	42667.97
550.84	42494.77
551.01	43136.07
551.18	42852.87
551.34	42745.20
551.51	42733.50
551.68	43021.39
551.84	42780.31
552.01	42808.40
552.18	42796.70
552.34	43405.23
552.51	43393.53
552.68	42923.08
552.84	43098.62
553.01	43800.79
553.18	43625.25
553.34	43716.53
553.51	43150.12
553.67	43737.59
553.84	43718.87
554.01	43517.58
554.17	43871.00
554.34	43665.03
554.51	43438.00
554.67	43917.81
554.84	43756.32
555.00	43770.36
555.17	43959.94
555.33	44128.46
555.50	43786.74
555.67	43716.53
555.83	44053.56
556.00	43929.51
556.16	44306.34
556.33	44119.10
556.50	44027.82
556.66	43854.62
556.83	43732.91
556.99	44332.09
557.16	44081.65
557.32	44098.03
557.49	44631.68
557.65	43817.17
557.82	44231.44
557.98	44264.21
558.15	44849.35
558.32	44505.29
558.48	43548.01
558.65	44428.05
558.81	44184.63
558.98	44493.58
559.14	44411.67
559.31	44591.89
559.47	44404.64
559.64	44739.34
559.80	44734.66
559.97	44921.90
560.13	44343.79
560.30	44126.12
560.46	44519.33
560.63	44554.44
560.79	44673.81
560.96	45043.61
561.12	44975.73
561.29	44589.55
561.45	44818.92
561.61	45099.78
561.78	44886.79
561.94	44854.03
562.11	44538.05
562.27	44910.20
562.44	44479.54
562.60	44900.84
562.77	45680.24
562.93	44737.00
563.10	44928.92
563.26	44996.80
563.42	45322.13
563.59	44652.74
563.75	45099.78
563.92	44704.23
564.08	44744.02
564.24	45638.11
564.41	45123.19
564.57	44865.73
564.74	45249.58
564.90	45186.38
565.07	45200.43
565.23	45368.94
565.39	45397.03
565.56	45432.14
565.72	45450.86
565.88	45537.46
566.05	45401.71
566.21	45628.74
566.38	45268.30
566.54	45523.42
566.70	45720.02
566.87	45485.97
567.03	45469.59
567.19	45855.78
567.36	45570.23
567.52	45448.52
567.68	45846.41
567.85	45769.18
568.01	45516.40
568.17	45219.15
568.34	45673.21
568.50	45713.00
568.66	45439.16
568.83	45631.08
568.99	45701.30
569.15	45881.52
569.32	45366.60
569.48	45294.05
569.64	45846.41
569.81	45303.41
569.97	45771.52
570.13	46012.59
570.30	45310.43
570.46	45780.88
570.62	46115.58
570.78	45563.21
570.95	45705.98
571.11	46026.63
571.27	45546.82
571.43	45942.38
571.60	46092.17
571.76	45759.81
571.92	46181.11
572.09	45801.94
572.25	45771.52
572.41	45853.44
572.57	45743.43
572.74	46260.69
572.90	45958.76
573.06	45928.33
573.22	46377.72
573.38	46672.62
573.55	46279.41
573.71	46616.45
573.87	46366.01
574.03	46181.11
574.20	46274.73
574.36	46129.62
574.52	46309.84
574.68	46263.03
574.84	46642.20
575.01	46738.16
575.17	46082.81
575.33	46433.89
575.49	46040.68
575.65	46157.70
575.82	46054.72
575.98	45914.29
576.14	46110.89
576.30	46520.49
576.46	46419.84
576.62	46131.96
576.79	45947.06
576.95	46127.28
577.11	45979.82
577.27	46082.81
577.43	45837.05
577.59	46457.29
577.75	45823.01
577.92	45565.55
578.08	46036.00
578.24	46028.98
578.40	46326.22
578.56	46260.69
578.72	46192.81
578.88	46253.67
579.04	45865.14
579.21	46272.39
579.37	45801.94
579.53	46178.77
579.69	46103.87
579.85	46162.39
580.01	46286.43
580.17	46272.39
580.33	46405.80
580.49	46314.52
580.65	46447.93
580.82	46588.36
580.98	46284.09
581.14	45867.48
581.30	46115.58
581.46	46260.69
581.62	46239.62
581.78	46155.36
581.94	46382.40
582.10	46754.54
582.26	46581.34
582.42	46466.66
582.58	46366.01
582.74	46300.48
582.90	46234.94
583.06	46958.17
583.22	45921.31
583.38	46543.89
583.54	46546.23
583.70	46663.26
583.86	46398.78
584.02	46515.81
584.18	46775.61
584.34	46721.77
584.50	46586.02
584.66	46815.40
584.82	46347.29
584.98	46883.27
585.14	46635.17
585.30	46529.85
585.46	46726.46
585.62	46539.21
585.78	46808.37
585.94	46370.69
586.10	46679.64
586.26	46129.62
586.42	46686.67
586.58	46733.48
586.74	46555.60
586.90	46417.50
587.06	46607.09
587.22	46955.83
587.38	46141.32
587.54	47033.07
587.70	46660.92
587.86	46274.73
588.02	46600.07
588.18	46138.98
588.34	46543.89
588.49	46768.58
588.65	46611.77
588.81	46749.86
588.97	47035.41
589.13	46787.31
589.29	46436.23
589.45	46962.85
589.61	46583.68
589.77	46742.84
589.93	46728.80
590.08	47019.02
