SpectraSuite Data File
++++++++++++++++++++++++++++++++++++
Date: Fri Oct 25 11:25:54 EDT 2013
User: price-jones
Dark Spectrum Present: No
Reference Spectrum Present: No
Number of Sampled Component Spectra: 1
Spectrometers: USB2+H05261
Integration Time (usec): 100000 (USB2+H05261)
Spectra Averaged: 1 (USB2+H05261)
Boxcar Smoothing: 0 (USB2+H05261)
Correct for Electrical Dark: No (USB2+H05261)
Strobe/Lamp Enabled: No (USB2+H05261)
Correct for Detector Non-linearity: No (USB2+H05261)
Correct for Stray Light: No (USB2+H05261)
Number of Pixels in Processed Spectrum: 2048
>>>>>Begin Processed Spectral Data<<<<<
365.73	243.42
365.92	243.42
366.12	243.42
366.32	110.01
366.52	65.54
366.72	170.86
366.91	163.84
367.11	117.03
367.31	74.90
367.51	154.48
367.70	154.48
367.90	133.41
368.10	128.73
368.30	107.66
368.49	135.75
368.69	212.99
368.89	205.97
369.09	177.88
369.28	229.37
369.48	163.84
369.68	149.79
369.87	198.95
370.07	175.54
370.27	238.73
370.47	264.48
370.66	587.47
370.86	596.84
371.06	664.71
371.25	688.12
371.45	573.43
371.65	765.36
371.84	608.54
372.04	627.26
372.24	716.20
372.44	695.14
372.63	805.14
372.83	746.63
373.03	730.25
373.22	746.63
373.42	788.76
373.62	739.61
373.81	751.31
374.01	816.85
374.21	840.25
374.40	760.67
374.60	833.23
374.79	816.85
374.99	840.25
375.19	779.40
375.38	849.61
375.58	887.06
375.78	896.43
375.97	866.00
376.17	828.55
376.37	861.32
376.56	889.40
376.76	807.48
376.95	917.49
377.15	870.68
377.35	849.61
377.54	917.49
377.74	844.93
377.93	887.06
378.13	891.74
378.33	891.74
378.52	889.40
378.72	947.92
378.91	985.37
379.11	959.62
379.31	889.40
379.50	889.40
379.70	1053.24
379.89	1048.56
380.09	987.71
380.28	945.58
380.48	994.73
380.68	980.68
380.87	926.85
381.07	1018.13
381.26	1036.86
381.46	1032.18
381.65	1011.11
381.85	1074.31
382.04	1011.11
382.24	1069.62
382.43	1050.90
382.63	940.90
382.83	1008.77
383.02	1158.57
383.22	1167.93
383.41	1078.99
383.61	1088.35
383.80	1163.25
384.00	1064.94
384.19	1071.97
384.39	1186.65
384.58	1196.01
384.78	1163.25
384.97	1153.88
385.17	1153.88
385.36	1123.46
385.56	1261.55
385.75	1160.91
385.95	1146.86
386.14	1214.74
386.34	1139.84
386.53	1245.16
386.72	1137.50
386.92	1324.74
387.11	1186.65
387.31	1270.91
387.50	1156.22
387.70	1263.89
387.89	1296.66
388.09	1261.55
388.28	1259.21
388.48	1261.55
388.67	1289.64
388.86	1338.79
389.06	1350.49
389.25	1313.04
389.45	1362.19
389.64	1355.17
389.84	1345.81
390.03	1406.66
390.22	1378.58
390.42	1338.79
390.61	1366.87
390.81	1437.09
391.00	1409.00
391.19	1394.96
391.39	1418.36
391.58	1411.34
391.78	1497.94
391.97	1420.71
392.16	1481.56
392.36	1556.46
392.55	1493.26
392.75	1554.12
392.94	1458.15
393.13	1540.07
393.33	1528.37
393.52	1476.88
393.71	1596.25
393.91	1542.41
394.10	1582.20
394.29	1575.18
394.49	1542.41
394.68	1558.80
394.88	1692.21
395.07	1720.29
395.26	1703.91
395.46	1778.81
395.65	1809.23
395.84	1729.66
396.04	1710.93
396.23	1802.21
396.42	1724.97
396.62	1818.60
396.81	1788.17
397.00	1685.19
397.19	1912.22
397.39	1802.21
397.58	1837.32
397.77	1870.09
397.97	1909.88
398.16	1783.49
398.35	1956.69
398.55	1856.04
398.74	1973.07
398.93	1966.05
399.12	1968.39
399.32	1851.36
399.51	1996.48
399.70	1893.49
399.90	1926.26
400.09	2019.88
400.28	2019.88
400.47	1984.77
400.67	2033.93
400.86	2108.82
401.05	2033.93
401.24	2108.82
401.44	2129.89
401.63	2172.02
401.82	2150.95
402.01	2019.88
402.21	2090.10
402.40	2195.42
402.59	2146.27
402.78	2092.44
402.97	2377.98
403.17	2260.96
403.36	2237.55
403.55	2232.87
403.74	2392.03
403.93	2333.51
404.13	2403.73
404.32	2338.20
404.51	2363.94
404.70	2497.35
404.89	2392.03
405.09	2462.24
405.28	2525.44
405.47	2487.99
405.66	2527.78
405.85	2532.46
406.05	2572.25
406.24	2654.17
406.43	2544.16
406.62	2644.81
406.81	2729.06
407.00	2595.65
407.20	2644.81
407.39	2651.83
407.58	2668.21
407.77	2693.96
407.96	2808.64
408.15	2719.70
408.34	2677.57
408.54	2911.63
408.73	2839.07
408.92	2825.03
409.11	2899.92
409.30	2857.79
409.49	2787.58
409.68	2897.58
409.87	3000.57
410.07	2946.73
410.26	2960.78
410.45	2902.26
410.64	2942.05
410.83	3012.27
411.02	3063.76
411.21	3183.13
411.40	3225.26
411.59	3166.74
411.78	3096.53
411.98	3258.03
412.17	3335.26
412.36	3220.58
412.55	3288.45
412.74	3559.95
412.93	3398.46
413.12	3435.91
413.31	3641.87
413.50	3391.44
413.69	3447.61
413.88	3545.91
414.07	3534.21
414.26	3625.49
414.45	3641.87
414.64	3805.71
414.83	3691.02
415.02	3756.56
415.22	3735.50
415.41	3815.07
415.60	3871.25
415.79	3901.67
415.98	4051.47
416.17	3983.59
416.36	4053.81
416.55	3784.65
416.74	3943.80
416.93	4088.92
417.12	4065.51
417.31	4159.13
417.50	4177.86
417.69	4198.92
417.88	4156.79
418.07	4414.25
418.26	4416.59
418.45	4325.31
418.64	4486.81
418.83	4458.72
419.02	4447.02
419.21	4643.62
419.39	4454.04
419.58	4524.26
419.77	4428.29
419.96	4695.11
420.15	4468.08
420.34	4615.54
420.53	4538.30
420.72	4645.96
420.91	4603.83
421.10	4725.54
421.29	4795.76
421.48	4758.31
421.67	4720.86
421.86	4667.03
422.05	4791.08
422.24	4873.00
422.43	4924.49
422.61	5036.83
422.80	5062.58
422.99	4975.98
423.18	4931.51
423.37	4889.38
423.56	4954.91
423.75	4931.51
423.94	4950.23
424.13	4461.06
424.32	4636.60
424.50	5153.86
424.69	5153.86
424.88	5121.09
425.07	4896.40
425.26	4889.38
425.45	4926.83
425.64	4968.96
425.83	5083.64
426.01	4961.94
426.20	4990.02
426.39	4938.53
426.58	4945.55
426.77	5020.45
426.96	5032.15
427.15	5111.73
427.33	5203.01
427.52	5277.91
427.71	5308.34
427.90	5163.22
428.09	5289.61
428.28	5411.32
428.46	5371.53
428.65	5327.06
428.84	5481.53
429.03	5472.17
429.22	5303.65
429.40	5413.66
429.59	5481.53
429.78	5114.07
429.97	5153.86
430.16	5378.55
430.34	5462.81
430.53	5701.54
430.72	5554.09
430.91	5661.76
431.10	5682.82
431.28	5874.74
431.47	5610.26
431.66	5996.45
431.85	5631.33
432.03	5916.87
432.22	5961.34
432.41	5907.51
432.60	5884.11
432.79	5977.73
432.97	6108.80
433.16	6076.03
433.35	5928.58
433.54	6033.90
433.72	6221.14
433.91	6045.60
434.10	6029.22
434.28	5973.05
434.47	6104.12
434.66	6228.17
434.85	6366.26
435.03	6200.08
435.22	6389.66
435.41	6424.77
435.59	6389.66
435.78	6457.54
435.97	6445.84
436.16	6324.13
436.34	6384.98
436.53	6693.93
436.72	6703.29
436.90	6396.68
437.09	6546.48
437.28	6490.31
437.46	6626.06
437.65	6497.33
437.84	6750.10
438.02	6581.59
438.21	6815.64
438.40	6773.51
438.58	6953.73
438.77	7293.11
438.96	6923.30
439.14	6953.73
439.33	7190.13
439.52	7211.19
439.70	7014.59
439.89	7295.45
440.08	7360.98
440.26	7379.71
440.45	7302.47
440.63	7527.16
440.82	7658.23
441.01	7573.97
441.19	7747.17
441.38	7702.70
441.57	7719.09
441.75	7793.98
441.94	7981.23
442.12	7892.29
442.31	7899.31
442.50	8042.08
442.68	7939.10
442.87	8093.57
443.05	8191.88
443.24	8147.40
443.43	8006.97
443.61	8159.11
443.80	8547.64
443.98	8180.17
444.17	7854.84
444.35	8351.03
444.54	8439.97
444.73	8198.90
444.91	8273.79
445.10	8545.30
445.28	8318.26
445.47	8290.18
445.65	8292.52
445.84	8388.48
446.02	8475.08
446.21	8468.06
446.39	8341.67
446.58	8505.51
446.77	8465.72
446.95	8238.69
447.14	8444.65
447.32	8601.47
447.51	8500.83
447.69	8374.44
447.88	8564.02
448.06	8374.44
448.25	8517.21
448.43	8444.65
448.62	8517.21
448.80	8500.83
448.99	8795.73
449.17	8683.39
449.36	8777.01
449.54	8730.20
449.73	8816.80
449.91	9163.20
450.10	8992.34
450.28	9008.72
450.46	9263.84
450.65	9046.17
450.83	9191.28
451.02	9104.68
451.20	9261.50
451.39	9076.60
451.57	9373.85
451.76	9200.65
451.94	9231.07
452.13	9380.87
452.31	9334.06
452.49	9198.31
452.68	9413.63
452.86	9263.84
453.05	9619.60
453.23	9589.17
453.42	9458.10
453.60	9350.44
453.78	9701.52
453.97	9500.23
454.15	9418.32
454.34	9359.80
454.52	9678.12
454.70	9467.47
454.89	9465.13
455.07	9825.57
455.26	9975.36
455.44	9900.47
455.62	9966.00
455.81	9720.24
455.99	10019.83
456.17	10045.58
456.36	9935.57
456.54	9881.74
456.73	10359.21
456.91	10263.25
457.09	10377.94
457.28	10562.84
457.46	10403.68
457.64	10555.82
457.83	10686.89
458.01	10338.15
458.19	10752.42
458.38	10333.47
458.56	10604.97
458.74	10574.54
458.93	10693.91
459.11	10792.21
459.29	10792.21
459.48	10654.12
459.66	10672.84
459.84	11157.33
460.03	11122.23
460.21	10803.91
460.39	10906.90
460.57	11094.14
460.76	10960.73
460.94	11349.26
461.12	11262.66
461.31	11150.31
461.49	11052.01
461.67	11042.65
461.85	11424.15
462.04	11304.79
462.22	11716.72
462.40	11552.88
462.59	11426.50
462.77	11531.82
462.95	11550.54
463.13	11587.99
463.32	11747.15
463.50	11854.81
463.68	11782.26
463.86	11676.93
464.05	11552.88
464.23	11496.71
464.41	11791.62
464.59	11613.74
464.78	12112.27
464.96	12105.25
465.14	11768.21
465.32	12072.48
465.50	11983.54
465.69	12135.68
465.87	12156.74
466.05	12102.91
466.23	12224.62
466.41	12156.74
466.60	12592.08
466.78	12226.96
466.96	12241.00
467.14	12294.83
467.32	12306.54
467.51	12355.69
467.69	12159.08
467.87	12273.77
468.05	12648.26
468.23	12402.50
468.41	12388.46
468.60	12561.66
468.78	12566.34
468.96	12575.70
469.14	12833.16
469.32	13107.00
469.50	12589.74
469.69	12926.78
469.87	12903.37
470.05	12879.97
470.23	13057.85
470.41	13046.15
470.59	13310.63
470.77	13345.73
470.95	13245.09
471.14	13650.00
471.32	13273.18
471.50	13544.68
471.68	13509.57
471.86	13577.45
472.04	13514.25
472.22	13984.70
472.40	13575.11
472.58	13949.59
472.77	14031.51
472.95	14162.58
473.13	14661.12
473.31	14185.99
473.49	14127.47
473.67	14204.71
473.85	14118.11
474.03	14614.30
474.21	14679.84
474.39	14839.00
474.57	14443.45
474.75	15087.09
474.93	15260.29
475.12	15002.83
475.30	15166.67
475.48	15239.23
475.66	15101.14
475.84	14991.13
476.02	15330.51
476.20	15604.35
476.38	15805.64
476.56	15941.39
476.74	15889.90
476.92	15740.10
477.10	15894.58
477.28	16142.67
477.46	16491.41
477.64	16166.08
477.82	16334.60
478.00	16952.50
478.18	16732.49
478.36	16826.11
478.54	17036.76
478.72	17128.04
478.90	17216.98
479.08	17575.08
479.26	17741.26
479.44	17834.88
479.62	17811.48
479.80	18122.77
479.98	18160.22
480.16	18750.03
480.34	18129.79
480.52	18789.82
480.70	18672.79
480.88	18551.09
481.06	18590.88
481.24	18665.77
481.41	19110.47
481.59	19377.30
481.77	19541.13
481.95	19564.54
482.13	19814.98
482.31	19501.34
482.49	19747.10
482.67	20039.67
482.85	20240.95
483.03	20643.52
483.21	20606.08
483.39	21186.53
483.57	20889.28
483.74	21158.44
483.92	21575.06
484.10	21245.04
484.28	21631.23
484.46	21710.81
484.64	22438.72
484.82	22003.38
485.00	22649.36
485.18	22614.26
485.35	22466.80
485.53	22766.39
485.71	23042.57
485.89	23630.05
486.07	22981.72
486.25	23166.62
486.43	23503.66
486.61	23840.70
486.78	24084.11
486.96	23936.66
487.14	24613.07
487.32	24416.47
487.50	24645.84
487.68	25088.20
487.85	25289.49
488.03	25266.08
488.21	25879.30
488.39	25853.56
488.57	26239.75
488.75	26450.39
488.92	26288.90
489.10	26787.43
489.28	26511.25
489.46	26958.29
489.64	26876.37
489.81	27887.48
489.99	27740.03
490.17	27733.01
490.35	28039.62
490.53	28156.64
490.70	28074.73
490.88	28280.69
491.06	28603.69
491.24	29010.94
491.41	28959.45
491.59	28943.06
491.77	29006.26
491.95	29212.23
492.13	29876.94
492.30	29912.05
492.48	30246.74
492.66	29996.31
492.84	30356.75
493.01	30389.52
493.19	30852.94
493.37	31070.61
493.54	31222.75
493.72	31519.99
493.90	31730.64
494.08	31625.32
494.25	31828.95
494.43	32058.32
494.61	32273.65
494.79	32617.71
494.96	32624.73
495.14	32760.48
495.32	32954.74
495.49	33109.22
495.67	33347.95
495.85	33413.49
496.02	33467.32
496.20	33991.60
496.38	34295.87
496.55	34117.99
496.73	34958.24
496.91	34511.20
497.09	34810.79
497.26	34965.26
497.44	34831.85
497.62	35377.20
497.79	35971.69
497.97	35335.07
498.14	35529.33
498.32	36107.44
498.50	35931.90
498.67	36566.19
498.85	36126.17
499.03	36484.27
499.20	36715.98
499.38	36643.43
499.56	36945.36
499.73	37193.45
499.91	37317.50
500.08	37663.90
500.26	37406.44
500.44	37853.48
500.61	37713.05
500.79	37593.68
500.97	38038.39
501.14	38457.34
501.32	38380.10
501.49	38464.36
501.67	38829.49
501.84	38986.30
502.02	38972.26
502.20	39122.05
502.37	38913.75
502.55	38958.22
502.72	39391.22
502.90	39868.69
503.07	39786.77
503.25	39779.74
503.43	39414.62
503.60	40151.89
503.78	40350.84
503.95	40339.13
504.13	40636.38
504.30	40250.19
504.48	40297.00
504.65	40474.88
504.83	41053.00
505.01	40964.06
505.18	41165.34
505.36	41106.83
505.53	41553.87
505.71	41188.75
505.88	41731.75
506.06	41153.64
506.23	42401.14
506.41	41897.93
506.58	41804.31
506.76	41911.97
506.93	42351.99
507.11	42211.56
507.28	42511.15
507.46	42777.97
507.63	42534.56
507.81	42880.95
507.98	42693.71
508.16	42731.16
508.33	43255.44
508.50	43147.78
508.68	43332.68
508.85	43433.32
509.03	44107.40
509.20	43735.25
509.38	43737.59
509.55	44231.44
509.73	44385.92
509.90	44421.03
510.08	44449.11
510.25	44526.35
510.42	44353.15
510.60	44669.12
510.77	45235.53
510.95	45317.45
511.12	45130.21
511.30	45296.39
511.47	45649.81
511.64	45514.06
511.82	45722.37
511.99	45914.29
512.17	46057.06
512.34	45549.17
512.51	46749.86
512.69	46429.21
512.86	46291.12
513.04	46628.15
513.21	46579.00
513.38	46469.00
513.56	46625.81
513.73	46974.55
513.90	47016.68
514.08	46953.49
514.25	47309.25
514.43	47538.62
514.60	47363.08
514.77	46932.42
514.95	47562.03
515.12	47452.02
515.29	47353.72
515.47	47503.51
515.64	48149.50
515.81	47573.73
515.99	48083.97
516.16	48392.92
516.33	48062.90
516.51	48755.70
516.68	48484.20
516.85	48399.94
517.03	48846.98
517.20	49116.14
517.37	49181.68
517.54	48629.31
517.72	48973.37
517.89	48648.03
518.06	49034.22
518.24	49284.66
518.41	49521.05
518.58	49254.23
518.75	49146.57
518.93	49404.03
519.10	49228.49
519.27	49481.27
519.45	49748.09
519.62	50014.91
519.79	49930.65
519.96	50012.57
520.14	50206.83
520.31	50337.90
520.48	50347.26
520.65	50370.67
520.83	50478.33
521.00	50384.71
521.17	50497.06
521.34	50754.52
521.52	51072.83
521.69	50960.48
521.86	50904.31
522.03	50883.25
522.20	51220.28
522.38	51241.35
522.55	51318.59
522.72	51231.99
522.89	51323.27
523.07	51737.54
523.24	51601.79
523.41	51187.52
523.58	51316.25
523.75	51615.83
523.92	51760.95
524.10	52116.71
524.27	51903.72
524.44	51945.85
524.61	51995.00
524.78	52224.37
524.96	52149.48
525.13	52509.92
525.30	52514.60
525.47	52575.45
525.64	52650.35
525.81	52505.24
525.98	52610.56
526.16	52545.03
526.33	52589.50
526.50	52893.77
526.67	52713.55
526.84	53052.92
527.01	52804.83
527.18	53113.78
527.36	53073.99
527.53	52971.00
527.70	53230.80
527.87	53233.14
528.04	53123.14
528.21	53219.10
528.38	53326.77
528.55	53694.23
528.72	53324.43
528.89	53258.89
529.07	53343.15
529.24	53326.77
529.41	53675.51
529.58	53722.32
529.75	53633.38
529.92	53862.75
530.09	53656.78
530.26	54024.25
530.43	54103.82
530.60	53748.06
530.77	53930.62
530.94	53975.09
531.11	54239.57
531.28	54291.07
531.46	54354.26
531.63	54466.61
531.80	54464.27
531.97	54637.47
532.14	54150.63
532.31	54291.07
532.48	54546.18
532.65	54508.74
532.82	54482.99
532.99	54894.92
533.16	54410.43
533.33	54724.07
533.50	54962.80
533.67	54677.25
533.84	54756.83
534.01	54925.35
534.18	54665.55
534.35	55112.59
534.52	55065.78
534.69	55033.02
534.86	55105.57
535.03	54981.52
535.20	55238.98
535.37	55168.77
535.54	55262.39
535.71	55058.76
535.88	55168.77
536.05	55473.04
536.22	55440.27
536.38	55253.03
536.55	55604.11
536.72	55737.52
536.89	55454.31
537.06	55496.44
537.23	55849.86
537.40	55664.96
537.57	55718.79
537.74	55576.02
537.91	55803.05
538.08	55934.12
538.25	55721.13
538.42	55873.27
538.59	56163.50
538.75	55751.56
538.92	56292.22
539.09	55969.23
539.26	56210.31
539.43	55920.08
539.60	56289.88
539.77	56376.48
539.94	56320.31
540.11	56526.28
540.28	56170.52
540.44	56296.91
540.61	56446.70
540.78	56184.56
540.95	56655.01
541.12	56144.77
541.29	56371.80
541.46	56416.27
541.62	56556.70
541.79	56638.62
541.96	56362.44
542.13	56605.86
542.30	56697.14
542.47	56669.05
542.63	56685.43
542.80	56863.32
542.97	57043.54
543.14	57286.95
543.31	57076.30
543.48	57209.71
543.64	57293.97
543.81	57322.06
543.98	57155.88
544.15	57219.08
544.32	57457.81
544.48	57715.27
544.65	57102.05
544.82	57296.31
544.99	57331.42
545.16	57361.85
545.32	57450.79
545.49	57542.07
545.66	57609.95
545.83	57549.09
546.00	57642.71
546.16	57684.84
546.33	57460.15
546.50	57382.91
546.67	57616.97
546.83	57619.31
547.00	57670.80
547.17	57549.09
547.34	57787.83
547.50	57766.76
547.67	57996.13
547.84	58031.24
548.00	58124.86
548.17	58368.28
548.34	58035.92
548.51	58227.85
548.67	58330.83
548.84	58085.07
549.01	57954.00
549.18	58300.40
549.34	58120.18
549.51	58272.32
549.68	58356.58
549.84	58546.16
550.01	58590.63
550.18	58127.20
550.34	58403.39
550.51	58436.16
550.68	58298.06
550.84	58183.38
551.01	58768.51
551.18	58361.26
551.34	58450.20
551.51	58604.67
551.68	58649.14
551.84	58543.82
552.01	58433.81
552.18	58616.38
552.34	58543.82
552.51	58637.44
552.68	58438.50
552.84	58555.52
553.01	58763.83
553.18	58820.00
553.34	58965.12
553.51	58712.34
553.67	58838.73
553.84	59070.44
554.01	58930.01
554.17	59075.12
554.34	58969.80
554.51	59143.00
554.67	58979.16
554.84	58890.22
555.00	58995.54
555.17	59040.01
555.33	59103.21
555.50	59011.93
555.67	58930.01
555.83	59061.08
556.00	59210.87
556.16	59451.95
556.33	59325.56
556.50	59199.17
556.66	59302.15
556.83	59037.67
556.99	59365.35
557.16	59477.69
557.32	59524.50
557.49	59400.46
557.65	59374.71
557.82	59463.65
557.98	59388.75
558.15	59381.73
558.32	59552.59
558.48	59302.15
558.65	59494.08
558.81	59538.55
558.98	59477.69
559.14	59604.08
559.31	59650.89
559.47	59650.89
559.64	60058.15
559.80	59774.94
559.97	59803.03
560.13	59639.19
560.30	59686.00
560.46	59999.63
560.63	59704.73
560.79	59587.70
560.96	59711.75
561.12	59655.57
561.29	59877.93
561.45	59999.63
561.61	59828.77
561.78	59746.86
561.94	59693.02
562.11	59950.48
562.27	59697.70
562.44	60009.00
562.60	59894.31
562.77	59948.14
562.93	59730.47
563.10	60030.06
563.26	59910.69
563.42	59980.91
563.59	60060.49
563.75	59882.61
563.92	59910.69
564.08	59957.50
564.24	60219.64
564.41	60051.12
564.57	60044.10
564.74	59987.93
564.90	60088.57
565.07	60016.02
565.23	59931.76
565.39	60048.78
565.56	60329.65
565.72	59936.44
565.88	60119.00
566.05	60163.47
566.21	60236.03
566.38	60238.37
566.54	60259.43
566.70	60437.31
566.87	60257.09
567.03	60016.02
567.19	60280.50
567.36	60364.76
567.52	60336.67
567.68	60484.12
567.85	60322.63
568.01	60324.97
568.17	60339.01
568.34	60467.74
568.50	60100.28
568.66	60142.41
568.83	60198.58
568.99	60287.52
569.15	60388.16
569.32	60355.39
569.48	60392.84
569.64	60446.68
569.81	60467.74
569.97	60156.45
570.13	60465.40
570.30	60376.46
570.46	60446.68
570.62	60350.71
570.78	60371.78
570.95	60320.29
571.11	60523.91
571.27	60444.33
571.43	60500.51
571.60	60584.77
571.76	60451.36
571.92	60601.15
572.09	60512.21
572.25	60420.93
572.41	60460.72
572.57	60343.69
572.74	60638.60
572.90	60418.59
573.06	60584.77
573.22	60451.36
573.38	60563.70
573.55	60507.53
573.71	60739.24
573.87	60474.76
574.03	60556.68
574.20	60540.30
574.36	60605.83
574.52	60816.48
574.68	60596.47
574.84	60849.25
575.01	60811.80
575.17	60666.69
575.33	60484.12
575.49	60526.25
575.65	60636.26
575.82	60743.92
575.98	60580.09
576.14	60748.60
576.30	60790.73
576.46	60603.49
576.62	60797.76
576.79	60774.35
576.95	60451.36
577.11	60926.49
577.27	60711.16
577.43	60619.88
577.59	60753.29
577.75	60872.65
577.92	60701.79
578.08	60699.45
578.24	60694.77
578.40	60968.61
578.56	60814.14
578.72	60760.31
578.88	60917.12
579.04	60837.54
579.21	60764.99
579.37	60832.86
579.53	61038.83
579.69	60662.00
579.85	60615.19
580.01	60769.67
580.17	60678.39
580.33	60650.30
580.49	60924.14
580.65	60851.59
580.82	60825.84
580.98	60624.56
581.14	60940.53
581.30	61043.51
581.46	60823.50
581.62	60774.35
581.78	60741.58
581.94	60982.66
582.10	60816.48
582.26	60783.71
582.42	60919.46
582.58	60949.89
582.74	60905.42
582.90	60793.07
583.06	60865.63
583.22	60863.29
583.38	61036.49
583.54	60739.24
583.70	60970.96
583.86	60956.91
584.02	60821.16
584.18	61078.62
584.34	61010.74
584.50	61027.13
584.66	60793.07
584.82	60814.14
584.98	61102.03
585.14	61078.62
585.30	60996.70
585.46	61008.40
585.62	61029.47
585.78	61179.26
585.94	60851.59
586.10	60919.46
586.26	60921.80
586.42	60968.61
586.58	61181.60
586.74	61134.79
586.90	61052.87
587.06	60783.71
587.22	60999.04
587.38	61160.54
587.54	61097.34
587.70	61272.88
587.86	61123.09
588.02	60999.04
588.18	61097.34
588.34	60903.08
588.49	60949.89
