SpectraSuite Data File
++++++++++++++++++++++++++++++++++++
Date: Fri Oct 25 11:33:53 EDT 2013
User: price-jones
Dark Spectrum Present: No
Reference Spectrum Present: No
Number of Sampled Component Spectra: 1
Spectrometers: USB2+H05261
Integration Time (usec): 100000 (USB2+H05261)
Spectra Averaged: 1 (USB2+H05261)
Boxcar Smoothing: 0 (USB2+H05261)
Correct for Electrical Dark: No (USB2+H05261)
Strobe/Lamp Enabled: No (USB2+H05261)
Correct for Detector Non-linearity: No (USB2+H05261)
Correct for Stray Light: No (USB2+H05261)
Number of Pixels in Processed Spectrum: 2048
>>>>>Begin Processed Spectral Data<<<<<
365.73	276.18
365.92	276.18
366.12	276.18
366.32	170.86
366.52	184.90
366.72	271.50
366.91	196.60
367.11	154.48
367.31	149.79
367.51	147.45
367.70	187.24
367.90	166.18
368.10	135.75
368.30	170.86
368.49	152.13
368.69	184.90
368.89	203.63
369.09	196.60
369.28	248.10
369.48	142.77
369.68	227.03
369.87	271.50
370.07	212.99
370.27	299.59
370.47	334.70
370.66	416.62
370.86	521.94
371.06	517.26
371.25	543.00
371.45	575.77
371.65	517.26
371.84	526.62
372.04	531.30
372.24	533.64
372.44	543.00
372.63	554.71
372.83	566.41
373.03	503.22
373.22	615.56
373.42	660.03
373.62	571.09
373.81	615.56
374.01	683.44
374.21	634.29
374.40	538.32
374.60	650.67
374.79	678.76
374.99	610.88
375.19	660.03
375.38	620.24
375.58	631.94
375.78	748.97
375.97	657.69
376.17	758.33
376.37	643.65
376.56	699.82
376.76	681.10
376.95	653.01
377.15	697.48
377.35	772.38
377.54	688.12
377.74	718.54
377.93	669.39
378.13	746.63
378.33	699.82
378.52	662.37
378.72	748.97
378.91	641.31
379.11	730.25
379.31	751.31
379.50	685.78
379.70	699.82
379.89	730.25
380.09	657.69
380.28	692.80
380.48	690.46
380.68	744.29
380.87	779.40
381.07	699.82
381.26	819.19
381.46	741.95
381.65	720.88
381.85	690.46
382.04	725.57
382.24	819.19
382.43	777.06
382.63	774.72
382.83	723.23
383.02	828.55
383.22	870.68
383.41	826.21
383.61	791.10
383.80	774.72
384.00	774.72
384.19	748.97
384.39	837.91
384.58	807.48
384.78	795.78
384.97	819.19
385.17	884.72
385.36	814.51
385.56	772.38
385.75	905.79
385.95	774.72
386.14	823.87
386.34	896.43
386.53	905.79
386.72	835.57
386.92	938.55
387.11	889.40
387.31	882.38
387.50	901.11
387.70	851.96
387.89	842.59
388.09	870.68
388.28	800.46
388.48	898.77
388.67	922.17
388.86	945.58
389.06	966.64
389.25	884.72
389.45	861.32
389.64	990.05
389.84	1004.09
390.03	1022.81
390.22	1011.11
390.42	938.55
390.61	999.41
390.81	940.90
391.00	1022.81
391.19	1018.13
391.39	985.37
391.58	980.68
391.78	1001.75
391.97	990.05
392.16	1025.15
392.36	1036.86
392.55	1107.07
392.75	999.41
392.94	1053.24
393.13	992.39
393.33	1022.81
393.52	1060.26
393.71	1020.47
393.91	1090.69
394.10	1039.20
394.29	1071.97
394.49	1116.44
394.68	1177.29
394.88	1153.88
395.07	1158.57
395.26	1153.88
395.46	1097.71
395.65	1179.63
395.84	1151.54
396.04	1263.89
396.23	1153.88
396.42	1203.04
396.62	1226.44
396.81	1322.40
397.00	1210.06
397.19	1137.50
397.39	1205.38
397.58	1221.76
397.77	1228.78
397.97	1310.70
398.16	1287.29
398.35	1231.12
398.55	1219.42
398.74	1254.53
398.93	1322.40
399.12	1249.85
399.32	1362.19
399.51	1345.81
399.70	1338.79
399.90	1359.85
400.09	1277.93
400.28	1404.32
400.47	1387.94
400.67	1401.98
400.86	1322.40
401.05	1437.09
401.24	1409.00
401.44	1556.46
401.63	1504.96
401.82	1474.54
402.01	1345.81
402.21	1465.18
402.40	1437.09
402.59	1528.37
402.78	1626.67
402.97	1533.05
403.17	1511.99
403.36	1502.62
403.55	1530.71
403.74	1563.48
403.93	1516.67
404.13	1556.46
404.32	1668.80
404.51	1519.01
404.70	1664.12
404.89	1624.33
405.09	1631.35
405.28	1720.29
405.47	1586.88
405.66	1792.85
405.85	1732.00
406.05	1764.76
406.24	1746.04
406.43	1701.57
406.62	1827.96
406.81	1797.53
407.00	1748.38
407.20	1741.36
407.39	1867.75
407.58	1839.66
407.77	1870.09
407.96	1837.32
408.15	1816.26
408.34	1757.74
408.54	1898.17
408.73	1867.75
408.92	1980.09
409.11	1973.07
409.30	1907.54
409.49	2003.50
409.68	2010.52
409.87	2066.69
410.07	2118.18
410.26	2097.12
410.45	2083.08
410.64	2200.10
410.83	2083.08
411.02	2003.50
411.21	2221.17
411.40	2057.33
411.59	2148.61
411.78	2186.06
411.98	2141.59
412.17	2230.53
412.36	2223.51
412.55	2253.94
412.74	2424.80
412.93	2319.47
413.12	2303.09
413.31	2469.27
413.50	2387.35
413.69	2399.05
413.88	2551.18
414.07	2464.58
414.26	2452.88
414.45	2511.39
414.64	2555.86
414.83	2605.02
415.02	2558.21
415.22	2635.44
415.41	2705.66
415.60	2588.63
415.79	2595.65
415.98	2775.88
416.17	2672.89
416.36	2616.72
416.55	2696.30
416.74	2841.41
416.93	2827.37
417.12	2918.65
417.31	2827.37
417.50	2932.69
417.69	2801.62
417.88	2904.60
418.07	2986.52
418.26	2974.82
418.45	2876.52
418.64	3068.44
418.83	3040.36
419.02	3035.67
419.21	3047.38
419.39	3103.55
419.58	3091.85
419.77	3028.65
419.96	3152.70
420.15	3054.40
420.34	3133.98
420.53	3239.30
420.72	3225.26
420.91	3293.13
421.10	3267.39
421.29	3330.58
421.48	3265.05
421.67	3141.00
421.86	3330.58
422.05	3190.15
422.24	3208.87
422.43	3368.03
422.61	3363.35
422.80	3337.60
422.99	3417.18
423.18	3218.24
423.37	3433.57
423.56	3403.14
423.75	3391.44
423.94	3349.31
424.13	3145.68
424.32	3346.97
424.50	3414.84
424.69	3471.01
424.88	3499.10
425.07	3248.66
425.26	3452.29
425.45	3346.97
425.64	3487.40
425.83	3389.10
426.01	3332.92
426.20	3482.72
426.39	3583.36
426.58	3541.23
426.77	3538.89
426.96	3496.76
427.15	3527.19
427.33	3543.57
427.52	3513.14
427.71	3583.36
427.90	3499.10
428.09	3676.98
428.28	3660.60
428.46	3705.07
428.65	3714.43
428.84	3751.88
429.03	3756.56
429.22	3632.51
429.40	3794.01
429.59	3857.20
429.78	3641.87
429.97	3637.19
430.16	3817.41
430.34	3803.37
430.53	3850.18
430.72	3925.08
430.91	3798.69
431.10	3927.42
431.28	3754.22
431.47	3971.89
431.66	4011.68
431.85	3964.87
432.03	4056.15
432.22	4016.36
432.41	3936.78
432.60	3889.97
432.79	4042.11
432.97	4053.81
433.16	4238.71
433.35	4070.19
433.54	4170.83
433.72	4189.56
433.91	4100.62
434.10	4168.49
434.28	4194.24
434.47	4093.60
434.66	4372.12
434.85	4262.12
435.03	4227.01
435.22	4269.14
435.41	4360.42
435.59	4306.59
435.78	4292.54
435.97	4369.78
436.16	4528.94
436.34	4337.01
436.53	4528.94
436.72	4568.73
436.90	4292.54
437.09	4428.29
437.28	4468.08
437.46	4505.53
437.65	4531.28
437.84	4514.89
438.02	4500.85
438.21	4540.64
438.40	4472.76
438.58	4681.07
438.77	4713.84
438.96	4767.67
439.14	4894.06
439.33	4933.85
439.52	4805.12
439.70	4901.08
439.89	5050.88
440.08	4992.36
440.26	5011.09
440.45	4882.36
440.63	4990.02
440.82	5158.54
441.01	5069.60
441.19	5111.73
441.38	5305.99
441.57	5301.31
441.75	5324.72
441.94	5313.02
442.12	5280.25
442.31	5439.40
442.50	5568.13
442.68	5392.59
442.87	5341.10
443.05	5322.38
443.24	5551.75
443.43	5373.87
443.61	5593.88
443.80	5507.28
443.98	5462.81
444.17	5291.95
444.35	5416.00
444.54	5551.75
444.73	5572.82
444.91	5645.37
445.10	5598.56
445.28	5481.53
445.47	5523.66
445.65	5554.09
445.84	5689.84
446.02	5818.57
446.21	5668.78
446.39	5682.82
446.58	5743.67
446.77	5769.42
446.95	5743.67
447.14	5731.97
447.32	5785.80
447.51	5795.17
447.69	5757.72
447.88	5776.44
448.06	5729.63
448.25	5776.44
448.43	5841.98
448.62	5818.57
448.80	5813.89
448.99	5944.96
449.17	5755.38
449.36	5746.02
449.54	5951.98
449.73	6017.52
449.91	6176.67
450.10	6043.26
450.28	6244.55
450.46	6246.89
450.65	6197.74
450.83	6033.90
451.02	6099.44
451.20	6225.82
451.39	6080.71
451.57	6134.54
451.76	6078.37
451.94	6026.88
452.13	6064.33
452.31	6361.58
452.49	6242.21
452.68	6277.32
452.86	6186.04
453.05	6293.70
453.23	6410.73
453.42	6272.64
453.60	6305.40
453.78	6480.94
453.97	6305.40
454.15	6345.19
454.34	6242.21
454.52	6417.75
454.70	6459.88
454.89	6600.31
455.07	6509.03
455.26	6684.57
455.44	6717.34
455.62	6813.30
455.81	6729.04
455.99	6773.51
456.17	6647.12
456.36	6757.13
456.54	6918.62
456.73	6920.96
456.91	6932.67
457.09	7045.01
457.28	7133.95
457.46	6906.92
457.64	7049.69
457.83	6970.12
458.01	6951.39
458.19	7293.11
458.38	7040.33
458.56	7311.83
458.74	7227.57
458.93	7220.55
459.11	7339.92
459.29	7131.61
459.48	7054.37
459.66	7232.26
459.84	7103.53
460.03	7405.46
460.21	7276.73
460.39	7323.54
460.57	7330.56
460.76	7421.84
460.94	7599.72
461.12	7618.44
461.31	7569.29
461.49	7419.50
461.67	7597.38
461.85	7662.91
462.04	7566.95
462.22	7833.77
462.40	7737.81
462.59	7613.76
462.77	7662.91
462.95	7581.00
463.13	7817.39
463.32	7866.54
463.50	7777.60
463.68	7831.43
463.86	7932.08
464.05	8006.97
464.23	7847.82
464.41	8035.06
464.59	7786.96
464.78	8175.49
464.96	7925.05
465.14	7864.20
465.32	8114.64
465.50	8093.57
465.69	8170.81
465.87	8241.03
466.05	7915.69
466.23	8060.80
466.41	8226.98
466.60	8365.07
466.78	8095.91
466.96	8116.98
467.14	8184.85
467.32	8271.45
467.51	8229.32
467.69	8212.94
467.87	8451.67
468.05	8313.58
468.23	8238.69
468.41	8444.65
468.60	8402.52
468.78	8547.64
468.96	8301.88
469.14	8505.51
469.32	8388.48
469.50	8339.33
469.69	8573.38
469.87	8704.45
470.05	8545.30
470.23	8856.59
470.41	8692.75
470.59	8578.06
470.77	8959.57
470.95	8833.18
471.14	8894.04
471.32	8894.04
471.50	8957.23
471.68	9048.51
471.86	9256.82
472.04	8959.57
472.22	9233.41
472.40	9039.15
472.58	8999.36
472.77	9191.28
472.95	9233.41
473.13	9633.64
473.31	9415.98
473.49	9376.19
473.67	9305.97
473.85	9467.47
474.03	9568.11
474.21	9675.77
474.39	9874.72
474.57	9715.56
474.75	10017.49
474.93	9811.53
475.12	10092.39
475.30	9996.43
475.48	9884.08
475.66	9900.47
475.84	10078.35
476.02	10148.56
476.20	10120.48
476.38	10228.14
476.56	10466.88
476.74	10569.86
476.92	10422.41
477.10	10413.04
477.28	10621.35
477.46	10525.39
477.64	10679.86
477.82	11033.29
478.00	11119.89
478.18	11208.83
478.36	11307.13
478.54	11295.43
478.72	11307.13
478.90	11438.20
479.08	11592.67
479.26	11623.10
479.44	11508.41
479.62	11564.59
479.80	11913.33
479.98	11749.49
480.16	12252.70
480.34	11918.01
480.52	12091.21
480.70	12177.81
480.88	12262.07
481.06	12313.56
481.24	12210.57
481.41	12554.63
481.59	12634.21
481.77	12727.83
481.95	12840.18
482.13	12814.43
482.31	12823.80
482.49	13369.14
482.67	13226.37
482.85	13401.91
483.03	13481.49
483.21	13582.13
483.39	13752.99
483.57	13680.43
483.74	13907.46
483.92	13919.17
484.10	13827.88
484.28	14036.19
484.46	14380.25
484.64	14761.76
484.82	14424.72
485.00	14820.27
485.18	14848.36
485.35	15028.58
485.53	14813.25
485.71	15002.83
485.89	15360.94
486.07	15309.44
486.25	15201.78
486.43	15449.88
486.61	15777.55
486.78	15695.63
486.96	15646.48
487.14	16004.58
487.32	16058.42
487.50	16233.96
487.68	16369.71
487.85	16287.79
488.03	16800.37
488.21	17144.42
488.39	16931.44
488.57	17018.04
488.75	17029.74
488.92	17135.06
489.10	17490.82
489.28	17362.09
489.46	17497.84
489.64	17909.78
489.81	17846.58
489.99	18054.89
490.17	18111.07
490.35	18279.58
490.53	18347.46
490.70	18984.09
490.88	18560.45
491.06	19023.87
491.24	18377.89
491.41	18434.06
491.59	19286.01
491.77	19063.66
491.95	19360.91
492.13	19351.55
492.30	19683.91
492.48	19559.86
492.66	19690.93
492.84	19850.08
493.01	20135.63
493.19	19784.55
493.37	20528.84
493.54	20173.08
493.72	20608.42
493.90	20671.61
494.08	20531.18
494.25	20987.58
494.43	20805.02
494.61	21282.49
494.79	21486.12
494.96	21259.09
495.14	21448.67
495.32	21441.65
495.49	21699.11
495.67	21678.04
495.85	21792.73
496.02	22108.70
496.20	22309.99
496.38	22214.02
496.55	22113.38
496.73	22640.00
496.91	22579.15
497.09	22705.54
497.26	22635.32
497.44	22892.78
497.62	23005.13
497.79	23201.73
497.97	23033.21
498.14	23367.91
498.32	23662.82
498.50	23559.83
498.67	23974.11
498.85	23702.61
499.03	24025.60
499.20	23833.68
499.38	24049.00
499.56	24219.86
499.73	24203.48
499.91	24526.47
500.08	24678.61
500.26	24425.83
500.44	24732.44
500.61	24929.05
500.79	24507.75
500.97	24800.32
501.14	24931.39
501.32	25212.25
501.49	25113.95
501.67	25355.02
501.84	25577.37
502.02	25582.06
502.20	25699.08
502.37	25476.73
502.55	25532.90
502.72	25640.57
502.90	26141.44
503.07	25905.05
503.25	25902.71
503.43	25912.07
503.60	26375.50
503.78	26536.99
503.95	26319.32
504.13	26335.71
504.30	26417.63
504.48	26508.91
504.65	26663.38
504.83	27126.81
505.01	26892.76
505.18	26991.06
505.36	27002.76
505.53	27229.79
505.71	27185.32
505.88	27229.79
506.06	27328.10
506.23	27604.28
506.41	27487.25
506.58	27875.78
506.76	27321.07
506.93	27828.97
507.11	27597.26
507.28	27676.83
507.46	27931.95
507.63	27960.04
507.81	28266.65
507.98	28126.22
508.16	28397.72
508.33	28472.62
508.50	28697.31
508.68	28575.60
508.85	28751.14
509.03	28847.10
509.20	28811.99
509.38	29270.74
509.55	29343.30
509.73	29095.20
509.90	29153.71
510.08	29347.98
510.25	29394.79
510.42	29179.46
510.60	29631.18
510.77	29586.71
510.95	30066.52
511.12	29996.31
511.30	29717.78
511.47	30146.10
511.64	30059.50
511.82	30211.64
511.99	30305.26
512.17	29935.45
512.34	30438.67
512.51	30855.28
512.69	30529.95
512.86	30719.53
513.04	30728.89
513.21	30494.84
513.38	30892.73
513.56	31009.76
513.73	31117.42
513.90	31070.61
514.08	31307.01
514.25	31470.84
514.43	31316.37
514.60	31667.45
514.77	31435.74
514.95	31887.46
515.12	31505.95
515.29	31770.43
515.47	31988.10
515.64	31915.54
515.81	31754.05
515.99	31828.95
516.16	32381.31
516.33	32285.35
516.51	32631.75
516.68	32292.37
516.85	32212.79
517.03	32477.27
517.20	32613.02
517.37	32453.87
517.54	32570.90
517.72	32662.18
517.89	32645.79
518.06	33076.45
518.24	32737.07
518.41	33083.47
518.58	33230.93
518.75	32451.53
518.93	33181.77
519.10	33308.16
519.27	33404.13
519.45	33649.88
519.62	33961.17
519.79	33270.72
519.96	33188.80
520.14	33811.38
520.31	33759.89
520.48	33661.58
520.65	33537.54
520.83	34260.76
521.00	34232.68
521.17	33989.26
521.34	34342.68
521.52	34223.31
521.69	34326.30
521.86	34906.75
522.03	34314.59
522.20	34607.16
522.38	34944.20
522.55	34871.64
522.72	34827.17
522.89	35002.71
523.07	35309.32
523.24	35082.29
523.41	35124.42
523.58	34871.64
523.75	35302.30
523.92	35150.17
524.10	35629.98
524.27	35248.47
524.44	35632.32
524.61	35634.66
524.78	35353.79
524.96	35758.70
525.13	35810.20
525.30	36062.97
525.47	36147.23
525.64	36039.57
525.81	36088.72
525.98	36313.41
526.16	36273.62
526.33	36189.36
526.50	36570.87
526.67	36334.48
526.84	36589.59
527.01	36236.17
527.18	36350.86
527.36	36879.82
527.53	36907.91
527.70	36840.03
527.87	37186.43
528.04	37188.77
528.21	36816.63
528.38	36999.19
528.55	37462.61
528.72	36683.22
528.89	36830.67
529.07	36800.24
529.24	36807.26
529.41	37567.94
529.58	37460.27
529.75	36886.84
529.92	37443.89
530.09	37785.61
530.26	37731.78
530.43	37804.33
530.60	37331.54
530.77	37303.46
530.94	37518.79
531.11	37724.75
531.28	37834.76
531.46	37668.58
531.63	37790.29
531.80	37912.00
531.97	38515.86
532.14	37998.60
532.31	38263.08
532.48	38010.30
532.65	38380.10
532.82	37830.08
532.99	38232.65
533.16	37926.04
533.33	38455.00
533.50	38586.07
533.67	38469.04
533.84	38462.02
534.01	38667.99
534.18	38820.13
534.35	38864.60
534.52	38967.58
534.69	39178.23
534.86	39253.12
535.03	39159.50
535.20	39328.02
535.37	38815.44
535.54	39421.64
535.71	39398.24
535.88	39199.29
536.05	39337.38
536.22	39519.95
536.38	39819.53
536.55	39374.83
536.72	39552.71
536.89	39641.65
537.06	39386.54
537.23	39922.52
537.40	39679.10
537.57	39468.45
537.74	39672.08
537.91	39868.69
538.08	39985.71
538.25	39526.97
538.42	40107.42
538.59	40058.27
538.75	40055.93
538.92	40051.25
539.09	40350.84
539.26	39971.67
539.43	40053.59
539.60	40294.66
539.77	40257.21
539.94	40666.81
540.11	40329.77
540.28	40851.71
540.44	40259.55
540.61	40409.35
540.78	40776.81
540.95	40229.13
541.12	40594.25
541.29	40652.76
541.46	40844.69
541.62	40781.49
541.79	40760.43
541.96	40421.05
542.13	40942.99
542.30	40863.41
542.47	41099.81
542.63	41104.49
542.80	41645.15
542.97	41722.39
543.14	41979.85
543.31	41813.67
543.48	41598.34
543.64	41923.68
543.81	41792.61
543.98	41687.28
544.15	41464.93
544.32	42113.26
544.48	42190.50
544.65	42328.59
544.82	41759.84
544.99	41607.70
545.16	41874.52
545.32	41790.27
545.49	42204.54
545.66	42829.46
545.83	42295.82
546.00	42532.22
546.16	42309.86
546.33	42234.97
546.50	42127.30
546.67	42686.69
546.83	41820.69
547.00	42454.98
547.17	42312.20
547.34	42401.14
547.50	42866.91
547.67	42883.30
547.84	42761.59
548.00	42581.37
548.17	43494.18
548.34	42740.52
548.51	43005.00
548.67	43000.32
548.84	42862.23
549.01	42927.77
549.18	43178.20
549.34	43222.67
549.51	43363.11
549.68	43346.72
549.84	43466.09
550.01	43330.34
550.18	43358.42
550.34	43210.97
550.51	43330.34
550.68	43721.21
550.84	43166.50
551.01	43489.49
551.18	43477.79
551.34	43435.66
551.51	44107.40
551.68	43316.29
551.84	43267.14
552.01	43580.78
552.18	44144.84
552.34	43709.50
552.51	43761.00
552.68	43922.49
552.84	43739.93
553.01	43751.63
553.18	44025.48
553.34	44215.06
553.51	43622.90
553.67	43782.06
553.84	44107.40
554.01	43849.94
554.17	43552.69
554.34	44411.67
554.51	44098.03
554.67	44556.78
554.84	44505.29
555.00	44444.43
555.17	44261.87
555.33	44369.54
555.50	44371.88
555.67	44313.36
555.83	44414.01
556.00	44442.09
556.16	44928.92
556.33	44982.76
556.50	44474.86
556.66	44491.24
556.83	44474.86
556.99	44790.83
557.16	44830.62
557.32	44896.16
557.49	44568.48
557.65	44442.09
557.82	44830.62
557.98	44921.90
558.15	44942.97
558.32	44814.24
558.48	44875.09
558.65	45017.86
558.81	45055.31
558.98	44687.85
559.14	44884.45
559.31	44868.07
559.47	45289.37
559.64	45319.79
559.80	44985.10
559.97	45425.12
560.13	45308.09
560.30	45146.59
560.46	45301.07
560.63	45160.64
560.79	45727.05
560.96	45649.81
561.12	45322.13
561.29	45422.78
561.45	45478.95
561.61	45380.65
561.78	45289.37
561.94	45425.12
562.11	45469.59
562.27	45249.58
562.44	45382.99
562.60	45715.34
562.77	45661.51
562.93	45729.39
563.10	45633.42
563.26	45244.90
563.42	45827.69
563.59	45832.37
563.75	45483.63
563.92	45659.17
564.08	45298.73
564.24	45886.20
564.41	45806.62
564.57	46057.06
564.74	45624.06
564.90	45694.28
565.07	45801.94
565.23	45769.18
565.39	46050.04
565.56	45970.46
565.72	46087.49
565.88	45855.78
566.05	45900.25
566.21	46021.95
566.38	45680.24
566.54	46110.89
566.70	46256.01
566.87	45867.48
567.03	45495.33
567.19	46138.98
567.36	46539.21
567.52	46108.55
567.68	46031.32
567.85	46014.93
568.01	46412.82
568.17	45977.48
568.34	46593.04
568.50	46302.82
568.66	45652.15
568.83	46230.26
568.99	46033.66
569.15	46328.56
569.32	46309.84
569.48	46120.26
569.64	46815.40
569.81	46461.97
569.97	45972.80
570.13	46398.78
570.30	46036.00
570.46	46267.71
570.62	46869.23
570.78	46263.03
570.95	46115.58
571.11	46649.22
571.27	46085.15
571.43	46167.07
571.60	46529.85
571.76	46745.18
571.92	46534.53
572.09	46351.97
572.25	46375.37
572.41	46307.50
572.57	46366.01
572.74	46777.95
572.90	46560.28
573.06	46649.22
573.22	47049.45
573.38	46820.08
573.55	46581.34
573.71	47122.01
573.87	46916.04
574.03	46501.76
574.20	46766.24
574.36	46567.30
574.52	46639.86
574.68	46557.94
574.84	46911.36
575.01	47215.63
575.17	46588.36
575.33	46623.47
575.49	46527.51
575.65	46993.28
575.82	46990.94
575.98	46691.35
576.14	47122.01
576.30	46894.97
576.46	46740.50
576.62	46536.87
576.79	47072.85
576.95	46810.71
577.11	46569.64
577.27	46883.27
577.43	46803.69
577.59	47079.88
577.75	46590.70
577.92	46305.16
578.08	46363.67
578.24	47028.38
578.40	47051.79
578.56	47112.64
578.72	46724.11
578.88	47079.88
579.04	47012.00
579.21	46766.24
579.37	46791.99
579.53	47358.40
579.69	46859.87
579.85	46644.54
580.01	47122.01
580.17	47201.58
580.33	47049.45
580.49	47054.13
580.65	46918.38
580.82	46611.77
580.98	46946.47
581.14	46696.03
581.30	47339.68
581.46	47297.55
581.62	46590.70
581.78	47098.60
581.94	46918.38
582.10	47098.60
582.26	47398.19
582.42	46794.33
582.58	47033.07
582.74	46972.21
582.90	47203.92
583.06	47126.69
583.22	46939.44
583.38	47358.40
583.54	47178.18
583.70	46801.35
583.86	47288.18
584.02	47014.34
584.18	47154.77
584.34	47054.13
584.50	47327.97
584.66	47096.26
584.82	46883.27
584.98	47529.26
585.14	47316.27
585.30	47033.07
585.46	46873.91
585.62	47325.63
585.78	47278.82
585.94	46986.25
586.10	47264.78
586.26	46916.04
586.42	47239.03
586.58	47253.08
586.74	47089.24
586.90	46997.96
587.06	46927.74
587.22	47084.56
587.38	46990.94
587.54	47241.37
587.70	46988.60
587.86	47526.92
588.02	47051.79
588.18	47037.75
588.34	46890.29
588.49	46916.04
588.65	47351.38
588.81	47239.03
588.97	47491.81
589.13	47056.47
589.29	46911.36
589.45	47442.66
589.61	47721.18
589.77	47283.50
589.93	47250.74
590.08	47847.57
