SpectraSuite Data File
++++++++++++++++++++++++++++++++++++
Date: Fri Oct 25 11:25:14 EDT 2013
User: price-jones
Dark Spectrum Present: No
Reference Spectrum Present: No
Number of Sampled Component Spectra: 1
Spectrometers: USB2+H05261
Integration Time (usec): 100000 (USB2+H05261)
Spectra Averaged: 1 (USB2+H05261)
Boxcar Smoothing: 0 (USB2+H05261)
Correct for Electrical Dark: No (USB2+H05261)
Strobe/Lamp Enabled: No (USB2+H05261)
Correct for Detector Non-linearity: No (USB2+H05261)
Correct for Stray Light: No (USB2+H05261)
Number of Pixels in Processed Spectrum: 2048
>>>>>Begin Processed Spectral Data<<<<<
365.73	191.92
365.92	191.92
366.12	191.92
366.32	117.03
366.52	152.13
366.72	196.60
366.91	163.84
367.11	100.64
367.31	119.37
367.51	114.69
367.70	88.94
367.90	98.30
368.10	138.09
368.30	128.73
368.49	170.86
368.69	154.48
368.89	126.39
369.09	102.98
369.28	140.43
369.48	131.07
369.68	180.22
369.87	145.11
370.07	201.29
370.27	271.50
370.47	315.97
370.66	606.20
370.86	650.67
371.06	697.48
371.25	629.60
371.45	678.76
371.65	725.57
371.84	594.50
372.04	641.31
372.24	800.46
372.44	622.58
372.63	744.29
372.83	774.72
373.03	725.57
373.22	779.40
373.42	777.06
373.62	720.88
373.81	725.57
374.01	704.50
374.21	826.21
374.40	770.04
374.60	812.17
374.79	849.61
374.99	849.61
375.19	795.78
375.38	816.85
375.58	774.72
375.78	849.61
375.97	788.76
376.17	786.42
376.37	837.91
376.56	917.49
376.76	910.47
376.95	828.55
377.15	870.68
377.35	856.64
377.54	966.64
377.74	903.45
377.93	894.08
378.13	898.77
378.33	973.66
378.52	919.83
378.72	938.55
378.91	992.39
379.11	1006.43
379.31	929.19
379.50	987.71
379.70	1034.52
379.89	1046.22
380.09	929.19
380.28	994.73
380.48	917.49
380.68	1004.09
380.87	938.55
381.07	985.37
381.26	978.34
381.46	983.02
381.65	990.05
381.85	1071.97
382.04	1011.11
382.24	1004.09
382.43	1064.94
382.63	936.21
382.83	1078.99
383.02	1074.31
383.22	1069.62
383.41	1074.31
383.61	1032.18
383.80	1158.57
384.00	1135.16
384.19	1071.97
384.39	1125.80
384.58	1221.76
384.78	1184.31
384.97	1100.05
385.17	1200.69
385.36	1179.63
385.56	1219.42
385.75	1207.72
385.95	1158.57
386.14	1217.08
386.34	1207.72
386.53	1214.74
386.72	1200.69
386.92	1196.01
387.11	1219.42
387.31	1263.89
387.50	1198.35
387.70	1306.02
387.89	1212.40
388.09	1203.04
388.28	1266.23
388.48	1261.55
388.67	1273.25
388.86	1240.48
389.06	1282.61
389.25	1380.92
389.45	1399.64
389.64	1320.06
389.84	1322.40
390.03	1362.19
390.22	1331.76
390.42	1364.53
390.61	1289.64
390.81	1416.02
391.00	1362.19
391.19	1383.26
391.39	1366.87
391.58	1411.34
391.78	1448.79
391.97	1418.36
392.16	1420.71
392.36	1511.99
392.55	1411.34
392.75	1486.24
392.94	1479.22
393.13	1519.01
393.33	1530.71
393.52	1636.03
393.71	1572.84
393.91	1636.03
394.10	1530.71
394.29	1696.89
394.49	1589.22
394.68	1636.03
394.88	1624.33
395.07	1603.27
395.26	1577.52
395.46	1577.52
395.65	1734.34
395.84	1790.51
396.04	1839.66
396.23	1832.64
396.42	1781.15
396.62	1750.72
396.81	1797.53
397.00	1816.26
397.19	1790.51
397.39	1792.85
397.58	1802.21
397.77	1830.30
397.97	1893.49
398.16	1818.60
398.35	1851.36
398.55	1909.88
398.74	1804.55
398.93	2008.18
399.12	1961.37
399.32	1823.28
399.51	2003.50
399.70	2038.61
399.90	1926.26
400.09	1991.80
400.28	2029.24
400.47	2017.54
400.67	2101.80
400.86	1935.62
401.05	2087.76
401.24	2108.82
401.44	2090.10
401.63	2083.08
401.82	2160.31
402.01	2083.08
402.21	2139.25
402.40	2260.96
402.59	2090.10
402.78	2129.89
402.97	2167.34
403.17	2221.17
403.36	2181.38
403.55	2256.28
403.74	2317.13
403.93	2347.56
404.13	2305.43
404.32	2406.07
404.51	2260.96
404.70	2319.47
404.89	2427.14
405.09	2436.50
405.28	2595.65
405.47	2502.03
405.66	2509.05
405.85	2567.57
406.05	2651.83
406.24	2600.34
406.43	2558.21
406.62	2661.19
406.81	2609.70
407.00	2633.10
407.20	2574.59
407.39	2548.84
407.58	2647.15
407.77	2569.91
407.96	2612.04
408.15	2658.85
408.34	2602.68
408.54	2754.81
408.73	2883.54
408.92	2724.38
409.11	2928.01
409.30	2855.45
409.49	2768.85
409.68	2956.10
409.87	3007.59
410.07	2953.76
410.26	2986.52
410.45	2981.84
410.64	3005.25
410.83	3108.23
411.02	3054.40
411.21	3087.17
411.40	3019.29
411.59	3180.79
411.78	3183.13
411.98	3192.49
412.17	3187.81
412.36	3379.73
412.55	3314.20
412.74	3279.09
412.93	3428.88
413.12	3403.14
413.31	3700.39
413.50	3499.10
413.69	3466.33
413.88	3501.44
414.07	3527.19
414.26	3684.00
414.45	3611.45
414.64	3632.51
414.83	3815.07
415.02	3763.58
415.22	3733.15
415.41	3751.88
415.60	3782.31
415.79	3955.51
415.98	3887.63
416.17	3880.61
416.36	3871.25
416.55	3915.72
416.74	3939.12
416.93	3997.64
417.12	4140.41
417.31	4072.53
417.50	4219.99
417.69	4259.78
417.88	4383.82
418.07	4306.59
418.26	4264.46
418.45	4360.42
418.64	4465.74
418.83	4463.40
419.02	4369.78
419.21	4503.19
419.39	4484.47
419.58	4500.85
419.77	4538.30
419.96	4440.00
420.15	4500.85
420.34	4610.86
420.53	4669.37
420.72	4669.37
420.91	4791.08
421.10	4702.14
421.29	4744.27
421.48	4631.92
421.67	4688.09
421.86	4629.58
422.05	4856.61
422.24	4842.57
422.43	4915.12
422.61	4851.93
422.80	4819.16
422.99	4870.65
423.18	4919.81
423.37	5004.07
423.56	4994.70
423.75	4924.49
423.94	4774.69
424.13	4528.94
424.32	4716.18
424.50	4875.34
424.69	5195.99
424.88	5111.73
425.07	4896.40
425.26	4971.30
425.45	4994.70
425.64	4957.25
425.83	4877.68
426.01	5116.41
426.20	4943.21
426.39	5107.05
426.58	4997.04
426.77	5109.39
426.96	5167.90
427.15	5139.82
427.33	5076.62
427.52	5121.09
427.71	5298.97
427.90	5233.44
428.09	5305.99
428.28	5327.06
428.46	5287.27
428.65	5350.46
428.84	5446.43
429.03	5486.22
429.22	5261.52
429.40	5366.85
429.59	5455.79
429.78	5301.31
429.97	5287.27
430.16	5298.97
430.34	5596.22
430.53	5640.69
430.72	5416.00
430.91	5671.12
431.10	5687.50
431.28	5689.84
431.47	5696.86
431.66	5884.11
431.85	5682.82
432.03	5846.66
432.22	6104.12
432.41	5788.14
432.60	5891.13
432.79	5991.77
432.97	5956.66
433.16	5996.45
433.35	5968.37
433.54	6113.48
433.72	6176.67
433.91	6256.25
434.10	6183.70
434.28	6176.67
434.47	6396.68
434.66	6305.40
434.85	6260.93
435.03	6136.88
435.22	6176.67
435.41	6558.18
435.59	6389.66
435.78	6380.30
435.97	6459.88
436.16	6420.09
436.34	6312.42
436.53	6293.70
436.72	6630.74
436.90	6504.35
437.09	6478.60
437.28	6523.07
437.46	6637.76
437.65	6661.16
437.84	6810.96
438.02	6647.12
438.21	6612.01
438.40	6757.13
438.58	6888.20
438.77	7063.74
438.96	6806.28
439.14	7033.31
439.33	7089.48
439.52	6965.43
439.70	7197.15
439.89	7398.43
440.08	7136.29
440.26	7442.90
440.45	7328.22
440.63	7405.46
440.82	7585.68
441.01	7396.09
441.19	7557.59
441.38	7562.27
441.57	7681.64
441.75	7733.13
441.94	7705.04
442.12	7896.97
442.31	8119.32
442.50	8077.19
442.68	7929.74
442.87	7997.61
443.05	8063.15
443.24	8088.89
443.43	7943.78
443.61	8049.10
443.80	8219.96
443.98	8004.63
444.17	7887.61
444.35	8180.17
444.54	8285.50
444.73	8180.17
444.91	8173.15
445.10	8297.20
445.28	8430.61
445.47	8201.24
445.65	8358.05
445.84	8479.76
446.02	8428.27
446.21	8339.33
446.39	8248.05
446.58	8379.12
446.77	8468.06
446.95	8189.53
447.14	8346.35
447.32	8585.08
447.51	8351.03
447.69	8280.82
447.88	8601.47
448.06	8493.80
448.25	8355.71
448.43	8514.87
448.62	8479.76
448.80	8573.38
448.99	8791.05
449.17	8844.88
449.36	8629.56
449.54	8887.01
449.73	8872.97
449.91	9158.52
450.10	8877.65
450.28	9027.45
450.46	9212.35
450.65	9062.55
450.83	8952.55
451.02	9107.02
451.20	9107.02
451.39	9287.25
451.57	9167.88
451.76	9172.56
451.94	9123.41
452.13	9284.91
452.31	9252.14
452.49	8964.25
452.68	9055.53
452.86	9525.98
453.05	9336.40
453.23	9430.02
453.42	9228.73
453.60	9217.03
453.78	9692.16
453.97	9418.32
454.15	9348.10
454.34	9600.88
454.52	9788.12
454.70	9774.08
454.89	9643.01
455.07	9867.70
455.26	9703.86
455.44	9809.19
455.62	9689.82
455.81	9921.53
455.99	9870.04
456.17	10057.28
456.36	9839.61
456.54	10036.22
456.73	10291.34
456.91	10235.16
457.09	10207.08
457.28	10368.57
457.46	10218.78
457.64	10537.09
457.83	10256.23
458.01	10303.04
458.19	10635.39
458.38	10289.00
458.56	10773.49
458.74	10595.61
458.93	10487.94
459.11	10679.86
459.29	10597.95
459.48	10663.48
459.66	10724.33
459.84	10855.40
460.03	10869.45
460.21	11037.97
460.39	11059.03
460.57	10965.41
460.76	11044.99
460.94	11171.38
461.12	11236.91
461.31	11080.10
461.49	11028.60
461.67	11321.17
461.85	11393.73
462.04	11314.15
462.22	11681.61
462.40	11541.18
462.59	11527.14
462.77	11475.65
462.95	11426.50
463.13	11616.08
463.32	11686.29
463.50	11611.40
463.68	11651.19
463.86	11892.26
464.05	11676.93
464.23	11789.28
464.41	11941.41
464.59	11641.82
464.78	12184.83
464.96	12025.67
465.14	11941.41
465.32	12215.26
465.50	11997.59
465.69	12194.19
465.87	12203.55
466.05	11990.56
466.23	12018.65
466.41	12189.51
466.60	12496.12
466.78	12121.63
466.96	12308.88
467.14	12397.82
467.32	12301.86
467.51	12566.34
467.69	12013.97
467.87	12456.33
468.05	12496.12
468.23	12512.50
468.41	12461.01
468.60	12437.61
468.78	12746.56
468.96	12360.37
469.14	12409.52
469.32	12933.80
469.50	12641.23
469.69	12896.35
469.87	13025.08
470.05	13184.24
470.23	13025.08
470.41	13088.28
470.59	13261.48
470.77	13074.23
470.95	13179.56
471.14	13617.24
471.32	13212.32
471.50	13427.65
471.68	13490.85
471.86	13338.71
472.04	13554.04
472.22	13935.55
472.40	13774.05
472.58	13963.64
472.77	14085.34
472.95	14300.67
473.13	14459.83
473.31	13870.01
473.49	13980.02
473.67	14104.07
473.85	14349.82
474.03	14546.43
474.21	14523.02
474.39	14778.14
474.57	14572.18
474.75	14892.83
474.93	14836.66
475.12	15040.28
475.30	15133.90
475.48	15033.26
475.66	14981.77
475.84	14848.36
476.02	15145.61
476.20	15318.81
476.38	15297.74
476.56	15658.18
476.74	15917.98
476.92	15726.06
477.10	15859.47
477.28	16011.60
477.46	16170.76
477.64	16255.02
477.82	16552.27
478.00	17085.91
478.18	16713.77
478.36	16634.19
478.54	16835.47
478.72	17149.11
478.90	17432.31
479.08	17348.05
479.26	17413.59
479.44	17413.59
479.62	17759.98
479.80	17825.52
479.98	18132.13
480.16	18328.74
480.34	17942.55
480.52	18272.56
480.70	18157.88
480.88	18317.03
481.06	18941.96
481.24	18668.11
481.41	19197.07
481.59	19431.13
481.77	19396.02
481.95	19307.08
482.13	19564.54
482.31	19503.68
482.49	20386.07
482.67	20027.96
482.85	20421.17
483.03	20503.09
483.21	20762.89
483.39	20957.16
483.57	20367.34
483.74	20999.29
483.92	21088.23
484.10	21064.82
484.28	21617.19
484.46	21851.24
484.64	22068.91
484.82	21792.73
485.00	22490.21
485.18	22623.62
485.35	22452.76
485.53	22630.64
485.71	22892.78
485.89	23393.65
486.07	23070.66
486.25	23339.82
486.43	23494.30
486.61	23819.63
486.78	23798.57
486.96	23964.75
487.14	24617.75
487.32	23981.13
487.50	24875.21
487.68	24812.02
487.85	24975.86
488.03	25336.30
488.21	25811.43
488.39	25734.19
488.57	25898.03
488.75	25820.79
488.92	26583.80
489.10	26319.32
489.28	26698.49
489.46	27000.42
489.64	26689.13
489.81	27470.87
489.99	27330.44
490.17	27740.03
490.35	28072.39
490.53	27903.87
490.70	27924.93
490.88	28032.60
491.06	28814.34
491.24	28762.84
491.41	28950.09
491.59	28896.25
491.77	29106.90
491.95	29457.98
492.13	29689.70
492.30	29895.66
492.48	29940.13
492.66	29975.24
492.84	30211.64
493.01	30836.56
493.19	30597.82
493.37	30918.48
493.54	30801.45
493.72	31049.55
493.90	31171.25
494.08	31527.02
494.25	31924.91
494.43	31850.01
494.61	31990.44
494.79	32528.77
494.96	32428.12
495.14	32641.11
495.32	33067.09
495.49	32971.13
495.67	33064.75
495.85	33612.43
496.02	33935.43
496.20	34017.35
496.38	33633.50
496.55	33516.47
496.73	34696.10
496.91	34628.23
497.09	34466.73
497.26	34705.46
497.44	34574.39
497.62	35070.59
497.79	35515.29
497.97	35351.45
498.14	35559.76
498.32	35796.15
498.50	35889.77
498.67	35672.10
498.85	36311.07
499.03	36320.43
499.20	36505.34
499.38	36793.22
499.56	37062.38
499.73	37099.83
499.91	37198.13
500.08	37778.59
500.26	37158.34
500.44	37401.76
500.61	37558.58
500.79	37914.34
500.97	37663.90
501.14	38429.26
501.32	38724.16
501.49	38356.70
501.67	38199.88
501.84	38888.00
502.02	38724.16
502.20	38995.67
502.37	39030.77
502.55	38983.96
502.72	39189.93
502.90	38990.98
503.07	39115.03
503.25	39812.51
503.43	39592.50
503.60	39697.83
503.78	39938.90
503.95	40123.80
504.13	40156.57
504.30	40432.75
504.48	40212.74
504.65	40802.56
504.83	40704.26
505.01	41050.66
505.18	41371.31
505.36	41476.63
505.53	41055.34
505.71	41483.66
505.88	41649.83
506.06	41390.03
506.23	41991.55
506.41	41762.18
506.58	41794.95
506.76	42085.17
506.93	42160.07
507.11	41982.19
507.28	42195.18
507.46	42569.66
507.63	42799.04
507.81	42733.50
507.98	42843.51
508.16	43040.11
508.33	43480.13
508.50	43033.09
508.68	43363.11
508.85	43721.21
509.03	43330.34
509.20	43571.41
509.38	44030.16
509.55	44498.26
509.73	44271.23
509.90	44432.73
510.08	44292.30
510.25	44219.74
510.42	44449.11
510.60	45212.13
510.77	45378.31
510.95	45401.71
511.12	45155.96
511.30	44968.71
511.47	45357.24
511.64	45471.93
511.82	45500.01
511.99	45038.93
512.17	46143.66
512.34	45390.01
512.51	45858.12
512.69	45914.29
512.86	46050.04
513.04	46431.55
513.21	46445.59
513.38	46754.54
513.56	46810.71
513.73	46855.18
513.90	46911.36
514.08	46522.83
514.25	46899.65
514.43	47084.56
514.60	47290.52
514.77	47234.35
514.95	47854.59
515.12	47194.56
515.29	47302.23
515.47	48004.39
515.64	47964.60
515.81	47482.45
515.99	48224.40
516.16	48130.78
516.33	48229.08
516.51	48418.66
516.68	48161.20
516.85	48460.79
517.03	48959.33
517.20	48788.47
517.37	48470.15
517.54	48451.43
517.72	48982.73
517.89	49092.74
518.06	48739.32
518.24	49443.82
518.41	48851.66
518.58	49137.21
518.75	49198.06
518.93	49647.44
519.10	49230.83
519.27	49670.85
519.45	49624.04
519.62	49593.61
519.79	49523.40
519.96	49722.34
520.14	49837.03
520.31	49855.75
520.48	50281.73
520.65	50054.70
520.83	50642.17
521.00	50394.07
521.17	50279.39
521.34	50681.96
521.52	50798.99
521.69	50279.39
521.86	50796.65
522.03	51304.54
522.20	51068.15
522.38	51180.49
522.55	51192.20
522.72	50967.51
522.89	51068.15
523.07	51175.81
523.24	51262.41
523.41	51484.76
523.58	51381.78
523.75	51700.09
523.92	51110.28
524.10	51987.98
524.27	51924.78
524.44	51676.69
524.61	52037.13
524.78	51854.57
524.96	51744.56
525.13	52147.14
525.30	52119.05
525.47	52512.26
525.64	52053.51
525.81	52219.69
525.98	52383.53
526.16	52369.49
526.33	52514.60
526.50	52736.95
526.67	52596.52
526.84	52755.68
527.01	52758.02
527.18	52568.43
527.36	52603.54
527.53	52837.59
527.70	53193.36
527.87	53347.83
528.04	53256.55
528.21	53298.68
528.38	53258.89
528.55	53347.83
528.72	53277.61
528.89	53167.61
529.07	53186.33
529.24	53219.10
529.41	53492.94
529.58	53495.28
529.75	53481.24
529.92	53471.88
530.09	53595.93
530.26	53560.82
530.43	53900.20
530.60	53595.93
530.77	53645.08
530.94	53890.83
531.11	53977.43
531.28	53949.35
531.46	54274.68
531.63	54085.10
531.80	54326.17
531.97	54265.32
532.14	54550.87
532.31	54209.15
532.48	54478.31
532.65	54475.97
532.82	54578.95
532.99	54656.19
533.16	54323.83
533.33	54665.55
533.50	54674.91
533.67	54852.80
533.84	54335.54
534.01	54951.10
534.18	54691.30
534.35	54993.23
534.52	54789.60
534.69	54873.86
534.86	55161.75
535.03	54742.79
535.20	54756.83
535.37	55011.95
535.54	55154.72
535.71	55054.08
535.88	55206.22
536.05	55140.68
536.22	55576.02
536.38	55491.76
536.55	55468.36
536.72	55274.09
536.89	55159.41
537.06	55545.59
537.23	55585.38
537.40	55327.92
537.57	55405.16
537.74	55519.85
537.91	55760.92
538.08	55770.28
538.25	55419.20
538.42	55884.97
538.59	55779.65
538.75	55767.94
538.92	55746.88
539.09	56292.22
539.26	56217.33
539.43	55917.74
539.60	56177.54
539.77	56090.94
539.94	56217.33
540.11	56193.92
540.28	56320.31
540.44	56425.64
540.61	56172.86
540.78	56287.54
540.95	56287.54
541.12	56147.11
541.29	56437.34
541.46	56364.78
541.62	56395.21
541.79	56832.89
541.96	56200.94
542.13	56589.47
542.30	56374.14
542.47	56612.88
542.63	56837.57
542.80	56722.88
542.97	57017.79
543.14	57022.47
543.31	56919.49
543.48	56961.62
543.64	57371.21
543.81	57453.13
543.98	57401.64
544.15	57057.58
544.32	57326.74
544.48	57476.54
544.65	57359.51
544.82	57202.69
544.99	57312.70
545.16	57249.50
545.32	57237.80
545.49	57528.03
545.66	57560.79
545.83	57331.42
546.00	57411.00
546.16	57710.59
546.33	57560.79
546.50	57511.64
546.67	57619.31
546.83	57162.90
547.00	57436.75
547.17	57221.42
547.34	57588.88
547.50	57916.56
547.67	57886.13
547.84	57642.71
548.00	58047.63
548.17	58166.99
548.34	57954.00
548.51	57832.30
548.67	58127.20
548.84	57996.13
549.01	57855.70
549.18	57958.69
549.34	58253.59
549.51	57989.11
549.68	58152.95
549.84	58136.57
550.01	58056.99
550.18	58122.52
550.34	58471.26
550.51	58302.74
550.68	58131.89
550.84	57911.88
551.01	58492.33
551.18	58372.96
551.34	58429.13
551.51	58391.68
551.68	58679.57
551.84	58466.58
552.01	58227.85
552.18	58475.94
552.34	58277.00
552.51	58670.21
552.68	58557.86
552.84	58457.22
553.01	58913.62
553.18	58635.10
553.34	58791.92
553.51	58670.21
553.67	58663.19
553.84	58993.20
554.01	58876.18
554.17	58747.45
554.34	58969.80
554.51	58976.82
554.67	58836.39
554.84	59002.56
555.00	58801.28
555.17	58918.31
555.33	59007.25
555.50	58848.09
555.67	58805.96
555.83	58834.05
556.00	58955.75
556.16	59166.40
556.33	59236.62
556.50	59021.29
556.66	59075.12
556.83	58976.82
556.99	59229.60
557.16	59508.12
557.32	59138.32
557.49	59688.34
557.65	59348.96
557.82	59103.21
557.98	59054.06
558.15	59306.83
558.32	59241.30
558.48	59234.28
558.65	59192.15
558.81	59346.62
558.98	59374.71
559.14	59377.05
559.31	59508.12
559.47	59370.03
559.64	59489.40
559.80	59711.75
559.97	59578.34
560.13	59400.46
560.30	59543.23
560.46	59774.94
560.63	59580.68
560.79	59688.34
560.96	59880.27
561.12	59550.25
561.29	59821.75
561.45	59814.73
561.61	59695.36
561.78	59576.00
561.94	59812.39
562.11	59667.28
562.27	59667.28
562.44	59678.98
562.60	59985.59
562.77	59924.74
562.93	59597.06
563.10	60060.49
563.26	59709.41
563.42	60133.04
563.59	59833.46
563.75	59791.33
563.92	59891.97
564.08	59950.48
564.24	59908.35
564.41	60001.97
564.57	59999.63
564.74	60051.12
564.90	59924.74
565.07	59980.91
565.23	60090.91
565.39	60032.40
565.56	60147.09
565.72	59973.89
565.88	59884.95
566.05	59859.20
566.21	60065.17
566.38	60163.47
566.54	60231.35
566.70	60331.99
566.87	60275.82
567.03	60055.81
567.19	60210.28
567.36	60243.05
567.52	60179.85
567.68	60317.95
567.85	60207.94
568.01	60488.80
568.17	60158.79
568.34	60172.83
568.50	60336.67
568.66	60116.66
568.83	60406.89
568.99	60212.62
569.15	60210.28
569.32	60289.86
569.48	60371.78
569.64	60282.84
569.81	60303.90
569.97	60219.64
570.13	60210.28
570.30	60451.36
570.46	60458.38
570.62	60437.31
570.78	60226.66
570.95	60509.87
571.11	60498.17
571.27	60360.08
571.43	60463.06
571.60	60530.93
571.76	60467.74
571.92	60523.91
572.09	60432.63
572.25	60467.74
572.41	60451.36
572.57	60390.50
572.74	60736.90
572.90	60303.90
573.06	60385.82
573.22	60409.23
573.38	60584.77
573.55	60474.76
573.71	60802.44
573.87	60706.47
574.03	60502.85
574.20	60615.19
574.36	60498.17
574.52	60704.13
574.68	60542.64
574.84	60530.93
575.01	60526.25
575.17	60505.19
575.33	60654.98
575.49	60500.51
575.65	60573.06
575.82	60624.56
575.98	60650.30
576.14	60846.91
576.30	60647.96
576.46	60720.52
576.62	60664.35
576.79	60673.71
576.95	60535.62
577.11	60863.29
577.27	60671.37
577.43	60764.99
577.59	60615.19
577.75	60654.98
577.92	60547.32
578.08	60594.13
578.24	60624.56
578.40	60851.59
578.56	60818.82
578.72	60722.86
578.88	60961.59
579.04	61017.77
579.21	60779.03
579.37	61031.81
579.53	60947.55
579.69	60687.75
579.85	60540.30
580.01	60816.48
580.17	60570.72
580.33	60640.94
580.49	60652.64
580.65	60685.41
580.82	60676.05
580.98	60753.29
581.14	60608.17
581.30	60996.70
581.46	60502.85
581.62	60577.75
581.78	60760.31
581.94	60741.58
582.10	60601.15
582.26	60762.65
582.42	60725.20
582.58	60921.80
582.74	60669.03
582.90	60903.08
583.06	60863.29
583.22	60872.65
583.38	60781.37
583.54	60807.12
583.70	60762.65
583.86	60781.37
584.02	60907.76
584.18	60989.68
584.34	60828.18
584.50	60889.04
584.66	60774.35
584.82	60762.65
584.98	60856.27
585.14	60764.99
585.30	60844.57
585.46	60781.37
585.62	60676.05
585.78	60804.78
585.94	60715.84
586.10	60919.46
586.26	60898.40
586.42	60931.17
586.58	60963.93
586.74	60844.57
586.90	60853.93
587.06	60872.65
587.22	61031.81
587.38	60877.33
587.54	61017.77
587.70	61008.40
587.86	60959.25
588.02	60900.74
588.18	61160.54
588.34	60790.73
588.49	60961.59
