SpectraSuite Data File
++++++++++++++++++++++++++++++++++++
Date: Fri Oct 25 10:47:26 EDT 2013
User: price-jones
Dark Spectrum Present: No
Reference Spectrum Present: No
Number of Sampled Component Spectra: 1
Spectrometers: USB2+H05261
Integration Time (usec): 100000 (USB2+H05261)
Spectra Averaged: 1 (USB2+H05261)
Boxcar Smoothing: 0 (USB2+H05261)
Correct for Electrical Dark: No (USB2+H05261)
Strobe/Lamp Enabled: No (USB2+H05261)
Correct for Detector Non-linearity: No (USB2+H05261)
Correct for Stray Light: No (USB2+H05261)
Number of Pixels in Processed Spectrum: 2048
>>>>>Begin Processed Spectral Data<<<<<
365.73	152.13
365.92	152.13
366.12	152.13
366.32	56.17
366.52	16.38
366.72	30.43
366.91	79.58
367.11	37.45
367.31	72.56
367.51	65.54
367.70	0.00
367.90	23.41
368.10	0.00
368.30	9.36
368.49	28.09
368.69	84.26
368.89	58.51
369.09	49.15
369.28	37.45
369.48	77.24
369.68	124.05
369.87	93.62
370.07	44.47
370.27	180.22
370.47	205.97
370.66	407.25
370.86	477.47
371.06	517.26
371.25	517.26
371.45	425.98
371.65	416.62
371.84	400.23
372.04	379.17
372.24	519.60
372.44	482.15
372.63	543.00
372.83	449.38
373.03	517.26
373.22	524.28
373.42	519.60
373.62	505.56
373.81	505.56
374.01	575.77
374.21	550.03
374.40	477.47
374.60	606.20
374.79	543.00
374.99	552.37
375.19	498.53
375.38	636.63
375.58	566.41
375.78	622.58
375.97	568.75
376.17	674.07
376.37	603.86
376.56	512.58
376.76	554.71
376.95	510.24
377.15	601.52
377.35	608.54
377.54	496.19
377.74	585.13
377.93	566.41
378.13	589.82
378.33	564.07
378.52	587.47
378.72	671.73
378.91	676.41
379.11	561.73
379.31	620.24
379.50	624.92
379.70	748.97
379.89	653.01
380.09	638.97
380.28	650.67
380.48	580.45
380.68	678.76
380.87	559.39
381.07	720.88
381.26	727.91
381.46	645.99
381.65	643.65
381.85	638.97
382.04	643.65
382.24	662.37
382.43	648.33
382.63	709.18
382.83	678.76
383.02	709.18
383.22	805.14
383.41	678.76
383.61	674.07
383.80	732.59
384.00	781.74
384.19	711.52
384.39	737.27
384.58	751.31
384.78	716.20
384.97	755.99
385.17	751.31
385.36	664.71
385.56	753.65
385.75	758.33
385.95	784.08
386.14	835.57
386.34	840.25
386.53	772.38
386.72	734.93
386.92	842.59
387.11	781.74
387.31	828.55
387.50	779.40
387.70	734.93
387.89	777.06
388.09	791.10
388.28	732.59
388.48	849.61
388.67	830.89
388.86	936.21
389.06	847.27
389.25	849.61
389.45	917.49
389.64	929.19
389.84	903.45
390.03	968.98
390.22	950.26
390.42	947.92
390.61	938.55
390.81	894.08
391.00	933.87
391.19	1011.11
391.39	999.41
391.58	980.68
391.78	877.70
391.97	961.96
392.16	980.68
392.36	987.71
392.55	1008.77
392.75	1076.65
392.94	917.49
393.13	912.81
393.33	1011.11
393.52	943.24
393.71	1125.80
393.91	1107.07
394.10	1057.92
394.29	1095.37
394.49	1067.28
394.68	1090.69
394.88	1043.88
395.07	1074.31
395.26	1132.82
395.46	1137.50
395.65	1088.35
395.84	1093.03
396.04	1149.20
396.23	1097.71
396.42	1128.14
396.62	1104.73
396.81	1090.69
397.00	1132.82
397.19	1130.48
397.39	1193.67
397.58	1165.59
397.77	1135.16
397.97	1310.70
398.16	1284.95
398.35	1327.08
398.55	1277.93
398.74	1256.87
398.93	1299.00
399.12	1306.02
399.32	1233.46
399.51	1357.51
399.70	1369.21
399.90	1425.39
400.09	1467.52
400.28	1357.51
400.47	1441.77
400.67	1458.15
400.86	1334.11
401.05	1359.85
401.24	1481.56
401.44	1479.22
401.63	1437.09
401.82	1497.94
402.01	1437.09
402.21	1511.99
402.40	1493.26
402.59	1479.22
402.78	1551.78
402.97	1533.05
403.17	1577.52
403.36	1547.09
403.55	1607.95
403.74	1652.42
403.93	1685.19
404.13	1621.99
404.32	1645.40
404.51	1687.53
404.70	1664.12
404.89	1638.38
405.09	1802.21
405.28	1685.19
405.47	1706.25
405.66	1888.81
405.85	1757.74
406.05	1736.68
406.24	1750.72
406.43	1687.53
406.62	1820.94
406.81	1853.70
407.00	1825.62
407.20	1792.85
407.39	1799.87
407.58	1874.77
407.77	1954.35
407.96	1858.39
408.15	1989.46
408.34	1923.92
408.54	1921.58
408.73	2094.78
408.92	2010.52
409.11	2017.54
409.30	2181.38
409.49	2064.35
409.68	1987.11
409.87	2012.86
410.07	2146.27
410.26	2160.31
410.45	2076.06
410.64	2101.80
410.83	2132.23
411.02	2134.57
411.21	2214.15
411.40	2169.68
411.59	2300.75
411.78	2324.15
411.98	2235.21
412.17	2230.53
412.36	2338.20
412.55	2459.90
412.74	2490.33
412.93	2476.29
413.12	2349.90
413.31	2576.93
413.50	2530.12
413.69	2490.33
413.88	2436.50
414.07	2628.42
414.26	2558.21
414.45	2478.63
414.64	2623.74
414.83	2644.81
415.02	2708.00
415.22	2740.77
415.41	2743.11
415.60	2738.43
415.79	2740.77
415.98	2888.22
416.17	2951.42
416.36	2794.60
416.55	2808.64
416.74	2848.43
416.93	2846.09
417.12	2841.41
417.31	2995.89
417.50	2946.73
417.69	3169.09
417.88	3009.93
418.07	2909.29
418.26	3028.65
418.45	2909.29
418.64	3038.02
418.83	3068.44
419.02	3098.87
419.21	3091.85
419.39	3232.28
419.58	3094.19
419.77	3059.08
419.96	3232.28
420.15	3227.60
420.34	3155.04
420.53	3295.47
420.72	3309.52
420.91	3260.37
421.10	3428.88
421.29	3438.25
421.48	3433.57
421.67	3522.51
421.86	3314.20
422.05	3454.63
422.24	3412.50
422.43	3407.82
422.61	3398.46
422.80	3515.48
422.99	3403.14
423.18	3508.46
423.37	3520.17
423.56	3520.17
423.75	3417.18
423.94	3463.99
424.13	3293.13
424.32	3433.57
424.50	3496.76
424.69	3531.87
424.88	3644.21
425.07	3480.38
425.26	3435.91
425.45	3588.04
425.64	3485.06
425.83	3421.86
426.01	3646.55
426.20	3581.02
426.39	3691.02
426.58	3499.10
426.77	3620.81
426.96	3611.45
427.15	3524.85
427.33	3616.13
427.52	3679.32
427.71	3630.17
427.90	3716.77
428.09	3676.98
428.28	3768.26
428.46	3735.50
428.65	3733.15
428.84	3733.15
429.03	3882.95
429.22	3641.87
429.40	3765.92
429.59	3632.51
429.78	3515.48
429.97	3700.39
430.16	3784.65
430.34	3784.65
430.53	3812.73
430.72	3992.95
430.91	3819.75
431.10	3904.01
431.28	4079.55
431.47	4128.70
431.66	4208.28
431.85	4138.07
432.03	4028.06
432.22	4166.15
432.41	4180.20
432.60	4156.79
432.79	4147.43
432.97	4198.92
433.16	4203.60
433.35	4159.13
433.54	4194.24
433.72	4145.09
433.91	4224.67
434.10	4187.22
434.28	4170.83
434.47	4341.69
434.66	4428.29
434.85	4468.08
435.03	4589.79
435.22	4301.90
435.41	4568.73
435.59	4514.89
435.78	4631.92
435.97	4603.83
436.16	4660.01
436.34	4575.75
436.53	4620.22
436.72	4542.98
436.90	4610.86
437.09	4524.26
437.28	4407.23
437.46	4739.58
437.65	4564.04
437.84	4723.20
438.02	4613.20
438.21	4723.20
438.40	4737.24
438.58	4828.53
438.77	4943.21
438.96	4840.23
439.14	4908.10
439.33	5111.73
439.52	5060.24
439.70	4936.19
439.89	5053.22
440.08	5132.79
440.26	5144.50
440.45	5221.74
440.63	5123.43
440.82	5364.51
441.01	5357.49
441.19	5434.72
441.38	5390.25
441.57	5472.17
441.75	5544.73
441.94	5479.19
442.12	5647.71
442.31	5666.44
442.50	5668.78
442.68	5575.16
442.87	5582.18
443.05	5645.37
443.24	5720.27
443.43	5760.06
443.61	5811.55
443.80	5816.23
443.98	5652.39
444.17	5652.39
444.35	5715.59
444.54	5935.60
444.73	5830.27
444.91	5860.70
445.10	5870.06
445.28	5731.97
445.47	5832.62
445.65	5741.33
445.84	5912.19
446.02	5795.17
446.21	6040.92
446.39	5771.76
446.58	5961.34
446.77	5895.81
446.95	5689.84
447.14	5916.87
447.32	6080.71
447.51	5944.96
447.69	5884.11
447.88	6085.39
448.06	6054.97
448.25	6015.18
448.43	6129.86
448.62	5830.27
448.80	6052.63
448.99	5984.75
449.17	6260.93
449.36	6111.14
449.54	6120.50
449.73	6134.54
449.91	6232.85
450.10	6427.11
450.28	6427.11
450.46	6408.39
450.65	6317.11
450.83	6480.94
451.02	6300.72
451.20	6326.47
451.39	6434.13
451.57	6541.80
451.76	6321.79
451.94	6443.49
452.13	6448.18
452.31	6443.49
452.49	6363.92
452.68	6413.07
452.86	6597.97
453.05	6436.47
453.23	6443.49
453.42	6424.77
453.60	6466.90
453.78	6579.25
453.97	6504.35
454.15	6607.33
454.34	6693.93
454.52	6633.08
454.70	6637.76
454.89	6703.29
455.07	6794.58
455.26	6796.92
455.44	6654.14
455.62	6963.09
455.81	6733.72
455.99	7063.74
456.17	7054.37
456.36	6944.37
456.54	7037.99
456.73	7110.55
456.91	7145.66
457.09	7250.98
457.28	7117.57
457.46	7162.04
457.64	7150.34
457.83	7129.27
458.01	7138.63
458.19	7433.54
458.38	7265.02
458.56	7307.15
458.74	7342.26
458.93	7370.35
459.11	7468.65
459.29	7473.33
459.48	7550.57
459.66	7543.55
459.84	7419.50
460.03	7473.33
460.21	7534.18
460.39	7569.29
460.57	7625.47
460.76	7698.02
460.94	7728.45
461.12	7740.15
461.31	7740.15
461.49	7758.88
461.67	7744.83
461.85	7793.98
462.04	7543.55
462.22	8348.69
462.40	8044.42
462.59	7990.59
462.77	8023.36
462.95	7957.82
463.13	8018.68
463.32	7992.93
463.50	8126.34
463.68	7885.26
463.86	8084.21
464.05	8009.31
464.23	8013.99
464.41	7969.52
464.59	7990.59
464.78	8271.45
464.96	8259.75
465.14	8081.87
465.32	8285.50
465.50	8517.21
465.69	8299.54
465.87	8184.85
466.05	8283.16
466.23	8201.24
466.41	8320.60
466.60	8456.36
466.78	8339.33
466.96	8388.48
467.14	8362.73
467.32	8491.46
467.51	8503.17
467.69	8308.90
467.87	8332.31
468.05	8702.11
468.23	8545.30
468.41	8458.70
468.60	8423.59
468.78	8613.17
468.96	8454.02
469.14	8753.60
469.32	8634.24
469.50	8510.19
469.69	8828.50
469.87	8847.22
470.05	8716.16
470.23	8917.44
470.41	8882.33
470.59	8821.48
470.77	8875.31
470.95	9177.24
471.14	9125.75
471.32	8755.94
471.50	9317.67
471.68	9111.71
471.86	9181.92
472.04	9437.04
472.22	9689.82
472.40	9425.34
472.58	9376.19
472.77	9542.36
472.95	9448.74
473.13	9886.42
473.31	9411.29
473.49	9509.60
473.67	9554.07
473.85	9795.14
474.03	9944.94
474.21	9870.04
474.39	9832.59
474.57	9912.17
474.75	9907.49
474.93	10024.51
475.12	10101.75
475.30	10244.52
475.48	10136.86
475.66	10052.60
475.84	9926.21
476.02	10202.40
476.20	10258.57
476.38	10523.05
476.56	10691.57
476.74	10693.91
476.92	10724.33
477.10	10820.30
477.28	11007.54
477.46	10832.00
477.64	10906.90
477.82	11218.19
478.00	11405.43
478.18	11288.40
478.36	11414.79
478.54	11616.08
478.72	11300.11
478.90	11618.42
479.08	11655.87
479.26	11913.33
479.44	11896.94
479.62	11758.85
479.80	11843.11
479.98	11995.25
480.16	12652.94
480.34	12123.98
480.52	12400.16
480.70	12348.67
480.88	12311.22
481.06	12423.56
481.24	12549.95
481.41	12678.68
481.59	13048.49
481.77	13013.38
481.95	13163.17
482.13	13163.17
482.31	13334.03
482.49	13247.43
482.67	13605.53
482.85	13570.43
483.03	13593.83
483.21	13839.59
483.39	13788.10
483.57	14003.43
483.74	14045.55
483.92	14260.88
484.10	14125.13
484.28	14377.91
484.46	14710.27
484.64	14583.88
484.82	14410.68
485.00	14724.31
485.18	14890.49
485.35	15059.01
485.53	14714.95
485.71	14988.79
485.89	15169.01
486.07	15236.89
486.25	15290.72
486.43	15452.22
486.61	15396.04
486.78	16196.51
486.96	16023.31
487.14	16093.52
487.32	16397.79
487.50	16449.28
487.68	16603.76
487.85	16685.68
488.03	16851.86
488.21	17064.85
488.39	17013.35
488.57	16938.46
488.75	17181.87
488.92	17586.79
489.10	17568.06
489.28	17385.50
489.46	17764.67
489.64	17689.77
489.81	18424.70
489.99	18300.65
490.17	18483.21
490.35	18539.38
490.53	18478.53
490.70	18546.40
490.88	18635.35
491.06	18923.23
491.24	18822.59
491.41	19040.26
491.59	18981.74
491.77	19288.35
491.95	19695.61
492.13	19234.52
492.30	19714.33
492.48	19740.08
492.66	20027.96
492.84	19885.19
493.01	20044.35
493.19	20390.75
493.37	20159.03
493.54	20350.96
493.72	20526.50
493.90	20954.82
494.08	20723.10
494.25	21130.36
494.43	21584.42
494.61	21348.03
494.79	21069.50
494.96	21500.16
495.14	21191.21
495.32	21624.21
495.49	21612.51
495.67	22019.76
495.85	22113.38
496.02	21804.43
496.20	22335.73
496.38	22342.75
496.55	22314.67
496.73	22555.74
496.91	22511.27
497.09	23026.19
497.26	23140.88
497.44	23101.09
497.62	23070.66
497.79	23241.52
497.97	22974.70
498.14	23470.89
498.32	23342.16
498.50	23587.92
498.67	23866.44
498.85	23775.16
499.03	24236.25
499.20	23618.35
499.38	23962.40
499.56	24098.16
499.73	24189.44
499.91	24704.35
500.08	24800.32
500.26	24400.08
500.44	24549.88
500.61	25050.75
500.79	24603.71
500.97	24966.49
501.14	25099.90
501.32	25006.28
501.49	24856.49
501.67	25280.13
501.84	25270.76
502.02	25294.17
502.20	25338.64
502.37	25394.81
502.55	25727.17
502.72	25797.38
502.90	25975.27
503.07	26050.16
503.25	25621.84
503.43	26115.70
503.60	26324.01
503.78	26096.97
503.95	26242.09
504.13	26431.67
504.30	26806.16
504.48	26211.66
504.65	26742.96
504.83	26778.07
505.01	27072.98
505.18	26888.07
505.36	27222.77
505.53	27094.04
505.71	27276.60
505.88	27400.65
506.06	27215.75
506.23	27124.47
506.41	27360.86
506.58	27852.38
506.76	27754.07
506.93	27590.24
507.11	27938.97
507.28	27934.29
507.46	27826.63
507.63	27866.42
507.81	28166.01
507.98	28268.99
508.16	28063.02
508.33	28095.79
508.50	28058.34
508.68	28503.04
508.85	28519.43
509.03	28449.21
509.20	29090.52
509.38	29219.25
509.55	29174.78
509.73	28989.88
509.90	29090.52
510.08	29149.03
510.25	29198.18
510.42	29352.66
510.60	28982.85
510.77	29359.68
510.95	29589.05
511.12	29308.19
511.30	29771.61
511.47	30031.41
511.64	29947.15
511.82	29930.77
511.99	30036.09
512.17	29881.62
512.34	30057.16
512.51	30073.54
512.69	30501.86
512.86	30080.56
513.04	30668.04
513.21	30338.02
513.38	30515.90
513.56	30562.72
513.73	31042.53
513.90	30649.32
514.08	30632.93
514.25	30941.88
514.43	30946.56
514.60	30543.99
514.77	30607.19
514.95	31175.94
515.12	31299.98
515.29	31445.10
515.47	31264.88
515.64	31615.96
515.81	31365.52
515.99	31339.77
516.16	31295.30
516.33	31889.80
516.51	31784.48
516.68	31482.55
516.85	31601.91
517.03	31564.46
517.20	31515.31
517.37	31835.97
517.54	31957.67
517.72	31950.65
517.89	32081.72
518.06	32063.00
518.24	32095.77
518.41	31906.18
518.58	32348.54
518.75	32208.11
518.93	32912.61
519.10	32498.34
519.27	33221.56
519.45	32975.81
519.62	33242.63
519.79	32760.48
519.96	33139.65
520.14	33539.88
520.31	32779.20
520.48	33546.90
520.65	33394.76
520.83	33352.63
521.00	33741.16
521.17	33268.37
521.34	33596.05
521.52	33544.56
521.69	34211.61
521.86	33659.24
522.03	33848.83
522.20	33848.83
522.38	34256.08
522.55	34693.76
522.72	34321.62
522.89	34096.92
523.07	34670.36
523.24	33769.25
523.41	34457.37
523.58	34125.01
523.75	34712.49
523.92	34375.45
524.10	34630.57
524.27	35110.38
524.44	35213.36
524.61	35103.35
524.78	35323.36
524.96	35332.73
525.13	35110.38
525.30	35564.44
525.47	35578.48
525.64	35105.70
525.81	35189.95
525.98	35452.09
526.16	35105.70
526.33	35271.87
526.50	35391.24
526.67	35168.89
526.84	35494.22
527.01	35648.70
527.18	35700.19
527.36	35775.09
527.53	35983.40
527.70	36311.07
527.87	35952.97
528.04	35690.83
528.21	36154.26
528.38	35882.75
528.55	36222.13
528.72	36521.72
528.89	36687.90
529.07	36301.71
529.24	36142.55
529.41	36582.57
529.58	36687.90
529.75	36140.21
529.92	36617.68
530.09	36591.94
530.26	36741.73
530.43	36851.73
530.60	36701.94
530.77	37198.13
530.94	37027.28
531.11	37102.17
531.28	36975.78
531.46	36900.89
531.63	37427.51
531.80	37294.10
531.97	37284.73
532.14	37619.43
532.31	37048.34
532.48	37720.07
532.65	37544.53
532.82	37570.28
532.99	37509.43
533.16	37598.37
533.33	37401.76
533.50	37731.78
533.67	37991.58
533.84	37549.21
534.01	38054.77
534.18	38045.41
534.35	37982.21
534.52	37801.99
534.69	38052.43
534.86	38291.16
535.03	37783.27
535.20	38452.66
535.37	38522.88
535.54	38630.54
535.71	37944.76
535.88	38108.60
536.05	38328.61
536.22	38244.35
536.38	38422.23
536.55	38576.71
536.72	38382.45
536.89	38190.52
537.06	38293.50
537.23	38761.61
537.40	38677.35
537.57	38614.16
537.74	38642.24
537.91	38969.92
538.08	39009.71
538.25	38850.55
538.42	39086.95
538.59	39344.41
538.75	38686.71
538.92	39075.24
539.09	39063.54
539.26	39145.46
539.43	38717.14
539.60	39000.35
539.77	39143.12
539.94	39026.09
540.11	39203.97
540.28	38906.73
540.44	39276.53
540.61	39636.97
540.78	39409.94
540.95	39524.63
541.12	39524.63
541.29	39601.86
541.46	39519.95
541.62	39239.08
541.79	40030.18
541.96	39236.74
542.13	39405.26
542.30	40037.20
542.47	39875.71
542.63	39718.89
542.80	40114.44
542.97	40472.54
543.14	40999.16
543.31	40528.72
543.48	40488.93
543.64	40973.42
543.81	40610.64
543.98	40662.13
544.15	40170.61
544.32	40821.28
544.48	41294.07
544.65	40484.25
544.82	40718.30
544.99	40692.55
545.16	40942.99
545.32	40722.98
545.49	40772.13
545.66	40863.41
545.83	41277.69
546.00	41474.29
546.16	41373.65
546.33	41027.25
546.50	40465.52
546.67	40935.97
546.83	40814.26
547.00	41085.76
547.17	41015.55
547.34	40940.65
547.50	41179.39
547.67	41614.72
547.84	41270.67
548.00	41116.19
548.17	41577.28
548.34	41785.58
548.51	41743.45
548.67	41635.79
548.84	41462.59
549.01	41612.38
549.18	41177.04
549.34	41532.81
549.51	42059.43
549.68	42532.22
549.84	42134.32
550.01	41797.29
550.18	42190.50
550.34	41963.46
550.51	41621.75
550.68	41638.13
550.84	41926.02
551.01	42263.05
551.18	42134.32
551.34	41684.94
551.51	42043.04
551.68	41918.99
551.84	42300.50
552.01	42174.11
552.18	42246.67
552.34	41773.88
552.51	42389.44
552.68	42000.91
552.84	41883.89
553.01	42497.11
553.18	42541.58
553.34	42389.44
553.51	42087.51
553.67	42183.48
553.84	42525.19
554.01	42808.40
554.17	42707.76
554.34	43274.16
554.51	42623.50
554.67	42993.30
554.84	42784.99
555.00	42693.71
555.17	42473.70
555.33	42572.00
555.50	42876.27
555.67	42820.10
555.83	42852.87
556.00	42586.05
556.16	43105.65
556.33	43201.61
556.50	42899.68
556.66	42997.98
556.83	42476.04
556.99	43119.69
557.16	43192.25
557.32	43428.64
557.49	43222.67
557.65	43196.93
557.82	43159.48
557.98	42817.76
558.15	42974.58
558.32	43182.88
558.48	43199.27
558.65	43084.58
558.81	43496.52
558.98	43416.94
559.14	43346.72
559.31	43257.78
559.47	43290.55
559.64	43449.70
559.80	43868.66
559.97	43620.56
560.13	43475.45
560.30	43496.52
560.46	43133.73
560.63	43145.44
560.79	44062.93
560.96	43597.16
561.12	43777.38
561.29	43669.72
561.45	43756.32
561.61	44032.50
561.78	43798.44
561.94	43746.95
562.11	43494.18
562.27	43423.96
562.44	43833.55
562.60	43782.06
562.77	44184.63
562.93	43400.55
563.10	44018.46
563.26	43171.18
563.42	44327.41
563.59	43679.08
563.75	43934.20
563.92	43835.89
564.08	43838.23
564.24	44402.30
564.41	44149.53
564.57	43590.14
564.74	43690.78
564.90	43852.28
565.07	44177.61
565.23	44039.52
565.39	43782.06
565.56	43810.15
565.72	43842.92
565.88	44336.77
566.05	43672.06
566.21	43938.88
566.38	43798.44
566.54	43622.90
566.70	44175.27
566.87	44229.10
567.03	43700.14
567.19	44037.18
567.36	44114.42
567.52	43875.68
567.68	44582.52
567.85	44182.29
568.01	44240.81
568.17	43908.45
568.34	44266.55
568.50	44156.55
568.66	44027.82
568.83	44589.55
568.99	43894.41
569.15	43985.69
569.32	44638.70
569.48	44027.82
569.64	44179.95
569.81	44552.10
569.97	43861.64
570.13	44402.30
570.30	44236.12
570.46	44013.77
570.62	43660.35
570.78	44004.41
570.95	43964.62
571.11	44219.74
571.27	44378.90
571.43	44271.23
571.60	44531.03
571.76	44203.36
571.92	43875.68
572.09	44371.88
572.25	44477.20
572.41	44259.53
572.57	44500.61
572.74	44549.76
572.90	44329.75
573.06	44432.73
573.22	43988.03
573.38	44531.03
573.55	43784.40
573.71	44669.12
573.87	44341.45
574.03	44498.26
574.20	44905.52
574.36	44299.32
574.52	44481.88
574.68	44032.50
574.84	44313.36
575.01	44069.95
575.17	44210.38
575.33	44502.95
575.49	44500.61
575.65	44619.97
575.82	44559.12
575.98	44594.23
576.14	45045.95
576.30	44545.08
576.46	44037.18
576.62	44919.56
576.79	44311.02
576.95	44378.90
577.11	44320.38
577.27	44435.07
577.43	44411.67
577.59	44727.64
577.75	44755.72
577.92	44416.35
578.08	44194.00
578.24	44240.81
578.40	44650.40
578.56	44680.83
578.72	44151.87
578.88	44704.23
579.04	44374.22
579.21	44287.62
579.37	44713.59
579.53	44348.47
579.69	44247.83
579.85	44587.21
580.01	44643.38
580.17	44594.23
580.33	44746.36
580.49	44645.72
580.65	44378.90
580.82	44779.13
580.98	44568.48
581.14	44505.29
581.30	44715.93
581.46	44580.18
581.62	44659.76
581.78	44577.84
581.94	45057.65
582.10	44315.70
582.26	44830.62
582.42	44772.11
582.58	44615.29
582.74	44491.24
582.90	44273.57
583.06	45174.68
583.22	44849.35
583.38	44711.25
583.54	44872.75
583.70	44669.12
583.86	44863.39
584.02	44453.79
584.18	44491.24
584.34	44662.10
584.50	44304.00
584.66	44788.49
584.82	44514.65
584.98	45233.19
585.14	45017.86
585.30	44706.57
585.46	44603.59
585.62	44280.60
585.78	44470.18
585.94	44339.11
586.10	44697.21
586.26	44594.23
586.42	44491.24
586.58	45001.48
586.74	44779.13
586.90	44772.11
587.06	44516.99
587.22	45024.89
587.38	44573.16
587.54	44907.86
587.70	44814.24
587.86	45277.66
588.02	45240.21
588.18	44875.09
588.34	44329.75
588.49	44554.44
588.65	44353.15
588.81	44554.44
588.97	44910.20
589.13	44694.87
589.29	44463.16
589.45	44638.70
589.61	44870.41
589.77	45050.63
589.93	45027.23
590.08	44942.97
590.24	45146.59
