SpectraSuite Data File
++++++++++++++++++++++++++++++++++++
Date: Fri Oct 25 11:26:03 EDT 2013
User: price-jones
Dark Spectrum Present: No
Reference Spectrum Present: No
Number of Sampled Component Spectra: 1
Spectrometers: USB2+H05261
Integration Time (usec): 100000 (USB2+H05261)
Spectra Averaged: 1 (USB2+H05261)
Boxcar Smoothing: 0 (USB2+H05261)
Correct for Electrical Dark: No (USB2+H05261)
Strobe/Lamp Enabled: No (USB2+H05261)
Correct for Detector Non-linearity: No (USB2+H05261)
Correct for Stray Light: No (USB2+H05261)
Number of Pixels in Processed Spectrum: 2048
>>>>>Begin Processed Spectral Data<<<<<
365.73	280.86
365.92	280.86
366.12	280.86
366.32	159.16
366.52	184.90
366.72	198.95
366.91	110.01
367.11	79.58
367.31	79.58
367.51	119.37
367.70	133.41
367.90	39.79
368.10	201.29
368.30	210.65
368.49	182.56
368.69	198.95
368.89	168.52
369.09	124.05
369.28	180.22
369.48	269.16
369.68	241.08
369.87	180.22
370.07	117.03
370.27	210.65
370.47	334.70
370.66	580.45
370.86	571.09
371.06	699.82
371.25	573.43
371.45	678.76
371.65	734.93
371.84	660.03
372.04	660.03
372.24	716.20
372.44	697.48
372.63	725.57
372.83	784.08
373.03	753.65
373.22	732.59
373.42	777.06
373.62	816.85
373.81	767.70
374.01	779.40
374.21	823.87
374.40	821.53
374.60	814.51
374.79	835.57
374.99	849.61
375.19	833.23
375.38	779.40
375.58	856.64
375.78	875.36
375.97	887.06
376.17	905.79
376.37	943.24
376.56	854.30
376.76	856.64
376.95	863.66
377.15	898.77
377.35	905.79
377.54	880.04
377.74	868.34
377.93	877.70
378.13	856.64
378.33	882.38
378.52	873.02
378.72	1022.81
378.91	940.90
379.11	891.74
379.31	959.62
379.50	990.05
379.70	976.00
379.89	1004.09
380.09	959.62
380.28	983.02
380.48	990.05
380.68	952.60
380.87	1060.26
381.07	1027.50
381.26	1050.90
381.46	1074.31
381.65	1062.60
381.85	1046.22
382.04	1013.45
382.24	1071.97
382.43	1095.37
382.63	1046.22
382.83	1076.65
383.02	1034.52
383.22	1111.75
383.41	1046.22
383.61	1121.12
383.80	1139.84
384.00	1226.44
384.19	1078.99
384.39	1203.04
384.58	1142.18
384.78	1165.59
384.97	1137.50
385.17	1114.10
385.36	1057.92
385.56	1137.50
385.75	1144.52
385.95	1144.52
386.14	1196.01
386.34	1188.99
386.53	1315.38
386.72	1217.08
386.92	1217.08
387.11	1219.42
387.31	1233.46
387.50	1228.78
387.70	1266.23
387.89	1240.48
388.09	1289.64
388.28	1266.23
388.48	1224.10
388.67	1345.81
388.86	1256.87
389.06	1327.08
389.25	1331.76
389.45	1301.34
389.64	1313.04
389.84	1404.32
390.03	1359.85
390.22	1469.86
390.42	1336.45
390.61	1327.08
390.81	1387.94
391.00	1394.96
391.19	1418.36
391.39	1411.34
391.58	1526.03
391.78	1476.88
391.97	1561.14
392.16	1476.88
392.36	1465.18
392.55	1540.07
392.75	1411.34
392.94	1504.96
393.13	1469.86
393.33	1589.22
393.52	1565.82
393.71	1612.63
393.91	1584.54
394.10	1600.93
394.29	1617.31
394.49	1556.46
394.68	1612.63
394.88	1647.74
395.07	1689.87
395.26	1593.90
395.46	1678.16
395.65	1696.89
395.84	1638.38
396.04	1816.26
396.23	1715.61
396.42	1694.55
396.62	1739.02
396.81	1804.55
397.00	1806.89
397.19	1774.13
397.39	1830.30
397.58	1858.39
397.77	1837.32
397.97	1870.09
398.16	1844.34
398.35	1860.73
398.55	1870.09
398.74	1909.88
398.93	1947.33
399.12	1865.41
399.32	1877.11
399.51	1914.56
399.70	1989.46
399.90	1928.60
400.09	1956.69
400.28	2033.93
400.47	2045.63
400.67	2120.53
400.86	2005.84
401.05	2078.40
401.24	2132.23
401.44	2052.65
401.63	2064.35
401.82	2111.16
402.01	2153.29
402.21	2148.61
402.40	2160.31
402.59	2150.95
402.78	2157.97
402.97	2146.27
403.17	2279.68
403.36	2277.34
403.55	2188.40
403.74	2377.98
403.93	2256.28
404.13	2258.62
404.32	2443.52
404.51	2312.45
404.70	2298.41
404.89	2396.71
405.09	2455.22
405.28	2394.37
405.47	2438.84
405.66	2469.27
405.85	2546.50
406.05	2422.45
406.24	2649.49
406.43	2558.21
406.62	2663.53
406.81	2640.12
407.00	2682.25
407.20	2595.65
407.39	2644.81
407.58	2703.32
407.77	2773.53
407.96	2792.26
408.15	2724.38
408.34	2740.77
408.54	2850.77
408.73	2876.52
408.92	2825.03
409.11	2764.17
409.30	2848.43
409.49	2815.66
409.68	2862.48
409.87	2993.55
410.07	2909.29
410.26	3049.72
410.45	2984.18
410.64	3002.91
410.83	3187.81
411.02	3000.57
411.21	3089.51
411.40	3115.25
411.59	3220.58
411.78	3126.96
411.98	3138.66
412.17	3323.56
412.36	3246.32
412.55	3169.09
412.74	3363.35
412.93	3391.44
413.12	3384.41
413.31	3639.53
413.50	3485.06
413.69	3435.91
413.88	3676.98
414.07	3482.72
414.26	3602.08
414.45	3585.70
414.64	3576.34
414.83	3765.92
415.02	3625.49
415.22	3709.75
415.41	3735.50
415.60	3826.78
415.79	3796.35
415.98	3988.27
416.17	3882.95
416.36	3847.84
416.55	3992.95
416.74	4025.72
416.93	4072.53
417.12	4109.98
417.31	4210.62
417.50	4271.48
417.69	4257.43
417.88	4121.68
418.07	4187.22
418.26	4381.48
418.45	4257.43
418.64	4360.42
418.83	4346.37
419.02	4404.89
419.21	4386.16
419.39	4451.70
419.58	4348.72
419.77	4468.08
419.96	4505.53
420.15	4662.35
420.34	4423.61
420.53	4596.81
420.72	4676.39
420.91	4674.05
421.10	4699.80
421.29	4760.65
421.48	4861.29
421.67	4816.82
421.86	4699.80
422.05	4840.23
422.24	4765.33
422.43	4812.14
422.61	4828.53
422.80	4943.21
422.99	4964.28
423.18	4990.02
423.37	5207.69
423.56	4919.81
423.75	4840.23
423.94	4805.12
424.13	4531.28
424.32	4779.37
424.50	4987.68
424.69	4983.00
424.88	5172.58
425.07	5022.79
425.26	4767.67
425.45	4922.15
425.64	4868.31
425.83	4915.12
426.01	4978.32
426.20	5074.28
426.39	4971.30
426.58	5041.51
426.77	4983.00
426.96	5057.90
427.15	5188.97
427.33	5184.29
427.52	5057.90
427.71	5053.22
427.90	5146.84
428.09	5261.52
428.28	5287.27
428.46	5224.08
428.65	5324.72
428.84	5516.64
429.03	5437.06
429.22	5256.84
429.40	5570.48
429.59	5554.09
429.78	5362.17
429.97	5205.35
430.16	5423.02
430.34	5483.88
430.53	5713.25
430.72	5561.11
430.91	5643.03
431.10	5636.01
431.28	5682.82
431.47	5853.68
431.66	5916.87
431.85	5853.68
432.03	5940.28
432.22	6033.90
432.41	5860.70
432.60	5811.55
432.79	5923.90
432.97	6003.47
433.16	6171.99
433.35	5951.98
433.54	6186.04
433.72	6083.05
433.91	5935.60
434.10	6188.38
434.28	6031.56
434.47	6146.25
434.66	6242.21
434.85	6286.68
435.03	6242.21
435.22	6338.17
435.41	6408.39
435.59	6366.26
435.78	6237.53
435.97	6389.66
436.16	6333.49
436.34	6408.39
436.53	6296.04
436.72	6754.79
436.90	6450.52
437.09	6626.06
437.28	6429.45
437.46	6382.64
437.65	6424.77
437.84	6604.99
438.02	6885.86
438.21	6820.32
438.40	6705.63
438.58	6998.20
438.77	7061.40
438.96	6981.82
439.14	7258.00
439.33	7084.80
439.52	7314.17
439.70	7166.72
439.89	7140.97
440.08	7297.79
440.26	7557.59
440.45	7442.90
440.63	7372.69
440.82	7646.53
441.01	7466.31
441.19	7662.91
441.38	7691.00
441.57	7765.90
441.75	7613.76
441.94	7819.73
442.12	7859.52
442.31	8030.38
442.50	8025.70
442.68	8023.36
442.87	8037.40
443.05	8021.02
443.24	8201.24
443.43	7953.14
443.61	8100.59
443.80	8542.96
443.98	7915.69
444.17	8049.10
444.35	8259.75
444.54	8180.17
444.73	8095.91
444.91	8514.87
445.10	8353.37
445.28	8208.26
445.47	8336.99
445.65	8325.29
445.84	8486.78
446.02	8519.55
446.21	8404.86
446.39	8322.94
446.58	8533.59
446.77	8346.35
446.95	8205.92
447.14	8315.92
447.32	8449.33
447.51	8468.06
447.69	8512.53
447.88	8374.44
448.06	8580.40
448.25	8446.99
448.43	8463.38
448.62	8615.51
448.80	8505.51
448.99	8592.11
449.17	8730.20
449.36	8496.14
449.54	8767.65
449.73	8879.99
449.91	8999.36
450.10	8837.86
450.28	9207.67
450.46	8966.59
450.65	8990.00
450.83	9177.24
451.02	9097.66
451.20	9142.13
451.39	9104.68
451.57	8896.38
451.76	9111.71
451.94	9102.34
452.13	9240.44
452.31	9207.67
452.49	9048.51
452.68	9408.95
452.86	9210.01
453.05	9273.20
453.23	9392.57
453.42	9338.74
453.60	9280.22
453.78	9603.22
453.97	9439.38
454.15	9598.54
454.34	9448.74
454.52	9762.37
454.70	9736.63
454.89	9771.74
455.07	9797.48
455.26	9755.35
455.44	9921.53
455.62	9860.68
455.81	9921.53
455.99	9916.85
456.17	10164.95
456.36	10071.33
456.54	10083.03
456.73	10370.91
456.91	10338.15
457.09	10569.86
457.28	10399.00
457.46	10345.17
457.64	10672.84
457.83	10471.56
458.01	10391.98
458.19	10661.14
458.38	10520.71
458.56	10588.58
458.74	10684.55
458.93	10597.95
459.11	10778.17
459.29	10853.06
459.48	10759.44
459.66	10778.17
459.84	10630.71
460.03	10853.06
460.21	11049.67
460.39	10754.76
460.57	11082.44
460.76	11269.68
460.94	11115.20
461.12	11351.60
461.31	11330.53
461.49	11080.10
461.67	11012.22
461.85	11218.19
462.04	10960.73
462.22	11651.19
462.40	11463.94
462.59	11524.80
462.77	11475.65
462.95	11676.93
463.13	11571.61
463.32	11712.04
463.50	11667.57
463.68	11527.14
463.86	11726.08
464.05	11583.31
464.23	11419.47
464.41	11765.87
464.59	11510.75
464.78	11892.26
464.96	11857.15
465.14	11576.29
465.32	11761.19
465.50	12210.57
465.69	12271.43
465.87	12163.76
466.05	12114.61
466.23	12004.61
466.41	12142.70
466.60	12430.59
466.78	12219.94
466.96	12177.81
467.14	12095.89
467.32	12217.60
467.51	12439.95
467.69	12224.62
467.87	12468.03
468.05	12709.11
468.23	12521.87
468.41	12461.01
468.60	12432.93
468.78	12762.94
468.96	12533.57
469.14	12929.12
469.32	12917.42
469.50	12641.23
469.69	12924.44
469.87	13074.23
470.05	12851.88
470.23	13156.15
470.41	13053.17
470.59	13444.04
470.77	13177.22
470.95	12910.40
471.14	13303.60
471.32	13104.66
471.50	13544.68
471.68	13586.81
471.86	13617.24
472.04	13816.18
472.22	14113.43
472.40	13626.60
472.58	13696.82
472.77	13619.58
472.95	14132.15
473.13	14396.64
473.31	14310.04
473.49	14298.33
473.67	13940.23
473.85	14359.19
474.03	14590.90
474.21	14555.79
474.39	14480.89
474.57	14710.27
474.75	14981.77
474.93	14834.32
475.12	14829.63
475.30	15094.11
475.48	15304.76
475.66	15199.44
475.84	15192.42
476.02	15026.24
476.20	15234.55
476.38	15590.31
476.56	15990.54
476.74	16011.60
476.92	15789.25
477.10	15812.66
477.28	16163.74
477.46	15950.75
477.64	16255.02
477.82	16350.98
478.00	16629.51
478.18	16830.79
478.36	16854.20
478.54	16919.73
478.72	17090.59
478.90	17352.73
479.08	17720.20
479.26	17598.49
479.44	17537.63
479.62	17935.53
479.80	17752.96
479.98	18300.65
480.16	18382.57
480.34	18523.00
480.52	18551.09
480.70	18595.56
480.88	18258.52
481.06	18483.21
481.24	18698.54
481.41	18878.76
481.59	19152.60
481.77	19428.79
481.95	19398.36
482.13	19737.74
482.31	20025.62
482.49	20252.66
482.67	20229.25
482.85	20290.10
483.03	20865.88
483.21	20388.41
483.39	20973.54
483.57	20606.08
483.74	21067.16
483.92	21310.58
484.10	21167.80
484.28	21425.26
484.46	21809.11
484.64	22005.72
484.82	21893.37
485.00	22581.49
485.18	22508.93
485.35	23154.92
485.53	22700.86
485.71	22829.59
485.89	22958.31
486.07	23447.49
486.25	23482.59
486.43	23517.70
486.61	23885.17
486.78	23861.76
486.96	23981.13
487.14	24369.66
487.32	24208.16
487.50	25090.54
487.68	24629.46
487.85	25102.25
488.03	25628.87
488.21	25750.57
488.39	25729.51
488.57	25933.14
488.75	26164.85
488.92	26340.39
489.10	26644.66
489.28	26438.69
489.46	26614.23
489.64	26906.80
489.81	27711.94
489.99	27089.36
490.17	27639.39
490.35	27782.16
490.53	28285.37
490.70	28563.90
490.88	28023.23
491.06	28774.55
491.24	28493.68
491.41	29048.39
491.59	29053.07
491.77	29387.77
491.95	29303.51
492.13	29776.30
492.30	29928.43
492.48	30122.69
492.66	30476.12
492.84	30471.43
493.01	30646.97
493.19	30625.91
493.37	30953.58
493.54	31009.76
493.72	31058.91
493.90	31234.45
494.08	31197.00
494.25	31482.55
494.43	31997.46
494.61	32137.90
494.79	32477.27
494.96	32128.53
495.14	32713.67
495.32	32744.09
495.49	33240.29
495.67	32980.49
495.85	33284.76
496.02	33818.40
496.20	33926.07
496.38	33696.69
496.55	33792.65
496.73	34656.31
496.91	34457.37
497.09	34778.02
497.26	34792.06
497.44	34656.31
497.62	34857.60
497.79	35496.56
497.97	35487.20
498.14	35681.47
498.32	36086.38
498.50	35728.28
498.67	36460.87
498.85	36219.79
499.03	36613.00
499.20	36603.64
499.38	36683.22
499.56	37064.72
499.73	37219.20
499.91	37181.75
500.08	37450.91
500.26	37521.13
500.44	37722.41
500.61	37743.48
500.79	37771.57
500.97	37811.35
501.14	38213.93
501.32	38424.57
501.49	38670.33
501.67	38766.29
501.84	38824.81
502.02	38593.09
502.20	38789.70
502.37	38756.93
502.55	39227.38
502.72	39454.41
502.90	39377.17
503.07	39571.44
503.25	39365.47
503.43	39519.95
503.60	39777.40
503.78	40076.99
503.95	40535.74
504.13	40837.67
504.30	40163.59
504.48	39559.73
504.65	40332.11
504.83	41134.92
505.01	41474.29
505.18	41296.41
505.36	41469.61
505.53	41045.97
505.71	41544.51
505.88	41378.33
506.06	41481.31
506.23	41565.57
506.41	41970.49
506.58	41902.61
506.76	42059.43
506.93	42511.15
507.11	41968.15
507.28	42314.55
507.46	42356.67
507.63	43129.05
507.81	42588.39
507.98	42440.93
508.16	43028.41
508.33	42677.33
508.50	43601.84
508.68	42777.97
508.85	43639.29
509.03	43599.50
509.20	43613.54
509.38	44182.29
509.55	44334.43
509.73	44233.78
509.90	43915.47
510.08	44308.68
510.25	44343.79
510.42	44774.45
510.60	45020.20
510.77	45118.51
510.95	45324.47
511.12	45179.36
511.30	45020.20
511.47	45170.00
511.64	45457.88
511.82	45511.72
511.99	45418.10
512.17	45970.46
512.34	45738.75
512.51	46260.69
512.69	46464.32
512.86	46312.18
513.04	46281.75
513.21	46789.65
513.38	46581.34
513.56	46543.89
513.73	46658.58
513.90	46562.62
514.08	46742.84
514.25	47159.45
514.43	47519.90
514.60	47222.65
514.77	46555.60
514.95	47320.95
515.12	47206.26
515.29	47229.67
515.47	47625.22
515.64	47849.91
515.81	47681.39
515.99	48105.03
516.16	48428.02
516.33	47962.26
516.51	48711.23
516.68	48254.82
516.85	48435.05
517.03	48222.06
517.20	48657.40
517.37	48690.16
517.54	48882.09
517.72	48690.16
517.89	49104.44
518.06	48989.75
518.24	49181.68
518.41	49001.46
518.58	49148.91
518.75	49106.78
518.93	49558.50
519.10	49357.22
519.27	49544.46
519.45	49450.84
519.62	49932.99
519.79	50202.15
519.96	49659.15
520.14	49717.66
520.31	50031.29
520.48	50106.19
520.65	49897.88
520.83	50450.25
521.00	50623.45
521.17	50616.43
521.34	50181.09
521.52	50717.07
521.69	50752.18
521.86	50672.60
522.03	50913.67
522.20	51028.36
522.38	51444.98
522.55	51002.61
522.72	51522.21
522.89	51288.16
523.07	51498.81
523.24	51435.61
523.41	51683.71
523.58	51246.03
523.75	51859.25
523.92	51442.63
524.10	51931.81
524.27	51943.51
524.44	52048.83
524.61	51973.94
524.78	52051.17
524.96	52210.33
525.13	52081.60
525.30	52374.17
525.47	52144.80
525.64	52308.63
525.81	52549.71
525.98	52231.40
526.16	52488.85
526.33	52215.01
526.50	52743.97
526.67	52802.49
526.84	52652.69
527.01	53120.80
527.18	52830.57
527.36	52959.30
527.53	52994.41
527.70	53076.33
527.87	53331.45
528.04	53057.60
528.21	53268.25
528.38	53134.84
528.55	53361.87
528.72	53202.72
528.89	53296.34
529.07	53310.38
529.24	53392.30
529.41	53616.99
529.58	53560.82
529.75	53563.16
529.92	53628.69
530.09	53757.42
530.26	53684.87
530.43	53888.49
530.60	53389.96
530.77	53883.81
530.94	54057.01
531.11	53911.90
531.28	53928.28
531.46	53923.60
531.63	54244.26
531.80	53883.81
531.97	54211.49
532.14	54347.24
532.31	53993.82
532.48	54047.65
532.65	54415.11
532.82	54209.15
532.99	54578.95
533.16	54707.68
533.33	54665.55
533.50	54820.03
533.67	54726.41
533.84	54618.74
534.01	54845.77
534.18	55121.96
534.35	55105.57
534.52	54789.60
534.69	55058.76
534.86	55150.04
535.03	55077.49
535.20	55248.35
535.37	55084.51
535.54	55416.86
535.71	55054.08
535.88	55271.75
536.05	54955.78
536.22	55220.26
536.38	55700.07
536.55	55393.46
536.72	55470.70
536.89	55437.93
537.06	55554.96
537.23	55491.76
537.40	55597.09
537.57	55599.43
537.74	55662.62
537.91	55796.03
538.08	55819.44
538.25	55447.29
538.42	55763.26
538.59	56104.98
538.75	55828.80
538.92	55983.27
539.09	55856.88
539.26	56013.70
539.43	56027.74
539.60	56240.73
539.77	56170.52
539.94	56289.88
540.11	56184.56
540.28	56175.20
540.44	56437.34
540.61	56212.65
540.78	56252.44
540.95	56282.86
541.12	56051.15
541.29	56383.51
541.46	56603.52
541.62	56633.94
541.79	56559.05
541.96	56259.46
542.13	56636.28
542.30	56383.51
542.47	56772.03
542.63	56802.46
542.80	56725.22
542.97	56853.95
543.14	57373.55
543.31	57010.77
543.48	57104.39
543.64	57303.34
543.81	57499.94
543.98	57064.60
544.15	57055.24
544.32	57228.44
544.48	57513.98
544.65	57036.51
544.82	57591.22
544.99	57406.32
545.16	57432.07
545.32	57209.71
545.49	57532.71
545.66	57677.82
545.83	57591.22
546.00	57888.47
546.16	57677.82
546.33	57378.23
546.50	57371.21
546.67	57567.82
546.83	57403.98
547.00	57776.12
547.17	57670.80
547.34	57712.93
547.50	57801.87
547.67	57961.03
547.84	57813.57
548.00	57855.70
548.17	58150.61
548.34	57820.59
548.51	58363.60
548.67	58171.67
548.84	57984.43
549.01	57965.71
549.18	58061.67
549.34	58209.12
549.51	58195.08
549.68	58042.95
549.84	58356.58
550.01	58279.34
550.18	58351.90
550.34	58258.27
550.51	58169.33
550.68	58253.59
550.84	57701.23
551.01	58398.71
551.18	57993.79
551.34	58305.09
551.51	58379.98
551.68	58588.29
551.84	58344.87
552.01	58621.06
552.18	58525.10
552.34	58251.25
552.51	58721.70
552.68	58384.66
552.84	58562.54
553.01	58906.60
553.18	58883.20
553.34	58803.62
553.51	58721.70
553.67	58773.19
553.84	58880.86
554.01	58777.87
554.17	58766.17
554.34	58948.73
554.51	58974.48
554.67	58827.02
554.84	59032.99
555.00	58705.32
555.17	58864.47
555.33	59011.93
555.50	58876.18
555.67	58960.44
555.83	58883.20
556.00	59065.76
556.16	59217.89
556.33	59133.63
556.50	59224.92
556.66	59243.64
556.83	59030.65
556.99	59337.26
557.16	59365.35
557.32	59487.06
557.49	59793.67
557.65	59262.36
557.82	59255.34
557.98	59086.82
558.15	59440.24
558.32	59355.99
558.48	59192.15
558.65	59405.14
558.81	59414.50
558.98	59477.69
559.14	59412.16
559.31	59494.08
559.47	59683.66
559.64	59678.98
559.80	59566.63
559.97	59728.13
560.13	59597.06
560.30	59503.44
560.46	59625.15
560.63	59618.13
560.79	59875.58
560.96	59763.24
561.12	59737.49
561.29	59728.13
561.45	59676.64
561.61	59667.28
561.78	59737.49
561.94	59835.80
562.11	59599.40
562.27	59707.07
562.44	59735.15
562.60	60027.72
562.77	59849.84
562.93	59566.63
563.10	60126.02
563.26	59929.42
563.42	59950.48
563.59	59849.84
563.75	59765.58
563.92	59931.76
564.08	59845.16
564.24	59934.10
564.41	60069.85
564.57	59994.95
564.74	59957.50
564.90	60065.17
565.07	60027.72
565.23	60074.53
565.39	60123.68
565.56	60067.51
565.72	60107.30
565.88	59922.40
566.05	59831.11
566.21	59999.63
566.38	60072.19
566.54	60156.45
566.70	60287.52
566.87	60313.26
567.03	60081.55
567.19	60266.45
567.36	60161.13
567.52	60097.94
567.68	60427.95
567.85	60175.17
568.01	60327.31
568.17	60299.22
568.34	60273.48
568.50	59964.52
568.66	60203.26
568.83	60409.23
568.99	60189.22
569.15	60149.43
569.32	60102.62
569.48	60371.78
569.64	60411.57
569.81	60317.95
569.97	60233.69
570.13	60346.03
570.30	60432.63
570.46	60406.89
570.62	60540.30
570.78	60500.51
570.95	60409.23
571.11	60233.69
571.27	60528.59
571.43	60406.89
571.60	60589.45
571.76	60495.83
571.92	60502.85
572.09	60453.70
572.25	60320.29
572.41	60479.44
572.57	60542.64
572.74	60559.02
572.90	60378.80
573.06	60495.83
573.22	60493.49
573.38	60573.06
573.55	60507.53
573.71	60715.84
573.87	60629.24
574.03	60575.40
574.20	60701.79
574.36	60608.17
574.52	60547.32
574.68	60690.09
574.84	60694.77
575.01	60657.32
575.17	60582.43
575.33	60591.79
575.49	60397.52
575.65	60420.93
575.82	60884.36
575.98	60851.59
576.14	60821.16
576.30	60666.69
576.46	60507.53
576.62	60603.49
576.79	60718.18
576.95	60549.66
577.11	60694.77
577.27	60842.23
577.43	60711.16
577.59	60570.72
577.75	60690.09
577.92	60589.45
578.08	60486.46
578.24	60673.71
578.40	61006.06
578.56	60940.53
578.72	60676.05
578.88	60954.57
579.04	60919.46
579.21	60753.29
579.37	60830.52
579.53	61048.19
579.69	60638.60
579.85	60589.45
580.01	60764.99
580.17	60516.89
580.33	60910.10
580.49	60949.89
580.65	60673.71
580.82	60781.37
580.98	60612.85
581.14	60594.13
581.30	60919.46
581.46	60858.61
581.62	60891.38
581.78	60729.88
581.94	60947.55
582.10	60732.22
582.26	60711.16
582.42	60774.35
582.58	60919.46
582.74	60776.69
582.90	60800.10
583.06	60867.97
583.22	60594.13
583.38	60654.98
583.54	60746.26
583.70	60942.87
583.86	60903.08
584.02	60807.12
584.18	60954.57
584.34	60973.30
584.50	60835.20
584.66	60832.86
584.82	60631.58
584.98	60973.30
585.14	60757.97
585.30	60924.14
585.46	61092.66
585.62	60816.48
585.78	60900.74
585.94	60694.77
586.10	60839.89
586.26	61010.74
586.42	61052.87
586.58	60926.49
586.74	61027.13
586.90	60945.21
587.06	60968.61
587.22	60882.02
587.38	60877.33
587.54	60933.51
587.70	61085.64
587.86	61073.94
588.02	61022.45
588.18	61207.35
588.34	60900.74
588.49	60900.74
