SpectraSuite Data File
++++++++++++++++++++++++++++++++++++
Date: Fri Oct 25 10:47:36 EDT 2013
User: price-jones
Dark Spectrum Present: No
Reference Spectrum Present: No
Number of Sampled Component Spectra: 1
Spectrometers: USB2+H05261
Integration Time (usec): 100000 (USB2+H05261)
Spectra Averaged: 1 (USB2+H05261)
Boxcar Smoothing: 0 (USB2+H05261)
Correct for Electrical Dark: No (USB2+H05261)
Strobe/Lamp Enabled: No (USB2+H05261)
Correct for Detector Non-linearity: No (USB2+H05261)
Correct for Stray Light: No (USB2+H05261)
Number of Pixels in Processed Spectrum: 2048
>>>>>Begin Processed Spectral Data<<<<<
365.73	128.73
365.92	128.73
366.12	128.73
366.32	81.92
366.52	0.00
366.72	32.77
366.91	39.79
367.11	49.15
367.31	0.00
367.51	35.11
367.70	0.00
367.90	0.00
368.10	107.66
368.30	0.00
368.49	23.41
368.69	25.75
368.89	67.88
369.09	107.66
369.28	11.70
369.48	110.01
369.68	112.35
369.87	145.11
370.07	140.43
370.27	67.88
370.47	154.48
370.66	325.33
370.86	456.40
371.06	461.09
371.25	454.06
371.45	444.70
371.65	465.77
371.84	479.81
372.04	484.49
372.24	505.56
372.44	486.83
372.63	498.53
372.83	461.09
373.03	465.77
373.22	449.38
373.42	517.26
373.62	561.73
373.81	540.66
374.01	634.29
374.21	538.32
374.40	472.79
374.60	638.97
374.79	594.50
374.99	528.96
375.19	587.47
375.38	535.98
375.58	603.86
375.78	606.20
375.97	559.39
376.17	575.77
376.37	514.92
376.56	552.37
376.76	589.82
376.95	561.73
377.15	638.97
377.35	620.24
377.54	702.16
377.74	557.05
377.93	538.32
378.13	620.24
378.33	620.24
378.52	601.52
378.72	648.33
378.91	674.07
379.11	589.82
379.31	648.33
379.50	624.92
379.70	571.09
379.89	608.54
380.09	655.35
380.28	608.54
380.48	643.65
380.68	706.84
380.87	585.13
381.07	819.19
381.26	713.86
381.46	596.84
381.65	734.93
381.85	770.04
382.04	685.78
382.24	697.48
382.43	692.80
382.63	697.48
382.83	676.41
383.02	688.12
383.22	718.54
383.41	674.07
383.61	767.70
383.80	709.18
384.00	779.40
384.19	692.80
384.39	842.59
384.58	692.80
384.78	772.38
384.97	723.23
385.17	753.65
385.36	791.10
385.56	772.38
385.75	758.33
385.95	800.46
386.14	786.42
386.34	741.95
386.53	751.31
386.72	807.48
386.92	837.91
387.11	856.64
387.31	917.49
387.50	793.44
387.70	784.08
387.89	884.72
388.09	882.38
388.28	823.87
388.48	837.91
388.67	856.64
388.86	912.81
389.06	868.34
389.25	964.30
389.45	898.77
389.64	880.04
389.84	954.94
390.03	915.15
390.22	992.39
390.42	917.49
390.61	931.53
390.81	926.85
391.00	936.21
391.19	1013.45
391.39	936.21
391.58	915.15
391.78	896.43
391.97	1011.11
392.16	983.02
392.36	992.39
392.55	973.66
392.75	919.83
392.94	889.40
393.13	985.37
393.33	1025.15
393.52	973.66
393.71	1008.77
393.91	1095.37
394.10	1039.20
394.29	1121.12
394.49	978.34
394.68	1137.50
394.88	1095.37
395.07	1109.41
395.26	1013.45
395.46	1130.48
395.65	1107.07
395.84	1167.93
396.04	1214.74
396.23	1100.05
396.42	1071.97
396.62	1188.99
396.81	1102.39
397.00	1217.08
397.19	1146.86
397.39	1142.18
397.58	1245.16
397.77	1249.85
397.97	1219.42
398.16	1301.34
398.35	1289.64
398.55	1345.81
398.74	1376.24
398.93	1460.49
399.12	1369.21
399.32	1352.83
399.51	1390.28
399.70	1401.98
399.90	1373.89
400.09	1390.28
400.28	1465.18
400.47	1383.26
400.67	1441.77
400.86	1401.98
401.05	1418.36
401.24	1446.45
401.44	1441.77
401.63	1509.65
401.82	1519.01
402.01	1324.74
402.21	1570.50
402.40	1526.03
402.59	1561.14
402.78	1535.39
402.97	1551.78
403.17	1568.16
403.36	1652.42
403.55	1598.59
403.74	1788.17
403.93	1605.61
404.13	1701.57
404.32	1582.20
404.51	1708.59
404.70	1717.95
404.89	1739.02
405.09	1689.87
405.28	1804.55
405.47	1771.79
405.66	1746.04
405.85	1776.47
406.05	1834.98
406.24	1781.15
406.43	1926.26
406.62	1858.39
406.81	1802.21
407.00	1844.34
407.20	1816.26
407.39	1902.86
407.58	1944.99
407.77	1975.41
407.96	2017.54
408.15	1998.82
408.34	1916.90
408.54	2052.65
408.73	1956.69
408.92	2029.24
409.11	1980.09
409.30	2136.91
409.49	2050.31
409.68	2129.89
409.87	2050.31
410.07	2155.63
410.26	2115.84
410.45	2062.01
410.64	2237.55
410.83	2289.04
411.02	2221.17
411.21	2221.17
411.40	2277.34
411.59	2408.41
411.78	2342.88
411.98	2380.32
412.17	2310.11
412.36	2345.22
412.55	2441.18
412.74	2490.33
412.93	2478.63
413.12	2406.07
413.31	2555.86
413.50	2593.31
413.69	2548.84
413.88	2590.97
414.07	2546.50
414.26	2581.61
414.45	2612.04
414.64	2583.95
414.83	2705.66
415.02	2841.41
415.22	2761.83
415.41	2867.16
415.60	2729.06
415.79	2923.33
415.98	2855.45
416.17	2944.39
416.36	2920.99
416.55	2881.20
416.74	3000.57
416.93	2928.01
417.12	2949.08
417.31	3056.74
417.50	3014.61
417.69	3199.51
417.88	3180.79
418.07	2986.52
418.26	3143.34
418.45	2979.50
418.64	3190.15
418.83	3136.32
419.02	3150.36
419.21	3194.83
419.39	3218.24
419.58	3265.05
419.77	3222.92
419.96	3297.81
420.15	3393.78
420.34	3337.60
420.53	3279.09
420.72	3318.88
420.91	3377.39
421.10	3468.67
421.29	3496.76
421.48	3332.92
421.67	3377.39
421.86	3396.12
422.05	3382.07
422.24	3379.73
422.43	3445.27
422.61	3534.21
422.80	3513.14
422.99	3496.76
423.18	3487.40
423.37	3723.79
423.56	3550.59
423.75	3417.18
423.94	3545.91
424.13	3267.39
424.32	3417.18
424.50	3562.30
424.69	3592.72
424.88	3571.66
425.07	3501.44
425.26	3538.89
425.45	3595.06
425.64	3508.46
425.83	3632.51
426.01	3810.39
426.20	3644.21
426.39	3733.15
426.58	3641.87
426.77	3681.66
426.96	3672.30
427.15	3634.85
427.33	3644.21
427.52	3588.04
427.71	3826.78
427.90	3794.01
428.09	3798.69
428.28	3702.73
428.46	3985.93
428.65	3911.04
428.84	3946.14
429.03	3892.31
429.22	3749.54
429.40	3805.71
429.59	3880.61
429.78	3819.75
429.97	3702.73
430.16	3733.15
430.34	3733.15
430.53	3927.42
430.72	3857.20
430.91	3911.04
431.10	3927.42
431.28	4159.13
431.47	4079.55
431.66	4161.47
431.85	4245.73
432.03	4194.24
432.22	4374.46
432.41	4203.60
432.60	4163.81
432.79	4315.95
432.97	4259.78
433.16	4386.16
433.35	4248.07
433.54	4259.78
433.72	4191.90
433.91	4257.43
434.10	4372.12
434.28	4383.82
434.47	4308.93
434.66	4540.64
434.85	4615.54
435.03	4589.79
435.22	4503.19
435.41	4526.60
435.59	4514.89
435.78	4521.92
435.97	4676.39
436.16	4510.21
436.34	4713.84
436.53	4512.55
436.72	4734.90
436.90	4468.08
437.09	4568.73
437.28	4751.29
437.46	4746.61
437.65	4589.79
437.84	4762.99
438.02	4758.31
438.21	4681.07
438.40	4589.79
438.58	4875.34
438.77	4905.76
438.96	4966.62
439.14	5107.05
439.33	5177.26
439.52	5046.20
439.70	5172.58
439.89	5191.31
440.08	5158.54
440.26	5298.97
440.45	5205.35
440.63	5350.46
440.82	5507.28
441.01	5275.57
441.19	5378.55
441.38	5488.56
441.57	5593.88
441.75	5500.26
441.94	5568.13
442.12	5767.08
442.31	5703.89
442.50	5687.50
442.68	5790.49
442.87	5701.54
443.05	5849.00
443.24	5837.30
443.43	5769.42
443.61	5841.98
443.80	5912.19
443.98	5696.86
444.17	5586.86
444.35	5816.23
444.54	5879.43
444.73	5820.91
444.91	5863.04
445.10	5851.34
445.28	5853.68
445.47	5863.04
445.65	5900.49
445.84	5874.74
446.02	5900.49
446.21	5867.72
446.39	5886.45
446.58	6010.50
446.77	6078.37
446.95	6043.26
447.14	6083.05
447.32	6061.99
447.51	5998.79
447.69	5893.47
447.88	6022.20
448.06	6061.99
448.25	6097.10
448.43	6188.38
448.62	6050.28
448.80	5980.07
448.99	6307.74
449.17	6251.57
449.36	5984.75
449.54	6282.00
449.73	6396.68
449.91	6300.72
450.10	6361.58
450.28	6401.37
450.46	6225.82
450.65	6492.65
450.83	6392.00
451.02	6375.62
451.20	6445.84
451.39	6464.56
451.57	6499.67
451.76	6380.30
451.94	6499.67
452.13	6628.40
452.31	6656.48
452.49	6317.11
452.68	6574.56
452.86	6597.97
453.05	6635.42
453.23	6796.92
453.42	6532.44
453.60	6677.55
453.78	6729.04
453.97	6698.61
454.15	6834.36
454.34	6771.17
454.52	6738.40
454.70	6848.41
454.89	6853.09
455.07	6888.20
455.26	6944.37
455.44	6923.30
455.62	6911.60
455.81	7056.72
455.99	6846.07
456.17	7084.80
456.36	7045.01
456.54	7222.89
456.73	7325.88
456.91	7316.51
457.09	7246.30
457.28	7524.82
457.46	7049.69
457.64	7349.28
457.83	7424.18
458.01	7293.11
458.19	7482.69
458.38	7353.96
458.56	7527.16
458.74	7522.48
458.93	7463.97
459.11	7358.64
459.29	7513.12
459.48	7531.84
459.66	7550.57
459.84	7517.80
460.03	7953.14
460.21	7854.84
460.39	7705.04
460.57	7613.76
460.76	7674.62
460.94	7950.80
461.12	7943.78
461.31	7817.39
461.49	7793.98
461.67	7850.16
461.85	8006.97
462.04	7988.25
462.22	8489.12
462.40	8189.53
462.59	8018.68
462.77	7990.59
462.95	7885.26
463.13	7995.27
463.32	8126.34
463.50	8273.79
463.68	8088.89
463.86	8304.22
464.05	8212.94
464.23	8177.83
464.41	8189.53
464.59	8098.25
464.78	8290.18
464.96	8145.06
465.14	8196.56
465.32	8393.16
465.50	8486.78
465.69	8498.49
465.87	8461.04
466.05	8381.46
466.23	8489.12
466.41	8435.29
466.60	8709.13
466.78	8404.86
466.96	8271.45
467.14	8236.35
467.32	8552.32
467.51	8641.26
467.69	8514.87
467.87	8629.56
468.05	8549.98
468.23	8573.38
468.41	8446.99
468.60	8552.32
468.78	8636.58
468.96	8758.28
469.14	8692.75
469.32	9001.70
469.50	8594.45
469.69	8812.12
469.87	8987.66
470.05	8847.22
470.23	9212.35
470.41	8716.16
470.59	8950.21
470.77	9046.17
470.95	9240.44
471.14	9238.09
471.32	9036.81
471.50	9614.92
471.68	9228.73
471.86	9245.12
472.04	9378.53
472.22	9614.92
472.40	9320.01
472.58	9502.58
472.77	9753.01
472.95	9689.82
473.13	9886.42
473.31	9696.84
473.49	9460.45
473.67	9650.03
473.85	9694.50
474.03	10019.83
474.21	10160.27
474.39	10235.16
474.57	9937.91
474.75	10047.92
474.93	10225.80
475.12	10078.35
475.30	10487.94
475.48	10307.72
475.66	10478.58
475.84	10375.59
476.02	10546.45
476.20	10391.98
476.38	10768.80
476.56	10829.66
476.74	10759.44
476.92	10640.08
477.10	10918.60
477.28	10911.58
477.46	11042.65
477.64	11023.92
477.82	11229.89
478.00	11480.33
478.18	11442.88
478.36	11213.51
478.54	11683.95
478.72	11660.55
478.90	11707.36
479.08	12147.38
479.26	11929.71
479.44	11974.18
479.62	12147.38
479.80	12173.13
479.98	12521.87
480.16	12718.47
480.34	12362.71
480.52	12816.77
480.70	12517.18
480.88	12351.01
481.06	12624.85
481.24	12922.10
481.41	12903.37
481.59	13205.30
481.77	13249.77
481.95	13160.83
482.13	13362.12
482.31	13280.20
482.49	13490.85
482.67	13582.13
482.85	13605.53
483.03	14157.90
483.21	14061.94
483.39	14239.82
483.57	13886.40
483.74	14305.35
483.92	14263.22
484.10	14141.52
484.28	14429.40
484.46	14916.23
484.64	14963.04
484.82	14934.96
485.00	15049.64
485.18	15056.67
485.35	15393.70
485.53	14967.73
485.71	15204.12
485.89	15515.41
486.07	15030.92
486.25	15393.70
486.43	15489.67
486.61	15751.81
486.78	15906.28
486.96	16287.79
487.14	16130.97
487.32	16304.17
487.50	16652.91
487.68	16748.87
487.85	17055.48
488.03	17099.95
488.21	17106.98
488.39	17310.60
488.57	17387.84
488.75	17383.16
488.92	17736.58
489.10	17907.44
489.28	17776.37
489.46	17832.54
489.64	18523.00
489.81	18508.96
489.99	18466.83
490.17	18562.79
490.35	18766.42
490.53	18679.82
490.70	19049.62
490.88	18916.21
491.06	19096.43
491.24	19456.87
491.41	19463.90
491.59	19040.26
491.77	19307.08
491.95	19770.51
492.13	19981.15
492.30	19899.23
492.48	20037.33
492.66	20203.50
492.84	19990.52
493.01	20266.70
493.19	20128.61
493.37	20912.69
493.54	20709.06
493.72	20758.21
493.90	20720.76
494.08	20692.68
494.25	21331.64
494.43	21336.32
494.61	21734.21
494.79	21729.53
494.96	21376.11
495.14	21462.71
495.32	21736.56
495.49	21589.10
495.67	22256.15
495.85	22064.23
496.02	22490.21
496.20	22546.38
496.38	22427.01
496.55	22656.39
496.73	23002.78
496.91	23026.19
497.09	23098.75
497.26	23073.00
497.44	23077.68
497.62	23367.91
497.79	23957.72
497.97	23585.58
498.14	23943.68
498.32	23892.19
498.50	23751.76
498.67	24020.92
498.85	24074.75
499.03	24374.34
499.20	24077.09
499.38	24409.45
499.56	24327.53
499.73	24676.27
499.91	24655.20
500.08	25055.43
500.26	24318.17
500.44	24959.47
500.61	24992.24
500.79	24697.33
500.97	25113.95
501.14	25450.99
501.32	25165.44
501.49	25308.21
501.67	25425.24
501.84	25439.28
502.02	25935.48
502.20	25685.04
502.37	25993.99
502.55	25830.15
502.72	25736.53
502.90	25947.18
503.07	25970.58
503.25	25834.83
503.43	26059.52
503.60	26295.92
503.78	26363.79
503.95	26141.44
504.13	26464.44
504.30	27026.17
504.48	26810.84
504.65	27204.05
504.83	26955.95
505.01	26808.50
505.18	27386.61
505.36	27433.42
505.53	27115.11
505.71	27608.96
505.88	27754.07
506.06	27587.89
506.23	27082.34
506.41	27211.07
506.58	27915.57
506.76	27473.21
506.93	27735.35
507.11	27854.72
507.28	28402.40
507.46	27878.12
507.63	28273.67
507.81	28613.05
507.98	28205.80
508.16	28243.24
508.33	28416.44
508.50	28725.39
508.68	28481.98
508.85	29575.01
509.03	28833.06
509.20	28772.21
509.38	29273.08
509.55	29577.35
509.73	29202.86
509.90	29259.04
510.08	29504.79
510.25	29050.73
510.42	29106.90
510.60	29628.84
510.77	29546.92
510.95	30167.16
511.12	29572.67
511.30	30129.72
511.47	30333.34
511.64	30422.28
511.82	30302.92
511.99	30230.36
512.17	30696.13
512.34	30471.43
512.51	30668.04
512.69	30717.19
512.86	30686.76
513.04	30841.24
513.21	31063.59
513.38	30850.60
513.56	30822.51
513.73	30742.94
513.90	31129.12
514.08	31164.23
514.25	31276.58
514.43	31325.73
514.60	31222.75
514.77	31363.18
514.95	31232.11
515.12	31220.41
515.29	31299.98
515.47	32081.72
515.64	32011.51
515.81	31779.79
515.99	31765.75
516.16	32088.74
516.33	31838.31
516.51	31957.67
516.68	31945.97
516.85	31592.55
517.03	32084.06
517.20	32058.32
517.37	32362.59
517.54	32641.11
517.72	32325.14
517.89	32357.91
518.06	32268.97
518.24	32488.98
518.41	32180.03
518.58	32451.53
518.75	32701.96
518.93	32985.17
519.10	32826.01
519.27	33076.45
519.45	32907.93
519.62	33462.64
519.79	32966.45
519.96	33347.95
520.14	33570.30
520.31	33310.50
520.48	34033.73
520.65	33610.09
520.83	33450.94
521.00	33589.03
521.17	33689.67
521.34	33991.60
521.52	34213.95
521.69	34340.34
521.86	33862.87
522.03	34274.80
522.20	34136.71
522.38	34457.37
522.55	34705.46
522.72	34263.10
522.89	34340.34
523.07	34632.91
523.24	34335.66
523.41	34572.05
523.58	34082.88
523.75	35019.10
523.92	35143.14
524.10	35065.91
524.27	34920.79
524.44	35028.46
524.61	35363.15
524.78	35306.98
524.96	35512.95
525.13	35866.37
525.30	35470.82
525.47	35470.82
525.64	35459.12
525.81	35332.73
525.98	35857.01
526.16	35674.45
526.33	35608.91
526.50	35683.81
526.67	35660.40
526.84	35690.83
527.01	35402.94
527.18	35716.58
527.36	35997.44
527.53	35789.13
527.70	36044.25
527.87	36510.02
528.04	36369.58
528.21	36126.17
528.38	36395.33
528.55	36615.34
528.72	36500.65
528.89	36353.20
529.07	36793.22
529.24	36226.81
529.41	36921.95
529.58	36926.63
529.75	36463.21
529.92	36645.77
530.09	37106.85
530.26	37200.47
530.43	37148.98
530.60	36973.44
530.77	37298.78
530.94	37441.55
531.11	37420.48
531.28	37418.14
531.46	37656.88
531.63	37242.60
531.80	37125.58
531.97	37371.33
532.14	37621.77
532.31	37310.48
532.48	37315.16
532.65	37834.76
532.82	37851.14
532.99	37591.34
533.16	37563.26
533.33	37830.08
533.50	38206.90
533.67	38127.33
533.84	37799.65
534.01	38443.30
534.18	38012.64
534.35	38513.52
534.52	38256.06
534.69	37907.32
534.86	38242.01
535.03	38387.13
535.20	38457.34
535.37	38817.78
535.54	38675.01
535.71	38614.16
535.88	38660.97
536.05	38625.86
536.22	38864.60
536.38	39068.22
536.55	38738.21
536.72	38602.46
536.89	38501.81
537.06	38731.18
537.23	38583.73
537.40	38855.23
537.57	39182.91
537.74	38925.45
537.91	39583.14
538.08	39136.10
538.25	39168.87
538.42	38918.43
538.59	39309.30
538.75	38560.33
538.92	39269.51
539.09	39433.35
539.26	39494.20
539.43	39541.01
539.60	39674.42
539.77	39452.07
539.94	39974.01
540.11	39321.00
540.28	39573.78
540.44	39487.18
540.61	39590.16
540.78	39592.50
540.95	39768.04
541.12	39564.42
541.29	39653.36
541.46	39849.96
541.62	39737.62
541.79	39945.92
541.96	40154.23
542.13	39718.89
542.30	39974.01
542.47	40076.99
542.63	40142.53
542.80	39981.03
542.97	40809.58
543.14	40828.30
543.31	41134.92
543.48	40910.22
543.64	40905.54
543.81	40950.01
543.98	40615.32
544.15	41034.27
544.32	41216.83
544.48	41200.45
544.65	40727.66
544.82	40903.20
544.99	40671.49
545.16	41071.72
545.32	40727.66
545.49	41109.17
545.66	41015.55
545.83	41060.02
546.00	41174.70
546.16	41317.48
546.33	41170.02
546.50	41298.75
546.67	41450.89
546.83	41464.93
547.00	41237.90
547.17	41429.82
547.34	41511.74
547.50	41392.37
547.67	41710.69
547.84	41441.53
548.00	41860.48
548.17	42054.75
548.34	41551.53
548.51	42209.22
548.67	41703.67
548.84	41837.08
549.01	42021.98
549.18	41514.08
549.34	42185.82
549.51	41853.46
549.68	42340.29
549.84	41776.22
550.01	42176.45
550.18	42181.13
550.34	42459.66
550.51	41509.40
550.68	41818.35
550.84	41448.55
551.01	42225.60
551.18	42380.08
551.34	42394.12
551.51	42356.67
551.68	42478.38
551.84	42712.44
552.01	42258.37
552.18	42597.75
552.34	41813.67
552.51	42761.59
552.68	42454.98
552.84	42572.00
553.01	42927.77
553.18	42707.76
553.34	42344.97
553.51	42476.04
553.67	42279.44
553.84	42937.13
554.01	43044.79
554.17	42948.83
554.34	43449.70
554.51	42946.49
554.67	43049.47
554.84	42574.34
555.00	43049.47
555.17	43082.24
555.33	43217.99
555.50	43356.08
555.67	42944.15
555.83	43269.48
556.00	42904.36
556.16	43676.74
556.33	43447.36
556.50	43124.37
556.66	43374.81
556.83	42976.92
556.99	43203.95
557.16	43576.09
557.32	43054.15
557.49	43248.42
557.65	43040.11
557.82	43185.22
557.98	43395.87
558.15	43346.72
558.32	43379.49
558.48	43225.01
558.65	43496.52
558.81	43044.79
558.98	43592.48
559.14	43423.96
559.31	43395.87
559.47	43761.00
559.64	43718.87
559.80	44018.46
559.97	43831.21
560.13	43459.07
560.30	43150.12
560.46	43650.99
560.63	44051.22
560.79	43887.39
560.96	44481.88
561.12	43573.75
561.29	43669.72
561.45	43276.51
561.61	43812.49
561.78	43658.01
561.94	43744.61
562.11	43889.73
562.27	43835.89
562.44	43784.40
562.60	43899.09
562.77	44208.04
562.93	43852.28
563.10	44151.87
563.26	43735.25
563.42	43803.13
563.59	44006.75
563.75	43681.42
563.92	44318.04
564.08	43819.51
564.24	44233.78
564.41	44154.21
564.57	44105.06
564.74	43899.09
564.90	44224.42
565.07	44250.17
565.23	43945.90
565.39	43718.87
565.56	44032.50
565.72	44357.83
565.88	44306.34
566.05	43889.73
566.21	44025.48
566.38	44222.08
566.54	44435.07
566.70	44182.29
566.87	44676.15
567.03	44020.80
567.19	44655.08
567.36	44404.64
567.52	44353.15
567.68	44308.68
567.85	44474.86
568.01	44423.37
568.17	44694.87
568.34	44802.53
568.50	44428.05
568.66	43847.60
568.83	44357.83
568.99	44453.79
569.15	44385.92
569.32	44086.33
569.48	44280.60
569.64	44514.65
569.81	44292.30
569.97	43981.01
570.13	44451.45
570.30	44516.99
570.46	44226.76
570.62	44189.31
570.78	44376.56
570.95	44531.03
571.11	44720.62
571.27	44605.93
571.43	44320.38
571.60	44418.69
571.76	44456.14
571.92	44727.64
572.09	44481.88
572.25	44442.09
572.41	44598.91
572.57	44573.16
572.74	44985.10
572.90	44425.71
573.06	44638.70
573.22	44547.42
573.38	44175.27
573.55	44301.66
573.71	44744.02
573.87	44683.17
574.03	44725.30
574.20	44641.04
574.36	44657.42
574.52	44093.35
574.68	44575.50
574.84	44949.99
575.01	44898.50
575.17	44552.10
575.33	44418.69
575.49	44339.11
575.65	45050.63
575.82	45219.15
575.98	44772.11
576.14	45160.64
576.30	44935.95
576.46	44294.64
576.62	44472.52
576.79	44594.23
576.95	44067.61
577.11	44491.24
577.27	44432.73
577.43	45055.31
577.59	44669.12
577.75	44629.34
577.92	44226.76
578.08	44423.37
578.24	44315.70
578.40	45092.76
578.56	44835.30
578.72	44713.59
578.88	44949.99
579.04	44748.70
579.21	44208.04
579.37	44825.94
579.53	44428.05
579.69	43878.02
579.85	44631.68
580.01	44900.84
580.17	44935.95
580.33	45024.89
580.49	44671.46
580.65	44636.36
580.82	44671.46
580.98	45034.25
581.14	44353.15
581.30	44870.41
581.46	44868.07
581.62	44744.02
581.78	44692.53
581.94	45017.86
582.10	44952.33
582.26	45090.42
582.42	44669.12
582.58	44596.57
582.74	44680.83
582.90	44753.38
583.06	44898.50
583.22	44823.60
583.38	44708.91
583.54	44669.12
583.70	44898.50
583.86	44818.92
584.02	44376.56
584.18	44886.79
584.34	45200.43
584.50	44842.32
584.66	44732.32
584.82	44678.49
584.98	45291.71
585.14	44650.40
585.30	44729.98
585.46	44802.53
585.62	44800.19
585.78	44549.76
585.94	44336.77
586.10	44875.09
586.26	45038.93
586.42	45036.59
586.58	45193.40
586.74	44584.86
586.90	44683.17
587.06	44610.61
587.22	45141.91
587.38	44727.64
587.54	45198.09
587.70	45258.94
587.86	45146.59
588.02	44875.09
588.18	44914.88
588.34	45057.65
588.49	44563.80
588.65	44439.75
588.81	44414.01
588.97	44275.91
589.13	44463.16
589.29	44865.73
589.45	45116.17
589.61	44479.54
589.77	45507.04
589.93	45184.04
590.08	44992.12
590.24	44999.14
