SpectraSuite Data File
++++++++++++++++++++++++++++++++++++
Date: Fri Oct 25 11:25:19 EDT 2013
User: price-jones
Dark Spectrum Present: No
Reference Spectrum Present: No
Number of Sampled Component Spectra: 1
Spectrometers: USB2+H05261
Integration Time (usec): 100000 (USB2+H05261)
Spectra Averaged: 1 (USB2+H05261)
Boxcar Smoothing: 0 (USB2+H05261)
Correct for Electrical Dark: No (USB2+H05261)
Strobe/Lamp Enabled: No (USB2+H05261)
Correct for Detector Non-linearity: No (USB2+H05261)
Correct for Stray Light: No (USB2+H05261)
Number of Pixels in Processed Spectrum: 2048
>>>>>Begin Processed Spectral Data<<<<<
365.73	294.91
365.92	294.91
366.12	294.91
366.32	224.69
366.52	117.03
366.72	236.39
366.91	198.95
367.11	39.79
367.31	191.92
367.51	182.56
367.70	140.43
367.90	175.54
368.10	163.84
368.30	149.79
368.49	170.86
368.69	187.24
368.89	201.29
369.09	149.79
369.28	135.75
369.48	117.03
369.68	159.16
369.87	140.43
370.07	255.12
370.27	117.03
370.47	346.40
370.66	638.97
370.86	681.10
371.06	671.73
371.25	685.78
371.45	641.31
371.65	681.10
371.84	683.44
372.04	638.97
372.24	734.93
372.44	678.76
372.63	683.44
372.83	786.42
373.03	770.04
373.22	807.48
373.42	763.01
373.62	781.74
373.81	793.44
374.01	770.04
374.21	772.38
374.40	842.59
374.60	840.25
374.79	849.61
374.99	805.14
375.19	875.36
375.38	854.30
375.58	835.57
375.78	887.06
375.97	905.79
376.17	915.15
376.37	938.55
376.56	910.47
376.76	924.51
376.95	861.32
377.15	908.13
377.35	903.45
377.54	830.89
377.74	964.30
377.93	844.93
378.13	929.19
378.33	961.96
378.52	931.53
378.72	971.32
378.91	994.73
379.11	954.94
379.31	978.34
379.50	985.37
379.70	994.73
379.89	968.98
380.09	936.21
380.28	896.43
380.48	973.66
380.68	971.32
380.87	1032.18
381.07	999.41
381.26	1100.05
381.46	1029.84
381.65	1102.39
381.85	1053.24
382.04	1053.24
382.24	1048.56
382.43	1170.27
382.63	1111.75
382.83	1062.60
383.02	1123.46
383.22	1118.78
383.41	1011.11
383.61	1130.48
383.80	1125.80
384.00	1107.07
384.19	1032.18
384.39	1057.92
384.58	1088.35
384.78	1149.20
384.97	1153.88
385.17	1090.69
385.36	1146.86
385.56	1200.69
385.75	1114.10
385.95	1184.31
386.14	1210.06
386.34	1219.42
386.53	1170.27
386.72	1308.36
386.92	1203.04
387.11	1245.16
387.31	1203.04
387.50	1158.57
387.70	1275.59
387.89	1287.29
388.09	1207.72
388.28	1245.16
388.48	1303.68
388.67	1282.61
388.86	1289.64
389.06	1329.42
389.25	1320.06
389.45	1277.93
389.64	1390.28
389.84	1406.66
390.03	1394.96
390.22	1277.93
390.42	1406.66
390.61	1430.07
390.81	1427.73
391.00	1458.15
391.19	1519.01
391.39	1444.11
391.58	1439.43
391.78	1345.81
391.97	1589.22
392.16	1490.92
392.36	1479.22
392.55	1547.09
392.75	1565.82
392.94	1434.75
393.13	1549.43
393.33	1526.03
393.52	1577.52
393.71	1591.56
393.91	1495.60
394.10	1568.16
394.29	1486.24
394.49	1568.16
394.68	1610.29
394.88	1689.87
395.07	1598.59
395.26	1614.97
395.46	1605.61
395.65	1678.16
395.84	1666.46
396.04	1736.68
396.23	1727.32
396.42	1598.59
396.62	1788.17
396.81	1739.02
397.00	1689.87
397.19	1755.40
397.39	1732.00
397.58	1914.56
397.77	1717.95
397.97	1919.24
398.16	1816.26
398.35	1907.54
398.55	1902.86
398.74	1837.32
398.93	1909.88
399.12	1851.36
399.32	1905.20
399.51	1905.20
399.70	1973.07
399.90	2008.18
400.09	1994.14
400.28	2054.99
400.47	2076.06
400.67	2122.87
400.86	2113.50
401.05	2080.74
401.24	2087.76
401.44	2111.16
401.63	2057.33
401.82	2153.29
402.01	2108.82
402.21	2165.00
402.40	2143.93
402.59	2148.61
402.78	2176.70
402.97	2167.34
403.17	2387.35
403.36	2333.51
403.55	2251.60
403.74	2340.54
403.93	2289.04
404.13	2356.92
404.32	2380.32
404.51	2424.80
404.70	2375.64
404.89	2251.60
405.09	2499.69
405.28	2520.76
405.47	2415.43
405.66	2487.99
405.85	2476.29
406.05	2530.12
406.24	2537.14
406.43	2476.29
406.62	2677.57
406.81	2649.49
407.00	2574.59
407.20	2502.03
407.39	2637.78
407.58	2722.04
407.77	2672.89
407.96	2658.85
408.15	2780.56
408.34	2665.87
408.54	2963.12
408.73	2719.70
408.92	2815.66
409.11	2897.58
409.30	2832.05
409.49	2871.84
409.68	2780.56
409.87	2949.08
410.07	2995.89
410.26	2986.52
410.45	2920.99
410.64	2935.03
410.83	3094.19
411.02	3131.64
411.21	3101.21
411.40	3138.66
411.59	3288.45
411.78	3152.70
411.98	3185.47
412.17	3246.32
412.36	3190.15
412.55	3206.53
412.74	3365.69
412.93	3377.39
413.12	3396.12
413.31	3478.04
413.50	3487.40
413.69	3489.74
413.88	3569.32
414.07	3524.85
414.26	3548.25
414.45	3489.74
414.64	3688.68
414.83	3712.09
415.02	3761.24
415.22	3684.00
415.41	3794.01
415.60	4021.04
415.79	3854.86
415.98	3953.16
416.17	3906.35
416.36	3920.40
416.55	3929.76
416.74	4182.54
416.93	4018.70
417.12	4049.13
417.31	4049.13
417.50	4203.60
417.69	4259.78
417.88	4159.13
418.07	4456.38
418.26	4215.30
418.45	4348.72
418.64	4234.03
418.83	4444.68
419.02	4320.63
419.21	4390.84
419.39	4585.11
419.58	4507.87
419.77	4346.37
419.96	4489.15
420.15	4627.24
420.34	4636.60
420.53	4564.04
420.72	4601.49
420.91	4613.20
421.10	4833.21
421.29	4667.03
421.48	4582.77
421.67	4671.71
421.86	4741.93
422.05	4746.61
422.24	4744.27
422.43	4873.00
422.61	4741.93
422.80	5004.07
422.99	4823.84
423.18	4873.00
423.37	4950.23
423.56	4753.63
423.75	4800.44
423.94	4945.55
424.13	4603.83
424.32	4704.48
424.50	5008.75
424.69	4938.53
424.88	5025.13
425.07	5034.49
425.26	4652.98
425.45	4938.53
425.64	4891.72
425.83	4856.61
426.01	4980.66
426.20	5130.45
426.39	4961.94
426.58	4940.87
426.77	5001.72
426.96	5107.05
427.15	5100.03
427.33	5165.56
427.52	5282.59
427.71	5235.78
427.90	5235.78
428.09	5200.67
428.28	5357.49
428.46	5303.65
428.65	5378.55
428.84	5507.28
429.03	5242.80
429.22	5233.44
429.40	5427.70
429.59	5504.94
429.78	5369.19
429.97	5128.11
430.16	5493.24
430.34	5437.06
430.53	5664.10
430.72	5619.63
430.91	5724.95
431.10	5474.51
431.28	5582.18
431.47	5687.50
431.66	5823.25
431.85	5713.25
432.03	5884.11
432.22	5823.25
432.41	5919.21
432.60	5888.79
432.79	5921.56
432.97	5923.90
433.16	6017.52
433.35	5984.75
433.54	5781.12
433.72	5989.43
433.91	6092.41
434.10	6120.50
434.28	6015.18
434.47	6099.44
434.66	6291.36
434.85	6057.31
435.03	6413.07
435.22	6218.80
435.41	6394.34
435.59	6221.14
435.78	6450.52
435.97	6408.39
436.16	6387.32
436.34	6326.47
436.53	6553.50
436.72	6689.25
436.90	6218.80
437.09	6516.05
437.28	6523.07
437.46	6616.69
437.65	6588.61
437.84	6644.78
438.02	6586.27
438.21	6750.10
438.40	6853.09
438.58	6977.14
438.77	6913.94
438.96	6841.39
439.14	6991.18
439.33	7162.04
439.52	7110.55
439.70	7236.94
439.89	7325.88
440.08	7368.01
440.26	7248.64
440.45	7269.70
440.63	7370.35
440.82	7463.97
441.01	7424.18
441.19	7602.06
441.38	7552.91
441.57	7426.52
441.75	7756.54
441.94	7810.37
442.12	7868.88
442.31	8021.02
442.50	8044.42
442.68	7934.42
442.87	8091.23
443.05	7836.11
443.24	7873.56
443.43	8135.70
443.61	8107.62
443.80	8351.03
443.98	7992.93
444.17	7817.39
444.35	8238.69
444.54	8252.73
444.73	8100.59
444.91	8201.24
445.10	8388.48
445.28	8109.96
445.47	8194.22
445.65	8374.44
445.84	8388.48
446.02	8205.92
446.21	8341.67
446.39	8341.67
446.58	8535.93
446.77	8421.25
446.95	8252.73
447.14	8369.76
447.32	8348.69
447.51	8250.39
447.69	8395.50
447.88	8465.72
448.06	8374.44
448.25	8390.82
448.43	8505.51
448.62	8496.14
448.80	8451.67
448.99	8498.49
449.17	8718.50
449.36	8477.42
449.54	8713.81
449.73	8896.38
449.91	8997.02
450.10	8840.20
450.28	8940.85
450.46	8917.44
450.65	8943.19
450.83	8835.52
451.02	8849.57
451.20	9114.05
451.39	9039.15
451.57	9118.73
451.76	9022.77
451.94	9179.58
452.13	9270.86
452.31	9439.38
452.49	9078.94
452.68	9397.25
452.86	9334.06
453.05	9455.76
453.23	9401.93
453.42	9092.98
453.60	9231.07
453.78	9486.19
453.97	9387.89
454.15	9561.09
454.34	9432.36
454.52	9596.20
454.70	9600.88
454.89	9769.40
455.07	9923.87
455.26	9799.82
455.44	9694.50
455.62	9832.59
455.81	9806.84
455.99	9856.00
456.17	9980.04
456.36	9851.31
456.54	10319.42
456.73	10209.42
456.91	10305.38
457.09	10342.83
457.28	10349.85
457.46	10136.86
457.64	10492.62
457.83	10455.17
458.01	10157.92
458.19	10597.95
458.38	10422.41
458.56	10796.89
458.74	10647.10
458.93	10466.88
459.11	10434.11
459.29	10553.48
459.48	10764.12
459.66	10747.74
459.84	10843.70
460.03	10787.53
460.21	10750.08
460.39	10993.50
460.57	10927.96
460.76	11115.20
460.94	11164.36
461.12	10970.09
461.31	10991.16
461.49	10995.84
461.67	11066.05
461.85	11360.96
462.04	11265.00
462.22	11719.06
462.40	11466.28
462.59	11335.21
462.77	11435.86
462.95	11726.08
463.13	11625.44
463.32	11592.67
463.50	11536.50
463.68	11459.26
463.86	11667.57
464.05	11843.11
464.23	11431.18
464.41	11646.51
464.59	11503.73
464.78	12035.03
464.96	11810.34
465.14	11901.62
465.32	11857.15
465.50	12198.87
465.69	12170.79
465.87	12105.25
466.05	11957.80
466.23	12283.13
466.41	12093.55
466.60	12512.50
466.78	12264.41
466.96	12313.56
467.14	12297.17
467.32	12533.57
467.51	12564.00
467.69	12093.55
467.87	12362.71
468.05	12404.84
468.23	12255.04
468.41	12304.20
468.60	12360.37
468.78	12765.28
468.96	12486.76
469.14	12685.70
469.32	12952.52
469.50	12613.15
469.69	12716.13
469.87	13062.53
470.05	13116.36
470.23	12938.48
470.41	12784.01
470.59	13221.69
470.77	13160.83
470.95	13284.88
471.14	13455.74
471.32	13095.30
471.50	13617.24
471.68	13343.39
471.86	13734.26
472.04	13493.19
472.22	13900.44
472.40	13554.04
472.58	13881.72
472.77	13710.86
472.95	14099.39
473.13	14258.54
473.31	13954.27
473.49	14122.79
473.67	14001.08
473.85	13865.33
474.03	14286.63
474.21	14387.27
474.39	14600.26
474.57	14520.68
474.75	14682.18
474.93	14984.11
475.12	14768.78
475.30	14916.23
475.48	14785.16
475.66	15356.25
475.84	14789.85
476.02	15063.69
476.20	15211.14
476.38	15363.28
476.56	16109.91
476.74	15737.76
476.92	15688.61
477.10	15527.11
477.28	15983.52
477.46	16023.31
477.64	16149.70
477.82	16315.87
478.00	16741.85
478.18	16819.09
478.36	16767.60
478.54	16954.84
478.72	17069.53
478.90	17181.87
479.08	17205.28
479.26	17441.67
479.44	17830.20
479.62	17603.17
479.80	17804.46
479.98	17914.46
480.16	18457.46
480.34	18054.89
480.52	18583.85
480.70	18307.67
480.88	18251.50
481.06	18663.43
481.24	18801.52
481.41	18888.12
481.59	19136.22
481.77	19325.80
481.95	19426.45
482.13	19477.94
482.31	19264.95
482.49	20329.89
482.67	19943.70
482.85	20271.38
483.03	20360.32
483.21	20561.61
483.39	20805.02
483.57	20451.60
483.74	20638.84
483.92	21240.36
484.10	20884.60
484.28	21441.65
484.46	21776.34
484.64	22038.48
484.82	21919.12
485.00	22214.02
485.18	22396.59
485.35	22895.12
485.53	22464.46
485.71	22583.83
485.89	23381.95
486.07	22752.35
486.25	23236.84
486.43	23503.66
486.61	23545.79
486.78	23826.65
486.96	24149.65
487.14	24528.81
487.32	24233.91
487.50	24498.39
487.68	24769.89
487.85	24790.95
488.03	25177.14
488.21	25682.70
488.39	25563.33
488.57	25827.81
488.75	25741.21
488.92	26139.10
489.10	26478.48
489.28	26504.23
489.46	26899.78
489.64	26852.97
489.81	27388.95
489.99	27300.01
490.17	27225.11
490.35	28002.17
490.53	27828.97
490.70	28439.85
490.88	27833.65
491.06	28304.10
491.24	28446.87
491.41	29060.09
491.59	28994.56
491.77	29163.08
491.95	29572.67
492.13	29544.58
492.30	30036.09
492.48	29399.47
492.66	30017.37
492.84	29827.79
493.01	30691.44
493.19	30459.73
493.37	30710.17
493.54	30754.64
493.72	31346.79
493.90	31061.25
494.08	31395.95
494.25	32006.83
494.43	32098.11
494.61	32360.25
494.79	32030.23
494.96	32341.52
495.14	32926.66
495.32	32809.63
495.49	33170.07
495.67	32720.69
495.85	33673.29
496.02	33413.49
496.20	33715.42
496.38	34015.01
496.55	33933.09
496.73	34583.76
496.91	34185.86
497.09	34359.06
497.26	34829.51
497.44	34663.33
497.62	34838.87
497.79	35695.51
497.97	35365.49
498.14	35452.09
498.32	35988.08
498.50	36100.42
498.67	36182.34
498.85	36545.12
499.03	35997.44
499.20	36301.71
499.38	36175.32
499.56	36605.98
499.73	36854.08
499.91	36996.85
500.08	37544.53
500.26	37174.73
500.44	37179.41
500.61	37420.48
500.79	37516.45
500.97	37881.57
501.14	38115.62
501.32	38199.88
501.49	38206.90
501.67	38450.32
501.84	38316.91
502.02	38721.82
502.20	38838.85
502.37	38873.96
502.55	38719.48
502.72	39208.65
502.90	39704.85
503.07	39337.38
503.25	39442.71
503.43	39498.88
503.60	39889.75
503.78	39950.60
503.95	39854.64
504.13	40268.92
504.30	40299.34
504.48	40479.57
504.65	40250.19
504.83	40730.00
505.01	41319.82
505.18	41060.02
505.36	41354.93
505.53	41090.44
505.71	40722.98
505.88	41132.57
506.06	41141.94
506.23	41446.21
506.41	41588.98
506.58	41605.36
506.76	41965.81
506.93	41612.38
507.11	42195.18
507.28	42609.45
507.46	42529.87
507.63	42401.14
507.81	43096.28
507.98	42522.85
508.16	42766.27
508.33	43056.50
508.50	43463.75
508.68	43227.35
508.85	43728.23
509.03	43182.88
509.20	43274.16
509.38	44069.95
509.55	44069.95
509.73	43913.13
509.90	44261.87
510.08	44524.01
510.25	43948.24
510.42	44453.79
510.60	44666.78
510.77	44816.58
510.95	45141.91
511.12	45401.71
511.30	44521.67
511.47	45305.75
511.64	44945.31
511.82	45347.88
511.99	45411.07
512.17	45455.54
512.34	45743.43
512.51	45855.78
512.69	46256.01
512.86	46185.79
513.04	46731.14
513.21	46089.83
513.38	46569.64
513.56	46337.93
513.73	46623.47
513.90	46705.39
514.08	46958.17
514.25	46939.44
514.43	47150.09
514.60	46817.74
514.77	46567.30
514.95	47171.16
515.12	47449.68
515.29	47082.22
515.47	47665.01
515.64	47723.52
515.81	47501.17
515.99	47519.90
516.16	48456.11
516.33	47494.15
516.51	48568.46
516.68	48198.65
516.85	48336.74
517.03	48643.35
517.20	48701.87
517.37	48498.24
517.54	48818.89
517.72	48505.26
517.89	48648.03
518.06	49055.29
518.24	48987.41
518.41	48917.20
518.58	48854.00
518.75	48879.75
518.93	49401.69
519.10	49041.24
519.27	49345.51
519.45	49186.36
519.62	49722.34
519.79	49883.84
519.96	49638.08
520.14	49909.58
520.31	49654.47
520.48	49839.37
520.65	50178.75
520.83	50122.57
521.00	50710.05
521.17	50136.62
521.34	50319.18
521.52	50518.12
521.69	50721.75
521.86	50644.51
522.03	50782.60
522.20	51173.47
522.38	51166.45
522.55	50890.27
522.72	51131.34
522.89	50866.86
523.07	51100.92
523.24	51353.69
523.41	51257.73
523.58	51435.61
523.75	51664.99
523.92	51688.39
524.10	51461.36
524.27	51695.41
524.44	51732.86
524.61	51784.35
524.78	51618.17
524.96	51877.97
525.13	52203.31
525.30	51962.23
525.47	51971.60
525.64	52336.72
525.81	52399.91
525.98	52439.70
526.16	52154.16
526.33	52095.64
526.50	52886.74
526.67	52479.49
526.84	52502.90
527.01	52554.39
527.18	52514.60
527.36	52825.89
527.53	52816.53
527.70	52954.62
527.87	53200.38
528.04	53045.90
528.21	53081.01
528.38	53127.82
528.55	53188.67
528.72	53153.57
528.89	53251.87
529.07	53432.09
529.24	53029.52
529.41	53476.56
529.58	53476.56
529.75	53521.03
529.92	53506.99
530.09	53495.28
530.26	53504.65
530.43	53776.15
530.60	53324.43
530.77	53808.92
530.94	53848.71
531.11	53939.99
531.28	53581.88
531.46	54136.59
531.63	54122.55
531.80	53965.73
531.97	54230.21
532.14	54241.92
532.31	54152.97
532.48	54223.19
532.65	54342.56
532.82	53979.78
532.99	54127.23
533.16	54508.74
533.33	54597.68
533.50	54871.52
533.67	54454.90
533.84	54328.52
534.01	54674.91
534.18	54815.35
534.35	55356.01
534.52	54794.28
534.69	54913.65
534.86	55138.34
535.03	54873.86
535.20	55000.25
535.37	55091.53
535.54	55154.72
535.71	55002.59
535.88	55072.81
536.05	55325.58
536.22	55505.80
536.38	55426.23
536.55	55367.71
536.72	55276.43
536.89	55330.26
537.06	55206.22
537.23	55543.25
537.40	55250.69
537.57	55543.25
537.74	55606.45
537.91	55718.79
538.08	55723.47
538.25	55419.20
538.42	55601.77
538.59	55859.23
538.75	55543.25
538.92	55650.92
539.09	56130.73
539.26	55913.06
539.43	55884.97
539.60	55894.33
539.77	56039.45
539.94	56055.83
540.11	56090.94
540.28	56252.44
540.44	56107.32
540.61	56168.18
540.78	56266.48
540.95	56339.04
541.12	56119.02
541.29	56100.30
541.46	56537.98
541.62	56425.64
541.79	56624.58
541.96	56355.42
542.13	56411.59
542.30	56453.72
542.47	56622.24
542.63	56727.56
542.80	56788.42
542.97	56769.69
543.14	56891.40
543.31	56870.34
543.48	57003.75
543.64	57172.27
543.81	57275.25
543.98	57048.22
544.15	57127.80
544.32	57146.52
544.48	57291.63
544.65	57188.65
544.82	57275.25
544.99	56963.96
545.16	57261.21
545.32	57104.39
545.49	57439.09
545.66	57467.17
545.83	57485.90
546.00	57366.53
546.16	57378.23
546.33	57293.97
546.50	57439.09
546.67	57694.21
546.83	57265.89
547.00	57818.25
547.17	57485.90
547.34	57614.63
547.50	57722.29
547.67	57717.61
547.84	57717.61
548.00	58012.52
548.17	58120.18
548.34	57851.02
548.51	58078.05
548.67	58035.92
548.84	57897.83
549.01	57916.56
549.18	57846.34
549.34	58157.63
549.51	58152.95
549.68	58216.14
549.84	58049.97
550.01	58323.81
550.18	58323.81
550.34	58117.84
550.51	58192.74
550.68	58281.68
550.84	57956.35
551.01	58267.64
551.18	58239.55
551.34	58183.38
551.51	58185.72
551.68	58148.27
551.84	58401.05
552.01	58019.54
552.18	58419.77
552.34	58405.73
552.51	58658.51
552.68	58258.27
552.84	58536.80
553.01	58749.79
553.18	58784.90
553.34	58677.23
553.51	58511.05
553.67	58667.87
553.84	58913.62
554.01	58688.93
554.17	58838.73
554.34	58752.13
554.51	58913.62
554.67	58848.09
554.84	58955.75
555.00	58628.08
555.17	58857.45
555.33	58810.64
555.50	58642.12
555.67	58820.00
555.83	58784.90
556.00	58941.71
556.16	59320.88
556.33	59093.85
556.50	58869.15
556.66	59185.13
556.83	58857.45
556.99	59241.30
557.16	59299.81
557.32	59173.42
557.49	59423.86
557.65	59152.36
557.82	58993.20
557.98	59128.95
558.15	59227.26
558.32	59206.19
558.48	59262.36
558.65	59257.68
558.81	59388.75
558.98	59236.62
559.14	59641.53
559.31	59454.29
559.47	59353.65
559.64	59456.63
559.80	59465.99
559.97	59536.21
560.13	59416.84
560.30	59494.08
560.46	59426.20
560.63	59636.85
560.79	59723.45
560.96	59606.42
561.12	59739.83
561.29	59781.96
561.45	59613.44
561.61	59463.65
561.78	59409.82
561.94	59634.51
562.11	59625.15
562.27	59620.47
562.44	59763.24
562.60	59753.88
562.77	59800.69
562.93	59456.63
563.10	59798.35
563.26	59718.77
563.42	59852.18
563.59	59863.88
563.75	59779.62
563.92	59681.32
564.08	59819.41
564.24	59760.90
564.41	59898.99
564.57	60037.08
564.74	60004.31
564.90	59695.36
565.07	60023.04
565.23	59906.01
565.39	59964.52
565.56	59913.03
565.72	59957.50
565.88	59938.78
566.05	59997.29
566.21	59856.86
566.38	60016.02
566.54	60123.68
566.70	60088.57
566.87	60196.24
567.03	59812.39
567.19	60292.20
567.36	60100.28
567.52	59976.23
567.68	60261.77
567.85	60254.75
568.01	60067.51
568.17	60011.34
568.34	60186.88
568.50	60278.16
568.66	60175.17
568.83	60324.97
568.99	59971.55
569.15	60226.66
569.32	60111.98
569.48	60371.78
569.64	60294.54
569.81	60200.92
569.97	60247.73
570.13	60406.89
570.30	60238.37
570.46	60315.61
570.62	60142.41
570.78	60259.43
570.95	60254.75
571.11	60334.33
571.27	60254.75
571.43	60254.75
571.60	60409.23
571.76	60371.78
571.92	60488.80
572.09	60544.98
572.25	60324.97
572.41	60453.70
572.57	60416.25
572.74	60790.73
572.90	60402.21
573.06	60467.74
573.22	60523.91
573.38	60615.19
573.55	60544.98
573.71	60804.78
573.87	60495.83
574.03	60437.31
574.20	60519.23
574.36	60486.46
574.52	60559.02
574.68	60612.85
574.84	60690.09
575.01	60584.77
575.17	60540.30
575.33	60355.39
575.49	60360.08
575.65	60542.64
575.82	60683.07
575.98	60669.03
576.14	60786.05
576.30	60568.38
576.46	60573.06
576.62	60369.44
576.79	60392.84
576.95	60446.68
577.11	60680.73
577.27	60704.13
577.43	60563.70
577.59	60662.00
577.75	60671.37
577.92	60411.57
578.08	60626.90
578.24	60662.00
578.40	60680.73
578.56	60809.46
578.72	60509.87
578.88	60757.97
579.04	60739.24
579.21	60636.26
579.37	60776.69
579.53	60858.61
579.69	60556.68
579.85	60718.18
580.01	60584.77
580.17	60523.91
580.33	60743.92
580.49	60762.65
580.65	60626.90
580.82	60774.35
580.98	60654.98
581.14	60559.02
581.30	60753.29
581.46	60692.43
581.62	60779.03
581.78	60683.07
581.94	60898.40
582.10	60633.92
582.26	60884.36
582.42	60671.37
582.58	60917.12
582.74	60573.06
582.90	60804.78
583.06	60610.51
583.22	60622.22
583.38	60673.71
583.54	60720.52
583.70	60750.94
583.86	60867.97
584.02	60608.17
584.18	60980.32
584.34	60849.25
584.50	60760.31
584.66	60582.43
584.82	60605.83
584.98	61052.87
585.14	60748.60
585.30	60683.07
585.46	60933.51
585.62	60821.16
585.78	60921.80
585.94	60589.45
586.10	60767.33
586.26	60772.01
586.42	60905.42
586.58	60989.68
586.74	60896.06
586.90	60650.30
587.06	60748.60
587.22	61080.96
587.38	61036.49
587.54	60963.93
587.70	61006.06
587.86	61036.49
588.02	60893.72
588.18	60914.78
588.34	60853.93
588.49	60949.89
