SpectraSuite Data File
++++++++++++++++++++++++++++++++++++
Date: Fri Oct 25 11:33:58 EDT 2013
User: price-jones
Dark Spectrum Present: No
Reference Spectrum Present: No
Number of Sampled Component Spectra: 1
Spectrometers: USB2+H05261
Integration Time (usec): 100000 (USB2+H05261)
Spectra Averaged: 1 (USB2+H05261)
Boxcar Smoothing: 0 (USB2+H05261)
Correct for Electrical Dark: No (USB2+H05261)
Strobe/Lamp Enabled: No (USB2+H05261)
Correct for Detector Non-linearity: No (USB2+H05261)
Correct for Stray Light: No (USB2+H05261)
Number of Pixels in Processed Spectrum: 2048
>>>>>Begin Processed Spectral Data<<<<<
365.73	330.02
365.92	330.02
366.12	330.02
366.32	220.01
366.52	180.22
366.72	177.88
366.91	177.88
367.11	180.22
367.31	159.16
367.51	152.13
367.70	145.11
367.90	243.42
368.10	196.60
368.30	159.16
368.49	220.01
368.69	231.71
368.89	201.29
369.09	220.01
369.28	205.97
369.48	224.69
369.68	220.01
369.87	250.44
370.07	208.31
370.27	283.20
370.47	390.87
370.66	507.90
370.86	498.53
371.06	538.32
371.25	571.09
371.45	493.85
371.65	561.73
371.84	510.24
372.04	517.26
372.24	557.05
372.44	589.82
372.63	596.84
372.83	599.18
373.03	645.99
373.22	578.11
373.42	589.82
373.62	533.64
373.81	603.86
374.01	622.58
374.21	601.52
374.40	629.60
374.60	561.73
374.79	636.63
374.99	608.54
375.19	688.12
375.38	622.58
375.58	627.26
375.78	702.16
375.97	688.12
376.17	709.18
376.37	699.82
376.56	610.88
376.76	713.86
376.95	657.69
377.15	695.14
377.35	713.86
377.54	613.22
377.74	713.86
377.93	748.97
378.13	667.05
378.33	718.54
378.52	706.84
378.72	713.86
378.91	697.48
379.11	753.65
379.31	727.91
379.50	702.16
379.70	770.04
379.89	781.74
380.09	704.50
380.28	671.73
380.48	739.61
380.68	681.10
380.87	755.99
381.07	744.29
381.26	739.61
381.46	695.14
381.65	795.78
381.85	758.33
382.04	748.97
382.24	798.12
382.43	671.73
382.63	709.18
382.83	805.14
383.02	788.76
383.22	791.10
383.41	800.46
383.61	770.04
383.80	805.14
384.00	826.21
384.19	765.36
384.39	833.23
384.58	849.61
384.78	847.27
384.97	809.83
385.17	793.44
385.36	812.17
385.56	833.23
385.75	795.78
385.95	924.51
386.14	884.72
386.34	882.38
386.53	903.45
386.72	919.83
386.92	819.19
387.11	873.02
387.31	912.81
387.50	807.48
387.70	870.68
387.89	926.85
388.09	931.53
388.28	877.70
388.48	924.51
388.67	908.13
388.86	922.17
389.06	844.93
389.25	931.53
389.45	959.62
389.64	901.11
389.84	1071.97
390.03	908.13
390.22	940.90
390.42	1020.47
390.61	954.94
390.81	931.53
391.00	940.90
391.19	1004.09
391.39	973.66
391.58	1018.13
391.78	1064.94
391.97	1060.26
392.16	990.05
392.36	1123.46
392.55	1121.12
392.75	1013.45
392.94	1011.11
393.13	1109.41
393.33	1041.54
393.52	1057.92
393.71	1102.39
393.91	1109.41
394.10	1025.15
394.29	957.28
394.49	1050.90
394.68	1151.54
394.88	1090.69
395.07	1128.14
395.26	1184.31
395.46	1160.91
395.65	1123.46
395.84	1186.65
396.04	1233.46
396.23	1217.08
396.42	1263.89
396.62	1242.82
396.81	1231.12
397.00	1280.27
397.19	1186.65
397.39	1221.76
397.58	1151.54
397.77	1277.93
397.97	1296.66
398.16	1263.89
398.35	1282.61
398.55	1301.34
398.74	1167.93
398.93	1315.38
399.12	1270.91
399.32	1308.36
399.51	1313.04
399.70	1343.47
399.90	1362.19
400.09	1324.74
400.28	1483.90
400.47	1277.93
400.67	1430.07
400.86	1364.53
401.05	1423.05
401.24	1460.49
401.44	1369.21
401.63	1439.43
401.82	1448.79
402.01	1420.71
402.21	1495.60
402.40	1481.56
402.59	1507.30
402.78	1488.58
402.97	1535.39
403.17	1455.81
403.36	1547.09
403.55	1497.94
403.74	1612.63
403.93	1614.97
404.13	1596.25
404.32	1479.22
404.51	1579.86
404.70	1540.07
404.89	1701.57
405.09	1710.93
405.28	1715.61
405.47	1570.50
405.66	1610.29
405.85	1645.40
406.05	1654.76
406.24	1762.42
406.43	1778.81
406.62	1816.26
406.81	1851.36
407.00	1729.66
407.20	1755.40
407.39	1757.74
407.58	1792.85
407.77	1778.81
407.96	1893.49
408.15	1919.24
408.34	1856.04
408.54	2026.90
408.73	1827.96
408.92	1888.81
409.11	1919.24
409.30	1980.09
409.49	1944.99
409.68	2001.16
409.87	2012.86
410.07	1949.67
410.26	2047.97
410.45	2057.33
410.64	1996.48
410.83	2111.16
411.02	2150.95
411.21	2115.84
411.40	2143.93
411.59	2209.47
411.78	2209.47
411.98	2174.36
412.17	2263.30
412.36	2179.04
412.55	2125.21
412.74	2340.54
412.93	2401.39
413.12	2282.02
413.31	2431.82
413.50	2314.79
413.69	2333.51
413.88	2399.05
414.07	2471.61
414.26	2490.33
414.45	2541.82
414.64	2434.16
414.83	2495.01
415.02	2607.36
415.22	2640.12
415.41	2686.94
415.60	2637.78
415.79	2696.30
415.98	2628.42
416.17	2689.28
416.36	2703.32
416.55	2764.17
416.74	2860.13
416.93	2623.74
417.12	2843.75
417.31	2787.58
417.50	2841.41
417.69	2986.52
417.88	2930.35
418.07	2920.99
418.26	3023.97
418.45	2981.84
418.64	3112.91
418.83	2963.12
419.02	3054.40
419.21	3014.61
419.39	3133.98
419.58	3042.70
419.77	3026.31
419.96	3126.96
420.15	3136.32
420.34	3012.27
420.53	3218.24
420.72	3096.53
420.91	3166.74
421.10	3136.32
421.29	3393.78
421.48	3316.54
421.67	3131.64
421.86	3197.17
422.05	3293.13
422.24	3286.11
422.43	3302.50
422.61	3342.28
422.80	3421.86
422.99	3330.58
423.18	3419.52
423.37	3487.40
423.56	3382.07
423.75	3400.80
423.94	3213.56
424.13	3052.06
424.32	3325.90
424.50	3426.54
424.69	3452.29
424.88	3496.76
425.07	3421.86
425.26	3463.99
425.45	3332.92
425.64	3368.03
425.83	3375.05
426.01	3496.76
426.20	3513.14
426.39	3330.58
426.58	3344.63
426.77	3412.50
426.96	3536.55
427.15	3417.18
427.33	3471.01
427.52	3403.14
427.71	3538.89
427.90	3566.98
428.09	3639.53
428.28	3606.77
428.46	3691.02
428.65	3592.72
428.84	3733.15
429.03	3754.22
429.22	3667.62
429.40	3695.71
429.59	3763.58
429.78	3613.79
429.97	3611.45
430.16	3693.37
430.34	3784.65
430.53	3943.80
430.72	3791.67
430.91	3911.04
431.10	3889.97
431.28	3882.95
431.47	4018.70
431.66	3932.10
431.85	4032.74
432.03	3992.95
432.22	4002.32
432.41	3995.29
432.60	4074.87
432.79	3962.53
432.97	4109.98
433.16	4028.06
433.35	3960.19
433.54	4018.70
433.72	4079.55
433.91	4114.66
434.10	4084.23
434.28	4063.17
434.47	4287.86
434.66	4348.72
434.85	4278.50
435.03	4292.54
435.22	4175.52
435.41	4243.39
435.59	4337.01
435.78	4369.78
435.97	4421.27
436.16	4105.30
436.34	4287.86
436.53	4341.69
436.72	4482.13
436.90	4503.19
437.09	4367.44
437.28	4409.57
437.46	4489.15
437.65	4507.87
437.84	4662.35
438.02	4444.68
438.21	4486.81
438.40	4585.11
438.58	4674.05
438.77	4835.55
438.96	4688.09
439.14	4734.90
439.33	4770.01
439.52	4854.27
439.70	4933.85
439.89	4994.70
440.08	4994.70
440.26	4961.94
440.45	4898.74
440.63	4950.23
440.82	5252.16
441.01	5018.11
441.19	5060.24
441.38	4983.00
441.57	5186.63
441.75	5282.59
441.94	5397.28
442.12	5357.49
442.31	5507.28
442.50	5472.17
442.68	5376.21
442.87	5380.89
443.05	5294.29
443.24	5596.22
443.43	5504.94
443.61	5497.92
443.80	5570.48
443.98	5533.03
444.17	5376.21
444.35	5418.34
444.54	5547.07
444.73	5678.14
444.91	5488.56
445.10	5500.26
445.28	5561.11
445.47	5694.52
445.65	5476.85
445.84	5572.82
446.02	5645.37
446.21	5551.75
446.39	5628.99
446.58	5813.89
446.77	5610.26
446.95	5542.39
447.14	5753.04
447.32	5647.71
447.51	5673.46
447.69	5650.05
447.88	5781.12
448.06	5638.35
448.25	5724.95
448.43	5926.24
448.62	5617.29
448.80	5530.69
448.99	5886.45
449.17	5790.49
449.36	5900.49
449.54	5900.49
449.73	5872.40
449.91	5970.71
450.10	5956.66
450.28	6148.59
450.46	6078.37
450.65	6019.86
450.83	6045.60
451.02	6136.88
451.20	6052.63
451.39	6251.57
451.57	6282.00
451.76	5968.37
451.94	6164.97
452.13	6342.85
452.31	6076.03
452.49	6111.14
452.68	6141.57
452.86	6225.82
453.05	6487.96
453.23	6251.57
453.42	6274.98
453.60	6370.94
453.78	6328.81
453.97	6176.67
454.15	6506.69
454.34	6321.79
454.52	6427.11
454.70	6396.68
454.89	6633.08
455.07	6693.93
455.26	6551.16
455.44	6525.41
455.62	6602.65
455.81	6494.99
455.99	6853.09
456.17	6717.34
456.36	6794.58
456.54	6991.18
456.73	6759.47
456.91	7115.23
457.09	6935.01
457.28	7019.27
457.46	6820.32
457.64	7042.67
457.83	6974.80
458.01	6864.79
458.19	7094.16
458.38	6890.54
458.56	7173.74
458.74	7176.08
458.93	7138.63
459.11	7096.50
459.29	7206.51
459.48	7215.87
459.66	7232.26
459.84	7241.62
460.03	7588.02
460.21	7314.17
460.39	7281.41
460.57	7176.08
460.76	7342.26
460.94	7463.97
461.12	7571.63
461.31	7513.12
461.49	7536.52
461.67	7438.22
461.85	7517.80
462.04	7543.55
462.22	7964.84
462.40	7700.36
462.59	7721.43
462.77	7578.65
462.95	7786.96
463.13	7655.89
463.32	7550.57
463.50	7971.86
463.68	7929.74
463.86	7957.82
464.05	7705.04
464.23	7786.96
464.41	7871.22
464.59	7691.00
464.78	7887.61
464.96	7777.60
465.14	8006.97
465.32	8105.28
465.50	8077.19
465.69	7957.82
465.87	7948.46
466.05	7913.35
466.23	8046.76
466.41	8116.98
466.60	8168.47
466.78	8049.10
466.96	8126.34
467.14	8042.08
467.32	8224.64
467.51	8297.20
467.69	8025.70
467.87	8098.25
468.05	8388.48
468.23	8313.58
468.41	8297.20
468.60	8397.84
468.78	8439.97
468.96	8346.35
469.14	8430.61
469.32	8479.76
469.50	8266.77
469.69	8615.51
469.87	8622.53
470.05	8711.47
470.23	8688.07
470.41	8671.68
470.59	8884.67
470.77	8734.88
470.95	8615.51
471.14	8933.82
471.32	8872.97
471.50	9247.46
471.68	8961.91
471.86	8903.40
472.04	8863.61
472.22	9076.60
472.40	8947.87
472.58	9195.96
472.77	9444.06
472.95	9303.63
473.13	9481.51
473.31	9256.82
473.49	9418.32
473.67	9198.31
473.85	9437.04
474.03	9650.03
474.21	9610.24
474.39	9628.96
474.57	9617.26
474.75	9888.76
474.93	9757.69
475.12	9586.83
475.30	10239.84
475.48	9888.76
475.66	10031.54
475.84	9966.00
476.02	9949.62
476.20	10204.74
476.38	10310.06
476.56	10544.11
476.74	10478.58
476.92	10417.72
477.10	10532.41
477.28	10604.97
477.46	10611.99
477.64	10642.42
477.82	10661.14
478.00	11183.08
478.18	10963.07
478.36	11089.46
478.54	11379.68
478.72	11248.61
478.90	11342.24
479.08	11527.14
479.26	11510.75
479.44	11400.75
479.62	11669.91
479.80	11831.41
479.98	11847.79
480.16	12191.85
480.34	12095.89
480.52	12259.73
480.70	12098.23
480.88	12016.31
481.06	12540.59
481.24	12592.08
481.41	12308.88
481.59	12634.21
481.77	12938.48
481.95	13071.89
482.13	12987.63
482.31	12903.37
482.49	13034.44
482.67	13507.23
482.85	13371.48
483.03	13327.01
483.21	13575.11
483.39	13975.34
483.57	13757.67
483.74	13701.50
483.92	14092.37
484.10	13591.49
484.28	14083.00
484.46	14300.67
484.64	14537.07
484.82	14314.72
485.00	14614.30
485.18	14789.85
485.35	14972.41
485.53	14780.48
485.71	14885.81
485.89	15169.01
486.07	15180.71
486.25	15325.83
486.43	15405.41
486.61	15599.67
486.78	15707.34
486.96	15719.04
487.14	15899.26
487.32	16009.26
487.50	16262.04
487.68	16086.50
487.85	16484.39
488.03	16673.98
488.21	16563.97
488.39	16718.45
488.57	16999.31
488.75	16952.50
488.92	17408.90
489.10	17387.84
489.28	17467.42
489.46	17687.43
489.64	17565.72
489.81	18071.28
489.99	18019.78
490.17	18223.41
490.35	18302.99
490.53	18029.15
490.70	18665.77
490.88	18422.36
491.06	18705.56
491.24	18806.20
491.41	18822.59
491.59	18817.91
491.77	19178.35
491.95	18991.11
492.13	19751.78
492.30	19613.69
492.48	19307.08
492.66	19676.88
492.84	19728.38
493.01	19779.87
493.19	20105.20
493.37	20231.59
493.54	20320.53
493.72	20456.28
493.90	20374.36
494.08	20666.93
494.25	21025.03
494.43	20741.83
494.61	20964.18
494.79	21245.04
494.96	21020.35
495.14	21331.64
495.32	21371.43
495.49	21561.02
495.67	21544.63
495.85	21699.11
496.02	21994.01
496.20	21954.22
496.38	22403.61
496.55	22199.98
496.73	22382.54
496.91	22546.38
497.09	22576.81
497.26	22546.38
497.44	22820.22
497.62	22487.87
497.79	22995.76
497.97	22696.17
498.14	23363.23
498.32	23644.09
498.50	23288.33
498.67	23674.52
498.85	23660.48
499.03	24128.58
499.20	23845.38
499.38	24065.39
499.56	24151.99
499.73	24084.11
499.91	24196.46
500.08	24467.96
500.26	24533.50
500.44	24449.24
500.61	24737.12
500.79	24636.48
500.97	24587.33
501.14	24730.10
501.32	24854.15
501.49	24814.36
501.67	25060.12
501.84	25401.83
502.02	25326.94
502.20	25214.59
502.37	25174.80
502.55	25153.74
502.72	25638.23
502.90	25373.75
503.07	25654.61
503.25	25455.67
503.43	25862.92
503.60	25989.31
503.78	26050.16
503.95	25921.43
504.13	26183.57
504.30	26377.84
504.48	26541.68
504.65	26572.10
504.83	26902.12
505.01	27133.83
505.18	26923.18
505.36	27241.50
505.53	26902.12
505.71	26623.59
505.88	27349.16
506.06	27328.10
506.23	27267.24
506.41	27126.81
506.58	27428.74
506.76	27510.66
506.93	27590.24
507.11	27821.95
507.28	27934.29
507.46	27974.08
507.63	28259.63
507.81	28451.55
507.98	27868.76
508.16	28158.99
508.33	28135.58
508.50	28332.18
508.68	28538.15
508.85	28140.26
509.03	28512.41
509.20	28669.22
509.38	28776.89
509.55	29041.37
509.73	29165.42
509.90	29563.31
510.08	28940.72
510.25	29195.84
510.42	29387.77
510.60	29582.03
510.77	29556.28
510.95	30000.99
511.12	29303.51
511.30	29755.23
511.47	30012.69
511.64	29762.25
511.82	30036.09
511.99	30096.95
512.17	30115.67
512.34	30082.91
512.51	30263.13
512.69	30319.30
512.86	30307.60
513.04	30740.60
513.21	30794.43
513.38	30920.82
513.56	30607.19
513.73	30843.58
513.90	30881.03
514.08	30766.34
514.25	31321.05
514.43	31129.12
514.60	31407.65
514.77	31512.97
514.95	31349.14
515.12	31309.35
515.29	31276.58
515.47	31646.38
515.64	31681.49
515.81	31751.71
515.99	31400.63
516.16	32212.79
516.33	32065.34
516.51	32238.54
516.68	31976.40
516.85	32074.70
517.03	32435.14
517.20	32886.87
517.37	31901.50
517.54	32364.93
517.72	32463.23
517.89	32711.33
518.06	32428.12
518.24	32524.08
518.41	32767.50
518.58	32580.26
518.75	32868.14
518.93	33329.23
519.10	32753.46
519.27	33085.81
519.45	33078.79
519.62	33275.40
519.79	33635.84
519.96	33226.24
520.14	33198.16
520.31	33415.83
520.48	33823.08
520.65	33415.83
520.83	34059.48
521.00	33909.68
521.17	33776.27
521.34	34120.33
521.52	34426.94
521.69	34024.37
521.86	34560.35
522.03	34199.91
522.20	34256.08
522.38	34572.05
522.55	34691.42
522.72	34405.88
522.89	34799.08
523.07	35164.21
523.24	34871.64
523.41	35002.71
523.58	34714.83
523.75	35096.33
523.92	35115.06
524.10	35309.32
524.27	35449.75
524.44	35402.94
524.61	35323.36
524.78	35456.78
524.96	35618.27
525.13	35763.39
525.30	36004.46
525.47	35716.58
525.64	35920.20
525.81	36041.91
525.98	35800.83
526.16	36027.87
526.33	35959.99
526.50	36465.55
526.67	35739.98
526.84	36098.08
527.01	36290.01
527.18	36566.19
527.36	36311.07
527.53	36486.61
527.70	36797.90
527.87	36664.49
528.04	36758.11
528.21	36617.68
528.38	36477.25
528.55	36996.85
528.72	36643.43
528.89	36872.80
529.07	37060.04
529.24	36697.26
529.41	37420.48
529.58	36823.65
529.75	37308.14
529.92	37263.67
530.09	36935.99
530.26	37668.58
530.43	37380.70
530.60	37085.79
530.77	37282.39
530.94	37195.79
531.11	37139.62
531.28	37619.43
531.46	37479.00
531.63	37860.51
531.80	37397.08
531.97	37904.98
532.14	37736.46
532.31	37640.50
532.48	38059.45
532.65	38148.39
532.82	37956.47
532.99	38284.14
533.16	38000.94
533.33	38464.36
533.50	38099.24
533.67	38394.15
533.84	38431.60
534.01	38199.88
534.18	38534.58
534.35	38792.04
534.52	38567.35
534.69	39054.18
534.86	38595.43
535.03	38801.40
535.20	38817.78
535.37	38946.51
535.54	39021.41
535.71	38941.83
535.88	39370.15
536.05	38813.10
536.22	39524.63
536.38	39356.11
536.55	38967.58
536.72	39531.65
536.89	39262.49
537.06	39449.73
537.23	39849.96
537.40	39557.39
537.57	39512.92
537.74	39398.24
537.91	40196.36
538.08	39658.04
538.25	39814.85
538.42	39255.46
538.59	39978.69
538.75	39772.72
538.92	40055.93
539.09	39618.25
539.26	39833.58
539.43	40313.39
539.60	40498.29
539.77	40369.56
539.94	40350.84
540.11	40320.41
540.28	40194.02
540.44	40409.35
540.61	40407.01
540.78	40467.86
540.95	40282.96
541.12	40378.92
541.29	40236.15
541.46	40634.04
541.62	40411.69
541.79	41198.11
541.96	40774.47
542.13	40545.10
542.30	40968.74
542.47	40966.40
542.63	40718.30
542.80	41219.17
542.97	41319.82
543.14	41357.27
543.31	41258.96
543.48	40910.22
543.64	41691.96
543.81	41834.74
543.98	41174.70
544.15	41017.89
544.32	41577.28
544.48	41727.07
544.65	41572.60
544.82	42190.50
544.99	41326.84
545.16	42052.41
545.32	41783.24
545.49	41989.21
545.66	42478.38
545.83	42040.70
546.00	42316.89
546.16	42410.51
546.33	42153.05
546.50	41926.02
546.67	42139.00
546.83	41684.94
547.00	42052.41
547.17	41874.52
547.34	42183.48
547.50	42160.07
547.67	42410.51
547.84	42466.68
548.00	42312.20
548.17	43005.00
548.34	42644.56
548.51	42567.32
548.67	42597.75
548.84	42766.27
549.01	42895.00
549.18	42733.50
549.34	43091.60
549.51	43262.46
549.68	43234.38
549.84	42787.33
550.01	43063.52
550.18	42646.90
550.34	43363.11
550.51	42635.20
550.68	43112.67
550.84	43009.68
551.01	43356.08
551.18	43208.63
551.34	43592.48
551.51	43325.66
551.68	43332.68
551.84	43611.20
552.01	43096.28
552.18	43725.89
552.34	43016.71
552.51	43697.80
552.68	43335.02
552.84	43220.33
553.01	43782.06
553.18	43295.23
553.34	43894.41
553.51	43517.58
553.67	43941.22
553.84	43749.29
554.01	43885.04
554.17	43592.48
554.34	43604.18
554.51	44011.43
554.67	44409.32
554.84	44231.44
555.00	44044.20
555.17	43849.94
555.33	43819.51
555.50	44339.11
555.67	44275.91
555.83	44428.05
556.00	44769.77
556.16	44666.78
556.33	44566.14
556.50	44456.14
556.66	44369.54
556.83	44252.51
556.99	45113.83
557.16	44587.21
557.32	44996.80
557.49	45092.76
557.65	44322.72
557.82	44371.88
557.98	44884.45
558.15	44854.03
558.32	44919.56
558.48	44355.49
558.65	44734.66
558.81	45048.29
558.98	44762.75
559.14	44495.92
559.31	44802.53
559.47	44811.90
559.64	44680.83
559.80	45001.48
559.97	44807.22
560.13	44870.41
560.30	44720.62
560.46	45406.39
560.63	45326.81
560.79	45172.34
560.96	45280.00
561.12	45022.54
561.29	44910.20
561.45	45230.85
561.61	45085.74
561.78	45373.63
561.94	45329.16
562.11	45209.79
562.27	45497.67
562.44	45600.66
562.60	45375.97
562.77	45343.20
562.93	45390.01
563.10	45558.53
563.26	45427.46
563.42	45909.61
563.59	45485.97
563.75	45659.17
563.92	45584.27
564.08	45614.70
564.24	45429.80
564.41	45382.99
564.57	45191.06
564.74	45336.18
564.90	45815.99
565.07	45708.32
565.23	45418.10
565.39	45846.41
565.56	45635.77
565.72	45724.71
565.88	45661.51
566.05	45640.45
566.21	45556.19
566.38	45780.88
566.54	45364.26
566.70	45846.41
566.87	46307.50
567.03	45869.82
567.19	46094.51
567.36	45757.47
567.52	45790.24
567.68	46117.92
567.85	46115.58
568.01	45776.20
568.17	45474.27
568.34	45876.84
568.50	45937.69
568.66	45684.92
568.83	45928.33
568.99	46115.58
569.15	45696.62
569.32	45834.71
569.48	45581.93
569.64	46560.28
569.81	46436.23
569.97	46213.88
570.13	46024.29
570.30	45914.29
570.46	46258.35
570.62	46251.33
570.78	46323.88
570.95	46564.96
571.11	46380.06
571.27	46143.66
571.43	46120.26
571.60	46110.89
571.76	45930.67
571.92	45984.51
572.09	45989.19
572.25	46419.84
572.41	46117.92
572.57	46897.31
572.74	46490.06
572.90	46560.28
573.06	45844.07
573.22	45986.85
573.38	46567.30
573.55	46197.49
573.71	46836.46
573.87	46443.25
574.03	46028.98
574.20	46499.42
574.36	46799.01
574.52	46433.89
574.68	46834.12
574.84	46770.93
575.01	46703.05
575.17	46761.56
575.33	46593.04
575.49	46593.04
575.65	46604.75
575.82	46174.09
575.98	46155.36
576.14	47051.79
576.30	46827.10
576.46	46461.97
576.62	46656.24
576.79	46660.92
576.95	46256.01
577.11	46298.14
577.27	46787.31
577.43	46579.00
577.59	46260.69
577.75	46616.45
577.92	46298.14
578.08	45986.85
578.24	46862.21
578.40	46492.40
578.56	46366.01
578.72	46845.82
578.88	47117.32
579.04	46656.24
579.21	46600.07
579.37	46845.82
579.53	46696.03
579.69	46396.44
579.85	46550.91
580.01	47124.35
580.17	46382.40
580.33	46796.67
580.49	46672.62
580.65	46927.74
580.82	46745.18
580.98	46527.51
581.14	46609.43
581.30	46857.52
581.46	46396.44
581.62	46560.28
581.78	46349.63
581.94	46864.55
582.10	46700.71
582.26	46590.70
582.42	46808.37
582.58	46693.69
582.74	46787.31
582.90	46670.28
583.06	47058.81
583.22	46557.94
583.38	46838.80
583.54	47082.22
583.70	46642.20
583.86	46747.52
584.02	46899.65
584.18	47126.69
584.34	47021.36
584.50	47016.68
584.66	46995.62
584.82	46937.10
584.98	47433.30
585.14	46834.12
585.30	46848.16
585.46	46508.79
585.62	46841.14
585.78	47334.99
585.94	47026.04
586.10	46873.91
586.26	46492.40
586.42	46679.64
586.58	46918.38
586.74	46651.56
586.90	47103.28
587.06	46916.04
587.22	47098.60
587.38	46752.20
587.54	47033.07
587.70	47208.61
587.86	46857.52
588.02	46958.17
588.18	46965.19
588.34	47136.05
588.49	46775.61
588.65	46916.04
588.81	46941.78
588.97	47049.45
589.13	46728.80
589.29	46916.04
589.45	47241.37
589.61	47529.26
589.77	46904.34
589.93	46953.49
590.08	46944.12
