SpectraSuite Data File
++++++++++++++++++++++++++++++++++++
Date: Fri Oct 25 10:48:30 EDT 2013
User: price-jones
Dark Spectrum Present: No
Reference Spectrum Present: No
Number of Sampled Component Spectra: 1
Spectrometers: USB2+H05261
Integration Time (usec): 100000 (USB2+H05261)
Spectra Averaged: 1 (USB2+H05261)
Boxcar Smoothing: 0 (USB2+H05261)
Correct for Electrical Dark: No (USB2+H05261)
Strobe/Lamp Enabled: No (USB2+H05261)
Correct for Detector Non-linearity: No (USB2+H05261)
Correct for Stray Light: No (USB2+H05261)
Number of Pixels in Processed Spectrum: 2048
>>>>>Begin Processed Spectral Data<<<<<
365.73	126.39
365.92	126.39
366.12	126.39
366.32	72.56
366.52	49.15
366.72	63.19
366.91	30.43
367.11	70.22
367.31	0.00
367.51	35.11
367.70	0.00
367.90	9.36
368.10	9.36
368.30	21.06
368.49	56.17
368.69	98.30
368.89	138.09
369.09	95.96
369.28	46.81
369.48	98.30
369.68	117.03
369.87	124.05
370.07	86.60
370.27	184.90
370.47	252.78
370.66	442.36
370.86	503.22
371.06	451.72
371.25	428.32
371.45	475.13
371.65	503.22
371.84	479.81
372.04	498.53
372.24	444.70
372.44	512.58
372.63	575.77
372.83	540.66
373.03	564.07
373.22	496.19
373.42	575.77
373.62	512.58
373.81	580.45
374.01	627.26
374.21	566.41
374.40	517.26
374.60	571.09
374.79	603.86
374.99	634.29
375.19	622.58
375.38	552.37
375.58	629.60
375.78	624.92
375.97	648.33
376.17	697.48
376.37	622.58
376.56	664.71
376.76	706.84
376.95	573.43
377.15	713.86
377.35	627.26
377.54	720.88
377.74	695.14
377.93	641.31
378.13	704.50
378.33	631.94
378.52	650.67
378.72	692.80
378.91	683.44
379.11	697.48
379.31	634.29
379.50	631.94
379.70	702.16
379.89	800.46
380.09	622.58
380.28	622.58
380.48	657.69
380.68	678.76
380.87	685.78
381.07	692.80
381.26	774.72
381.46	720.88
381.65	741.95
381.85	786.42
382.04	795.78
382.24	751.31
382.43	655.35
382.63	755.99
382.83	767.70
383.02	786.42
383.22	755.99
383.41	793.44
383.61	784.08
383.80	830.89
384.00	823.87
384.19	802.80
384.39	793.44
384.58	875.36
384.78	868.34
384.97	842.59
385.17	816.85
385.36	915.15
385.56	858.98
385.75	786.42
385.95	891.74
386.14	793.44
386.34	812.17
386.53	898.77
386.72	924.51
386.92	945.58
387.11	924.51
387.31	894.08
387.50	901.11
387.70	828.55
387.89	903.45
388.09	889.40
388.28	938.55
388.48	1008.77
388.67	917.49
388.86	964.30
389.06	1032.18
389.25	954.94
389.45	961.96
389.64	1027.50
389.84	1034.52
390.03	957.28
390.22	978.34
390.42	915.15
390.61	1027.50
390.81	961.96
391.00	1081.33
391.19	1069.62
391.39	1027.50
391.58	1076.65
391.78	1212.40
391.97	1114.10
392.16	1008.77
392.36	1097.71
392.55	1116.44
392.75	1034.52
392.94	938.55
393.13	952.60
393.33	1050.90
393.52	1093.03
393.71	1219.42
393.91	1146.86
394.10	1191.33
394.29	1191.33
394.49	1123.46
394.68	1198.35
394.88	1299.00
395.07	1320.06
395.26	1273.25
395.46	1270.91
395.65	1252.19
395.84	1214.74
396.04	1334.11
396.23	1263.89
396.42	1181.97
396.62	1207.72
396.81	1221.76
397.00	1327.08
397.19	1352.83
397.39	1282.61
397.58	1460.49
397.77	1343.47
397.97	1399.64
398.16	1514.33
398.35	1413.68
398.55	1504.96
398.74	1493.26
398.93	1565.82
399.12	1441.77
399.32	1526.03
399.51	1659.44
399.70	1593.90
399.90	1605.61
400.09	1544.75
400.28	1682.85
400.47	1593.90
400.67	1720.29
400.86	1750.72
401.05	1654.76
401.24	1650.08
401.44	1785.83
401.63	1703.91
401.82	1799.87
402.01	1626.67
402.21	1839.66
402.40	1811.57
402.59	1760.08
402.78	1783.49
402.97	1750.72
403.17	1757.74
403.36	1940.30
403.55	1827.96
403.74	1886.47
403.93	1797.53
404.13	1872.43
404.32	1832.64
404.51	1921.58
404.70	1863.07
404.89	1874.77
405.09	2005.84
405.28	2073.71
405.47	2057.33
405.66	1994.14
405.85	2125.21
406.05	1977.75
406.24	2054.99
406.43	2024.56
406.62	2122.87
406.81	2195.42
407.00	2059.67
407.20	2092.44
407.39	2064.35
407.58	2162.66
407.77	2136.91
407.96	2253.94
408.15	2253.94
408.34	2256.28
408.54	2317.13
408.73	2214.15
408.92	2328.83
409.11	2317.13
409.30	2214.15
409.49	2260.96
409.68	2363.94
409.87	2272.66
410.07	2312.45
410.26	2464.58
410.45	2466.92
410.64	2331.17
410.83	2471.61
411.02	2567.57
411.21	2623.74
411.40	2686.94
411.59	2619.06
411.78	2651.83
411.98	2626.08
412.17	2794.60
412.36	2782.90
412.55	2724.38
412.74	2796.94
412.93	2754.81
413.12	2665.87
413.31	2909.29
413.50	2897.58
413.69	2813.32
413.88	2923.33
414.07	2937.37
414.26	3019.29
414.45	3012.27
414.64	3042.70
414.83	2981.84
415.02	3007.59
415.22	3197.17
415.41	3164.40
415.60	3124.62
415.79	3290.79
415.98	3262.71
416.17	3276.75
416.36	3323.56
416.55	3258.03
416.74	3265.05
416.93	3295.47
417.12	3344.63
417.31	3349.31
417.50	3421.86
417.69	3494.42
417.88	3389.10
418.07	3424.20
418.26	3428.88
418.45	3562.30
418.64	3634.85
418.83	3686.34
419.02	3578.68
419.21	3543.57
419.39	3707.41
419.58	3625.49
419.77	3613.79
419.96	3655.92
420.15	3882.95
420.34	3662.94
420.53	3824.44
420.72	3894.65
420.91	3796.35
421.10	3850.18
421.29	3985.93
421.48	3829.12
421.67	3833.80
421.86	3915.72
422.05	3847.84
422.24	3920.40
422.43	3847.84
422.61	3892.31
422.80	4088.92
422.99	3861.88
423.18	3826.78
423.37	3913.38
423.56	3941.46
423.75	3969.55
423.94	3896.99
424.13	3927.42
424.32	3730.81
424.50	3997.64
424.69	4112.32
424.88	4032.74
425.07	4042.11
425.26	3981.25
425.45	3859.54
425.64	3939.12
425.83	4028.06
426.01	4107.64
426.20	4032.74
426.39	4147.43
426.58	4021.04
426.77	3913.38
426.96	4032.74
427.15	4067.85
427.33	4147.43
427.52	4173.18
427.71	4145.09
427.90	4112.32
428.09	4337.01
428.28	4320.63
428.46	4173.18
428.65	4180.20
428.84	4372.12
429.03	4180.20
429.22	4259.78
429.40	4184.88
429.59	4081.89
429.78	3992.95
429.97	3985.93
430.16	4070.19
430.34	4084.23
430.53	4234.03
430.72	4245.73
430.91	4212.96
431.10	4381.48
431.28	4650.64
431.47	4697.46
431.66	4704.48
431.85	4641.28
432.03	4652.98
432.22	4784.06
432.41	4720.86
432.60	4692.77
432.79	4690.43
432.97	4762.99
433.16	4692.77
433.35	4702.14
433.54	4709.16
433.72	4716.18
433.91	4779.37
434.10	4816.82
434.28	4917.47
434.47	4908.10
434.66	5060.24
434.85	5011.09
435.03	5139.82
435.22	5011.09
435.41	5221.74
435.59	5135.14
435.78	5135.14
435.97	5210.03
436.16	5233.44
436.34	5277.91
436.53	5233.44
436.72	5121.09
436.90	5107.05
437.09	5270.89
437.28	5212.37
437.46	5174.92
437.65	5270.89
437.84	5268.55
438.02	5254.50
438.21	5329.40
438.40	5210.03
438.58	5364.51
438.77	5490.90
438.96	5432.38
439.14	5717.93
439.33	5551.75
439.52	5533.03
439.70	5657.07
439.89	5790.49
440.08	5825.59
440.26	5715.59
440.45	5671.12
440.63	6001.13
440.82	5975.39
441.01	5853.68
441.19	6022.20
441.38	6162.63
441.57	6317.11
441.75	6052.63
441.94	6359.24
442.12	6202.42
442.31	6422.43
442.50	6347.53
442.68	6207.10
442.87	6324.13
443.05	6312.42
443.24	6457.54
443.43	6499.67
443.61	6387.32
443.80	6689.25
443.98	6310.08
444.17	6314.77
444.35	6511.37
444.54	6628.40
444.73	6595.63
444.91	6579.25
445.10	6644.78
445.28	6422.43
445.47	6361.58
445.65	6462.22
445.84	6525.41
446.02	6476.26
446.21	6633.08
446.39	6609.67
446.58	6836.70
446.77	6700.95
446.95	6583.93
447.14	6686.91
447.32	6698.61
447.51	6511.37
447.69	6686.91
447.88	6759.47
448.06	6778.19
448.25	6820.32
448.43	6815.64
448.62	6661.16
448.80	6834.36
448.99	6970.12
449.17	6946.71
449.36	6906.92
449.54	7096.50
449.73	7112.89
449.91	7206.51
450.10	7180.76
450.28	7311.83
450.46	7410.14
450.65	7393.75
450.83	7468.65
451.02	7225.23
451.20	7250.98
451.39	7281.41
451.57	7288.43
451.76	7260.34
451.94	7201.83
452.13	7426.52
452.31	7316.51
452.49	7220.55
452.68	7419.50
452.86	7213.53
453.05	7417.16
453.23	7438.22
453.42	7454.61
453.60	7391.41
453.78	7534.18
453.97	7311.83
454.15	7468.65
454.34	7302.47
454.52	7531.84
454.70	7550.57
454.89	7707.38
455.07	7676.96
455.26	7559.93
455.44	7779.94
455.62	7754.19
455.81	7955.48
455.99	7829.09
456.17	7969.52
456.36	8004.63
456.54	8037.40
456.73	8039.74
456.91	8074.85
457.09	8147.40
457.28	8409.54
457.46	8044.42
457.64	8315.92
457.83	8170.81
458.01	7875.90
458.19	8231.66
458.38	8088.89
458.56	8245.71
458.74	8423.59
458.93	8262.09
459.11	8355.71
459.29	8451.67
459.48	8442.31
459.66	8299.54
459.84	8472.74
460.03	8442.31
460.21	8390.82
460.39	8568.70
460.57	8645.94
460.76	8631.90
460.94	8901.06
461.12	8805.10
461.31	8751.26
461.49	8699.77
461.67	8697.43
461.85	8945.53
462.04	8741.90
462.22	9439.38
462.40	8882.33
462.59	8833.18
462.77	9015.74
462.95	9107.02
463.13	8894.04
463.32	9069.58
463.50	8887.01
463.68	8990.00
463.86	9139.79
464.05	8896.38
464.23	8943.19
464.41	9191.28
464.59	8936.17
464.78	9214.69
464.96	9165.54
465.14	9050.85
465.32	9329.38
465.50	9362.14
465.69	9423.00
465.87	9490.87
466.05	9511.94
466.23	9427.68
466.41	9472.15
466.60	9542.36
466.78	9362.14
466.96	9488.53
467.14	9415.98
467.32	9446.40
467.51	9682.80
467.69	9228.73
467.87	9394.91
468.05	9523.64
468.23	9420.66
468.41	9554.07
468.60	9593.86
468.78	9619.60
468.96	9469.81
469.14	9724.93
469.32	9898.13
469.50	9453.42
469.69	9584.49
469.87	10064.30
470.05	9891.10
470.23	9774.08
470.41	9689.82
470.59	10251.55
470.77	10001.11
470.95	9961.32
471.14	10307.72
471.32	9987.07
471.50	10516.03
471.68	10354.53
471.86	10349.85
472.04	10471.56
472.22	10843.70
472.40	10237.50
472.58	10450.49
472.77	10410.70
472.95	10801.57
473.13	10815.62
473.31	10548.79
473.49	10787.53
473.67	10726.68
473.85	10686.89
474.03	11115.20
474.21	11026.26
474.39	11059.03
474.57	11227.55
474.75	11194.78
474.93	11417.13
475.12	11021.58
475.30	11335.21
475.48	11339.90
475.66	11440.54
475.84	11304.79
476.02	11864.18
476.20	11576.29
476.38	11981.20
476.56	12074.82
476.74	11770.55
476.92	11864.18
477.10	11955.46
477.28	12138.02
477.46	12449.31
477.64	12212.92
477.82	12493.78
478.00	12554.63
478.18	12622.51
478.36	12524.21
478.54	12791.03
478.72	12973.59
478.90	12999.34
479.08	12947.84
479.26	13305.95
479.44	13373.82
479.62	13366.80
479.80	13338.71
479.98	13469.78
480.16	13855.97
480.34	13551.70
480.52	13895.76
480.70	13977.68
480.88	13848.95
481.06	14031.51
481.24	13947.25
481.41	14604.94
481.59	14785.16
481.77	14567.49
481.95	14370.89
482.13	14869.42
482.31	14967.73
482.49	15075.39
482.67	14949.00
482.85	15276.68
483.03	15274.34
483.21	15286.04
483.39	15669.89
483.57	15480.30
483.74	15824.36
483.92	15648.82
484.10	15875.85
484.28	16006.92
484.46	16283.11
484.64	16505.46
484.82	16130.97
485.00	16533.54
485.18	16617.80
485.35	16875.26
485.53	16325.24
485.71	16105.23
485.89	16999.31
486.07	16559.29
486.25	16868.24
486.43	16936.12
486.61	17104.64
486.78	17202.94
486.96	17451.03
487.14	17923.82
487.32	18047.87
487.50	17914.46
487.68	18361.50
487.85	18885.78
488.03	18747.69
488.21	18693.86
488.39	18855.36
488.57	18595.56
488.75	18867.06
488.92	19337.51
489.10	19372.61
489.28	19700.29
489.46	19913.28
489.64	19749.44
489.81	20416.49
489.99	20156.69
490.17	20112.22
490.35	20793.32
490.53	20229.25
490.70	20606.08
490.88	20627.14
491.06	21240.36
491.24	21228.66
491.41	20971.20
491.59	21170.15
491.77	20945.45
491.95	21427.60
492.13	21596.12
492.30	21745.92
492.48	22080.61
492.66	21961.25
492.84	22216.36
493.01	22319.35
493.19	22199.98
493.37	22654.05
493.54	23058.96
493.72	22714.90
493.90	22775.75
494.08	22995.76
494.25	23365.57
494.43	23400.68
494.61	23634.73
494.79	23812.61
494.96	23630.05
495.14	23517.70
495.32	23819.63
495.49	24093.47
495.67	24561.58
495.85	24226.89
496.02	24765.21
496.20	24713.72
496.38	24922.02
496.55	24835.42
496.73	25376.09
496.91	24823.72
497.09	25113.95
497.26	25333.96
497.44	25532.90
497.62	25427.58
497.79	25802.07
497.97	25343.32
498.14	25837.17
498.32	26066.55
498.50	26176.55
498.67	26286.56
498.85	26415.29
499.03	26480.82
499.20	26434.01
499.38	26878.71
499.56	26771.05
499.73	26892.76
499.91	26747.64
500.08	26728.92
500.26	26754.66
500.44	27421.72
500.61	27243.84
500.79	27152.55
500.97	27164.26
501.14	27786.84
501.32	27489.59
501.49	27475.55
501.67	27559.81
501.84	27683.86
502.02	28130.90
502.20	28128.56
502.37	27999.83
502.55	27819.61
502.72	28154.30
502.90	28367.29
503.07	28329.84
503.25	28416.44
503.43	28603.69
503.60	28456.23
503.78	28659.86
503.95	28517.09
504.13	28907.96
504.30	29008.60
504.48	28655.18
504.65	29546.92
504.83	29507.13
505.01	29432.24
505.18	29605.44
505.36	29364.36
505.53	30099.29
505.71	30160.14
505.88	30132.06
506.06	29916.73
506.23	29797.36
506.41	29958.86
506.58	30148.44
506.76	30295.89
506.93	30590.80
507.11	30686.76
507.28	30588.46
507.46	29970.56
507.63	30845.92
507.81	30700.81
507.98	30810.81
508.16	31009.76
508.33	31072.95
508.50	31278.92
508.68	31573.83
508.85	31648.72
509.03	31271.90
509.20	31688.51
509.38	31234.45
509.55	31672.13
509.73	31571.49
509.90	31480.21
510.08	31646.38
510.25	32020.87
510.42	32030.23
510.60	32395.35
510.77	32444.51
510.95	32343.86
511.12	32170.66
511.30	32346.20
511.47	32889.21
511.64	32907.93
511.82	32678.56
511.99	32933.68
512.17	32734.73
512.34	32816.65
512.51	32851.76
512.69	33097.52
512.86	33518.81
513.04	33638.18
513.21	33289.44
513.38	32968.79
513.56	33081.13
513.73	33474.34
513.90	33170.07
514.08	33369.02
514.25	33752.87
514.43	33729.46
514.60	33795.00
514.77	33752.87
514.95	33975.22
515.12	33989.26
515.29	34146.08
515.47	34281.83
515.64	34377.79
515.81	34223.31
515.99	34120.33
516.16	34190.55
516.33	33937.77
516.51	34478.43
516.68	33696.69
516.85	34188.21
517.03	34146.08
517.20	34345.02
517.37	34335.66
517.54	34555.67
517.72	34576.73
517.89	34483.11
518.06	34597.80
518.24	34581.42
518.41	34480.77
518.58	34927.81
518.75	35072.93
518.93	35105.70
519.10	35269.53
519.27	35489.54
519.45	35323.36
519.62	35786.79
519.79	35957.65
519.96	35892.12
520.14	35861.69
520.31	35791.47
520.48	36208.09
520.65	35938.93
520.83	36114.47
521.00	36245.54
521.17	36273.62
521.34	36369.58
521.52	36673.85
521.69	36758.11
521.86	36589.59
522.03	36816.63
522.20	36664.49
522.38	37064.72
522.55	36725.35
522.72	36947.70
522.89	36931.31
523.07	37539.85
523.24	36800.24
523.41	37666.24
523.58	37277.71
523.75	37764.54
523.92	37591.34
524.10	37373.67
524.27	37469.64
524.44	38115.62
524.61	37755.18
524.78	37961.15
524.96	38040.73
525.13	38361.38
525.30	38124.99
525.47	38424.57
525.64	38003.28
525.81	38511.17
525.98	38143.71
526.16	37986.89
526.33	38059.45
526.50	38377.76
526.67	37600.71
526.84	37837.10
527.01	37989.24
527.18	38417.55
527.36	38906.73
527.53	38714.80
527.70	39014.39
527.87	38913.75
528.04	38808.42
528.21	39189.93
528.38	38848.21
528.55	39321.00
528.72	39463.77
528.89	39276.53
529.07	39611.23
529.24	39405.26
529.41	39632.29
529.58	39311.64
529.75	39395.90
529.92	39473.13
530.09	39592.50
530.26	39522.29
530.43	40041.88
530.60	39826.56
530.77	39707.19
530.94	39885.07
531.11	39938.90
531.28	39679.10
531.46	39997.41
531.63	39489.52
531.80	39988.05
531.97	40512.33
532.14	39803.15
532.31	39351.43
532.48	40465.52
532.65	40500.63
532.82	40456.16
532.99	40605.95
533.16	40116.78
533.33	40779.15
533.50	40458.50
533.67	40458.50
533.84	40250.19
534.01	40671.49
534.18	40669.15
534.35	40587.23
534.52	40573.19
534.69	40676.17
534.86	41041.29
535.03	40577.87
535.20	41537.49
535.37	41488.34
535.54	41076.40
535.71	41654.51
535.88	41193.43
536.05	41151.30
536.22	41298.75
536.38	41366.63
536.55	41481.31
536.72	41003.85
536.89	41095.13
537.06	41303.43
537.23	41598.34
537.40	41574.94
537.57	41673.24
537.74	41460.25
537.91	41942.40
538.08	41982.19
538.25	41441.53
538.42	41706.01
538.59	42014.96
538.75	42209.22
538.92	42021.98
539.09	41968.15
539.26	42330.93
539.43	41706.01
539.60	42347.31
539.77	41926.02
539.94	42176.45
540.11	42260.71
540.28	42106.24
540.44	41956.44
540.61	41879.21
540.78	41869.84
540.95	41670.90
541.12	41965.81
541.29	41951.76
541.46	42396.46
541.62	42087.51
541.79	42656.26
541.96	42398.80
542.13	42263.05
542.30	42459.66
542.47	42438.59
542.63	42792.01
542.80	42710.10
542.97	43187.56
543.14	43353.74
543.31	43817.17
543.48	43105.65
543.64	43995.05
543.81	43653.33
543.98	43281.19
544.15	43346.72
544.32	43819.51
544.48	43641.63
544.65	43433.32
544.82	43803.13
544.99	43667.37
545.16	43484.81
545.32	43742.27
545.49	43388.85
545.66	43618.22
545.83	44009.09
546.00	43812.49
546.16	43835.89
546.33	43655.67
546.50	43414.60
546.67	43906.11
546.83	43512.90
547.00	43973.98
547.17	43475.45
547.34	43590.14
547.50	43920.15
547.67	44186.97
547.84	43983.35
548.00	44526.35
548.17	44498.26
548.34	44308.68
548.51	44715.93
548.67	44622.31
548.84	44694.87
549.01	44418.69
549.18	44453.79
549.34	44161.23
549.51	44722.96
549.68	44460.82
549.84	44638.70
550.01	44797.85
550.18	44444.43
550.34	44467.84
550.51	44442.09
550.68	44467.84
550.84	44729.98
551.01	44772.11
551.18	44547.42
551.34	44751.04
551.51	45158.30
551.68	44900.84
551.84	45123.19
552.01	44788.49
552.18	44928.92
552.34	44381.24
552.51	44683.17
552.68	45193.40
552.84	45057.65
553.01	45525.76
553.18	44875.09
553.34	45118.51
553.51	45432.14
553.67	45237.87
553.84	45570.23
554.01	45565.55
554.17	45579.59
554.34	45521.08
554.51	45230.85
554.67	45251.92
554.84	45170.00
555.00	45432.14
555.17	45350.22
555.33	45734.07
555.50	45467.25
555.67	45385.33
555.83	45425.12
556.00	45380.65
556.16	45717.68
556.33	45603.00
556.50	45621.72
556.66	45626.40
556.83	45247.24
556.99	46239.62
557.16	45492.99
557.32	45811.31
557.49	46078.13
557.65	45146.59
557.82	45827.69
557.98	45813.65
558.15	45450.86
558.32	45656.83
558.48	45888.54
558.65	45769.18
558.81	45638.11
558.98	45820.67
559.14	45677.90
559.31	45865.14
559.47	46164.73
559.64	46064.08
559.80	46108.55
559.97	45808.96
560.13	45977.48
560.30	46043.02
560.46	46000.89
560.63	45982.16
560.79	46138.98
560.96	46026.63
561.12	46185.79
561.29	45933.01
561.45	45895.56
561.61	46209.20
561.78	46181.11
561.94	45865.14
562.11	46174.09
562.27	46328.56
562.44	46209.20
562.60	46490.06
562.77	46490.06
562.93	46361.33
563.10	46417.50
563.26	46300.48
563.42	46724.11
563.59	46321.54
563.75	46401.12
563.92	46438.57
564.08	46710.07
564.24	46731.14
564.41	46543.89
564.57	46326.22
564.74	46410.48
564.90	46447.93
565.07	46312.18
565.23	46253.67
565.39	46438.57
565.56	46579.00
565.72	46251.33
565.88	46366.01
566.05	46323.88
566.21	46487.72
566.38	45865.14
566.54	46548.57
566.70	46637.51
566.87	47014.34
567.03	46841.14
567.19	46990.94
567.36	46693.69
567.52	46272.39
567.68	46862.21
567.85	46588.36
568.01	46513.47
568.17	46211.54
568.34	46525.17
568.50	46684.33
568.66	46394.10
568.83	46632.83
568.99	46511.13
569.15	46211.54
569.32	46319.20
569.48	46220.90
569.64	46677.30
569.81	46834.12
569.97	46492.40
570.13	46464.32
570.30	46349.63
570.46	46492.40
570.62	45909.61
570.78	46534.53
570.95	45841.73
571.11	46576.66
571.27	46443.25
571.43	46419.84
571.60	47117.32
571.76	46801.35
571.92	46396.44
572.09	46403.46
572.25	46546.23
572.41	46855.18
572.57	46827.10
572.74	47171.16
572.90	46883.27
573.06	47150.09
573.22	47143.07
573.38	46696.03
573.55	46557.94
573.71	46693.69
573.87	46473.68
574.03	46579.00
574.20	47049.45
574.36	46508.79
574.52	46911.36
574.68	46986.25
574.84	46894.97
575.01	46869.23
575.17	46845.82
575.33	46351.97
575.49	46679.64
575.65	46906.68
575.82	47037.75
575.98	46848.16
576.14	47023.70
576.30	46541.55
576.46	46609.43
576.62	46375.37
576.79	46377.72
576.95	46412.82
577.11	46618.79
577.27	46522.83
577.43	46721.77
577.59	46759.22
577.75	46616.45
577.92	46508.79
578.08	46515.81
578.24	46057.06
578.40	46883.27
578.56	46775.61
578.72	47040.09
578.88	46969.87
579.04	46787.31
579.21	46724.11
579.37	46674.96
579.53	47026.04
579.69	46548.57
579.85	47271.80
580.01	47000.30
580.17	47000.30
580.33	47079.88
580.49	47154.77
580.65	47164.14
580.82	47035.41
580.98	47122.01
581.14	46831.78
581.30	47100.94
581.46	46684.33
581.62	46784.97
581.78	46916.04
581.94	47447.34
582.10	46974.55
582.26	47196.90
582.42	47468.40
582.58	46885.61
582.74	46876.25
582.90	46845.82
583.06	47096.26
583.22	47203.92
583.38	47023.70
583.54	46902.00
583.70	46848.16
583.86	46913.70
584.02	46323.88
584.18	46862.21
584.34	46939.44
584.50	46953.49
584.66	46960.51
584.82	46871.57
584.98	47292.86
585.14	46740.50
585.30	46897.31
585.46	46913.70
585.62	46239.62
585.78	46408.14
585.94	46443.25
586.10	46405.80
586.26	46686.67
586.42	46817.74
586.58	46850.50
586.74	47028.38
586.90	47168.82
587.06	47145.41
587.22	46871.57
587.38	46527.51
587.54	47234.35
587.70	47012.00
587.86	46829.44
588.02	46979.23
588.18	46962.85
588.34	46878.59
588.49	46239.62
588.65	46138.98
588.81	46134.30
588.97	46216.22
589.13	46553.26
589.29	46595.38
589.45	46487.72
589.61	46504.10
589.77	46827.10
589.93	46944.12
