SpectraSuite Data File
++++++++++++++++++++++++++++++++++++
Date: Fri Oct 25 10:43:45 EDT 2013
User: price-jones
Dark Spectrum Present: No
Reference Spectrum Present: No
Number of Sampled Component Spectra: 1
Spectrometers: USB2+H05261
Integration Time (usec): 100000 (USB2+H05261)
Spectra Averaged: 1 (USB2+H05261)
Boxcar Smoothing: 0 (USB2+H05261)
Correct for Electrical Dark: No (USB2+H05261)
Strobe/Lamp Enabled: No (USB2+H05261)
Correct for Detector Non-linearity: No (USB2+H05261)
Correct for Stray Light: No (USB2+H05261)
Number of Pixels in Processed Spectrum: 2048
>>>>>Begin Processed Spectral Data<<<<<
365.73	131.07
365.92	131.07
366.12	131.07
366.32	88.94
366.52	0.00
366.72	51.49
366.91	28.09
367.11	35.11
367.31	65.54
367.51	0.00
367.70	23.41
367.90	88.94
368.10	0.00
368.30	107.66
368.49	44.47
368.69	4.68
368.89	74.90
369.09	93.62
369.28	74.90
369.48	30.43
369.68	2.34
369.87	56.17
370.07	58.51
370.27	110.01
370.47	222.35
370.66	381.51
370.86	444.70
371.06	493.85
371.25	566.41
371.45	409.59
371.65	437.68
371.84	465.77
372.04	444.70
372.24	404.91
372.44	491.51
372.63	568.75
372.83	531.30
373.03	519.60
373.22	514.92
373.42	435.34
373.62	491.51
373.81	521.94
374.01	610.88
374.21	578.11
374.40	512.58
374.60	634.29
374.79	575.77
374.99	564.07
375.19	550.03
375.38	543.00
375.58	585.13
375.78	601.52
375.97	610.88
376.17	685.78
376.37	664.71
376.56	690.46
376.76	608.54
376.95	617.90
377.15	585.13
377.35	653.01
377.54	641.31
377.74	671.73
377.93	650.67
378.13	678.76
378.33	711.52
378.52	690.46
378.72	620.24
378.91	690.46
379.11	571.09
379.31	627.26
379.50	641.31
379.70	566.41
379.89	685.78
380.09	702.16
380.28	706.84
380.48	669.39
380.68	674.07
380.87	725.57
381.07	732.59
381.26	711.52
381.46	653.01
381.65	709.18
381.85	608.54
382.04	737.27
382.24	772.38
382.43	643.65
382.63	725.57
382.83	624.92
383.02	737.27
383.22	802.80
383.41	723.23
383.61	723.23
383.80	784.08
384.00	751.31
384.19	718.54
384.39	667.05
384.58	760.67
384.78	821.53
384.97	795.78
385.17	779.40
385.36	723.23
385.56	809.83
385.75	767.70
385.95	758.33
386.14	791.10
386.34	781.74
386.53	947.92
386.72	880.04
386.92	870.68
387.11	873.02
387.31	844.93
387.50	861.32
387.70	814.51
387.89	798.12
388.09	861.32
388.28	1006.43
388.48	849.61
388.67	826.21
388.86	917.49
389.06	924.51
389.25	887.06
389.45	997.07
389.64	908.13
389.84	947.92
390.03	983.02
390.22	959.62
390.42	1027.50
390.61	1022.81
390.81	987.71
391.00	973.66
391.19	1100.05
391.39	1093.03
391.58	1034.52
391.78	1008.77
391.97	1043.88
392.16	985.37
392.36	1121.12
392.55	983.02
392.75	1025.15
392.94	1078.99
393.13	1011.11
393.33	1015.79
393.52	1018.13
393.71	1132.82
393.91	1142.18
394.10	1107.07
394.29	1128.14
394.49	1111.75
394.68	1219.42
394.88	1165.59
395.07	1163.25
395.26	1224.10
395.46	1172.61
395.65	1181.97
395.84	1226.44
396.04	1266.23
396.23	1153.88
396.42	1114.10
396.62	1139.84
396.81	1160.91
397.00	1231.12
397.19	1245.16
397.39	1324.74
397.58	1350.49
397.77	1315.38
397.97	1315.38
398.16	1401.98
398.35	1476.88
398.55	1476.88
398.74	1476.88
398.93	1486.24
399.12	1423.05
399.32	1453.47
399.51	1652.42
399.70	1549.43
399.90	1568.16
400.09	1544.75
400.28	1516.67
400.47	1535.39
400.67	1647.74
400.86	1586.88
401.05	1563.48
401.24	1617.31
401.44	1708.59
401.63	1722.63
401.82	1680.50
402.01	1636.03
402.21	1699.23
402.40	1832.64
402.59	1783.49
402.78	1746.04
402.97	1750.72
403.17	1671.14
403.36	1724.97
403.55	1788.17
403.74	1813.92
403.93	1874.77
404.13	1902.86
404.32	1856.04
404.51	1774.13
404.70	1970.73
404.89	1902.86
405.09	1921.58
405.28	1926.26
405.47	1867.75
405.66	2005.84
405.85	1898.17
406.05	1902.86
406.24	1994.14
406.43	1900.52
406.62	2054.99
406.81	2118.18
407.00	2038.61
407.20	2062.01
407.39	1987.11
407.58	2193.08
407.77	2139.25
407.96	2225.85
408.15	2122.87
408.34	2090.10
408.54	2172.02
408.73	2174.36
408.92	2314.79
409.11	2258.62
409.30	2188.40
409.49	2251.60
409.68	2242.23
409.87	2186.06
410.07	2300.75
410.26	2333.51
410.45	2289.04
410.64	2438.84
410.83	2457.56
411.02	2497.35
411.21	2607.36
411.40	2480.97
411.59	2541.82
411.78	2633.10
411.98	2523.10
412.17	2663.53
412.36	2682.25
412.55	2745.45
412.74	2792.26
412.93	2768.85
413.12	2609.70
413.31	2857.79
413.50	2768.85
413.69	2839.07
413.88	2935.03
414.07	2881.20
414.26	2897.58
414.45	2911.63
414.64	2923.33
414.83	2841.41
415.02	2988.86
415.22	3038.02
415.41	2953.76
415.60	3016.95
415.79	3122.27
415.98	3103.55
416.17	3204.19
416.36	3288.45
416.55	3187.81
416.74	3243.98
416.93	3166.74
417.12	3150.36
417.31	3335.26
417.50	3290.79
417.69	3349.31
417.88	3295.47
418.07	3342.28
418.26	3454.63
418.45	3522.51
418.64	3583.36
418.83	3496.76
419.02	3382.07
419.21	3552.93
419.39	3534.21
419.58	3569.32
419.77	3527.19
419.96	3578.68
420.15	3618.47
420.34	3672.30
420.53	3744.86
420.72	3684.00
420.91	3822.09
421.10	3606.77
421.29	3843.16
421.48	3681.66
421.67	3810.39
421.86	3763.58
422.05	3627.83
422.24	3634.85
422.43	3815.07
422.61	3857.20
422.80	3894.65
422.99	3843.16
423.18	3964.87
423.37	3971.89
423.56	3934.44
423.75	3922.74
423.94	3801.03
424.13	3630.17
424.32	3735.50
424.50	3777.62
424.69	3875.93
424.88	3981.25
425.07	3985.93
425.26	3726.13
425.45	3880.61
425.64	3805.71
425.83	3899.33
426.01	3981.25
426.20	3899.33
426.39	3929.76
426.58	3801.03
426.77	3845.50
426.96	3920.40
427.15	3948.48
427.33	3922.74
427.52	4081.89
427.71	4201.26
427.90	4121.68
428.09	4161.47
428.28	4102.96
428.46	4098.28
428.65	4138.07
428.84	4173.18
429.03	4236.37
429.22	3918.06
429.40	4135.73
429.59	4086.58
429.78	3878.27
429.97	3861.88
430.16	3927.42
430.34	3950.82
430.53	4011.68
430.72	4046.79
430.91	4262.12
431.10	4198.92
431.28	4365.10
431.47	4461.06
431.66	4557.02
431.85	4594.47
432.03	4517.23
432.22	4711.50
432.41	4580.43
432.60	4755.97
432.79	4596.81
432.97	4704.48
433.16	4702.14
433.35	4599.15
433.54	4428.29
433.72	4718.52
433.91	4564.04
434.10	4781.71
434.28	4739.58
434.47	4805.12
434.66	4873.00
434.85	4901.08
435.03	4985.34
435.22	4835.55
435.41	4943.21
435.59	4842.57
435.78	4980.66
435.97	5102.37
436.16	5057.90
436.34	5034.49
436.53	5025.13
436.72	5207.69
436.90	4931.51
437.09	5240.46
437.28	5046.20
437.46	5198.33
437.65	5032.15
437.84	5132.79
438.02	5102.37
438.21	5242.80
438.40	4964.28
438.58	5032.15
438.77	5294.29
438.96	5350.46
439.14	5467.49
439.33	5657.07
439.52	5551.75
439.70	5469.83
439.89	5659.42
440.08	5647.71
440.26	5617.29
440.45	5731.97
440.63	5830.27
440.82	5872.40
441.01	5905.17
441.19	5968.37
441.38	6017.52
441.57	6029.22
441.75	6040.92
441.94	6132.20
442.12	6094.76
442.31	6167.31
442.50	6324.13
442.68	6216.46
442.87	6122.84
443.05	6296.04
443.24	6384.98
443.43	6361.58
443.61	6244.55
443.80	6619.04
443.98	6356.90
444.17	6094.76
444.35	6284.34
444.54	6464.56
444.73	6520.73
444.91	6441.15
445.10	6438.81
445.28	6497.33
445.47	6314.77
445.65	6347.53
445.84	6408.39
446.02	6443.49
446.21	6509.03
446.39	6328.81
446.58	6537.12
446.77	6539.46
446.95	6516.05
447.14	6485.62
447.32	6588.61
447.51	6539.46
447.69	6518.39
447.88	6703.29
448.06	6506.69
448.25	6452.86
448.43	6642.44
448.62	6642.44
448.80	6483.28
448.99	6665.85
449.17	6747.76
449.36	6616.69
449.54	6815.64
449.73	6862.45
449.91	7143.32
450.10	7077.78
450.28	7112.89
450.46	7136.29
450.65	7133.95
450.83	7162.04
451.02	6888.20
451.20	7122.25
451.39	7075.44
451.57	6970.12
451.76	6991.18
451.94	6913.94
452.13	7194.81
452.31	7028.63
452.49	6951.39
452.68	7030.97
452.86	7087.14
453.05	7302.47
453.23	7152.68
453.42	7208.85
453.60	7145.66
453.78	7318.86
453.97	7323.54
454.15	7454.61
454.34	7316.51
454.52	7393.75
454.70	7267.36
454.89	7520.14
455.07	7442.90
455.26	7424.18
455.44	7550.57
455.62	7644.19
455.81	7468.65
455.99	7618.44
456.17	7634.83
456.36	7782.28
456.54	7707.38
456.73	7597.38
456.91	8023.36
457.09	8049.10
457.28	8222.30
457.46	7906.33
457.64	7992.93
457.83	7941.44
458.01	7911.01
458.19	8198.90
458.38	8131.02
458.56	8198.90
458.74	8067.83
458.93	8280.82
459.11	8238.69
459.29	8044.42
459.48	8535.93
459.66	8091.23
459.84	8283.16
460.03	8353.37
460.21	8271.45
460.39	8418.91
460.57	8517.21
460.76	8486.78
460.94	8416.57
461.12	8381.46
461.31	8671.68
461.49	8507.85
461.67	8620.19
461.85	8741.90
462.04	8528.91
462.22	9345.76
462.40	8613.17
462.59	8671.68
462.77	8512.53
462.95	8816.80
463.13	8685.73
463.32	8795.73
463.50	8940.85
463.68	8891.70
463.86	8966.59
464.05	8732.54
464.23	8676.37
464.41	8938.51
464.59	8774.67
464.78	8889.35
464.96	8887.01
465.14	8814.46
465.32	9153.84
465.50	9095.32
465.69	9214.69
465.87	9062.55
466.05	8898.72
466.23	9083.62
466.41	9062.55
466.60	9357.46
466.78	9018.08
466.96	9111.71
467.14	9100.00
467.32	9034.47
467.51	9245.12
467.69	8879.99
467.87	9312.99
468.05	9437.04
468.23	9226.39
468.41	9343.42
468.60	9312.99
468.78	9320.01
468.96	9486.19
469.14	9561.09
469.32	9675.77
469.50	9217.03
469.69	9572.79
469.87	9626.62
470.05	9671.09
470.23	9738.97
470.41	9776.42
470.59	9830.25
470.77	9731.95
470.95	9909.83
471.14	10050.26
471.32	9692.16
471.50	9958.98
471.68	9919.19
471.86	10326.44
472.04	10274.95
472.22	10373.25
472.40	10036.22
472.58	10111.11
472.77	10359.21
472.95	10532.41
473.13	10778.17
473.31	10284.31
473.49	10520.71
473.67	10654.12
473.85	10700.93
474.03	10810.93
474.21	10691.57
474.39	10881.15
474.57	10789.87
474.75	10843.70
474.93	11169.04
475.12	11016.90
475.30	10946.69
475.48	11162.01
475.66	11061.37
475.84	11206.48
476.02	11281.38
476.20	11176.06
476.38	11384.37
476.56	11501.39
476.74	11737.79
476.92	11595.01
477.10	11740.13
477.28	11777.58
477.46	11875.88
477.64	12004.61
477.82	12222.28
478.00	12241.00
478.18	12507.82
478.36	12503.14
478.54	12589.74
478.72	12461.01
478.90	12629.53
479.08	12938.48
479.26	12980.61
479.44	13008.70
479.62	12943.16
479.80	13235.73
479.98	13121.04
480.16	13245.09
480.34	13329.35
480.52	13570.43
480.70	13507.23
480.88	13362.12
481.06	13614.90
481.24	13692.13
481.41	14085.34
481.59	14377.91
481.77	14209.39
481.95	14291.31
482.13	14108.75
482.31	14295.99
482.49	14890.49
482.67	14471.53
482.85	15030.92
483.03	15054.33
483.21	15042.62
483.39	15183.06
483.57	15023.90
483.74	15283.70
483.92	15295.40
484.10	15103.48
484.28	15562.22
484.46	15999.90
484.64	16147.36
484.82	15866.49
485.00	16107.57
485.18	16084.16
485.35	16299.49
485.53	16049.05
485.71	16123.95
485.89	16016.29
486.07	16025.65
486.25	16709.08
486.43	16847.18
486.61	16669.30
486.78	17109.32
486.96	17298.90
487.14	17338.69
487.32	17610.19
487.50	17846.58
487.68	17851.27
487.85	17858.29
488.03	18305.33
488.21	18359.16
488.39	18157.88
488.57	18256.18
488.75	18553.43
488.92	18843.65
489.10	19260.27
489.28	19353.89
489.46	19147.92
489.64	19171.33
489.81	19807.95
489.99	19913.28
490.17	19885.19
490.35	20357.98
490.53	20039.67
490.70	20322.87
490.88	20198.82
491.06	20458.62
491.24	20870.56
491.41	20482.03
491.59	20650.55
491.77	20535.86
491.95	20781.62
492.13	20821.41
492.30	21415.90
492.48	21420.58
492.66	21532.93
492.84	21427.60
493.01	22047.85
493.19	21591.44
493.37	21820.81
493.54	21837.20
493.72	22363.82
493.90	22230.41
494.08	22581.49
494.25	22752.35
494.43	22860.01
494.61	23157.26
494.79	23386.63
494.96	23112.79
495.14	22967.68
495.32	23349.18
495.49	23370.25
495.67	23388.97
495.85	23709.63
496.02	24128.58
496.20	24112.20
496.38	24128.58
496.55	23861.76
496.73	24517.11
496.91	24528.81
497.09	24767.55
497.26	24746.48
497.44	24924.36
497.62	24795.64
497.79	24823.72
497.97	24629.46
498.14	25369.07
498.32	25249.70
498.50	25357.36
498.67	25502.48
498.85	25219.27
499.03	25942.50
499.20	25820.79
499.38	25778.66
499.56	26206.98
499.73	25874.62
499.91	25883.98
500.08	26050.16
500.26	25940.16
500.44	26024.42
500.61	26401.24
500.79	25970.58
500.97	26335.71
501.14	26747.64
501.32	26735.94
501.49	26909.14
501.67	27021.48
501.84	26986.38
502.02	27407.67
502.20	27147.87
502.37	27264.90
502.55	27541.08
502.72	27578.53
502.90	27864.08
503.07	27641.73
503.25	27803.22
503.43	27307.03
503.60	28058.34
503.78	27461.51
503.95	27611.30
504.13	28301.76
504.30	28163.67
504.48	28252.61
504.65	28781.57
504.83	29111.58
505.01	29233.29
505.18	28823.70
505.36	29106.90
505.53	29179.46
505.71	29338.62
505.88	29301.17
506.06	29200.52
506.23	29579.69
506.41	29160.73
506.58	29607.78
506.76	29427.56
506.93	29516.50
507.11	29706.08
507.28	30000.99
507.46	29605.44
507.63	29312.87
507.81	29935.45
507.98	30071.20
508.16	30078.22
508.33	29954.18
508.50	30209.29
508.68	30539.31
508.85	30658.68
509.03	30398.88
509.20	30607.19
509.38	31028.48
509.55	30850.60
509.73	31122.10
509.90	30946.56
510.08	31044.87
510.25	31023.80
510.42	31321.05
510.60	31154.87
510.77	31101.04
510.95	31875.76
511.12	31627.66
511.30	31889.80
511.47	32205.77
511.64	32224.50
511.82	31903.84
511.99	31770.43
512.17	31908.52
512.34	31770.43
512.51	32004.49
512.69	32385.99
512.86	32313.44
513.04	32465.57
513.21	32603.66
513.38	32313.44
513.56	32421.10
513.73	32130.87
513.90	33233.27
514.08	32442.17
514.25	32704.31
514.43	32767.50
514.60	32889.21
514.77	32666.86
514.95	33464.98
515.12	33146.67
515.29	33139.65
515.47	33764.57
515.64	33556.26
515.81	33553.92
515.99	33436.89
516.16	33263.69
516.33	33340.93
516.51	33179.43
516.68	33031.98
516.85	32720.69
517.03	33020.28
517.20	33523.49
517.37	33680.31
517.54	34227.99
517.72	33855.85
517.89	33582.01
518.06	33757.55
518.24	33879.25
518.41	33727.12
518.58	34450.35
518.75	34038.41
518.93	34983.99
519.10	34382.47
519.27	34740.57
519.45	34824.83
519.62	34937.18
519.79	34646.95
519.96	35014.41
520.14	35086.97
520.31	35129.10
520.48	34986.33
520.65	35168.89
520.83	35543.38
521.00	35524.65
521.17	35583.16
521.34	35374.86
521.52	36119.15
521.69	35618.27
521.86	35732.96
522.03	35938.93
522.20	35868.71
522.38	36009.14
522.55	36020.84
522.72	35768.07
522.89	35859.35
523.07	36353.20
523.24	35880.41
523.41	36638.75
523.58	36439.80
523.75	36678.54
523.92	36596.62
524.10	36662.15
524.27	36924.29
524.44	37111.53
524.61	37235.58
524.78	37074.09
524.96	37081.11
525.13	37172.39
525.30	37153.66
525.47	37134.94
525.64	37111.53
525.81	37256.65
525.98	36921.95
526.16	36999.19
526.33	36868.12
526.50	36971.10
526.67	36561.51
526.84	37148.98
527.01	37205.16
527.18	37340.91
527.36	37909.66
527.53	37998.60
527.70	38291.16
527.87	38050.09
528.04	38040.73
528.21	38110.94
528.38	37949.45
528.55	38101.58
528.72	38403.51
528.89	38536.92
529.07	38232.65
529.24	38204.56
529.41	38586.07
529.58	38061.79
529.75	38438.62
529.92	38754.59
530.09	38934.81
530.26	38845.87
530.43	39124.40
530.60	38497.13
530.77	39061.20
530.94	39255.46
531.11	38873.96
531.28	39187.59
531.46	39084.61
531.63	39084.61
531.80	39208.65
531.97	38607.14
532.14	38822.47
532.31	38576.71
532.48	39056.52
532.65	39440.37
532.82	39281.21
532.99	39157.16
533.16	39037.80
533.33	39316.32
533.50	39440.37
533.67	39658.04
533.84	39824.22
534.01	39440.37
534.18	39885.07
534.35	39737.62
534.52	39763.36
534.69	39880.39
534.86	40240.83
535.03	39878.05
535.20	40285.30
535.37	39885.07
535.54	40589.57
535.71	40350.84
535.88	40430.41
536.05	40161.25
536.22	40334.45
536.38	40512.33
536.55	40107.42
536.72	40009.12
536.89	40060.61
537.06	40121.46
537.23	41045.97
537.40	40442.12
537.57	40456.16
537.74	40774.47
537.91	41317.48
538.08	40474.88
538.25	40505.31
538.42	40629.36
538.59	41174.70
538.75	40690.21
538.92	40645.74
539.09	41291.73
539.26	41055.34
539.43	41289.39
539.60	41118.53
539.77	41099.81
539.94	41261.30
540.11	41305.77
540.28	41216.83
540.44	41076.40
540.61	41090.44
540.78	41085.76
540.95	41078.74
541.12	40926.61
541.29	41209.81
541.46	41022.57
541.62	41586.64
541.79	41457.91
541.96	41223.86
542.13	41558.55
542.30	41617.07
542.47	41626.43
542.63	41439.18
542.80	41902.61
542.97	42387.10
543.14	42082.83
543.31	42408.17
543.48	42251.35
543.64	42309.86
543.81	42359.02
543.98	42234.97
544.15	42506.47
544.32	42780.31
544.48	42452.64
544.65	42326.25
544.82	42426.89
544.99	42089.85
545.16	42433.91
545.32	42462.00
545.49	43129.05
545.66	43260.12
545.83	42801.38
546.00	42820.10
546.16	42637.54
546.33	42836.48
546.50	42323.91
546.67	43278.85
546.83	42775.63
547.00	42820.10
547.17	43023.73
547.34	42810.74
547.50	42773.29
547.67	43157.14
547.84	42747.54
548.00	43058.84
548.17	43070.54
548.34	43278.85
548.51	43435.66
548.67	43416.94
548.84	43302.25
549.01	43044.79
549.18	43449.70
549.34	43473.11
549.51	43695.46
549.68	43491.83
549.84	43566.73
550.01	43365.45
550.18	43079.90
550.34	43627.59
550.51	43398.21
550.68	43201.61
550.84	43063.52
551.01	43569.07
551.18	43278.85
551.34	43503.54
551.51	44011.43
551.68	44172.93
551.84	43906.11
552.01	43952.92
552.18	43613.54
552.34	43906.11
552.51	43732.91
552.68	43824.19
552.84	43992.71
553.01	43988.03
553.18	43693.12
553.34	43768.02
553.51	44175.27
553.67	44144.84
553.84	44280.60
554.01	44339.11
554.17	44205.70
554.34	44350.81
554.51	44559.12
554.67	44542.74
554.84	44179.95
555.00	44105.06
555.17	44238.47
555.33	44603.59
555.50	44414.01
555.67	44210.38
555.83	44399.96
556.00	44392.94
556.16	44353.15
556.33	44591.89
556.50	44655.08
556.66	44697.21
556.83	44186.97
556.99	44587.21
557.16	44711.25
557.32	44807.22
557.49	45064.67
557.65	44547.42
557.82	44851.69
557.98	44868.07
558.15	44704.23
558.32	44383.58
558.48	44655.08
558.65	44865.73
558.81	44538.05
558.98	44453.79
559.14	44587.21
559.31	44542.74
559.47	44814.24
559.64	45132.55
559.80	44804.88
559.97	44751.04
560.13	44648.06
560.30	44535.71
560.46	44910.20
560.63	45242.56
560.79	45500.01
560.96	45308.09
561.12	45099.78
561.29	45109.14
561.45	45261.28
561.61	44900.84
561.78	44994.46
561.94	45167.66
562.11	44811.90
562.27	45261.28
562.44	45155.96
562.60	45186.38
562.77	45162.98
562.93	44664.44
563.10	45385.33
563.26	44854.03
563.42	45125.53
563.59	44933.60
563.75	45301.07
563.92	45380.65
564.08	45319.79
564.24	45581.93
564.41	45120.85
564.57	45141.91
564.74	45284.68
564.90	45457.88
565.07	45523.42
565.23	45703.64
565.39	44779.13
565.56	45303.41
565.72	44818.92
565.88	45715.34
566.05	45132.55
566.21	45195.74
566.38	45525.76
566.54	45191.06
566.70	45855.78
566.87	45940.04
567.03	45460.23
567.19	45825.35
567.36	45691.94
567.52	45425.12
567.68	45633.42
567.85	45352.56
568.01	45490.65
568.17	45460.23
568.34	45565.55
568.50	45333.84
568.66	45165.32
568.83	45310.43
568.99	45081.06
569.15	45436.82
569.32	45247.24
569.48	45282.34
569.64	45256.60
569.81	45738.75
569.97	45490.65
570.13	45324.47
570.30	44889.13
570.46	45448.52
570.62	44793.17
570.78	45003.82
570.95	45020.20
571.11	45467.25
571.27	45106.80
571.43	45261.28
571.60	45610.02
571.76	45146.59
571.92	45237.87
572.09	45153.62
572.25	45443.84
572.41	45940.04
572.57	45635.77
572.74	45998.55
572.90	45460.23
573.06	45476.61
573.22	45380.65
573.38	45818.33
573.55	45041.27
573.71	45698.96
573.87	45680.24
574.03	45560.87
574.20	45757.47
574.36	45701.30
574.52	45951.74
574.68	45537.46
574.84	45612.36
575.01	45675.55
575.17	45588.95
575.33	45359.58
575.49	45635.77
575.65	45813.65
575.82	46108.55
575.98	45581.93
576.14	45921.31
576.30	45670.87
576.46	45277.66
576.62	45729.39
576.79	45443.84
576.95	45443.84
577.11	45741.09
577.27	45731.73
577.43	45682.58
577.59	45696.62
577.75	45705.98
577.92	45324.47
578.08	45378.31
578.24	45535.12
578.40	45577.25
578.56	45724.71
578.72	45404.05
578.88	46050.04
579.04	45755.13
579.21	45626.40
579.37	45626.40
579.53	45670.87
579.69	45502.35
579.85	45130.21
580.01	45736.41
580.17	45668.53
580.33	45713.00
580.49	45832.37
580.65	45687.26
580.82	45581.93
580.98	45406.39
581.14	45900.25
581.30	45778.54
581.46	45841.73
581.62	45846.41
581.78	46057.06
581.94	45797.26
582.10	45998.55
582.26	45790.24
582.42	45631.08
582.58	45752.79
582.74	45787.90
582.90	45783.22
583.06	46171.75
583.22	45918.97
583.38	45752.79
583.54	45869.82
583.70	45783.22
583.86	46017.27
584.02	45778.54
584.18	45900.25
584.34	46134.30
584.50	45705.98
584.66	45567.89
584.82	45488.31
584.98	45734.07
585.14	45808.96
585.30	45490.65
585.46	45839.39
585.62	45429.80
585.78	45771.52
585.94	45495.33
586.10	45373.63
586.26	45783.22
586.42	46183.45
586.58	46244.30
586.74	46162.39
586.90	45642.79
587.06	45832.37
587.22	46272.39
587.38	45797.26
587.54	46181.11
587.70	46529.85
587.86	45736.41
588.02	45572.57
588.18	45984.51
588.34	45673.21
588.49	45139.57
588.65	44961.69
588.81	45043.61
588.97	45705.98
589.13	45441.50
589.29	45551.51
589.45	45757.47
589.61	45603.00
589.77	46082.81
589.93	46134.30
590.08	45984.51
