SpectraSuite Data File
++++++++++++++++++++++++++++++++++++
Date: Fri Oct 25 11:33:13 EDT 2013
User: price-jones
Dark Spectrum Present: No
Reference Spectrum Present: No
Number of Sampled Component Spectra: 1
Spectrometers: USB2+H05261
Integration Time (usec): 100000 (USB2+H05261)
Spectra Averaged: 1 (USB2+H05261)
Boxcar Smoothing: 0 (USB2+H05261)
Correct for Electrical Dark: No (USB2+H05261)
Strobe/Lamp Enabled: No (USB2+H05261)
Correct for Detector Non-linearity: No (USB2+H05261)
Correct for Stray Light: No (USB2+H05261)
Number of Pixels in Processed Spectrum: 2048
>>>>>Begin Processed Spectral Data<<<<<
365.73	318.31
365.92	318.31
366.12	318.31
366.32	198.95
366.52	203.63
366.72	259.80
366.91	128.73
367.11	142.77
367.31	191.92
367.51	222.35
367.70	159.16
367.90	194.26
368.10	243.42
368.30	84.26
368.49	131.07
368.69	149.79
368.89	142.77
369.09	198.95
369.28	224.69
369.48	208.31
369.68	170.86
369.87	255.12
370.07	257.46
370.27	313.63
370.47	344.06
370.66	470.45
370.86	475.13
371.06	557.05
371.25	554.71
371.45	538.32
371.65	517.26
371.84	531.30
372.04	491.51
372.24	564.07
372.44	526.62
372.63	653.01
372.83	603.86
373.03	496.19
373.22	554.71
373.42	678.76
373.62	610.88
373.81	664.71
374.01	657.69
374.21	655.35
374.40	624.92
374.60	641.31
374.79	636.63
374.99	608.54
375.19	727.91
375.38	671.73
375.58	688.12
375.78	737.27
375.97	697.48
376.17	706.84
376.37	681.10
376.56	662.37
376.76	645.99
376.95	697.48
377.15	711.52
377.35	702.16
377.54	774.72
377.74	629.60
377.93	657.69
378.13	753.65
378.33	678.76
378.52	739.61
378.72	713.86
378.91	751.31
379.11	671.73
379.31	751.31
379.50	697.48
379.70	702.16
379.89	802.80
380.09	660.03
380.28	732.59
380.48	706.84
380.68	695.14
380.87	774.72
381.07	753.65
381.26	802.80
381.46	830.89
381.65	788.76
381.85	681.10
382.04	763.01
382.24	814.51
382.43	837.91
382.63	765.36
382.83	732.59
383.02	828.55
383.22	814.51
383.41	791.10
383.61	784.08
383.80	830.89
384.00	758.33
384.19	791.10
384.39	863.66
384.58	833.23
384.78	798.12
384.97	905.79
385.17	887.06
385.36	809.83
385.56	823.87
385.75	767.70
385.95	849.61
386.14	830.89
386.34	812.17
386.53	922.17
386.72	828.55
386.92	854.30
387.11	929.19
387.31	842.59
387.50	926.85
387.70	992.39
387.89	945.58
388.09	802.80
388.28	882.38
388.48	950.26
388.67	945.58
388.86	922.17
389.06	873.02
389.25	926.85
389.45	1015.79
389.64	1046.22
389.84	1046.22
390.03	994.73
390.22	1015.79
390.42	896.43
390.61	898.77
390.81	992.39
391.00	1043.88
391.19	1039.20
391.39	959.62
391.58	990.05
391.78	997.07
391.97	1062.60
392.16	917.49
392.36	1111.75
392.55	1029.84
392.75	1095.37
392.94	1055.58
393.13	1078.99
393.33	999.41
393.52	1123.46
393.71	1050.90
393.91	1050.90
394.10	1142.18
394.29	1170.27
394.49	1078.99
394.68	1062.60
394.88	1153.88
395.07	1156.22
395.26	1064.94
395.46	1186.65
395.65	1205.38
395.84	1174.95
396.04	1256.87
396.23	1238.14
396.42	1181.97
396.62	1263.89
396.81	1287.29
397.00	1282.61
397.19	1224.10
397.39	1231.12
397.58	1249.85
397.77	1252.19
397.97	1235.80
398.16	1256.87
398.35	1249.85
398.55	1294.32
398.74	1378.58
398.93	1345.81
399.12	1196.01
399.32	1249.85
399.51	1348.15
399.70	1348.15
399.90	1392.62
400.09	1416.02
400.28	1383.26
400.47	1373.89
400.67	1385.60
400.86	1423.05
401.05	1521.35
401.24	1411.34
401.44	1439.43
401.63	1425.39
401.82	1444.11
402.01	1371.55
402.21	1458.15
402.40	1476.88
402.59	1511.99
402.78	1486.24
402.97	1507.30
403.17	1380.92
403.36	1509.65
403.55	1551.78
403.74	1575.18
403.93	1675.82
404.13	1589.22
404.32	1727.32
404.51	1657.10
404.70	1626.67
404.89	1607.95
405.09	1678.16
405.28	1685.19
405.47	1650.08
405.66	1682.85
405.85	1783.49
406.05	1673.48
406.24	1720.29
406.43	1781.15
406.62	1802.21
406.81	1820.94
407.00	1842.00
407.20	1715.61
407.39	1858.39
407.58	1757.74
407.77	1790.51
407.96	1921.58
408.15	1790.51
408.34	1884.13
408.54	1842.00
408.73	1937.96
408.92	1914.56
409.11	1935.62
409.30	1989.46
409.49	2064.35
409.68	1921.58
409.87	1984.77
410.07	1998.82
410.26	2155.63
410.45	2052.65
410.64	2122.87
410.83	2094.78
411.02	2120.53
411.21	2176.70
411.40	2200.10
411.59	2270.32
411.78	2265.64
411.98	2237.55
412.17	2139.25
412.36	2153.29
412.55	2331.17
412.74	2422.45
412.93	2370.96
413.12	2232.87
413.31	2359.26
413.50	2518.42
413.69	2387.35
413.88	2415.43
414.07	2548.84
414.26	2544.16
414.45	2511.39
414.64	2534.80
414.83	2684.59
415.02	2525.44
415.22	2569.91
415.41	2663.53
415.60	2708.00
415.79	2668.21
415.98	2708.00
416.17	2743.11
416.36	2759.49
416.55	2743.11
416.74	2892.90
416.93	2857.79
417.12	2799.28
417.31	2857.79
417.50	2841.41
417.69	2956.10
417.88	2932.69
418.07	2944.39
418.26	2906.95
418.45	2923.33
418.64	3129.30
418.83	3103.55
419.02	3061.42
419.21	3056.74
419.39	3056.74
419.58	3098.87
419.77	3148.02
419.96	3075.46
420.15	3080.14
420.34	3162.06
420.53	3054.40
420.72	3325.90
420.91	3267.39
421.10	3391.44
421.29	3274.41
421.48	3412.50
421.67	3337.60
421.86	3248.66
422.05	3283.77
422.24	3295.47
422.43	3372.71
422.61	3510.80
422.80	3424.20
422.99	3297.81
423.18	3480.38
423.37	3506.12
423.56	3485.06
423.75	3421.86
423.94	3398.46
424.13	3164.40
424.32	3309.52
424.50	3496.76
424.69	3513.14
424.88	3482.72
425.07	3494.42
425.26	3442.93
425.45	3466.33
425.64	3351.65
425.83	3459.31
426.01	3433.57
426.20	3492.08
426.39	3522.51
426.58	3644.21
426.77	3513.14
426.96	3566.98
427.15	3529.53
427.33	3604.42
427.52	3548.25
427.71	3693.37
427.90	3590.38
428.09	3665.28
428.28	3737.84
428.46	3747.20
428.65	3674.64
428.84	3791.67
429.03	3803.37
429.22	3571.66
429.40	3693.37
429.59	3854.86
429.78	3686.34
429.97	3737.84
430.16	3929.76
430.34	3885.29
430.53	3950.82
430.72	3960.19
430.91	3796.35
431.10	3918.06
431.28	4021.04
431.47	3953.16
431.66	4074.87
431.85	4156.79
432.03	4070.19
432.22	4203.60
432.41	4135.73
432.60	4133.39
432.79	4107.64
432.97	4086.58
433.16	4224.67
433.35	4135.73
433.54	4053.81
433.72	4187.22
433.91	4212.96
434.10	4215.30
434.28	4222.33
434.47	4154.45
434.66	4315.95
434.85	4414.25
435.03	4264.46
435.22	4334.67
435.41	4542.98
435.59	4526.60
435.78	4407.23
435.97	4493.83
436.16	4407.23
436.34	4575.75
436.53	4435.32
436.72	4503.19
436.90	4465.74
437.09	4596.81
437.28	4421.27
437.46	4503.19
437.65	4573.41
437.84	4809.80
438.02	4507.87
438.21	4662.35
438.40	4741.93
438.58	4840.23
438.77	4842.57
438.96	4734.90
439.14	4910.44
439.33	4936.19
439.52	4983.00
439.70	5029.81
439.89	5039.17
440.08	5095.35
440.26	5015.77
440.45	4968.96
440.63	5083.64
440.82	5188.97
441.01	5156.20
441.19	5282.59
441.38	5336.42
441.57	5212.37
441.75	5200.67
441.94	5486.22
442.12	5547.07
442.31	5444.09
442.50	5460.47
442.68	5392.59
442.87	5380.89
443.05	5497.92
443.24	5645.37
443.43	5516.64
443.61	5654.73
443.80	5654.73
443.98	5582.18
444.17	5397.28
444.35	5689.84
444.54	5781.12
444.73	5511.96
444.91	5607.92
445.10	5717.93
445.28	5636.01
445.47	5678.14
445.65	5600.90
445.84	5783.46
446.02	5846.66
446.21	5715.59
446.39	5760.06
446.58	5809.21
446.77	5884.11
446.95	5626.65
447.14	5919.21
447.32	5912.19
447.51	5870.06
447.69	5795.17
447.88	5820.91
448.06	5764.74
448.25	5954.32
448.43	5905.17
448.62	5734.31
448.80	5844.32
448.99	5980.07
449.17	5970.71
449.36	5832.62
449.54	6122.84
449.73	6167.31
449.91	6061.99
450.10	6125.18
450.28	6181.35
450.46	6125.18
450.65	6314.77
450.83	6361.58
451.02	6026.88
451.20	6314.77
451.39	6349.87
451.57	6359.24
451.76	6235.19
451.94	6218.80
452.13	6314.77
452.31	6235.19
452.49	6179.01
452.68	6504.35
452.86	6230.51
453.05	6579.25
453.23	6532.44
453.42	6373.28
453.60	6326.47
453.78	6424.77
453.97	6356.90
454.15	6511.37
454.34	6492.65
454.52	6619.04
454.70	6518.39
454.89	6626.06
455.07	6663.51
455.26	6665.85
455.44	6839.05
455.62	6715.00
455.81	6675.21
455.99	6637.76
456.17	6658.82
456.36	6899.90
456.54	7094.16
456.73	6949.05
456.91	6944.37
457.09	7075.44
457.28	7166.72
457.46	7014.59
457.64	7192.47
457.83	7232.26
458.01	7267.36
458.19	7489.71
458.38	7265.02
458.56	7272.04
458.74	7293.11
458.93	7101.19
459.11	7204.17
459.29	7232.26
459.48	7148.00
459.66	7410.14
459.84	7365.67
460.03	7459.29
460.21	7344.60
460.39	7410.14
460.57	7541.21
460.76	7712.07
460.94	7382.05
461.12	7630.15
461.31	7803.35
461.49	7454.61
461.67	7611.42
461.85	7772.92
462.04	7627.81
462.22	8161.45
462.40	7892.29
462.59	7880.58
462.77	7751.85
462.95	8004.63
463.13	7850.16
463.32	7943.78
463.50	7995.27
463.68	7880.58
463.86	7948.46
464.05	7854.84
464.23	7810.37
464.41	7964.84
464.59	7950.80
464.78	8285.50
464.96	8035.06
465.14	7974.21
465.32	7990.59
465.50	8081.87
465.69	8135.70
465.87	8053.78
466.05	8079.53
466.23	8170.81
466.41	8138.04
466.60	8360.39
466.78	8243.37
466.96	8271.45
467.14	8238.69
467.32	8472.74
467.51	8557.00
467.69	8386.14
467.87	8421.25
468.05	8599.13
468.23	8435.29
468.41	8468.06
468.60	8442.31
468.78	8479.76
468.96	8369.76
469.14	8664.66
469.32	8950.21
469.50	8725.52
469.69	8833.18
469.87	8877.65
470.05	8826.16
470.23	8734.88
470.41	8926.80
470.59	8833.18
470.77	8926.80
470.95	8966.59
471.14	9078.94
471.32	8896.38
471.50	8999.36
471.68	9135.11
471.86	9062.55
472.04	9228.73
472.22	9345.76
472.40	9282.56
472.58	9158.52
472.77	9324.69
472.95	9516.62
473.13	9778.76
473.31	9350.44
473.49	9458.10
473.67	9650.03
473.85	9731.95
474.03	9624.28
474.21	9961.32
474.39	9933.23
474.57	9898.13
474.75	9912.17
474.93	10019.83
475.12	9816.21
475.30	10155.58
475.48	10010.47
475.66	10146.22
475.84	10221.12
476.02	10513.69
476.20	10256.23
476.38	10696.25
476.56	10780.51
476.74	10602.63
476.92	10539.43
477.10	10595.61
477.28	10766.46
477.46	10703.27
477.64	11059.03
477.82	11073.07
478.00	11332.87
478.18	11279.04
478.36	11421.81
478.54	11520.12
478.72	11431.18
478.90	11641.82
479.08	11740.13
479.26	11756.51
479.44	11880.56
479.62	11784.60
479.80	11882.90
479.98	12233.98
480.16	12362.71
480.34	12114.61
480.52	12430.59
480.70	12386.12
480.88	12161.42
481.06	12533.57
481.24	12638.89
481.41	12819.11
481.59	12849.54
481.77	12992.31
481.95	12858.90
482.13	13221.69
482.31	13067.21
482.49	13535.32
482.67	13469.78
482.85	13514.25
483.03	13589.15
483.21	14064.28
483.39	13790.44
483.57	13762.35
483.74	13937.89
483.92	14178.97
484.10	14239.82
484.28	14391.95
484.46	14696.22
484.64	14867.08
484.82	14398.98
485.00	14974.75
485.18	14979.43
485.35	15103.48
485.53	15353.91
485.71	15077.73
485.89	15309.44
486.07	15555.20
486.25	15606.69
486.43	15721.38
486.61	15978.84
486.78	15939.05
486.96	16114.59
487.14	16079.48
487.32	16390.77
487.50	16716.11
487.68	16657.59
487.85	16751.21
488.03	17027.40
488.21	17282.52
488.39	17275.49
488.57	17261.45
488.75	17542.32
488.92	17577.42
489.10	17820.84
489.28	17610.19
489.46	18057.23
489.64	17919.14
489.81	18455.12
489.99	18345.12
490.17	18530.02
490.35	18728.97
490.53	18668.11
490.70	18881.10
490.88	18588.53
491.06	19044.94
491.24	19197.07
491.41	19321.12
491.59	19515.39
491.77	19126.86
491.95	19686.25
492.13	19920.30
492.30	20137.97
492.48	20056.05
492.66	19733.06
492.84	19878.17
493.01	20329.89
493.19	20285.42
493.37	20271.38
493.54	20680.97
493.72	20973.54
493.90	20758.21
494.08	21057.80
494.25	21268.45
494.43	21036.74
494.61	21266.11
494.79	21329.30
494.96	21359.73
495.14	21584.42
495.32	22050.19
495.49	22029.12
495.67	21895.71
495.85	22136.79
496.02	22462.12
496.20	22492.55
496.38	22616.60
496.55	22534.68
496.73	23061.30
496.91	22665.75
497.09	22738.30
497.26	22993.42
497.44	23234.50
497.62	23358.55
497.79	23709.63
497.97	23295.35
498.14	23948.36
498.32	23824.31
498.50	24034.96
498.67	24093.47
498.85	24210.50
499.03	24217.52
499.20	24240.93
499.38	24404.77
499.56	24580.31
499.73	24617.75
499.91	24992.24
500.08	25235.66
500.26	24844.79
500.44	25266.08
500.61	24900.96
500.79	25067.14
500.97	25425.24
501.14	25759.94
501.32	25509.50
501.49	25193.53
501.67	25600.78
501.84	26129.74
502.02	26073.57
502.20	25902.71
502.37	25940.16
502.55	26043.14
502.72	26555.72
502.90	26272.51
503.07	25923.77
503.25	26476.14
503.43	26026.76
503.60	26555.72
503.78	26632.96
503.95	26679.77
504.13	26675.09
504.30	27021.48
504.48	26888.07
504.65	27288.31
504.83	27292.99
505.01	27461.51
505.18	27332.78
505.36	27906.21
505.53	27613.64
505.71	27573.85
505.88	27751.73
506.06	28130.90
506.23	28004.51
506.41	28046.64
506.58	28048.98
506.76	28278.35
506.93	28154.30
507.11	28444.53
507.28	28512.41
507.46	28423.47
507.63	28615.39
507.81	28893.91
507.98	28697.31
508.16	28610.71
508.33	28924.34
508.50	29202.86
508.68	29046.05
508.85	29055.41
509.03	29106.90
509.20	29064.77
509.38	29450.96
509.55	29848.85
509.73	29532.88
509.90	29743.53
510.08	29542.24
510.25	29984.60
510.42	30185.89
510.60	30082.91
510.77	30195.25
510.95	30403.56
511.12	30174.19
511.30	29855.87
511.47	30888.05
511.64	30445.69
511.82	31000.40
511.99	30663.36
512.17	31206.36
512.34	30506.54
512.51	31133.81
512.69	31234.45
512.86	31012.10
513.04	31351.48
513.21	31077.63
513.38	31166.57
513.56	31344.45
513.73	31325.73
513.90	31477.86
514.08	31435.74
514.25	31840.65
514.43	31838.31
514.60	31716.60
514.77	31861.71
514.95	31969.38
515.12	31695.53
515.29	31868.73
515.47	31988.10
515.64	32699.62
515.81	32285.35
515.99	32701.96
516.16	32760.48
516.33	32453.87
516.51	32753.46
516.68	32299.39
516.85	32725.37
517.03	33256.67
517.20	33294.12
517.37	32933.68
517.54	33504.77
517.72	33490.73
517.89	33397.10
518.06	33223.90
518.24	33326.89
518.41	33570.30
518.58	33083.47
518.75	33404.13
518.93	33757.55
519.10	33551.58
519.27	33738.82
519.45	33766.91
519.62	34096.92
519.79	34218.63
519.96	33792.65
520.14	34604.82
520.31	33921.38
520.48	34286.51
520.65	33970.54
520.83	34689.08
521.00	35098.67
521.17	34546.31
521.34	34981.65
521.52	35021.44
521.69	35037.82
521.86	34653.97
522.03	35005.05
522.20	35072.93
522.38	35424.01
522.55	35370.18
522.72	35386.56
522.89	35175.91
523.07	35924.88
523.24	35580.82
523.41	35793.81
523.58	35302.30
523.75	35744.66
523.92	35739.98
524.10	35962.33
524.27	35894.46
524.44	36077.02
524.61	35880.41
524.78	36154.26
524.96	36699.60
525.13	36292.35
525.30	36629.38
525.47	36362.56
525.64	36046.59
525.81	36664.49
525.98	36814.29
526.16	36781.52
526.33	36334.48
526.50	36802.58
526.67	36781.52
526.84	36816.63
527.01	37083.45
527.18	36952.38
527.36	37263.67
527.53	37408.78
527.70	37567.94
527.87	37921.36
528.04	37191.11
528.21	37539.85
528.38	37656.88
528.55	37488.36
528.72	37888.59
528.89	37968.17
529.07	37439.21
529.24	37064.72
529.41	37823.06
529.58	37907.32
529.75	37794.97
529.92	38628.20
530.09	38064.13
530.26	38038.39
530.43	37968.17
530.60	38078.18
530.77	38075.84
530.94	38279.46
531.11	38281.80
531.28	38557.99
531.46	38398.83
531.63	38520.54
531.80	38909.07
531.97	38436.28
532.14	38557.99
532.31	38431.60
532.48	38590.75
532.65	39056.52
532.82	39187.59
532.99	38911.41
533.16	38557.99
533.33	39065.88
533.50	39229.72
533.67	39131.42
533.84	39136.10
534.01	39096.31
534.18	39234.40
534.35	39880.39
534.52	39672.08
534.69	39824.22
534.86	39548.03
535.03	39938.90
535.20	39566.76
535.37	39735.27
535.54	39782.09
535.71	39517.60
535.88	40088.70
536.05	39791.45
536.22	40212.74
536.38	40149.55
536.55	40154.23
536.72	40175.30
536.89	40264.24
537.06	40098.06
537.23	40638.72
537.40	39999.76
537.57	40758.09
537.74	40416.37
537.91	40636.38
538.08	40318.07
538.25	40388.28
538.42	40900.86
538.59	41237.90
538.75	40985.12
538.92	40524.04
539.09	41137.26
539.26	40493.61
539.43	41102.15
539.60	40973.42
539.77	40978.10
539.94	41375.99
540.11	41034.27
540.28	41680.26
540.44	41029.59
540.61	41422.80
540.78	41457.91
540.95	41036.61
541.12	40865.75
541.29	41116.19
541.46	41298.75
541.62	41684.94
541.79	41727.07
541.96	41074.06
542.13	41516.42
542.30	41364.29
542.47	41874.52
542.63	41741.11
542.80	42094.53
542.97	41895.59
543.14	41961.12
543.31	42263.05
543.48	42323.91
543.64	42616.47
543.81	42307.52
543.98	42588.39
544.15	42251.35
544.32	42663.28
544.48	42749.88
544.65	42106.24
544.82	42515.83
544.99	42120.28
545.16	42660.94
545.32	42752.23
545.49	43229.69
545.66	43093.94
545.83	43110.33
546.00	43295.23
546.16	42799.04
546.33	42595.41
546.50	42857.55
546.67	43665.03
546.83	42628.18
547.00	42953.51
547.17	43091.60
547.34	43604.18
547.50	43318.64
547.67	43430.98
547.84	43503.54
548.00	43826.53
548.17	43959.94
548.34	44006.75
548.51	43540.99
548.67	43964.62
548.84	43342.04
549.01	43391.19
549.18	43728.23
549.34	43620.56
549.51	44161.23
549.68	44086.33
549.84	43653.33
550.01	44168.25
550.18	44280.60
550.34	43929.51
550.51	44481.88
550.68	44329.75
550.84	44083.99
551.01	44123.78
551.18	43873.34
551.34	44109.74
551.51	44296.98
551.68	43861.64
551.84	44233.78
552.01	44086.33
552.18	44430.39
552.34	44636.36
552.51	44566.14
552.68	44315.70
552.84	44219.74
553.01	44961.69
553.18	44371.88
553.34	44664.44
553.51	44421.03
553.67	44964.03
553.84	44980.42
554.01	44921.90
554.17	44847.00
554.34	44987.44
554.51	44900.84
554.67	45207.45
554.84	45132.55
555.00	45221.49
555.17	45034.25
555.33	44847.00
555.50	45043.61
555.67	45361.92
555.83	44996.80
556.00	45235.53
556.16	45511.72
556.33	45453.20
556.50	45095.10
556.66	45191.06
556.83	44844.66
556.99	45614.70
557.16	45776.20
557.32	45638.11
557.49	45769.18
557.65	45443.84
557.82	45621.72
557.98	45652.15
558.15	45666.19
558.32	45485.97
558.48	45530.44
558.65	45605.34
558.81	45909.61
558.98	45373.63
559.14	45701.30
559.31	45783.22
559.47	45738.75
559.64	45858.12
559.80	45890.88
559.97	46033.66
560.13	45705.98
560.30	45942.38
560.46	45900.25
560.63	46155.36
560.79	46036.00
560.96	46178.77
561.12	45942.38
561.29	46209.20
561.45	45963.44
561.61	46548.57
561.78	46321.54
561.94	46014.93
562.11	45900.25
562.27	46174.09
562.44	46010.25
562.60	46181.11
562.77	46384.74
562.93	45888.54
563.10	46405.80
563.26	46153.02
563.42	46600.07
563.59	46417.50
563.75	46014.93
563.92	46103.87
564.08	46501.76
564.24	46583.68
564.41	46471.34
564.57	46265.37
564.74	46387.08
564.90	46330.90
565.07	46347.29
565.23	46820.08
565.39	46574.32
565.56	46557.94
565.72	46473.68
565.88	46677.30
566.05	46344.95
566.21	46684.33
566.38	46405.80
566.54	46728.80
566.70	46843.48
566.87	46876.25
567.03	46536.87
567.19	46927.74
567.36	47044.77
567.52	46899.65
567.68	47124.35
567.85	46894.97
568.01	47217.97
568.17	46436.23
568.34	47016.68
568.50	47114.98
568.66	46997.96
568.83	46499.42
568.99	46972.21
569.15	46714.75
569.32	46614.11
569.48	46859.87
569.64	47117.32
569.81	47325.63
569.97	46761.56
570.13	47157.11
570.30	46761.56
570.46	47316.27
570.62	47229.67
570.78	47138.39
570.95	47098.60
571.11	47166.48
571.27	47028.38
571.43	47082.22
571.60	47295.21
571.76	46773.27
571.92	47318.61
572.09	46976.89
572.25	46796.67
572.41	47239.03
572.57	47009.66
572.74	47728.20
572.90	47325.63
573.06	47206.26
573.22	47241.37
573.38	47515.22
573.55	47232.01
573.71	47735.23
573.87	47346.70
574.03	47166.48
574.20	47618.20
574.36	47381.80
574.52	47178.18
574.68	47070.51
574.84	47440.32
575.01	47636.92
575.17	47529.26
575.33	47220.31
575.49	46859.87
575.65	47271.80
575.82	47416.91
575.98	47445.00
576.14	47707.14
576.30	47473.09
576.46	47639.26
576.62	47297.55
576.79	47463.72
576.95	47367.76
577.11	47133.71
577.27	48032.47
577.43	48093.33
577.59	47360.74
577.75	47325.63
577.92	47004.98
578.08	47838.21
578.24	47505.85
578.40	47796.08
578.56	47716.50
578.72	47650.97
578.88	48027.79
579.04	47463.72
579.21	47072.85
579.37	47606.50
579.53	47758.63
579.69	47533.94
579.85	47339.68
580.01	47407.55
580.17	47405.21
580.33	47461.38
580.49	47508.19
580.65	47543.30
580.82	47540.96
580.98	47419.25
581.14	47505.85
581.30	47627.56
581.46	47859.27
581.62	47262.44
581.78	47358.40
581.94	47910.77
582.10	47421.59
582.26	47412.23
582.42	47716.50
582.58	47749.27
582.74	47840.55
582.90	47793.74
583.06	47856.93
583.22	47786.72
583.38	48168.22
583.54	47737.57
583.70	47587.77
583.86	47833.53
584.02	47531.60
584.18	47835.87
584.34	48144.82
584.50	47971.62
584.66	48083.97
584.82	48334.40
584.98	48580.16
585.14	47995.03
585.30	47351.38
585.46	47657.99
585.62	47728.20
585.78	48257.17
585.94	47290.52
586.10	47730.54
586.26	47566.71
586.42	47828.85
586.58	47779.70
586.74	47758.63
586.90	47739.91
587.06	47931.83
587.22	48257.17
587.38	47721.18
587.54	47817.14
587.70	48016.09
587.86	47950.56
588.02	47910.77
588.18	47842.89
588.34	47716.50
588.49	47889.70
588.65	47683.73
588.81	47753.95
588.97	47849.91
589.13	48098.01
589.29	47878.00
589.45	48378.87
589.61	48053.54
589.77	47962.26
589.93	48121.41
