SpectraSuite Data File
++++++++++++++++++++++++++++++++++++
Date: Fri Oct 25 10:47:01 EDT 2013
User: price-jones
Dark Spectrum Present: No
Reference Spectrum Present: No
Number of Sampled Component Spectra: 1
Spectrometers: USB2+H05261
Integration Time (usec): 100000 (USB2+H05261)
Spectra Averaged: 1 (USB2+H05261)
Boxcar Smoothing: 0 (USB2+H05261)
Correct for Electrical Dark: No (USB2+H05261)
Strobe/Lamp Enabled: No (USB2+H05261)
Correct for Detector Non-linearity: No (USB2+H05261)
Correct for Stray Light: No (USB2+H05261)
Number of Pixels in Processed Spectrum: 2048
>>>>>Begin Processed Spectral Data<<<<<
365.73	168.52
365.92	168.52
366.12	168.52
366.32	77.24
366.52	37.45
366.72	56.17
366.91	0.00
367.11	74.90
367.31	44.47
367.51	4.68
367.70	74.90
367.90	81.92
368.10	14.04
368.30	105.32
368.49	42.13
368.69	117.03
368.89	0.00
369.09	46.81
369.28	70.22
369.48	79.58
369.68	72.56
369.87	133.41
370.07	93.62
370.27	100.64
370.47	236.39
370.66	360.44
370.86	428.32
371.06	416.62
371.25	454.06
371.45	463.43
371.65	484.49
371.84	472.79
372.04	510.24
372.24	456.40
372.44	477.47
372.63	519.60
372.83	500.87
373.03	475.13
373.22	573.43
373.42	449.38
373.62	489.17
373.81	517.26
374.01	538.32
374.21	543.00
374.40	498.53
374.60	599.18
374.79	531.30
374.99	603.86
375.19	580.45
375.38	538.32
375.58	587.47
375.78	615.56
375.97	552.37
376.17	531.30
376.37	615.56
376.56	655.35
376.76	634.29
376.95	608.54
377.15	615.56
377.35	601.52
377.54	706.84
377.74	629.60
377.93	627.26
378.13	540.66
378.33	622.58
378.52	599.18
378.72	664.71
378.91	664.71
379.11	608.54
379.31	538.32
379.50	571.09
379.70	704.50
379.89	627.26
380.09	573.43
380.28	732.59
380.48	669.39
380.68	683.44
380.87	655.35
381.07	711.52
381.26	730.25
381.46	667.05
381.65	678.76
381.85	662.37
382.04	671.73
382.24	713.86
382.43	737.27
382.63	709.18
382.83	695.14
383.02	699.82
383.22	774.72
383.41	631.94
383.61	683.44
383.80	786.42
384.00	814.51
384.19	788.76
384.39	739.61
384.58	772.38
384.78	793.44
384.97	763.01
385.17	814.51
385.36	718.54
385.56	767.70
385.75	779.40
385.95	777.06
386.14	868.34
386.34	847.27
386.53	826.21
386.72	760.67
386.92	786.42
387.11	851.96
387.31	861.32
387.50	858.98
387.70	894.08
387.89	814.51
388.09	779.40
388.28	826.21
388.48	880.04
388.67	873.02
388.86	926.85
389.06	814.51
389.25	898.77
389.45	1025.15
389.64	910.47
389.84	943.24
390.03	933.87
390.22	1008.77
390.42	919.83
390.61	917.49
390.81	973.66
391.00	1006.43
391.19	1055.58
391.39	940.90
391.58	1013.45
391.78	1071.97
391.97	1025.15
392.16	1041.54
392.36	954.94
392.55	940.90
392.75	1015.79
392.94	884.72
393.13	1013.45
393.33	858.98
393.52	959.62
393.71	1086.01
393.91	1069.62
394.10	1055.58
394.29	1219.42
394.49	1102.39
394.68	1114.10
394.88	1114.10
395.07	1181.97
395.26	1193.67
395.46	1048.56
395.65	1142.18
395.84	1114.10
396.04	1207.72
396.23	1249.85
396.42	1151.54
396.62	1188.99
396.81	1228.78
397.00	1172.61
397.19	1128.14
397.39	1200.69
397.58	1231.12
397.77	1299.00
397.97	1291.98
398.16	1366.87
398.35	1324.74
398.55	1364.53
398.74	1392.62
398.93	1409.00
399.12	1371.55
399.32	1401.98
399.51	1399.64
399.70	1446.45
399.90	1413.68
400.09	1423.05
400.28	1502.62
400.47	1465.18
400.67	1556.46
400.86	1523.69
401.05	1542.41
401.24	1554.12
401.44	1493.26
401.63	1647.74
401.82	1643.06
402.01	1556.46
402.21	1561.14
402.40	1570.50
402.59	1593.90
402.78	1626.67
402.97	1619.65
403.17	1631.35
403.36	1703.91
403.55	1682.85
403.74	1732.00
403.93	1732.00
404.13	1764.76
404.32	1748.38
404.51	1769.44
404.70	1750.72
404.89	1732.00
405.09	1806.89
405.28	1750.72
405.47	1783.49
405.66	1703.91
405.85	1781.15
406.05	1867.75
406.24	1830.30
406.43	1804.55
406.62	1926.26
406.81	1923.92
407.00	1935.62
407.20	1816.26
407.39	2003.50
407.58	2047.97
407.77	1998.82
407.96	2122.87
408.15	2085.42
408.34	2169.68
408.54	2143.93
408.73	2047.97
408.92	2092.44
409.11	2122.87
409.30	2045.63
409.49	2153.29
409.68	2045.63
409.87	2097.12
410.07	2186.06
410.26	2120.53
410.45	2270.32
410.64	2207.13
410.83	2333.51
411.02	2279.68
411.21	2363.94
411.40	2289.04
411.59	2338.20
411.78	2359.26
411.98	2399.05
412.17	2417.77
412.36	2511.39
412.55	2448.20
412.74	2495.01
412.93	2462.24
413.12	2555.86
413.31	2700.98
413.50	2626.08
413.69	2579.27
413.88	2745.45
414.07	2588.63
414.26	2693.96
414.45	2757.15
414.64	2628.42
414.83	2787.58
415.02	2724.38
415.22	2928.01
415.41	2878.86
415.60	2829.71
415.79	3000.57
415.98	2918.65
416.17	2913.97
416.36	2925.67
416.55	2897.58
416.74	2890.56
416.93	2995.89
417.12	2981.84
417.31	3073.12
417.50	3122.27
417.69	3241.64
417.88	3185.47
418.07	3070.78
418.26	3148.02
418.45	3066.10
418.64	3309.52
418.83	3304.84
419.02	3213.56
419.21	3229.94
419.39	3339.94
419.58	3293.13
419.77	3253.34
419.96	3279.09
420.15	3391.44
420.34	3393.78
420.53	3438.25
420.72	3407.82
420.91	3499.10
421.10	3581.02
421.29	3515.48
421.48	3524.85
421.67	3562.30
421.86	3452.29
422.05	3515.48
422.24	3641.87
422.43	3569.32
422.61	3653.58
422.80	3599.74
422.99	3660.60
423.18	3754.22
423.37	3604.42
423.56	3555.27
423.75	3660.60
423.94	3466.33
424.13	3473.36
424.32	3428.88
424.50	3761.24
424.69	3810.39
424.88	3803.37
425.07	3655.92
425.26	3684.00
425.45	3660.60
425.64	3660.60
425.83	3796.35
426.01	3672.30
426.20	3712.09
426.39	3655.92
426.58	3646.55
426.77	3648.90
426.96	3639.53
427.15	3744.86
427.33	3833.80
427.52	3700.39
427.71	3775.28
427.90	3754.22
428.09	3939.12
428.28	3805.71
428.46	3934.44
428.65	4018.70
428.84	3866.56
429.03	3866.56
429.22	3955.51
429.40	3880.61
429.59	3946.14
429.78	3772.94
429.97	3702.73
430.16	3723.79
430.34	3985.93
430.53	4035.08
430.72	3941.46
430.91	3962.53
431.10	4074.87
431.28	4126.36
431.47	4266.80
431.66	4194.24
431.85	4320.63
432.03	4344.03
432.22	4252.75
432.41	4339.35
432.60	4344.03
432.79	4259.78
432.97	4461.06
433.16	4409.57
433.35	4255.09
433.54	4360.42
433.72	4348.72
433.91	4479.79
434.10	4500.85
434.28	4496.17
434.47	4493.83
434.66	4608.51
434.85	4610.86
435.03	4688.09
435.22	4596.81
435.41	4624.90
435.59	4699.80
435.78	4718.52
435.97	4739.58
436.16	4741.93
436.34	4746.61
436.53	4926.83
436.72	4926.83
436.90	4842.57
437.09	4880.02
437.28	4645.96
437.46	4865.97
437.65	4739.58
437.84	4985.34
438.02	4823.84
438.21	4863.63
438.40	4627.24
438.58	5011.09
438.77	5097.69
438.96	5015.77
439.14	5191.31
439.33	5144.50
439.52	5151.52
439.70	5172.58
439.89	5263.86
440.08	5282.59
440.26	5224.08
440.45	5270.89
440.63	5432.38
440.82	5605.58
441.01	5394.93
441.19	5575.16
441.38	5577.50
441.57	5614.95
441.75	5596.22
441.94	5949.64
442.12	5802.19
442.31	5858.36
442.50	5755.38
442.68	5820.91
442.87	5785.80
443.05	5846.66
443.24	6181.35
443.43	5877.09
443.61	5987.09
443.80	6239.87
443.98	5863.04
444.17	5643.03
444.35	6143.91
444.54	6143.91
444.73	6066.67
444.91	6092.41
445.10	5923.90
445.28	5963.68
445.47	5921.56
445.65	5951.98
445.84	6148.59
446.02	6179.01
446.21	6146.25
446.39	5912.19
446.58	6244.55
446.77	6108.80
446.95	5858.36
447.14	6059.65
447.32	6352.21
447.51	6242.21
447.69	6150.93
447.88	6249.23
448.06	6279.66
448.25	6094.76
448.43	6193.06
448.62	6216.46
448.80	6171.99
448.99	6347.53
449.17	6361.58
449.36	6349.87
449.54	6326.47
449.73	6494.99
449.91	6553.50
450.10	6661.16
450.28	6619.04
450.46	6607.33
450.65	6668.19
450.83	6600.31
451.02	6651.80
451.20	6558.18
451.39	6724.36
451.57	6504.35
451.76	6623.72
451.94	6743.08
452.13	6700.95
452.31	6654.14
452.49	6623.72
452.68	6576.91
452.86	6761.81
453.05	6848.41
453.23	6759.47
453.42	6628.40
453.60	6841.39
453.78	6967.77
453.97	6848.41
454.15	6862.45
454.34	6782.87
454.52	6780.53
454.70	6958.41
454.89	6850.75
455.07	7037.99
455.26	7192.47
455.44	7145.66
455.62	7262.68
455.81	7250.98
455.99	7304.81
456.17	7166.72
456.36	7243.96
456.54	7405.46
456.73	7386.73
456.91	7541.21
457.09	7424.18
457.28	7559.93
457.46	7583.34
457.64	7482.69
457.83	7297.79
458.01	7440.56
458.19	7693.34
458.38	7735.47
458.56	7798.66
458.74	7480.35
458.93	7756.54
459.11	7681.64
459.29	7595.04
459.48	7784.62
459.66	7655.89
459.84	7871.22
460.03	7838.45
460.21	7950.80
460.39	7793.98
460.57	8065.49
460.76	7974.21
460.94	7920.37
461.12	8035.06
461.31	8182.51
461.49	8088.89
461.67	8077.19
461.85	8273.79
462.04	8306.56
462.22	8624.87
462.40	8351.03
462.59	8257.41
462.77	8224.64
462.95	8521.89
463.13	8245.71
463.32	8465.72
463.50	8278.47
463.68	8425.93
463.86	8409.54
464.05	8374.44
464.23	8147.40
464.41	8437.63
464.59	8339.33
464.78	8446.99
464.96	8442.31
465.14	8456.36
465.32	8557.00
465.50	8439.97
465.69	8615.51
465.87	8713.81
466.05	8608.49
466.23	8568.70
466.41	8496.14
466.60	8788.71
466.78	8634.24
466.96	8585.08
467.14	8711.47
467.32	8777.01
467.51	8865.95
467.69	8678.71
467.87	8798.07
468.05	8856.59
468.23	8589.77
468.41	8786.37
468.60	9067.24
468.78	8894.04
468.96	8758.28
469.14	8908.08
469.32	9228.73
469.50	8966.59
469.69	9170.22
469.87	9153.84
470.05	9217.03
470.23	9233.41
470.41	9130.43
470.59	9193.62
470.77	9163.20
470.95	9228.73
471.14	9511.94
471.32	9305.97
471.50	9490.87
471.68	9645.35
471.86	9577.47
472.04	9488.53
472.22	9998.77
472.40	9591.52
472.58	9762.37
472.77	9886.42
472.95	9797.48
473.13	10235.16
473.31	9799.82
473.49	9689.82
473.67	9851.31
473.85	9982.38
474.03	10214.10
474.21	10200.05
474.39	10204.74
474.57	10258.57
474.75	10408.36
474.93	10583.90
475.12	10441.13
475.30	10743.06
475.48	10513.69
475.66	10642.42
475.84	10846.04
476.02	10546.45
476.20	10588.58
476.38	10750.08
476.56	10895.19
476.74	10963.07
476.92	10949.03
477.10	11080.10
477.28	11508.41
477.46	11342.24
477.64	11485.01
477.82	11454.58
478.00	11737.79
478.18	11531.82
478.36	11632.46
478.54	11836.09
478.72	11943.75
478.90	12093.55
479.08	12156.74
479.26	12318.24
479.44	12372.07
479.62	12498.46
479.80	12386.12
479.98	12435.27
480.16	12650.60
480.34	12592.08
480.52	12917.42
480.70	12837.84
480.88	12685.70
481.06	13268.50
481.24	13032.10
481.41	13469.78
481.59	13343.39
481.77	13369.14
481.95	13666.39
482.13	13624.26
482.31	13633.62
482.49	14094.71
482.67	14019.81
482.85	13930.87
483.03	14148.54
483.21	14216.41
483.39	14604.94
483.57	14263.22
483.74	14698.56
483.92	14537.07
484.10	14483.24
484.28	15042.62
484.46	15021.56
484.64	15267.31
484.82	14981.77
485.00	15201.78
485.18	15667.55
485.35	15262.63
485.53	15456.90
485.71	15555.20
485.89	15634.78
486.07	15707.34
486.25	15796.28
486.43	15999.90
486.61	16292.47
486.78	16418.86
486.96	16503.12
487.14	16835.47
487.32	16538.23
487.50	16933.78
487.68	16793.34
487.85	17427.63
488.03	17373.80
488.21	17532.95
488.39	17462.74
488.57	17579.76
488.75	17755.30
488.92	18150.85
489.10	18225.75
489.28	18162.56
489.46	18476.19
489.64	18429.38
489.81	18757.05
489.99	18867.06
490.17	18967.70
490.35	19274.31
490.53	19089.41
490.70	19374.95
490.88	19325.80
491.06	19508.37
491.24	19578.58
491.41	19618.37
491.59	19676.88
491.77	19775.19
491.95	20072.43
492.13	20135.63
492.30	20552.24
492.48	20519.48
492.66	20620.12
492.84	20725.44
493.01	20835.45
493.19	20889.28
493.37	20994.61
493.54	20779.28
493.72	21532.93
493.90	21158.44
494.08	21741.24
494.25	21802.09
494.43	22115.72
494.61	21820.81
494.79	22033.80
494.96	21895.71
495.14	22291.26
495.32	22080.61
495.49	22298.28
495.67	22757.03
495.85	22623.62
496.02	22700.86
496.20	23040.23
496.38	22852.99
496.55	23206.41
496.73	23637.07
496.91	23150.24
497.09	23779.84
497.26	23229.82
497.44	23843.04
497.62	24002.19
497.79	23791.55
497.97	23927.30
498.14	23768.14
498.32	24114.54
498.50	24133.26
498.67	24751.17
498.85	24549.88
499.03	24575.62
499.20	24645.84
499.38	24821.38
499.56	25022.67
499.73	24959.47
499.91	25043.73
500.08	25062.46
500.26	24971.18
500.44	25233.32
500.61	25373.75
500.79	25235.66
500.97	25284.81
501.14	25380.77
501.32	25893.35
501.49	25404.17
501.67	26125.06
501.84	25874.62
502.02	26272.51
502.20	26265.49
502.37	26948.93
502.55	26410.60
502.72	26462.10
502.90	26665.72
503.07	26354.43
503.25	26487.84
503.43	26658.70
503.60	26808.50
503.78	26965.31
503.95	27016.80
504.13	27082.34
504.30	27344.48
504.48	27061.27
504.65	27400.65
504.83	27611.30
505.01	27784.50
505.18	27543.42
505.36	27887.48
505.53	27810.25
505.71	28287.71
505.88	28013.87
506.06	27990.47
506.23	28268.99
506.41	28105.15
506.58	28067.70
506.76	28095.79
506.93	28489.00
507.11	28367.29
507.28	28407.08
507.46	28652.84
507.63	28865.83
507.81	28938.38
507.98	28231.54
508.16	29003.92
508.33	29024.98
508.50	28872.85
508.68	29249.67
508.85	29677.99
509.03	29607.78
509.20	29656.93
509.38	29928.43
509.55	29675.65
509.73	29900.34
509.90	30136.74
510.08	29745.87
510.25	30293.55
510.42	30040.78
510.60	30459.73
510.77	30045.46
510.95	30333.34
511.12	30347.39
511.30	30424.62
511.47	30515.90
511.64	31072.95
511.82	31058.91
511.99	30567.40
512.17	30478.46
512.34	30686.76
512.51	31161.89
512.69	31290.62
512.86	31337.43
513.04	31077.63
513.21	31541.06
513.38	31243.81
513.56	31356.16
513.73	31484.89
513.90	31700.22
514.08	31426.37
514.25	32109.81
514.43	31985.76
514.60	32013.85
514.77	31693.19
514.95	32278.33
515.12	32041.93
515.29	32088.74
515.47	32664.52
515.64	32395.35
515.81	32156.62
515.99	32191.73
516.16	32570.90
516.33	32374.29
516.51	32664.52
516.68	32060.66
516.85	32018.53
517.03	32393.01
517.20	32741.75
517.37	32666.86
517.54	32875.16
517.72	33261.35
517.89	32723.03
518.06	33280.08
518.24	33036.66
518.41	32606.00
518.58	33020.28
518.75	33132.62
518.93	33947.13
519.10	33584.35
519.27	33530.51
519.45	33874.57
519.62	33752.87
519.79	33652.22
519.96	33893.30
520.14	34377.79
520.31	33708.40
520.48	34349.70
520.65	33818.40
520.83	34192.89
521.00	34691.42
521.17	34448.00
521.34	34607.16
521.52	34731.21
521.69	34745.25
521.86	34433.96
522.03	34637.59
522.20	34686.74
522.38	35070.59
522.55	34675.04
522.72	34834.19
522.89	34972.28
523.07	35189.95
523.24	34932.50
523.41	35304.64
523.58	34923.13
523.75	35552.74
523.92	35440.39
524.10	35782.11
524.27	35534.01
524.44	35637.00
524.61	35967.01
524.78	35620.61
524.96	36381.29
525.13	36182.34
525.30	36238.51
525.47	36430.44
525.64	36613.00
525.81	36147.23
525.98	36112.13
526.16	35936.59
526.33	36126.17
526.50	36196.38
526.67	35908.50
526.84	35988.08
527.01	36077.02
527.18	36573.21
527.36	36643.43
527.53	36828.33
527.70	36973.44
527.87	36760.45
528.04	36954.72
528.21	36931.31
528.38	36795.56
528.55	37289.42
528.72	37413.46
528.89	37553.90
529.07	37263.67
529.24	37141.96
529.41	37476.66
529.58	37020.25
529.75	37387.72
529.92	37226.22
530.09	37088.13
530.26	37640.50
530.43	37998.60
530.60	37635.81
530.77	37198.13
530.94	38096.90
531.11	37689.65
531.28	37785.61
531.46	38284.14
531.63	37951.79
531.80	37963.49
531.97	37998.60
532.14	38249.03
532.31	37530.49
532.48	38260.74
532.65	38337.98
532.82	38045.41
532.99	38487.77
533.16	38359.04
533.33	38092.22
533.50	38703.10
533.67	38703.10
533.84	38686.71
534.01	38759.27
534.18	38459.68
534.35	38635.22
534.52	38541.60
534.69	38883.32
534.86	39042.48
535.03	38857.57
535.20	39079.92
535.37	39398.24
535.54	39442.71
535.71	39026.09
535.88	38768.63
536.05	38740.55
536.22	39232.06
536.38	38904.38
536.55	39234.40
536.72	39063.54
536.89	39239.08
537.06	39119.71
537.23	39782.09
537.40	39784.43
537.57	39660.38
537.74	39276.53
537.91	40116.78
538.08	40161.25
538.25	39395.90
538.42	39737.62
538.59	39847.62
538.75	39779.74
538.92	39880.39
539.09	39566.76
539.26	40011.46
539.43	40390.62
539.60	39964.65
539.77	40601.27
539.94	40023.16
540.11	39959.97
540.28	39758.68
540.44	40224.45
540.61	40472.54
540.78	39981.03
540.95	40194.02
541.12	40376.58
541.29	40297.00
541.46	40573.19
541.62	40339.13
541.79	40900.86
541.96	40243.17
542.13	40828.30
542.30	40472.54
542.47	41132.57
542.63	40961.72
542.80	40414.03
542.97	41394.71
543.14	41331.52
543.31	41532.81
543.48	41144.28
543.64	41493.02
543.81	41483.66
543.98	41340.88
544.15	41219.17
544.32	41617.07
544.48	41537.49
544.65	41521.10
544.82	41619.41
544.99	41331.52
545.16	41584.30
545.32	41338.54
545.49	41872.18
545.66	41448.55
545.83	41490.68
546.00	42199.86
546.16	41743.45
546.33	41631.11
546.50	41069.38
546.67	42178.79
546.83	41902.61
547.00	41886.23
547.17	41874.52
547.34	41996.23
547.50	41933.04
547.67	42443.27
547.84	42134.32
548.00	42438.59
548.17	42181.13
548.34	42377.74
548.51	42293.48
548.67	42174.11
548.84	42913.72
549.01	42625.84
549.18	42464.34
549.34	42607.11
549.51	42784.99
549.68	42419.87
549.84	42754.57
550.01	42953.51
550.18	42361.36
550.34	42557.96
550.51	42923.08
550.68	42740.52
550.84	42436.25
551.01	42897.34
551.18	42787.33
551.34	42794.36
551.51	42916.06
551.68	43182.88
551.84	43077.56
552.01	42883.30
552.18	43161.82
552.34	42321.57
552.51	42953.51
552.68	42726.48
552.84	43461.41
553.01	43585.46
553.18	43601.84
553.34	43349.06
553.51	43047.13
553.67	43033.09
553.84	43449.70
554.01	43585.46
554.17	43814.83
554.34	43548.01
554.51	43407.58
554.67	43482.47
554.84	43782.06
555.00	43826.53
555.17	43283.53
555.33	43573.75
555.50	43599.50
555.67	43627.59
555.83	43386.51
556.00	43978.67
556.16	43990.37
556.33	43311.61
556.50	43445.02
556.66	43995.05
556.83	43412.26
556.99	43964.62
557.16	43983.35
557.32	43964.62
557.49	43810.15
557.65	43775.04
557.82	43817.17
557.98	43414.60
558.15	44320.38
558.32	43959.94
558.48	43803.13
558.65	44170.59
558.81	43653.33
558.98	43990.37
559.14	44329.75
559.31	43920.15
559.47	44119.10
559.64	44023.14
559.80	44479.54
559.97	44327.41
560.13	43695.46
560.30	44208.04
560.46	44638.70
560.63	44109.74
560.79	44467.84
560.96	44669.12
561.12	44360.17
561.29	44404.64
561.45	44507.63
561.61	43847.60
561.78	44472.52
561.94	44643.38
562.11	44023.14
562.27	44453.79
562.44	44566.14
562.60	44687.85
562.77	44664.44
562.93	44119.10
563.10	44418.69
563.26	44385.92
563.42	44477.20
563.59	44650.40
563.75	44414.01
563.92	44893.82
564.08	44751.04
564.24	44741.68
564.41	44507.63
564.57	44348.47
564.74	44776.79
564.90	44921.90
565.07	44844.66
565.23	44596.57
565.39	44444.43
565.56	44357.83
565.72	44856.37
565.88	44781.47
566.05	44629.34
566.21	44671.46
566.38	44390.60
566.54	44568.48
566.70	45167.66
566.87	45310.43
567.03	44809.56
567.19	45097.44
567.36	44891.48
567.52	45170.00
567.68	44720.62
567.85	44556.78
568.01	44715.93
568.17	44765.09
568.34	45212.13
568.50	45006.16
568.66	44949.99
568.83	45008.50
568.99	44910.20
569.15	44816.58
569.32	44339.11
569.48	44626.99
569.64	45052.97
569.81	44884.45
569.97	44495.92
570.13	44774.45
570.30	44772.11
570.46	44921.90
570.62	44830.62
570.78	44505.29
570.95	44992.12
571.11	45162.98
571.27	44818.92
571.43	44744.02
571.60	45076.38
571.76	44720.62
571.92	44779.13
572.09	44570.82
572.25	44636.36
572.41	45312.77
572.57	45015.52
572.74	45874.50
572.90	45471.93
573.06	45509.38
573.22	45024.89
573.38	44825.94
573.55	44966.37
573.71	45340.86
573.87	44968.71
574.03	45052.97
574.20	45184.04
574.36	45488.31
574.52	45361.92
574.68	45258.94
574.84	45076.38
575.01	44921.90
575.17	45083.40
575.33	45052.97
575.49	44760.40
575.65	45443.84
575.82	45235.53
575.98	44891.48
576.14	45207.45
576.30	45457.88
576.46	45027.23
576.62	45134.89
576.79	44931.26
576.95	44959.35
577.11	45268.30
577.27	45045.95
577.43	45022.54
577.59	45249.58
577.75	44987.44
577.92	44849.35
578.08	44779.13
578.24	45043.61
578.40	45516.40
578.56	45230.85
578.72	45310.43
578.88	45329.16
579.04	45081.06
579.21	45226.17
579.37	44952.33
579.53	45123.19
579.69	45179.36
579.85	45698.96
580.01	45490.65
580.17	45361.92
580.33	45453.20
580.49	45759.81
580.65	45528.10
580.82	45462.57
580.98	45088.08
581.14	45263.62
581.30	45404.05
581.46	45251.92
581.62	45408.73
581.78	45223.83
581.94	45649.81
582.10	45453.20
582.26	45223.83
582.42	45141.91
582.58	45406.39
582.74	45081.06
582.90	45500.01
583.06	45162.98
583.22	45532.78
583.38	45682.58
583.54	45453.20
583.70	45102.12
583.86	45205.11
584.02	44828.28
584.18	45134.89
584.34	45291.71
584.50	44935.95
584.66	45375.97
584.82	45132.55
584.98	45673.21
585.14	45603.00
585.30	45408.73
585.46	45357.24
585.62	45113.83
585.78	45375.97
585.94	45195.74
586.10	45198.09
586.26	45057.65
586.42	45322.13
586.58	45413.41
586.74	45399.37
586.90	45331.50
587.06	44886.79
587.22	45588.95
587.38	45263.62
587.54	45518.74
587.70	45516.40
587.86	45172.34
588.02	45532.78
588.18	45223.83
588.34	45104.46
588.49	45212.13
588.65	44952.33
588.81	44793.17
588.97	45202.77
589.13	45188.72
589.29	45713.00
589.45	45612.36
589.61	45724.71
589.77	45668.53
589.93	45741.09
590.08	45624.06
