SpectraSuite Data File
++++++++++++++++++++++++++++++++++++
Date: Fri Oct 25 11:33:44 EDT 2013
User: price-jones
Dark Spectrum Present: No
Reference Spectrum Present: No
Number of Sampled Component Spectra: 1
Spectrometers: USB2+H05261
Integration Time (usec): 100000 (USB2+H05261)
Spectra Averaged: 1 (USB2+H05261)
Boxcar Smoothing: 0 (USB2+H05261)
Correct for Electrical Dark: No (USB2+H05261)
Strobe/Lamp Enabled: No (USB2+H05261)
Correct for Detector Non-linearity: No (USB2+H05261)
Correct for Stray Light: No (USB2+H05261)
Number of Pixels in Processed Spectrum: 2048
>>>>>Begin Processed Spectral Data<<<<<
365.73	269.16
365.92	269.16
366.12	269.16
366.32	189.58
366.52	175.54
366.72	234.05
366.91	149.79
367.11	163.84
367.31	105.32
367.51	166.18
367.70	142.77
367.90	189.58
368.10	252.78
368.30	175.54
368.49	166.18
368.69	222.35
368.89	161.50
369.09	152.13
369.28	159.16
369.48	222.35
369.68	238.73
369.87	170.86
370.07	292.57
370.27	276.18
370.47	252.78
370.66	486.83
370.86	503.22
371.06	550.03
371.25	662.37
371.45	580.45
371.65	617.90
371.84	545.34
372.04	566.41
372.24	545.34
372.44	557.05
372.63	613.22
372.83	671.73
373.03	599.18
373.22	559.39
373.42	613.22
373.62	638.97
373.81	662.37
374.01	596.84
374.21	634.29
374.40	592.16
374.60	678.76
374.79	653.01
374.99	674.07
375.19	685.78
375.38	624.92
375.58	629.60
375.78	638.97
375.97	671.73
376.17	695.14
376.37	711.52
376.56	650.67
376.76	676.41
376.95	720.88
377.15	692.80
377.35	657.69
377.54	704.50
377.74	692.80
377.93	732.59
378.13	788.76
378.33	763.01
378.52	674.07
378.72	732.59
378.91	638.97
379.11	702.16
379.31	690.46
379.50	725.57
379.70	702.16
379.89	807.48
380.09	678.76
380.28	676.41
380.48	741.95
380.68	695.14
380.87	739.61
381.07	669.39
381.26	777.06
381.46	709.18
381.65	779.40
381.85	786.42
382.04	753.65
382.24	741.95
382.43	830.89
382.63	779.40
382.83	777.06
383.02	770.04
383.22	898.77
383.41	763.01
383.61	704.50
383.80	828.55
384.00	805.14
384.19	793.44
384.39	863.66
384.58	858.98
384.78	891.74
384.97	924.51
385.17	809.83
385.36	793.44
385.56	858.98
385.75	816.85
385.95	844.93
386.14	908.13
386.34	894.08
386.53	861.32
386.72	933.87
386.92	889.40
387.11	903.45
387.31	887.06
387.50	875.36
387.70	896.43
387.89	910.47
388.09	844.93
388.28	940.90
388.48	903.45
388.67	952.60
388.86	849.61
389.06	971.32
389.25	959.62
389.45	933.87
389.64	898.77
389.84	971.32
390.03	952.60
390.22	987.71
390.42	1013.45
390.61	950.26
390.81	1029.84
391.00	1011.11
391.19	1013.45
391.39	994.73
391.58	987.71
391.78	933.87
391.97	957.28
392.16	947.92
392.36	1081.33
392.55	1029.84
392.75	976.00
392.94	1078.99
393.13	945.58
393.33	1102.39
393.52	1128.14
393.71	1060.26
393.91	1069.62
394.10	1053.24
394.29	1034.52
394.49	1121.12
394.68	1174.95
394.88	1060.26
395.07	1153.88
395.26	1210.06
395.46	1109.41
395.65	1088.35
395.84	1203.04
396.04	1203.04
396.23	1165.59
396.42	1200.69
396.62	1221.76
396.81	1245.16
397.00	1256.87
397.19	1245.16
397.39	1270.91
397.58	1277.93
397.77	1226.44
397.97	1247.51
398.16	1167.93
398.35	1299.00
398.55	1233.46
398.74	1294.32
398.93	1270.91
399.12	1380.92
399.32	1357.51
399.51	1359.85
399.70	1343.47
399.90	1334.11
400.09	1336.45
400.28	1430.07
400.47	1352.83
400.67	1371.55
400.86	1406.66
401.05	1439.43
401.24	1432.41
401.44	1399.64
401.63	1488.58
401.82	1533.05
402.01	1493.26
402.21	1481.56
402.40	1481.56
402.59	1537.73
402.78	1483.90
402.97	1530.71
403.17	1509.65
403.36	1540.07
403.55	1544.75
403.74	1584.54
403.93	1549.43
404.13	1659.44
404.32	1579.86
404.51	1563.48
404.70	1657.10
404.89	1643.06
405.09	1717.95
405.28	1694.55
405.47	1703.91
405.66	1706.25
405.85	1722.63
406.05	1701.57
406.24	1706.25
406.43	1743.70
406.62	1778.81
406.81	1865.41
407.00	1767.10
407.20	1781.15
407.39	1774.13
407.58	1879.45
407.77	1944.99
407.96	1844.34
408.15	1900.52
408.34	1788.17
408.54	2012.86
408.73	1909.88
408.92	1998.82
409.11	2001.16
409.30	2024.56
409.49	2022.22
409.68	1991.80
409.87	1996.48
410.07	1963.71
410.26	2040.95
410.45	2094.78
410.64	2073.71
410.83	2071.37
411.02	2141.59
411.21	2200.10
411.40	2094.78
411.59	2169.68
411.78	2115.84
411.98	2221.17
412.17	2326.49
412.36	2265.64
412.55	2345.22
412.74	2300.75
412.93	2345.22
413.12	2305.43
413.31	2385.01
413.50	2385.01
413.69	2408.41
413.88	2476.29
414.07	2429.48
414.26	2541.82
414.45	2518.42
414.64	2630.76
414.83	2574.59
415.02	2516.08
415.22	2567.57
415.41	2588.63
415.60	2607.36
415.79	2691.62
415.98	2703.32
416.17	2761.83
416.36	2717.36
416.55	2825.03
416.74	2729.06
416.93	2871.84
417.12	2888.22
417.31	2878.86
417.50	2899.92
417.69	2984.18
417.88	2895.24
418.07	2906.95
418.26	2960.78
418.45	3059.08
418.64	3028.65
418.83	3096.53
419.02	3023.97
419.21	3103.55
419.39	3033.33
419.58	3117.59
419.77	3171.43
419.96	3162.06
420.15	3183.13
420.34	3176.11
420.53	3236.96
420.72	3206.53
420.91	3159.72
421.10	3239.30
421.29	3248.66
421.48	3185.47
421.67	3295.47
421.86	3166.74
422.05	3403.14
422.24	3391.44
422.43	3424.20
422.61	3468.67
422.80	3475.70
422.99	3531.87
423.18	3353.99
423.37	3473.36
423.56	3520.17
423.75	3433.57
423.94	3349.31
424.13	3094.19
424.32	3328.24
424.50	3433.57
424.69	3475.70
424.88	3466.33
425.07	3412.50
425.26	3318.88
425.45	3300.16
425.64	3361.01
425.83	3463.99
426.01	3410.16
426.20	3545.91
426.39	3644.21
426.58	3590.38
426.77	3471.01
426.96	3398.46
427.15	3592.72
427.33	3693.37
427.52	3559.95
427.71	3618.47
427.90	3531.87
428.09	3639.53
428.28	3840.82
428.46	3740.18
428.65	3726.13
428.84	3796.35
429.03	3810.39
429.22	3740.18
429.40	3747.20
429.59	3789.33
429.78	3632.51
429.97	3723.79
430.16	3899.33
430.34	3857.20
430.53	3885.29
430.72	3974.23
430.91	3765.92
431.10	3918.06
431.28	4035.08
431.47	3920.40
431.66	4014.02
431.85	4042.11
432.03	4077.21
432.22	4100.62
432.41	4039.76
432.60	4037.42
432.79	3974.23
432.97	4131.05
433.16	4224.67
433.35	4079.55
433.54	4117.00
433.72	4236.37
433.91	4091.26
434.10	4229.35
434.28	4198.92
434.47	4208.28
434.66	4304.25
434.85	4208.28
435.03	4315.95
435.22	4198.92
435.41	4374.46
435.59	4362.76
435.78	4447.02
435.97	4528.94
436.16	4519.57
436.34	4409.57
436.53	4465.74
436.72	4552.34
436.90	4367.44
437.09	4645.96
437.28	4409.57
437.46	4482.13
437.65	4561.70
437.84	4489.15
438.02	4671.71
438.21	4559.36
438.40	4442.34
438.58	4617.88
438.77	4777.03
438.96	4844.91
439.14	4809.80
439.33	4966.62
439.52	4980.66
439.70	4924.49
439.89	5060.24
440.08	5062.58
440.26	4943.21
440.45	4870.65
440.63	5029.81
440.82	5181.95
441.01	5177.26
441.19	5217.05
441.38	5425.36
441.57	5224.08
441.75	5324.72
441.94	5526.00
442.12	5453.45
442.31	5320.04
442.50	5535.37
442.68	5469.83
442.87	5605.58
443.05	5507.28
443.24	5568.13
443.43	5568.13
443.61	5561.11
443.80	5713.25
443.98	5493.24
444.17	5291.95
444.35	5612.60
444.54	5710.91
444.73	5680.48
444.91	5600.90
445.10	5636.01
445.28	5724.95
445.47	5631.33
445.65	5701.54
445.84	5715.59
446.02	5804.53
446.21	5771.76
446.39	5788.14
446.58	5877.09
446.77	5755.38
446.95	5736.65
447.14	5741.33
447.32	5930.92
447.51	5645.37
447.69	5762.40
447.88	5703.89
448.06	5994.11
448.25	5858.36
448.43	6097.10
448.62	5877.09
448.80	5694.52
448.99	5748.36
449.17	5865.38
449.36	5963.68
449.54	6047.94
449.73	6057.31
449.91	6104.12
450.10	6160.29
450.28	6106.46
450.46	6171.99
450.65	6162.63
450.83	6120.50
451.02	6373.28
451.20	6303.06
451.39	6277.32
451.57	6164.97
451.76	6136.88
451.94	6167.31
452.13	6333.49
452.31	6289.02
452.49	6305.40
452.68	6340.51
452.86	6443.49
453.05	6361.58
453.23	6445.84
453.42	6403.71
453.60	6534.78
453.78	6537.12
453.97	6324.13
454.15	6469.24
454.34	6389.66
454.52	6654.14
454.70	6560.52
454.89	6560.52
455.07	6473.92
455.26	6665.85
455.44	6740.74
455.62	6782.87
455.81	6785.21
455.99	6747.76
456.17	6675.21
456.36	6911.60
456.54	6895.22
456.73	7047.35
456.91	7150.34
457.09	7087.14
457.28	7140.97
457.46	7000.54
457.64	7023.95
457.83	7068.42
458.01	6953.73
458.19	7262.68
458.38	7239.28
458.56	7096.50
458.74	7218.21
458.93	7133.95
459.11	7157.36
459.29	7309.49
459.48	7363.33
459.66	7234.60
459.84	7346.94
460.03	7339.92
460.21	7665.25
460.39	7468.65
460.57	7438.22
460.76	7407.80
460.94	7543.55
461.12	7754.19
461.31	7644.19
461.49	7691.00
461.67	7597.38
461.85	7620.78
462.04	7674.62
462.22	8093.57
462.40	7817.39
462.59	7674.62
462.77	7742.49
462.95	7763.56
463.13	7784.62
463.32	7772.92
463.50	7782.28
463.68	7950.80
463.86	7932.08
464.05	7880.58
464.23	7798.66
464.41	8175.49
464.59	7934.42
464.78	8058.46
464.96	8044.42
465.14	7873.56
465.32	8070.17
465.50	8273.79
465.69	8072.51
465.87	7960.16
466.05	8231.66
466.23	8222.30
466.41	8264.43
466.60	8472.74
466.78	8147.40
466.96	8182.51
467.14	8243.37
467.32	8498.49
467.51	8334.65
467.69	8088.89
467.87	8173.15
468.05	8446.99
468.23	8535.93
468.41	8430.61
468.60	8571.04
468.78	8521.89
468.96	8449.33
469.14	8437.63
469.32	8690.41
469.50	8517.21
469.69	8755.94
469.87	8947.87
470.05	8629.56
470.23	8767.65
470.41	8912.76
470.59	8926.80
470.77	8769.99
470.95	9004.04
471.14	8999.36
471.32	8840.20
471.50	9146.81
471.68	9130.43
471.86	9217.03
472.04	9247.46
472.22	9451.08
472.40	9249.80
472.58	9224.05
472.77	9266.18
472.95	9451.08
473.13	9687.48
473.31	9462.79
473.49	9418.32
473.67	9324.69
473.85	9621.94
474.03	9781.10
474.21	9769.40
474.39	9755.35
474.57	10003.45
474.75	9877.06
474.93	9947.28
475.12	9902.81
475.30	9942.60
475.48	9926.21
475.66	10209.42
475.84	10040.90
476.02	10111.11
476.20	10251.55
476.38	10450.49
476.56	10656.46
476.74	10429.43
476.92	10511.35
477.10	10785.19
477.28	10658.80
477.46	10562.84
477.64	10731.36
477.82	11021.58
478.00	11318.83
478.18	11138.61
478.36	11124.57
478.54	11501.39
478.72	11400.75
478.90	11641.82
479.08	11861.84
479.26	11838.43
479.44	11676.93
479.62	11850.13
479.80	11969.50
479.98	11761.19
480.16	12292.49
480.34	12336.96
480.52	12226.96
480.70	12423.56
480.88	12161.42
481.06	12294.83
481.24	12496.12
481.41	12659.96
481.59	13015.72
481.77	12823.80
481.95	13041.46
482.13	13104.66
482.31	13046.15
482.49	13146.79
482.67	13357.44
482.85	13884.06
483.03	13518.93
483.21	13673.41
483.39	13919.17
483.57	13570.43
483.74	13940.23
483.92	13956.61
484.10	13884.06
484.28	14253.86
484.46	14555.79
484.64	14876.44
484.82	14356.85
485.00	14523.02
485.18	14846.02
485.35	15089.43
485.53	15227.53
485.71	15309.44
485.89	15585.63
486.07	15377.32
486.25	15459.24
486.43	15606.69
486.61	15599.67
486.78	15969.48
486.96	16058.42
487.14	16416.52
487.32	16161.40
487.50	16507.80
487.68	16444.60
487.85	16931.44
488.03	16685.68
488.21	17062.51
488.39	17076.55
488.57	17261.45
488.75	17114.00
488.92	17385.50
489.10	17572.74
489.28	17671.04
489.46	17956.59
489.64	17647.64
489.81	18331.08
489.99	17994.04
490.17	18431.72
490.35	18319.37
490.53	18508.96
490.70	18953.66
490.88	18785.14
491.06	18684.50
491.24	18867.06
491.41	19304.74
491.59	19428.79
491.77	18946.64
491.95	19391.34
492.13	19737.74
492.30	19845.40
492.48	19894.55
492.66	19693.27
492.84	20196.48
493.01	20210.53
493.19	20219.89
493.37	20046.69
493.54	20648.21
493.72	20596.71
493.90	20482.03
494.08	21034.39
494.25	20973.54
494.43	21062.48
494.61	21277.81
494.79	21359.73
494.96	21664.00
495.14	21516.54
495.32	21811.45
495.49	21743.58
495.67	21820.81
495.85	22111.04
496.02	22258.49
496.20	22300.62
496.38	22499.57
496.55	22448.08
496.73	23101.09
496.91	22768.73
497.09	22768.73
497.26	23030.87
497.44	23012.15
497.62	23183.01
497.79	23564.51
497.97	23145.56
498.14	23641.75
498.32	24119.22
498.50	23693.24
498.67	23927.30
498.85	23873.46
499.03	24259.65
499.20	24339.23
499.38	23943.68
499.56	24577.97
499.73	24327.53
499.91	24659.88
500.08	24666.91
500.26	24725.42
500.44	24617.75
500.61	24910.32
500.79	25043.73
500.97	25064.80
501.14	25626.53
501.32	25158.42
501.49	25397.15
501.67	25439.28
501.84	25415.88
502.02	25479.07
502.20	25483.75
502.37	25825.47
502.55	25755.26
502.72	26363.79
502.90	25982.29
503.07	26558.06
503.25	26328.69
503.43	26146.12
503.60	26691.47
503.78	26448.05
503.95	26558.06
504.13	26506.57
504.30	26806.16
504.48	26890.41
504.65	27150.21
504.83	27292.99
505.01	27363.20
505.18	27538.74
505.36	27391.29
505.53	27384.27
505.71	27440.44
505.88	27445.12
506.06	27082.34
506.23	27634.71
506.41	27552.79
506.58	27946.00
506.76	27938.97
506.93	28156.64
507.11	27948.34
507.28	28507.72
507.46	28360.27
507.63	28070.04
507.81	28465.60
507.98	27920.25
508.16	28552.20
508.33	28362.61
508.50	29010.94
508.68	29221.59
508.85	28821.36
509.03	28914.98
509.20	29153.71
509.38	29689.70
509.55	29427.56
509.73	29633.52
509.90	29495.43
510.08	29460.32
510.25	29448.62
510.42	29399.47
510.60	29788.00
510.77	29984.60
510.95	30146.10
511.12	30106.31
511.30	30103.97
511.47	30176.53
511.64	30113.33
511.82	30272.49
511.99	30506.54
512.17	30824.86
512.34	30623.57
512.51	30560.37
512.69	31145.51
512.86	30969.97
513.04	31037.84
513.21	31192.32
513.38	30916.14
513.56	31536.38
513.73	31175.94
513.90	31213.38
514.08	31023.80
514.25	31894.48
514.43	31660.43
514.60	31786.82
514.77	31569.15
514.95	31819.58
515.12	32023.21
515.29	31709.58
515.47	31995.12
515.64	32444.51
515.81	32072.36
515.99	32444.51
516.16	32648.13
516.33	32531.11
516.51	32563.87
516.68	32737.07
516.85	32765.16
517.03	32767.50
517.20	32959.42
517.37	32994.53
517.54	33022.62
517.72	33303.48
517.89	32589.62
518.06	33347.95
518.24	33104.54
518.41	33378.38
518.58	33123.26
518.75	33050.70
518.93	33439.23
519.10	33188.80
519.27	33481.36
519.45	33912.02
519.62	33862.87
519.79	33563.28
519.96	33982.24
520.14	33893.30
520.31	33713.08
520.48	34316.93
520.65	34000.96
520.83	34403.53
521.00	34295.87
521.17	34532.26
521.34	34401.19
521.52	34794.40
521.69	34548.65
521.86	34759.30
522.03	34988.67
522.20	34773.34
522.38	34960.58
522.55	35117.40
522.72	34995.69
522.89	35248.47
523.07	35545.72
523.24	35400.60
523.41	35763.39
523.58	35264.85
523.75	35959.99
523.92	35372.52
524.10	35931.90
524.27	35613.59
524.44	35697.85
524.61	36037.23
524.78	36210.43
524.96	36247.88
525.13	36313.41
525.30	36257.24
525.47	35849.99
525.64	36290.01
525.81	36577.89
525.98	36605.98
526.16	36357.88
526.33	36680.88
526.50	36762.79
526.67	36498.31
526.84	36280.64
527.01	36542.78
527.18	36708.96
527.36	36652.79
527.53	36889.18
527.70	37193.45
527.87	37113.87
528.04	37301.12
528.21	37333.89
528.38	37268.35
528.55	37785.61
528.72	37038.98
528.89	37411.12
529.07	37434.53
529.24	37408.78
529.41	37762.20
529.58	37614.75
529.75	37661.56
529.92	37738.80
530.09	37780.93
530.26	38000.94
530.43	37914.34
530.60	37638.15
530.77	38157.75
530.94	37593.68
531.11	37886.25
531.28	38349.68
531.46	38494.79
531.63	38050.09
531.80	38312.23
531.97	38941.83
532.14	38115.62
532.31	38298.19
532.48	38447.98
532.65	38824.81
532.82	38359.04
532.99	38948.85
533.16	39042.48
533.33	38635.22
533.50	38646.93
533.67	39054.18
533.84	38831.83
534.01	39281.21
534.18	39222.70
534.35	39187.59
534.52	39220.36
534.69	39313.98
534.86	39468.45
535.03	39569.10
535.20	39763.36
535.37	39543.35
535.54	39613.57
535.71	39927.20
535.88	39323.34
536.05	39358.45
536.22	39721.23
536.38	39908.47
536.55	39817.19
536.72	40135.51
536.89	39997.41
537.06	40142.53
537.23	39779.74
537.40	40367.22
537.57	40690.21
537.74	39819.53
537.91	40624.68
538.08	40404.67
538.25	39789.11
538.42	39791.45
538.59	40074.65
538.75	40065.29
538.92	40561.48
539.09	40395.31
539.26	40224.45
539.43	40577.87
539.60	40615.32
539.77	40584.89
539.94	41160.66
540.11	41132.57
540.28	40720.64
540.44	40816.60
540.61	41198.11
540.78	40905.54
540.95	40732.34
541.12	40762.77
541.29	40402.33
541.46	41258.96
541.62	41542.17
541.79	41464.93
541.96	40718.30
542.13	41457.91
542.30	41532.81
542.47	41336.20
542.63	41598.34
542.80	41755.16
542.97	41940.06
543.14	42195.18
543.31	41593.66
543.48	41710.69
543.64	42660.94
543.81	41886.23
543.98	42230.29
544.15	41844.10
544.32	42256.03
544.48	42553.28
544.65	42454.98
544.82	42141.35
544.99	42050.06
545.16	42459.66
545.32	42693.71
545.49	42813.08
545.66	43103.31
545.83	42824.78
546.00	42988.62
546.16	42824.78
546.33	42663.28
546.50	42433.91
546.67	42946.49
546.83	42129.64
547.00	42487.74
547.17	42452.64
547.34	42979.26
547.50	43187.56
547.67	43430.98
547.84	43182.88
548.00	43232.04
548.17	43526.94
548.34	43393.53
548.51	43468.43
548.67	43374.81
548.84	43365.45
549.01	43805.47
549.18	43325.66
549.34	43653.33
549.51	43655.67
549.68	43625.25
549.84	43330.34
550.01	43924.83
550.18	43761.00
550.34	43690.78
550.51	43950.58
550.68	43709.50
550.84	43786.74
551.01	44107.40
551.18	43587.80
551.34	44016.11
551.51	44507.63
551.68	44182.29
551.84	44327.41
552.01	44236.12
552.18	44285.28
552.34	43906.11
552.51	44095.69
552.68	44126.12
552.84	44495.92
553.01	44502.95
553.18	43683.76
553.34	44327.41
553.51	44463.16
553.67	44257.19
553.84	44603.59
554.01	44484.22
554.17	44271.23
554.34	44472.52
554.51	44479.54
554.67	44788.49
554.84	44790.83
555.00	44381.24
555.17	44498.26
555.33	44774.45
555.50	44708.91
555.67	45003.82
555.83	44783.81
556.00	44989.78
556.16	45441.50
556.33	44783.81
556.50	45144.25
556.66	44692.53
556.83	44921.90
556.99	45546.82
557.16	45214.47
557.32	45329.16
557.49	45340.86
557.65	44591.89
557.82	45628.74
557.98	45174.68
558.15	45081.06
558.32	45301.07
558.48	45492.99
558.65	45427.46
558.81	45191.06
558.98	45263.62
559.14	44968.71
559.31	45441.50
559.47	45532.78
559.64	45567.89
559.80	45556.19
559.97	45462.57
560.13	45268.30
560.30	45584.27
560.46	45867.48
560.63	45617.04
560.79	45762.15
560.96	45794.92
561.12	45837.05
561.29	45996.21
561.45	46272.39
561.61	45661.51
561.78	45572.57
561.94	45581.93
562.11	45743.43
562.27	45670.87
562.44	45500.01
562.60	46099.19
562.77	45593.64
562.93	46028.98
563.10	45736.41
563.26	46059.40
563.42	46057.06
563.59	46141.32
563.75	46026.63
563.92	46110.89
564.08	46054.72
564.24	46047.70
564.41	46136.64
564.57	45778.54
564.74	46024.29
564.90	46012.59
565.07	46019.61
565.23	46101.53
565.39	46536.87
565.56	46274.73
565.72	46103.87
565.88	46171.75
566.05	46293.46
566.21	46204.52
566.38	46391.76
566.54	46595.38
566.70	46438.57
566.87	46366.01
567.03	46403.46
567.19	46546.23
567.36	46424.53
567.52	46586.02
567.68	46841.14
567.85	46557.94
568.01	46862.21
568.17	46204.52
568.34	46667.94
568.50	46866.89
568.66	46607.09
568.83	46696.03
568.99	46134.30
569.15	46639.86
569.32	46876.25
569.48	46625.81
569.64	46878.59
569.81	46841.14
569.97	46485.38
570.13	46829.44
570.30	46595.38
570.46	46770.93
570.62	46466.66
570.78	47044.77
570.95	46431.55
571.11	47098.60
571.27	46630.49
571.43	46698.37
571.60	46408.14
571.76	46501.76
571.92	47035.41
572.09	46557.94
572.25	46660.92
572.41	46656.24
572.57	47131.37
572.74	47145.41
572.90	46923.06
573.06	47337.33
573.22	47222.65
573.38	47330.31
573.55	46878.59
573.71	47323.29
573.87	47339.68
574.03	46852.84
574.20	47370.10
574.36	47070.51
574.52	46979.23
574.68	47093.92
574.84	47327.97
575.01	47437.98
575.17	47047.11
575.33	47260.10
575.49	47180.52
575.65	47042.43
575.82	47281.16
575.98	46684.33
576.14	47725.86
576.30	47557.35
576.46	47175.84
576.62	47578.41
576.79	47012.00
576.95	46941.78
577.11	46417.50
577.27	47075.19
577.43	47012.00
577.59	47320.95
577.75	46934.76
577.92	47082.22
578.08	47255.42
578.24	47126.69
578.40	47414.57
578.56	47360.74
578.72	47187.54
578.88	47433.30
579.04	47419.25
579.21	47302.23
579.37	47260.10
579.53	47405.21
579.69	46916.04
579.85	47571.39
580.01	47299.89
580.17	47283.50
580.33	47421.59
580.49	47196.90
580.65	47257.76
580.82	47353.72
580.98	47061.15
581.14	46887.95
581.30	47358.40
581.46	47105.62
581.62	47257.76
581.78	47271.80
581.94	47236.69
582.10	47393.51
582.26	47241.37
582.42	47512.88
582.58	47510.53
582.74	47356.06
582.90	46960.51
583.06	47562.03
583.22	47615.86
583.38	47508.19
583.54	47657.99
583.70	47459.04
583.86	47526.92
584.02	47175.84
584.18	47604.16
584.34	47353.72
584.50	47732.89
584.66	47702.46
584.82	47760.97
584.98	47496.49
585.14	47810.12
585.30	47000.30
585.46	47435.64
585.62	47496.49
585.78	47711.82
585.94	47246.05
586.10	47641.60
586.26	47536.28
586.42	47578.41
586.58	47746.93
586.74	47491.81
586.90	47529.26
587.06	47657.99
587.22	47718.84
587.38	47334.99
587.54	47552.66
587.70	47686.07
587.86	47969.28
588.02	47089.24
588.18	47756.29
588.34	47494.15
588.49	47592.45
588.65	47398.19
588.81	47693.10
588.97	47765.65
589.13	47327.97
589.29	47611.18
589.45	47697.78
589.61	47807.78
589.77	48224.40
589.93	47449.68
590.08	47969.28
