SpectraSuite Data File
++++++++++++++++++++++++++++++++++++
Date: Fri Oct 25 11:22:57 EDT 2013
User: price-jones
Dark Spectrum Present: No
Reference Spectrum Present: No
Number of Sampled Component Spectra: 1
Spectrometers: USB2+H05261
Integration Time (usec): 100000 (USB2+H05261)
Spectra Averaged: 1 (USB2+H05261)
Boxcar Smoothing: 0 (USB2+H05261)
Correct for Electrical Dark: No (USB2+H05261)
Strobe/Lamp Enabled: No (USB2+H05261)
Correct for Detector Non-linearity: No (USB2+H05261)
Correct for Stray Light: No (USB2+H05261)
Number of Pixels in Processed Spectrum: 2048
>>>>>Begin Processed Spectral Data<<<<<
365.73	231.71
365.92	231.71
366.12	231.71
366.32	140.43
366.52	149.79
366.72	154.48
366.91	196.60
367.11	107.66
367.31	60.85
367.51	70.22
367.70	145.11
367.90	161.50
368.10	124.05
368.30	112.35
368.49	100.64
368.69	173.20
368.89	191.92
369.09	98.30
369.28	177.88
369.48	107.66
369.68	208.31
369.87	227.03
370.07	168.52
370.27	191.92
370.47	269.16
370.66	613.22
370.86	606.20
371.06	660.03
371.25	683.44
371.45	629.60
371.65	671.73
371.84	692.80
372.04	645.99
372.24	767.70
372.44	674.07
372.63	716.20
372.83	737.27
373.03	662.37
373.22	704.50
373.42	676.41
373.62	758.33
373.81	777.06
374.01	795.78
374.21	821.53
374.40	772.38
374.60	814.51
374.79	802.80
374.99	821.53
375.19	802.80
375.38	812.17
375.58	840.25
375.78	882.38
375.97	727.91
376.17	814.51
376.37	849.61
376.56	837.91
376.76	873.02
376.95	887.06
377.15	891.74
377.35	952.60
377.54	924.51
377.74	898.77
377.93	889.40
378.13	1022.81
378.33	938.55
378.52	947.92
378.72	884.72
378.91	889.40
379.11	940.90
379.31	887.06
379.50	1008.77
379.70	959.62
379.89	882.38
380.09	966.64
380.28	887.06
380.48	950.26
380.68	945.58
380.87	1057.92
381.07	1083.67
381.26	1004.09
381.46	1013.45
381.65	1095.37
381.85	1083.67
382.04	1041.54
382.24	1111.75
382.43	1015.79
382.63	1076.65
382.83	1128.14
383.02	1146.86
383.22	1151.54
383.41	1179.63
383.61	1146.86
383.80	1095.37
384.00	1039.20
384.19	1172.61
384.39	1130.48
384.58	1027.50
384.78	1160.91
384.97	1170.27
385.17	1151.54
385.36	1102.39
385.56	1102.39
385.75	1118.78
385.95	1156.22
386.14	1177.29
386.34	1153.88
386.53	1200.69
386.72	1125.80
386.92	1186.65
387.11	1289.64
387.31	1334.11
387.50	1266.23
387.70	1303.68
387.89	1259.21
388.09	1289.64
388.28	1228.78
388.48	1231.12
388.67	1350.49
388.86	1352.83
389.06	1299.00
389.25	1296.66
389.45	1418.36
389.64	1301.34
389.84	1390.28
390.03	1364.53
390.22	1387.94
390.42	1350.49
390.61	1416.02
390.81	1434.75
391.00	1418.36
391.19	1406.66
391.39	1427.73
391.58	1416.02
391.78	1481.56
391.97	1476.88
392.16	1451.13
392.36	1600.93
392.55	1600.93
392.75	1495.60
392.94	1526.03
393.13	1530.71
393.33	1472.20
393.52	1558.80
393.71	1664.12
393.91	1673.48
394.10	1584.54
394.29	1675.82
394.49	1528.37
394.68	1722.63
394.88	1565.82
395.07	1682.85
395.26	1692.21
395.46	1706.25
395.65	1724.97
395.84	1762.42
396.04	1755.40
396.23	1769.44
396.42	1776.47
396.62	1792.85
396.81	1778.81
397.00	1706.25
397.19	1856.04
397.39	1755.40
397.58	1884.13
397.77	1872.43
397.97	1891.15
398.16	1853.70
398.35	1856.04
398.55	1933.28
398.74	1891.15
398.93	1888.81
399.12	1970.73
399.32	1935.62
399.51	1895.83
399.70	1961.37
399.90	1909.88
400.09	1961.37
400.28	2108.82
400.47	1937.96
400.67	2066.69
400.86	2005.84
401.05	2111.16
401.24	2052.65
401.44	2097.12
401.63	2165.00
401.82	2120.53
402.01	2218.83
402.21	2031.58
402.40	2176.70
402.59	2214.15
402.78	2186.06
402.97	2284.36
403.17	2279.68
403.36	2319.47
403.55	2218.83
403.74	2455.22
403.93	2305.43
404.13	2420.11
404.32	2267.98
404.51	2396.71
404.70	2406.07
404.89	2476.29
405.09	2480.97
405.28	2513.74
405.47	2509.05
405.66	2523.10
405.85	2562.89
406.05	2476.29
406.24	2525.44
406.43	2511.39
406.62	2626.08
406.81	2675.23
407.00	2562.89
407.20	2621.40
407.39	2597.99
407.58	2630.76
407.77	2747.79
407.96	2808.64
408.15	2750.13
408.34	2647.15
408.54	2820.35
408.73	2785.24
408.92	2743.11
409.11	2841.41
409.30	2895.24
409.49	2911.63
409.68	2836.73
409.87	2963.12
410.07	3016.95
410.26	3000.57
410.45	2972.48
410.64	3084.83
410.83	3253.34
411.02	3061.42
411.21	3105.89
411.40	3145.68
411.59	3265.05
411.78	3180.79
411.98	3267.39
412.17	3279.09
412.36	3335.26
412.55	3269.73
412.74	3445.27
412.93	3449.95
413.12	3342.28
413.31	3620.81
413.50	3552.93
413.69	3562.30
413.88	3569.32
414.07	3557.61
414.26	3506.12
414.45	3740.18
414.64	3779.97
414.83	3796.35
415.02	3786.99
415.22	3808.05
415.41	3831.46
415.60	3941.46
415.79	3829.12
415.98	3969.55
416.17	3990.61
416.36	3950.82
416.55	3976.57
416.74	4032.74
416.93	4117.00
417.12	4208.28
417.31	4175.52
417.50	4152.11
417.69	4283.18
417.88	4313.61
418.07	4294.88
418.26	4266.80
418.45	4393.19
418.64	4458.72
418.83	4442.34
419.02	4507.87
419.21	4533.62
419.39	4557.02
419.58	4559.36
419.77	4386.16
419.96	4683.41
420.15	4657.67
420.34	4561.70
420.53	4821.50
420.72	4702.14
420.91	4847.25
421.10	4873.00
421.29	4627.24
421.48	4702.14
421.67	4868.31
421.86	4695.11
422.05	4861.29
422.24	4882.36
422.43	4880.02
422.61	4947.89
422.80	4922.15
422.99	5085.98
423.18	4966.62
423.37	4990.02
423.56	4961.94
423.75	5029.81
423.94	4814.48
424.13	4669.37
424.32	4837.89
424.50	4994.70
424.69	5245.14
424.88	5029.81
425.07	5029.81
425.26	5102.37
425.45	4983.00
425.64	4952.57
425.83	5071.94
426.01	5064.92
426.20	5050.88
426.39	5020.45
426.58	5088.32
426.77	5123.43
426.96	5158.54
427.15	5027.47
427.33	5224.08
427.52	5114.07
427.71	5275.57
427.90	5055.56
428.09	5348.12
428.28	5327.06
428.46	5357.49
428.65	5362.17
428.84	5497.92
429.03	5640.69
429.22	5345.78
429.40	5579.84
429.59	5526.00
429.78	5364.51
429.97	5170.24
430.16	5586.86
430.34	5743.67
430.53	5570.48
430.72	6022.20
430.91	5837.30
431.10	5729.63
431.28	5750.70
431.47	5905.17
431.66	5874.74
431.85	5888.79
432.03	6057.31
432.22	5982.41
432.41	5930.92
432.60	5858.36
432.79	5940.28
432.97	6209.44
433.16	6085.39
433.35	6155.61
433.54	6092.41
433.72	6186.04
433.91	6052.63
434.10	6164.97
434.28	6043.26
434.47	6267.95
434.66	6249.23
434.85	6200.08
435.03	6417.75
435.22	6223.48
435.41	6406.05
435.59	6490.31
435.78	6541.80
435.97	6548.82
436.16	6506.69
436.34	6513.71
436.53	6612.01
436.72	6691.59
436.90	6363.92
437.09	6745.42
437.28	6612.01
437.46	6710.32
437.65	6670.53
437.84	6803.94
438.02	6693.93
438.21	6698.61
438.40	6736.06
438.58	7108.21
438.77	7087.14
438.96	6906.92
439.14	7302.47
439.33	7353.96
439.52	7321.20
439.70	7250.98
439.89	7456.95
440.08	7398.43
440.26	7358.64
440.45	7325.88
440.63	7604.40
440.82	7648.87
441.01	7552.91
441.19	7515.46
441.38	7648.87
441.57	7737.81
441.75	8011.65
441.94	8049.10
442.12	7889.95
442.31	8013.99
442.50	8004.63
442.68	8138.04
442.87	8177.83
443.05	8468.06
443.24	8273.79
443.43	8222.30
443.61	8301.88
443.80	8477.42
443.98	8147.40
444.17	7805.69
444.35	8280.82
444.54	8472.74
444.73	8334.65
444.91	8290.18
445.10	8456.36
445.28	8557.00
445.47	8325.29
445.65	8341.67
445.84	8437.63
446.02	8575.72
446.21	8617.85
446.39	8475.08
446.58	8655.30
446.77	8533.59
446.95	8400.18
447.14	8376.78
447.32	8617.85
447.51	8498.49
447.69	8477.42
447.88	8505.51
448.06	8585.08
448.25	8664.66
448.43	8599.13
448.62	8702.11
448.80	8671.68
448.99	8636.58
449.17	8760.63
449.36	8557.00
449.54	8919.78
449.73	8961.91
449.91	9085.96
450.10	8966.59
450.28	9144.47
450.46	9233.41
450.65	9111.71
450.83	9252.14
451.02	9109.36
451.20	9315.33
451.39	9224.05
451.57	9273.20
451.76	9172.56
451.94	9081.28
452.13	9259.16
452.31	9350.44
452.49	9254.48
452.68	9121.07
452.86	9654.71
453.05	9453.42
453.23	9427.68
453.42	9418.32
453.60	9291.93
453.78	9584.49
453.97	9427.68
454.15	9509.60
454.34	9500.23
454.52	9748.33
454.70	9619.60
454.89	10008.13
455.07	9865.36
455.26	9841.95
455.44	10085.37
455.62	9937.91
455.81	10068.98
455.99	9982.38
456.17	10118.14
456.36	10143.88
456.54	10162.61
456.73	10281.97
456.91	10595.61
457.09	10576.88
457.28	10635.39
457.46	10434.11
457.64	10710.29
457.83	10424.75
458.01	10328.78
458.19	10665.82
458.38	10626.03
458.56	10916.26
458.74	10806.25
458.93	10707.95
459.11	10934.98
459.29	11012.22
459.48	10827.32
459.66	10775.83
459.84	11047.33
460.03	11164.36
460.21	11082.44
460.39	11077.76
460.57	10942.00
460.76	11288.40
460.94	11199.46
461.12	11396.07
461.31	11138.61
461.49	11239.25
461.67	11166.70
461.85	11599.70
462.04	11372.66
462.22	11550.54
462.40	11669.91
462.59	11503.73
462.77	11470.97
462.95	11744.81
463.13	11892.26
463.32	11800.98
463.50	11595.01
463.68	12023.33
463.86	11887.58
464.05	11798.64
464.23	11763.53
464.41	11854.81
464.59	11779.92
464.78	12222.28
464.96	11871.20
465.14	11896.94
465.32	12070.14
465.50	12231.64
465.69	12194.19
465.87	12252.70
466.05	12217.60
466.23	12208.23
466.41	12379.09
466.60	12776.98
466.78	12252.70
466.96	12407.18
467.14	12278.45
467.32	12737.20
467.51	12545.27
467.69	12414.20
467.87	12627.19
468.05	12552.29
468.23	12564.00
468.41	12507.82
468.60	12589.74
468.78	12704.43
468.96	12493.78
469.14	12943.16
469.32	13085.94
469.50	12872.95
469.69	13062.53
469.87	13303.60
470.05	13123.38
470.23	13184.24
470.41	13308.29
470.59	13444.04
470.77	13202.96
470.95	13385.52
471.14	13790.44
471.32	13172.54
471.50	13610.22
471.68	13792.78
471.86	13792.78
472.04	13724.90
472.22	14120.45
472.40	14003.43
472.58	13834.91
472.77	13914.48
472.95	14122.79
473.13	14923.26
473.31	13989.38
473.49	14307.69
473.67	14197.69
473.85	14394.29
474.03	14724.31
474.21	14731.33
474.39	14860.06
474.57	14817.93
474.75	15103.48
474.93	15307.10
475.12	15124.54
475.30	15084.75
475.48	15115.18
475.66	15094.11
475.84	14981.77
476.02	15564.56
476.20	15421.79
476.38	15789.25
476.56	16063.10
476.74	15885.22
476.92	16339.28
477.10	16203.53
477.28	16325.24
477.46	16334.60
477.64	16613.12
477.82	16634.19
478.00	17486.14
478.18	16823.77
478.36	16961.86
478.54	16992.29
478.72	17249.75
478.90	17397.20
479.08	17657.00
479.26	18082.98
479.44	17792.75
479.62	17820.84
479.80	18347.46
479.98	18176.60
480.16	18860.04
480.34	18506.62
480.52	18689.18
480.70	18724.29
480.88	18574.49
481.06	18932.59
481.24	18848.33
481.41	19208.78
481.59	19491.98
481.77	19559.86
481.95	20105.20
482.13	19997.54
482.31	19679.22
482.49	20421.17
482.67	20416.49
482.85	20512.46
483.03	20774.60
483.21	20896.30
483.39	20795.66
483.57	21453.35
483.74	21333.98
483.92	21509.52
484.10	21266.11
484.28	21715.49
484.46	22012.74
484.64	22340.41
484.82	22340.41
485.00	22597.87
485.18	22834.27
485.35	23164.28
485.53	23105.77
485.71	23108.11
485.89	23543.45
486.07	23386.63
486.25	23250.88
486.43	23833.68
486.61	24144.97
486.78	24297.10
486.96	24608.39
487.14	24823.72
487.32	24741.80
487.50	25010.96
487.68	25254.38
487.85	25617.16
488.03	25575.03
488.21	26036.12
488.39	25907.39
488.57	26368.48
488.75	26649.34
488.92	26817.86
489.10	26803.82
489.28	26850.63
489.46	27058.93
489.64	27360.86
489.81	27697.90
489.99	28013.87
490.17	28053.66
490.35	28278.35
490.53	28521.77
490.70	28191.75
490.88	28582.62
491.06	28907.96
491.24	29022.64
491.41	29544.58
491.59	29539.90
491.77	29427.56
491.95	29933.11
492.13	30015.03
492.30	29986.94
492.48	30256.11
492.66	30625.91
492.84	30560.37
493.01	30635.27
493.19	30934.86
493.37	31409.99
493.54	31681.49
493.72	31798.52
493.90	31583.19
494.08	31646.38
494.25	32046.62
494.43	32608.34
494.61	32278.33
494.79	32870.48
494.96	32811.97
495.14	33156.03
495.32	33663.93
495.49	33418.17
495.67	33034.32
495.85	33816.06
496.02	33556.26
496.20	34422.26
496.38	34136.71
496.55	34471.41
496.73	35164.21
496.91	34642.27
497.09	35173.57
497.26	35466.14
497.44	35246.13
497.62	35632.32
497.79	36016.16
497.97	35887.43
498.14	36430.44
498.32	36711.30
498.50	36149.57
498.67	36809.61
498.85	36975.78
499.03	36910.25
499.20	37076.43
499.38	37383.04
499.56	37141.96
499.73	37532.83
499.91	37832.42
500.08	38230.31
500.26	37556.24
500.44	38316.91
500.61	37794.97
500.79	37823.06
500.97	38267.76
501.14	38817.78
501.32	38782.68
501.49	38703.10
501.67	39435.69
501.84	39126.74
502.02	39372.49
502.20	39302.28
502.37	39856.98
502.55	39559.73
502.72	39562.08
502.90	40198.70
503.07	39955.29
503.25	40240.83
503.43	40168.27
503.60	40477.22
503.78	40648.08
503.95	40257.21
504.13	40486.59
504.30	40849.37
504.48	40971.08
504.65	40687.87
504.83	41603.02
505.01	41652.17
505.18	41567.91
505.36	41743.45
505.53	41537.49
505.71	41893.25
505.88	42380.08
506.06	41703.67
506.23	42281.78
506.41	42113.26
506.58	42405.83
506.76	42377.74
506.93	42803.72
507.11	42836.48
507.28	43297.57
507.46	43194.59
507.63	43131.39
507.81	43604.18
507.98	43356.08
508.16	43838.23
508.33	43428.64
508.50	43840.57
508.68	44074.63
508.85	44179.95
509.03	43810.15
509.20	44538.05
509.38	44533.37
509.55	44725.30
509.73	44926.58
509.90	44896.16
510.08	45113.83
510.25	44863.39
510.42	45317.45
510.60	45385.33
510.77	45212.13
510.95	45551.51
511.12	45483.63
511.30	44980.42
511.47	45750.45
511.64	45624.06
511.82	46288.77
511.99	46038.34
512.17	46143.66
512.34	46003.23
512.51	46745.18
512.69	46721.77
512.86	46387.08
513.04	47072.85
513.21	46777.95
513.38	47124.35
513.56	47281.16
513.73	47381.80
513.90	47393.51
514.08	47187.54
514.25	47669.69
514.43	47791.40
514.60	47550.32
514.77	47793.74
514.95	48037.16
515.12	48121.41
515.29	48081.63
515.47	48437.39
515.64	48381.21
515.81	47824.17
515.99	48446.75
516.16	48582.50
516.33	48800.17
516.51	48940.60
516.68	49034.22
516.85	48685.48
517.03	49078.69
517.20	48966.35
517.37	48935.92
517.54	49024.86
517.72	49464.88
517.89	49329.13
518.06	49750.43
518.24	49701.28
518.41	49591.27
518.58	49890.86
518.75	49558.50
518.93	50064.06
519.10	49729.36
519.27	50197.47
519.45	50520.46
519.62	50412.80
519.79	50153.00
519.96	50380.03
520.14	50445.57
520.31	50560.25
520.48	50724.09
520.65	50394.07
520.83	51065.81
521.00	51189.86
521.17	50726.43
521.34	50920.70
521.52	50960.48
521.69	50733.45
521.86	51351.35
522.03	51498.81
522.20	51697.75
522.38	51693.07
522.55	51440.29
522.72	51679.03
522.89	51784.35
523.07	51903.72
523.24	51653.28
523.41	52074.58
523.58	51910.74
523.75	52273.52
523.92	52495.88
524.10	52371.83
524.27	52512.26
524.44	52402.25
524.61	52509.92
524.78	52568.43
524.96	52552.05
525.13	52418.64
525.30	52669.08
525.47	52982.71
525.64	52863.34
525.81	52790.78
525.98	52910.15
526.16	53118.46
526.33	53076.33
526.50	53413.37
526.67	53006.11
526.84	53350.17
527.01	53207.40
527.18	53371.24
527.36	53511.67
527.53	53132.50
527.70	53687.21
527.87	53361.87
528.04	53357.19
528.21	53654.44
528.38	53668.48
528.55	53872.11
528.72	53413.37
528.89	53794.87
529.07	53560.82
529.24	53766.79
529.41	54286.39
529.58	53806.58
529.75	53626.35
529.92	54052.33
530.09	53825.30
530.26	54157.66
530.43	54202.13
530.60	53963.39
530.77	53834.66
530.94	54450.22
531.11	54358.94
531.28	54150.63
531.46	54403.41
531.63	54630.44
531.80	54752.15
531.97	54667.89
532.14	54443.20
532.31	54677.25
532.48	54780.24
532.65	54672.57
532.82	54604.70
532.99	54817.69
533.16	54913.65
533.33	54990.89
533.50	54974.50
533.67	54899.61
533.84	54791.94
534.01	54930.03
534.18	55182.81
534.35	55545.59
534.52	55529.21
534.69	55526.87
534.86	55412.18
535.03	55325.58
535.20	55480.06
535.37	55676.66
535.54	55522.19
535.71	55606.45
535.88	55746.88
536.05	55320.90
536.22	55639.22
536.38	55814.76
536.55	55896.67
536.72	55969.23
536.89	55875.61
537.06	56004.34
537.23	56210.31
537.40	55796.03
537.57	56053.49
537.74	55994.98
537.91	55924.76
538.08	56350.74
538.25	55856.88
538.42	56112.00
538.59	56292.22
538.75	56231.37
538.92	56329.67
539.09	56540.32
539.26	56385.85
539.43	56210.31
539.60	56334.35
539.77	56133.07
539.94	56697.14
540.11	56584.79
540.28	56570.75
540.44	56584.79
540.61	56678.41
540.78	56776.72
540.95	56734.59
541.12	56535.64
541.29	56643.30
541.46	56746.29
541.62	56945.23
541.79	56905.44
541.96	56619.90
542.13	56851.61
542.30	56823.53
542.47	57106.73
542.63	57305.68
542.80	57097.37
542.97	57366.53
543.14	57315.04
543.31	57343.12
543.48	57539.73
543.64	57366.53
543.81	57511.64
543.98	57401.64
544.15	57766.76
544.32	57591.22
544.48	57932.94
544.65	57614.63
544.82	57567.82
544.99	57333.76
545.16	57687.18
545.32	57591.22
545.49	57733.99
545.66	57942.30
545.83	57811.23
546.00	58033.58
546.16	57738.68
546.33	57703.57
546.50	57549.09
546.67	58005.50
546.83	57645.05
547.00	58089.76
547.17	57965.71
547.34	58096.78
547.50	58108.48
547.67	58342.53
547.84	58248.91
548.00	58363.60
548.17	58546.16
548.34	58138.91
548.51	58122.52
548.67	58581.27
548.84	58431.47
549.01	58291.04
549.18	58351.90
549.34	58436.16
549.51	58482.97
549.68	58457.22
549.84	58625.74
550.01	58731.06
550.18	58478.28
550.34	58539.14
550.51	58599.99
550.68	58691.27
550.84	58403.39
551.01	58745.11
551.18	58869.15
551.34	58850.43
551.51	58578.93
551.68	58906.60
551.84	58794.26
552.01	58529.78
552.18	58946.39
552.34	58724.04
552.51	58892.56
552.68	58773.19
552.84	58997.88
553.01	59313.86
553.18	58810.64
553.34	59014.27
553.51	58864.47
553.67	58810.64
553.84	59189.81
554.01	59201.51
554.17	59161.72
554.34	59096.19
554.51	59224.92
554.67	59384.07
554.84	59114.91
555.00	59009.59
555.17	59051.72
555.33	59388.75
555.50	59253.00
555.67	59267.05
555.83	59131.29
556.00	59339.60
556.16	59580.68
556.33	59585.36
556.50	59634.51
556.66	59473.01
556.83	59215.55
556.99	59543.23
557.16	59543.23
557.32	59777.28
557.49	59742.17
557.65	59393.43
557.82	59557.27
557.98	59465.99
558.15	59559.61
558.32	59863.88
558.48	59568.97
558.65	59650.89
558.81	59697.70
558.98	59948.14
559.14	59737.49
559.31	59866.22
559.47	59849.84
559.64	60016.02
559.80	59840.48
559.97	59976.23
560.13	59784.30
560.30	59821.75
560.46	59922.40
560.63	59966.87
560.79	60018.36
560.96	60154.11
561.12	60154.11
561.29	59978.57
561.45	60074.53
561.61	59934.10
561.78	60053.47
561.94	60165.81
562.11	60055.81
562.27	60086.23
562.44	60179.85
562.60	60390.50
562.77	60086.23
562.93	60093.25
563.10	60060.49
563.26	60198.58
563.42	60376.46
563.59	60306.24
563.75	60331.99
563.92	60367.10
564.08	60282.84
564.24	60229.01
564.41	60329.65
564.57	60289.86
564.74	60362.42
564.90	60409.23
565.07	60294.54
565.23	60093.25
565.39	60320.29
565.56	60500.51
565.72	60364.76
565.88	60552.00
566.05	60299.22
566.21	60514.55
566.38	60217.30
566.54	60348.37
566.70	60451.36
566.87	60654.98
567.03	60273.48
567.19	60786.05
567.36	60612.85
567.52	60477.10
567.68	60697.11
567.85	60566.04
568.01	60757.97
568.17	60589.45
568.34	60451.36
568.50	60596.47
568.66	60430.29
568.83	60486.46
568.99	60542.64
569.15	60617.53
569.32	60669.03
569.48	60594.13
569.64	60685.41
569.81	60671.37
569.97	60591.79
570.13	60837.54
570.30	60652.64
570.46	60704.13
570.62	60788.39
570.78	60547.32
570.95	60645.62
571.11	60882.02
571.27	60563.70
571.43	60865.63
571.60	60952.23
571.76	60807.12
571.92	60928.83
572.09	60830.52
572.25	60774.35
572.41	60732.22
572.57	60921.80
572.74	60863.29
572.90	60729.88
573.06	60797.76
573.22	60788.39
573.38	60764.99
573.55	60949.89
573.71	61045.85
573.87	60788.39
574.03	60587.11
574.20	60654.98
574.36	60750.94
574.52	60891.38
574.68	61034.15
574.84	60942.87
575.01	60722.86
575.17	61034.15
575.33	60851.59
575.49	61001.38
575.65	61066.92
575.82	61038.83
575.98	60889.04
576.14	61176.92
576.30	60903.08
576.46	60828.18
576.62	60865.63
576.79	60966.27
576.95	60786.05
577.11	61017.77
577.27	61048.19
577.43	60933.51
577.59	60945.21
577.75	60961.59
577.92	60874.99
578.08	61013.08
578.24	61045.85
578.40	61158.20
578.56	61106.71
578.72	61020.11
578.88	61200.33
579.04	61146.50
579.21	60985.00
579.37	61193.31
579.53	61099.68
579.69	60933.51
579.85	61118.41
580.01	61116.07
580.17	60839.89
580.33	60942.87
580.49	61158.20
580.65	61095.00
580.82	60910.10
580.98	61027.13
581.14	60851.59
581.30	61174.58
581.46	60996.70
581.62	61310.33
581.78	61176.92
581.94	61207.35
582.10	61087.98
582.26	61289.27
582.42	60980.32
582.58	61120.75
582.74	61209.69
582.90	60949.89
583.06	61057.56
583.22	61017.77
583.38	61181.60
583.54	61045.85
583.70	61272.88
583.86	61202.67
584.02	61200.33
584.18	61352.46
584.34	61205.01
584.50	61242.46
584.66	60938.19
584.82	60856.27
584.98	61317.35
585.14	61188.63
585.30	61069.26
585.46	61261.18
585.62	61249.48
585.78	61441.40
585.94	61008.40
586.10	61141.81
586.26	61197.99
586.42	61221.39
586.58	61350.12
586.74	61183.94
586.90	61286.93
587.06	61118.41
587.22	61457.79
587.38	61167.56
587.54	61448.42
587.70	61504.60
587.86	61263.52
588.02	61293.95
588.18	61502.26
588.34	61209.69
