SpectraSuite Data File
++++++++++++++++++++++++++++++++++++
Date: Fri Oct 25 11:25:53 EDT 2013
User: price-jones
Dark Spectrum Present: No
Reference Spectrum Present: No
Number of Sampled Component Spectra: 1
Spectrometers: USB2+H05261
Integration Time (usec): 100000 (USB2+H05261)
Spectra Averaged: 1 (USB2+H05261)
Boxcar Smoothing: 0 (USB2+H05261)
Correct for Electrical Dark: No (USB2+H05261)
Strobe/Lamp Enabled: No (USB2+H05261)
Correct for Detector Non-linearity: No (USB2+H05261)
Correct for Stray Light: No (USB2+H05261)
Number of Pixels in Processed Spectrum: 2048
>>>>>Begin Processed Spectral Data<<<<<
365.73	222.35
365.92	222.35
366.12	222.35
366.32	177.88
366.52	224.69
366.72	131.07
366.91	191.92
367.11	126.39
367.31	95.96
367.51	149.79
367.70	88.94
367.90	121.71
368.10	67.88
368.30	175.54
368.49	159.16
368.69	147.45
368.89	154.48
369.09	191.92
369.28	138.09
369.48	163.84
369.68	222.35
369.87	105.32
370.07	224.69
370.27	248.10
370.47	315.97
370.66	610.88
370.86	589.82
371.06	629.60
371.25	748.97
371.45	638.97
371.65	734.93
371.84	671.73
372.04	718.54
372.24	727.91
372.44	690.46
372.63	692.80
372.83	699.82
373.03	744.29
373.22	828.55
373.42	784.08
373.62	748.97
373.81	767.70
374.01	863.66
374.21	748.97
374.40	777.06
374.60	905.79
374.79	840.25
374.99	737.27
375.19	819.19
375.38	793.44
375.58	837.91
375.78	915.15
375.97	905.79
376.17	870.68
376.37	851.96
376.56	795.78
376.76	901.11
376.95	873.02
377.15	861.32
377.35	856.64
377.54	940.90
377.74	856.64
377.93	903.45
378.13	903.45
378.33	938.55
378.52	976.00
378.72	926.85
378.91	889.40
379.11	950.26
379.31	1109.41
379.50	868.34
379.70	950.26
379.89	1041.54
380.09	994.73
380.28	1004.09
380.48	1034.52
380.68	1013.45
380.87	983.02
381.07	952.60
381.26	966.64
381.46	1013.45
381.65	1048.56
381.85	1001.75
382.04	1074.31
382.24	1048.56
382.43	1020.47
382.63	1142.18
382.83	1048.56
383.02	980.68
383.22	1043.88
383.41	1121.12
383.61	1158.57
383.80	1165.59
384.00	1240.48
384.19	1139.84
384.39	1172.61
384.58	1125.80
384.78	1121.12
384.97	1242.82
385.17	1172.61
385.36	1217.08
385.56	1153.88
385.75	1163.25
385.95	1207.72
386.14	1160.91
386.34	1174.95
386.53	1196.01
386.72	1256.87
386.92	1128.14
387.11	1231.12
387.31	1205.38
387.50	1284.95
387.70	1259.21
387.89	1256.87
388.09	1348.15
388.28	1287.29
388.48	1294.32
388.67	1329.42
388.86	1313.04
389.06	1277.93
389.25	1350.49
389.45	1355.17
389.64	1327.08
389.84	1364.53
390.03	1273.25
390.22	1378.58
390.42	1416.02
390.61	1338.79
390.81	1380.92
391.00	1469.86
391.19	1530.71
391.39	1380.92
391.58	1434.75
391.78	1497.94
391.97	1495.60
392.16	1535.39
392.36	1584.54
392.55	1465.18
392.75	1500.28
392.94	1495.60
393.13	1556.46
393.33	1479.22
393.52	1488.58
393.71	1516.67
393.91	1633.69
394.10	1607.95
394.29	1591.56
394.49	1650.08
394.68	1652.42
394.88	1703.91
395.07	1654.76
395.26	1596.25
395.46	1621.99
395.65	1689.87
395.84	1619.65
396.04	1736.68
396.23	1715.61
396.42	1708.59
396.62	1820.94
396.81	1720.29
397.00	1739.02
397.19	1764.76
397.39	1834.98
397.58	1736.68
397.77	1748.38
397.97	1785.83
398.16	1837.32
398.35	1959.03
398.55	1893.49
398.74	1998.82
398.93	1998.82
399.12	1900.52
399.32	1980.09
399.51	1844.34
399.70	2120.53
399.90	1994.14
400.09	1919.24
400.28	2036.27
400.47	2111.16
400.67	2047.97
400.86	2052.65
401.05	2136.91
401.24	2101.80
401.44	2169.68
401.63	2132.23
401.82	2211.81
402.01	2094.78
402.21	2115.84
402.40	2202.44
402.59	2146.27
402.78	2183.72
402.97	2286.70
403.17	2225.85
403.36	2298.41
403.55	2279.68
403.74	2179.04
403.93	2284.36
404.13	2359.26
404.32	2466.92
404.51	2356.92
404.70	2429.48
404.89	2317.13
405.09	2476.29
405.28	2441.18
405.47	2497.35
405.66	2523.10
405.85	2499.69
406.05	2548.84
406.24	2539.48
406.43	2551.18
406.62	2651.83
406.81	2719.70
407.00	2555.86
407.20	2619.06
407.39	2595.65
407.58	2822.69
407.77	2794.60
407.96	2775.88
408.15	2808.64
408.34	2792.26
408.54	2754.81
408.73	2752.47
408.92	2834.39
409.11	2871.84
409.30	2834.39
409.49	2965.46
409.68	2923.33
409.87	2909.29
410.07	3054.40
410.26	2916.31
410.45	3021.63
410.64	3000.57
410.83	3068.44
411.02	3073.12
411.21	3159.72
411.40	3026.31
411.59	3211.22
411.78	3162.06
411.98	3112.91
412.17	3375.05
412.36	3286.11
412.55	3361.01
412.74	3426.54
412.93	3365.69
413.12	3452.29
413.31	3585.70
413.50	3471.01
413.69	3515.48
413.88	3625.49
414.07	3665.28
414.26	3606.77
414.45	3562.30
414.64	3737.84
414.83	3705.07
415.02	3728.47
415.22	3908.69
415.41	3798.69
415.60	3880.61
415.79	3843.16
415.98	3936.78
416.17	4098.28
416.36	3995.29
416.55	4032.74
416.74	4112.32
416.93	4119.34
417.12	4142.75
417.31	4187.22
417.50	4234.03
417.69	4306.59
417.88	4255.09
418.07	4325.31
418.26	4250.41
418.45	4280.84
418.64	4409.57
418.83	4482.13
419.02	4383.82
419.21	4463.40
419.39	4477.44
419.58	4475.10
419.77	4510.21
419.96	4489.15
420.15	4493.83
420.34	4376.80
420.53	4683.41
420.72	4847.25
420.91	4613.20
421.10	4688.09
421.29	4772.35
421.48	4596.81
421.67	4732.56
421.86	4697.46
422.05	4849.59
422.24	4760.65
422.43	4870.65
422.61	4863.63
422.80	4952.57
422.99	4851.93
423.18	4966.62
423.37	5018.11
423.56	4922.15
423.75	4903.42
423.94	4875.34
424.13	4507.87
424.32	4716.18
424.50	5081.30
424.69	5029.81
424.88	5057.90
425.07	5078.96
425.26	4922.15
425.45	5041.51
425.64	5018.11
425.83	4945.55
426.01	4994.70
426.20	4933.85
426.39	5032.15
426.58	5083.64
426.77	4999.38
426.96	4884.70
427.15	5123.43
427.33	5184.29
427.52	5142.16
427.71	5144.50
427.90	5277.91
428.09	5324.72
428.28	5296.63
428.46	5252.16
428.65	5420.68
428.84	5507.28
429.03	5556.43
429.22	5423.02
429.40	5418.34
429.59	5434.72
429.78	5338.76
429.97	5282.59
430.16	5448.77
430.34	5708.57
430.53	5654.73
430.72	5596.22
430.91	5764.74
431.10	5547.07
431.28	5706.23
431.47	5664.10
431.66	5764.74
431.85	5846.66
432.03	5785.80
432.22	6129.86
432.41	5795.17
432.60	6083.05
432.79	5926.24
432.97	6057.31
433.16	6087.73
433.35	5998.79
433.54	6045.60
433.72	6207.10
433.91	6153.27
434.10	6061.99
434.28	6092.41
434.47	6087.73
434.66	6345.19
434.85	6310.08
435.03	6310.08
435.22	6274.98
435.41	6466.90
435.59	6392.00
435.78	6370.94
435.97	6392.00
436.16	6312.42
436.34	6328.81
436.53	6511.37
436.72	6668.19
436.90	6370.94
437.09	6590.95
437.28	6539.46
437.46	6569.88
437.65	6745.42
437.84	6815.64
438.02	6759.47
438.21	6707.98
438.40	6604.99
438.58	7049.69
438.77	6953.73
438.96	7037.99
439.14	6937.35
439.33	7241.62
439.52	7229.91
439.70	7194.81
439.89	7363.33
440.08	7236.94
440.26	7342.26
440.45	7417.16
440.63	7332.90
440.82	7531.84
441.01	7641.85
441.19	7482.69
441.38	7777.60
441.57	7768.24
441.75	7808.03
441.94	7882.92
442.12	7838.45
442.31	8013.99
442.50	7817.39
442.68	7985.91
442.87	7948.46
443.05	7772.92
443.24	8121.66
443.43	8009.31
443.61	8262.09
443.80	8486.78
443.98	7922.71
444.17	7887.61
444.35	8243.37
444.54	8152.09
444.73	8184.85
444.91	8395.50
445.10	8292.52
445.28	8360.39
445.47	8147.40
445.65	8259.75
445.84	8535.93
446.02	8383.80
446.21	8383.80
446.39	8437.63
446.58	8334.65
446.77	8404.86
446.95	8081.87
447.14	8627.21
447.32	8404.86
447.51	8430.61
447.69	8308.90
447.88	8425.93
448.06	8498.49
448.25	8463.38
448.43	8718.50
448.62	8549.98
448.80	8414.23
448.99	8571.04
449.17	8655.30
449.36	8531.25
449.54	8908.08
449.73	9008.72
449.91	8905.74
450.10	9100.00
450.28	9034.47
450.46	8926.80
450.65	9071.92
450.83	9132.77
451.02	8872.97
451.20	9310.65
451.39	9170.22
451.57	9212.35
451.76	9109.36
451.94	9130.43
452.13	9273.20
452.31	9364.48
452.49	8999.36
452.68	9359.80
452.86	9291.93
453.05	9392.57
453.23	9507.26
453.42	9383.21
453.60	9315.33
453.78	9430.02
453.97	9591.52
454.15	9284.91
454.34	9366.82
454.52	9612.58
454.70	9856.00
454.89	9802.16
455.07	9668.75
455.26	9973.02
455.44	9886.42
455.62	10066.64
455.81	9916.85
455.99	10078.35
456.17	9844.29
456.36	9923.87
456.54	10207.08
456.73	10176.65
456.91	10518.37
457.09	10551.14
457.28	10347.51
457.46	10305.38
457.64	10658.80
457.83	10490.28
458.01	10263.25
458.19	10691.57
458.38	10588.58
458.56	10700.93
458.74	10593.26
458.93	10700.93
459.11	10832.00
459.29	10621.35
459.48	10656.46
459.66	10864.77
459.84	10841.36
460.03	11005.20
460.21	10871.79
460.39	10951.37
460.57	10892.85
460.76	10920.94
460.94	11157.33
461.12	11152.65
461.31	11066.05
461.49	11138.61
461.67	11061.37
461.85	11651.19
462.04	11571.61
462.22	11756.51
462.40	11438.20
462.59	11564.59
462.77	11410.11
462.95	11580.97
463.13	11606.72
463.32	11529.48
463.50	11758.85
463.68	11756.51
463.86	11723.74
464.05	11592.67
464.23	11545.86
464.41	11974.18
464.59	11520.12
464.78	12065.46
464.96	11716.72
465.14	11611.40
465.32	11943.75
465.50	11981.20
465.69	12102.91
465.87	12147.38
466.05	12208.23
466.23	12182.49
466.41	12119.29
466.60	12592.08
466.78	12198.87
466.96	11831.41
467.14	12280.79
467.32	12100.57
467.51	12241.00
467.69	11946.09
467.87	12383.77
468.05	12699.75
468.23	12439.95
468.41	12383.77
468.60	12505.48
468.78	12690.38
468.96	12507.82
469.14	12879.97
469.32	12943.16
469.50	12503.14
469.69	13268.50
469.87	12940.82
470.05	12971.25
470.23	13160.83
470.41	12891.67
470.59	13167.85
470.77	13043.81
470.95	13219.35
471.14	13528.30
471.32	13111.68
471.50	13568.09
471.68	13298.92
471.86	13472.12
472.04	13561.06
472.22	14008.11
472.40	13624.26
472.58	14038.53
472.77	13736.60
472.95	13968.32
473.13	14504.30
473.31	14054.92
473.49	14111.09
473.67	14310.04
473.85	14272.59
474.03	14516.00
474.21	14288.97
474.39	14740.69
474.57	14303.01
474.75	14939.64
474.93	14843.68
475.12	14965.39
475.30	15410.09
475.48	15103.48
475.66	14995.81
475.84	15187.74
476.02	15449.88
476.20	15274.34
476.38	15618.39
476.56	16074.80
476.74	15679.25
476.92	16006.92
477.10	15845.43
477.28	15896.92
477.46	15995.22
477.64	16219.91
477.82	16519.50
478.00	16835.47
478.18	16690.36
478.36	16917.39
478.54	17011.01
478.72	17151.45
478.90	17383.16
479.08	17481.46
479.26	17722.54
479.44	17888.71
479.62	17743.60
479.80	18188.30
479.98	17891.06
480.16	18693.86
480.34	18375.55
480.52	18628.32
480.70	18602.58
480.88	18515.98
481.06	18560.45
481.24	18656.41
481.41	18977.06
481.59	19360.91
481.77	19403.04
481.95	19782.21
482.13	19576.24
482.31	19639.44
482.49	20360.32
482.67	20414.15
482.85	20477.35
483.03	20409.47
483.21	20280.74
483.39	20809.70
483.57	20882.26
483.74	21013.33
483.92	21144.40
484.10	21191.21
484.28	21647.61
484.46	21935.50
484.64	22246.79
484.82	21986.99
485.00	22207.00
485.18	22644.68
485.35	22679.79
485.53	22590.85
485.71	22955.97
485.89	23632.39
486.07	23447.49
486.25	23365.57
486.43	23555.15
486.61	24070.07
486.78	23967.09
486.96	24046.66
487.14	24327.53
487.32	24327.53
487.50	24559.24
487.68	24938.41
487.85	25256.72
488.03	25633.55
488.21	25872.28
488.39	25949.52
488.57	25954.20
488.75	25949.52
488.92	26749.98
489.10	26724.24
489.28	26354.43
489.46	26871.69
489.64	26904.46
489.81	27442.78
489.99	27496.61
490.17	27580.87
490.35	27934.29
490.53	27686.20
490.70	28641.14
490.88	27615.98
491.06	28968.81
491.24	28950.09
491.41	28694.97
491.59	29226.27
491.77	29132.65
491.95	29769.27
492.13	29680.33
492.30	29823.11
492.48	30300.58
492.66	30401.22
492.84	30239.72
493.01	30590.80
493.19	30382.49
493.37	30834.22
493.54	31222.75
493.72	31571.49
493.90	31583.19
494.08	31732.98
494.25	31922.57
494.43	32114.49
494.61	31969.38
494.79	32465.57
494.96	32016.19
495.14	32673.88
495.32	33331.57
495.49	33254.33
495.67	33165.39
495.85	33523.49
496.02	33837.12
496.20	33713.08
496.38	33869.89
496.55	34052.45
496.73	34815.47
496.91	33954.15
497.09	34572.05
497.26	35168.89
497.44	35164.21
497.62	35157.19
497.79	35690.83
497.97	35424.01
498.14	35908.50
498.32	36004.46
498.50	35847.64
498.67	36196.38
498.85	35662.74
499.03	36554.49
499.20	36538.10
499.38	36720.66
499.56	36863.44
499.73	37055.36
499.91	36975.78
500.08	37600.71
500.26	37160.69
500.44	37502.40
500.61	37787.95
500.79	37876.89
500.97	38094.56
501.14	38639.90
501.32	38607.14
501.49	38590.75
501.67	38499.47
501.84	38787.36
502.02	38909.07
502.20	38939.49
502.37	39222.70
502.55	39122.05
502.72	39084.61
502.90	39805.49
503.07	39496.54
503.25	39772.72
503.43	39313.98
503.60	40219.77
503.78	40177.64
503.95	40240.83
504.13	40392.97
504.30	40526.38
504.48	40194.02
504.65	40507.65
504.83	41057.68
505.01	41085.76
505.18	41179.39
505.36	41233.22
505.53	41261.30
505.71	41645.15
505.88	42096.88
506.06	41666.22
506.23	41902.61
506.41	41666.22
506.58	41783.24
506.76	41752.82
506.93	42291.14
507.11	42155.39
507.28	42054.75
507.46	42422.21
507.63	42752.23
507.81	42976.92
507.98	42663.28
508.16	43257.78
508.33	43421.62
508.50	43508.22
508.68	43650.99
508.85	43753.97
509.03	43845.26
509.20	43861.64
509.38	44126.12
509.55	44732.32
509.73	44605.93
509.90	44844.66
510.08	44194.00
510.25	44533.37
510.42	44322.72
510.60	45223.83
510.77	45205.11
510.95	45287.03
511.12	45020.20
511.30	45116.17
511.47	45551.51
511.64	45319.79
511.82	45628.74
511.99	45322.13
512.17	46021.95
512.34	45675.55
512.51	46138.98
512.69	46574.32
512.86	46024.29
513.04	46431.55
513.21	46181.11
513.38	46829.44
513.56	47014.34
513.73	46562.62
513.90	47107.96
514.08	46649.22
514.25	47196.90
514.43	47299.89
514.60	47203.92
514.77	47416.91
514.95	47473.09
515.12	47342.02
515.29	47421.59
515.47	47821.83
515.64	48034.81
515.81	47931.83
515.99	48231.42
516.16	48594.20
516.33	48322.70
516.51	48701.87
516.68	48172.91
516.85	48392.92
517.03	48762.72
517.20	48816.55
517.37	48872.73
517.54	48989.75
517.72	48942.94
517.89	48797.83
518.06	49104.44
518.24	49160.61
518.41	49268.28
518.58	49111.46
518.75	48863.36
518.93	49516.37
519.10	49389.98
519.27	49701.28
519.45	49315.09
519.62	49886.18
519.79	50038.31
519.96	49837.03
520.14	50209.17
520.31	49872.14
520.48	50241.94
520.65	49930.65
520.83	50382.37
521.00	50588.34
521.17	50576.64
521.34	50733.45
521.52	50674.94
521.69	50939.42
521.86	51033.04
522.03	50747.50
522.20	51386.46
522.38	51150.07
522.55	51344.33
522.72	51276.46
522.89	51358.38
523.07	51498.81
523.24	51501.15
523.41	51786.69
523.58	51531.57
523.75	51742.22
523.92	51697.75
524.10	51896.70
524.27	52039.47
524.44	52037.13
524.61	52095.64
524.78	51824.14
524.96	52282.89
525.13	52097.98
525.30	52367.15
525.47	52374.17
525.64	52491.19
525.81	52423.32
525.98	52676.10
526.16	52516.94
526.33	52823.55
526.50	52706.52
526.67	52612.90
526.84	53071.65
527.01	52542.69
527.18	52783.76
527.36	52896.11
527.53	52720.57
527.70	53268.25
527.87	53202.72
528.04	52996.75
528.21	53333.79
528.38	53422.73
528.55	53647.42
528.72	53446.13
528.89	53301.02
529.07	53436.77
529.24	53167.61
529.41	53556.14
529.58	53673.16
529.75	53631.04
529.92	53577.20
530.09	53748.06
530.26	53904.88
530.43	54033.61
530.60	53829.98
530.77	53874.45
530.94	53698.91
531.11	53851.05
531.28	54007.86
531.46	53834.66
531.63	54337.88
531.80	54328.52
531.97	54213.83
532.14	54340.22
532.31	54354.26
532.48	54312.13
532.65	54639.81
532.82	54241.92
532.99	54651.51
533.16	54504.06
533.33	54822.37
533.50	54901.95
533.67	54794.28
533.84	54354.26
534.01	54841.09
534.18	54939.39
534.35	55049.40
534.52	55037.70
534.69	54864.50
534.86	55206.22
535.03	54937.05
535.20	55072.81
535.37	55224.94
535.54	55267.07
535.71	55372.39
535.88	55309.20
536.05	55126.64
536.22	55377.08
536.38	55545.59
536.55	55552.62
536.72	55412.18
536.89	55517.51
537.06	55444.95
537.23	55480.06
537.40	55547.93
537.57	55730.50
537.74	55599.43
537.91	55742.20
538.08	55714.11
538.25	55412.18
538.42	55831.14
538.59	56093.28
538.75	55587.72
538.92	55922.42
539.09	56172.86
539.26	56011.36
539.43	56013.70
539.60	56306.27
539.77	56254.78
539.94	56444.36
540.11	56390.53
540.28	56147.11
540.44	56601.18
540.61	56130.73
540.78	56182.22
540.95	56521.60
541.12	56477.13
541.29	56271.16
541.46	56383.51
541.62	56418.61
541.79	56692.46
541.96	56392.87
542.13	56458.40
542.30	56591.81
542.47	56652.67
542.63	56678.41
542.80	56877.36
542.97	57088.01
543.14	57195.67
543.31	57003.75
543.48	57172.27
543.64	57380.57
543.81	57258.87
543.98	57483.56
544.15	57378.23
544.32	57336.10
544.48	57509.30
544.65	57373.55
544.82	57420.36
544.99	57279.93
545.16	57455.47
545.32	57418.02
545.49	57535.05
545.66	57719.95
545.83	57551.43
546.00	57726.97
546.16	57607.61
546.33	57537.39
546.50	57251.84
546.67	57743.36
546.83	57315.04
547.00	57645.05
547.17	57888.47
547.34	57776.12
547.50	57902.51
547.67	58117.84
547.84	57925.92
548.00	58017.20
548.17	58073.37
548.34	57984.43
548.51	58019.54
548.67	58211.46
548.84	58127.20
549.01	57839.32
549.18	58066.35
549.34	58115.50
549.51	58101.46
549.68	58092.10
549.84	58447.86
550.01	58323.81
550.18	58447.86
550.34	58244.23
550.51	58323.81
550.68	58553.18
550.84	58321.47
551.01	58452.54
551.18	58454.88
551.34	58595.31
551.51	58454.88
551.68	58534.46
551.84	58478.28
552.01	58335.51
552.18	58546.16
552.34	58398.71
552.51	58728.72
552.68	58546.16
552.84	58745.11
553.01	58794.26
553.18	58595.31
553.34	58775.53
553.51	58857.45
553.67	58618.72
553.84	58965.12
554.01	58794.26
554.17	58901.92
554.34	58897.24
554.51	58962.78
554.67	59119.59
554.84	59037.67
555.00	58920.65
555.17	58997.88
555.33	58934.69
555.50	58869.15
555.67	58899.58
555.83	58611.70
556.00	59189.81
556.16	59435.56
556.33	59180.45
556.50	58967.46
556.66	59264.70
556.83	59063.42
556.99	59372.37
557.16	59187.47
557.32	59475.35
557.49	59519.82
557.65	59341.94
557.82	59409.82
557.98	59262.36
558.15	59501.10
558.32	59590.04
558.48	59208.53
558.65	59615.79
558.81	59309.18
558.98	59381.73
559.14	59559.61
559.31	59763.24
559.47	59639.19
559.64	59533.87
559.80	59618.13
559.97	59681.32
560.13	59547.91
560.30	59660.26
560.46	59796.01
560.63	59646.21
560.79	59901.33
560.96	59887.29
561.12	59634.51
561.29	59784.30
561.45	59723.45
561.61	59781.96
561.78	59620.47
561.94	59627.49
562.11	59686.00
562.27	59969.21
562.44	59798.35
562.60	60341.35
562.77	59798.35
562.93	59578.34
563.10	60018.36
563.26	59807.71
563.42	60086.23
563.59	59943.46
563.75	59831.11
563.92	59894.31
564.08	59840.48
564.24	60130.70
564.41	60126.02
564.57	60137.72
564.74	60168.15
564.90	59941.12
565.07	60004.31
565.23	60039.42
565.39	59985.59
565.56	60067.51
565.72	59945.80
565.88	60240.71
566.05	60062.83
566.21	59924.74
566.38	60247.73
566.54	60273.48
566.70	60261.77
566.87	60147.09
567.03	60133.04
567.19	60261.77
567.36	60329.65
567.52	60252.41
567.68	60568.38
567.85	60121.34
568.01	60420.93
568.17	60245.39
568.34	60472.42
568.50	60470.08
568.66	60119.00
568.83	60282.84
568.99	60254.75
569.15	60303.90
569.32	60104.96
569.48	60170.49
569.64	60519.23
569.81	60296.88
569.97	60135.38
570.13	60594.13
570.30	60207.94
570.46	60495.83
570.62	60458.38
570.78	60334.33
570.95	60411.57
571.11	60402.21
571.27	60439.65
571.43	60411.57
571.60	60636.26
571.76	60519.23
571.92	60432.63
572.09	60584.77
572.25	60521.57
572.41	60540.30
572.57	60502.85
572.74	60814.14
572.90	60722.86
573.06	60566.04
573.22	60556.68
573.38	60626.90
573.55	60561.36
573.71	60594.13
573.87	60662.00
574.03	60505.19
574.20	60640.94
574.36	60575.40
574.52	60748.60
574.68	60701.79
574.84	60921.80
575.01	60706.47
575.17	60580.09
575.33	60509.87
575.49	60584.77
575.65	60729.88
575.82	60767.33
575.98	60622.22
576.14	60683.07
576.30	60830.52
576.46	60694.77
576.62	60612.85
576.79	60786.05
576.95	60659.66
577.11	60704.13
577.27	60912.44
577.43	60732.22
577.59	60633.92
577.75	60640.94
577.92	60521.57
578.08	60774.35
578.24	60699.45
578.40	60935.85
578.56	60980.32
578.72	60743.92
578.88	60905.42
579.04	60821.16
579.21	60989.68
579.37	60938.19
579.53	60893.72
579.69	60526.25
579.85	60727.54
580.01	60612.85
580.17	60647.96
580.33	60893.72
580.49	60750.94
580.65	60966.27
580.82	60945.21
580.98	60650.30
581.14	60790.73
581.30	60793.07
581.46	60865.63
581.62	60678.39
581.78	60617.53
581.94	60795.42
582.10	60905.42
582.26	60697.11
582.42	60781.37
582.58	60783.71
582.74	60711.16
582.90	60896.06
583.06	60807.12
583.22	60736.90
583.38	60835.20
583.54	60996.70
583.70	60889.04
583.86	61020.11
584.02	60729.88
584.18	60884.36
584.34	60832.86
584.50	60884.36
584.66	60928.83
584.82	60559.02
584.98	61095.00
585.14	60917.12
585.30	60818.82
585.46	60994.36
585.62	60842.23
585.78	61022.45
585.94	60732.22
586.10	60837.54
586.26	60947.55
586.42	60968.61
586.58	61080.96
586.74	61090.32
586.90	61024.79
587.06	60790.73
587.22	61181.60
587.38	61099.68
587.54	61036.49
587.70	61095.00
587.86	61127.77
588.02	60926.49
588.18	61087.98
588.34	60982.66
588.49	61013.08
