SpectraSuite Data File
++++++++++++++++++++++++++++++++++++
Date: Fri Oct 25 11:23:25 EDT 2013
User: price-jones
Dark Spectrum Present: No
Reference Spectrum Present: No
Number of Sampled Component Spectra: 1
Spectrometers: USB2+H05261
Integration Time (usec): 100000 (USB2+H05261)
Spectra Averaged: 1 (USB2+H05261)
Boxcar Smoothing: 0 (USB2+H05261)
Correct for Electrical Dark: No (USB2+H05261)
Strobe/Lamp Enabled: No (USB2+H05261)
Correct for Detector Non-linearity: No (USB2+H05261)
Correct for Stray Light: No (USB2+H05261)
Number of Pixels in Processed Spectrum: 2048
>>>>>Begin Processed Spectral Data<<<<<
365.73	168.52
365.92	168.52
366.12	168.52
366.32	91.28
366.52	187.24
366.72	203.63
366.91	79.58
367.11	51.49
367.31	84.26
367.51	84.26
367.70	205.97
367.90	163.84
368.10	198.95
368.30	117.03
368.49	49.15
368.69	189.58
368.89	177.88
369.09	133.41
369.28	105.32
369.48	194.26
369.68	149.79
369.87	173.20
370.07	210.65
370.27	257.46
370.47	315.97
370.66	496.19
370.86	568.75
371.06	657.69
371.25	676.41
371.45	631.94
371.65	636.63
371.84	643.65
372.04	725.57
372.24	690.46
372.44	685.78
372.63	683.44
372.83	683.44
373.03	720.88
373.22	755.99
373.42	814.51
373.62	802.80
373.81	814.51
374.01	788.76
374.21	828.55
374.40	830.89
374.60	798.12
374.79	767.70
374.99	847.27
375.19	830.89
375.38	847.27
375.58	793.44
375.78	821.53
375.97	880.04
376.17	877.70
376.37	910.47
376.56	840.25
376.76	851.96
376.95	873.02
377.15	837.91
377.35	983.02
377.54	880.04
377.74	882.38
377.93	896.43
378.13	917.49
378.33	924.51
378.52	966.64
378.72	994.73
378.91	896.43
379.11	863.66
379.31	922.17
379.50	938.55
379.70	863.66
379.89	898.77
380.09	971.32
380.28	971.32
380.48	1039.20
380.68	936.21
380.87	945.58
381.07	980.68
381.26	1027.50
381.46	950.26
381.65	1053.24
381.85	1027.50
382.04	1020.47
382.24	1107.07
382.43	1083.67
382.63	1132.82
382.83	973.66
383.02	1057.92
383.22	1149.20
383.41	1027.50
383.61	1097.71
383.80	1114.10
384.00	1050.90
384.19	1156.22
384.39	1139.84
384.58	1118.78
384.78	1125.80
384.97	1263.89
385.17	1135.16
385.36	1151.54
385.56	1179.63
385.75	1177.29
385.95	1102.39
386.14	1221.76
386.34	1280.27
386.53	1277.93
386.72	1160.91
386.92	1263.89
387.11	1146.86
387.31	1277.93
387.50	1142.18
387.70	1277.93
387.89	1287.29
388.09	1327.08
388.28	1233.46
388.48	1254.53
388.67	1420.71
388.86	1235.80
389.06	1247.51
389.25	1291.98
389.45	1383.26
389.64	1329.42
389.84	1324.74
390.03	1432.41
390.22	1486.24
390.42	1366.87
390.61	1401.98
390.81	1341.13
391.00	1383.26
391.19	1474.54
391.39	1432.41
391.58	1406.66
391.78	1446.45
391.97	1488.58
392.16	1530.71
392.36	1568.16
392.55	1572.84
392.75	1582.20
392.94	1533.05
393.13	1502.62
393.33	1582.20
393.52	1563.48
393.71	1579.86
393.91	1507.30
394.10	1504.96
394.29	1605.61
394.49	1605.61
394.68	1638.38
394.88	1706.25
395.07	1717.95
395.26	1696.89
395.46	1645.40
395.65	1732.00
395.84	1727.32
396.04	1771.79
396.23	1750.72
396.42	1682.85
396.62	1795.19
396.81	1846.68
397.00	1748.38
397.19	1739.02
397.39	1799.87
397.58	1802.21
397.77	1795.19
397.97	1806.89
398.16	1783.49
398.35	1933.28
398.55	1863.07
398.74	1874.77
398.93	1949.67
399.12	1905.20
399.32	1888.81
399.51	1863.07
399.70	1980.09
399.90	1926.26
400.09	1991.80
400.28	2010.52
400.47	2031.58
400.67	2134.57
400.86	2003.50
401.05	2181.38
401.24	1996.48
401.44	2122.87
401.63	2167.34
401.82	2186.06
402.01	2167.34
402.21	2118.18
402.40	2118.18
402.59	2218.83
402.78	2204.78
402.97	2183.72
403.17	2272.66
403.36	2209.47
403.55	2249.25
403.74	2328.83
403.93	2338.20
404.13	2408.41
404.32	2375.64
404.51	2314.79
404.70	2445.86
404.89	2466.92
405.09	2562.89
405.28	2375.64
405.47	2464.58
405.66	2413.09
405.85	2546.50
406.05	2502.03
406.24	2567.57
406.43	2579.27
406.62	2534.80
406.81	2712.68
407.00	2572.25
407.20	2506.71
407.39	2621.40
407.58	2792.26
407.77	2754.81
407.96	2738.43
408.15	2719.70
408.34	2761.83
408.54	2892.90
408.73	2911.63
408.92	2890.56
409.11	2918.65
409.30	2911.63
409.49	2949.08
409.68	3073.12
409.87	2953.76
410.07	3073.12
410.26	3030.99
410.45	2944.39
410.64	3033.33
410.83	3110.57
411.02	3080.14
411.21	3225.26
411.40	3143.34
411.59	3194.83
411.78	3246.32
411.98	3241.64
412.17	3412.50
412.36	3267.39
412.55	3290.79
412.74	3363.35
412.93	3398.46
413.12	3346.97
413.31	3559.95
413.50	3489.74
413.69	3391.44
413.88	3585.70
414.07	3559.95
414.26	3648.90
414.45	3751.88
414.64	3744.86
414.83	3786.99
415.02	3801.03
415.22	3819.75
415.41	3878.27
415.60	3880.61
415.79	3997.64
415.98	4007.00
416.17	3946.14
416.36	3850.18
416.55	3997.64
416.74	4147.43
416.93	3964.87
417.12	4269.14
417.31	4208.28
417.50	4243.39
417.69	4327.65
417.88	4170.83
418.07	4301.90
418.26	4287.86
418.45	4334.67
418.64	4458.72
418.83	4372.12
419.02	4414.25
419.21	4512.55
419.39	4557.02
419.58	4418.93
419.77	4503.19
419.96	4552.34
420.15	4622.56
420.34	4688.09
420.53	4564.04
420.72	4695.11
420.91	4753.63
421.10	4849.59
421.29	4833.21
421.48	4753.63
421.67	4873.00
421.86	4821.50
422.05	4856.61
422.24	4690.43
422.43	4880.02
422.61	4807.46
422.80	4919.81
422.99	4905.76
423.18	5039.17
423.37	5025.13
423.56	4901.08
423.75	4971.30
423.94	4873.00
424.13	4662.35
424.32	4800.44
424.50	4975.98
424.69	5060.24
424.88	4959.60
425.07	4901.08
425.26	5067.26
425.45	5011.09
425.64	4830.87
425.83	5093.01
426.01	5146.84
426.20	5001.72
426.39	5125.77
426.58	5048.54
426.77	5104.71
426.96	5081.30
427.15	5158.54
427.33	5235.78
427.52	5055.56
427.71	5158.54
427.90	5303.65
428.09	5408.98
428.28	5479.19
428.46	5345.78
428.65	5355.15
428.84	5628.99
429.03	5661.76
429.22	5392.59
429.40	5465.15
429.59	5406.64
429.78	5249.82
429.97	5376.21
430.16	5467.49
430.34	5743.67
430.53	5724.95
430.72	5708.57
430.91	5654.73
431.10	5603.24
431.28	5715.59
431.47	5898.15
431.66	5919.21
431.85	5881.77
432.03	5982.41
432.22	5944.96
432.41	5930.92
432.60	5975.39
432.79	6083.05
432.97	6111.14
433.16	5884.11
433.35	5996.45
433.54	6256.25
433.72	6139.23
433.91	6043.26
434.10	6291.36
434.28	6087.73
434.47	6331.15
434.66	6099.44
434.85	6441.15
435.03	6324.13
435.22	6249.23
435.41	6656.48
435.59	6312.42
435.78	6532.44
435.97	6546.48
436.16	6502.01
436.34	6480.94
436.53	6621.38
436.72	6537.12
436.90	6513.71
437.09	6574.56
437.28	6523.07
437.46	6703.29
437.65	6651.80
437.84	6890.54
438.02	6899.90
438.21	6761.81
438.40	6693.93
438.58	7126.93
438.77	7009.90
438.96	6885.86
439.14	7162.04
439.33	7253.32
439.52	7365.67
439.70	7073.10
439.89	7400.77
440.08	7349.28
440.26	7499.08
440.45	7440.56
440.63	7548.23
440.82	7843.14
441.01	7592.70
441.19	7726.11
441.38	7726.11
441.57	7529.50
441.75	7630.15
441.94	7859.52
442.12	7969.52
442.31	8140.38
442.50	8039.74
442.68	8049.10
442.87	8194.22
443.05	8156.77
443.24	8060.80
443.43	8243.37
443.61	8173.15
443.80	8290.18
443.98	8046.76
444.17	7913.35
444.35	8145.06
444.54	8191.88
444.73	8402.52
444.91	8294.86
445.10	8365.07
445.28	8425.93
445.47	8372.10
445.65	8402.52
445.84	8428.27
446.02	8393.16
446.21	8461.04
446.39	8545.30
446.58	8678.71
446.77	8582.74
446.95	8381.46
447.14	8547.64
447.32	8641.26
447.51	8489.12
447.69	8446.99
447.88	8692.75
448.06	8493.80
448.25	8500.83
448.43	8704.45
448.62	8732.54
448.80	8482.10
448.99	8505.51
449.17	8737.22
449.36	8636.58
449.54	8615.51
449.73	8879.99
449.91	8854.25
450.10	8933.82
450.28	9231.07
450.46	9118.73
450.65	9235.75
450.83	9170.22
451.02	9034.47
451.20	9247.46
451.39	9074.26
451.57	9090.64
451.76	8915.10
451.94	9109.36
452.13	9219.37
452.31	9540.02
452.49	9137.45
452.68	9254.48
452.86	9486.19
453.05	9338.74
453.23	9568.11
453.42	9275.54
453.60	9404.27
453.78	9603.22
453.97	9301.29
454.15	9518.96
454.34	9425.34
454.52	9738.97
454.70	9781.10
454.89	9757.69
455.07	9771.74
455.26	9886.42
455.44	10106.43
455.62	9980.04
455.81	9935.57
455.99	9973.02
456.17	9912.17
456.36	10045.58
456.54	10085.37
456.73	10188.35
456.91	10396.66
457.09	10410.70
457.28	10509.01
457.46	10370.91
457.64	10541.77
457.83	10558.16
458.01	10532.41
458.19	10815.62
458.38	10604.97
458.56	10860.09
458.74	10785.19
458.93	10876.47
459.11	10745.40
459.29	10846.04
459.48	10841.36
459.66	10923.28
459.84	10843.70
460.03	11105.84
460.21	11171.38
460.39	10932.64
460.57	11122.23
460.76	11169.04
460.94	11145.63
461.12	11482.67
461.31	11101.16
461.49	11199.46
461.67	11246.27
461.85	11438.20
462.04	11370.32
462.22	11688.64
462.40	11754.17
462.59	11527.14
462.77	11714.38
462.95	11674.59
463.13	11662.89
463.32	11688.64
463.50	11971.84
463.68	11868.86
463.86	12011.63
464.05	11822.05
464.23	11866.52
464.41	11889.92
464.59	11768.21
464.78	12245.68
464.96	12058.44
465.14	12128.66
465.32	12327.60
465.50	12131.00
465.69	12042.06
465.87	12067.80
466.05	12276.11
466.23	12306.54
466.41	12404.84
466.60	12538.25
466.78	12379.09
466.96	12372.07
467.14	12374.41
467.32	12470.37
467.51	12648.26
467.69	12407.18
467.87	12559.31
468.05	12709.11
468.23	12383.77
468.41	12472.71
468.60	12683.36
468.78	12816.77
468.96	12587.40
469.14	12865.92
469.32	12938.48
469.50	12720.81
469.69	13102.32
469.87	13118.70
470.05	12968.91
470.23	13090.62
470.41	13259.13
470.59	13507.23
470.77	13116.36
470.95	13172.54
471.14	13401.91
471.32	13032.10
471.50	13350.42
471.68	13635.96
471.86	13755.33
472.04	13813.84
472.22	14106.41
472.40	13591.49
472.58	14022.15
472.77	14183.65
472.95	14326.42
473.13	14696.22
473.31	14244.50
473.49	14263.22
473.67	14225.78
473.85	14497.28
474.03	14487.92
474.21	14506.64
474.39	15077.73
474.57	14686.86
474.75	15054.33
474.93	15014.54
475.12	14993.47
475.30	15042.62
475.48	14796.87
475.66	15323.49
475.84	15307.10
476.02	15426.47
476.20	15433.49
476.38	15847.77
476.56	16142.67
476.74	16189.49
476.92	16208.21
477.10	15667.55
477.28	16350.98
477.46	16294.81
477.64	16482.05
477.82	16849.52
478.00	17097.61
478.18	16910.37
478.36	16978.25
478.54	17160.81
478.72	17202.94
478.90	17387.84
479.08	17343.37
479.26	17626.57
479.44	17717.86
479.62	17762.33
479.80	18136.81
479.98	18197.67
480.16	18593.22
480.34	18244.48
480.52	18672.79
480.70	18738.33
480.88	18293.63
481.06	18843.65
481.24	18911.53
481.41	19496.66
481.59	19527.09
481.77	19894.55
481.95	19791.57
482.13	19744.76
482.31	19499.00
482.49	20341.60
482.67	20245.63
482.85	20870.56
483.03	20917.37
483.21	20669.27
483.39	21057.80
483.57	20893.96
483.74	21530.59
483.92	21214.62
484.10	21436.97
484.28	21500.16
484.46	22017.42
484.64	22522.98
484.82	22260.84
485.00	22501.91
485.18	22792.14
485.35	23096.41
485.53	22955.97
485.71	23098.75
485.89	23454.51
486.07	23475.57
486.25	23545.79
486.43	23828.99
486.61	23946.02
486.78	24500.73
486.96	24283.06
487.14	24741.80
487.32	24826.06
487.50	25205.23
487.68	25127.99
487.85	25287.15
488.03	25663.97
488.21	25818.45
488.39	25975.27
488.57	25958.88
488.75	26478.48
488.92	26742.96
489.10	26944.25
489.28	26761.69
489.46	26885.73
489.64	27197.02
489.81	27709.60
489.99	27789.18
490.17	27903.87
490.35	28236.22
490.53	28425.81
490.70	28716.03
490.88	28093.45
491.06	28744.12
491.24	29010.94
491.41	28872.85
491.59	29034.35
491.77	29659.27
491.95	29560.97
492.13	29977.58
492.30	30211.64
492.48	30087.59
492.66	30412.92
492.84	30778.04
493.01	31103.38
493.19	31026.14
493.37	31307.01
493.54	31349.14
493.72	31704.90
493.90	31543.40
494.08	31920.23
494.25	31950.65
494.43	31976.40
494.61	32528.77
494.79	32400.04
494.96	32617.71
495.14	32830.69
495.32	33020.28
495.49	33287.10
495.67	33525.83
495.85	33249.65
496.02	33916.70
496.20	34010.32
496.38	34745.25
496.55	34136.71
496.73	34845.90
496.91	34955.90
497.09	35227.40
497.26	34768.66
497.44	35187.61
497.62	35555.08
497.79	35997.44
497.97	35629.98
498.14	35831.26
498.32	36013.82
498.50	36442.14
498.67	36598.96
498.85	36884.50
499.03	36882.16
499.20	36830.67
499.38	36683.22
499.56	37163.03
499.73	37303.46
499.91	37900.29
500.08	37888.59
500.26	37581.98
500.44	37783.27
500.61	38129.67
500.79	37977.53
500.97	38064.13
501.14	38733.53
501.32	39033.11
501.49	38403.51
501.67	39332.70
501.84	39438.03
502.02	39180.57
502.20	39044.82
502.37	39538.67
502.55	39358.45
502.72	39742.30
502.90	39793.79
503.07	39669.74
503.25	39721.23
503.43	39646.33
503.60	40250.19
503.78	40603.61
503.95	40189.34
504.13	40554.46
504.30	40954.69
504.48	40847.03
504.65	40753.41
504.83	41380.67
505.01	41371.31
505.18	41242.58
505.36	41649.83
505.53	41563.23
505.71	41352.58
505.88	41975.17
506.06	41535.15
506.23	42106.24
506.41	41813.67
506.58	42649.24
506.76	42305.18
506.93	42506.47
507.11	42513.49
507.28	42824.78
507.46	42817.76
507.63	42990.96
507.81	43667.37
507.98	43175.86
508.16	43112.67
508.33	43482.47
508.50	44002.07
508.68	43817.17
508.85	44217.40
509.03	44233.78
509.20	44362.51
509.38	44336.77
509.55	44268.89
509.73	44760.40
509.90	44584.86
510.08	44839.98
510.25	44842.32
510.42	45085.74
510.60	45474.27
510.77	45345.54
510.95	45207.45
511.12	45385.33
511.30	45226.17
511.47	45984.51
511.64	46045.36
511.82	46150.68
511.99	45930.67
512.17	46117.92
512.34	46246.65
512.51	46777.95
512.69	46761.56
512.86	46302.82
513.04	46843.48
513.21	46864.55
513.38	46696.03
513.56	47236.69
513.73	47107.96
513.90	47105.62
514.08	47208.61
514.25	47583.09
514.43	47459.04
514.60	47632.24
514.77	47627.56
514.95	48109.71
515.12	47821.83
515.29	47812.46
515.47	48250.14
515.64	48060.56
515.81	48247.80
515.99	48800.17
516.16	48818.89
516.33	48678.46
516.51	48718.25
516.68	48519.31
516.85	48535.69
517.03	49368.92
517.20	48758.04
517.37	49153.59
517.54	49078.69
517.72	49050.61
517.89	49191.04
518.06	49249.55
518.24	49469.56
518.41	49298.70
518.58	49495.31
518.75	49317.43
518.93	49670.85
519.10	49483.61
519.27	50120.23
519.45	49825.32
519.62	50061.72
519.79	49712.98
519.96	49830.01
520.14	49914.26
520.31	50218.53
520.48	50548.55
520.65	50541.53
520.83	50576.64
521.00	50859.84
521.17	50553.23
521.34	50717.07
521.52	51061.13
521.69	51058.79
521.86	51192.20
522.03	51262.41
522.20	51571.36
522.38	51664.99
522.55	51489.45
522.72	51569.02
522.89	51393.48
523.07	51805.42
523.24	51562.00
523.41	51983.30
523.58	51648.60
523.75	52158.84
523.92	51760.95
524.10	52177.56
524.27	52435.02
524.44	52554.39
524.61	52259.48
524.78	52156.50
524.96	52519.28
525.13	52648.01
525.30	52556.73
525.47	53041.22
525.64	52463.11
525.81	52577.79
525.98	52851.64
526.16	52912.49
526.33	52779.08
526.50	53305.70
526.67	53008.45
526.84	53137.18
527.01	52966.32
527.18	53113.78
527.36	53179.31
527.53	53165.27
527.70	53333.79
527.87	53310.38
528.04	52921.85
528.21	53525.71
528.38	53392.30
528.55	53509.33
528.72	53270.59
528.89	53574.86
529.07	53385.28
529.24	53757.42
529.41	53750.40
529.58	53801.89
529.75	53656.78
529.92	53605.29
530.09	54122.55
530.26	54049.99
530.43	53991.48
530.60	54059.35
530.77	54087.44
530.94	54073.40
531.11	53951.69
531.28	54227.87
531.46	54419.80
531.63	54684.28
531.80	54335.54
531.97	54464.27
532.14	54770.88
532.31	54494.69
532.48	54518.10
532.65	54813.01
532.82	54646.83
532.99	54930.03
533.16	54841.09
533.33	55110.25
533.50	55009.61
533.67	54986.21
533.84	54974.50
534.01	54932.37
534.18	54997.91
534.35	55327.92
534.52	55248.35
534.69	55334.95
534.86	55248.35
535.03	55262.39
535.20	55367.71
535.37	55477.72
535.54	55363.03
535.71	55447.29
535.88	55756.24
536.05	55571.34
536.22	55770.28
536.38	55842.84
536.55	55643.90
536.72	55732.84
536.89	55793.69
537.06	55746.88
537.23	56058.17
537.40	55522.19
537.57	55922.42
537.74	55849.86
537.91	56034.77
538.08	55983.27
538.25	55714.11
538.42	56133.07
538.59	56172.86
538.75	56032.42
538.92	56186.90
539.09	56505.21
539.26	56516.92
539.43	56310.95
539.60	56608.20
539.77	56240.73
539.94	56640.96
540.11	56601.18
540.28	56526.28
540.44	56666.71
540.61	56706.50
540.78	56427.98
540.95	56582.45
541.12	56460.74
541.29	56690.12
541.46	56811.82
541.62	56809.48
541.79	56638.62
541.96	56299.25
542.13	56802.46
542.30	56690.12
542.47	56952.26
542.63	56903.10
542.80	57013.11
542.97	57181.63
543.14	57499.94
543.31	57521.01
543.48	57375.89
543.64	57619.31
543.81	57471.85
543.98	57396.96
544.15	57324.40
544.32	57755.06
544.48	57762.08
544.65	57598.24
544.82	57598.24
544.99	57258.87
545.16	57598.24
545.32	57626.33
545.49	57773.78
545.66	57595.90
545.83	57731.65
546.00	57846.34
546.16	57722.29
546.33	57623.99
546.50	57453.13
546.67	57869.75
546.83	57565.48
547.00	57942.30
547.17	57949.32
547.34	57729.31
547.50	57977.41
547.67	58199.76
547.84	58122.52
548.00	58145.93
548.17	58302.74
548.34	58052.31
548.51	58227.85
548.67	58262.96
548.84	58349.56
549.01	58061.67
549.18	58274.66
549.34	58342.53
549.51	58429.13
549.68	58459.56
549.84	58504.03
550.01	58368.28
550.18	58457.22
550.34	58663.19
550.51	58602.33
550.68	58113.16
550.84	58487.65
551.01	58693.61
551.18	58644.46
551.34	58485.31
551.51	58698.30
551.68	58714.68
551.84	58712.34
552.01	58567.23
552.18	58958.09
552.34	58651.48
552.51	58670.21
552.68	58665.53
552.84	58843.41
553.01	59168.74
553.18	58908.94
553.34	58944.05
553.51	58595.31
553.67	58976.82
553.84	59110.23
554.01	59040.01
554.17	59290.45
554.34	59150.02
554.51	59128.95
554.67	59243.64
554.84	59283.43
555.00	58890.22
555.17	58974.48
555.33	59217.89
555.50	59147.68
555.67	59007.25
555.83	59337.26
556.00	59171.08
556.16	59552.59
556.33	59377.05
556.50	59241.30
556.66	59517.48
556.83	59145.34
556.99	59529.19
557.16	59292.79
557.32	59590.04
557.49	59671.96
557.65	59334.92
557.82	59484.72
557.98	59398.12
558.15	59515.14
558.32	59695.36
558.48	59299.81
558.65	59447.27
558.81	59489.40
558.98	59877.93
559.14	59807.71
559.31	59854.52
559.47	59688.34
559.64	59952.82
559.80	59770.26
559.97	59819.41
560.13	59856.86
560.30	59992.61
560.46	59845.16
560.63	59819.41
560.79	59997.29
560.96	59915.37
561.12	59891.97
561.29	59987.93
561.45	59791.33
561.61	59838.14
561.78	59863.88
561.94	60140.07
562.11	59929.42
562.27	60004.31
562.44	60072.19
562.60	60137.72
562.77	60107.30
562.93	59917.71
563.10	60140.07
563.26	59938.78
563.42	60331.99
563.59	60156.45
563.75	59884.95
563.92	60334.33
564.08	60285.18
564.24	60411.57
564.41	60177.51
564.57	60287.52
564.74	60109.64
564.90	60367.10
565.07	60214.96
565.23	60116.66
565.39	60189.22
565.56	60224.32
565.72	60198.58
565.88	60285.18
566.05	60257.09
566.21	60158.79
566.38	60268.79
566.54	60313.26
566.70	60434.97
566.87	60505.19
567.03	60116.66
567.19	60589.45
567.36	60479.44
567.52	60273.48
567.68	60610.51
567.85	60481.78
568.01	60512.21
568.17	60411.57
568.34	60493.49
568.50	60570.72
568.66	60327.31
568.83	60584.77
568.99	60561.36
569.15	60413.91
569.32	60395.18
569.48	60336.67
569.64	60573.06
569.81	60463.06
569.97	60598.81
570.13	60535.62
570.30	60451.36
570.46	60594.13
570.62	60507.53
570.78	60498.17
570.95	60575.40
571.11	60729.88
571.27	60645.62
571.43	60624.56
571.60	60685.41
571.76	60540.30
571.92	60849.25
572.09	60715.84
572.25	60795.42
572.41	60596.47
572.57	60659.66
572.74	60903.08
572.90	60816.48
573.06	60718.18
573.22	60870.31
573.38	60690.09
573.55	60619.88
573.71	60776.69
573.87	60711.16
574.03	60680.73
574.20	60874.99
574.36	60720.52
574.52	60898.40
574.68	60811.80
574.84	60919.46
575.01	60867.97
575.17	60959.25
575.33	60870.31
575.49	60706.47
575.65	60924.14
575.82	61062.24
575.98	61076.28
576.14	61118.41
576.30	60889.04
576.46	60814.14
576.62	60809.46
576.79	60874.99
576.95	60764.99
577.11	60865.63
577.27	60872.65
577.43	60935.85
577.59	60711.16
577.75	60849.25
577.92	60856.27
578.08	61013.08
578.24	60996.70
578.40	60999.04
578.56	60954.57
578.72	60931.17
578.88	61071.60
579.04	61265.86
579.21	61062.24
579.37	61069.26
579.53	61120.75
579.69	60968.61
579.85	60783.71
580.01	61038.83
580.17	60935.85
580.33	60891.38
580.49	60956.91
580.65	61015.43
580.82	60903.08
580.98	61008.40
581.14	60842.23
581.30	61130.11
581.46	60849.25
581.62	60959.25
581.78	60921.80
581.94	61015.43
582.10	61134.79
582.26	61013.08
582.42	61022.45
582.58	61230.75
582.74	60989.68
582.90	60940.53
583.06	61148.84
583.22	60975.64
583.38	61055.21
583.54	60977.98
583.70	61071.60
583.86	61001.38
584.02	60987.34
584.18	61127.77
584.34	60973.30
584.50	61083.30
584.66	61020.11
584.82	60928.83
584.98	61207.35
585.14	61293.95
585.30	61013.08
585.46	61080.96
585.62	61130.11
585.78	61296.29
585.94	60886.70
586.10	61050.53
586.26	61113.73
586.42	61235.44
586.58	61181.60
586.74	61083.30
586.90	60975.64
587.06	61219.05
587.22	61078.62
587.38	61237.78
587.54	61331.40
587.70	61406.30
587.86	61099.68
588.02	61059.90
588.18	61197.99
588.34	61230.75
588.49	61076.28
