SpectraSuite Data File
++++++++++++++++++++++++++++++++++++
Date: Fri Oct 25 10:47:24 EDT 2013
User: price-jones
Dark Spectrum Present: No
Reference Spectrum Present: No
Number of Sampled Component Spectra: 1
Spectrometers: USB2+H05261
Integration Time (usec): 100000 (USB2+H05261)
Spectra Averaged: 1 (USB2+H05261)
Boxcar Smoothing: 0 (USB2+H05261)
Correct for Electrical Dark: No (USB2+H05261)
Strobe/Lamp Enabled: No (USB2+H05261)
Correct for Detector Non-linearity: No (USB2+H05261)
Correct for Stray Light: No (USB2+H05261)
Number of Pixels in Processed Spectrum: 2048
>>>>>Begin Processed Spectral Data<<<<<
365.73	105.32
365.92	105.32
366.12	105.32
366.32	121.71
366.52	0.00
366.72	67.88
366.91	0.00
367.11	0.00
367.31	51.49
367.51	58.51
367.70	53.83
367.90	30.43
368.10	18.72
368.30	67.88
368.49	42.13
368.69	51.49
368.89	46.81
369.09	53.83
369.28	37.45
369.48	77.24
369.68	25.75
369.87	56.17
370.07	196.60
370.27	180.22
370.47	227.03
370.66	367.46
370.86	435.34
371.06	461.09
371.25	519.60
371.45	463.43
371.65	505.56
371.84	477.47
372.04	435.34
372.24	491.51
372.44	526.62
372.63	486.83
372.83	512.58
373.03	430.66
373.22	519.60
373.42	538.32
373.62	498.53
373.81	484.49
374.01	514.92
374.21	613.22
374.40	503.22
374.60	526.62
374.79	568.75
374.99	592.16
375.19	477.47
375.38	575.77
375.58	543.00
375.78	543.00
375.97	599.18
376.17	601.52
376.37	493.85
376.56	636.63
376.76	631.94
376.95	594.50
377.15	650.67
377.35	617.90
377.54	601.52
377.74	667.05
377.93	674.07
378.13	564.07
378.33	592.16
378.52	617.90
378.72	676.41
378.91	599.18
379.11	589.82
379.31	702.16
379.50	655.35
379.70	589.82
379.89	755.99
380.09	582.79
380.28	664.71
380.48	648.33
380.68	622.58
380.87	634.29
381.07	643.65
381.26	704.50
381.46	667.05
381.65	685.78
381.85	645.99
382.04	753.65
382.24	664.71
382.43	718.54
382.63	674.07
382.83	650.67
383.02	716.20
383.22	667.05
383.41	695.14
383.61	734.93
383.80	688.12
384.00	634.29
384.19	671.73
384.39	723.23
384.58	716.20
384.78	767.70
384.97	699.82
385.17	730.25
385.36	758.33
385.56	774.72
385.75	688.12
385.95	725.57
386.14	744.29
386.34	777.06
386.53	781.74
386.72	744.29
386.92	770.04
387.11	812.17
387.31	788.76
387.50	866.00
387.70	784.08
387.89	821.53
388.09	851.96
388.28	786.42
388.48	950.26
388.67	868.34
388.86	924.51
389.06	791.10
389.25	940.90
389.45	987.71
389.64	915.15
389.84	978.34
390.03	894.08
390.22	926.85
390.42	929.19
390.61	856.64
390.81	861.32
391.00	887.06
391.19	1018.13
391.39	999.41
391.58	1015.79
391.78	964.30
391.97	1025.15
392.16	915.15
392.36	898.77
392.55	971.32
392.75	931.53
392.94	929.19
393.13	973.66
393.33	891.74
393.52	987.71
393.71	1083.67
393.91	1048.56
394.10	1034.52
394.29	1048.56
394.49	1006.43
394.68	1128.14
394.88	1128.14
395.07	1203.04
395.26	1125.80
395.46	1156.22
395.65	1142.18
395.84	1111.75
396.04	1081.33
396.23	1029.84
396.42	1135.16
396.62	1116.44
396.81	1268.57
397.00	1158.57
397.19	1203.04
397.39	1210.06
397.58	1167.93
397.77	1186.65
397.97	1214.74
398.16	1256.87
398.35	1317.72
398.55	1249.85
398.74	1289.64
398.93	1390.28
399.12	1366.87
399.32	1352.83
399.51	1357.51
399.70	1397.30
399.90	1451.13
400.09	1495.60
400.28	1432.41
400.47	1362.19
400.67	1507.30
400.86	1474.54
401.05	1493.26
401.24	1390.28
401.44	1380.92
401.63	1561.14
401.82	1514.33
402.01	1511.99
402.21	1584.54
402.40	1530.71
402.59	1542.41
402.78	1638.38
402.97	1432.41
403.17	1610.29
403.36	1769.44
403.55	1572.84
403.74	1533.05
403.93	1624.33
404.13	1664.12
404.32	1720.29
404.51	1650.08
404.70	1706.25
404.89	1689.87
405.09	1701.57
405.28	1708.59
405.47	1797.53
405.66	1685.19
405.85	1732.00
406.05	1762.42
406.24	1727.32
406.43	1809.23
406.62	1741.36
406.81	1877.11
407.00	1827.96
407.20	1877.11
407.39	1919.24
407.58	1914.56
407.77	2038.61
407.96	1921.58
408.15	2047.97
408.34	1891.15
408.54	2047.97
408.73	2017.54
408.92	2026.90
409.11	2108.82
409.30	2008.18
409.49	1998.82
409.68	2045.63
409.87	2015.20
410.07	2064.35
410.26	2195.42
410.45	2183.72
410.64	2246.91
410.83	2232.87
411.02	2235.21
411.21	2223.51
411.40	2347.56
411.59	2317.13
411.78	2289.04
411.98	2300.75
412.17	2249.25
412.36	2359.26
412.55	2422.45
412.74	2504.37
412.93	2431.82
413.12	2345.22
413.31	2525.44
413.50	2492.67
413.69	2499.69
413.88	2464.58
414.07	2656.51
414.26	2527.78
414.45	2581.61
414.64	2658.85
414.83	2640.12
415.02	2747.79
415.22	2754.81
415.41	2775.88
415.60	2913.97
415.79	2874.18
415.98	2906.95
416.17	2775.88
416.36	2974.82
416.55	2773.53
416.74	2942.05
416.93	2818.00
417.12	3052.06
417.31	3026.31
417.50	2878.86
417.69	3014.61
417.88	3098.87
418.07	3105.89
418.26	3133.98
418.45	3194.83
418.64	3232.28
418.83	3138.66
419.02	3087.17
419.21	3152.70
419.39	3187.81
419.58	3274.41
419.77	3124.62
419.96	3227.60
420.15	3300.16
420.34	3262.71
420.53	3351.65
420.72	3337.60
420.91	3356.33
421.10	3435.91
421.29	3478.04
421.48	3421.86
421.67	3382.07
421.86	3396.12
422.05	3391.44
422.24	3386.76
422.43	3454.63
422.61	3536.55
422.80	3599.74
422.99	3562.30
423.18	3501.44
423.37	3564.64
423.56	3468.67
423.75	3475.70
423.94	3534.21
424.13	3393.78
424.32	3405.48
424.50	3611.45
424.69	3627.83
424.88	3517.83
425.07	3482.72
425.26	3468.67
425.45	3520.17
425.64	3616.13
425.83	3578.68
426.01	3721.45
426.20	3609.11
426.39	3618.47
426.58	3566.98
426.77	3681.66
426.96	3529.53
427.15	3606.77
427.33	3794.01
427.52	3644.21
427.71	3721.45
427.90	3826.78
428.09	3777.62
428.28	3784.65
428.46	3735.50
428.65	3878.27
428.84	3716.77
429.03	3904.01
429.22	3648.90
429.40	3768.26
429.59	3709.75
429.78	3641.87
429.97	3574.00
430.16	3815.07
430.34	3875.93
430.53	3831.46
430.72	3875.93
430.91	3829.12
431.10	4018.70
431.28	4032.74
431.47	4269.14
431.66	4072.53
431.85	4088.92
432.03	4201.26
432.22	4145.09
432.41	4297.22
432.60	4327.65
432.79	4236.37
432.97	4229.35
433.16	4175.52
433.35	4227.01
433.54	4196.58
433.72	4329.99
433.91	4264.46
434.10	4348.72
434.28	4355.74
434.47	4573.41
434.66	4528.94
434.85	4498.51
435.03	4440.00
435.22	4397.87
435.41	4540.64
435.59	4566.39
435.78	4699.80
435.97	4578.09
436.16	4793.42
436.34	4638.94
436.53	4636.60
436.72	4610.86
436.90	4655.33
437.09	4561.70
437.28	4617.88
437.46	4596.81
437.65	4777.03
437.84	4807.46
438.02	4706.82
438.21	4727.88
438.40	4704.48
438.58	4875.34
438.77	4936.19
438.96	4868.31
439.14	5036.83
439.33	5088.32
439.52	4865.97
439.70	5036.83
439.89	5195.99
440.08	5158.54
440.26	5174.92
440.45	5116.41
440.63	5345.78
440.82	5308.34
441.01	5291.95
441.19	5240.46
441.38	5547.07
441.57	5547.07
441.75	5535.37
441.94	5631.33
442.12	5579.84
442.31	5746.02
442.50	5650.05
442.68	5572.82
442.87	5673.46
443.05	5799.85
443.24	5633.67
443.43	5689.84
443.61	5760.06
443.80	5954.32
443.98	5790.49
444.17	5619.63
444.35	5874.74
444.54	5919.21
444.73	6052.63
444.91	5846.66
445.10	5774.10
445.28	5849.00
445.47	5755.38
445.65	5816.23
445.84	5963.68
446.02	6071.35
446.21	5989.43
446.39	5846.66
446.58	6111.14
446.77	6113.48
446.95	5923.90
447.14	5951.98
447.32	6111.14
447.51	5834.96
447.69	6200.08
447.88	6052.63
448.06	6031.56
448.25	6076.03
448.43	6099.44
448.62	6043.26
448.80	5994.11
448.99	6150.93
449.17	5977.73
449.36	6057.31
449.54	6228.17
449.73	6239.87
449.91	6399.02
450.10	6321.79
450.28	6487.96
450.46	6455.20
450.65	6373.28
450.83	6396.68
451.02	6408.39
451.20	6457.54
451.39	6443.49
451.57	6532.44
451.76	6572.22
451.94	6422.43
452.13	6597.97
452.31	6310.08
452.49	6502.01
452.68	6443.49
452.86	6534.78
453.05	6682.23
453.23	6785.21
453.42	6623.72
453.60	6679.89
453.78	6609.67
453.97	6745.42
454.15	6527.75
454.34	6665.85
454.52	6857.77
454.70	6785.21
454.89	6988.84
455.07	6869.47
455.26	6789.89
455.44	6864.79
455.62	6874.15
455.81	6829.68
455.99	6925.65
456.17	6904.58
456.36	7082.46
456.54	7143.32
456.73	7197.15
456.91	7288.43
457.09	7183.10
457.28	7424.18
457.46	7335.24
457.64	7377.37
457.83	7267.36
458.01	7311.83
458.19	7541.21
458.38	7309.49
458.56	7538.87
458.74	7545.89
458.93	7356.30
459.11	7543.55
459.29	7311.83
459.48	7754.19
459.66	7555.25
459.84	7674.62
460.03	7789.30
460.21	7595.04
460.39	7522.48
460.57	7531.84
460.76	7768.24
460.94	7915.69
461.12	7960.16
461.31	7597.38
461.49	7864.20
461.67	7730.79
461.85	7911.01
462.04	7873.56
462.22	8372.10
462.40	8035.06
462.59	7878.24
462.77	8004.63
462.95	8065.49
463.13	8037.40
463.32	8299.54
463.50	8234.00
463.68	8219.96
463.86	8133.36
464.05	7906.33
464.23	7999.95
464.41	8002.29
464.59	8004.63
464.78	8297.20
464.96	8299.54
465.14	8336.99
465.32	8355.71
465.50	8486.78
465.69	8620.19
465.87	8283.16
466.05	8470.40
466.23	8248.05
466.41	8290.18
466.60	8617.85
466.78	8341.67
466.96	8468.06
467.14	8414.23
467.32	8631.90
467.51	8589.77
467.69	8512.53
467.87	8535.93
468.05	8606.15
468.23	8379.12
468.41	8470.40
468.60	8667.00
468.78	8863.61
468.96	8896.38
469.14	8812.12
469.32	8912.76
469.50	8638.92
469.69	8835.52
469.87	8922.12
470.05	9137.45
470.23	8917.44
470.41	9048.51
470.59	8971.27
470.77	8987.66
470.95	9186.60
471.14	9053.19
471.32	8877.65
471.50	9373.85
471.68	9432.36
471.86	9348.10
472.04	9296.61
472.22	9654.71
472.40	9277.88
472.58	9797.48
472.77	9497.89
472.95	9495.55
473.13	9895.78
473.31	9666.41
473.49	9528.32
473.67	9734.29
473.85	9647.69
474.03	10120.48
474.21	9970.68
474.39	9958.98
474.57	10045.58
474.75	10178.99
474.93	10242.18
475.12	10239.84
475.30	10389.64
475.48	10256.23
475.66	10434.11
475.84	10305.38
476.02	10324.10
476.20	10298.36
476.38	10583.90
476.56	10883.49
476.74	10909.24
476.92	10773.49
477.10	10696.25
477.28	11000.52
477.46	11059.03
477.64	11087.12
477.82	11084.78
478.00	11424.15
478.18	11276.70
478.36	11496.71
478.54	11705.02
478.72	11655.87
478.90	11742.47
479.08	11932.05
479.26	11929.71
479.44	11843.11
479.62	12194.19
479.80	11981.20
479.98	12168.45
480.16	12409.52
480.34	12404.84
480.52	12533.57
480.70	12231.64
480.88	12491.44
481.06	12362.71
481.24	12688.04
481.41	12894.01
481.59	13034.44
481.77	13142.11
481.95	13207.64
482.13	13245.09
482.31	13348.08
482.49	13778.73
482.67	13783.41
482.85	13631.28
483.03	13729.58
483.21	14031.51
483.39	13900.44
483.57	13984.70
483.74	14272.59
483.92	14185.99
484.10	14410.68
484.28	14207.05
484.46	14874.10
484.64	15016.88
484.82	14846.02
485.00	14817.93
485.18	15272.00
485.35	15218.16
485.53	14946.66
485.71	15059.01
485.89	15264.97
486.07	15325.83
486.25	15295.40
486.43	15421.79
486.61	15496.69
486.78	16322.90
486.96	16016.29
487.14	16570.99
487.32	16166.08
487.50	16596.74
487.68	16863.56
487.85	16938.46
488.03	16884.62
488.21	17090.59
488.39	17090.59
488.57	17172.51
488.75	17231.02
488.92	17502.53
489.10	17884.03
489.28	17888.71
489.46	17750.62
489.64	18192.98
489.81	18508.96
489.99	18387.25
490.17	18333.42
490.35	18726.63
490.53	18436.40
490.70	18621.30
490.88	18888.12
491.06	19087.07
491.24	19077.71
491.41	18876.42
491.59	19194.73
491.77	19206.44
491.95	19585.60
492.13	19372.61
492.30	19803.27
492.48	19852.42
492.66	19957.75
492.84	19983.49
493.01	20631.82
493.19	20212.87
493.37	20554.58
493.54	20643.52
493.72	20898.64
493.90	20905.66
494.08	20819.07
494.25	21345.69
494.43	21202.91
494.61	21731.87
494.79	21532.93
494.96	21266.11
495.14	21790.39
495.32	21710.81
495.49	21996.35
495.67	21942.52
495.85	22244.45
496.02	22270.20
496.20	22565.10
496.38	22480.85
496.55	22394.25
496.73	23201.73
496.91	22691.49
497.09	22984.06
497.26	23225.14
497.44	23290.67
497.62	23129.17
497.79	23733.03
497.97	23323.44
498.14	23665.16
498.32	23473.23
498.50	23726.01
498.67	24259.65
498.85	23590.26
499.03	24287.74
499.20	24084.11
499.38	24259.65
499.56	24339.23
499.73	24580.31
499.91	24613.07
500.08	24739.46
500.26	24203.48
500.44	24812.02
500.61	24968.84
500.79	24608.39
500.97	24837.76
501.14	25092.88
501.32	25235.66
501.49	25373.75
501.67	25392.47
501.84	25497.80
502.02	25263.74
502.20	25951.86
502.37	25745.89
502.55	25839.51
502.72	25958.88
502.90	25825.47
503.07	25937.82
503.25	26129.74
503.43	26265.49
503.60	26281.88
503.78	26263.15
503.95	26284.22
504.13	26382.52
504.30	26525.29
504.48	26820.20
504.65	27009.78
504.83	26916.16
505.01	27108.08
505.18	27332.78
505.36	27475.55
505.53	27318.73
505.71	27594.92
505.88	27686.20
506.06	27704.92
506.23	27756.41
506.41	27482.57
506.58	27967.06
506.76	27648.75
506.93	27913.23
507.11	27709.60
507.28	28158.99
507.46	27756.41
507.63	28018.55
507.81	28114.52
507.98	28161.33
508.16	28063.02
508.33	28453.89
508.50	28961.79
508.68	28474.96
508.85	29237.97
509.03	29106.90
509.20	29177.12
509.38	29137.33
509.55	29223.93
509.73	29315.21
509.90	29198.18
510.08	29420.53
510.25	29259.04
510.42	29605.44
510.60	29364.36
510.77	29872.26
510.95	30008.01
511.12	29652.25
511.30	29752.89
511.47	29909.71
511.64	30068.86
511.82	30251.42
511.99	29834.81
512.17	30551.01
512.34	30256.11
512.51	30668.04
512.69	30710.17
512.86	30160.14
513.04	30862.30
513.21	31023.80
513.38	30761.66
513.56	30916.14
513.73	30623.57
513.90	30920.82
514.08	30604.84
514.25	31133.81
514.43	30897.41
514.60	31323.39
514.77	31079.97
514.95	31044.87
515.12	31297.64
515.29	31536.38
515.47	31409.99
515.64	31688.51
515.81	31632.34
515.99	31693.19
516.16	32016.19
516.33	31824.26
516.51	32034.91
516.68	31630.00
516.85	31674.47
517.03	31651.06
517.20	32116.83
517.37	32297.05
517.54	32034.91
517.72	32278.33
517.89	32095.77
518.06	31969.38
518.24	32283.01
518.41	32383.65
518.58	32421.10
518.75	32271.31
518.93	33046.02
519.10	32776.86
519.27	33146.67
519.45	33263.69
519.62	33235.61
519.79	33443.91
519.96	33188.80
520.14	33369.02
520.31	33457.96
520.48	33535.20
520.65	33692.01
520.83	33900.32
521.00	33872.23
521.17	33553.92
521.34	33818.40
521.52	33787.97
521.69	34211.61
521.86	34134.37
522.03	34267.78
522.20	34174.16
522.38	34352.04
522.55	34637.59
522.72	34305.23
522.89	34391.83
523.07	34679.72
523.24	34387.15
523.41	34728.87
523.58	34518.22
523.75	34944.20
523.92	34775.68
524.10	34771.00
524.27	35026.12
524.44	35093.99
524.61	34953.56
524.78	35033.14
524.96	35182.93
525.13	35632.32
525.30	35564.44
525.47	35585.50
525.64	35400.60
525.81	35812.54
525.98	35391.24
526.16	35770.41
526.33	35405.28
526.50	35772.75
526.67	35742.32
526.84	35723.60
527.01	35452.09
527.18	35917.86
527.36	35920.20
527.53	36280.64
527.70	36381.29
527.87	36645.77
528.04	36098.08
528.21	36322.77
528.38	35952.97
528.55	36290.01
528.72	36510.02
528.89	36737.05
529.07	36598.96
529.24	36664.49
529.41	36622.36
529.58	36657.47
529.75	36753.43
529.92	36840.03
530.09	37125.58
530.26	36973.44
530.43	37275.37
530.60	36730.03
530.77	37088.13
530.94	37621.77
531.11	37394.74
531.28	37123.24
531.46	37399.42
531.63	38005.62
531.80	37392.40
531.97	37589.00
532.14	37502.40
532.31	37326.86
532.48	37621.77
532.65	37766.88
532.82	37443.89
532.99	38045.41
533.16	37563.26
533.33	37893.27
533.50	38022.00
533.67	37780.93
533.84	37914.34
534.01	37897.95
534.18	37940.08
534.35	38272.44
534.52	37890.93
534.69	38178.82
534.86	38663.31
535.03	38059.45
535.20	38574.37
535.37	38522.88
535.54	38639.90
535.71	38129.67
535.88	38630.54
536.05	38726.50
536.22	38766.29
536.38	38651.61
536.55	38644.59
536.72	38707.78
536.89	38361.38
537.06	38218.61
537.23	39260.15
537.40	38859.91
537.57	38803.74
537.74	39154.82
537.91	39688.46
538.08	39409.94
538.25	38639.90
538.42	39302.28
538.59	39459.09
538.75	39274.19
538.92	39295.25
539.09	39159.50
539.26	39629.95
539.43	39208.65
539.60	39562.08
539.77	39157.16
539.94	39468.45
540.11	39096.31
540.28	39232.06
540.44	39723.57
540.61	39283.55
540.78	39318.66
540.95	39480.16
541.12	39234.40
541.29	39723.57
541.46	39957.63
541.62	39849.96
541.79	39894.43
541.96	39910.82
542.13	39716.55
542.30	39962.31
542.47	40039.54
542.63	39735.27
542.80	40399.99
542.97	40608.29
543.14	40655.11
543.31	41057.68
543.48	40617.66
543.64	41298.75
543.81	40762.77
543.98	40992.14
544.15	40699.58
544.32	41024.91
544.48	41560.89
544.65	40917.25
544.82	40680.85
544.99	40760.43
545.16	40875.12
545.32	40863.41
545.49	41294.07
545.66	40957.03
545.83	41221.52
546.00	41443.87
546.16	41102.15
546.33	41280.03
546.50	40781.49
546.67	41165.34
546.83	40559.14
547.00	41200.45
547.17	41251.94
547.34	41301.09
547.50	41750.48
547.67	41493.02
547.84	41464.93
548.00	41741.11
548.17	41530.47
548.34	41471.95
548.51	41860.48
548.67	42211.56
548.84	41989.21
549.01	41900.27
549.18	42099.22
549.34	42078.15
549.51	41780.90
549.68	42298.16
549.84	41670.90
550.01	42314.55
550.18	41923.68
550.34	41879.21
550.51	41832.39
550.68	41918.99
550.84	41603.02
551.01	42295.82
551.18	41893.25
551.34	42206.88
551.51	42139.00
551.68	42244.33
551.84	42241.99
552.01	42167.09
552.18	42572.00
552.34	42260.71
552.51	42883.30
552.68	42796.70
552.84	42948.83
553.01	43189.91
553.18	42693.71
553.34	42698.39
553.51	42333.27
553.67	42597.75
553.84	43459.07
554.01	42651.58
554.17	42927.77
554.34	43126.71
554.51	43107.99
554.67	42813.08
554.84	42665.63
555.00	42646.90
555.17	42962.87
555.33	43065.86
555.50	42979.26
555.67	43117.35
555.83	43168.84
556.00	42923.08
556.16	43304.59
556.33	43681.42
556.50	43065.86
556.66	43189.91
556.83	43035.43
556.99	43112.67
557.16	43161.82
557.32	43220.33
557.49	43503.54
557.65	43288.21
557.82	43222.67
557.98	42986.28
558.15	43330.34
558.32	43676.74
558.48	43545.67
558.65	43611.20
558.81	43283.53
558.98	43372.47
559.14	43515.24
559.31	43461.41
559.47	43220.33
559.64	44271.23
559.80	44072.29
559.97	43679.08
560.13	43093.94
560.30	43791.42
560.46	43620.56
560.63	43470.77
560.79	43681.42
560.96	43470.77
561.12	43784.40
561.29	43845.26
561.45	43999.73
561.61	43798.44
561.78	43707.16
561.94	43545.67
562.11	43342.04
562.27	43653.33
562.44	43903.77
562.60	43814.83
562.77	44313.36
562.93	44046.54
563.10	43634.61
563.26	43643.97
563.42	43945.90
563.59	43648.65
563.75	44144.84
563.92	44261.87
564.08	44140.16
564.24	44383.58
564.41	44210.38
564.57	43672.06
564.74	43957.60
564.90	44292.30
565.07	44264.21
565.23	43840.57
565.39	43945.90
565.56	44240.81
565.72	44002.07
565.88	43648.65
566.05	44512.31
566.21	43491.83
566.38	44154.21
566.54	44119.10
566.70	44353.15
566.87	44446.77
567.03	44243.15
567.19	44671.46
567.36	44250.17
567.52	43800.79
567.68	44378.90
567.85	44170.59
568.01	44205.70
568.17	44123.78
568.34	44308.68
568.50	44336.77
568.66	43929.51
568.83	44802.53
568.99	44357.83
569.15	44062.93
569.32	44240.81
569.48	44105.06
569.64	44388.26
569.81	44083.99
569.97	44271.23
570.13	44308.68
570.30	44383.58
570.46	44083.99
570.62	44238.47
570.78	44179.95
570.95	44414.01
571.11	44428.05
571.27	44619.97
571.43	44404.64
571.60	44741.68
571.76	44102.71
571.92	44428.05
572.09	44254.85
572.25	44404.64
572.41	44526.35
572.57	44507.63
572.74	45249.58
572.90	44933.60
573.06	44348.47
573.22	45008.50
573.38	44449.11
573.55	44465.50
573.71	44713.59
573.87	44458.48
574.03	44732.32
574.20	44327.41
574.36	44329.75
574.52	45062.33
574.68	44612.95
574.84	44449.11
575.01	44535.71
575.17	44886.79
575.33	44257.19
575.49	44659.76
575.65	44793.17
575.82	44772.11
575.98	44769.77
576.14	45048.29
576.30	44940.63
576.46	44247.83
576.62	44313.36
576.79	44631.68
576.95	44453.79
577.11	44666.78
577.27	44605.93
577.43	44884.45
577.59	44795.51
577.75	44547.42
577.92	44446.77
578.08	44357.83
578.24	44313.36
578.40	44535.71
578.56	44722.96
578.72	44641.04
578.88	44528.69
579.04	44657.42
579.21	44732.32
579.37	44212.72
579.53	44739.34
579.69	44540.39
579.85	44442.09
580.01	44776.79
580.17	44598.91
580.33	45003.82
580.49	44732.32
580.65	45006.16
580.82	44615.29
580.98	44381.24
581.14	44612.95
581.30	44713.59
581.46	44570.82
581.62	45148.93
581.78	44751.04
581.94	44816.58
582.10	44884.45
582.26	45228.51
582.42	44891.48
582.58	44596.57
582.74	44488.90
582.90	44973.39
583.06	44816.58
583.22	45113.83
583.38	44992.12
583.54	44912.54
583.70	44561.46
583.86	44835.30
584.02	44683.17
584.18	44938.29
584.34	44266.55
584.50	45059.99
584.66	44931.26
584.82	44491.24
584.98	45095.10
585.14	44732.32
585.30	44495.92
585.46	44804.88
585.62	44449.11
585.78	44994.46
585.94	44596.57
586.10	44957.01
586.26	44786.15
586.42	44851.69
586.58	45394.69
586.74	45090.42
586.90	44418.69
587.06	44542.74
587.22	44776.79
587.38	44687.85
587.54	45090.42
587.70	45254.26
587.86	45006.16
588.02	44605.93
588.18	45230.85
588.34	44664.44
588.49	44732.32
588.65	44708.91
588.81	44835.30
588.97	44315.70
589.13	44465.50
589.29	44208.04
589.45	44907.86
589.61	45052.97
589.77	45277.66
589.93	44720.62
590.08	45305.75
590.24	45280.00
