SpectraSuite Data File
++++++++++++++++++++++++++++++++++++
Date: Fri Oct 25 11:34:40 EDT 2013
User: price-jones
Dark Spectrum Present: No
Reference Spectrum Present: No
Number of Sampled Component Spectra: 1
Spectrometers: USB2+H05261
Integration Time (usec): 100000 (USB2+H05261)
Spectra Averaged: 1 (USB2+H05261)
Boxcar Smoothing: 0 (USB2+H05261)
Correct for Electrical Dark: No (USB2+H05261)
Strobe/Lamp Enabled: No (USB2+H05261)
Correct for Detector Non-linearity: No (USB2+H05261)
Correct for Stray Light: No (USB2+H05261)
Number of Pixels in Processed Spectrum: 2048
>>>>>Begin Processed Spectral Data<<<<<
365.73	271.50
365.92	271.50
366.12	271.50
366.32	210.65
366.52	154.48
366.72	222.35
366.91	152.13
367.11	222.35
367.31	180.22
367.51	152.13
367.70	191.92
367.90	84.26
368.10	215.33
368.30	201.29
368.49	107.66
368.69	187.24
368.89	241.08
369.09	210.65
369.28	208.31
369.48	201.29
369.68	227.03
369.87	236.39
370.07	285.55
370.27	299.59
370.47	311.29
370.66	458.74
370.86	472.79
371.06	554.71
371.25	559.39
371.45	566.41
371.65	587.47
371.84	547.69
372.04	540.66
372.24	599.18
372.44	514.92
372.63	531.30
372.83	535.98
373.03	507.90
373.22	636.63
373.42	608.54
373.62	566.41
373.81	690.46
374.01	648.33
374.21	660.03
374.40	674.07
374.60	653.01
374.79	671.73
374.99	599.18
375.19	667.05
375.38	601.52
375.58	596.84
375.78	734.93
375.97	650.67
376.17	636.63
376.37	720.88
376.56	615.56
376.76	760.67
376.95	709.18
377.15	641.31
377.35	720.88
377.54	671.73
377.74	704.50
377.93	627.26
378.13	650.67
378.33	716.20
378.52	695.14
378.72	664.71
378.91	732.59
379.11	638.97
379.31	699.82
379.50	645.99
379.70	678.76
379.89	702.16
380.09	667.05
380.28	662.37
380.48	660.03
380.68	704.50
380.87	763.01
381.07	702.16
381.26	760.67
381.46	800.46
381.65	760.67
381.85	760.67
382.04	718.54
382.24	660.03
382.43	807.48
382.63	784.08
382.83	697.48
383.02	866.00
383.22	798.12
383.41	758.33
383.61	809.83
383.80	816.85
384.00	786.42
384.19	819.19
384.39	819.19
384.58	791.10
384.78	777.06
384.97	809.83
385.17	791.10
385.36	809.83
385.56	828.55
385.75	779.40
385.95	786.42
386.14	882.38
386.34	873.02
386.53	807.48
386.72	826.21
386.92	849.61
387.11	849.61
387.31	791.10
387.50	875.36
387.70	784.08
387.89	835.57
388.09	917.49
388.28	901.11
388.48	917.49
388.67	837.91
388.86	814.51
389.06	875.36
389.25	891.74
389.45	894.08
389.64	908.13
389.84	894.08
390.03	1004.09
390.22	950.26
390.42	901.11
390.61	922.17
390.81	966.64
391.00	966.64
391.19	1015.79
391.39	994.73
391.58	1071.97
391.78	952.60
391.97	1015.79
392.16	950.26
392.36	971.32
392.55	936.21
392.75	1071.97
392.94	1013.45
393.13	1011.11
393.33	945.58
393.52	1090.69
393.71	1060.26
393.91	990.05
394.10	1032.18
394.29	994.73
394.49	1128.14
394.68	1043.88
394.88	976.00
395.07	1170.27
395.26	1132.82
395.46	1097.71
395.65	1128.14
395.84	1146.86
396.04	1214.74
396.23	1062.60
396.42	1158.57
396.62	1135.16
396.81	1153.88
397.00	1132.82
397.19	1186.65
397.39	1151.54
397.58	1132.82
397.77	1224.10
397.97	1214.74
398.16	1165.59
398.35	1268.57
398.55	1165.59
398.74	1231.12
398.93	1252.19
399.12	1249.85
399.32	1256.87
399.51	1249.85
399.70	1280.27
399.90	1252.19
400.09	1315.38
400.28	1378.58
400.47	1263.89
400.67	1273.25
400.86	1275.59
401.05	1245.16
401.24	1380.92
401.44	1322.40
401.63	1341.13
401.82	1434.75
402.01	1366.87
402.21	1331.76
402.40	1369.21
402.59	1348.15
402.78	1460.49
402.97	1446.45
403.17	1329.42
403.36	1446.45
403.55	1544.75
403.74	1596.25
403.93	1467.52
404.13	1528.37
404.32	1526.03
404.51	1514.33
404.70	1570.50
404.89	1556.46
405.09	1614.97
405.28	1591.56
405.47	1584.54
405.66	1671.14
405.85	1563.48
406.05	1643.06
406.24	1607.95
406.43	1650.08
406.62	1806.89
406.81	1722.63
407.00	1696.89
407.20	1621.99
407.39	1650.08
407.58	1692.21
407.77	1762.42
407.96	1853.70
408.15	1851.36
408.34	1809.23
408.54	1879.45
408.73	1874.77
408.92	1853.70
409.11	1816.26
409.30	1935.62
409.49	1893.49
409.68	1795.19
409.87	1895.83
410.07	2022.22
410.26	1886.47
410.45	2012.86
410.64	1923.92
410.83	2010.52
411.02	2094.78
411.21	2127.55
411.40	2115.84
411.59	2148.61
411.78	2120.53
411.98	2113.50
412.17	2174.36
412.36	2108.82
412.55	2132.23
412.74	2279.68
412.93	2237.55
413.12	2139.25
413.31	2326.49
413.50	2303.09
413.69	2314.79
413.88	2366.28
414.07	2282.02
414.26	2480.97
414.45	2406.07
414.64	2445.86
414.83	2436.50
415.02	2434.16
415.22	2471.61
415.41	2665.87
415.60	2450.54
415.79	2586.29
415.98	2630.76
416.17	2656.51
416.36	2607.36
416.55	2722.04
416.74	2642.46
416.93	2612.04
417.12	2590.97
417.31	2789.92
417.50	2724.38
417.69	2855.45
417.88	2754.81
418.07	2782.90
418.26	2780.56
418.45	2871.84
418.64	2981.84
418.83	2857.79
419.02	2897.58
419.21	2876.52
419.39	3075.46
419.58	2939.71
419.77	2857.79
419.96	2991.20
420.15	3073.12
420.34	2920.99
420.53	3030.99
420.72	3033.33
420.91	3089.51
421.10	3077.80
421.29	3084.83
421.48	3084.83
421.67	3157.38
421.86	3105.89
422.05	3309.52
422.24	3105.89
422.43	3297.81
422.61	3346.97
422.80	3199.51
422.99	3201.85
423.18	3290.79
423.37	3328.24
423.56	3176.11
423.75	3293.13
423.94	3218.24
424.13	3141.00
424.32	3133.98
424.50	3185.47
424.69	3290.79
424.88	3251.00
425.07	3176.11
425.26	3236.96
425.45	3169.09
425.64	3201.85
425.83	3260.37
426.01	3379.73
426.20	3239.30
426.39	3243.98
426.58	3262.71
426.77	3262.71
426.96	3548.25
427.15	3375.05
427.33	3396.12
427.52	3454.63
427.71	3419.52
427.90	3428.88
428.09	3424.20
428.28	3475.70
428.46	3473.36
428.65	3538.89
428.84	3646.55
429.03	3672.30
429.22	3461.65
429.40	3648.90
429.59	3478.04
429.78	3531.87
429.97	3435.91
430.16	3435.91
430.34	3510.80
430.53	3702.73
430.72	3705.07
430.91	3688.68
431.10	3623.15
431.28	3768.26
431.47	3756.56
431.66	3887.63
431.85	3838.48
432.03	3786.99
432.22	3978.91
432.41	3927.42
432.60	3932.10
432.79	3889.97
432.97	3911.04
433.16	3852.52
433.35	3831.46
433.54	3859.54
433.72	3964.87
433.91	4009.34
434.10	4049.13
434.28	3887.63
434.47	4107.64
434.66	4049.13
434.85	4063.17
435.03	4079.55
435.22	4107.64
435.41	4105.30
435.59	4149.77
435.78	4168.49
435.97	4205.94
436.16	4135.73
436.34	4028.06
436.53	4173.18
436.72	4430.63
436.90	4128.70
437.09	4238.71
437.28	4224.67
437.46	4241.05
437.65	4346.37
437.84	4313.61
438.02	4484.47
438.21	4358.08
438.40	4243.39
438.58	4456.38
438.77	4507.87
438.96	4470.42
439.14	4699.80
439.33	4503.19
439.52	4723.20
439.70	4786.40
439.89	4636.60
440.08	4751.29
440.26	4816.82
440.45	4718.52
440.63	4861.29
440.82	4868.31
441.01	4877.68
441.19	4795.76
441.38	5018.11
441.57	5022.79
441.75	4943.21
441.94	5181.95
442.12	4945.55
442.31	5275.57
442.50	5186.63
442.68	5203.01
442.87	5020.45
443.05	5284.93
443.24	5252.16
443.43	5343.44
443.61	5284.93
443.80	5275.57
443.98	5118.75
444.17	4997.04
444.35	5394.93
444.54	5341.10
444.73	5301.31
444.91	5357.49
445.10	5397.28
445.28	5385.57
445.47	5418.34
445.65	5301.31
445.84	5352.81
446.02	5416.00
446.21	5345.78
446.39	5394.93
446.58	5533.03
446.77	5448.77
446.95	5238.12
447.14	5530.69
447.32	5497.92
447.51	5453.45
447.69	5437.06
447.88	5448.77
448.06	5420.68
448.25	5432.38
448.43	5359.83
448.62	5490.90
448.80	5418.34
448.99	5568.13
449.17	5603.24
449.36	5722.61
449.54	5514.30
449.73	5806.87
449.91	5841.98
450.10	5792.83
450.28	5757.72
450.46	5748.36
450.65	5647.71
450.83	5755.38
451.02	5696.86
451.20	5884.11
451.39	5783.46
451.57	5907.51
451.76	5746.02
451.94	5909.85
452.13	5980.07
452.31	5966.03
452.49	5930.92
452.68	5954.32
452.86	5841.98
453.05	6097.10
453.23	6094.76
453.42	6052.63
453.60	5996.45
453.78	6125.18
453.97	5956.66
454.15	6003.47
454.34	5921.56
454.52	6076.03
454.70	6225.82
454.89	6106.46
455.07	6272.64
455.26	6410.73
455.44	6366.26
455.62	6389.66
455.81	6319.45
455.99	6141.57
456.17	6389.66
456.36	6319.45
456.54	6511.37
456.73	6326.47
456.91	6562.86
457.09	6612.01
457.28	6583.93
457.46	6490.31
457.64	6771.17
457.83	6644.78
458.01	6698.61
458.19	6736.06
458.38	6885.86
458.56	6895.22
458.74	6780.53
458.93	6651.80
459.11	6693.93
459.29	6789.89
459.48	7012.24
459.66	7012.24
459.84	7028.63
460.03	7014.59
460.21	6892.88
460.39	7077.78
460.57	6892.88
460.76	7054.37
460.94	7042.67
461.12	7129.27
461.31	7274.38
461.49	7178.42
461.67	7239.28
461.85	7061.40
462.04	7068.42
462.22	7573.97
462.40	7419.50
462.59	7489.71
462.77	7208.85
462.95	7412.48
463.13	7438.22
463.32	7405.46
463.50	7480.35
463.68	7515.46
463.86	7396.09
464.05	7449.93
464.23	7393.75
464.41	7517.80
464.59	7468.65
464.78	7683.98
464.96	7595.04
465.14	7517.80
465.32	7669.94
465.50	7683.98
465.69	7597.38
465.87	7716.75
466.05	7667.60
466.23	7555.25
466.41	7545.89
466.60	7981.23
466.78	7632.49
466.96	7665.25
467.14	7775.26
467.32	7749.51
467.51	7868.88
467.69	7824.41
467.87	8056.12
468.05	7707.38
468.23	7742.49
468.41	7892.29
468.60	7829.09
468.78	8070.17
468.96	8116.98
469.14	7969.52
469.32	8250.39
469.50	7840.79
469.69	8128.68
469.87	8245.71
470.05	8100.59
470.23	8358.05
470.41	8329.97
470.59	8446.99
470.77	8184.85
470.95	8484.44
471.14	8446.99
471.32	8301.88
471.50	8599.13
471.68	8573.38
471.86	8498.49
472.04	8779.35
472.22	8725.52
472.40	8624.87
472.58	8826.16
472.77	8772.33
472.95	8908.08
473.13	9039.15
473.31	8795.73
473.49	8884.67
473.67	8966.59
473.85	9039.15
474.03	9118.73
474.21	9282.56
474.39	9214.69
474.57	9259.16
474.75	9224.05
474.93	9373.85
475.12	9177.24
475.30	9619.60
475.48	9413.63
475.66	9467.47
475.84	9490.87
476.02	9750.67
476.20	9610.24
476.38	9708.54
476.56	10211.76
476.74	10092.39
476.92	10001.11
477.10	9846.63
477.28	10083.03
477.46	10087.71
477.64	10328.78
477.82	10197.71
478.00	10424.75
478.18	10626.03
478.36	10565.18
478.54	10745.40
478.72	10656.46
478.90	10824.98
479.08	10918.60
479.26	10974.77
479.44	11145.63
479.62	11084.78
479.80	11372.66
479.98	11325.85
480.16	11440.54
480.34	11424.15
480.52	11508.41
480.70	11428.84
480.88	11470.97
481.06	11693.32
481.24	11714.38
481.41	11955.46
481.59	11810.34
481.77	12098.23
481.95	12112.27
482.13	12313.56
482.31	12194.19
482.49	12472.71
482.67	12575.70
482.85	12744.22
483.03	12798.05
483.21	12980.61
483.39	12886.99
483.57	12776.98
483.74	12940.82
483.92	13191.26
484.10	13081.25
484.28	13317.65
484.46	13598.51
484.64	13886.40
484.82	13579.79
485.00	13591.49
485.18	13874.70
485.35	14300.67
485.53	14314.72
485.71	14288.97
485.89	14658.78
486.07	14579.20
486.25	14565.15
486.43	14588.56
486.61	14616.65
486.78	14897.51
486.96	15009.86
487.14	14967.73
487.32	15482.64
487.50	15480.30
487.68	15623.08
487.85	15625.42
488.03	15896.92
488.21	15908.62
488.39	15807.98
488.57	16350.98
488.75	16025.65
488.92	16407.16
489.10	16631.85
489.28	16585.04
489.46	16711.42
489.64	16697.38
489.81	16980.59
489.99	17053.14
490.17	17195.92
490.35	17441.67
490.53	17439.33
490.70	17406.56
490.88	17724.88
491.06	17818.50
491.24	17909.78
491.41	17792.75
491.59	18015.10
491.77	18108.72
491.95	18045.53
492.13	18518.32
492.30	18640.03
492.48	18525.34
492.66	18616.62
492.84	18778.12
493.01	18925.57
493.19	18693.86
493.37	19131.54
493.54	18993.45
493.72	19522.41
493.90	19321.12
494.08	19609.01
494.25	19819.66
494.43	19550.49
494.61	19939.02
494.79	19950.73
494.96	20105.20
495.14	20407.13
495.32	20294.79
495.49	20512.46
495.67	20334.57
495.85	20877.58
496.02	20758.21
496.20	20989.92
496.38	21039.08
496.55	21090.57
496.73	21546.97
496.91	21336.32
497.09	21518.89
497.26	21422.92
497.44	21523.57
497.62	21792.73
497.79	21923.80
497.97	21830.18
498.14	22197.64
498.32	22279.56
498.50	21954.22
498.67	22686.81
498.85	22354.46
499.03	22726.60
499.20	22717.24
499.38	23014.49
499.56	22904.48
499.73	22913.84
499.91	23213.43
500.08	23257.90
500.26	23264.92
500.44	23293.01
500.61	23447.49
500.79	23234.50
500.97	23513.02
501.14	23491.96
501.32	23672.18
501.49	23852.40
501.67	23672.18
501.84	24105.18
502.02	23875.80
502.20	24074.75
502.37	24372.00
502.55	24123.90
502.72	24482.00
502.90	24538.18
503.07	24383.70
503.25	24835.42
503.43	24582.65
503.60	24802.66
503.78	24987.56
503.95	24833.08
504.13	24706.70
504.30	25254.38
504.48	25254.38
504.65	25228.63
504.83	25448.64
505.01	25418.22
505.18	25455.67
505.36	25722.49
505.53	25701.42
505.71	25820.79
505.88	25895.69
506.06	26008.03
506.23	26218.68
506.41	25942.50
506.58	26092.29
506.76	26171.87
506.93	26431.67
507.11	26260.81
507.28	26480.82
507.46	26562.74
507.63	26497.20
507.81	26874.03
507.98	26525.29
508.16	26780.41
508.33	26958.29
508.50	26913.82
508.68	26855.31
508.85	27421.72
509.03	27072.98
509.20	27110.43
509.38	27693.22
509.55	27716.62
509.73	27250.86
509.90	27545.76
510.08	27564.49
510.25	27721.30
510.42	27718.96
510.60	27871.10
510.77	27936.63
510.95	28620.07
511.12	28297.08
511.30	27917.91
511.47	28320.48
511.64	28285.37
511.82	28383.68
511.99	28308.78
512.17	28589.64
512.34	28570.92
512.51	29013.28
512.69	29200.52
512.86	28968.81
513.04	29113.92
513.21	28907.96
513.38	28954.77
513.56	29486.07
513.73	29385.43
513.90	29579.69
514.08	29315.21
514.25	29518.84
514.43	29837.15
514.60	29764.59
514.77	29865.24
514.95	29982.26
515.12	30061.84
515.29	30057.16
515.47	30075.88
515.64	30518.25
515.81	29933.11
515.99	30366.11
516.16	30375.47
516.33	30607.19
516.51	30675.06
516.68	30316.96
516.85	30639.95
517.03	31061.25
517.20	31037.84
517.37	30766.34
517.54	30909.11
517.72	30871.67
517.89	30883.37
518.06	31159.55
518.24	31452.12
518.41	30764.00
518.58	31232.11
518.75	31201.68
518.93	31512.97
519.10	31257.85
519.27	31737.66
519.45	31363.18
519.62	31885.12
519.79	32023.21
519.96	31852.35
520.14	31765.75
520.31	31377.22
520.48	31711.92
520.65	31997.46
520.83	32451.53
521.00	32886.87
521.17	31894.48
521.34	31962.36
521.52	32350.88
521.69	32491.32
521.86	32556.85
522.03	32793.25
522.20	32638.77
522.38	33123.26
522.55	33287.10
522.72	33151.35
522.89	33130.28
523.07	33572.64
523.24	32680.90
523.41	33160.71
523.58	33120.92
523.75	33556.26
523.92	33055.39
524.10	33366.68
524.27	33785.63
524.44	33544.56
524.61	33979.90
524.78	33956.49
524.96	33827.76
525.13	33902.66
525.30	33869.89
525.47	33897.98
525.64	34059.48
525.81	34548.65
525.98	34312.25
526.16	34052.45
526.33	33991.60
526.50	34169.48
526.67	34223.31
526.84	34684.40
527.01	34167.14
527.18	34593.12
527.36	34668.02
527.53	34773.34
527.70	35239.11
527.87	34771.00
528.04	34838.87
528.21	35150.17
528.38	35119.74
528.55	35182.93
528.72	34852.92
528.89	35241.45
529.07	34925.47
529.24	35019.10
529.41	35468.48
529.58	35028.46
529.75	35737.64
529.92	35512.95
530.09	35351.45
530.26	35365.49
530.43	35931.90
530.60	34829.51
530.77	35316.34
530.94	35707.21
531.11	35548.06
531.28	35454.44
531.46	35854.67
531.63	36332.14
531.80	35964.67
531.97	36336.82
532.14	36297.03
532.31	35997.44
532.48	36367.24
532.65	36577.89
532.82	36341.50
532.99	36423.42
533.16	36362.56
533.33	36788.54
533.50	36510.02
533.67	36652.79
533.84	36191.70
534.01	36540.44
534.18	36383.63
534.35	36905.57
534.52	36854.08
534.69	37148.98
534.86	36858.76
535.03	37038.98
535.20	36772.16
535.37	36950.04
535.54	37511.77
535.71	36849.39
535.88	37408.78
536.05	37488.36
536.22	37074.09
536.38	37600.71
536.55	37244.94
536.72	37287.07
536.89	37174.73
537.06	37479.00
537.23	37717.73
537.40	37312.82
537.57	37156.00
537.74	37612.41
537.91	37809.01
538.08	38007.96
538.25	37610.07
538.42	37780.93
538.59	38251.38
538.75	37961.15
538.92	38230.31
539.09	38167.12
539.26	37876.89
539.43	38326.27
539.60	38455.00
539.77	38443.30
539.94	38557.99
540.11	38286.48
540.28	38045.41
540.44	38609.48
540.61	37886.25
540.78	38286.48
540.95	38679.69
541.12	38569.69
541.29	38536.92
541.46	38520.54
541.62	38590.75
541.79	38803.74
541.96	38572.03
542.13	39126.74
542.30	38803.74
542.47	38518.20
542.63	38990.98
542.80	38965.24
542.97	39428.66
543.14	39498.88
543.31	39021.41
543.48	39068.22
543.64	39882.73
543.81	39531.65
543.98	39611.23
544.15	39908.47
544.32	39398.24
544.48	40205.72
544.65	39770.38
544.82	39423.98
544.99	39873.37
545.16	39871.03
545.32	39707.19
545.49	40509.99
545.66	40311.05
545.83	40493.61
546.00	40046.57
546.16	39924.86
546.33	40184.66
546.50	40175.30
546.67	40339.13
546.83	40016.14
547.00	39917.84
547.17	40383.60
547.34	40346.15
547.50	40245.51
547.67	40542.76
547.84	40856.39
548.00	40858.73
548.17	40961.72
548.34	40568.51
548.51	40772.13
548.67	41148.96
548.84	40456.16
549.01	40854.05
549.18	40552.12
549.34	41067.04
549.51	40861.07
549.68	41146.62
549.84	41120.87
550.01	41347.90
550.18	40437.44
550.34	40788.52
550.51	40950.01
550.68	41188.75
550.84	41251.94
551.01	41205.13
551.18	41022.57
551.34	40715.96
551.51	41287.05
551.68	40987.46
551.84	41036.61
552.01	41151.30
552.18	41319.82
552.34	41331.52
552.51	41478.97
552.68	41240.24
552.84	41240.24
553.01	41734.09
553.18	41855.80
553.34	42068.79
553.51	41340.88
553.67	41792.61
553.84	41862.82
554.01	41745.80
554.17	41642.81
554.34	42195.18
554.51	41558.55
554.67	41961.12
554.84	42319.23
555.00	42094.53
555.17	42344.97
555.33	42340.29
555.50	42082.83
555.67	41975.17
555.83	42417.53
556.00	42433.91
556.16	42452.64
556.33	42316.89
556.50	42770.95
556.66	42291.14
556.83	42267.73
556.99	42520.51
557.16	42653.92
557.32	42852.87
557.49	42717.12
557.65	42387.10
557.82	42555.62
557.98	42452.64
558.15	42813.08
558.32	42689.03
558.48	42401.14
558.65	43150.12
558.81	42852.87
558.98	42766.27
559.14	42504.13
559.31	42492.43
559.47	42663.28
559.64	43157.14
559.80	42501.79
559.97	43311.61
560.13	42586.05
560.30	42682.01
560.46	43246.08
560.63	43072.88
560.79	42855.21
560.96	43002.66
561.12	43180.54
561.29	43494.18
561.45	43304.59
561.61	42981.60
561.78	43070.54
561.94	42979.26
562.11	43426.30
562.27	43384.17
562.44	42948.83
562.60	43269.48
562.77	43222.67
562.93	43063.52
563.10	43966.96
563.26	42974.58
563.42	43814.83
563.59	43246.08
563.75	43278.85
563.92	43040.11
564.08	43246.08
564.24	43316.29
564.41	43318.64
564.57	43335.02
564.74	43751.63
564.90	43075.22
565.07	43199.27
565.23	43234.38
565.39	43365.45
565.56	44179.95
565.72	43728.23
565.88	43770.36
566.05	43288.21
566.21	43730.57
566.38	43978.67
566.54	43842.92
566.70	43878.02
566.87	43510.56
567.03	43363.11
567.19	44128.46
567.36	43833.55
567.52	44105.06
567.68	43803.13
567.85	43779.72
568.01	44095.69
568.17	43590.14
568.34	43943.56
568.50	44437.41
568.66	43812.49
568.83	44215.06
568.99	44236.12
569.15	43906.11
569.32	43739.93
569.48	43737.59
569.64	44172.93
569.81	44381.24
569.97	44371.88
570.13	44011.43
570.30	43709.50
570.46	44083.99
570.62	43711.84
570.78	44076.97
570.95	44294.64
571.11	44580.18
571.27	44076.97
571.43	43643.97
571.60	44432.73
571.76	44205.70
571.92	43899.09
572.09	44051.22
572.25	43906.11
572.41	44521.67
572.57	44119.10
572.74	44364.85
572.90	44519.33
573.06	44648.06
573.22	44554.44
573.38	44414.01
573.55	44318.04
573.71	44729.98
573.87	44348.47
574.03	44456.14
574.20	44966.37
574.36	44488.90
574.52	44091.01
574.68	44311.02
574.84	44348.47
575.01	44715.93
575.17	44905.52
575.33	44692.53
575.49	44418.69
575.65	44549.76
575.82	44615.29
575.98	44163.57
576.14	44868.07
576.30	44744.02
576.46	44718.28
576.62	44643.38
576.79	44215.06
576.95	44149.53
577.11	44397.62
577.27	44556.78
577.43	44694.87
577.59	44362.51
577.75	44196.34
577.92	44051.22
578.08	44282.94
578.24	44378.90
578.40	44781.47
578.56	44671.46
578.72	44652.74
578.88	44549.76
579.04	44493.58
579.21	44641.04
579.37	44708.91
579.53	44786.15
579.69	44418.69
579.85	44821.26
580.01	44699.55
580.17	44589.55
580.33	44774.45
580.49	44671.46
580.65	44751.04
580.82	44605.93
580.98	44701.89
581.14	44226.76
581.30	44584.86
581.46	44446.77
581.62	44575.50
581.78	44488.90
581.94	44685.51
582.10	44430.39
582.26	44662.10
582.42	44603.59
582.58	44655.08
582.74	44718.28
582.90	44570.82
583.06	44573.16
583.22	44947.65
583.38	44912.54
583.54	44849.35
583.70	44495.92
583.86	44975.73
584.02	44722.96
584.18	45059.99
584.34	44664.44
584.50	44959.35
584.66	44847.00
584.82	44905.52
584.98	44891.48
585.14	44858.71
585.30	44711.25
585.46	44982.76
585.62	44617.63
585.78	44589.55
585.94	44650.40
586.10	44690.19
586.26	44687.85
586.42	44964.03
586.58	45067.02
586.74	44882.11
586.90	44837.64
587.06	44301.66
587.22	44835.30
587.38	44636.36
587.54	44837.64
587.70	45207.45
587.86	45291.71
588.02	44863.39
588.18	45001.48
588.34	44802.53
588.49	44879.77
588.65	44788.49
588.81	44505.29
588.97	45146.59
589.13	44570.82
589.29	44928.92
589.45	45059.99
589.61	45511.72
589.77	45385.33
589.93	44994.46
590.08	45221.49
590.24	45151.27
