SpectraSuite Data File
++++++++++++++++++++++++++++++++++++
Date: Fri Oct 25 11:25:43 EDT 2013
User: price-jones
Dark Spectrum Present: No
Reference Spectrum Present: No
Number of Sampled Component Spectra: 1
Spectrometers: USB2+H05261
Integration Time (usec): 100000 (USB2+H05261)
Spectra Averaged: 1 (USB2+H05261)
Boxcar Smoothing: 0 (USB2+H05261)
Correct for Electrical Dark: No (USB2+H05261)
Strobe/Lamp Enabled: No (USB2+H05261)
Correct for Detector Non-linearity: No (USB2+H05261)
Correct for Stray Light: No (USB2+H05261)
Number of Pixels in Processed Spectrum: 2048
>>>>>Begin Processed Spectral Data<<<<<
365.73	245.76
365.92	245.76
366.12	245.76
366.32	168.52
366.52	177.88
366.72	119.37
366.91	93.62
367.11	135.75
367.31	184.90
367.51	126.39
367.70	126.39
367.90	189.58
368.10	121.71
368.30	159.16
368.49	154.48
368.69	117.03
368.89	156.82
369.09	203.63
369.28	135.75
369.48	166.18
369.68	205.97
369.87	196.60
370.07	220.01
370.27	294.91
370.47	308.95
370.66	629.60
370.86	636.63
371.06	704.50
371.25	690.46
371.45	657.69
371.65	748.97
371.84	688.12
372.04	645.99
372.24	669.39
372.44	688.12
372.63	678.76
372.83	737.27
373.03	753.65
373.22	629.60
373.42	863.66
373.62	807.48
373.81	826.21
374.01	807.48
374.21	826.21
374.40	781.74
374.60	849.61
374.79	837.91
374.99	830.89
375.19	844.93
375.38	842.59
375.58	819.19
375.78	866.00
375.97	833.23
376.17	861.32
376.37	877.70
376.56	781.74
376.76	751.31
376.95	851.96
377.15	856.64
377.35	919.83
377.54	922.17
377.74	952.60
377.93	924.51
378.13	901.11
378.33	1015.79
378.52	978.34
378.72	976.00
378.91	922.17
379.11	777.06
379.31	1013.45
379.50	877.70
379.70	940.90
379.89	936.21
380.09	992.39
380.28	924.51
380.48	980.68
380.68	929.19
380.87	971.32
381.07	1053.24
381.26	1062.60
381.46	997.07
381.65	1043.88
381.85	1053.24
382.04	1090.69
382.24	1083.67
382.43	1128.14
382.63	1064.94
382.83	1001.75
383.02	1090.69
383.22	1060.26
383.41	1034.52
383.61	1097.71
383.80	1128.14
384.00	1090.69
384.19	1163.25
384.39	1125.80
384.58	1153.88
384.78	1219.42
384.97	1167.93
385.17	1146.86
385.36	1165.59
385.56	1203.04
385.75	1132.82
385.95	1191.33
386.14	1156.22
386.34	1193.67
386.53	1263.89
386.72	1224.10
386.92	1233.46
387.11	1233.46
387.31	1188.99
387.50	1303.68
387.70	1268.57
387.89	1256.87
388.09	1259.21
388.28	1247.51
388.48	1308.36
388.67	1198.35
388.86	1334.11
389.06	1317.72
389.25	1406.66
389.45	1465.18
389.64	1439.43
389.84	1303.68
390.03	1451.13
390.22	1453.47
390.42	1329.42
390.61	1444.11
390.81	1406.66
391.00	1451.13
391.19	1385.60
391.39	1434.75
391.58	1343.47
391.78	1427.73
391.97	1448.79
392.16	1378.58
392.36	1469.86
392.55	1439.43
392.75	1537.73
392.94	1526.03
393.13	1530.71
393.33	1474.54
393.52	1540.07
393.71	1710.93
393.91	1556.46
394.10	1497.94
394.29	1610.29
394.49	1582.20
394.68	1537.73
394.88	1600.93
395.07	1708.59
395.26	1664.12
395.46	1675.82
395.65	1610.29
395.84	1689.87
396.04	1673.48
396.23	1792.85
396.42	1720.29
396.62	1694.55
396.81	1858.39
397.00	1722.63
397.19	1818.60
397.39	1813.92
397.58	1844.34
397.77	1895.83
397.97	1795.19
398.16	1914.56
398.35	1921.58
398.55	1898.17
398.74	1825.62
398.93	1956.69
399.12	1940.30
399.32	1984.77
399.51	1914.56
399.70	2003.50
399.90	2017.54
400.09	2010.52
400.28	2054.99
400.47	2050.31
400.67	2069.03
400.86	2017.54
401.05	2071.37
401.24	2064.35
401.44	2094.78
401.63	2078.40
401.82	2087.76
402.01	2204.78
402.21	2176.70
402.40	2129.89
402.59	2054.99
402.78	2190.74
402.97	2155.63
403.17	2197.76
403.36	2265.64
403.55	2209.47
403.74	2319.47
403.93	2246.91
404.13	2373.30
404.32	2349.90
404.51	2331.17
404.70	2408.41
404.89	2324.15
405.09	2373.30
405.28	2403.73
405.47	2427.14
405.66	2551.18
405.85	2459.90
406.05	2555.86
406.24	2520.76
406.43	2583.95
406.62	2623.74
406.81	2656.51
407.00	2633.10
407.20	2530.12
407.39	2614.38
407.58	2698.64
407.77	2708.00
407.96	2810.98
408.15	2803.96
408.34	2658.85
408.54	2768.85
408.73	2775.88
408.92	2799.28
409.11	2708.00
409.30	2796.94
409.49	2953.76
409.68	2874.18
409.87	2930.35
410.07	2972.48
410.26	3070.78
410.45	3084.83
410.64	2991.20
410.83	2991.20
411.02	3122.27
411.21	3119.93
411.40	3110.57
411.59	3152.70
411.78	3222.92
411.98	3061.42
412.17	3213.56
412.36	3192.49
412.55	3335.26
412.74	3447.61
412.93	3435.91
413.12	3398.46
413.31	3506.12
413.50	3384.41
413.69	3461.65
413.88	3552.93
414.07	3672.30
414.26	3611.45
414.45	3599.74
414.64	3588.04
414.83	3770.60
415.02	3662.94
415.22	3889.97
415.41	3918.06
415.60	3899.33
415.79	3843.16
415.98	3904.01
416.17	4021.04
416.36	3899.33
416.55	3896.99
416.74	3892.31
416.93	4095.94
417.12	4191.90
417.31	4219.99
417.50	4011.68
417.69	4229.35
417.88	4229.35
418.07	4030.40
418.26	4383.82
418.45	4404.89
418.64	4332.33
418.83	4435.32
419.02	4404.89
419.21	4503.19
419.39	4585.11
419.58	4362.76
419.77	4430.63
419.96	4587.45
420.15	4629.58
420.34	4716.18
420.53	4491.49
420.72	4524.26
420.91	4613.20
421.10	4826.18
421.29	4795.76
421.48	4706.82
421.67	4819.16
421.86	4622.56
422.05	4840.23
422.24	4702.14
422.43	4748.95
422.61	4870.65
422.80	4875.34
422.99	4990.02
423.18	4910.44
423.37	4936.19
423.56	4865.97
423.75	4966.62
423.94	4777.03
424.13	4617.88
424.32	4695.11
424.50	5020.45
424.69	5013.43
424.88	5153.86
425.07	4952.57
425.26	4901.08
425.45	5116.41
425.64	4922.15
425.83	5004.07
426.01	4980.66
426.20	5036.83
426.39	4931.51
426.58	4905.76
426.77	5088.32
426.96	5149.18
427.15	5067.26
427.33	5125.77
427.52	5224.08
427.71	5160.88
427.90	5158.54
428.09	5458.13
428.28	5383.23
428.46	5376.21
428.65	5301.31
428.84	5556.43
429.03	5427.70
429.22	5289.61
429.40	5502.60
429.59	5413.66
429.78	5296.63
429.97	5261.52
430.16	5401.96
430.34	5504.94
430.53	5696.86
430.72	5680.48
430.91	5537.71
431.10	5645.37
431.28	5699.20
431.47	5607.92
431.66	6038.58
431.85	5696.86
432.03	5898.15
432.22	5813.89
432.41	5788.14
432.60	5891.13
432.79	6003.47
432.97	5881.77
433.16	6069.01
433.35	5994.11
433.54	6038.58
433.72	5961.34
433.91	6179.01
434.10	6113.48
434.28	5996.45
434.47	6190.72
434.66	6253.91
434.85	6314.77
435.03	6228.17
435.22	6317.11
435.41	6277.32
435.59	6246.89
435.78	6361.58
435.97	6490.31
436.16	6417.75
436.34	6607.33
436.53	6413.07
436.72	6532.44
436.90	6579.25
437.09	6665.85
437.28	6602.65
437.46	6525.41
437.65	6670.53
437.84	6656.48
438.02	6478.60
438.21	6827.34
438.40	6743.08
438.58	6930.33
438.77	7108.21
438.96	6888.20
439.14	7192.47
439.33	7096.50
439.52	7199.49
439.70	7339.92
439.89	7346.94
440.08	7454.61
440.26	7405.46
440.45	7360.98
440.63	7290.77
440.82	7522.48
441.01	7485.03
441.19	7492.05
441.38	7651.21
441.57	7683.98
441.75	7700.36
441.94	7871.22
442.12	7896.97
442.31	8009.31
442.50	7903.99
442.68	8058.46
442.87	8006.97
443.05	8035.06
443.24	8161.45
443.43	8198.90
443.61	8250.39
443.80	8435.29
443.98	8049.10
444.17	7728.45
444.35	8187.19
444.54	8238.69
444.73	8269.11
444.91	8084.21
445.10	8168.47
445.28	8308.90
445.47	8112.30
445.65	8322.94
445.84	8465.72
446.02	8269.11
446.21	8418.91
446.39	8402.52
446.58	8442.31
446.77	8456.36
446.95	8437.63
447.14	8402.52
447.32	8517.21
447.51	8416.57
447.69	8514.87
447.88	8418.91
448.06	8510.19
448.25	8582.74
448.43	8505.51
448.62	8685.73
448.80	8615.51
448.99	8564.02
449.17	8713.81
449.36	8842.54
449.54	8739.56
449.73	8870.63
449.91	9013.40
450.10	8849.57
450.28	9001.70
450.46	8966.59
450.65	8926.80
450.83	8879.99
451.02	9020.42
451.20	9202.99
451.39	9186.60
451.57	9125.75
451.76	9022.77
451.94	9282.56
452.13	9226.39
452.31	9088.30
452.49	9041.49
452.68	9408.95
452.86	9132.77
453.05	9186.60
453.23	9523.64
453.42	9249.80
453.60	9198.31
453.78	9418.32
453.97	9418.32
454.15	9252.14
454.34	9298.95
454.52	9385.55
454.70	9696.84
454.89	9769.40
455.07	9760.03
455.26	9736.63
455.44	9977.70
455.62	9834.93
455.81	9980.04
455.99	10031.54
456.17	10022.17
456.36	10008.13
456.54	10127.50
456.73	10146.22
456.91	10534.75
457.09	10293.68
457.28	10469.22
457.46	10331.12
457.64	10164.95
457.83	10569.86
458.01	10427.09
458.19	10700.93
458.38	10420.06
458.56	10682.20
458.74	10574.54
458.93	10932.64
459.11	10525.39
459.29	10593.26
459.48	10651.78
459.66	10640.08
459.84	10965.41
460.03	10759.44
460.21	10846.04
460.39	10860.09
460.57	10960.73
460.76	10946.69
460.94	11080.10
461.12	11108.18
461.31	11187.76
461.49	10974.77
461.67	10874.13
461.85	11428.84
462.04	11269.68
462.22	11751.83
462.40	11576.29
462.59	11253.30
462.77	11489.69
462.95	11524.80
463.13	11658.21
463.32	11482.67
463.50	11623.10
463.68	11597.35
463.86	11683.95
464.05	11494.37
464.23	11515.44
464.41	11557.57
464.59	11679.27
464.78	11831.41
464.96	11815.02
465.14	11850.13
465.32	11770.55
465.50	11967.16
465.69	11955.46
465.87	12257.39
466.05	12168.45
466.23	12100.57
466.41	12156.74
466.60	12535.91
466.78	11913.33
466.96	12102.91
467.14	12201.21
467.32	12351.01
467.51	12430.59
467.69	12112.27
467.87	12430.59
468.05	12432.93
468.23	12596.76
468.41	12507.82
468.60	12383.77
468.78	12767.62
468.96	12528.89
469.14	12760.60
469.32	12861.24
469.50	12578.04
469.69	12908.05
469.87	12872.95
470.05	13083.59
470.23	13153.81
470.41	12896.35
470.59	13142.11
470.77	13022.74
470.95	13163.17
471.14	13652.34
471.32	13001.68
471.50	13523.62
471.68	13542.34
471.86	13558.72
472.04	13760.01
472.22	14036.19
472.40	13563.40
472.58	13687.45
472.77	13888.74
472.95	13848.95
473.13	14277.27
473.31	14010.45
473.49	14043.21
473.67	13846.61
473.85	14125.13
474.03	14373.23
474.21	14565.15
474.39	14497.28
474.57	14672.82
474.75	14817.93
474.93	14920.92
475.12	15005.17
475.30	14869.42
475.48	14998.15
475.66	15007.52
475.84	15012.20
476.02	15229.87
476.20	15164.33
476.38	15660.52
476.56	15665.21
476.74	15948.41
476.92	15763.51
477.10	15749.46
477.28	15997.56
477.46	15866.49
477.64	16510.14
477.82	16472.69
478.00	16910.37
478.18	16594.40
478.36	16886.97
478.54	17146.76
478.72	17128.04
478.90	17022.72
479.08	17476.78
479.26	17671.04
479.44	17453.37
479.62	17521.25
479.80	17919.14
479.98	17788.07
480.16	18506.62
480.34	17874.67
480.52	18520.66
480.70	18384.91
480.88	18586.19
481.06	18565.13
481.24	18656.41
481.41	18649.39
481.59	19232.18
481.77	19248.57
481.95	19150.26
482.13	19585.60
482.31	19655.82
482.49	19990.52
482.67	19791.57
482.85	20053.71
483.03	20210.53
483.21	20535.86
483.39	20823.75
483.57	20751.19
483.74	21081.21
483.92	21315.26
484.10	21256.75
484.28	21631.23
484.46	21638.25
484.64	22099.34
484.82	21902.73
485.00	22001.04
485.18	22735.96
485.35	22778.09
485.53	22838.95
485.71	23229.82
485.89	23082.36
486.07	23215.77
486.25	23545.79
486.43	23463.87
486.61	23620.69
486.78	23534.09
486.96	24177.73
487.14	24535.84
487.32	24030.28
487.50	24891.60
487.68	24793.29
487.85	25057.78
488.03	25425.24
488.21	25429.92
488.39	25750.57
488.57	25940.16
488.75	25916.75
488.92	26171.87
489.10	26321.66
489.28	26490.18
489.46	27124.47
489.64	26862.33
489.81	27276.60
489.99	27332.78
490.17	27477.89
490.35	28039.62
490.53	28072.39
490.70	28044.30
490.88	28254.95
491.06	28882.21
491.24	28779.23
491.41	29153.71
491.59	29315.21
491.77	29010.94
491.95	29315.21
492.13	29483.73
492.30	29612.46
492.48	29731.83
492.66	30106.31
492.84	30216.32
493.01	30586.12
493.19	30431.65
493.37	31028.48
493.54	30574.42
493.72	31370.20
493.90	31115.08
494.08	31613.62
494.25	31896.82
494.43	32165.98
494.61	32168.32
494.79	32088.74
494.96	32378.97
495.14	32755.80
495.32	33263.69
495.49	32842.40
495.67	33289.44
495.85	33301.14
496.02	33605.41
496.20	33589.03
496.38	33816.06
496.55	33556.26
496.73	34623.54
496.91	34017.35
497.09	34352.04
497.26	34380.13
497.44	34745.25
497.62	35168.89
497.79	35253.15
497.97	35377.20
498.14	36020.84
498.32	35796.15
498.50	35981.06
498.67	36114.47
498.85	36486.61
499.03	36605.98
499.20	36566.19
499.38	36189.36
499.56	36648.11
499.73	37008.55
499.91	37296.44
500.08	37284.73
500.26	37055.36
500.44	37577.30
500.61	37483.68
500.79	37415.80
500.97	37832.42
501.14	38124.99
501.32	38019.66
501.49	38335.63
501.67	38824.81
501.84	38387.13
502.02	38401.17
502.20	38848.21
502.37	38932.47
502.55	38871.62
502.72	39407.60
502.90	39281.21
503.07	39332.70
503.25	39271.85
503.43	39288.23
503.60	40121.46
503.78	39966.99
503.95	40158.91
504.13	39779.74
504.30	40198.70
504.48	40219.77
504.65	40617.66
504.83	40854.05
505.01	41088.10
505.18	40629.36
505.36	41057.68
505.53	41078.74
505.71	41139.60
505.88	41764.52
506.06	40978.10
506.23	41607.70
506.41	41869.84
506.58	41921.34
506.76	42326.25
506.93	42344.97
507.11	42092.19
507.28	42452.64
507.46	42541.58
507.63	42682.01
507.81	43147.78
507.98	42557.96
508.16	42873.93
508.33	43122.03
508.50	43208.63
508.68	43510.56
508.85	43370.13
509.03	43480.13
509.20	43789.08
509.38	44004.41
509.55	44233.78
509.73	44332.09
509.90	44526.35
510.08	44044.20
510.25	44624.65
510.42	44208.04
510.60	45134.89
510.77	44879.77
510.95	45497.67
511.12	44669.12
511.30	44421.03
511.47	44938.29
511.64	45394.69
511.82	45895.56
511.99	45516.40
512.17	46014.93
512.34	45415.76
512.51	45794.92
512.69	46483.04
512.86	45586.61
513.04	46696.03
513.21	46335.59
513.38	46080.47
513.56	46454.95
513.73	46344.95
513.90	46541.55
514.08	46562.62
514.25	47012.00
514.43	47058.81
514.60	47419.25
514.77	47070.51
514.95	47285.84
515.12	47199.24
515.29	47426.28
515.47	48156.52
515.64	47643.94
515.81	47065.83
515.99	47437.98
516.16	48278.23
516.33	48069.92
516.51	48336.74
516.68	48205.67
516.85	48224.40
517.03	48736.98
517.20	48226.74
517.37	48577.82
517.54	48301.64
517.72	48772.08
517.89	48800.17
518.06	48725.27
518.24	49153.59
518.41	48994.43
518.58	49006.14
518.75	49191.04
518.93	49378.28
519.10	48865.70
519.27	49415.73
519.45	49151.25
519.62	49972.78
519.79	49556.16
519.96	50017.25
520.14	50019.59
520.31	49808.94
520.48	50281.73
520.65	50110.87
520.83	50410.46
521.00	50141.30
521.17	50574.30
521.34	50370.67
521.52	50506.42
521.69	50738.13
521.86	50426.84
522.03	51016.66
522.20	51299.86
522.38	51508.17
522.55	51054.11
522.72	50817.71
522.89	50946.44
523.07	51475.40
523.24	51578.39
523.41	51810.10
523.58	51302.20
523.75	51650.94
523.92	51379.44
524.10	51634.56
524.27	51817.12
524.44	51653.28
524.61	51774.99
524.78	51760.95
524.96	51789.03
525.13	51873.29
525.30	52041.81
525.47	52200.97
525.64	52343.74
525.81	52280.55
525.98	52858.66
526.16	52250.12
526.33	52573.11
526.50	52437.36
526.67	52875.04
526.84	52734.61
527.01	52811.85
527.18	52591.84
527.36	52671.42
527.53	52865.68
527.70	53050.58
527.87	53406.34
528.04	53183.99
528.21	53137.18
528.38	53148.88
528.55	53436.77
528.72	53179.31
528.89	53345.49
529.07	53141.86
529.24	53277.61
529.41	53612.31
529.58	53586.57
529.75	53478.90
529.92	53092.71
530.09	53663.80
530.26	53647.42
530.43	53869.77
530.60	53666.14
530.77	53560.82
530.94	53717.64
531.11	53717.64
531.28	54054.67
531.46	54157.66
531.63	54085.10
531.80	54141.27
531.97	54468.95
532.14	54342.56
532.31	54349.58
532.48	54232.55
532.65	54293.41
532.82	54466.61
532.99	54770.88
533.16	54344.90
533.33	54595.34
533.50	54639.81
533.67	54394.05
533.84	54302.77
534.01	54724.07
534.18	54499.37
534.35	55025.99
534.52	54873.86
534.69	54995.57
534.86	55203.88
535.03	54967.48
535.20	54953.44
535.37	55025.99
535.54	55341.97
535.71	54894.92
535.88	55033.02
536.05	55253.03
536.22	55653.26
536.38	55463.67
536.55	55192.17
536.72	55121.96
536.89	55302.18
537.06	55435.59
537.23	55470.70
537.40	55372.39
537.57	55618.15
537.74	55433.25
537.91	55716.45
538.08	55732.84
538.25	55529.21
538.42	55784.33
538.59	55833.48
538.75	55735.18
538.92	55894.33
539.09	55985.61
539.26	56088.60
539.43	55903.70
539.60	56364.78
539.77	56090.94
539.94	56374.14
540.11	56268.82
540.28	56376.48
540.44	56170.52
540.61	56306.27
540.78	56163.50
540.95	56016.04
541.12	56147.11
541.29	56264.14
541.46	56416.27
541.62	56179.88
541.79	56437.34
541.96	56355.42
542.13	56507.55
542.30	56612.88
542.47	56694.80
542.63	56797.78
542.80	56626.92
542.97	56582.45
543.14	56940.55
543.31	57286.95
543.48	56891.40
543.64	57380.57
543.81	57263.55
543.98	57209.71
544.15	57308.02
544.32	57240.14
544.48	57242.48
544.65	57198.01
544.82	57403.98
544.99	57085.67
545.16	57284.61
545.32	57240.14
545.49	57806.55
545.66	57595.90
545.83	57488.24
546.00	57694.21
546.16	57350.15
546.33	57350.15
546.50	57336.10
546.67	57322.06
546.83	57148.86
547.00	57558.45
547.17	57556.11
547.34	57628.67
547.50	57811.23
547.67	57836.98
547.84	58045.29
548.00	58061.67
548.17	57888.47
548.34	57904.85
548.51	57872.09
548.67	58026.56
548.84	57867.40
549.01	58103.80
549.18	58225.51
549.34	58134.23
549.51	58281.68
549.68	58302.74
549.84	58056.99
550.01	58361.26
550.18	57972.73
550.34	58248.91
550.51	58262.96
550.68	58174.02
550.84	57867.40
551.01	58372.96
551.18	58302.74
551.34	58553.18
551.51	58410.41
551.68	58468.92
551.84	58365.94
552.01	58375.30
552.18	58312.11
552.34	58356.58
552.51	58710.00
552.68	58408.07
552.84	58574.25
553.01	58691.27
553.18	58644.46
553.34	58829.37
553.51	58693.61
553.67	58686.59
553.84	58918.31
554.01	58871.49
554.17	58784.90
554.34	58995.54
554.51	58974.48
554.67	59086.82
554.84	58915.96
555.00	58782.55
555.17	58735.74
555.33	58688.93
555.50	58862.13
555.67	58754.47
555.83	58979.16
556.00	58981.50
556.16	58969.80
556.33	59126.61
556.50	58962.78
556.66	59112.57
556.83	59098.53
556.99	59344.28
557.16	59299.81
557.32	59363.01
557.49	59505.78
557.65	59154.70
557.82	59128.95
557.98	59009.59
558.15	59243.64
558.32	59297.47
558.48	59316.20
558.65	59274.07
558.81	59206.19
558.98	59510.46
559.14	59447.27
559.31	59456.63
559.47	59339.60
559.64	59639.19
559.80	59442.59
559.97	59484.72
560.13	59358.33
560.30	59494.08
560.46	59707.07
560.63	59508.12
560.79	59547.91
560.96	59891.97
561.12	59896.65
561.29	59723.45
561.45	59676.64
561.61	59753.88
561.78	59840.48
561.94	59477.69
562.11	59763.24
562.27	59765.58
562.44	59898.99
562.60	59826.43
562.77	59833.46
562.93	59678.98
563.10	60114.32
563.26	59840.48
563.42	59994.95
563.59	59604.08
563.75	59732.81
563.92	59718.77
564.08	59973.89
564.24	59994.95
564.41	60086.23
564.57	59973.89
564.74	59845.16
564.90	60069.85
565.07	59842.82
565.23	59840.48
565.39	59931.76
565.56	60046.44
565.72	60079.21
565.88	60168.15
566.05	60074.53
566.21	60074.53
566.38	59906.01
566.54	60214.96
566.70	60186.88
566.87	60315.61
567.03	60006.65
567.19	60458.38
567.36	60273.48
567.52	59880.27
567.68	60336.67
567.85	60123.68
568.01	60259.43
568.17	59983.25
568.34	60083.89
568.50	60282.84
568.66	60030.06
568.83	60324.97
568.99	59983.25
569.15	60093.25
569.32	60376.46
569.48	60147.09
569.64	60411.57
569.81	60261.77
569.97	60135.38
570.13	60240.71
570.30	60308.58
570.46	60388.16
570.62	60355.39
570.78	60376.46
570.95	60336.67
571.11	60505.19
571.27	60287.52
571.43	60388.16
571.60	60446.68
571.76	60530.93
571.92	60322.63
572.09	60582.43
572.25	60285.18
572.41	60378.80
572.57	60556.68
572.74	60441.99
572.90	60348.37
573.06	60411.57
573.22	60617.53
573.38	60463.06
573.55	60446.68
573.71	60626.90
573.87	60610.51
574.03	60364.76
574.20	60584.77
574.36	60336.67
574.52	60533.28
574.68	60587.11
574.84	60718.18
575.01	60566.04
575.17	60404.55
575.33	60521.57
575.49	60591.79
575.65	60678.39
575.82	60650.30
575.98	60563.70
576.14	60783.71
576.30	60772.01
576.46	60516.89
576.62	60547.32
576.79	60685.41
576.95	60537.96
577.11	60706.47
577.27	60713.50
577.43	60566.04
577.59	60647.96
577.75	60687.75
577.92	60493.49
578.08	60884.36
578.24	60563.70
578.40	60743.92
578.56	60865.63
578.72	60769.67
578.88	60882.02
579.04	60865.63
579.21	60797.76
579.37	60811.80
579.53	60898.40
579.69	60699.45
579.85	60708.82
580.01	60718.18
580.17	60718.18
580.33	60893.72
580.49	60893.72
580.65	60928.83
580.82	60832.86
580.98	60598.81
581.14	60809.46
581.30	60788.39
581.46	60720.52
581.62	60598.81
581.78	60685.41
581.94	60718.18
582.10	60673.71
582.26	60725.20
582.42	60657.32
582.58	60942.87
582.74	60856.27
582.90	60898.40
583.06	60952.23
583.22	60638.60
583.38	60704.13
583.54	60743.92
583.70	60959.25
583.86	60760.31
584.02	60580.09
584.18	60924.14
584.34	60921.80
584.50	60863.29
584.66	60783.71
584.82	60818.82
584.98	60914.78
585.14	60919.46
585.30	60795.42
585.46	60996.70
585.62	60996.70
585.78	61080.96
585.94	60544.98
586.10	60921.80
586.26	60807.12
586.42	61062.24
586.58	60795.42
586.74	60996.70
586.90	60858.61
587.06	60790.73
587.22	60898.40
587.38	60942.87
587.54	60858.61
587.70	61200.33
587.86	60940.53
588.02	61083.30
588.18	61169.90
588.34	60802.44
588.49	60912.44
