SpectraSuite Data File
++++++++++++++++++++++++++++++++++++
Date: Fri Oct 25 11:23:32 EDT 2013
User: price-jones
Dark Spectrum Present: No
Reference Spectrum Present: No
Number of Sampled Component Spectra: 1
Spectrometers: USB2+H05261
Integration Time (usec): 100000 (USB2+H05261)
Spectra Averaged: 1 (USB2+H05261)
Boxcar Smoothing: 0 (USB2+H05261)
Correct for Electrical Dark: No (USB2+H05261)
Strobe/Lamp Enabled: No (USB2+H05261)
Correct for Detector Non-linearity: No (USB2+H05261)
Correct for Stray Light: No (USB2+H05261)
Number of Pixels in Processed Spectrum: 2048
>>>>>Begin Processed Spectral Data<<<<<
365.73	297.25
365.92	297.25
366.12	297.25
366.32	182.56
366.52	77.24
366.72	231.71
366.91	91.28
367.11	222.35
367.31	88.94
367.51	100.64
367.70	95.96
367.90	124.05
368.10	133.41
368.30	112.35
368.49	133.41
368.69	124.05
368.89	133.41
369.09	133.41
369.28	236.39
369.48	46.81
369.68	145.11
369.87	170.86
370.07	138.09
370.27	215.33
370.47	271.50
370.66	580.45
370.86	596.84
371.06	688.12
371.25	655.35
371.45	711.52
371.65	730.25
371.84	699.82
372.04	711.52
372.24	678.76
372.44	727.91
372.63	718.54
372.83	739.61
373.03	854.30
373.22	795.78
373.42	807.48
373.62	727.91
373.81	828.55
374.01	866.00
374.21	905.79
374.40	823.87
374.60	835.57
374.79	755.99
374.99	873.02
375.19	788.76
375.38	758.33
375.58	826.21
375.78	760.67
375.97	856.64
376.17	842.59
376.37	844.93
376.56	866.00
376.76	819.19
376.95	840.25
377.15	840.25
377.35	882.38
377.54	971.32
377.74	929.19
377.93	917.49
378.13	856.64
378.33	856.64
378.52	837.91
378.72	931.53
378.91	987.71
379.11	816.85
379.31	978.34
379.50	898.77
379.70	947.92
379.89	926.85
380.09	926.85
380.28	959.62
380.48	1013.45
380.68	954.94
380.87	999.41
381.07	1022.81
381.26	1090.69
381.46	1053.24
381.65	1025.15
381.85	961.96
382.04	1053.24
382.24	1083.67
382.43	1086.01
382.63	1029.84
382.83	1046.22
383.02	1086.01
383.22	1050.90
383.41	1062.60
383.61	1069.62
383.80	1151.54
384.00	1083.67
384.19	1050.90
384.39	1184.31
384.58	1067.28
384.78	1135.16
384.97	1196.01
385.17	1196.01
385.36	1153.88
385.56	1156.22
385.75	1149.20
385.95	1181.97
386.14	1196.01
386.34	1188.99
386.53	1165.59
386.72	1235.80
386.92	1210.06
387.11	1212.40
387.31	1254.53
387.50	1210.06
387.70	1191.33
387.89	1306.02
388.09	1247.51
388.28	1338.79
388.48	1310.70
388.67	1329.42
388.86	1299.00
389.06	1296.66
389.25	1352.83
389.45	1327.08
389.64	1294.32
389.84	1425.39
390.03	1399.64
390.22	1327.08
390.42	1394.96
390.61	1439.43
390.81	1441.77
391.00	1385.60
391.19	1432.41
391.39	1425.39
391.58	1397.30
391.78	1432.41
391.97	1502.62
392.16	1486.24
392.36	1551.78
392.55	1607.95
392.75	1570.50
392.94	1502.62
393.13	1624.33
393.33	1519.01
393.52	1589.22
393.71	1645.40
393.91	1563.48
394.10	1666.46
394.29	1593.90
394.49	1577.52
394.68	1689.87
394.88	1652.42
395.07	1783.49
395.26	1825.62
395.46	1771.79
395.65	1673.48
395.84	1757.74
396.04	1790.51
396.23	1724.97
396.42	1701.57
396.62	1764.76
396.81	1732.00
397.00	1853.70
397.19	1825.62
397.39	1797.53
397.58	1893.49
397.77	1818.60
397.97	1921.58
398.16	1778.81
398.35	1872.43
398.55	1834.98
398.74	1785.83
398.93	1893.49
399.12	1902.86
399.32	1818.60
399.51	1952.01
399.70	1975.41
399.90	2062.01
400.09	2064.35
400.28	2167.34
400.47	1968.39
400.67	2160.31
400.86	2136.91
401.05	2104.14
401.24	2113.50
401.44	2167.34
401.63	2092.44
401.82	2188.40
402.01	2162.66
402.21	2165.00
402.40	2239.89
402.59	2162.66
402.78	2286.70
402.97	2270.32
403.17	2310.11
403.36	2204.78
403.55	2232.87
403.74	2382.67
403.93	2298.41
404.13	2275.00
404.32	2466.92
404.51	2413.09
404.70	2387.35
404.89	2403.73
405.09	2417.77
405.28	2509.05
405.47	2497.35
405.66	2487.99
405.85	2553.52
406.05	2586.29
406.24	2527.78
406.43	2546.50
406.62	2602.68
406.81	2621.40
407.00	2605.02
407.20	2602.68
407.39	2555.86
407.58	2792.26
407.77	2644.81
407.96	2717.36
408.15	2745.45
408.34	2729.06
408.54	2860.13
408.73	2878.86
408.92	2946.73
409.11	2946.73
409.30	2916.31
409.49	2942.05
409.68	2967.80
409.87	2958.44
410.07	2974.82
410.26	2853.11
410.45	3005.25
410.64	3150.36
410.83	3073.12
411.02	3129.30
411.21	3283.77
411.40	3108.23
411.59	3262.71
411.78	3243.98
411.98	3300.16
412.17	3218.24
412.36	3386.76
412.55	3485.06
412.74	3412.50
412.93	3358.67
413.12	3424.20
413.31	3506.12
413.50	3473.36
413.69	3471.01
413.88	3634.85
414.07	3548.25
414.26	3700.39
414.45	3609.11
414.64	3667.62
414.83	3803.37
415.02	3749.54
415.22	3962.53
415.41	3875.93
415.60	3801.03
415.79	4060.83
415.98	3983.59
416.17	4084.23
416.36	4032.74
416.55	4067.85
416.74	4117.00
416.93	3964.87
417.12	4117.00
417.31	4276.16
417.50	4154.45
417.69	4264.46
417.88	4322.97
418.07	4187.22
418.26	4135.73
418.45	4301.90
418.64	4393.19
418.83	4283.18
419.02	4512.55
419.21	4510.21
419.39	4535.96
419.58	4528.94
419.77	4510.21
419.96	4592.13
420.15	4528.94
420.34	4472.76
420.53	4660.01
420.72	4643.62
420.91	4592.13
421.10	4805.12
421.29	4966.62
421.48	4746.61
421.67	4755.97
421.86	4849.59
422.05	4805.12
422.24	4826.18
422.43	4830.87
422.61	4973.64
422.80	4931.51
422.99	4823.84
423.18	4936.19
423.37	4800.44
423.56	4894.06
423.75	5025.13
423.94	4964.28
424.13	4535.96
424.32	4837.89
424.50	4985.34
424.69	5284.93
424.88	5022.79
425.07	4915.12
425.26	5053.22
425.45	4943.21
425.64	4940.87
425.83	4980.66
426.01	5050.88
426.20	5071.94
426.39	5107.05
426.58	5055.56
426.77	5125.77
426.96	5078.96
427.15	5085.98
427.33	5275.57
427.52	5165.56
427.71	5359.83
427.90	5263.86
428.09	5203.01
428.28	5437.06
428.46	5350.46
428.65	5416.00
428.84	5483.88
429.03	5685.16
429.22	5432.38
429.40	5497.92
429.59	5556.43
429.78	5373.87
429.97	5343.44
430.16	5467.49
430.34	5493.24
430.53	5722.61
430.72	5504.94
430.91	5537.71
431.10	5727.29
431.28	6033.90
431.47	5664.10
431.66	5713.25
431.85	5776.44
432.03	5923.90
432.22	6118.16
432.41	5994.11
432.60	5949.64
432.79	5856.02
432.97	6094.76
433.16	5956.66
433.35	6092.41
433.54	6078.37
433.72	6132.20
433.91	5987.09
434.10	6303.06
434.28	6001.13
434.47	6129.86
434.66	6183.70
434.85	6289.02
435.03	6494.99
435.22	6541.80
435.41	6471.58
435.59	6466.90
435.78	6492.65
435.97	6539.46
436.16	6424.77
436.34	6347.53
436.53	6497.33
436.72	6815.64
436.90	6558.18
437.09	6817.98
437.28	6429.45
437.46	6719.68
437.65	6656.48
437.84	6829.68
438.02	6796.92
438.21	6789.89
438.40	6682.23
438.58	7117.57
438.77	6906.92
438.96	7007.56
439.14	7241.62
439.33	7136.29
439.52	7180.76
439.70	7171.40
439.89	7379.71
440.08	7332.90
440.26	7433.54
440.45	7351.62
440.63	7445.24
440.82	7801.01
441.01	7489.71
441.19	7470.99
441.38	7716.75
441.57	7801.01
441.75	7911.01
441.94	7913.35
442.12	7985.91
442.31	7988.25
442.50	8173.15
442.68	8077.19
442.87	8021.02
443.05	8042.08
443.24	8037.40
443.43	8285.50
443.61	8301.88
443.80	8500.83
443.98	8039.74
444.17	8025.70
444.35	8173.15
444.54	8334.65
444.73	8374.44
444.91	8194.22
445.10	8301.88
445.28	8339.33
445.47	8194.22
445.65	8393.16
445.84	8521.89
446.02	8456.36
446.21	8292.52
446.39	8421.25
446.58	8472.74
446.77	8557.00
446.95	8203.58
447.14	8292.52
447.32	8610.83
447.51	8428.27
447.69	8512.53
447.88	8568.70
448.06	8521.89
448.25	8423.59
448.43	8533.59
448.62	8557.00
448.80	8634.24
448.99	8709.13
449.17	8620.19
449.36	8596.79
449.54	8800.41
449.73	8905.74
449.91	9029.79
450.10	8858.93
450.28	8912.76
450.46	9029.79
450.65	9121.07
450.83	9071.92
451.02	9160.86
451.20	9144.47
451.39	9322.35
451.57	9116.39
451.76	9043.83
451.94	9364.48
452.13	9385.55
452.31	9334.06
452.49	9308.31
452.68	9446.40
452.86	9247.46
453.05	9589.17
453.23	9420.66
453.42	9301.29
453.60	9481.51
453.78	9605.56
453.97	9476.83
454.15	9458.10
454.34	9631.30
454.52	9825.57
454.70	9675.77
454.89	9713.22
455.07	9748.33
455.26	9652.37
455.44	10001.11
455.62	9984.73
455.81	10031.54
455.99	10001.11
456.17	9958.98
456.36	10038.56
456.54	10197.71
456.73	10370.91
456.91	10457.51
457.09	10382.62
457.28	10410.70
457.46	10312.40
457.64	10513.69
457.83	10672.84
458.01	10382.62
458.19	10562.84
458.38	10537.09
458.56	10654.12
458.74	10913.92
458.93	10724.33
459.11	10443.47
459.29	10810.93
459.48	10801.57
459.66	10771.15
459.84	10855.40
460.03	11030.94
460.21	10909.24
460.39	10998.18
460.57	11042.65
460.76	11211.17
460.94	11318.83
461.12	11468.62
461.31	11049.67
461.49	11164.36
461.67	11379.68
461.85	11265.00
462.04	11126.91
462.22	11831.41
462.40	11651.19
462.59	11332.87
462.77	11461.60
462.95	11705.02
463.13	11751.83
463.32	11744.81
463.50	11662.89
463.68	11793.96
463.86	11817.36
464.05	11758.85
464.23	11936.73
464.41	12035.03
464.59	11808.00
464.78	12156.74
464.96	12100.57
465.14	12067.80
465.32	12224.62
465.50	12098.23
465.69	12229.30
465.87	12067.80
466.05	12091.21
466.23	12479.74
466.41	12290.15
466.60	12491.44
466.78	12121.63
466.96	12423.56
467.14	12386.12
467.32	12468.03
467.51	12498.46
467.69	12219.94
467.87	12662.30
468.05	12718.47
468.23	12587.40
468.41	12624.85
468.60	12760.60
468.78	12851.88
468.96	12587.40
469.14	12784.01
469.32	13076.57
469.50	12491.44
469.69	13081.25
469.87	13137.43
470.05	13099.98
470.23	13109.34
470.41	13495.53
470.59	13284.88
470.77	13247.43
470.95	13568.09
471.14	13444.04
471.32	12982.95
471.50	13823.20
471.68	13668.73
471.86	13734.26
472.04	13813.84
472.22	14092.37
472.40	13762.35
472.58	13848.95
472.77	13802.14
472.95	14342.80
473.13	14579.20
473.31	14403.66
473.49	14272.59
473.67	14361.53
473.85	14506.64
474.03	14317.06
474.21	14391.95
474.39	15108.16
474.57	14808.57
474.75	14836.66
474.93	15040.28
475.12	15098.80
475.30	15279.02
475.48	15199.44
475.66	15431.15
475.84	15030.92
476.02	15484.98
476.20	15524.77
476.38	15737.76
476.56	16243.32
476.74	16215.23
476.92	15887.56
477.10	15653.50
477.28	16271.40
477.46	16044.37
477.64	16624.83
477.82	16528.86
478.00	17214.64
478.18	16879.94
478.36	16926.75
478.54	17287.20
478.72	17238.05
478.90	17284.86
479.08	17617.21
479.26	17781.05
479.44	17671.04
479.62	17799.77
479.80	18188.30
479.98	18338.10
480.16	18675.13
480.34	18658.75
480.52	18593.22
480.70	18726.63
480.88	18354.48
481.06	18614.28
481.24	18981.74
481.41	19208.78
481.59	19248.57
481.77	19545.81
481.95	19690.93
482.13	19520.07
482.31	20091.16
482.49	20381.38
482.67	20657.57
482.85	20336.91
483.03	20503.09
483.21	20655.23
483.39	21097.59
483.57	20903.32
483.74	20950.14
483.92	21493.14
484.10	21448.67
484.28	21898.05
484.46	22057.21
484.64	22237.43
484.82	21867.63
485.00	22368.50
485.18	22693.83
485.35	23030.87
485.53	22953.63
485.71	23096.41
485.89	23424.08
486.07	23470.89
486.25	23538.77
486.43	23419.40
486.61	23880.49
486.78	24004.53
486.96	24388.38
487.14	24411.79
487.32	24826.06
487.50	25261.40
487.68	24900.96
487.85	25160.76
488.03	25678.02
488.21	26024.42
488.39	25839.51
488.57	26103.99
488.75	26221.02
488.92	26520.61
489.10	26824.88
489.28	26951.27
489.46	26953.61
489.64	27454.48
489.81	27835.99
489.99	27669.81
490.17	28004.51
490.35	28173.03
490.53	28311.12
490.70	28566.24
490.88	28606.03
491.06	28741.78
491.24	29132.65
491.41	29102.22
491.59	29511.81
491.77	29450.96
491.95	29617.14
492.13	29656.93
492.30	30178.87
492.48	30096.95
492.66	30249.08
492.84	30717.19
493.01	30452.71
493.19	30845.92
493.37	31108.06
493.54	31255.51
493.72	31707.24
493.90	31585.53
494.08	31983.42
494.25	32058.32
494.43	32322.80
494.61	32402.38
494.79	32484.30
494.96	32774.52
495.14	33041.34
495.32	33378.38
495.49	33516.47
495.67	33223.90
495.85	33703.71
496.02	33453.28
496.20	34345.02
496.38	34373.11
496.55	34213.95
496.73	34726.53
496.91	34424.60
497.09	34822.49
497.26	34864.62
497.44	35056.54
497.62	35519.97
497.79	36170.64
497.97	35908.50
498.14	36070.00
498.32	36067.66
498.50	36521.72
498.67	36954.72
498.85	36552.15
499.03	36746.41
499.20	36952.38
499.38	36795.56
499.56	37460.27
499.73	37446.23
499.91	37460.27
500.08	37727.10
500.26	37736.46
500.44	38291.16
500.61	38174.14
500.79	37474.32
500.97	38284.14
501.14	38756.93
501.32	38565.01
501.49	38986.30
501.67	38593.09
501.84	39210.99
502.02	38960.56
502.20	39398.24
502.37	39688.46
502.55	39559.73
502.72	39103.33
502.90	40095.72
503.07	39950.60
503.25	39840.60
503.43	39913.16
503.60	40535.74
503.78	40463.18
503.95	40456.16
504.13	40828.30
504.30	40814.26
504.48	40598.93
504.65	41097.47
504.83	41308.11
505.01	41256.62
505.18	41326.84
505.36	41516.42
505.53	41640.47
505.71	41914.31
505.88	41904.95
506.06	41661.54
506.23	41869.84
506.41	42244.33
506.58	42335.61
506.76	42656.26
506.93	42686.69
507.11	42550.94
507.28	43051.81
507.46	43037.77
507.63	43079.90
507.81	43393.53
507.98	43342.04
508.16	43669.72
508.33	43627.59
508.50	44069.95
508.68	44083.99
508.85	43997.39
509.03	44112.08
509.20	44594.23
509.38	44470.18
509.55	44685.51
509.73	44612.95
509.90	45209.79
510.08	44996.80
510.25	44957.01
510.42	45064.67
510.60	45319.79
510.77	45385.33
510.95	45390.01
511.12	45397.03
511.30	45357.24
511.47	46206.86
511.64	45514.06
511.82	46197.49
511.99	45682.58
512.17	45921.31
512.34	46174.09
512.51	46602.41
512.69	46487.72
512.86	45944.72
513.04	46773.27
513.21	46731.14
513.38	46892.63
513.56	47012.00
513.73	46801.35
513.90	46815.40
514.08	47192.22
514.25	47428.62
514.43	47613.52
514.60	47772.67
514.77	47529.26
514.95	48037.16
515.12	47812.46
515.29	47847.57
515.47	47941.19
515.64	48339.08
515.81	48098.01
515.99	48659.74
516.16	48491.22
516.33	48318.02
516.51	49221.47
516.68	48722.93
516.85	48662.08
517.03	49165.29
517.20	48687.82
517.37	48818.89
517.54	49081.03
517.72	48959.33
517.89	49392.33
518.06	49485.95
518.24	49352.54
518.41	49373.60
518.58	49696.59
518.75	49380.62
518.93	49762.13
519.10	49710.64
519.27	49930.65
519.45	49907.24
519.62	50218.53
519.79	50064.06
519.96	49872.14
520.14	50246.62
520.31	50492.38
520.48	50401.10
520.65	50321.52
520.83	51044.74
521.00	50836.44
521.17	51014.32
521.34	51014.32
521.52	51004.95
521.69	51145.39
521.86	51208.58
522.03	51276.46
522.20	51203.90
522.38	51955.21
522.55	51107.94
522.72	51629.88
522.89	51363.06
523.07	52046.49
523.24	51384.12
523.41	51964.57
523.58	51791.37
523.75	52196.29
523.92	52140.11
524.10	52051.17
524.27	52362.46
524.44	52041.81
524.61	52275.87
524.78	52179.90
524.96	52205.65
525.13	52535.66
525.30	52320.34
525.47	52767.38
525.64	52704.18
525.81	52853.98
525.98	52523.96
526.16	52460.77
526.33	52718.23
526.50	52891.43
526.67	52725.25
526.84	53073.99
527.01	53017.82
527.18	52722.91
527.36	52994.41
527.53	53146.54
527.70	53488.26
527.87	53488.26
528.04	53492.94
528.21	53492.94
528.38	53577.20
528.55	53521.03
528.72	53525.71
528.89	53441.45
529.07	53794.87
529.24	53499.97
529.41	53801.89
529.58	53698.91
529.75	53867.43
529.92	53886.15
530.09	53989.14
530.26	53975.09
530.43	54169.36
530.60	53876.79
530.77	54014.88
530.94	54382.35
531.11	54000.84
531.28	54176.38
531.46	54284.04
531.63	54319.15
531.80	54431.50
531.97	54518.10
532.14	54663.21
532.31	54567.25
532.48	54698.32
532.65	54541.50
532.82	54590.66
532.99	54864.50
533.16	54588.31
533.33	54745.13
533.50	55192.17
533.67	54707.68
533.84	54784.92
534.01	54885.56
534.18	55028.34
534.35	55515.17
534.52	55454.31
534.69	55496.44
534.86	55545.59
535.03	55121.96
535.20	55398.14
535.37	55569.00
535.54	55601.77
535.71	55264.73
535.88	55650.92
536.05	55400.48
536.22	55814.76
536.38	55613.47
536.55	55679.00
536.72	55730.50
536.89	55704.75
537.06	55695.39
537.23	56020.72
537.40	55599.43
537.57	55662.62
537.74	56147.11
537.91	56006.68
538.08	55943.48
538.25	55980.93
538.42	56058.17
538.59	56479.47
538.75	55891.99
538.92	56219.67
539.09	56439.68
539.26	56479.47
539.43	56100.30
539.60	56329.67
539.77	56184.56
539.94	56680.75
540.11	56378.82
540.28	56638.62
540.44	56718.20
540.61	56615.22
540.78	56397.55
540.95	56631.60
541.12	56624.58
541.29	56917.15
541.46	56870.34
541.62	56797.78
541.79	56636.28
541.96	56750.97
542.13	56750.97
542.30	56830.55
542.47	57031.83
542.63	57092.69
542.80	56790.76
542.97	57069.28
543.14	57301.00
543.31	57345.47
543.48	57478.88
543.64	57600.58
543.81	57579.52
543.98	57425.04
544.15	57584.20
544.32	57612.29
544.48	57790.17
544.65	57506.96
544.82	57609.95
544.99	57483.56
545.16	57563.14
545.32	57631.01
545.49	57581.86
545.66	57848.68
545.83	57773.78
546.00	57764.42
546.16	57476.54
546.33	57705.91
546.50	57598.24
546.67	57773.78
546.83	57572.50
547.00	58045.29
547.17	57790.17
547.34	57939.96
547.50	58040.60
547.67	58272.32
547.84	57907.19
548.00	58284.02
548.17	58529.78
548.34	58225.51
548.51	58412.75
548.67	58358.92
548.84	58288.70
549.01	58206.78
549.18	58169.33
549.34	58415.09
549.51	58438.50
549.68	58543.82
549.84	58534.46
550.01	58312.11
550.18	58319.13
550.34	58534.46
550.51	58686.59
550.68	58609.35
550.84	58141.25
551.01	58677.23
551.18	58710.00
551.34	58808.30
551.51	58766.17
551.68	58571.91
551.84	58787.24
552.01	58932.35
552.18	58759.15
552.34	58431.47
552.51	58824.68
552.68	58738.08
552.84	58747.45
553.01	58972.14
553.18	59054.06
553.34	59297.47
553.51	58614.04
553.67	58904.26
553.84	59025.97
554.01	59037.67
554.17	59009.59
554.34	59147.68
554.51	59093.85
554.67	59260.02
554.84	59061.08
555.00	59260.02
555.17	59185.13
555.33	59189.81
555.50	59152.36
555.67	59021.29
555.83	59231.94
556.00	59121.93
556.16	59402.80
556.33	59377.05
556.50	59339.60
556.66	59339.60
556.83	59098.53
556.99	59648.55
557.16	59693.02
557.32	59388.75
557.49	59873.24
557.65	59697.70
557.82	59599.40
557.98	59524.50
558.15	59590.04
558.32	59592.38
558.48	59332.58
558.65	59505.78
558.81	59620.47
558.98	59573.66
559.14	59812.39
559.31	59898.99
559.47	59943.46
559.64	59908.35
559.80	59868.56
559.97	59803.03
560.13	59730.47
560.30	59688.34
560.46	59842.82
560.63	59664.94
560.79	59969.21
560.96	60006.65
561.12	60095.60
561.29	60065.17
561.45	60067.51
561.61	60030.06
561.78	59861.54
561.94	59976.23
562.11	60065.17
562.27	60093.25
562.44	59978.57
562.60	60065.17
562.77	60116.66
562.93	59807.71
563.10	60320.29
563.26	59983.25
563.42	60367.10
563.59	60069.85
563.75	59866.22
563.92	60067.51
564.08	59976.23
564.24	60411.57
564.41	60196.24
564.57	60334.33
564.74	60217.30
564.90	60168.15
565.07	60327.31
565.23	60381.14
565.39	60425.61
565.56	60189.22
565.72	60210.28
565.88	60301.56
566.05	60357.74
566.21	60346.03
566.38	60385.82
566.54	60434.97
566.70	60484.12
566.87	60491.15
567.03	60296.88
567.19	60622.22
567.36	60521.57
567.52	60369.44
567.68	60559.02
567.85	60439.65
568.01	60528.59
568.17	60313.26
568.34	60617.53
568.50	60343.69
568.66	60477.10
568.83	60610.51
568.99	60467.74
569.15	60411.57
569.32	60549.66
569.48	60561.36
569.64	60727.54
569.81	60537.96
569.97	60514.55
570.13	60493.49
570.30	60437.31
570.46	60369.44
570.62	60552.00
570.78	60650.30
570.95	60533.28
571.11	60825.84
571.27	60500.51
571.43	60622.22
571.60	60856.27
571.76	60697.11
571.92	60549.66
572.09	60633.92
572.25	60589.45
572.41	60575.40
572.57	60711.16
572.74	60753.29
572.90	60823.50
573.06	60678.39
573.22	60676.05
573.38	60846.91
573.55	60495.83
573.71	60942.87
573.87	60940.53
574.03	60526.25
574.20	60872.65
574.36	60673.71
574.52	60877.33
574.68	60856.27
574.84	61036.49
575.01	60762.65
575.17	60874.99
575.33	60837.54
575.49	60757.97
575.65	60851.59
575.82	60781.37
575.98	61092.66
576.14	60966.27
576.30	60973.30
576.46	60802.44
576.62	60659.66
576.79	60919.46
576.95	60643.28
577.11	60884.36
577.27	60942.87
577.43	60804.78
577.59	60828.18
577.75	60879.67
577.92	60704.13
578.08	60945.21
578.24	60956.91
578.40	61102.03
578.56	61029.47
578.72	60823.50
578.88	61020.11
579.04	61155.86
579.21	61048.19
579.37	61055.21
579.53	61090.32
579.69	60874.99
579.85	61020.11
580.01	60830.52
580.17	60832.86
580.33	61031.81
580.49	60996.70
580.65	60949.89
580.82	60968.61
580.98	60954.57
581.14	60884.36
581.30	60980.32
581.46	60832.86
581.62	61050.53
581.78	61008.40
581.94	61153.52
582.10	61015.43
582.26	60977.98
582.42	61010.74
582.58	61048.19
582.74	60882.02
582.90	61120.75
583.06	61073.94
583.22	60825.84
583.38	61027.13
583.54	61118.41
583.70	61130.11
583.86	60989.68
584.02	61041.17
584.18	61300.97
584.34	61017.77
584.50	61078.62
584.66	60954.57
584.82	60828.18
584.98	61186.28
585.14	61118.41
585.30	61120.75
585.46	61113.73
585.62	61078.62
585.78	61242.46
585.94	61069.26
586.10	61312.67
586.26	61183.94
586.42	61240.12
586.58	61277.57
586.74	61197.99
586.90	61167.56
587.06	61162.88
587.22	61223.73
587.38	61247.14
587.54	61300.97
587.70	61279.91
587.86	61118.41
588.02	61064.58
588.18	61373.53
588.34	61003.72
588.49	61010.74
