SpectraSuite Data File
++++++++++++++++++++++++++++++++++++
Date: Fri Oct 25 11:26:39 EDT 2013
User: price-jones
Dark Spectrum Present: No
Reference Spectrum Present: No
Number of Sampled Component Spectra: 1
Spectrometers: USB2+H05261
Integration Time (usec): 100000 (USB2+H05261)
Spectra Averaged: 1 (USB2+H05261)
Boxcar Smoothing: 0 (USB2+H05261)
Correct for Electrical Dark: No (USB2+H05261)
Strobe/Lamp Enabled: No (USB2+H05261)
Correct for Detector Non-linearity: No (USB2+H05261)
Correct for Stray Light: No (USB2+H05261)
Number of Pixels in Processed Spectrum: 2048
>>>>>Begin Processed Spectral Data<<<<<
365.73	250.44
365.92	250.44
366.12	250.44
366.32	194.26
366.52	180.22
366.72	170.86
366.91	105.32
367.11	93.62
367.31	81.92
367.51	77.24
367.70	159.16
367.90	128.73
368.10	170.86
368.30	147.45
368.49	138.09
368.69	182.56
368.89	142.77
369.09	210.65
369.28	182.56
369.48	131.07
369.68	234.05
369.87	191.92
370.07	180.22
370.27	259.80
370.47	273.84
370.66	561.73
370.86	599.18
371.06	617.90
371.25	711.52
371.45	655.35
371.65	667.05
371.84	613.22
372.04	634.29
372.24	676.41
372.44	737.27
372.63	690.46
372.83	741.95
373.03	741.95
373.22	779.40
373.42	830.89
373.62	784.08
373.81	830.89
374.01	805.14
374.21	814.51
374.40	809.83
374.60	777.06
374.79	784.08
374.99	880.04
375.19	905.79
375.38	877.70
375.58	851.96
375.78	894.08
375.97	812.17
376.17	912.81
376.37	854.30
376.56	866.00
376.76	884.72
376.95	826.21
377.15	919.83
377.35	882.38
377.54	936.21
377.74	896.43
377.93	880.04
378.13	1004.09
378.33	924.51
378.52	950.26
378.72	943.24
378.91	917.49
379.11	938.55
379.31	926.85
379.50	987.71
379.70	1013.45
379.89	894.08
380.09	917.49
380.28	950.26
380.48	994.73
380.68	992.39
380.87	1029.84
381.07	1039.20
381.26	1057.92
381.46	1020.47
381.65	1081.33
381.85	1034.52
382.04	1006.43
382.24	1067.28
382.43	1022.81
382.63	1034.52
382.83	1123.46
383.02	1158.57
383.22	1081.33
383.41	1097.71
383.61	1142.18
383.80	1069.62
384.00	1032.18
384.19	1116.44
384.39	1146.86
384.58	1137.50
384.78	1291.98
384.97	1139.84
385.17	1160.91
385.36	1188.99
385.56	1181.97
385.75	1097.71
385.95	1109.41
386.14	1245.16
386.34	1273.25
386.53	1198.35
386.72	1306.02
386.92	1256.87
387.11	1226.44
387.31	1282.61
387.50	1345.81
387.70	1299.00
387.89	1299.00
388.09	1291.98
388.28	1231.12
388.48	1345.81
388.67	1259.21
388.86	1364.53
389.06	1327.08
389.25	1303.68
389.45	1306.02
389.64	1324.74
389.84	1387.94
390.03	1458.15
390.22	1385.60
390.42	1535.39
390.61	1434.75
390.81	1469.86
391.00	1448.79
391.19	1401.98
391.39	1385.60
391.58	1460.49
391.78	1497.94
391.97	1486.24
392.16	1401.98
392.36	1596.25
392.55	1600.93
392.75	1537.73
392.94	1565.82
393.13	1528.37
393.33	1554.12
393.52	1554.12
393.71	1650.08
393.91	1586.88
394.10	1652.42
394.29	1584.54
394.49	1600.93
394.68	1687.53
394.88	1624.33
395.07	1661.78
395.26	1664.12
395.46	1760.08
395.65	1645.40
395.84	1757.74
396.04	1823.28
396.23	1750.72
396.42	1694.55
396.62	1722.63
396.81	1832.64
397.00	1790.51
397.19	1933.28
397.39	1806.89
397.58	1846.68
397.77	1799.87
397.97	1813.92
398.16	1837.32
398.35	1860.73
398.55	1797.53
398.74	1914.56
398.93	1914.56
399.12	1966.05
399.32	1952.01
399.51	1963.71
399.70	2073.71
399.90	2062.01
400.09	2087.76
400.28	2162.66
400.47	2036.27
400.67	2069.03
400.86	2059.67
401.05	2059.67
401.24	2099.46
401.44	2141.59
401.63	2069.03
401.82	2157.97
402.01	2195.42
402.21	2211.81
402.40	2272.66
402.59	2260.96
402.78	2246.91
402.97	2289.04
403.17	2120.53
403.36	2321.81
403.55	2422.45
403.74	2375.64
403.93	2427.14
404.13	2370.96
404.32	2394.37
404.51	2401.39
404.70	2345.22
404.89	2333.51
405.09	2483.31
405.28	2499.69
405.47	2537.14
405.66	2518.42
405.85	2516.08
406.05	2593.31
406.24	2661.19
406.43	2551.18
406.62	2621.40
406.81	2565.23
407.00	2490.33
407.20	2614.38
407.39	2560.55
407.58	2644.81
407.77	2623.74
407.96	2729.06
408.15	2722.04
408.34	2736.09
408.54	2663.53
408.73	2754.81
408.92	2801.62
409.11	2857.79
409.30	2874.18
409.49	2951.42
409.68	2897.58
409.87	2883.54
410.07	2993.55
410.26	3012.27
410.45	3063.76
410.64	3023.97
410.83	3148.02
411.02	3098.87
411.21	3183.13
411.40	3222.92
411.59	3225.26
411.78	3197.17
411.98	3141.00
412.17	3290.79
412.36	3400.80
412.55	3304.84
412.74	3480.38
412.93	3316.54
413.12	3337.60
413.31	3529.53
413.50	3496.76
413.69	3386.76
413.88	3712.09
414.07	3749.54
414.26	3604.42
414.45	3693.37
414.64	3592.72
414.83	3763.58
415.02	3819.75
415.22	3751.88
415.41	3960.19
415.60	3878.27
415.79	3967.21
415.98	3932.10
416.17	4056.15
416.36	3969.55
416.55	3988.27
416.74	3999.98
416.93	4065.51
417.12	4102.96
417.31	4348.72
417.50	4266.80
417.69	4306.59
417.88	4292.54
418.07	4362.76
418.26	4388.50
418.45	4400.21
418.64	4559.36
418.83	4423.61
419.02	4489.15
419.21	4634.26
419.39	4578.09
419.58	4603.83
419.77	4552.34
419.96	4641.28
420.15	4587.45
420.34	4606.17
420.53	4617.88
420.72	4636.60
420.91	4704.48
421.10	4690.43
421.29	4725.54
421.48	4662.35
421.67	4880.02
421.86	4781.71
422.05	4863.63
422.24	4898.74
422.43	4835.55
422.61	4851.93
422.80	4894.06
422.99	4999.38
423.18	4938.53
423.37	5097.69
423.56	4931.51
423.75	4943.21
423.94	4919.81
424.13	4599.15
424.32	4730.22
424.50	5029.81
424.69	5151.52
424.88	5076.62
425.07	4966.62
425.26	4877.68
425.45	5067.26
425.64	4966.62
425.83	4990.02
426.01	5085.98
426.20	5095.35
426.39	4994.70
426.58	5149.18
426.77	5235.78
426.96	5238.12
427.15	5179.61
427.33	5268.55
427.52	5240.46
427.71	5385.57
427.90	5146.84
428.09	5207.69
428.28	5214.71
428.46	5394.93
428.65	5448.77
428.84	5563.45
429.03	5638.35
429.22	5277.91
429.40	5483.88
429.59	5493.24
429.78	5366.85
429.97	5210.03
430.16	5614.95
430.34	5659.42
430.53	5699.20
430.72	5643.03
430.91	5558.77
431.10	5619.63
431.28	5916.87
431.47	5970.71
431.66	6008.16
431.85	5888.79
432.03	6132.20
432.22	5961.34
432.41	5919.21
432.60	5886.45
432.79	6003.47
432.97	6108.80
433.16	6036.24
433.35	5977.73
433.54	6209.44
433.72	6125.18
433.91	6150.93
434.10	6232.85
434.28	6171.99
434.47	6179.01
434.66	6352.21
434.85	6366.26
435.03	6574.56
435.22	6246.89
435.41	6429.45
435.59	6431.79
435.78	6464.56
435.97	6476.26
436.16	6300.72
436.34	6494.99
436.53	6525.41
436.72	6642.44
436.90	6574.56
437.09	6815.64
437.28	6572.22
437.46	6656.48
437.65	6715.00
437.84	6654.14
438.02	6670.53
438.21	6958.41
438.40	6689.25
438.58	7047.35
438.77	7269.70
438.96	6876.49
439.14	7187.79
439.33	7143.32
439.52	7365.67
439.70	7148.00
439.89	7279.07
440.08	7501.42
440.26	7456.95
440.45	7431.20
440.63	7573.97
440.82	7569.29
441.01	7616.10
441.19	7686.32
441.38	7833.77
441.57	7808.03
441.75	7847.82
441.94	7915.69
442.12	7995.27
442.31	8030.38
442.50	7983.57
442.68	8072.51
442.87	8215.28
443.05	8070.17
443.24	8325.29
443.43	8203.58
443.61	8257.41
443.80	8446.99
443.98	8091.23
444.17	8042.08
444.35	8194.22
444.54	8416.57
444.73	8386.14
444.91	8311.24
445.10	8388.48
445.28	8332.31
445.47	8341.67
445.65	8241.03
445.84	8517.21
446.02	8355.71
446.21	8437.63
446.39	8475.08
446.58	8496.14
446.77	8652.96
446.95	8175.49
447.14	8521.89
447.32	8559.34
447.51	8414.23
447.69	8355.71
447.88	8784.03
448.06	8425.93
448.25	8664.66
448.43	8613.17
448.62	8793.39
448.80	8655.30
448.99	8592.11
449.17	8798.07
449.36	8557.00
449.54	8961.91
449.73	8931.48
449.91	9036.81
450.10	8875.31
450.28	9090.64
450.46	9139.79
450.65	9011.06
450.83	9085.96
451.02	9008.72
451.20	9404.27
451.39	9345.76
451.57	9179.58
451.76	9252.14
451.94	9301.29
452.13	9502.58
452.31	9423.00
452.49	9263.84
452.68	9507.26
452.86	9324.69
453.05	9441.72
453.23	9439.38
453.42	9551.73
453.60	9631.30
453.78	9600.88
453.97	9425.34
454.15	9666.41
454.34	9516.62
454.52	9781.10
454.70	9762.37
454.89	9738.97
455.07	9811.53
455.26	9844.29
455.44	9811.53
455.62	9958.98
455.81	10071.33
455.99	10115.80
456.17	10019.83
456.36	10214.10
456.54	10349.85
456.73	10286.65
456.91	10441.13
457.09	10520.71
457.28	10457.51
457.46	10750.08
457.64	10717.31
457.83	10485.60
458.01	10567.52
458.19	10794.55
458.38	10705.61
458.56	10764.12
458.74	10773.49
458.93	10546.45
459.11	10682.20
459.29	10787.53
459.48	10647.10
459.66	10951.37
459.84	10949.03
460.03	11140.95
460.21	10743.06
460.39	11166.70
460.57	11042.65
460.76	11070.73
460.94	11407.77
461.12	11227.55
461.31	11330.53
461.49	11122.23
461.67	11206.48
461.85	11587.99
462.04	11283.72
462.22	11763.53
462.40	11749.49
462.59	11761.19
462.77	11461.60
462.95	11641.82
463.13	11709.70
463.32	11758.85
463.50	11896.94
463.68	11784.60
463.86	11800.98
464.05	11723.74
464.23	11812.68
464.41	12100.57
464.59	11777.58
464.78	12287.81
464.96	12072.48
465.14	11861.84
465.32	12156.74
465.50	12079.50
465.69	12226.96
465.87	12123.98
466.05	12102.91
466.23	12210.57
466.41	12173.13
466.60	12762.94
466.78	12243.34
466.96	12355.69
467.14	12311.22
467.32	12461.01
467.51	12898.69
467.69	12315.90
467.87	12662.30
468.05	12645.91
468.23	12453.99
468.41	12734.85
468.60	12688.04
468.78	12856.56
468.96	12791.03
469.14	12830.82
469.32	13081.25
469.50	12945.50
469.69	13015.72
469.87	13336.37
470.05	13071.89
470.23	13383.18
470.41	12987.63
470.59	13434.68
470.77	13483.83
470.95	13240.41
471.14	13516.59
471.32	13228.71
471.50	13682.77
471.68	13724.90
471.86	13650.00
472.04	13628.94
472.22	14068.96
472.40	13884.06
472.58	13994.06
472.77	13942.57
472.95	13900.44
473.13	14614.30
473.31	13937.89
473.49	14530.05
473.67	14349.82
473.85	14342.80
474.03	14752.40
474.21	14555.79
474.39	14764.10
474.57	14934.96
474.75	14890.49
474.93	15154.97
475.12	15000.49
475.30	15082.41
475.48	15110.50
475.66	15332.85
475.84	15222.84
476.02	15700.31
476.20	15300.08
476.38	15721.38
476.56	16411.84
476.74	16201.19
476.92	15704.99
477.10	16201.19
477.28	16126.29
477.46	16226.93
477.64	16360.34
477.82	16776.96
478.00	17273.15
478.18	16936.12
478.36	17020.38
478.54	17233.36
478.72	17121.02
478.90	17514.23
479.08	17640.62
479.26	17741.26
479.44	17919.14
479.62	17970.63
479.80	18214.05
479.98	18040.85
480.16	18623.64
480.34	18478.53
480.52	18743.01
480.70	18941.96
480.88	18384.91
481.06	18860.04
481.24	18939.62
481.41	19000.47
481.59	19339.85
481.77	19936.68
481.95	19250.91
482.13	19711.99
482.31	19943.70
482.49	20526.50
482.67	20547.56
482.85	20496.07
483.03	20727.78
483.21	20692.68
483.39	20772.25
483.57	20980.56
483.74	21338.66
483.92	21528.25
484.10	21537.61
484.28	21745.92
484.46	22089.98
484.64	22490.21
484.82	22457.44
485.00	22408.29
485.18	22857.67
485.35	23372.59
485.53	23173.64
485.71	23117.47
485.89	23931.98
486.07	23491.96
486.25	23683.88
486.43	23632.39
486.61	24025.60
486.78	24144.97
486.96	24381.36
487.14	24336.89
487.32	24849.47
487.50	24961.81
487.68	25139.69
487.85	25142.03
488.03	25640.57
488.21	26157.83
488.39	25888.67
488.57	25977.61
488.75	26190.59
488.92	26576.78
489.10	26913.82
489.28	26565.08
489.46	27285.97
489.64	27421.72
489.81	28039.62
489.99	27763.43
490.17	27976.42
490.35	28292.40
490.53	28297.08
490.70	28472.62
490.88	28444.53
491.06	28879.87
491.24	28858.81
491.41	29228.61
491.59	29589.05
491.77	29624.16
491.95	29614.80
492.13	29659.27
492.30	30155.46
492.48	30459.73
492.66	30361.43
492.84	30609.53
493.01	30962.95
493.19	30972.31
493.37	31189.98
493.54	31400.63
493.72	31295.30
493.90	31417.01
494.08	32004.49
494.25	32231.52
494.43	32020.87
494.61	32631.75
494.79	32924.32
494.96	32945.38
495.14	33251.99
495.32	33532.86
495.49	33163.05
495.67	33429.87
495.85	33666.27
496.02	33661.58
496.20	33979.90
496.38	33897.98
496.55	33848.83
496.73	35218.04
496.91	34782.70
497.09	35007.39
497.26	34923.13
497.44	35126.76
497.62	35133.78
497.79	35835.94
497.97	35810.20
498.14	36037.23
498.32	36137.87
498.50	36306.39
498.67	36673.85
498.85	36584.91
499.03	36786.20
499.20	36992.17
499.38	37202.82
499.56	37125.58
499.73	37345.59
499.91	37361.97
500.08	38066.47
500.26	37481.34
500.44	37780.93
500.61	37881.57
500.79	37930.72
500.97	38780.34
501.14	38836.51
501.32	38675.01
501.49	38382.45
501.67	39037.80
501.84	38953.54
502.02	39262.49
502.20	38941.83
502.37	39683.78
502.55	39339.72
502.72	39531.65
502.90	39831.24
503.07	39693.15
503.25	40238.49
503.43	40184.66
503.60	40170.61
503.78	40568.51
503.95	40355.52
504.13	40526.38
504.30	40872.78
504.48	40676.17
504.65	40783.83
504.83	41195.77
505.01	41322.16
505.18	40966.40
505.36	41490.68
505.53	41359.61
505.71	41949.42
505.88	42220.92
506.06	41523.44
506.23	42429.23
506.41	42291.14
506.58	42368.38
506.76	42714.78
506.93	42939.47
507.11	42557.96
507.28	43000.32
507.46	43269.48
507.63	42817.76
507.81	43384.17
507.98	43276.51
508.16	43391.19
508.33	43681.42
508.50	43641.63
508.68	44006.75
508.85	44140.16
509.03	43761.00
509.20	44203.36
509.38	44608.27
509.55	44467.84
509.73	44694.87
509.90	44905.52
510.08	44657.42
510.25	44865.73
510.42	45378.31
510.60	45317.45
510.77	45228.51
510.95	45567.89
511.12	45776.20
511.30	45371.28
511.47	45855.78
511.64	45867.48
511.82	46031.32
511.99	45972.80
512.17	46188.13
512.34	46012.59
512.51	46562.62
512.69	46906.68
512.86	46543.89
513.04	47199.24
513.21	46543.89
513.38	47051.79
513.56	47222.65
513.73	47040.09
513.90	47016.68
514.08	47026.04
514.25	47786.72
514.43	47737.57
514.60	47608.84
514.77	47491.81
514.95	47650.97
515.12	47412.23
515.29	47899.06
515.47	48098.01
515.64	48238.44
515.81	47896.72
515.99	48453.77
516.16	48809.53
516.33	48472.49
516.51	48411.64
516.68	48975.71
516.85	48603.56
517.03	49118.48
517.20	49247.21
517.37	49064.65
517.54	48736.98
517.72	49563.18
517.89	49144.23
518.06	49326.79
518.24	49186.36
518.41	48994.43
518.58	49584.25
518.75	49778.51
518.93	49701.28
519.10	49169.97
519.27	49848.73
519.45	50052.36
519.62	50057.04
519.79	50155.34
519.96	50169.38
520.14	50424.50
520.31	50230.24
520.48	50595.36
520.65	50546.21
520.83	51002.61
521.00	50642.17
521.17	50829.41
521.34	50721.75
521.52	50780.26
521.69	51091.55
521.86	51131.34
522.03	51292.84
522.20	51299.86
522.38	51480.08
522.55	51522.21
522.72	51379.44
522.89	51400.50
523.07	51882.66
523.24	51868.61
523.41	52182.24
523.58	51810.10
523.75	52097.98
523.92	51971.60
524.10	52142.45
524.27	52287.57
524.44	52458.43
524.61	52193.95
524.78	52306.29
524.96	52760.36
525.13	52542.69
525.30	52732.27
525.47	52411.62
525.64	52371.83
525.81	52884.40
525.98	52619.92
526.16	53066.97
526.33	52882.06
526.50	53102.07
526.67	53113.78
526.84	53186.33
527.01	53120.80
527.18	53034.20
527.36	53090.37
527.53	53364.21
527.70	53469.54
527.87	53495.28
528.04	53509.33
528.21	53914.24
528.38	53771.47
528.55	53729.34
528.72	53558.48
528.89	53834.66
529.07	53624.01
529.24	53659.12
529.41	53675.51
529.58	53862.75
529.75	53715.29
529.92	53806.58
530.09	54152.97
530.26	54075.74
530.43	54237.23
530.60	54042.97
530.77	54096.80
530.94	54272.34
531.11	54106.16
531.28	53837.00
531.46	54590.66
531.63	54450.22
531.80	54110.85
531.97	54492.35
532.14	54370.64
532.31	54653.85
532.48	54941.74
532.65	54841.09
532.82	54611.72
532.99	54789.60
533.16	54873.86
533.33	55056.42
533.50	55009.61
533.67	55206.22
533.84	54796.62
534.01	55138.34
534.18	54850.45
534.35	55337.29
534.52	55056.42
534.69	55398.14
534.86	55323.24
535.03	55269.41
535.20	55290.48
535.37	55367.71
535.54	55618.15
535.71	55405.16
535.88	55700.07
536.05	55463.67
536.22	55636.87
536.38	55781.99
536.55	55716.45
536.72	55791.35
536.89	55629.85
537.06	55686.03
537.23	55959.87
537.40	55470.70
537.57	55791.35
537.74	55959.87
537.91	56250.09
538.08	56025.40
538.25	55803.05
538.42	56119.02
538.59	56090.94
538.75	56041.79
538.92	56053.49
539.09	56149.45
539.26	56037.11
539.43	56306.27
539.60	56334.35
539.77	56530.96
539.94	56650.33
540.11	56481.81
540.28	56371.80
540.44	56633.94
540.61	56404.57
540.78	56533.30
540.95	56498.19
541.12	56750.97
541.29	56631.60
541.46	56832.89
541.62	56601.18
541.79	56893.74
541.96	56570.75
542.13	56774.37
542.30	56954.60
542.47	56952.26
542.63	57013.11
542.80	57080.98
542.97	57195.67
543.14	57308.02
543.31	57354.83
543.48	57584.20
543.64	57726.97
543.81	57371.21
543.98	57242.48
544.15	57469.51
544.32	57392.28
544.48	57883.79
544.65	57474.20
544.82	57581.86
544.99	57315.04
545.16	57504.62
545.32	57701.23
545.49	57755.06
545.66	57886.13
545.83	57808.89
546.00	58066.35
546.16	57633.35
546.33	57780.81
546.50	57277.59
546.67	58014.86
546.83	57780.81
547.00	57991.45
547.17	57989.11
547.34	57846.34
547.50	57958.69
547.67	58403.39
547.84	58136.57
548.00	58288.70
548.17	58482.97
548.34	58227.85
548.51	58553.18
548.67	58571.91
548.84	58293.38
549.01	58199.76
549.18	58150.61
549.34	58319.13
549.51	58387.00
549.68	58473.60
549.84	58440.84
550.01	58628.08
550.18	58518.07
550.34	58527.44
550.51	58520.41
550.68	58569.57
550.84	58522.76
551.01	58597.65
551.18	58707.66
551.34	58518.07
551.51	58834.05
551.68	58820.00
551.84	58698.30
552.01	58592.97
552.18	58702.98
552.34	58901.92
552.51	58660.85
552.68	58820.00
552.84	58721.70
553.01	59063.42
553.18	58993.20
553.34	59047.04
553.51	58836.39
553.67	58997.88
553.84	59147.68
554.01	59199.17
554.17	59042.35
554.34	59091.51
554.51	59063.42
554.67	59262.36
554.84	59032.99
555.00	59229.60
555.17	59203.85
555.33	59035.33
555.50	59133.63
555.67	59054.06
555.83	59138.32
556.00	59037.67
556.16	59463.65
556.33	59440.24
556.50	59157.04
556.66	59522.16
556.83	59199.17
556.99	59622.81
557.16	59590.04
557.32	59742.17
557.49	59793.67
557.65	59477.69
557.82	59550.25
557.98	59517.48
558.15	59620.47
558.32	59620.47
558.48	59636.85
558.65	59676.64
558.81	59590.04
558.98	59442.59
559.14	59568.97
559.31	59877.93
559.47	59641.53
559.64	59817.07
559.80	59781.96
559.97	59704.73
560.13	59601.74
560.30	59810.05
560.46	59987.93
560.63	60111.98
560.79	59758.56
560.96	59803.03
561.12	59950.48
561.29	60121.34
561.45	60023.04
561.61	59910.69
561.78	60093.25
561.94	59856.86
562.11	59828.77
562.27	59994.95
562.44	59934.10
562.60	60348.37
562.77	60182.19
562.93	59971.55
563.10	60271.14
563.26	60046.44
563.42	60257.09
563.59	60233.69
563.75	59994.95
563.92	60221.98
564.08	60254.75
564.24	60315.61
564.41	60170.49
564.57	60294.54
564.74	60285.18
564.90	60339.01
565.07	60346.03
565.23	60229.01
565.39	60233.69
565.56	60411.57
565.72	60374.12
565.88	60264.11
566.05	60254.75
566.21	60126.02
566.38	60385.82
566.54	60324.97
566.70	60458.38
566.87	60598.81
567.03	60200.92
567.19	60566.04
567.36	60633.92
567.52	60458.38
567.68	60608.17
567.85	60547.32
568.01	60552.00
568.17	60467.74
568.34	60458.38
568.50	60434.97
568.66	60552.00
568.83	60573.06
568.99	60444.33
569.15	60631.58
569.32	60617.53
569.48	60441.99
569.64	60589.45
569.81	60432.63
569.97	60591.79
570.13	60580.09
570.30	60404.55
570.46	60488.80
570.62	60367.10
570.78	60493.49
570.95	60711.16
571.11	60596.47
571.27	60683.07
571.43	60640.94
571.60	60786.05
571.76	60699.45
571.92	60713.50
572.09	60697.11
572.25	60622.22
572.41	60472.42
572.57	60369.44
572.74	60776.69
572.90	60680.73
573.06	60757.97
573.22	60664.35
573.38	60774.35
573.55	60706.47
573.71	60928.83
573.87	60753.29
574.03	60804.78
574.20	60900.74
574.36	60720.52
574.52	60931.17
574.68	60786.05
574.84	60940.53
575.01	61085.64
575.17	60797.76
575.33	60633.92
575.49	60678.39
575.65	60896.06
575.82	60795.42
575.98	60956.91
576.14	61141.81
576.30	60940.53
576.46	60821.16
576.62	60755.63
576.79	60910.10
576.95	60671.37
577.11	60830.52
577.27	60977.98
577.43	60985.00
577.59	60734.56
577.75	60802.44
577.92	60975.64
578.08	60917.12
578.24	60949.89
578.40	61034.15
578.56	61017.77
578.72	61176.92
578.88	61139.47
579.04	61296.29
579.21	60874.99
579.37	61169.90
579.53	61041.17
579.69	60741.58
579.85	60889.04
580.01	60764.99
580.17	60884.36
580.33	61024.79
580.49	60931.17
580.65	61109.05
580.82	60940.53
580.98	60863.29
581.14	60825.84
581.30	61015.43
581.46	60917.12
581.62	61010.74
581.78	60907.76
581.94	61134.79
582.10	60989.68
582.26	61038.83
582.42	60949.89
582.58	60914.78
582.74	60987.34
582.90	61029.47
583.06	61027.13
583.22	61031.81
583.38	61050.53
583.54	60924.14
583.70	61130.11
583.86	61134.79
584.02	61141.81
584.18	61095.00
584.34	61183.94
584.50	61263.52
584.66	61160.54
584.82	61073.94
584.98	61186.28
585.14	61256.50
585.30	60940.53
585.46	61050.53
585.62	61202.67
585.78	61109.05
585.94	60914.78
586.10	61045.85
586.26	61022.45
586.42	61130.11
586.58	61282.25
586.74	61186.28
586.90	61003.72
587.06	61116.07
587.22	61296.29
587.38	61043.51
587.54	61408.64
587.70	61366.51
587.86	61083.30
588.02	61160.54
588.18	61382.89
588.34	61036.49
588.49	61333.74
