SpectraSuite Data File
++++++++++++++++++++++++++++++++++++
Date: Fri Oct 25 11:34:27 EDT 2013
User: price-jones
Dark Spectrum Present: No
Reference Spectrum Present: No
Number of Sampled Component Spectra: 1
Spectrometers: USB2+H05261
Integration Time (usec): 100000 (USB2+H05261)
Spectra Averaged: 1 (USB2+H05261)
Boxcar Smoothing: 0 (USB2+H05261)
Correct for Electrical Dark: No (USB2+H05261)
Strobe/Lamp Enabled: No (USB2+H05261)
Correct for Detector Non-linearity: No (USB2+H05261)
Correct for Stray Light: No (USB2+H05261)
Number of Pixels in Processed Spectrum: 2048
>>>>>Begin Processed Spectral Data<<<<<
365.73	287.89
365.92	287.89
366.12	287.89
366.32	257.46
366.52	177.88
366.72	215.33
366.91	173.20
367.11	145.11
367.31	152.13
367.51	135.75
367.70	210.65
367.90	161.50
368.10	138.09
368.30	180.22
368.49	145.11
368.69	184.90
368.89	180.22
369.09	210.65
369.28	177.88
369.48	175.54
369.68	306.61
369.87	231.71
370.07	280.86
370.27	238.73
370.47	290.23
370.66	456.40
370.86	521.94
371.06	561.73
371.25	531.30
371.45	472.79
371.65	594.50
371.84	540.66
372.04	543.00
372.24	636.63
372.44	557.05
372.63	543.00
372.83	531.30
373.03	592.16
373.22	603.86
373.42	620.24
373.62	660.03
373.81	615.56
374.01	592.16
374.21	575.77
374.40	638.97
374.60	634.29
374.79	653.01
374.99	669.39
375.19	589.82
375.38	655.35
375.58	662.37
375.78	702.16
375.97	678.76
376.17	578.11
376.37	615.56
376.56	777.06
376.76	608.54
376.95	636.63
377.15	713.86
377.35	650.67
377.54	671.73
377.74	706.84
377.93	692.80
378.13	589.82
378.33	634.29
378.52	571.09
378.72	727.91
378.91	748.97
379.11	784.08
379.31	725.57
379.50	688.12
379.70	650.67
379.89	669.39
380.09	638.97
380.28	702.16
380.48	746.63
380.68	751.31
380.87	725.57
381.07	758.33
381.26	695.14
381.46	718.54
381.65	732.59
381.85	758.33
382.04	713.86
382.24	748.97
382.43	706.84
382.63	734.93
382.83	763.01
383.02	723.23
383.22	767.70
383.41	763.01
383.61	842.59
383.80	770.04
384.00	828.55
384.19	851.96
384.39	748.97
384.58	741.95
384.78	732.59
384.97	866.00
385.17	777.06
385.36	809.83
385.56	840.25
385.75	767.70
385.95	856.64
386.14	833.23
386.34	819.19
386.53	828.55
386.72	940.90
386.92	826.21
387.11	847.27
387.31	844.93
387.50	931.53
387.70	882.38
387.89	851.96
388.09	903.45
388.28	917.49
388.48	926.85
388.67	908.13
388.86	828.55
389.06	915.15
389.25	954.94
389.45	891.74
389.64	994.73
389.84	940.90
390.03	856.64
390.22	896.43
390.42	1006.43
390.61	1006.43
390.81	1011.11
391.00	908.13
391.19	966.64
391.39	959.62
391.58	976.00
391.78	978.34
391.97	1004.09
392.16	950.26
392.36	938.55
392.55	1020.47
392.75	999.41
392.94	1004.09
393.13	1025.15
393.33	1062.60
393.52	978.34
393.71	1022.81
393.91	1123.46
394.10	1111.75
394.29	1132.82
394.49	1060.26
394.68	1165.59
394.88	1041.54
395.07	1055.58
395.26	1167.93
395.46	1018.13
395.65	1186.65
395.84	1193.67
396.04	1196.01
396.23	1193.67
396.42	1149.20
396.62	1142.18
396.81	1151.54
397.00	1231.12
397.19	1226.44
397.39	1142.18
397.58	1231.12
397.77	1226.44
397.97	1238.14
398.16	1238.14
398.35	1275.59
398.55	1153.88
398.74	1188.99
398.93	1256.87
399.12	1287.29
399.32	1315.38
399.51	1329.42
399.70	1406.66
399.90	1299.00
400.09	1282.61
400.28	1193.67
400.47	1228.78
400.67	1341.13
400.86	1331.76
401.05	1306.02
401.24	1401.98
401.44	1479.22
401.63	1439.43
401.82	1317.72
402.01	1467.52
402.21	1446.45
402.40	1401.98
402.59	1476.88
402.78	1500.28
402.97	1425.39
403.17	1362.19
403.36	1521.35
403.55	1465.18
403.74	1537.73
403.93	1586.88
404.13	1579.86
404.32	1526.03
404.51	1600.93
404.70	1547.09
404.89	1521.35
405.09	1577.52
405.28	1624.33
405.47	1706.25
405.66	1739.02
405.85	1724.97
406.05	1678.16
406.24	1591.56
406.43	1607.95
406.62	1673.48
406.81	1781.15
407.00	1795.19
407.20	1696.89
407.39	1830.30
407.58	1776.47
407.77	1865.41
407.96	1778.81
408.15	1806.89
408.34	1879.45
408.54	1774.13
408.73	1926.26
408.92	1895.83
409.11	1942.64
409.30	1933.28
409.49	1888.81
409.68	1893.49
409.87	1905.20
410.07	2022.22
410.26	2015.20
410.45	1912.22
410.64	2022.22
410.83	1956.69
411.02	2129.89
411.21	2134.57
411.40	2150.95
411.59	2038.61
411.78	2186.06
411.98	2165.00
412.17	2143.93
412.36	2134.57
412.55	2169.68
412.74	2303.09
412.93	2176.70
413.12	2174.36
413.31	2235.21
413.50	2258.62
413.69	2277.34
413.88	2471.61
414.07	2335.85
414.26	2459.90
414.45	2392.03
414.64	2382.67
414.83	2504.37
415.02	2525.44
415.22	2555.86
415.41	2590.97
415.60	2567.57
415.79	2544.16
415.98	2619.06
416.17	2609.70
416.36	2729.06
416.55	2605.02
416.74	2747.79
416.93	2705.66
417.12	2698.64
417.31	2642.46
417.50	2747.79
417.69	2803.96
417.88	2829.71
418.07	2780.56
418.26	2864.82
418.45	2761.83
418.64	3021.63
418.83	2942.05
419.02	3054.40
419.21	2885.88
419.39	2974.82
419.58	2991.20
419.77	3016.95
419.96	2991.20
420.15	3094.19
420.34	3000.57
420.53	2963.12
420.72	3108.23
420.91	3133.98
421.10	3108.23
421.29	3152.70
421.48	3101.21
421.67	3091.85
421.86	3009.93
422.05	3138.66
422.24	3192.49
422.43	3194.83
422.61	3262.71
422.80	3199.51
422.99	3206.53
423.18	3337.60
423.37	3187.81
423.56	3166.74
423.75	3241.64
423.94	3115.25
424.13	3276.75
424.32	3241.64
424.50	3445.27
424.69	3318.88
424.88	3384.41
425.07	3276.75
425.26	3190.15
425.45	3349.31
425.64	3332.92
425.83	3295.47
426.01	3272.07
426.20	3365.69
426.39	3267.39
426.58	3311.86
426.77	3370.37
426.96	3314.20
427.15	3461.65
427.33	3492.08
427.52	3501.44
427.71	3648.90
427.90	3382.07
428.09	3459.31
428.28	3396.12
428.46	3592.72
428.65	3641.87
428.84	3723.79
429.03	3595.06
429.22	3501.44
429.40	3761.24
429.59	3595.06
429.78	3515.48
429.97	3421.86
430.16	3648.90
430.34	3719.11
430.53	3775.28
430.72	3742.52
430.91	3756.56
431.10	3742.52
431.28	3815.07
431.47	3772.94
431.66	3861.88
431.85	3784.65
432.03	3847.84
432.22	3847.84
432.41	3833.80
432.60	3859.54
432.79	3810.39
432.97	3932.10
433.16	3974.23
433.35	3911.04
433.54	3927.42
433.72	3995.29
433.91	3899.33
434.10	4058.49
434.28	4007.00
434.47	3990.61
434.66	4205.94
434.85	4105.30
435.03	4208.28
435.22	4215.30
435.41	4194.24
435.59	4205.94
435.78	4238.71
435.97	4252.75
436.16	4241.05
436.34	4297.22
436.53	4170.83
436.72	4400.21
436.90	4299.56
437.09	4400.21
437.28	4266.80
437.46	4360.42
437.65	4250.41
437.84	4320.63
438.02	4421.27
438.21	4353.40
438.40	4430.63
438.58	4512.55
438.77	4512.55
438.96	4554.68
439.14	4620.22
439.33	4744.27
439.52	4919.81
439.70	4788.74
439.89	4746.61
440.08	4657.67
440.26	4631.92
440.45	4856.61
440.63	4849.59
440.82	4891.72
441.01	4933.85
441.19	4919.81
441.38	4891.72
441.57	4985.34
441.75	4952.57
441.94	5226.42
442.12	5259.18
442.31	5219.39
442.50	5310.68
442.68	5191.31
442.87	5167.90
443.05	5217.05
443.24	5341.10
443.43	5383.23
443.61	5418.34
443.80	5521.32
443.98	5135.14
444.17	5060.24
444.35	5385.57
444.54	5411.32
444.73	5542.39
444.91	5423.02
445.10	5329.40
445.28	5315.36
445.47	5270.89
445.65	5561.11
445.84	5385.57
446.02	5516.64
446.21	5394.93
446.39	5535.37
446.58	5479.19
446.77	5633.67
446.95	5467.49
447.14	5331.74
447.32	5645.37
447.51	5483.88
447.69	5542.39
447.88	5474.51
448.06	5439.40
448.25	5341.10
448.43	5509.62
448.62	5598.56
448.80	5507.28
448.99	5652.39
449.17	5645.37
449.36	5572.82
449.54	5736.65
449.73	5858.36
449.91	5916.87
450.10	5870.06
450.28	5898.15
450.46	5781.12
450.65	5921.56
450.83	5699.20
451.02	5940.28
451.20	6043.26
451.39	5933.26
451.57	5930.92
451.76	5959.00
451.94	6017.52
452.13	6008.16
452.31	6033.90
452.49	5984.75
452.68	6017.52
452.86	6066.67
453.05	6071.35
453.23	6008.16
453.42	6045.60
453.60	6129.86
453.78	6232.85
453.97	5991.77
454.15	6260.93
454.34	6061.99
454.52	6232.85
454.70	6359.24
454.89	6408.39
455.07	6296.04
455.26	6363.92
455.44	6361.58
455.62	6511.37
455.81	6211.78
455.99	6333.49
456.17	6604.99
456.36	6406.05
456.54	6623.72
456.73	6665.85
456.91	6705.63
457.09	6719.68
457.28	6719.68
457.46	6626.06
457.64	6822.66
457.83	6832.02
458.01	6665.85
458.19	6885.86
458.38	6808.62
458.56	6935.01
458.74	6946.71
458.93	6722.02
459.11	6986.50
459.29	7002.88
459.48	7117.57
459.66	6881.18
459.84	7066.08
460.03	7344.60
460.21	7061.40
460.39	7091.82
460.57	7194.81
460.76	7148.00
460.94	7190.13
461.12	7096.50
461.31	7103.53
461.49	7194.81
461.67	7225.23
461.85	7281.41
462.04	7178.42
462.22	7506.10
462.40	7501.42
462.59	7391.41
462.77	7473.33
462.95	7541.21
463.13	7508.44
463.32	7662.91
463.50	7573.97
463.68	7634.83
463.86	7702.70
464.05	7538.87
464.23	7447.58
464.41	7538.87
464.59	7552.91
464.78	7698.02
464.96	7676.96
465.14	7506.10
465.32	7730.79
465.50	7709.72
465.69	7822.07
465.87	7747.17
466.05	7744.83
466.23	7784.62
466.41	7999.95
466.60	8145.06
466.78	7779.94
466.96	7801.01
467.14	7896.97
467.32	8006.97
467.51	7871.22
467.69	7754.19
467.87	8035.06
468.05	7969.52
468.23	7953.14
468.41	7871.22
468.60	7925.05
468.78	8175.49
468.96	8175.49
469.14	8280.82
469.32	8168.47
469.50	8049.10
469.69	8507.85
469.87	8201.24
470.05	8273.79
470.23	8365.07
470.41	8456.36
470.59	8706.79
470.77	8402.52
470.95	8564.02
471.14	8608.49
471.32	8449.33
471.50	8720.84
471.68	8599.13
471.86	8643.60
472.04	8659.98
472.22	8889.35
472.40	8739.56
472.58	8835.52
472.77	9064.89
472.95	8924.46
473.13	9210.01
473.31	9001.70
473.49	8994.68
473.67	8985.32
473.85	9242.78
474.03	9430.02
474.21	9191.28
474.39	9310.65
474.57	9413.63
474.75	9401.93
474.93	9523.64
475.12	9287.25
475.30	9399.59
475.48	9516.62
475.66	9657.05
475.84	9692.16
476.02	9834.93
476.20	9884.08
476.38	10068.98
476.56	10064.30
476.74	10120.48
476.92	10148.56
477.10	10078.35
477.28	10321.76
477.46	10209.42
477.64	10211.76
477.82	10607.31
478.00	10696.25
478.18	10485.60
478.36	10705.61
478.54	10771.15
478.72	10965.41
478.90	10981.79
479.08	11068.39
479.26	11169.04
479.44	11162.01
479.62	11105.84
479.80	11304.79
479.98	11480.33
480.16	11770.55
480.34	11496.71
480.52	12032.69
480.70	12009.29
480.88	11583.31
481.06	11850.13
481.24	11798.64
481.41	12116.95
481.59	12119.29
481.77	12379.09
481.95	12264.41
482.13	12610.81
482.31	12315.90
482.49	12596.76
482.67	12842.52
482.85	12847.20
483.03	13067.21
483.21	13034.44
483.39	13287.22
483.57	12917.42
483.74	13371.48
483.92	13453.40
484.10	13619.58
484.28	13841.93
484.46	13930.87
484.64	13994.06
484.82	13748.31
485.00	13970.66
485.18	14167.26
485.35	14389.61
485.53	14246.84
485.71	14616.65
485.89	14920.92
486.07	14607.28
486.25	14644.73
486.43	15068.37
486.61	15119.86
486.78	15105.82
486.96	15080.07
487.14	15295.40
487.32	15311.78
487.50	15683.93
487.68	15620.74
487.85	15604.35
488.03	16009.26
488.21	16182.46
488.39	16435.24
488.57	16372.05
488.75	16594.40
488.92	16725.47
489.10	16706.74
489.28	16676.32
489.46	16989.95
489.64	17029.74
489.81	17298.90
489.99	17294.22
490.17	17584.44
490.35	17343.37
490.53	17460.40
490.70	17671.04
490.88	17820.84
491.06	17928.50
491.24	18176.60
491.41	18342.78
491.59	18281.92
491.77	18356.82
491.95	18759.39
492.13	18775.78
492.30	18663.43
492.48	18420.02
492.66	18785.14
492.84	18881.10
493.01	19234.52
493.19	19309.42
493.37	19491.98
493.54	19346.87
493.72	19740.08
493.90	19679.22
494.08	19896.89
494.25	19934.34
494.43	19946.05
494.61	20042.01
494.79	20327.55
494.96	20510.11
495.14	20786.30
495.32	20702.04
495.49	20828.43
495.67	20734.81
495.85	21097.59
496.02	21373.77
496.20	21301.22
496.38	21422.92
496.55	21186.53
496.73	22001.04
496.91	21640.59
497.09	21837.20
497.26	21862.94
497.44	21846.56
497.62	21902.73
497.79	22281.90
497.97	22068.91
498.14	22555.74
498.32	22625.96
498.50	22771.07
498.67	22759.37
498.85	22860.01
499.03	23187.69
499.20	22817.88
499.38	22916.19
499.56	22977.04
499.73	23510.68
499.91	23506.00
500.08	23599.62
500.26	23384.29
500.44	23545.79
500.61	24023.26
500.79	23744.73
500.97	23948.36
501.14	24072.41
501.32	24306.46
501.49	24261.99
501.67	24505.41
501.84	24589.67
502.02	24697.33
502.20	24353.27
502.37	24769.89
502.55	24559.24
502.72	24678.61
502.90	24737.12
503.07	24608.39
503.25	25092.88
503.43	24620.10
503.60	24964.15
503.78	25366.73
503.95	25111.61
504.13	25446.30
504.30	25563.33
504.48	25064.80
504.65	25565.67
504.83	25450.99
505.01	26106.34
505.18	25972.92
505.36	25951.86
505.53	26113.36
505.71	25893.35
505.88	26150.81
506.06	26094.63
506.23	26396.56
506.41	26277.19
506.58	26551.04
506.76	26574.44
506.93	26742.96
507.11	26639.98
507.28	27040.21
507.46	26644.66
507.63	27110.43
507.81	27222.77
507.98	26838.92
508.16	27065.96
508.33	27178.30
508.50	27613.64
508.68	27545.76
508.85	27541.08
509.03	27288.31
509.20	27786.84
509.38	28250.27
509.55	27854.72
509.73	27740.03
509.90	28053.66
510.08	28126.22
510.25	27665.13
510.42	28264.31
510.60	28339.21
510.77	28128.56
510.95	28933.70
511.12	28411.76
511.30	28957.11
511.47	28774.55
511.64	28966.47
511.82	28898.59
511.99	28952.43
512.17	29205.20
512.34	28840.08
512.51	29399.47
512.69	29425.22
512.86	29567.99
513.04	29865.24
513.21	29560.97
513.38	29797.36
513.56	30043.12
513.73	29841.83
513.90	29841.83
514.08	29736.51
514.25	29958.86
514.43	30087.59
514.60	30061.84
514.77	30366.11
514.95	30286.53
515.12	30206.95
515.29	30160.14
515.47	30569.74
515.64	30836.56
515.81	30478.46
515.99	30555.69
516.16	31133.81
516.33	30625.91
516.51	31391.26
516.68	30843.58
516.85	31065.93
517.03	31295.30
517.20	31112.74
517.37	31234.45
517.54	31152.53
517.72	31337.43
517.89	31756.39
518.06	31108.06
518.24	31529.36
518.41	31435.74
518.58	31721.28
518.75	31461.48
518.93	32053.64
519.10	31545.74
519.27	31831.29
519.45	31936.61
519.62	32023.21
519.79	32226.84
519.96	32100.45
520.14	32526.42
520.31	32442.17
520.48	32414.08
520.65	32425.78
520.83	32657.49
521.00	32341.52
521.17	32961.76
521.34	32554.51
521.52	32957.08
521.69	33055.39
521.86	32769.84
522.03	33111.56
522.20	33060.07
522.38	33736.48
522.55	33535.20
522.72	33422.85
522.89	33518.81
523.07	33703.71
523.24	33745.84
523.41	33993.94
523.58	33560.94
523.75	33907.34
523.92	33745.84
524.10	34150.76
524.27	34068.84
524.44	33930.75
524.61	34146.08
524.78	34405.88
524.96	34368.43
525.13	34340.34
525.30	34117.99
525.47	34553.33
525.64	34487.79
525.81	34616.52
525.98	34279.49
526.16	34646.95
526.33	34471.41
526.50	34885.68
526.67	34586.10
526.84	34696.10
527.01	34749.93
527.18	35138.46
527.36	35044.84
527.53	35295.28
527.70	35536.35
527.87	35501.25
528.04	35124.42
528.21	35892.12
528.38	35339.75
528.55	35831.26
528.72	35662.74
528.89	35285.92
529.07	35695.51
529.24	35402.94
529.41	35943.61
529.58	36266.60
529.75	35796.15
529.92	35763.39
530.09	35833.60
530.26	36205.75
530.43	36023.19
530.60	36013.82
530.77	35908.50
530.94	36669.17
531.11	36023.19
531.28	36334.48
531.46	36577.89
531.63	36308.73
531.80	36615.34
531.97	36360.22
532.14	36561.51
532.31	36882.16
532.48	36720.66
532.65	36889.18
532.82	36814.29
532.99	36680.88
533.16	36811.95
533.33	37214.52
533.50	36999.19
533.67	37275.37
533.84	36617.68
534.01	36966.42
534.18	36814.29
534.35	37282.39
534.52	37350.27
534.69	37553.90
534.86	37652.20
535.03	37596.03
535.20	37879.23
535.37	37771.57
535.54	37914.34
535.71	37457.93
535.88	37839.44
536.05	37855.82
536.22	38005.62
536.38	37581.98
536.55	37577.30
536.72	37865.19
536.89	37684.97
537.06	38504.15
537.23	38473.73
537.40	37825.40
537.57	38270.10
537.74	37886.25
537.91	38553.30
538.08	38251.38
538.25	38064.13
538.42	38494.79
538.59	38822.47
538.75	38094.56
538.92	38990.98
539.09	38862.26
539.26	38754.59
539.43	38904.38
539.60	38857.57
539.77	38810.76
539.94	39538.67
540.11	38902.04
540.28	38604.80
540.44	38932.47
540.61	38686.71
540.78	38993.32
540.95	38866.94
541.12	38679.69
541.29	39236.74
541.46	39321.00
541.62	39126.74
541.79	39367.81
541.96	38733.53
542.13	39126.74
542.30	39646.33
542.47	39796.13
542.63	39608.89
542.80	39683.78
542.97	40023.16
543.14	40208.06
543.31	39709.53
543.48	39903.79
543.64	40383.60
543.81	40037.20
543.98	40334.45
544.15	40170.61
544.32	40364.88
544.48	40687.87
544.65	40308.71
544.82	40444.46
544.99	40093.38
545.16	40594.25
545.32	40730.00
545.49	40999.16
545.66	40818.94
545.83	40268.92
546.00	41095.13
546.16	40863.41
546.33	40411.69
546.50	40601.27
546.67	40811.92
546.83	40421.05
547.00	40935.97
547.17	40921.93
547.34	40779.15
547.50	41029.59
547.67	41141.94
547.84	41347.90
548.00	41003.85
548.17	41486.00
548.34	41532.81
548.51	41446.21
548.67	41385.35
548.84	41652.17
549.01	41247.26
549.18	41336.20
549.34	41720.05
549.51	41488.34
549.68	41493.02
549.84	41413.44
550.01	41263.64
550.18	41642.81
550.34	41495.36
550.51	41755.16
550.68	41413.44
550.84	41446.21
551.01	42340.29
551.18	41628.77
551.34	41617.07
551.51	41762.18
551.68	41911.97
551.84	41586.64
552.01	42014.96
552.18	41977.51
552.34	41696.64
552.51	42164.75
552.68	42188.16
552.84	41633.45
553.01	42295.82
553.18	42113.26
553.34	42541.58
553.51	42206.88
553.67	42412.85
553.84	42799.04
554.01	42546.26
554.17	42724.14
554.34	42593.07
554.51	42464.34
554.67	42899.68
554.84	42284.12
555.00	42604.77
555.17	42263.05
555.33	42855.21
555.50	42312.20
555.67	42438.59
555.83	42469.02
556.00	43264.80
556.16	43548.01
556.33	43164.16
556.50	43358.42
556.66	42747.54
556.83	42759.25
556.99	43449.70
557.16	43461.41
557.32	43316.29
557.49	43646.31
557.65	42740.52
557.82	43159.48
557.98	43246.08
558.15	43161.82
558.32	43852.28
558.48	43611.20
558.65	43276.51
558.81	43229.69
558.98	43402.89
559.14	43416.94
559.31	43220.33
559.47	43082.24
559.64	43548.01
559.80	43037.77
559.97	43311.61
560.13	43363.11
560.30	43620.56
560.46	43917.81
560.63	43330.34
560.79	43683.76
560.96	43658.01
561.12	44037.18
561.29	44055.90
561.45	43931.86
561.61	43426.30
561.78	43592.48
561.94	43346.72
562.11	44123.78
562.27	43831.21
562.44	43763.34
562.60	44020.80
562.77	43959.94
562.93	43952.92
563.10	44030.16
563.26	43636.95
563.42	44514.65
563.59	43672.06
563.75	44053.56
563.92	43714.19
564.08	43931.86
564.24	44381.24
564.41	44266.55
564.57	44151.87
564.74	44275.91
564.90	43831.21
565.07	43945.90
565.23	44198.68
565.39	44566.14
565.56	44285.28
565.72	44247.83
565.88	44027.82
566.05	44425.71
566.21	44378.90
566.38	44154.21
566.54	44397.62
566.70	44697.21
566.87	44477.20
567.03	43889.73
567.19	44449.11
567.36	44294.64
567.52	44320.38
567.68	44402.30
567.85	44507.63
568.01	44355.49
568.17	44306.34
568.34	44580.18
568.50	43952.92
568.66	44376.56
568.83	44472.52
568.99	44671.46
569.15	44446.77
569.32	44465.50
569.48	44481.88
569.64	45015.52
569.81	44793.17
569.97	44226.76
570.13	44603.59
570.30	44662.10
570.46	44481.88
570.62	44959.35
570.78	44722.96
570.95	44795.51
571.11	44509.97
571.27	44999.14
571.43	44697.21
571.60	44584.86
571.76	44690.19
571.92	44725.30
572.09	45064.67
572.25	44769.77
572.41	44769.77
572.57	44854.03
572.74	45165.32
572.90	44842.32
573.06	44779.13
573.22	45027.23
573.38	45354.90
573.55	44844.66
573.71	45261.28
573.87	44755.72
574.03	45052.97
574.20	44959.35
574.36	44783.81
574.52	45848.75
574.68	45106.80
574.84	45177.02
575.01	45230.85
575.17	44872.75
575.33	45050.63
575.49	44863.39
575.65	45375.97
575.82	45102.12
575.98	44835.30
576.14	45340.86
576.30	45123.19
576.46	44692.53
576.62	44804.88
576.79	45338.52
576.95	45287.03
577.11	45017.86
577.27	44893.82
577.43	44662.10
577.59	45083.40
577.75	45469.59
577.92	44800.19
578.08	45008.50
578.24	45076.38
578.40	45350.22
578.56	45443.84
578.72	45331.50
578.88	45497.67
579.04	44973.39
579.21	44715.93
579.37	45542.14
579.53	45481.29
579.69	45282.34
579.85	45731.73
580.01	44891.48
580.17	44996.80
580.33	45425.12
580.49	45251.92
580.65	45076.38
580.82	45064.67
580.98	45233.19
581.14	44837.64
581.30	45184.04
581.46	44926.58
581.62	45333.84
581.78	45287.03
581.94	44839.98
582.10	45165.32
582.26	45294.05
582.42	45495.33
582.58	45530.44
582.74	45500.01
582.90	45216.81
583.06	45418.10
583.22	45535.12
583.38	45083.40
583.54	45778.54
583.70	45666.19
583.86	45495.33
584.02	45113.83
584.18	45720.02
584.34	45759.81
584.50	45701.30
584.66	45345.54
584.82	45476.61
584.98	45642.79
585.14	45757.47
585.30	45228.51
585.46	45380.65
585.62	44872.75
585.78	45539.80
585.94	45336.18
586.10	45551.51
586.26	45265.96
586.42	45153.62
586.58	45347.88
586.74	45422.78
586.90	45221.49
587.06	45511.72
587.22	45933.01
587.38	45127.87
587.54	45586.61
587.70	45565.55
587.86	45619.38
588.02	45808.96
588.18	45092.76
588.34	45563.21
588.49	45317.45
588.65	45251.92
588.81	45411.07
588.97	45553.85
589.13	45497.67
589.29	45631.08
589.45	45713.00
589.61	45668.53
589.77	45921.31
589.93	45881.52
590.08	45516.40
