SpectraSuite Data File
++++++++++++++++++++++++++++++++++++
Date: Fri Oct 25 10:47:27 EDT 2013
User: price-jones
Dark Spectrum Present: No
Reference Spectrum Present: No
Number of Sampled Component Spectra: 1
Spectrometers: USB2+H05261
Integration Time (usec): 100000 (USB2+H05261)
Spectra Averaged: 1 (USB2+H05261)
Boxcar Smoothing: 0 (USB2+H05261)
Correct for Electrical Dark: No (USB2+H05261)
Strobe/Lamp Enabled: No (USB2+H05261)
Correct for Detector Non-linearity: No (USB2+H05261)
Correct for Stray Light: No (USB2+H05261)
Number of Pixels in Processed Spectrum: 2048
>>>>>Begin Processed Spectral Data<<<<<
365.73	163.84
365.92	163.84
366.12	163.84
366.32	58.51
366.52	110.01
366.72	79.58
366.91	32.77
367.11	30.43
367.31	0.00
367.51	23.41
367.70	23.41
367.90	65.54
368.10	0.00
368.30	65.54
368.49	77.24
368.69	91.28
368.89	100.64
369.09	23.41
369.28	53.83
369.48	30.43
369.68	91.28
369.87	105.32
370.07	91.28
370.27	105.32
370.47	175.54
370.66	292.57
370.86	369.80
371.06	404.91
371.25	491.51
371.45	449.38
371.65	442.36
371.84	418.96
372.04	411.93
372.24	461.09
372.44	482.15
372.63	400.23
372.83	447.04
373.03	468.11
373.22	454.06
373.42	472.79
373.62	514.92
373.81	578.11
374.01	531.30
374.21	519.60
374.40	554.71
374.60	587.47
374.79	564.07
374.99	585.13
375.19	561.73
375.38	557.05
375.58	545.34
375.78	559.39
375.97	603.86
376.17	561.73
376.37	540.66
376.56	561.73
376.76	545.34
376.95	559.39
377.15	582.79
377.35	613.22
377.54	578.11
377.74	566.41
377.93	580.45
378.13	573.43
378.33	617.90
378.52	667.05
378.72	669.39
378.91	662.37
379.11	638.97
379.31	685.78
379.50	601.52
379.70	627.26
379.89	781.74
380.09	620.24
380.28	664.71
380.48	552.37
380.68	631.94
380.87	699.82
381.07	674.07
381.26	697.48
381.46	678.76
381.65	641.31
381.85	699.82
382.04	692.80
382.24	737.27
382.43	692.80
382.63	601.52
382.83	723.23
383.02	723.23
383.22	748.97
383.41	643.65
383.61	631.94
383.80	755.99
384.00	809.83
384.19	727.91
384.39	802.80
384.58	809.83
384.78	770.04
384.97	807.48
385.17	823.87
385.36	791.10
385.56	760.67
385.75	807.48
385.95	741.95
386.14	777.06
386.34	772.38
386.53	758.33
386.72	725.57
386.92	833.23
387.11	772.38
387.31	816.85
387.50	772.38
387.70	791.10
387.89	884.72
388.09	746.63
388.28	779.40
388.48	814.51
388.67	915.15
388.86	842.59
389.06	912.81
389.25	830.89
389.45	940.90
389.64	870.68
389.84	905.79
390.03	910.47
390.22	903.45
390.42	816.85
390.61	887.06
390.81	915.15
391.00	919.83
391.19	938.55
391.39	910.47
391.58	966.64
391.78	931.53
391.97	1008.77
392.16	882.38
392.36	1015.79
392.55	1041.54
392.75	915.15
392.94	912.81
393.13	1064.94
393.33	938.55
393.52	943.24
393.71	1060.26
393.91	990.05
394.10	990.05
394.29	1020.47
394.49	966.64
394.68	1041.54
394.88	1064.94
395.07	1048.56
395.26	1137.50
395.46	1071.97
395.65	1177.29
395.84	1109.41
396.04	1231.12
396.23	1146.86
396.42	1078.99
396.62	1121.12
396.81	1203.04
397.00	1163.25
397.19	1177.29
397.39	1205.38
397.58	1291.98
397.77	1214.74
397.97	1186.65
398.16	1193.67
398.35	1303.68
398.55	1212.40
398.74	1296.66
398.93	1224.10
399.12	1261.55
399.32	1324.74
399.51	1324.74
399.70	1378.58
399.90	1369.21
400.09	1409.00
400.28	1446.45
400.47	1451.13
400.67	1430.07
400.86	1465.18
401.05	1441.77
401.24	1446.45
401.44	1493.26
401.63	1500.28
401.82	1479.22
402.01	1472.20
402.21	1530.71
402.40	1556.46
402.59	1497.94
402.78	1519.01
402.97	1481.56
403.17	1511.99
403.36	1530.71
403.55	1519.01
403.74	1633.69
403.93	1657.10
404.13	1544.75
404.32	1479.22
404.51	1661.78
404.70	1762.42
404.89	1694.55
405.09	1767.10
405.28	1788.17
405.47	1621.99
405.66	1783.49
405.85	1696.89
406.05	1624.33
406.24	1703.91
406.43	1708.59
406.62	1891.15
406.81	1856.04
407.00	1792.85
407.20	1797.53
407.39	1654.76
407.58	1806.89
407.77	1867.75
407.96	1980.09
408.15	1884.13
408.34	1865.41
408.54	1930.94
408.73	1874.77
408.92	1900.52
409.11	1961.37
409.30	2038.61
409.49	2097.12
409.68	1940.30
409.87	2033.93
410.07	2003.50
410.26	2115.84
410.45	2148.61
410.64	1987.11
410.83	2066.69
411.02	2165.00
411.21	2223.51
411.40	2216.49
411.59	2270.32
411.78	2204.78
411.98	2237.55
412.17	2321.81
412.36	2368.62
412.55	2260.96
412.74	2485.65
412.93	2478.63
413.12	2401.39
413.31	2452.88
413.50	2256.28
413.69	2541.82
413.88	2583.95
414.07	2464.58
414.26	2623.74
414.45	2497.35
414.64	2593.31
414.83	2518.42
415.02	2609.70
415.22	2633.10
415.41	2656.51
415.60	2640.12
415.79	2691.62
415.98	2710.34
416.17	2827.37
416.36	2729.06
416.55	2897.58
416.74	2850.77
416.93	2867.16
417.12	2920.99
417.31	2839.07
417.50	2892.90
417.69	2977.16
417.88	3019.29
418.07	2871.84
418.26	3005.25
418.45	3105.89
418.64	3262.71
418.83	3110.57
419.02	3082.49
419.21	3243.98
419.39	3225.26
419.58	3145.68
419.77	3112.91
419.96	3103.55
420.15	3141.00
420.34	3162.06
420.53	3194.83
420.72	3258.03
420.91	3337.60
421.10	3419.52
421.29	3358.67
421.48	3133.98
421.67	3419.52
421.86	3318.88
422.05	3293.13
422.24	3407.82
422.43	3389.10
422.61	3342.28
422.80	3536.55
422.99	3384.41
423.18	3426.54
423.37	3382.07
423.56	3482.72
423.75	3473.36
423.94	3452.29
424.13	3321.22
424.32	3302.50
424.50	3487.40
424.69	3623.15
424.88	3405.48
425.07	3468.67
425.26	3424.20
425.45	3566.98
425.64	3557.61
425.83	3431.23
426.01	3513.14
426.20	3557.61
426.39	3606.77
426.58	3513.14
426.77	3489.74
426.96	3674.64
427.15	3609.11
427.33	3536.55
427.52	3583.36
427.71	3672.30
427.90	3658.26
428.09	3616.13
428.28	3698.05
428.46	3794.01
428.65	3681.66
428.84	3782.31
429.03	3756.56
429.22	3660.60
429.40	3871.25
429.59	3798.69
429.78	3609.11
429.97	3669.96
430.16	3730.81
430.34	3691.02
430.53	3719.11
430.72	3936.78
430.91	3882.95
431.10	3920.40
431.28	4039.76
431.47	3971.89
431.66	4049.13
431.85	4051.47
432.03	4088.92
432.22	4086.58
432.41	4093.60
432.60	4234.03
432.79	4173.18
432.97	4112.32
433.16	4191.90
433.35	4131.05
433.54	4257.43
433.72	4306.59
433.91	4208.28
434.10	4248.07
434.28	4187.22
434.47	4322.97
434.66	4257.43
434.85	4437.66
435.03	4512.55
435.22	4372.12
435.41	4592.13
435.59	4404.89
435.78	4411.91
435.97	4547.66
436.16	4430.63
436.34	4475.10
436.53	4500.85
436.72	4589.79
436.90	4456.38
437.09	4606.17
437.28	4465.74
437.46	4606.17
437.65	4592.13
437.84	4615.54
438.02	4592.13
438.21	4622.56
438.40	4528.94
438.58	4828.53
438.77	4856.61
438.96	4865.97
439.14	4706.82
439.33	4854.27
439.52	4997.04
439.70	4978.32
439.89	5006.41
440.08	5254.50
440.26	5123.43
440.45	5142.16
440.63	5266.21
440.82	5345.78
441.01	5188.97
441.19	5394.93
441.38	5385.57
441.57	5245.14
441.75	5502.60
441.94	5420.68
442.12	5490.90
442.31	5563.45
442.50	5626.65
442.68	5352.81
442.87	5535.37
443.05	5612.60
443.24	5657.07
443.43	5666.44
443.61	5767.08
443.80	5898.15
443.98	5488.56
444.17	5523.66
444.35	5650.05
444.54	5895.81
444.73	5832.62
444.91	5771.76
445.10	5767.08
445.28	5820.91
445.47	5804.53
445.65	5781.12
445.84	5816.23
446.02	5769.42
446.21	5827.93
446.39	5762.40
446.58	5881.77
446.77	5942.62
446.95	5731.97
447.14	5832.62
447.32	5928.58
447.51	5806.87
447.69	5734.31
447.88	5898.15
448.06	5994.11
448.25	5902.83
448.43	5956.66
448.62	6045.60
448.80	5963.68
448.99	6010.50
449.17	6069.01
449.36	5980.07
449.54	6136.88
449.73	6174.33
449.91	6218.80
450.10	6207.10
450.28	6284.34
450.46	6118.16
450.65	6274.98
450.83	6298.38
451.02	6204.76
451.20	6296.04
451.39	6342.85
451.57	6382.64
451.76	6277.32
451.94	6284.34
452.13	6471.58
452.31	6422.43
452.49	6399.02
452.68	6448.18
452.86	6523.07
453.05	6399.02
453.23	6567.54
453.42	6562.86
453.60	6441.15
453.78	6637.76
453.97	6546.48
454.15	6471.58
454.34	6457.54
454.52	6658.82
454.70	6628.40
454.89	6637.76
455.07	6530.09
455.26	6647.12
455.44	6935.01
455.62	6651.80
455.81	6853.09
455.99	6904.58
456.17	7009.90
456.36	6949.05
456.54	7012.24
456.73	7037.99
456.91	7059.06
457.09	6970.12
457.28	7311.83
457.46	6946.71
457.64	7290.77
457.83	7112.89
458.01	7190.13
458.19	7314.17
458.38	7239.28
458.56	7353.96
458.74	7386.73
458.93	7435.88
459.11	7375.03
459.29	7309.49
459.48	7426.52
459.66	7396.09
459.84	7503.76
460.03	7798.66
460.21	7358.64
460.39	7419.50
460.57	7562.27
460.76	7475.67
460.94	7681.64
461.12	7667.60
461.31	7676.96
461.49	7712.07
461.67	7588.02
461.85	7953.14
462.04	7765.90
462.22	8407.20
462.40	7854.84
462.59	7815.05
462.77	8039.74
462.95	7857.18
463.13	7896.97
463.32	7882.92
463.50	8016.33
463.68	8004.63
463.86	7974.21
464.05	7875.90
464.23	7990.59
464.41	8191.88
464.59	7775.26
464.78	8278.47
464.96	7925.05
465.14	8056.12
465.32	8217.62
465.50	8273.79
465.69	8255.07
465.87	8278.47
466.05	8060.80
466.23	8119.32
466.41	8245.71
466.60	8622.53
466.78	8194.22
466.96	8283.16
467.14	8236.35
467.32	8484.44
467.51	8428.27
467.69	8009.31
467.87	8404.86
468.05	8416.57
468.23	8372.10
468.41	8510.19
468.60	8552.32
468.78	8732.54
468.96	8463.38
469.14	8489.12
469.32	8964.25
469.50	8674.03
469.69	8861.27
469.87	8732.54
470.05	8779.35
470.23	8779.35
470.41	8774.67
470.59	8968.93
470.77	8718.50
470.95	8950.21
471.14	9132.77
471.32	8877.65
471.50	9296.61
471.68	9128.09
471.86	8980.64
472.04	9270.86
472.22	9329.38
472.40	9247.46
472.58	9348.10
472.77	9472.15
472.95	9284.91
473.13	9753.01
473.31	9474.49
473.49	9186.60
473.67	9675.77
473.85	9687.48
474.03	9881.74
474.21	9600.88
474.39	9951.96
474.57	9797.48
474.75	9797.48
474.93	10066.64
475.12	10104.09
475.30	10015.15
475.48	10101.75
475.66	10317.08
475.84	10209.42
476.02	10289.00
476.20	10469.22
476.38	10452.83
476.56	10736.04
476.74	10361.55
476.92	10462.19
477.10	10644.76
477.28	10640.08
477.46	10761.78
477.64	10780.51
477.82	11014.56
478.00	11201.80
478.18	11131.59
478.36	11248.61
478.54	11440.54
478.72	11417.13
478.90	11548.20
479.08	11690.98
479.26	11740.13
479.44	11906.31
479.62	11882.90
479.80	12053.76
479.98	11854.81
480.16	12273.77
480.34	12067.80
480.52	12128.66
480.70	12212.92
480.88	12255.04
481.06	12320.58
481.24	12559.31
481.41	12697.41
481.59	12882.31
481.77	12835.50
481.95	12973.59
482.13	13020.40
482.31	13132.75
482.49	13371.48
482.67	13270.84
482.85	13401.91
483.03	13701.50
483.21	13703.84
483.39	13926.19
483.57	13982.36
483.74	14038.53
483.92	14003.43
484.10	14235.14
484.28	14534.73
484.46	14630.69
484.64	14696.22
484.82	14466.85
485.00	14504.30
485.18	14991.13
485.35	15044.96
485.53	14829.63
485.71	14780.48
485.89	15253.27
486.07	15180.71
486.25	15360.94
486.43	15599.67
486.61	15447.54
486.78	15754.15
486.96	15894.58
487.14	16259.70
487.32	16191.83
487.50	16355.66
487.68	16393.11
487.85	16629.51
488.03	16772.28
488.21	16917.39
488.39	16737.17
488.57	17036.76
488.75	17207.62
488.92	17441.67
489.10	17331.67
489.28	17355.07
489.46	17865.31
489.64	17881.69
489.81	18417.68
489.99	17928.50
490.17	18195.32
490.35	18771.10
490.53	18473.85
490.70	18789.82
490.88	18427.04
491.06	18972.38
491.24	18780.46
491.41	19026.21
491.59	19290.70
491.77	18874.08
491.95	19019.19
492.13	19503.68
492.30	19522.41
492.48	19508.37
492.66	19723.69
492.84	19669.86
493.01	19887.53
493.19	20006.90
493.37	20430.54
493.54	20421.17
493.72	20610.76
493.90	20552.24
494.08	20582.67
494.25	21060.14
494.43	20828.43
494.61	21130.36
494.79	20987.58
494.96	21156.10
495.14	21252.06
495.32	21465.05
495.49	21563.36
495.67	21678.04
495.85	21830.18
496.02	21865.28
496.20	22244.45
496.38	22239.77
496.55	22412.97
496.73	22754.69
496.91	22403.61
497.09	22534.68
497.26	22469.14
497.44	22895.12
497.62	22892.78
497.79	22977.04
497.97	23323.44
498.14	23168.96
498.32	23051.94
498.50	23363.23
498.67	23346.84
498.85	23807.93
499.03	24252.63
499.20	23962.40
499.38	23854.74
499.56	24011.56
499.73	23913.25
499.91	24411.79
500.08	24732.44
500.26	24231.57
500.44	24290.08
500.61	24971.18
500.79	24353.27
500.97	24851.81
501.14	24980.54
501.32	25249.70
501.49	24725.42
501.67	24608.39
501.84	25308.21
502.02	25516.52
502.20	25546.95
502.37	25666.31
502.55	25301.19
502.72	25701.42
502.90	25949.52
503.07	25465.03
503.25	25949.52
503.43	25965.90
503.60	26153.15
503.78	26380.18
503.95	25823.13
504.13	26101.65
504.30	26244.43
504.48	26618.91
504.65	26551.04
504.83	26855.31
505.01	26841.26
505.18	26494.86
505.36	26536.99
505.53	26824.88
505.71	26986.38
505.88	27009.78
506.06	26745.30
506.23	27122.13
506.41	26693.81
506.58	27513.00
506.76	27349.16
506.93	27592.58
507.11	27754.07
507.28	27473.21
507.46	27496.61
507.63	27660.45
507.81	27805.56
507.98	27852.38
508.16	27903.87
508.33	28023.23
508.50	28056.00
508.68	28166.01
508.85	28276.01
509.03	28641.14
509.20	28268.99
509.38	28985.19
509.55	28931.36
509.73	28783.91
509.90	28779.23
510.08	28706.67
510.25	28847.10
510.42	29156.05
510.60	29144.35
510.77	29289.46
510.95	29706.08
511.12	29518.84
511.30	29584.37
511.47	29457.98
511.64	29970.56
511.82	30136.74
511.99	29441.60
512.17	29998.65
512.34	29947.15
512.51	29982.26
512.69	29972.90
512.86	30284.19
513.04	30745.28
513.21	30675.06
513.38	29867.58
513.56	30583.78
513.73	30251.42
513.90	30644.63
514.08	30445.69
514.25	30766.34
514.43	30881.03
514.60	30459.73
514.77	31133.81
514.95	31201.68
515.12	31087.00
515.29	31112.74
515.47	31445.10
515.64	31246.15
515.81	31295.30
515.99	31477.86
516.16	31459.14
516.33	31447.44
516.51	31880.44
516.68	31456.80
516.85	31459.14
517.03	32084.06
517.20	31777.45
517.37	31735.32
517.54	31763.41
517.72	32011.51
517.89	31950.65
518.06	31995.12
518.24	31887.46
518.41	32011.51
518.58	32292.37
518.75	32177.68
518.93	32500.68
519.10	32168.32
519.27	32212.79
519.45	32711.33
519.62	32830.69
519.79	32912.61
519.96	32769.84
520.14	33097.52
520.31	32994.53
520.48	33287.10
520.65	33249.65
520.83	33013.26
521.00	33130.28
521.17	33809.04
521.34	33427.53
521.52	33507.11
521.69	33521.15
521.86	33851.17
522.03	34052.45
522.20	33574.98
522.38	33970.54
522.55	34209.27
522.72	33942.45
522.89	34040.75
523.07	34202.25
523.24	33874.57
523.41	34258.42
523.58	33886.28
523.75	34815.47
523.92	34696.10
524.10	34440.98
524.27	34618.86
524.44	34820.15
524.61	34920.79
524.78	34710.14
524.96	34759.30
525.13	34829.51
525.30	35185.27
525.47	35363.15
525.64	35077.61
525.81	34974.63
525.98	34820.15
526.16	35416.99
526.33	34745.25
526.50	35529.33
526.67	35173.57
526.84	35288.26
527.01	34824.83
527.18	35744.66
527.36	35606.57
527.53	35503.59
527.70	36334.48
527.87	36058.29
528.04	35814.88
528.21	35885.09
528.38	35899.14
528.55	36367.24
528.72	36098.08
528.89	36402.35
529.07	36161.28
529.24	36058.29
529.41	36107.44
529.58	36027.87
529.75	36257.24
529.92	36212.77
530.09	36620.02
530.26	36753.43
530.43	36425.76
530.60	36252.56
530.77	36844.71
530.94	36795.56
531.11	36762.79
531.28	36655.13
531.46	37071.75
531.63	37085.79
531.80	37104.51
531.97	37336.23
532.14	36746.41
532.31	36954.72
532.48	37710.71
532.65	37509.43
532.82	36863.44
532.99	37801.99
533.16	37146.64
533.33	37144.30
533.50	37446.23
533.67	37799.65
533.84	37027.28
534.01	37303.46
534.18	37483.68
534.35	38150.73
534.52	37872.21
534.69	37996.26
534.86	38073.49
535.03	37961.15
535.20	38408.19
535.37	38305.21
535.54	38218.61
535.71	38237.33
535.88	37982.21
536.05	37729.44
536.22	38321.59
536.38	38211.59
536.55	38356.70
536.72	38438.62
536.89	38234.99
537.06	38705.44
537.23	38663.31
537.40	38298.19
537.57	38249.03
537.74	38670.33
537.91	38925.45
538.08	38770.97
538.25	38312.23
538.42	38969.92
538.59	38623.52
538.75	38389.47
538.92	38593.09
539.09	38925.45
539.26	39519.95
539.43	38918.43
539.60	39423.98
539.77	38735.87
539.94	38998.01
540.11	39119.71
540.28	39002.69
540.44	39271.85
540.61	39115.03
540.78	39131.42
540.95	39292.91
541.12	39548.03
541.29	39166.52
541.46	39400.58
541.62	39550.37
541.79	39966.99
541.96	39255.46
542.13	39662.72
542.30	39929.54
542.47	39901.45
542.63	39608.89
542.80	39536.33
542.97	40479.57
543.14	40512.33
543.31	40194.02
543.48	40119.12
543.64	40627.02
543.81	40196.36
543.98	40327.43
544.15	40287.64
544.32	40259.55
544.48	40472.54
544.65	40706.60
544.82	40828.30
544.99	40601.27
545.16	40678.51
545.32	40566.16
545.49	40903.20
545.66	40823.62
545.83	40797.88
546.00	40851.71
546.16	41209.81
546.33	40832.99
546.50	40676.17
546.67	41240.24
546.83	40254.87
547.00	40739.36
547.17	40830.65
547.34	40783.83
547.50	41226.20
547.67	41392.37
547.84	41310.46
548.00	41029.59
548.17	41340.88
548.34	41617.07
548.51	41172.36
548.67	41741.11
548.84	41397.06
549.01	41572.60
549.18	41202.79
549.34	41698.98
549.51	41577.28
549.68	41488.34
549.84	41844.10
550.01	41942.40
550.18	41624.09
550.34	41563.23
550.51	41745.80
550.68	41574.94
550.84	41710.69
551.01	41708.35
551.18	42038.36
551.34	42033.68
551.51	42073.47
551.68	42059.43
551.84	41844.10
552.01	41624.09
552.18	42227.95
552.34	41448.55
552.51	42326.25
552.68	41949.42
552.84	42373.06
553.01	42930.11
553.18	41921.34
553.34	42199.86
553.51	42082.83
553.67	42103.90
553.84	42522.85
554.01	42403.49
554.17	42616.47
554.34	42550.94
554.51	42817.76
554.67	42572.00
554.84	42490.09
555.00	42284.12
555.17	42806.06
555.33	42983.94
555.50	42983.94
555.67	42129.64
555.83	42525.19
556.00	43033.09
556.16	42822.44
556.33	42873.93
556.50	43166.50
556.66	43037.77
556.83	42822.44
556.99	42700.73
557.16	43075.22
557.32	42969.90
557.49	43110.33
557.65	43100.97
557.82	42972.24
557.98	42953.51
558.15	42871.59
558.32	42953.51
558.48	43056.50
558.65	42972.24
558.81	42553.28
558.98	43072.88
559.14	43124.37
559.31	42710.10
559.47	42897.34
559.64	43021.39
559.80	43524.60
559.97	43482.47
560.13	43264.80
560.30	43077.56
560.46	43805.47
560.63	43253.10
560.79	43489.49
560.96	43761.00
561.12	43311.61
561.29	43299.91
561.45	43295.23
561.61	43625.25
561.78	43344.38
561.94	43159.48
562.11	43360.76
562.27	43487.15
562.44	43885.04
562.60	43236.72
562.77	43503.54
562.93	43320.98
563.10	43810.15
563.26	43384.17
563.42	43714.19
563.59	43627.59
563.75	43643.97
563.92	43538.65
564.08	44112.08
564.24	44002.07
564.41	43814.83
564.57	44100.37
564.74	43416.94
564.90	44163.57
565.07	44154.21
565.23	43686.10
565.39	43679.08
565.56	43913.13
565.72	43398.21
565.88	43569.07
566.05	43824.19
566.21	43597.16
566.38	43892.07
566.54	43936.54
566.70	44254.85
566.87	43999.73
567.03	44301.66
567.19	44128.46
567.36	44259.53
567.52	43779.72
567.68	44301.66
567.85	44308.68
568.01	43775.04
568.17	43878.02
568.34	43805.47
568.50	43959.94
568.66	43913.13
568.83	43971.64
568.99	43959.94
569.15	43604.18
569.32	43856.96
569.48	43667.37
569.64	44549.76
569.81	43880.36
569.97	43906.11
570.13	44205.70
570.30	44086.33
570.46	43835.89
570.62	43906.11
570.78	43906.11
570.95	43962.28
571.11	43997.39
571.27	44282.94
571.43	44196.34
571.60	44371.88
571.76	44067.61
571.92	43920.15
572.09	44399.96
572.25	44098.03
572.41	43999.73
572.57	44254.85
572.74	45024.89
572.90	43938.88
573.06	44210.38
573.22	44163.57
573.38	44296.98
573.55	43995.05
573.71	44086.33
573.87	43917.81
574.03	43672.06
574.20	43833.55
574.36	44254.85
574.52	44058.24
574.68	44128.46
574.84	44355.49
575.01	44158.89
575.17	44481.88
575.33	44161.23
575.49	44315.70
575.65	44353.15
575.82	44727.64
575.98	44186.97
576.14	44643.38
576.30	44414.01
576.46	44479.54
576.62	44011.43
576.79	43854.62
576.95	43704.82
577.11	44240.81
577.27	44598.91
577.43	44626.99
577.59	44535.71
577.75	44788.49
577.92	44552.10
578.08	44376.56
578.24	44051.22
578.40	44203.36
578.56	44285.28
578.72	44453.79
578.88	44582.52
579.04	44776.79
579.21	43983.35
579.37	44760.40
579.53	44091.01
579.69	44266.55
579.85	44306.34
580.01	44505.29
580.17	44502.95
580.33	44594.23
580.49	44568.48
580.65	44247.83
580.82	44184.63
580.98	44395.28
581.14	44327.41
581.30	44626.99
581.46	44540.39
581.62	44114.42
581.78	44591.89
581.94	44509.97
582.10	44327.41
582.26	44556.78
582.42	45139.57
582.58	44554.44
582.74	44222.08
582.90	44369.54
583.06	44313.36
583.22	44818.92
583.38	44641.04
583.54	44779.13
583.70	44507.63
583.86	43983.35
584.02	44526.35
584.18	44313.36
584.34	44528.69
584.50	44636.36
584.66	44549.76
584.82	44449.11
584.98	45010.84
585.14	44325.07
585.30	44580.18
585.46	44509.97
585.62	44231.44
585.78	44886.79
585.94	44381.24
586.10	44322.72
586.26	44519.33
586.42	44414.01
586.58	44811.90
586.74	44336.77
586.90	44095.69
587.06	44549.76
587.22	45085.74
587.38	44252.51
587.54	44755.72
587.70	45076.38
587.86	44821.26
588.02	44587.21
588.18	44545.08
588.34	44626.99
588.49	44601.25
588.65	44236.12
588.81	44378.90
588.97	44037.18
589.13	44376.56
589.29	44619.97
589.45	44318.04
589.61	44851.69
589.77	44570.82
589.93	45010.84
590.08	45055.31
590.24	44856.37
