SpectraSuite Data File
++++++++++++++++++++++++++++++++++++
Date: Fri Oct 25 11:34:34 EDT 2013
User: price-jones
Dark Spectrum Present: No
Reference Spectrum Present: No
Number of Sampled Component Spectra: 1
Spectrometers: USB2+H05261
Integration Time (usec): 100000 (USB2+H05261)
Spectra Averaged: 1 (USB2+H05261)
Boxcar Smoothing: 0 (USB2+H05261)
Correct for Electrical Dark: No (USB2+H05261)
Strobe/Lamp Enabled: No (USB2+H05261)
Correct for Detector Non-linearity: No (USB2+H05261)
Correct for Stray Light: No (USB2+H05261)
Number of Pixels in Processed Spectrum: 2048
>>>>>Begin Processed Spectral Data<<<<<
365.73	269.16
365.92	269.16
366.12	269.16
366.32	168.52
366.52	180.22
366.72	280.86
366.91	189.58
367.11	252.78
367.31	201.29
367.51	173.20
367.70	145.11
367.90	212.99
368.10	138.09
368.30	252.78
368.49	196.60
368.69	241.08
368.89	201.29
369.09	170.86
369.28	266.82
369.48	241.08
369.68	248.10
369.87	220.01
370.07	266.82
370.27	269.16
370.47	327.68
370.66	500.87
370.86	465.77
371.06	514.92
371.25	653.01
371.45	519.60
371.65	617.90
371.84	561.73
372.04	566.41
372.24	535.98
372.44	559.39
372.63	582.79
372.83	566.41
373.03	561.73
373.22	622.58
373.42	629.60
373.62	559.39
373.81	578.11
374.01	624.92
374.21	624.92
374.40	636.63
374.60	599.18
374.79	528.96
374.99	575.77
375.19	674.07
375.38	627.26
375.58	589.82
375.78	636.63
375.97	648.33
376.17	800.46
376.37	681.10
376.56	667.05
376.76	688.12
376.95	599.18
377.15	774.72
377.35	716.20
377.54	692.80
377.74	662.37
377.93	641.31
378.13	638.97
378.33	669.39
378.52	699.82
378.72	786.42
378.91	748.97
379.11	685.78
379.31	718.54
379.50	699.82
379.70	802.80
379.89	730.25
380.09	699.82
380.28	720.88
380.48	676.41
380.68	795.78
380.87	788.76
381.07	725.57
381.26	758.33
381.46	758.33
381.65	732.59
381.85	718.54
382.04	802.80
382.24	746.63
382.43	767.70
382.63	702.16
382.83	709.18
383.02	807.48
383.22	809.83
383.41	781.74
383.61	746.63
383.80	835.57
384.00	767.70
384.19	788.76
384.39	734.93
384.58	816.85
384.78	856.64
384.97	800.46
385.17	793.44
385.36	795.78
385.56	837.91
385.75	828.55
385.95	861.32
386.14	800.46
386.34	821.53
386.53	835.57
386.72	896.43
386.92	807.48
387.11	929.19
387.31	856.64
387.50	798.12
387.70	908.13
387.89	943.24
388.09	833.23
388.28	856.64
388.48	863.66
388.67	940.90
388.86	894.08
389.06	835.57
389.25	917.49
389.45	976.00
389.64	875.36
389.84	959.62
390.03	971.32
390.22	947.92
390.42	908.13
390.61	877.70
390.81	863.66
391.00	1011.11
391.19	973.66
391.39	1046.22
391.58	994.73
391.78	966.64
391.97	983.02
392.16	990.05
392.36	1001.75
392.55	898.77
392.75	1008.77
392.94	1015.79
393.13	1093.03
393.33	1090.69
393.52	1057.92
393.71	1107.07
393.91	1128.14
394.10	1104.73
394.29	1050.90
394.49	1071.97
394.68	1118.78
394.88	1149.20
395.07	1196.01
395.26	1041.54
395.46	1135.16
395.65	1163.25
395.84	1196.01
396.04	1132.82
396.23	1128.14
396.42	1163.25
396.62	1228.78
396.81	1090.69
397.00	1163.25
397.19	1102.39
397.39	1205.38
397.58	1205.38
397.77	1174.95
397.97	1172.61
398.16	1198.35
398.35	1203.04
398.55	1196.01
398.74	1268.57
398.93	1306.02
399.12	1200.69
399.32	1256.87
399.51	1289.64
399.70	1322.40
399.90	1268.57
400.09	1324.74
400.28	1313.04
400.47	1291.98
400.67	1434.75
400.86	1299.00
401.05	1268.57
401.24	1371.55
401.44	1390.28
401.63	1352.83
401.82	1458.15
402.01	1418.36
402.21	1418.36
402.40	1394.96
402.59	1373.89
402.78	1413.68
402.97	1434.75
403.17	1446.45
403.36	1481.56
403.55	1530.71
403.74	1469.86
403.93	1488.58
404.13	1530.71
404.32	1423.05
404.51	1579.86
404.70	1500.28
404.89	1448.79
405.09	1600.93
405.28	1575.18
405.47	1682.85
405.66	1694.55
405.85	1647.74
406.05	1603.27
406.24	1568.16
406.43	1741.36
406.62	1748.38
406.81	1769.44
407.00	1781.15
407.20	1724.97
407.39	1664.12
407.58	1790.51
407.77	1762.42
407.96	1746.04
408.15	1750.72
408.34	1734.34
408.54	1891.15
408.73	1827.96
408.92	2036.27
409.11	1802.21
409.30	1954.35
409.49	1928.60
409.68	1926.26
409.87	1989.46
410.07	1940.30
410.26	1954.35
410.45	1865.41
410.64	1989.46
410.83	2062.01
411.02	2024.56
411.21	1998.82
411.40	2092.44
411.59	2174.36
411.78	2134.57
411.98	2040.95
412.17	2104.14
412.36	2087.76
412.55	2129.89
412.74	2279.68
412.93	2279.68
413.12	2136.91
413.31	2296.07
413.50	2263.30
413.69	2293.72
413.88	2296.07
414.07	2338.20
414.26	2272.66
414.45	2415.43
414.64	2328.83
414.83	2410.75
415.02	2427.14
415.22	2473.95
415.41	2600.34
415.60	2644.81
415.79	2647.15
415.98	2665.87
416.17	2743.11
416.36	2602.68
416.55	2495.01
416.74	2616.72
416.93	2825.03
417.12	2619.06
417.31	2731.41
417.50	2799.28
417.69	2920.99
417.88	2796.94
418.07	2836.73
418.26	2857.79
418.45	2684.59
418.64	3052.06
418.83	2885.88
419.02	2958.44
419.21	3019.29
419.39	2981.84
419.58	2981.84
419.77	2862.48
419.96	2981.84
420.15	3056.74
420.34	3124.62
420.53	3038.02
420.72	3026.31
420.91	3077.80
421.10	3061.42
421.29	3096.53
421.48	2946.73
421.67	3178.45
421.86	3129.30
422.05	3178.45
422.24	3061.42
422.43	3183.13
422.61	3166.74
422.80	3323.56
422.99	3183.13
423.18	3405.48
423.37	3393.78
423.56	3148.02
423.75	3279.09
423.94	3218.24
424.13	3143.34
424.32	3042.70
424.50	3225.26
424.69	3363.35
424.88	3356.33
425.07	3183.13
425.26	3133.98
425.45	3152.70
425.64	3274.41
425.83	3332.92
426.01	3372.71
426.20	3375.05
426.39	3300.16
426.58	3346.97
426.77	3274.41
426.96	3260.37
427.15	3311.86
427.33	3365.69
427.52	3199.51
427.71	3459.31
427.90	3290.79
428.09	3466.33
428.28	3508.46
428.46	3557.61
428.65	3545.91
428.84	3719.11
429.03	3494.42
429.22	3407.82
429.40	3681.66
429.59	3634.85
429.78	3487.40
429.97	3445.27
430.16	3576.34
430.34	3576.34
430.53	3810.39
430.72	3646.55
430.91	3758.90
431.10	3735.50
431.28	3705.07
431.47	3786.99
431.66	3901.67
431.85	3927.42
432.03	3868.91
432.22	3889.97
432.41	3824.44
432.60	3904.01
432.79	3805.71
432.97	3871.25
433.16	3960.19
433.35	4002.32
433.54	4074.87
433.72	4016.36
433.91	4004.66
434.10	3992.95
434.28	4011.68
434.47	4098.28
434.66	4112.32
434.85	4131.05
435.03	4180.20
435.22	3988.27
435.41	4215.30
435.59	4135.73
435.78	4189.56
435.97	4280.84
436.16	4154.45
436.34	4278.50
436.53	4243.39
436.72	4308.93
436.90	4224.67
437.09	4332.33
437.28	4168.49
437.46	4381.48
437.65	4306.59
437.84	4409.57
438.02	4301.90
438.21	4313.61
438.40	4421.27
438.58	4592.13
438.77	4568.73
438.96	4484.47
439.14	4622.56
439.33	4613.20
439.52	4723.20
439.70	4746.61
439.89	4856.61
440.08	4800.44
440.26	4791.08
440.45	4772.35
440.63	4844.91
440.82	4891.72
441.01	5008.75
441.19	4971.30
441.38	4987.68
441.57	4983.00
441.75	5039.17
441.94	5205.35
442.12	5231.10
442.31	5039.17
442.50	5177.26
442.68	5235.78
442.87	5240.46
443.05	5284.93
443.24	5280.25
443.43	5165.56
443.61	5408.98
443.80	5418.34
443.98	5170.24
444.17	5158.54
444.35	5259.18
444.54	5437.06
444.73	5434.72
444.91	5411.32
445.10	5413.66
445.28	5401.96
445.47	5284.93
445.65	5303.65
445.84	5451.11
446.02	5460.47
446.21	5437.06
446.39	5666.44
446.58	5380.89
446.77	5582.18
446.95	5305.99
447.14	5596.22
447.32	5502.60
447.51	5411.32
447.69	5462.81
447.88	5500.26
448.06	5502.60
448.25	5526.00
448.43	5530.69
448.62	5558.77
448.80	5439.40
448.99	5771.76
449.17	5500.26
449.36	5633.67
449.54	5638.35
449.73	5710.91
449.91	5827.93
450.10	5849.00
450.28	5778.78
450.46	5839.64
450.65	5909.85
450.83	5846.66
451.02	5933.26
451.20	5870.06
451.39	5851.34
451.57	6071.35
451.76	5713.25
451.94	5879.43
452.13	5933.26
452.31	5947.30
452.49	5973.05
452.68	5982.41
452.86	5970.71
453.05	5977.73
453.23	6043.26
453.42	6010.50
453.60	5839.64
453.78	6169.65
453.97	6148.59
454.15	6092.41
454.34	6031.56
454.52	6279.66
454.70	6291.36
454.89	6249.23
455.07	6319.45
455.26	6443.49
455.44	6431.79
455.62	6235.19
455.81	6345.19
455.99	6583.93
456.17	6296.04
456.36	6417.75
456.54	6597.97
456.73	6497.33
456.91	6635.42
457.09	6626.06
457.28	6628.40
457.46	6572.22
457.64	6644.78
457.83	6853.09
458.01	6691.59
458.19	6817.98
458.38	6682.23
458.56	6712.66
458.74	6871.81
458.93	6834.36
459.11	6841.39
459.29	6829.68
459.48	6972.46
459.66	6860.11
459.84	6839.05
460.03	7124.59
460.21	7155.02
460.39	7166.72
460.57	6979.48
460.76	7009.90
460.94	7115.23
461.12	7091.82
461.31	7176.08
461.49	7166.72
461.67	7045.01
461.85	7468.65
462.04	7241.62
462.22	7714.41
462.40	7335.24
462.59	7288.43
462.77	7283.75
462.95	7494.40
463.13	7428.86
463.32	7630.15
463.50	7314.17
463.68	7508.44
463.86	7573.97
464.05	7358.64
464.23	7571.63
464.41	7674.62
464.59	7513.12
464.78	7756.54
464.96	7779.94
465.14	7709.72
465.32	7679.30
465.50	7740.15
465.69	7695.68
465.87	7756.54
466.05	7573.97
466.23	7779.94
466.41	7691.00
466.60	7941.44
466.78	7651.21
466.96	7903.99
467.14	7777.60
467.32	7901.65
467.51	7864.20
467.69	7648.87
467.87	7805.69
468.05	7903.99
468.23	7824.41
468.41	7969.52
468.60	7929.74
468.78	8074.85
468.96	8156.77
469.14	8039.74
469.32	8004.63
469.50	8145.06
469.69	8163.79
469.87	8154.43
470.05	8383.80
470.23	8463.38
470.41	8327.63
470.59	8484.44
470.77	8477.42
470.95	8416.57
471.14	8400.18
471.32	8372.10
471.50	8674.03
471.68	8535.93
471.86	8608.49
472.04	8463.38
472.22	8901.06
472.40	8683.39
472.58	8755.94
472.77	8940.85
472.95	8737.22
473.13	9090.64
473.31	8884.67
473.49	9149.15
473.67	8980.64
473.85	8964.25
474.03	9212.35
474.21	9376.19
474.39	9303.63
474.57	9371.50
474.75	9366.82
474.93	9481.51
475.12	9427.68
475.30	9535.34
475.48	9479.17
475.66	9455.76
475.84	9715.56
476.02	9753.01
476.20	9790.46
476.38	10010.47
476.56	10073.67
476.74	10097.07
476.92	9912.17
477.10	9902.81
477.28	10211.76
477.46	10003.45
477.64	10176.65
477.82	10370.91
478.00	10553.48
478.18	10527.73
478.36	10637.73
478.54	10773.49
478.72	10745.40
478.90	10850.72
479.08	11159.67
479.26	11014.56
479.44	11066.05
479.62	11208.83
479.80	11265.00
479.98	11328.19
480.16	11613.74
480.34	11625.44
480.52	11695.66
480.70	11566.93
480.88	11606.72
481.06	11974.18
481.24	11639.48
481.41	12126.32
481.59	12098.23
481.77	12159.08
481.95	12245.68
482.13	12599.10
482.31	12203.55
482.49	12702.09
482.67	12528.89
482.85	12798.05
483.03	12903.37
483.21	13078.91
483.39	13151.47
483.57	13081.25
483.74	13174.88
483.92	13371.48
484.10	13525.96
484.28	13277.86
484.46	13877.04
484.64	13951.93
484.82	13977.68
485.00	13874.70
485.18	14277.27
485.35	14417.70
485.53	14190.67
485.71	14288.97
485.89	14581.54
486.07	14225.78
486.25	14562.81
486.43	14586.22
486.61	14707.93
486.78	14853.04
486.96	15339.87
487.14	15002.83
487.32	15454.56
487.50	15520.09
487.68	15302.42
487.85	15868.83
488.03	15999.90
488.21	16161.40
488.39	15995.22
488.57	16287.79
488.75	16561.63
488.92	16482.05
489.10	16582.70
489.28	16982.93
489.46	16940.80
489.64	16840.15
489.81	17212.30
489.99	17202.94
490.17	17504.87
490.35	17523.59
490.53	17418.27
490.70	17774.03
490.88	17509.55
491.06	17905.10
491.24	17895.74
491.41	18178.94
491.59	18335.76
491.77	17975.31
491.95	18410.65
492.13	18595.56
492.30	18768.76
492.48	18611.94
492.66	18937.27
492.84	18958.34
493.01	19255.59
493.19	18991.11
493.37	19035.58
493.54	19126.86
493.72	19456.87
493.90	19496.66
494.08	19936.68
494.25	19920.30
494.43	20009.24
494.61	20086.48
494.79	20240.95
494.96	20095.84
495.14	20416.49
495.32	20950.14
495.49	20688.00
495.67	20425.86
495.85	20950.14
496.02	20638.84
496.20	21109.29
496.38	21336.32
496.55	21057.80
496.73	21759.96
496.91	21556.33
497.09	21408.88
497.26	21664.00
497.44	21869.97
497.62	22052.53
497.79	22462.12
497.97	22031.46
498.14	22300.62
498.32	22061.89
498.50	22272.54
498.67	22764.05
498.85	22139.13
499.03	22721.92
499.20	23009.81
499.38	22895.12
499.56	23105.77
499.73	23410.04
499.91	23330.46
500.08	23592.60
500.26	22998.10
500.44	23803.25
500.61	23714.31
500.79	23655.79
500.97	23962.40
501.14	24297.10
501.32	23826.65
501.49	23976.45
501.67	24341.57
501.84	24711.38
502.02	24287.74
502.20	24105.18
502.37	24725.42
502.55	24240.93
502.72	24610.73
502.90	24664.57
503.07	24362.64
503.25	24858.83
503.43	24840.11
503.60	24896.28
503.78	25104.59
503.95	25013.31
504.13	25076.50
504.30	25369.07
504.48	25390.13
504.65	25610.14
504.83	25305.87
505.01	25823.13
505.18	25907.39
505.36	26059.52
505.53	25823.13
505.71	25937.82
505.88	26312.30
506.06	25823.13
506.23	26178.89
506.41	25944.84
506.58	26225.70
506.76	26331.03
506.93	26342.73
507.11	26579.12
507.28	26726.58
507.46	26466.78
507.63	26757.00
507.81	27257.88
507.98	26852.97
508.16	27211.07
508.33	26892.76
508.50	27349.16
508.68	27379.59
508.85	27686.20
509.03	27454.48
509.20	27475.55
509.38	27349.16
509.55	27758.75
509.73	27505.98
509.90	27655.77
510.08	27683.86
510.25	28065.36
510.42	27756.41
510.60	28198.77
510.77	28332.18
510.95	28407.08
511.12	28432.83
511.30	28599.01
511.47	28795.61
511.64	28498.36
511.82	28957.11
511.99	28687.95
512.17	28870.51
512.34	28851.78
512.51	29230.95
512.69	29223.93
512.86	29450.96
513.04	29092.86
513.21	29156.05
513.38	29511.81
513.56	29282.44
513.73	29413.51
513.90	29783.32
514.08	29486.07
514.25	29841.83
514.43	29825.45
514.60	30038.44
514.77	30221.00
514.95	30080.56
515.12	30239.72
515.29	30078.22
515.47	30520.59
515.64	30684.42
515.81	30223.34
515.99	30518.25
516.16	30649.32
516.33	30183.55
516.51	30654.00
516.68	30654.00
516.85	30520.59
517.03	31098.70
517.20	31227.43
517.37	30747.62
517.54	31063.59
517.72	31150.19
517.89	31000.40
518.06	31332.75
518.24	31381.90
518.41	31262.54
518.58	30993.37
518.75	31662.77
518.93	31641.70
519.10	31524.68
519.27	32144.92
519.45	31838.31
519.62	31754.05
519.79	31850.01
519.96	31618.30
520.14	31969.38
520.31	31793.84
520.48	32058.32
520.65	32432.80
520.83	32402.38
521.00	32701.96
521.17	32659.84
521.34	32301.73
521.52	32627.07
521.69	32701.96
521.86	32863.46
522.03	32772.18
522.20	33296.46
522.38	32758.14
522.55	33256.67
522.72	33207.52
522.89	33043.68
523.07	33773.93
523.24	33387.74
523.41	33404.13
523.58	33380.72
523.75	33628.82
523.92	33362.00
524.10	33357.32
524.27	33766.91
524.44	33790.31
524.61	33886.28
524.78	33806.70
524.96	34227.99
525.13	34263.10
525.30	34136.71
525.47	34443.32
525.64	34012.66
525.81	34309.91
525.98	34710.14
526.16	34740.57
526.33	34515.88
526.50	34836.53
526.67	34562.69
526.84	34763.98
527.01	34778.02
527.18	34857.60
527.36	34976.97
527.53	34934.84
527.70	35449.75
527.87	35192.30
528.04	35255.49
528.21	35091.65
528.38	35452.09
528.55	35105.70
528.72	35126.76
528.89	35344.43
529.07	34979.31
529.24	35086.97
529.41	35615.93
529.58	35604.23
529.75	35625.29
529.92	35501.25
530.09	35622.95
530.26	35421.67
530.43	36231.49
530.60	35669.76
530.77	35601.89
530.94	36187.02
531.11	35955.31
531.28	36098.08
531.46	36240.86
531.63	36074.68
531.80	35971.69
531.97	36161.28
532.14	36627.04
532.31	36645.77
532.48	36355.54
532.65	36547.47
532.82	36414.05
532.99	36290.01
533.16	36767.48
533.33	36591.94
533.50	36692.58
533.67	36856.42
533.84	36584.91
534.01	36680.88
534.18	37347.93
534.35	37577.30
534.52	36790.88
534.69	37263.67
534.86	37261.33
535.03	37385.38
535.20	37378.36
535.37	37177.07
535.54	37343.25
535.71	37076.43
535.88	37469.64
536.05	37834.76
536.22	37888.59
536.38	37207.50
536.55	37631.13
536.72	37958.81
536.89	37654.54
537.06	37708.37
537.23	37947.11
537.40	37675.60
537.57	37656.88
537.74	37799.65
537.91	38398.83
538.08	38124.99
538.25	37532.83
538.42	37860.51
538.59	38431.60
538.75	38176.48
538.92	38590.75
539.09	38380.10
539.26	37968.17
539.43	38429.26
539.60	38504.15
539.77	38569.69
539.94	38412.87
540.11	38998.01
540.28	38707.78
540.44	38415.21
540.61	38742.89
540.78	38845.87
540.95	38785.02
541.12	38902.04
541.29	38981.62
541.46	39054.18
541.62	39009.71
541.79	39269.51
541.96	38567.35
542.13	38794.38
542.30	38855.23
542.47	39281.21
542.63	39096.31
542.80	39423.98
542.97	39576.12
543.14	39496.54
543.31	39768.04
543.48	39622.93
543.64	40144.87
543.81	39803.15
543.98	40374.24
544.15	39966.99
544.32	39864.00
544.48	40147.21
544.65	40442.12
544.82	40144.87
544.99	39992.73
545.16	39669.74
545.32	40098.06
545.49	40446.80
545.66	40573.19
545.83	40657.45
546.00	40704.26
546.16	40687.87
546.33	40851.71
546.50	40294.66
546.67	40659.79
546.83	39948.26
547.00	40051.25
547.17	40594.25
547.34	40774.47
547.50	40690.21
547.67	41708.35
547.84	41008.53
548.00	41053.00
548.17	41404.08
548.34	40788.52
548.51	41109.17
548.67	41148.96
548.84	41160.66
549.01	40884.48
549.18	41219.17
549.34	41195.77
549.51	41448.55
549.68	41624.09
549.84	40978.10
550.01	41853.46
550.18	41378.33
550.34	41078.74
550.51	41542.17
550.68	41738.77
550.84	41226.20
551.01	41663.88
551.18	41579.62
551.34	41443.87
551.51	41654.51
551.68	41848.78
551.84	41689.62
552.01	42010.28
552.18	41621.75
552.34	41539.83
552.51	41867.50
552.68	41647.49
552.84	42021.98
553.01	41944.74
553.18	42288.80
553.34	42129.64
553.51	42017.30
553.67	41989.21
553.84	42195.18
554.01	42197.52
554.17	42424.55
554.34	42447.96
554.51	42321.57
554.67	42527.53
554.84	42197.52
555.00	42113.26
555.17	42202.20
555.33	42281.78
555.50	42674.99
555.67	42536.90
555.83	42642.22
556.00	42567.32
556.16	43044.79
556.33	42487.74
556.50	42583.71
556.66	43089.26
556.83	42391.78
556.99	42763.93
557.16	43049.47
557.32	43154.80
557.49	43203.95
557.65	42859.89
557.82	42951.17
557.98	43349.06
558.15	42459.66
558.32	43243.74
558.48	42845.85
558.65	42981.60
558.81	43349.06
558.98	42768.61
559.14	43124.37
559.31	43159.48
559.47	42843.51
559.64	43222.67
559.80	42822.44
559.97	43351.40
560.13	42953.51
560.30	43278.85
560.46	43819.51
560.63	43414.60
560.79	43302.25
560.96	43466.09
561.12	43435.66
561.29	43171.18
561.45	43548.01
561.61	43075.22
561.78	43461.41
561.94	43171.18
562.11	43346.72
562.27	43288.21
562.44	43309.27
562.60	43840.57
562.77	43679.08
562.93	43442.68
563.10	43601.84
563.26	43489.49
563.42	44367.20
563.59	43915.47
563.75	43276.51
563.92	43669.72
564.08	43758.66
564.24	43571.41
564.41	43573.75
564.57	44027.82
564.74	43950.58
564.90	43714.19
565.07	43791.42
565.23	43882.70
565.39	43917.81
565.56	43796.10
565.72	43840.57
565.88	43433.32
566.05	43744.61
566.21	43770.36
566.38	43775.04
566.54	44191.65
566.70	43821.85
566.87	44074.63
567.03	43889.73
567.19	44357.83
567.36	44229.10
567.52	44109.74
567.68	44023.14
567.85	44421.03
568.01	44229.10
568.17	44137.82
568.34	44278.25
568.50	43611.20
568.66	44121.44
568.83	44072.29
568.99	44041.86
569.15	44409.32
569.32	44121.44
569.48	43814.83
569.64	44186.97
569.81	43976.33
569.97	44868.07
570.13	44818.92
570.30	43847.60
570.46	44257.19
570.62	44423.37
570.78	44259.53
570.95	44369.54
571.11	44264.21
571.27	44402.30
571.43	44453.79
571.60	44680.83
571.76	44399.96
571.92	44584.86
572.09	44416.35
572.25	44254.85
572.41	44121.44
572.57	44610.61
572.74	45001.48
572.90	44311.02
573.06	44416.35
573.22	44631.68
573.38	44882.11
573.55	44383.58
573.71	45200.43
573.87	44952.33
574.03	44535.71
574.20	44690.19
574.36	44746.36
574.52	45064.67
574.68	44421.03
574.84	45319.79
575.01	44804.88
575.17	45083.40
575.33	44900.84
575.49	44519.33
575.65	44378.90
575.82	44800.19
575.98	44549.76
576.14	45059.99
576.30	44832.96
576.46	45214.47
576.62	44446.77
576.79	44907.86
576.95	44451.45
577.11	44786.15
577.27	44516.99
577.43	44704.23
577.59	45137.23
577.75	44718.28
577.92	44311.02
578.08	44875.09
578.24	44797.85
578.40	45137.23
578.56	44886.79
578.72	44605.93
578.88	44788.49
579.04	44999.14
579.21	45221.49
579.37	45165.32
579.53	45071.70
579.69	45043.61
579.85	44992.12
580.01	44500.61
580.17	44388.26
580.33	44914.88
580.49	45219.15
580.65	45109.14
580.82	44580.18
580.98	44741.68
581.14	44261.87
581.30	45202.77
581.46	44692.53
581.62	44935.95
581.78	45151.27
581.94	45109.14
582.10	45085.74
582.26	45179.36
582.42	45127.87
582.58	44863.39
582.74	44954.67
582.90	44898.50
583.06	45249.58
583.22	44856.37
583.38	44912.54
583.54	45008.50
583.70	44940.63
583.86	45057.65
584.02	44926.58
584.18	45216.81
584.34	45223.83
584.50	45298.73
584.66	44957.01
584.82	44961.69
584.98	45752.79
585.14	45380.65
585.30	44898.50
585.46	45207.45
585.62	45111.49
585.78	45090.42
585.94	44994.46
586.10	45247.24
586.26	45059.99
586.42	44868.07
586.58	45160.64
586.74	44713.59
586.90	44725.30
587.06	45207.45
587.22	45549.17
587.38	44655.08
587.54	45446.18
587.70	45406.39
587.86	45296.39
588.02	45130.21
588.18	45371.28
588.34	45242.56
588.49	44980.42
588.65	44917.22
588.81	44992.12
588.97	45378.31
589.13	45607.68
589.29	45139.57
589.45	45525.76
589.61	45268.30
589.77	45397.03
589.93	45612.36
590.08	45771.52
