SpectraSuite Data File
++++++++++++++++++++++++++++++++++++
Date: Fri Oct 25 11:26:30 EDT 2013
User: price-jones
Dark Spectrum Present: No
Reference Spectrum Present: No
Number of Sampled Component Spectra: 1
Spectrometers: USB2+H05261
Integration Time (usec): 100000 (USB2+H05261)
Spectra Averaged: 1 (USB2+H05261)
Boxcar Smoothing: 0 (USB2+H05261)
Correct for Electrical Dark: No (USB2+H05261)
Strobe/Lamp Enabled: No (USB2+H05261)
Correct for Detector Non-linearity: No (USB2+H05261)
Correct for Stray Light: No (USB2+H05261)
Number of Pixels in Processed Spectrum: 2048
>>>>>Begin Processed Spectral Data<<<<<
365.73	229.37
365.92	229.37
366.12	229.37
366.32	107.66
366.52	198.95
366.72	173.20
366.91	138.09
367.11	163.84
367.31	124.05
367.51	198.95
367.70	77.24
367.90	121.71
368.10	152.13
368.30	98.30
368.49	147.45
368.69	163.84
368.89	159.16
369.09	161.50
369.28	224.69
369.48	290.23
369.68	163.84
369.87	159.16
370.07	194.26
370.27	243.42
370.47	322.99
370.66	641.31
370.86	533.64
371.06	594.50
371.25	695.14
371.45	664.71
371.65	690.46
371.84	660.03
372.04	739.61
372.24	737.27
372.44	812.17
372.63	765.36
372.83	711.52
373.03	739.61
373.22	732.59
373.42	772.38
373.62	753.65
373.81	753.65
374.01	777.06
374.21	847.27
374.40	748.97
374.60	880.04
374.79	823.87
374.99	805.14
375.19	854.30
375.38	866.00
375.58	870.68
375.78	908.13
375.97	910.47
376.17	875.36
376.37	898.77
376.56	847.27
376.76	889.40
376.95	854.30
377.15	926.85
377.35	870.68
377.54	919.83
377.74	938.55
377.93	926.85
378.13	922.17
378.33	873.02
378.52	922.17
378.72	926.85
378.91	997.07
379.11	954.94
379.31	992.39
379.50	978.34
379.70	1032.18
379.89	1022.81
380.09	957.28
380.28	1001.75
380.48	908.13
380.68	1018.13
380.87	959.62
381.07	980.68
381.26	1043.88
381.46	1069.62
381.65	1053.24
381.85	1071.97
382.04	1069.62
382.24	999.41
382.43	1064.94
382.63	1027.50
382.83	968.98
383.02	1057.92
383.22	1015.79
383.41	1144.52
383.61	1095.37
383.80	1151.54
384.00	1135.16
384.19	1219.42
384.39	1118.78
384.58	1083.67
384.78	1240.48
384.97	1205.38
385.17	1160.91
385.36	1268.57
385.56	1139.84
385.75	1165.59
385.95	1266.23
386.14	1132.82
386.34	1139.84
386.53	1263.89
386.72	1266.23
386.92	1261.55
387.11	1287.29
387.31	1226.44
387.50	1193.67
387.70	1245.16
387.89	1320.06
388.09	1263.89
388.28	1249.85
388.48	1308.36
388.67	1329.42
388.86	1310.70
389.06	1336.45
389.25	1401.98
389.45	1254.53
389.64	1212.40
389.84	1369.21
390.03	1369.21
390.22	1394.96
390.42	1448.79
390.61	1385.60
390.81	1383.26
391.00	1509.65
391.19	1460.49
391.39	1282.61
391.58	1446.45
391.78	1481.56
391.97	1411.34
392.16	1481.56
392.36	1596.25
392.55	1610.29
392.75	1521.35
392.94	1556.46
393.13	1521.35
393.33	1537.73
393.52	1544.75
393.71	1598.59
393.91	1577.52
394.10	1582.20
394.29	1584.54
394.49	1605.61
394.68	1685.19
394.88	1645.40
395.07	1610.29
395.26	1633.69
395.46	1682.85
395.65	1680.50
395.84	1729.66
396.04	1750.72
396.23	1736.68
396.42	1715.61
396.62	1820.94
396.81	1767.10
397.00	1797.53
397.19	1729.66
397.39	1792.85
397.58	1914.56
397.77	1792.85
397.97	1834.98
398.16	1879.45
398.35	1916.90
398.55	1933.28
398.74	1874.77
398.93	2012.86
399.12	1909.88
399.32	1872.43
399.51	1909.88
399.70	2069.03
399.90	1966.05
400.09	2008.18
400.28	1987.11
400.47	2033.93
400.67	2073.71
400.86	2155.63
401.05	2073.71
401.24	2150.95
401.44	2132.23
401.63	2197.76
401.82	2218.83
402.01	2078.40
402.21	2197.76
402.40	2228.19
402.59	2066.69
402.78	2162.66
402.97	2293.72
403.17	2307.77
403.36	2251.60
403.55	2244.57
403.74	2251.60
403.93	2377.98
404.13	2349.90
404.32	2342.88
404.51	2359.26
404.70	2420.11
404.89	2298.41
405.09	2483.31
405.28	2441.18
405.47	2415.43
405.66	2492.67
405.85	2504.37
406.05	2607.36
406.24	2551.18
406.43	2380.32
406.62	2555.86
406.81	2614.38
407.00	2626.08
407.20	2715.02
407.39	2590.97
407.58	2722.04
407.77	2850.77
407.96	2609.70
408.15	2740.77
408.34	2705.66
408.54	2799.28
408.73	2715.02
408.92	2778.22
409.11	2883.54
409.30	2928.01
409.49	2803.96
409.68	2920.99
409.87	3021.63
410.07	3054.40
410.26	2986.52
410.45	2935.03
410.64	3056.74
410.83	2977.16
411.02	3155.04
411.21	3098.87
411.40	3063.76
411.59	3131.64
411.78	3197.17
411.98	3136.32
412.17	3206.53
412.36	3265.05
412.55	3421.86
412.74	3405.48
412.93	3370.37
413.12	3229.94
413.31	3515.48
413.50	3421.86
413.69	3421.86
413.88	3590.38
414.07	3576.34
414.26	3655.92
414.45	3618.47
414.64	3583.36
414.83	3779.97
415.02	3667.62
415.22	3831.46
415.41	3786.99
415.60	3782.31
415.79	3995.29
415.98	3971.89
416.17	3904.01
416.36	3833.80
416.55	3927.42
416.74	3985.93
416.93	4011.68
417.12	4009.34
417.31	4154.45
417.50	4236.37
417.69	4152.11
417.88	4283.18
418.07	4250.41
418.26	4322.97
418.45	4358.08
418.64	4346.37
418.83	4348.72
419.02	4280.84
419.21	4447.02
419.39	4564.04
419.58	4458.72
419.77	4540.64
419.96	4652.98
420.15	4662.35
420.34	4643.62
420.53	4517.23
420.72	4645.96
420.91	4559.36
421.10	4636.60
421.29	4744.27
421.48	4798.10
421.67	4727.88
421.86	4676.39
422.05	4737.24
422.24	4823.84
422.43	4786.40
422.61	4929.17
422.80	4936.19
422.99	4861.29
423.18	4980.66
423.37	4971.30
423.56	4915.12
423.75	4894.06
423.94	4929.17
424.13	4493.83
424.32	4655.33
424.50	5104.71
424.69	5071.94
424.88	5001.72
425.07	5011.09
425.26	4905.76
425.45	4933.85
425.64	4877.68
425.83	4990.02
426.01	5193.65
426.20	5011.09
426.39	5041.51
426.58	5015.77
426.77	4997.04
426.96	5097.69
427.15	5097.69
427.33	5261.52
427.52	5039.17
427.71	5203.01
427.90	5235.78
428.09	5327.06
428.28	5275.57
428.46	5406.64
428.65	5252.16
428.84	5380.89
429.03	5488.56
429.22	5373.87
429.40	5483.88
429.59	5336.42
429.78	5188.97
429.97	5207.69
430.16	5460.47
430.34	5586.86
430.53	5699.20
430.72	5511.96
430.91	5598.56
431.10	5516.64
431.28	5795.17
431.47	5593.88
431.66	5935.60
431.85	5783.46
432.03	5783.46
432.22	5959.00
432.41	5949.64
432.60	5900.49
432.79	5867.72
432.97	6045.60
433.16	5940.28
433.35	5905.17
433.54	6001.13
433.72	6193.06
433.91	6043.26
434.10	6005.81
434.28	5984.75
434.47	6249.23
434.66	6319.45
434.85	6310.08
435.03	6331.15
435.22	6289.02
435.41	6422.43
435.59	6324.13
435.78	6370.94
435.97	6347.53
436.16	6300.72
436.34	6307.74
436.53	6459.88
436.72	6778.19
436.90	6349.87
437.09	6424.77
437.28	6392.00
437.46	6623.72
437.65	6518.39
437.84	6771.17
438.02	6733.72
438.21	6705.63
438.40	6766.49
438.58	6869.47
438.77	6906.92
438.96	6890.54
439.14	7068.42
439.33	6958.41
439.52	7267.36
439.70	7225.23
439.89	7199.49
440.08	7431.20
440.26	7171.40
440.45	7169.06
440.63	7473.33
440.82	7651.21
441.01	7590.36
441.19	7571.63
441.38	7742.49
441.57	7786.96
441.75	7695.68
441.94	7803.35
442.12	7925.05
442.31	7899.31
442.50	7988.25
442.68	7665.25
442.87	7918.03
443.05	8128.68
443.24	8259.75
443.43	8065.49
443.61	8212.94
443.80	8217.62
443.98	8044.42
444.17	7873.56
444.35	8070.17
444.54	8484.44
444.73	8259.75
444.91	8201.24
445.10	8140.38
445.28	8283.16
445.47	8112.30
445.65	8297.20
445.84	8437.63
446.02	8411.89
446.21	8173.15
446.39	8224.64
446.58	8376.78
446.77	8454.02
446.95	8292.52
447.14	8280.82
447.32	8306.56
447.51	8465.72
447.69	8435.29
447.88	8446.99
448.06	8311.24
448.25	8301.88
448.43	8578.06
448.62	8395.50
448.80	8362.73
448.99	8645.94
449.17	8554.66
449.36	8594.45
449.54	8734.88
449.73	8812.12
449.91	8865.95
450.10	8898.72
450.28	9020.42
450.46	9298.95
450.65	8730.20
450.83	9090.64
451.02	8966.59
451.20	8894.04
451.39	9139.79
451.57	8894.04
451.76	9160.86
451.94	9359.80
452.13	9317.67
452.31	9214.69
452.49	9151.49
452.68	9289.59
452.86	9270.86
453.05	9294.27
453.23	9448.74
453.42	9298.95
453.60	9343.42
453.78	9432.36
453.97	9504.92
454.15	9364.48
454.34	9303.63
454.52	9561.09
454.70	9757.69
454.89	9701.52
455.07	9621.94
455.26	9951.96
455.44	9753.01
455.62	9633.64
455.81	9973.02
455.99	9951.96
456.17	9926.21
456.36	10043.24
456.54	9942.60
456.73	10083.03
456.91	10370.91
457.09	10399.00
457.28	10609.65
457.46	10251.55
457.64	10380.28
457.83	10590.92
458.01	10377.94
458.19	10602.63
458.38	10537.09
458.56	10635.39
458.74	10750.08
458.93	10537.09
459.11	10600.29
459.29	10712.63
459.48	10864.77
459.66	10750.08
459.84	10864.77
460.03	10799.23
460.21	11026.26
460.39	10883.49
460.57	10881.15
460.76	11143.29
460.94	11133.93
461.12	10839.02
461.31	11068.39
461.49	11073.07
461.67	11089.46
461.85	11445.22
462.04	11255.64
462.22	11190.10
462.40	11618.42
462.59	11372.66
462.77	11496.71
462.95	11604.38
463.13	11398.41
463.32	11651.19
463.50	11707.36
463.68	11702.68
463.86	11950.78
464.05	11632.46
464.23	11517.78
464.41	11679.27
464.59	11630.12
464.78	11992.90
464.96	11903.96
465.14	11838.43
465.32	11932.05
465.50	11922.69
465.69	12093.55
465.87	12173.13
466.05	11962.48
466.23	12093.55
466.41	11985.88
466.60	12486.76
466.78	12109.93
466.96	12084.19
467.14	11950.78
467.32	12109.93
467.51	12571.02
467.69	12138.02
467.87	12528.89
468.05	12552.29
468.23	12435.27
468.41	12386.12
468.60	12535.91
468.78	12414.20
468.96	12531.23
469.14	12561.66
469.32	12809.75
469.50	12531.23
469.69	12690.38
469.87	13078.91
470.05	13025.08
470.23	13008.70
470.41	13130.41
470.59	13224.03
470.77	13032.10
470.95	13053.17
471.14	13488.51
471.32	12917.42
471.50	13591.49
471.68	13551.70
471.86	13570.43
472.04	13799.80
472.22	13980.02
472.40	13572.77
472.58	13715.54
472.77	13710.86
472.95	13884.06
473.13	14380.25
473.31	14019.81
473.49	14303.01
473.67	13956.61
473.85	14216.41
474.03	14485.58
474.21	14565.15
474.39	14445.79
474.57	14775.80
474.75	14864.74
474.93	14956.02
475.12	15054.33
475.30	15021.56
475.48	14941.98
475.66	15014.54
475.84	15073.05
476.02	15005.17
476.20	15440.51
476.38	15632.44
476.56	15775.21
476.74	15789.25
476.92	15843.09
477.10	15807.98
477.28	15807.98
477.46	15681.59
477.64	16063.10
477.82	16414.18
478.00	16587.38
478.18	16823.77
478.36	16886.97
478.54	16783.98
478.72	16891.65
478.90	16987.61
479.08	17659.34
479.26	17331.67
479.44	17558.70
479.62	17804.46
479.80	17994.04
479.98	18134.47
480.16	18356.82
480.34	18310.01
480.52	18277.24
480.70	18452.78
480.88	18347.46
481.06	18719.60
481.24	18567.47
481.41	18988.77
481.59	18974.72
481.77	19288.35
481.95	19353.89
482.13	19508.37
482.31	19360.91
482.49	19988.18
482.67	19894.55
482.85	20264.36
483.03	20538.20
483.21	20456.28
483.39	20861.19
483.57	20524.16
483.74	20680.97
483.92	21205.25
484.10	21319.94
484.28	21245.04
484.46	21888.69
484.64	22366.16
484.82	21874.65
485.00	21965.93
485.18	22490.21
485.35	22764.05
485.53	22747.67
485.71	22731.28
485.89	23030.87
486.07	23143.22
486.25	22941.93
486.43	23267.27
486.61	23522.38
486.78	23840.70
486.96	24217.52
487.14	24318.17
487.32	23974.11
487.50	24402.43
487.68	24821.38
487.85	25135.01
488.03	25020.33
488.21	25572.69
488.39	25710.78
488.57	25965.90
488.75	26108.68
488.92	26160.17
489.10	26235.06
489.28	26408.26
489.46	26934.88
489.64	26448.05
489.81	27786.84
489.99	27292.99
490.17	27770.46
490.35	27831.31
490.53	28130.90
490.70	28194.09
490.88	28041.96
491.06	28613.05
491.24	28524.11
491.41	28856.46
491.59	29193.50
491.77	29055.41
491.95	29380.74
492.13	29460.32
492.30	30213.98
492.48	29858.21
492.66	29883.96
492.84	29958.86
493.01	30260.79
493.19	30469.09
493.37	30543.99
493.54	31033.16
493.72	31229.77
493.90	31339.77
494.08	31723.62
494.25	32037.25
494.43	31999.80
494.61	32203.43
494.79	32067.68
494.96	32158.96
495.14	32645.79
495.32	32751.12
495.49	33118.58
495.67	33043.68
495.85	33001.55
496.02	33406.47
496.20	33736.48
496.38	33759.89
496.55	33790.31
496.73	34476.09
496.91	34174.16
497.09	34349.70
497.26	34604.82
497.44	34511.20
497.62	34838.87
497.79	35641.68
497.97	35264.85
498.14	35515.29
498.32	35641.68
498.50	35852.33
498.67	36528.74
498.85	36077.02
499.03	35952.97
499.20	36465.55
499.38	36964.08
499.56	36409.37
499.73	36734.71
499.91	36907.91
500.08	37366.65
500.26	37263.67
500.44	37397.08
500.61	37832.42
500.79	37656.88
500.97	37560.92
501.14	38258.40
501.32	38253.72
501.49	38082.86
501.67	38185.84
501.84	38932.47
502.02	38902.04
502.20	39234.40
502.37	39096.31
502.55	39234.40
502.72	38974.60
502.90	39473.13
503.07	39318.66
503.25	39192.27
503.43	39328.02
503.60	39784.43
503.78	39852.30
503.95	40231.47
504.13	40231.47
504.30	40381.26
504.48	40245.51
504.65	40460.84
504.83	40605.95
505.01	41188.75
505.18	40811.92
505.36	41120.87
505.53	41291.73
505.71	41165.34
505.88	41354.93
506.06	41123.21
506.23	41556.21
506.41	41691.96
506.58	42258.37
506.76	41949.42
506.93	42134.32
507.11	42080.49
507.28	42031.34
507.46	42307.52
507.63	42686.69
507.81	42763.93
507.98	42412.85
508.16	42909.04
508.33	43122.03
508.50	43255.44
508.68	43405.23
508.85	43414.60
509.03	43402.89
509.20	43730.57
509.38	44112.08
509.55	43899.09
509.73	44051.22
509.90	44245.49
510.08	44437.41
510.25	44266.55
510.42	44549.76
510.60	44669.12
510.77	44877.43
510.95	45127.87
511.12	44720.62
511.30	44720.62
511.47	45336.18
511.64	45055.31
511.82	45497.67
511.99	45413.41
512.17	45839.39
512.34	45736.41
512.51	46340.27
512.69	46003.23
512.86	46328.56
513.04	46382.40
513.21	46340.27
513.38	46705.39
513.56	46419.84
513.73	46469.00
513.90	46815.40
514.08	46630.49
514.25	47145.41
514.43	46909.02
514.60	47019.02
514.77	46934.76
514.95	47494.15
515.12	47159.45
515.29	47129.03
515.47	47751.61
515.64	48158.86
515.81	47863.96
515.99	48123.75
516.16	48275.89
516.33	47997.37
516.51	48114.39
516.68	48067.58
516.85	48252.48
517.03	48224.40
517.20	48233.76
517.37	48090.99
517.54	48690.16
517.72	48793.15
517.89	48837.62
518.06	48868.05
518.24	48975.71
518.41	49017.84
518.58	49181.68
518.75	48713.57
518.93	49588.93
519.10	49226.15
519.27	49371.26
519.45	49258.91
519.62	49963.42
519.79	49916.61
519.96	49918.95
520.14	49963.42
520.31	49677.87
520.48	50426.84
520.65	50181.09
520.83	50361.31
521.00	50461.95
521.17	50106.19
521.34	50375.35
521.52	50539.19
521.69	50782.60
521.86	50658.56
522.03	51061.13
522.20	51007.29
522.38	51091.55
522.55	50855.16
522.72	51051.76
522.89	51173.47
523.07	51171.13
523.24	51180.49
523.41	51395.82
523.58	50923.04
523.75	51634.56
523.92	51585.41
524.10	51447.32
524.27	51756.27
524.44	51784.35
524.61	51906.06
524.78	52170.54
524.96	52191.61
525.13	52060.54
525.30	52207.99
525.47	52203.31
525.64	52086.28
525.81	52275.87
525.98	52355.44
526.16	52655.03
526.33	52341.40
526.50	52804.83
526.67	52713.55
526.84	52559.07
527.01	52528.64
527.18	52610.56
527.36	52736.95
527.53	52722.91
527.70	53045.90
527.87	53034.20
528.04	52783.76
528.21	53272.93
528.38	53050.58
528.55	53153.57
528.72	53221.44
528.89	53191.01
529.07	53085.69
529.24	53310.38
529.41	53724.66
529.58	53471.88
529.75	53638.06
529.92	53663.80
530.09	53549.12
530.26	53467.20
530.43	53413.37
530.60	53528.05
530.77	53591.25
530.94	53911.90
531.11	53923.60
531.28	53712.95
531.46	54033.61
531.63	53722.32
531.80	54255.96
531.97	54164.68
532.14	54124.89
532.31	54120.21
532.48	54398.73
532.65	54372.99
532.82	54162.34
532.99	54361.28
533.16	54368.30
533.33	54754.49
533.50	54766.20
533.67	54607.04
533.84	54578.95
534.01	54653.85
534.18	54604.70
534.35	55044.72
534.52	54721.72
534.69	54923.01
534.86	55229.62
535.03	54951.10
535.20	54995.57
535.37	55131.32
535.54	55295.16
535.71	55234.30
535.88	55262.39
536.05	55154.72
536.22	55271.75
536.38	55206.22
536.55	55292.82
536.72	55414.52
536.89	55283.45
537.06	55365.37
537.23	55664.96
537.40	55290.48
537.57	55533.89
537.74	55711.77
537.91	55667.30
538.08	55641.56
538.25	55449.63
538.42	55723.47
538.59	55863.91
538.75	55657.94
538.92	55875.61
539.09	55950.51
539.26	55927.10
539.43	55896.67
539.60	55992.64
539.77	56170.52
539.94	56149.45
540.11	56268.82
540.28	56306.27
540.44	56439.68
540.61	56095.62
540.78	56170.52
540.95	56287.54
541.12	56102.64
541.29	56107.32
541.46	56243.07
541.62	56200.94
541.79	56353.08
541.96	56205.62
542.13	56465.42
542.30	56828.21
542.47	56835.23
542.63	56629.26
542.80	56741.61
542.97	56762.67
543.14	56914.81
543.31	57024.81
543.48	56938.21
543.64	57333.76
543.81	57195.67
543.98	57073.96
544.15	57195.67
544.32	57146.52
544.48	57350.15
544.65	57144.18
544.82	57066.94
544.99	57085.67
545.16	57361.85
545.32	57064.60
545.49	57623.99
545.66	57745.70
545.83	57572.50
546.00	57488.24
546.16	57237.80
546.33	57570.16
546.50	57123.11
546.67	57567.82
546.83	57277.59
547.00	57553.77
547.17	57235.46
547.34	57584.20
547.50	57886.13
547.67	57963.37
547.84	57743.36
548.00	57689.52
548.17	57935.28
548.34	57731.65
548.51	58094.44
548.67	58033.58
548.84	58145.93
549.01	57865.06
549.18	57918.90
549.34	57907.19
549.51	58239.55
549.68	58021.88
549.84	58131.89
550.01	58080.39
550.18	58216.14
550.34	58429.13
550.51	58358.92
550.68	58323.81
550.84	58040.60
551.01	58436.16
551.18	58148.27
551.34	58262.96
551.51	58300.40
551.68	58115.50
551.84	58372.96
552.01	58405.73
552.18	58387.00
552.34	58473.60
552.51	58590.63
552.68	58300.40
552.84	58436.16
553.01	58686.59
553.18	58639.78
553.34	58768.51
553.51	58747.45
553.67	58599.99
553.84	58707.66
554.01	58752.13
554.17	58908.94
554.34	58925.33
554.51	58871.49
554.67	58880.86
554.84	58845.75
555.00	58820.00
555.17	58801.28
555.33	58887.88
555.50	58672.55
555.67	58726.38
555.83	58637.44
556.00	58777.87
556.16	59072.78
556.33	59126.61
556.50	59093.85
556.66	59241.30
556.83	58951.07
556.99	59297.47
557.16	59437.90
557.32	59437.90
557.49	59456.63
557.65	59040.01
557.82	59213.21
557.98	59206.19
558.15	59236.62
558.32	59370.03
558.48	59231.94
558.65	59461.31
558.81	59409.82
558.98	59351.30
559.14	59480.03
559.31	59419.18
559.47	59381.73
559.64	59662.60
559.80	59398.12
559.97	59648.55
560.13	59458.97
560.30	59412.16
560.46	59538.55
560.63	59732.81
560.79	59496.42
560.96	59664.94
561.12	59620.47
561.29	59697.70
561.45	59604.08
561.61	59774.94
561.78	59770.26
561.94	59407.48
562.11	59803.03
562.27	59660.26
562.44	59845.16
562.60	59875.58
562.77	59943.46
562.93	59620.47
563.10	59639.19
563.26	59728.13
563.42	60051.12
563.59	59985.59
563.75	59915.37
563.92	59817.07
564.08	59709.41
564.24	60142.41
564.41	59831.11
564.57	59873.24
564.74	60093.25
564.90	60048.78
565.07	60039.42
565.23	59870.90
565.39	59814.73
565.56	60018.36
565.72	59957.50
565.88	60151.77
566.05	60154.11
566.21	60018.36
566.38	60170.49
566.54	60016.02
566.70	60116.66
566.87	60210.28
567.03	59976.23
567.19	60144.75
567.36	60247.73
567.52	60165.81
567.68	60217.30
567.85	60133.04
568.01	60221.98
568.17	60119.00
568.34	60315.61
568.50	59976.23
568.66	60317.95
568.83	60285.18
568.99	60074.53
569.15	60294.54
569.32	60243.05
569.48	60093.25
569.64	60427.95
569.81	60240.71
569.97	60168.15
570.13	60451.36
570.30	60271.14
570.46	60203.26
570.62	60238.37
570.78	60329.65
570.95	60395.18
571.11	60465.40
571.27	60456.04
571.43	60259.43
571.60	60631.58
571.76	60507.53
571.92	60430.29
572.09	60491.15
572.25	60470.08
572.41	60444.33
572.57	60507.53
572.74	60722.86
572.90	60306.24
573.06	60392.84
573.22	60472.42
573.38	60350.71
573.55	60374.12
573.71	60575.40
573.87	60437.31
574.03	60266.45
574.20	60463.06
574.36	60411.57
574.52	60516.89
574.68	60493.49
574.84	60596.47
575.01	60647.96
575.17	60624.56
575.33	60205.60
575.49	60441.99
575.65	60540.30
575.82	60542.64
575.98	60556.68
576.14	60772.01
576.30	60725.20
576.46	60662.00
576.62	60669.03
576.79	60502.85
576.95	60369.44
577.11	60685.41
577.27	60507.53
577.43	60664.35
577.59	60474.76
577.75	60507.53
577.92	60439.65
578.08	60669.03
578.24	60760.31
578.40	60795.42
578.56	60617.53
578.72	60727.54
578.88	60699.45
579.04	60884.36
579.21	60985.00
579.37	61055.21
579.53	60874.99
579.69	60502.85
579.85	60570.72
580.01	60704.13
580.17	60416.25
580.33	60715.84
580.49	60933.51
580.65	60910.10
580.82	60722.86
580.98	60645.62
581.14	60427.95
581.30	60940.53
581.46	60519.23
581.62	60711.16
581.78	60552.00
581.94	60718.18
582.10	60472.42
582.26	60856.27
582.42	60750.94
582.58	60776.69
582.74	60640.94
582.90	60678.39
583.06	60739.24
583.22	60753.29
583.38	60783.71
583.54	60748.60
583.70	60711.16
583.86	61052.87
584.02	60439.65
584.18	60910.10
584.34	60896.06
584.50	60638.60
584.66	60680.73
584.82	60659.66
584.98	61052.87
585.14	60921.80
585.30	60575.40
585.46	61034.15
585.62	60882.02
585.78	60996.70
585.94	60622.22
586.10	61027.13
586.26	60739.24
586.42	60846.91
586.58	60837.54
586.74	60865.63
586.90	60844.57
587.06	60743.92
587.22	60917.12
587.38	60996.70
587.54	61050.53
587.70	61071.60
587.86	60781.37
588.02	60818.82
588.18	60954.57
588.34	61003.72
588.49	60947.55
