SpectraSuite Data File
++++++++++++++++++++++++++++++++++++
Date: Fri Oct 25 11:34:31 EDT 2013
User: price-jones
Dark Spectrum Present: No
Reference Spectrum Present: No
Number of Sampled Component Spectra: 1
Spectrometers: USB2+H05261
Integration Time (usec): 100000 (USB2+H05261)
Spectra Averaged: 1 (USB2+H05261)
Boxcar Smoothing: 0 (USB2+H05261)
Correct for Electrical Dark: No (USB2+H05261)
Strobe/Lamp Enabled: No (USB2+H05261)
Correct for Detector Non-linearity: No (USB2+H05261)
Correct for Stray Light: No (USB2+H05261)
Number of Pixels in Processed Spectrum: 2048
>>>>>Begin Processed Spectral Data<<<<<
365.73	248.10
365.92	248.10
366.12	248.10
366.32	191.92
366.52	117.03
366.72	161.50
366.91	191.92
367.11	119.37
367.31	147.45
367.51	131.07
367.70	227.03
367.90	201.29
368.10	177.88
368.30	191.92
368.49	117.03
368.69	236.39
368.89	208.31
369.09	205.97
369.28	175.54
369.48	191.92
369.68	203.63
369.87	266.82
370.07	142.77
370.27	294.91
370.47	330.02
370.66	404.91
370.86	475.13
371.06	496.19
371.25	528.96
371.45	589.82
371.65	566.41
371.84	554.71
372.04	543.00
372.24	538.32
372.44	521.94
372.63	557.05
372.83	557.05
373.03	573.43
373.22	603.86
373.42	587.47
373.62	571.09
373.81	610.88
374.01	622.58
374.21	629.60
374.40	594.50
374.60	622.58
374.79	603.86
374.99	624.92
375.19	629.60
375.38	620.24
375.58	613.22
375.78	678.76
375.97	676.41
376.17	709.18
376.37	704.50
376.56	692.80
376.76	716.20
376.95	692.80
377.15	678.76
377.35	692.80
377.54	723.23
377.74	720.88
377.93	692.80
378.13	641.31
378.33	669.39
378.52	648.33
378.72	667.05
378.91	702.16
379.11	629.60
379.31	718.54
379.50	737.27
379.70	730.25
379.89	770.04
380.09	713.86
380.28	781.74
380.48	676.41
380.68	711.52
380.87	716.20
381.07	748.97
381.26	718.54
381.46	746.63
381.65	795.78
381.85	781.74
382.04	809.83
382.24	791.10
382.43	634.29
382.63	760.67
382.83	840.25
383.02	718.54
383.22	772.38
383.41	774.72
383.61	795.78
383.80	833.23
384.00	819.19
384.19	744.29
384.39	856.64
384.58	861.32
384.78	826.21
384.97	889.40
385.17	737.27
385.36	758.33
385.56	863.66
385.75	772.38
385.95	798.12
386.14	861.32
386.34	873.02
386.53	816.85
386.72	861.32
386.92	924.51
387.11	819.19
387.31	866.00
387.50	870.68
387.70	863.66
387.89	791.10
388.09	887.06
388.28	971.32
388.48	847.27
388.67	952.60
388.86	1008.77
389.06	929.19
389.25	978.34
389.45	961.96
389.64	933.87
389.84	950.26
390.03	945.58
390.22	966.64
390.42	908.13
390.61	870.68
390.81	903.45
391.00	990.05
391.19	990.05
391.39	985.37
391.58	938.55
391.78	1018.13
391.97	961.96
392.16	1029.84
392.36	1025.15
392.55	936.21
392.75	1027.50
392.94	978.34
393.13	1067.28
393.33	1114.10
393.52	1041.54
393.71	1062.60
393.91	1027.50
394.10	1027.50
394.29	1029.84
394.49	1029.84
394.68	1167.93
394.88	1039.20
395.07	1076.65
395.26	1139.84
395.46	1053.24
395.65	1090.69
395.84	1156.22
396.04	1177.29
396.23	1210.06
396.42	1254.53
396.62	1144.52
396.81	1107.07
397.00	1151.54
397.19	1132.82
397.39	1181.97
397.58	1144.52
397.77	1224.10
397.97	1228.78
398.16	1203.04
398.35	1263.89
398.55	1224.10
398.74	1310.70
398.93	1256.87
399.12	1275.59
399.32	1331.76
399.51	1284.95
399.70	1296.66
399.90	1327.08
400.09	1385.60
400.28	1291.98
400.47	1235.80
400.67	1345.81
400.86	1338.79
401.05	1324.74
401.24	1416.02
401.44	1348.15
401.63	1385.60
401.82	1371.55
402.01	1308.36
402.21	1369.21
402.40	1437.09
402.59	1355.17
402.78	1411.34
402.97	1366.87
403.17	1430.07
403.36	1413.68
403.55	1516.67
403.74	1547.09
403.93	1523.69
404.13	1479.22
404.32	1488.58
404.51	1528.37
404.70	1591.56
404.89	1598.59
405.09	1638.38
405.28	1584.54
405.47	1561.14
405.66	1631.35
405.85	1668.80
406.05	1813.92
406.24	1626.67
406.43	1722.63
406.62	1685.19
406.81	1804.55
407.00	1668.80
407.20	1607.95
407.39	1710.93
407.58	1865.41
407.77	1727.32
407.96	1799.87
408.15	1767.10
408.34	1771.79
408.54	1818.60
408.73	1860.73
408.92	1849.02
409.11	1792.85
409.30	1912.22
409.49	1891.15
409.68	1877.11
409.87	1968.39
410.07	2001.16
410.26	1933.28
410.45	1947.33
410.64	2005.84
410.83	2031.58
411.02	2087.76
411.21	2085.42
411.40	2064.35
411.59	2057.33
411.78	2146.27
411.98	2047.97
412.17	2181.38
412.36	2202.44
412.55	2190.74
412.74	2232.87
412.93	2204.78
413.12	2289.04
413.31	2349.90
413.50	2307.77
413.69	2321.81
413.88	2368.62
414.07	2420.11
414.26	2406.07
414.45	2382.67
414.64	2394.37
414.83	2480.97
415.02	2476.29
415.22	2609.70
415.41	2560.55
415.60	2576.93
415.79	2595.65
415.98	2602.68
416.17	2612.04
416.36	2644.81
416.55	2600.34
416.74	2768.85
416.93	2619.06
417.12	2597.99
417.31	2775.88
417.50	2799.28
417.69	2785.24
417.88	2693.96
418.07	2846.09
418.26	2745.45
418.45	2916.31
418.64	2897.58
418.83	2860.13
419.02	2892.90
419.21	3084.83
419.39	3028.65
419.58	2878.86
419.77	2946.73
419.96	2970.14
420.15	3052.06
420.34	2970.14
420.53	2984.18
420.72	3082.49
420.91	3141.00
421.10	2986.52
421.29	3108.23
421.48	3091.85
421.67	3194.83
421.86	3103.55
422.05	3194.83
422.24	3138.66
422.43	3152.70
422.61	3204.19
422.80	3258.03
422.99	3255.69
423.18	3211.22
423.37	3417.18
423.56	3297.81
423.75	3351.65
423.94	3201.85
424.13	3080.14
424.32	3222.92
424.50	3391.44
424.69	3438.25
424.88	3379.73
425.07	3169.09
425.26	3208.87
425.45	3323.56
425.64	3272.07
425.83	3272.07
426.01	3536.55
426.20	3372.71
426.39	3356.33
426.58	3239.30
426.77	3316.54
426.96	3229.94
427.15	3325.90
427.33	3384.41
427.52	3534.21
427.71	3337.60
427.90	3379.73
428.09	3440.59
428.28	3595.06
428.46	3646.55
428.65	3463.99
428.84	3541.23
429.03	3627.83
429.22	3585.70
429.40	3641.87
429.59	3639.53
429.78	3501.44
429.97	3489.74
430.16	3595.06
430.34	3623.15
430.53	3623.15
430.72	3726.13
430.91	3700.39
431.10	3644.21
431.28	3786.99
431.47	3784.65
431.66	3836.14
431.85	3779.97
432.03	3812.73
432.22	3969.55
432.41	3918.06
432.60	3960.19
432.79	3826.78
432.97	3892.31
433.16	3918.06
433.35	3925.08
433.54	3866.56
433.72	4100.62
433.91	4060.83
434.10	4121.68
434.28	3901.67
434.47	4058.49
434.66	4163.81
434.85	4056.15
435.03	4273.82
435.22	4142.75
435.41	4304.25
435.59	4170.83
435.78	4255.09
435.97	4248.07
436.16	4184.88
436.34	4086.58
436.53	4327.65
436.72	4376.80
436.90	4175.52
437.09	4325.31
437.28	4149.77
437.46	4217.65
437.65	4271.48
437.84	4479.79
438.02	4414.25
438.21	4451.70
438.40	4273.82
438.58	4454.04
438.77	4496.17
438.96	4524.26
439.14	4643.62
439.33	4678.73
439.52	4650.64
439.70	4755.97
439.89	4858.95
440.08	4952.57
440.26	4762.99
440.45	4767.67
440.63	5013.43
440.82	4917.47
441.01	4926.83
441.19	4903.42
441.38	5015.77
441.57	4983.00
441.75	5083.64
441.94	5207.69
442.12	5179.61
442.31	5249.82
442.50	5359.83
442.68	5151.52
442.87	5294.29
443.05	5444.09
443.24	5252.16
443.43	5203.01
443.61	5275.57
443.80	5383.23
443.98	5174.92
444.17	5100.03
444.35	5217.05
444.54	5345.78
444.73	5537.71
444.91	5434.72
445.10	5411.32
445.28	5327.06
445.47	5289.61
445.65	5453.45
445.84	5444.09
446.02	5619.63
446.21	5437.06
446.39	5467.49
446.58	5479.19
446.77	5577.50
446.95	5387.91
447.14	5465.15
447.32	5570.48
447.51	5455.79
447.69	5582.18
447.88	5502.60
448.06	5481.53
448.25	5593.88
448.43	5636.01
448.62	5626.65
448.80	5605.58
448.99	5614.95
449.17	5666.44
449.36	5579.84
449.54	5760.06
449.73	5790.49
449.91	5963.68
450.10	5717.93
450.28	6045.60
450.46	6094.76
450.65	5771.76
450.83	5844.32
451.02	6057.31
451.20	6026.88
451.39	5912.19
451.57	5846.66
451.76	5867.72
451.94	5921.56
452.13	6026.88
452.31	6148.59
452.49	5832.62
452.68	6111.14
452.86	6026.88
453.05	6024.54
453.23	6115.82
453.42	6143.91
453.60	6043.26
453.78	6211.78
453.97	5987.09
454.15	6134.54
454.34	6057.31
454.52	6153.27
454.70	6169.65
454.89	6136.88
455.07	6340.51
455.26	6270.30
455.44	6429.45
455.62	6333.49
455.81	6527.75
455.99	6462.22
456.17	6356.90
456.36	6415.41
456.54	6370.94
456.73	6539.46
456.91	6675.21
457.09	6558.18
457.28	6700.95
457.46	6441.15
457.64	6738.40
457.83	6789.89
458.01	6703.29
458.19	6745.42
458.38	6677.55
458.56	6916.28
458.74	6817.98
458.93	6878.83
459.11	6906.92
459.29	6932.67
459.48	7033.31
459.66	6923.30
459.84	6937.35
460.03	7007.56
460.21	7105.87
460.39	7049.69
460.57	7122.25
460.76	7166.72
460.94	7222.89
461.12	6986.50
461.31	7192.47
461.49	7199.49
461.67	7318.86
461.85	7346.94
462.04	7290.77
462.22	7789.30
462.40	7419.50
462.59	7250.98
462.77	7330.56
462.95	7241.62
463.13	7262.68
463.32	7426.52
463.50	7581.00
463.68	7499.08
463.86	7616.10
464.05	7506.10
464.23	7499.08
464.41	7592.70
464.59	7342.26
464.78	7971.86
464.96	7772.92
465.14	7550.57
465.32	7531.84
465.50	7747.17
465.69	7892.29
465.87	7758.88
466.05	7721.43
466.23	7707.38
466.41	7782.28
466.60	7688.66
466.78	7681.64
466.96	7676.96
467.14	7920.37
467.32	7962.50
467.51	8058.46
467.69	7943.78
467.87	7831.43
468.05	7955.48
468.23	8006.97
468.41	7702.70
468.60	7887.61
468.78	7927.39
468.96	8084.21
469.14	8081.87
469.32	8334.65
469.50	8081.87
469.69	8231.66
469.87	8252.73
470.05	8365.07
470.23	8411.89
470.41	8414.23
470.59	8472.74
470.77	8255.07
470.95	8594.45
471.14	8657.64
471.32	8344.01
471.50	8568.70
471.68	8566.36
471.86	8568.70
472.04	8624.87
472.22	8992.34
472.40	8807.44
472.58	9078.94
472.77	8802.75
472.95	8966.59
473.13	9301.29
473.31	8915.10
473.49	9034.47
473.67	8896.38
473.85	9015.74
474.03	9116.39
474.21	9062.55
474.39	9303.63
474.57	9252.14
474.75	9467.47
474.93	9327.03
475.12	9425.34
475.30	9853.66
475.48	9535.34
475.66	9584.49
475.84	9764.72
476.02	9921.53
476.20	9947.28
476.38	10024.51
476.56	10111.11
476.74	10178.99
476.92	10200.05
477.10	9825.57
477.28	10050.26
477.46	9888.76
477.64	10228.14
477.82	10359.21
478.00	10541.77
478.18	10560.50
478.36	10611.99
478.54	10899.87
478.72	10939.66
478.90	11005.20
479.08	11150.31
479.26	11351.60
479.44	10759.44
479.62	11257.98
479.80	11342.24
479.98	11082.44
480.16	11438.20
480.34	11482.67
480.52	11580.97
480.70	11854.81
480.88	11775.24
481.06	11674.59
481.24	11669.91
481.41	11981.20
481.59	12166.10
481.77	12269.09
481.95	12217.60
482.13	12217.60
482.31	12500.80
482.49	12622.51
482.67	12573.36
482.85	12554.63
483.03	12985.29
483.21	13111.68
483.39	13188.92
483.57	13291.90
483.74	13380.84
483.92	13336.37
484.10	13188.92
484.28	13621.92
484.46	13841.93
484.64	14059.60
484.82	13963.64
485.00	13633.62
485.18	14321.74
485.35	14373.23
485.53	14403.66
485.71	14523.02
485.89	14647.07
486.07	14513.66
486.25	14623.67
486.43	14899.85
486.61	14890.49
486.78	15166.67
486.96	15044.96
487.14	15667.55
487.32	15185.40
487.50	15243.91
487.68	15679.25
487.85	15517.75
488.03	16032.67
488.21	16009.26
488.39	16020.97
488.57	16301.83
488.75	16299.49
488.92	16772.28
489.10	16641.21
489.28	16606.10
489.46	16863.56
489.64	16603.76
489.81	17319.96
489.99	17053.14
490.17	17401.88
490.35	17664.02
490.53	17809.14
490.70	18022.12
490.88	17928.50
491.06	18068.94
491.24	18143.83
491.41	18310.01
491.59	18324.05
491.77	18195.32
491.95	18284.26
492.13	18747.69
492.30	18923.23
492.48	18724.29
492.66	18527.68
492.84	18979.40
493.01	19161.97
493.19	19089.41
493.37	19389.00
493.54	19379.64
493.72	19634.75
493.90	19639.44
494.08	19564.54
494.25	19819.66
494.43	19866.47
494.61	20224.57
494.79	20285.42
494.96	20348.62
495.14	20247.97
495.32	20966.52
495.49	20697.36
495.67	20610.76
495.85	20898.64
496.02	21062.48
496.20	21202.91
496.38	21228.66
496.55	21179.51
496.73	21532.93
496.91	21495.48
497.09	21844.22
497.26	21713.15
497.44	21523.57
497.62	22111.04
497.79	22391.91
497.97	22167.21
498.14	22508.93
498.32	22661.07
498.50	22522.98
498.67	22838.95
498.85	22628.30
499.03	22871.72
499.20	23150.24
499.38	22841.29
499.56	23087.04
499.73	23297.69
499.91	23262.58
500.08	23194.71
500.26	23293.01
500.44	23637.07
500.61	23679.20
500.79	23592.60
500.97	23599.62
501.14	24041.98
501.32	24290.08
501.49	24386.04
501.67	24027.94
501.84	24273.70
502.02	24456.26
502.20	24313.48
502.37	24474.98
502.55	24425.83
502.72	24751.17
502.90	24556.90
503.07	24517.11
503.25	25060.12
503.43	24711.38
503.60	25020.33
503.78	25088.20
503.95	25179.48
504.13	25219.27
504.30	25329.28
504.48	25076.50
504.65	25577.37
504.83	25535.24
505.01	25631.21
505.18	25692.06
505.36	25766.96
505.53	25727.17
505.71	26216.34
505.88	26384.86
506.06	25804.41
506.23	26377.84
506.41	26244.43
506.58	26661.04
506.76	26565.08
506.93	27021.48
507.11	26417.63
507.28	26553.38
507.46	26625.93
507.63	26628.27
507.81	27234.47
507.98	26937.23
508.16	27012.12
508.33	27300.01
508.50	27480.23
508.68	27269.58
508.85	27374.91
509.03	27676.83
509.20	27723.65
509.38	27637.05
509.55	28056.00
509.73	27754.07
509.90	27889.82
510.08	27843.01
510.25	28102.81
510.42	28325.16
510.60	28100.47
510.77	28617.73
510.95	28512.41
511.12	28257.29
511.30	28180.05
511.47	28659.86
511.64	28561.56
511.82	28931.36
511.99	28727.74
512.17	29144.35
512.34	29113.92
512.51	29277.76
512.69	29544.58
512.86	29425.22
513.04	29848.85
513.21	29214.57
513.38	29560.97
513.56	29839.49
513.73	29099.88
513.90	29596.07
514.08	29893.32
514.25	29933.11
514.43	29883.96
514.60	30181.21
514.77	30448.03
514.95	30321.64
515.12	30277.17
515.29	30127.38
515.47	30506.54
515.64	31002.74
515.81	30452.71
515.99	30714.85
516.16	30731.23
516.33	30677.40
516.51	30628.25
516.68	30361.43
516.85	31126.78
517.03	30850.60
517.20	30883.37
517.37	30979.33
517.54	31351.48
517.72	31051.89
517.89	31211.04
518.06	31400.63
518.24	31187.64
518.41	31463.82
518.58	31674.47
518.75	31644.04
518.93	31941.29
519.10	31627.66
519.27	32046.62
519.45	32095.77
519.62	31992.78
519.79	32126.19
519.96	32151.94
520.14	32009.17
520.31	31810.22
520.48	32606.00
520.65	32346.20
520.83	32507.70
521.00	32973.47
521.17	32620.05
521.34	32496.00
521.52	33083.47
521.69	32982.83
521.86	32741.75
522.03	33074.11
522.20	32872.82
522.38	33315.19
522.55	33617.11
522.72	33553.92
522.89	33305.82
523.07	33626.48
523.24	33633.50
523.41	33628.82
523.58	33544.56
523.75	33642.86
523.92	33500.09
524.10	33668.61
524.27	34110.97
524.44	33687.33
524.61	34398.85
524.78	33986.92
524.96	34101.61
525.13	33869.89
525.30	34710.14
525.47	34366.09
525.64	34033.73
525.81	34480.77
525.98	34541.63
526.16	34616.52
526.33	34740.57
526.50	34433.96
526.67	34721.85
526.84	34625.89
527.01	35016.75
527.18	34864.62
527.36	34974.63
527.53	35098.67
527.70	34991.01
527.87	35236.77
528.04	35035.48
528.21	35351.45
528.38	35283.58
528.55	35519.97
528.72	35566.78
528.89	35395.92
529.07	35328.05
529.24	35283.58
529.41	35543.38
529.58	35812.54
529.75	35482.52
529.92	35714.23
530.09	35779.77
530.26	35786.79
530.43	35864.03
530.60	35723.60
530.77	35910.84
530.94	35793.81
531.11	35983.40
531.28	36512.36
531.46	36079.36
531.63	36177.66
531.80	36299.37
531.97	36212.77
532.14	36390.65
532.31	36388.31
532.48	36744.07
532.65	36811.95
532.82	36694.92
532.99	36472.57
533.16	36725.35
533.33	36884.50
533.50	36666.83
533.67	36814.29
533.84	36734.71
534.01	37233.24
534.18	36966.42
534.35	37270.69
534.52	37048.34
534.69	37397.08
534.86	37900.29
535.03	36924.29
535.20	37448.57
535.37	37507.08
535.54	37605.39
535.71	37521.13
535.88	37610.07
536.05	37448.57
536.22	38007.96
536.38	37706.03
536.55	37596.03
536.72	37855.82
536.89	37488.36
537.06	37631.13
537.23	38120.31
537.40	37783.27
537.57	37914.34
537.74	37792.63
537.91	38239.67
538.08	38141.37
538.25	37944.76
538.42	38164.78
538.59	38820.13
538.75	37846.46
538.92	38525.22
539.09	38686.71
539.26	38085.20
539.43	38714.80
539.60	38703.10
539.77	38691.40
539.94	38944.17
540.11	38670.33
540.28	39182.91
540.44	38810.76
540.61	39084.61
540.78	38733.53
540.95	38752.25
541.12	38960.56
541.29	38651.61
541.46	39033.11
541.62	38993.32
541.79	39501.22
541.96	38649.27
542.13	38979.28
542.30	39234.40
542.47	39585.48
542.63	39325.68
542.80	39721.23
542.97	39835.92
543.14	39962.31
543.31	39339.72
543.48	39686.12
543.64	39950.60
543.81	39985.71
543.98	39990.39
544.15	40067.63
544.32	39686.12
544.48	40240.83
544.65	40100.40
544.82	40318.07
544.99	39938.90
545.16	39974.01
545.32	39632.29
545.49	40299.34
545.66	40641.06
545.83	40250.19
546.00	40645.74
546.16	40254.87
546.33	40463.18
546.50	40128.48
546.67	40751.07
546.83	40212.74
547.00	40355.52
547.17	40666.81
547.34	40830.65
547.50	40577.87
547.67	41207.47
547.84	40732.34
548.00	40488.93
548.17	41284.71
548.34	40870.43
548.51	41565.57
548.67	41380.67
548.84	41385.35
549.01	41677.92
549.18	41226.20
549.34	41493.02
549.51	41607.70
549.68	41731.75
549.84	41205.13
550.01	41104.49
550.18	41333.86
550.34	41359.61
550.51	41799.63
550.68	41380.67
550.84	41167.68
551.01	41961.12
551.18	41148.96
551.34	41565.57
551.51	41858.14
551.68	41684.94
551.84	41729.41
552.01	41722.39
552.18	41694.30
552.34	41762.18
552.51	41825.37
552.68	41680.26
552.84	41890.91
553.01	41858.14
553.18	41937.72
553.34	42230.29
553.51	41867.50
553.67	42103.90
553.84	42417.53
554.01	42340.29
554.17	42143.69
554.34	42270.08
554.51	42108.58
554.67	42410.51
554.84	42543.92
555.00	42174.11
555.17	41986.87
555.33	42550.94
555.50	42387.10
555.67	42340.29
555.83	43028.41
556.00	42752.23
556.16	43260.12
556.33	43100.97
556.50	42284.12
556.66	42887.98
556.83	42403.49
556.99	43098.62
557.16	42731.16
557.32	43171.18
557.49	42700.73
557.65	42728.82
557.82	42773.29
557.98	43131.39
558.15	42979.26
558.32	42923.08
558.48	42976.92
558.65	43002.66
558.81	43042.45
558.98	42990.96
559.14	42745.20
559.31	42946.49
559.47	43040.11
559.64	43344.38
559.80	43175.86
559.97	43391.19
560.13	43201.61
560.30	43239.06
560.46	43587.80
560.63	43330.34
560.79	43503.54
560.96	43714.19
561.12	43887.39
561.29	43812.49
561.45	43866.32
561.61	43501.20
561.78	43620.56
561.94	43686.10
562.11	43477.79
562.27	43662.69
562.44	43714.19
562.60	43606.52
562.77	43753.97
562.93	43643.97
563.10	43936.54
563.26	43222.67
563.42	43796.10
563.59	43496.52
563.75	43629.93
563.92	43859.30
564.08	43688.44
564.24	44053.56
564.41	43674.40
564.57	43992.71
564.74	43882.70
564.90	43903.77
565.07	44156.55
565.23	43913.13
565.39	43805.47
565.56	43992.71
565.72	44046.54
565.88	44140.16
566.05	44264.21
566.21	44023.14
566.38	43976.33
566.54	44245.49
566.70	44247.83
566.87	44130.80
567.03	43632.27
567.19	44041.86
567.36	44177.61
567.52	44055.90
567.68	44353.15
567.85	44119.10
568.01	44435.07
568.17	44261.87
568.34	44650.40
568.50	44177.61
568.66	44065.27
568.83	44755.72
568.99	44135.48
569.15	44933.60
569.32	44282.94
569.48	44238.47
569.64	44568.48
569.81	44629.34
569.97	44409.32
570.13	44186.97
570.30	44243.15
570.46	44823.60
570.62	44456.14
570.78	44402.30
570.95	44729.98
571.11	44575.50
571.27	44575.50
571.43	44292.30
571.60	44540.39
571.76	44058.24
571.92	44491.24
572.09	44399.96
572.25	44385.92
572.41	44882.11
572.57	44437.41
572.74	44790.83
572.90	44919.56
573.06	44856.37
573.22	44704.23
573.38	44912.54
573.55	44676.15
573.71	45170.00
573.87	44957.01
574.03	44629.34
574.20	45270.64
574.36	44804.88
574.52	45031.91
574.68	44737.00
574.84	44774.45
575.01	45041.27
575.17	44905.52
575.33	45184.04
575.49	44907.86
575.65	45214.47
575.82	44851.69
575.98	44474.86
576.14	44839.98
576.30	45202.77
576.46	45198.09
576.62	44975.73
576.79	44619.97
576.95	44601.25
577.11	44362.51
577.27	44898.50
577.43	44835.30
577.59	44842.32
577.75	44713.59
577.92	44666.78
578.08	45123.19
578.24	44945.31
578.40	45263.62
578.56	44835.30
578.72	44886.79
578.88	45177.02
579.04	44751.04
579.21	45043.61
579.37	45235.53
579.53	45289.37
579.69	44992.12
579.85	44552.10
580.01	45137.23
580.17	45127.87
580.33	44868.07
580.49	45057.65
580.65	45308.09
580.82	44844.66
580.98	45249.58
581.14	45031.91
581.30	45038.93
581.46	45020.20
581.62	44917.22
581.78	44645.72
581.94	45296.39
582.10	44776.79
582.26	45539.80
582.42	44989.78
582.58	45251.92
582.74	45408.73
582.90	45668.53
583.06	45205.11
583.22	44790.83
583.38	44882.11
583.54	44931.26
583.70	45043.61
583.86	45233.19
584.02	45223.83
584.18	45553.85
584.34	45296.39
584.50	45478.95
584.66	45525.76
584.82	45179.36
584.98	45614.70
585.14	45242.56
585.30	44863.39
585.46	45237.87
585.62	44945.31
585.78	45139.57
585.94	45125.53
586.10	45282.34
586.26	44711.25
586.42	44968.71
586.58	45249.58
586.74	45188.72
586.90	45336.18
587.06	45223.83
587.22	45294.05
587.38	44889.13
587.54	45478.95
587.70	45556.19
587.86	45771.52
588.02	45375.97
588.18	45174.68
588.34	45052.97
588.49	45165.32
588.65	45752.79
588.81	45425.12
588.97	45544.48
589.13	45633.42
589.29	45177.02
589.45	45483.63
589.61	45502.35
589.77	45546.82
589.93	45455.54
590.08	45696.62
