SpectraSuite Data File
++++++++++++++++++++++++++++++++++++
Date: Fri Oct 25 10:43:17 EDT 2013
User: price-jones
Dark Spectrum Present: No
Reference Spectrum Present: No
Number of Sampled Component Spectra: 1
Spectrometers: USB2+H05261
Integration Time (usec): 100000 (USB2+H05261)
Spectra Averaged: 1 (USB2+H05261)
Boxcar Smoothing: 0 (USB2+H05261)
Correct for Electrical Dark: No (USB2+H05261)
Strobe/Lamp Enabled: No (USB2+H05261)
Correct for Detector Non-linearity: No (USB2+H05261)
Correct for Stray Light: No (USB2+H05261)
Number of Pixels in Processed Spectrum: 2048
>>>>>Begin Processed Spectral Data<<<<<
365.73	156.82
365.92	156.82
366.12	156.82
366.32	0.00
366.52	0.00
366.72	16.38
366.91	0.00
367.11	4.68
367.31	0.00
367.51	0.00
367.70	60.85
367.90	30.43
368.10	0.00
368.30	58.51
368.49	0.00
368.69	147.45
368.89	0.00
369.09	51.49
369.28	79.58
369.48	81.92
369.68	0.00
369.87	23.41
370.07	117.03
370.27	147.45
370.47	182.56
370.66	388.53
370.86	465.77
371.06	479.81
371.25	505.56
371.45	409.59
371.65	475.13
371.84	465.77
372.04	486.83
372.24	451.72
372.44	538.32
372.63	468.11
372.83	592.16
373.03	468.11
373.22	524.28
373.42	498.53
373.62	498.53
373.81	449.38
374.01	573.43
374.21	559.39
374.40	524.28
374.60	557.05
374.79	622.58
374.99	578.11
375.19	596.84
375.38	620.24
375.58	564.07
375.78	627.26
375.97	552.37
376.17	589.82
376.37	575.77
376.56	585.13
376.76	624.92
376.95	650.67
377.15	627.26
377.35	692.80
377.54	636.63
377.74	641.31
377.93	589.82
378.13	645.99
378.33	683.44
378.52	620.24
378.72	699.82
378.91	795.78
379.11	573.43
379.31	624.92
379.50	613.22
379.70	669.39
379.89	676.41
380.09	608.54
380.28	641.31
380.48	730.25
380.68	634.29
380.87	732.59
381.07	730.25
381.26	734.93
381.46	748.97
381.65	587.47
381.85	702.16
382.04	685.78
382.24	725.57
382.43	699.82
382.63	690.46
382.83	718.54
383.02	685.78
383.22	744.29
383.41	655.35
383.61	671.73
383.80	767.70
384.00	786.42
384.19	809.83
384.39	772.38
384.58	795.78
384.78	805.14
384.97	889.40
385.17	760.67
385.36	798.12
385.56	746.63
385.75	748.97
385.95	732.59
386.14	837.91
386.34	828.55
386.53	903.45
386.72	870.68
386.92	828.55
387.11	849.61
387.31	880.04
387.50	802.80
387.70	851.96
387.89	924.51
388.09	917.49
388.28	844.93
388.48	873.02
388.67	961.96
388.86	976.00
389.06	896.43
389.25	964.30
389.45	873.02
389.64	1034.52
389.84	1015.79
390.03	947.92
390.22	1001.75
390.42	980.68
390.61	1022.81
390.81	1022.81
391.00	1067.28
391.19	1043.88
391.39	1114.10
391.58	1121.12
391.78	1029.84
391.97	945.58
392.16	964.30
392.36	1006.43
392.55	1067.28
392.75	994.73
392.94	985.37
393.13	1015.79
393.33	966.64
393.52	959.62
393.71	1029.84
393.91	1107.07
394.10	1179.63
394.29	1200.69
394.49	1203.04
394.68	1139.84
394.88	1097.71
395.07	1261.55
395.26	1252.19
395.46	1165.59
395.65	1188.99
395.84	1167.93
396.04	1315.38
396.23	1057.92
396.42	1196.01
396.62	1137.50
396.81	1226.44
397.00	1294.32
397.19	1259.21
397.39	1242.82
397.58	1362.19
397.77	1427.73
397.97	1380.92
398.16	1366.87
398.35	1446.45
398.55	1561.14
398.74	1427.73
398.93	1362.19
399.12	1516.67
399.32	1453.47
399.51	1479.22
399.70	1490.92
399.90	1558.80
400.09	1575.18
400.28	1701.57
400.47	1558.80
400.67	1610.29
400.86	1636.03
401.05	1739.02
401.24	1703.91
401.44	1696.89
401.63	1678.16
401.82	1764.76
402.01	1596.25
402.21	1715.61
402.40	1661.78
402.59	1584.54
402.78	1701.57
402.97	1703.91
403.17	1746.04
403.36	1832.64
403.55	1769.44
403.74	1900.52
403.93	1839.66
404.13	1823.28
404.32	1881.79
404.51	1778.81
404.70	1874.77
404.89	1888.81
405.09	1888.81
405.28	1912.22
405.47	1959.03
405.66	1970.73
405.85	1926.26
406.05	2003.50
406.24	1975.41
406.43	2017.54
406.62	2078.40
406.81	2062.01
407.00	2062.01
407.20	1982.43
407.39	2167.34
407.58	2101.80
407.77	2207.13
407.96	2190.74
408.15	2197.76
408.34	2249.25
408.54	2293.72
408.73	2291.38
408.92	2284.36
409.11	2253.94
409.30	2314.79
409.49	2305.43
409.68	2333.51
409.87	2228.19
410.07	2328.83
410.26	2349.90
410.45	2382.67
410.64	2289.04
410.83	2363.94
411.02	2480.97
411.21	2516.08
411.40	2668.21
411.59	2747.79
411.78	2520.76
411.98	2593.31
412.17	2712.68
412.36	2633.10
412.55	2616.72
412.74	2682.25
412.93	2846.09
413.12	2686.94
413.31	2913.97
413.50	2836.73
413.69	2883.54
413.88	2984.18
414.07	2808.64
414.26	2843.75
414.45	2946.73
414.64	2944.39
414.83	2942.05
415.02	3096.53
415.22	3190.15
415.41	3246.32
415.60	3054.40
415.79	3260.37
415.98	3260.37
416.17	3396.12
416.36	3164.40
416.55	3251.00
416.74	3133.98
416.93	3260.37
417.12	3185.47
417.31	3316.54
417.50	3321.22
417.69	3536.55
417.88	3585.70
418.07	3424.20
418.26	3398.46
418.45	3478.04
418.64	3625.49
418.83	3571.66
419.02	3604.42
419.21	3618.47
419.39	3618.47
419.58	3524.85
419.77	3545.91
419.96	3503.78
420.15	3637.19
420.34	3644.21
420.53	3775.28
420.72	3896.99
420.91	3770.60
421.10	3712.09
421.29	3740.18
421.48	3758.90
421.67	3901.67
421.86	3803.37
422.05	3786.99
422.24	3716.77
422.43	3765.92
422.61	3801.03
422.80	3988.27
422.99	3920.40
423.18	4016.36
423.37	4037.42
423.56	4065.51
423.75	3864.22
423.94	3964.87
424.13	3660.60
424.32	3742.52
424.50	3964.87
424.69	4095.94
424.88	4032.74
425.07	3904.01
425.26	3840.82
425.45	3964.87
425.64	3829.12
425.83	4021.04
426.01	3971.89
426.20	3899.33
426.39	4070.19
426.58	3922.74
426.77	4009.34
426.96	3981.25
427.15	3948.48
427.33	4161.47
427.52	4088.92
427.71	4119.34
427.90	3925.08
428.09	4105.30
428.28	4189.56
428.46	4191.90
428.65	4086.58
428.84	4386.16
429.03	4358.08
429.22	4196.58
429.40	4145.09
429.59	4161.47
429.78	3969.55
429.97	4009.34
430.16	4046.79
430.34	4037.42
430.53	4091.26
430.72	4107.64
430.91	4154.45
431.10	4311.27
431.28	4531.28
431.47	4753.63
431.66	4617.88
431.85	4393.19
432.03	4657.67
432.22	4603.83
432.41	4690.43
432.60	4662.35
432.79	4713.84
432.97	4784.06
433.16	4788.74
433.35	4519.57
433.54	4645.96
433.72	4620.22
433.91	4606.17
434.10	4652.98
434.28	4798.10
434.47	4870.65
434.66	4807.46
434.85	4961.94
435.03	4971.30
435.22	4833.21
435.41	5142.16
435.59	5123.43
435.78	5053.22
435.97	5081.30
436.16	5081.30
436.34	5067.26
436.53	5036.83
436.72	5156.20
436.90	5102.37
437.09	5114.07
437.28	5109.39
437.46	5200.67
437.65	5228.76
437.84	5095.35
438.02	5085.98
438.21	5118.75
438.40	5093.01
438.58	5327.06
438.77	5439.40
438.96	5350.46
439.14	5645.37
439.33	5544.73
439.52	5584.52
439.70	5502.60
439.89	5643.03
440.08	5631.33
440.26	5582.18
440.45	5619.63
440.63	5722.61
440.82	5951.98
441.01	5909.85
441.19	5984.75
441.38	6127.52
441.57	6078.37
441.75	6169.65
441.94	6211.78
442.12	6235.19
442.31	6274.98
442.50	6368.60
442.68	6408.39
442.87	6270.30
443.05	6134.54
443.24	6396.68
443.43	6239.87
443.61	6487.96
443.80	6534.78
443.98	6361.58
444.17	6136.88
444.35	6497.33
444.54	6506.69
444.73	6289.02
444.91	6574.56
445.10	6333.49
445.28	6452.86
445.47	6516.05
445.65	6230.51
445.84	6504.35
446.02	6499.67
446.21	6485.62
446.39	6483.28
446.58	6715.00
446.77	6691.59
446.95	6480.94
447.14	6782.87
447.32	6679.89
447.51	6740.74
447.69	6640.10
447.88	6780.53
448.06	6696.27
448.25	6530.09
448.43	6689.25
448.62	6846.07
448.80	6651.80
448.99	6935.01
449.17	6820.32
449.36	6946.71
449.54	7063.74
449.73	7115.23
449.91	7005.22
450.10	7269.70
450.28	7283.75
450.46	7180.76
450.65	7199.49
450.83	7176.08
451.02	7227.57
451.20	7169.06
451.39	7152.68
451.57	7250.98
451.76	7178.42
451.94	7466.31
452.13	7098.84
452.31	7330.56
452.49	7126.93
452.68	7225.23
452.86	7314.17
453.05	7239.28
453.23	7243.96
453.42	7110.55
453.60	7243.96
453.78	7606.74
453.97	7262.68
454.15	7283.75
454.34	7274.38
454.52	7555.25
454.70	7639.51
454.89	7510.78
455.07	7485.03
455.26	7604.40
455.44	7751.85
455.62	7524.82
455.81	7819.73
455.99	7864.20
456.17	7815.05
456.36	7674.62
456.54	7873.56
456.73	8032.72
456.91	8124.00
457.09	8021.02
457.28	8238.69
457.46	8135.70
457.64	7906.33
457.83	7990.59
458.01	8046.76
458.19	8292.52
458.38	8168.47
458.56	8341.67
458.74	8271.45
458.93	8133.36
459.11	8287.84
459.29	8231.66
459.48	8348.69
459.66	8367.42
459.84	8465.72
460.03	8430.61
460.21	8599.13
460.39	8599.13
460.57	8325.29
460.76	8486.78
460.94	8470.40
461.12	8575.72
461.31	8557.00
461.49	8372.10
461.67	8514.87
461.85	8915.10
462.04	8669.34
462.22	9011.06
462.40	8875.31
462.59	8891.70
462.77	8882.33
462.95	8833.18
463.13	8898.72
463.32	8982.98
463.50	8922.12
463.68	8961.91
463.86	8891.70
464.05	8861.27
464.23	8926.80
464.41	9118.73
464.59	8947.87
464.78	9055.53
464.96	9060.21
465.14	8957.23
465.32	9270.86
465.50	9221.71
465.69	9387.89
465.87	9305.97
466.05	9055.53
466.23	9547.05
466.41	9259.16
466.60	9432.36
466.78	8945.53
466.96	9254.48
467.14	9371.50
467.32	9383.21
467.51	9406.61
467.69	9043.83
467.87	9444.06
468.05	9542.36
468.23	9514.28
468.41	9352.78
468.60	9394.91
468.78	9708.54
468.96	9528.32
469.14	9542.36
469.32	9748.33
469.50	9366.82
469.69	9687.48
469.87	9708.54
470.05	9701.52
470.23	9860.68
470.41	9846.63
470.59	9900.47
470.77	9750.67
470.95	9886.42
471.14	10115.80
471.32	9872.38
471.50	10160.27
471.68	10242.18
471.86	10300.70
472.04	10572.20
472.22	10504.32
472.40	10209.42
472.58	10356.87
472.77	10600.29
472.95	10324.10
473.13	10916.26
473.31	10499.64
473.49	10487.94
473.67	10462.19
473.85	10574.54
474.03	10855.40
474.21	10815.62
474.39	11098.82
474.57	11115.20
474.75	11082.44
474.93	10930.30
475.12	11112.86
475.30	11192.44
475.48	11417.13
475.66	11253.30
475.84	11154.99
476.02	11297.77
476.20	11328.19
476.38	11695.66
476.56	11910.99
476.74	11744.81
476.92	11700.34
477.10	11672.25
477.28	12049.08
477.46	11971.84
477.64	12093.55
477.82	12486.76
478.00	12531.23
478.18	12437.61
478.36	12664.64
478.54	12606.13
478.72	12889.33
478.90	12985.29
479.08	13015.72
479.26	13170.19
479.44	13294.24
479.62	13254.45
479.80	13099.98
479.98	13352.76
480.16	13565.74
480.34	13582.13
480.52	13668.73
480.70	13638.30
480.88	13640.64
481.06	13680.43
481.24	14054.92
481.41	14221.10
481.59	14574.52
481.77	13980.02
481.95	14267.91
482.13	14300.67
482.31	14279.61
482.49	14848.36
482.67	14824.95
482.85	15051.99
483.03	15250.93
483.21	15197.10
483.39	15358.60
483.57	15438.17
483.74	15426.47
483.92	15644.14
484.10	15674.57
484.28	15793.94
484.46	16133.31
484.64	16196.51
484.82	16152.04
485.00	16145.02
485.18	16329.92
485.35	16159.06
485.53	16201.19
485.71	16077.14
485.89	16453.97
486.07	16404.81
486.25	16568.65
486.43	16783.98
486.61	16908.03
486.78	17355.07
486.96	17427.63
487.14	17635.94
487.32	17736.58
487.50	17694.45
487.68	17785.73
487.85	18307.67
488.03	18380.23
488.21	18202.35
488.39	18649.39
488.57	18265.54
488.75	18733.65
488.92	18705.56
489.10	19442.83
489.28	19161.97
489.46	19728.38
489.64	19328.14
489.81	19786.89
489.99	19967.11
490.17	20027.96
490.35	20105.20
490.53	20203.50
490.70	20247.97
490.88	20400.11
491.06	20833.11
491.24	20608.42
491.41	20615.44
491.59	20695.02
491.77	20533.52
491.95	21064.82
492.13	21015.67
492.30	21516.54
492.48	21876.99
492.66	21628.89
492.84	21802.09
493.01	21970.61
493.19	22029.12
493.37	21933.16
493.54	22260.84
493.72	22501.91
493.90	22609.58
494.08	22677.45
494.25	23283.65
494.43	23290.67
494.61	23325.78
494.79	23403.02
494.96	22937.25
495.14	23281.31
495.32	23412.38
495.49	23407.70
495.67	23786.86
495.85	23941.34
496.02	24180.07
496.20	24336.89
496.38	24535.84
496.55	24458.60
496.73	24849.47
496.91	24680.95
497.09	24748.82
497.26	25132.67
497.44	24767.55
497.62	25223.95
497.79	25549.29
497.97	25071.82
498.14	25448.64
498.32	25406.52
498.50	25661.63
498.67	25900.37
498.85	26059.52
499.03	26029.10
499.20	26052.50
499.38	26094.63
499.56	26473.80
499.73	26244.43
499.91	26441.03
500.08	26874.03
500.26	26199.96
500.44	26366.13
500.61	26691.47
500.79	26396.56
500.97	26785.09
501.14	26759.34
501.32	27166.60
501.49	26939.57
501.67	27023.83
501.84	27323.41
502.02	27304.69
502.20	27449.80
502.37	27751.73
502.55	27613.64
502.72	27733.01
502.90	27817.27
503.07	27887.48
503.25	27878.12
503.43	27655.77
503.60	27999.83
503.78	28261.97
503.95	28156.64
504.13	28126.22
504.30	28364.95
504.48	28432.83
504.65	28744.12
504.83	28500.70
505.01	29376.06
505.18	28622.41
505.36	29429.90
505.53	29378.40
505.71	29376.06
505.88	30010.35
506.06	29418.19
506.23	29244.99
506.41	29256.70
506.58	29397.13
506.76	29860.55
506.93	29965.88
507.11	29851.19
507.28	29734.17
507.46	29937.79
507.63	29757.57
507.81	29811.40
507.98	29785.66
508.16	29926.09
508.33	30855.28
508.50	30639.95
508.68	30665.70
508.85	31166.57
509.03	30529.95
509.20	30946.56
509.38	30888.05
509.55	31213.38
509.73	31040.18
509.90	30960.61
510.08	31026.14
510.25	31299.98
510.42	31842.99
510.60	31929.59
510.77	31440.42
510.95	32072.36
511.12	31807.88
511.30	31695.53
511.47	32114.49
511.64	32023.21
511.82	32400.04
511.99	32215.13
512.17	32095.77
512.34	32491.32
512.51	32170.66
512.69	32252.58
512.86	32786.22
513.04	33125.60
513.21	32985.17
513.38	32446.85
513.56	32788.56
513.73	32320.46
513.90	32732.39
514.08	32989.85
514.25	32818.99
514.43	33474.34
514.60	33284.76
514.77	33123.26
514.95	33322.21
515.12	33528.17
515.29	33626.48
515.47	33542.22
515.64	34239.70
515.81	33567.96
515.99	33790.31
516.16	33766.91
516.33	33703.71
516.51	33467.32
516.68	33280.08
516.85	33216.88
517.03	33631.16
517.20	33542.22
517.37	34108.63
517.54	34558.01
517.72	33867.55
517.89	34085.22
518.06	33837.12
518.24	34113.31
518.41	34089.90
518.58	34394.17
518.75	34323.96
518.93	34677.38
519.10	34455.03
519.27	34796.74
519.45	34962.92
519.62	35098.67
519.79	35012.07
519.96	35145.48
520.14	35325.71
520.31	35012.07
520.48	35281.24
520.65	35426.35
520.83	35791.47
521.00	36037.23
521.17	35213.36
521.34	35686.15
521.52	36065.31
521.69	35861.69
521.86	36048.93
522.03	35934.24
522.20	36039.57
522.38	35772.75
522.55	36467.89
522.72	35742.32
522.89	36198.73
523.07	36605.98
523.24	36432.78
523.41	36966.42
523.58	36533.42
523.75	37769.22
523.92	36575.55
524.10	37331.54
524.27	37043.66
524.44	36833.01
524.61	37408.78
524.78	37046.00
524.96	37148.98
525.13	37406.44
525.30	37577.30
525.47	37715.39
525.64	37556.24
525.81	37322.18
525.98	37275.37
526.16	37198.13
526.33	37046.00
526.50	37383.04
526.67	37099.83
526.84	36966.42
527.01	37153.66
527.18	37780.93
527.36	37912.00
527.53	37897.95
527.70	38274.78
527.87	38171.80
528.04	37809.01
528.21	37809.01
528.38	38256.06
528.55	38616.50
528.72	38466.70
528.89	38796.72
529.07	38679.69
529.24	38492.45
529.41	38864.60
529.58	38478.41
529.75	38937.15
529.92	38876.30
530.09	38916.09
530.26	39285.89
530.43	38885.66
530.60	39295.25
530.77	38628.20
530.94	39222.70
531.11	39061.20
531.28	39309.30
531.46	39246.10
531.63	39456.75
531.80	39257.81
531.97	39285.89
532.14	39047.16
532.31	39124.40
532.48	39618.25
532.65	39557.39
532.82	39515.26
532.99	39613.57
533.16	39089.29
533.33	39866.34
533.50	39761.02
533.67	40044.23
533.84	39449.73
534.01	39646.33
534.18	39627.61
534.35	39927.20
534.52	39700.17
534.69	40194.02
534.86	40311.05
535.03	40079.33
535.20	40348.50
535.37	40975.76
535.54	40884.48
535.71	40772.13
535.88	40914.90
536.05	40772.13
536.22	41275.35
536.38	40432.75
536.55	40535.74
536.72	40233.81
536.89	40596.59
537.06	40629.36
537.23	40720.64
537.40	40832.99
537.57	40980.44
537.74	41141.94
537.91	40926.61
538.08	40847.03
538.25	40804.90
538.42	40973.42
538.59	41139.60
538.75	40966.40
538.92	41134.92
539.09	41404.08
539.26	41020.23
539.43	41155.98
539.60	40800.22
539.77	41317.48
539.94	40952.35
540.11	41102.15
540.28	41270.67
540.44	41397.06
540.61	41296.41
540.78	41378.33
540.95	41371.31
541.12	41336.20
541.29	41556.21
541.46	41787.92
541.62	41687.28
541.79	41766.86
541.96	41029.59
542.13	41663.88
542.30	41600.68
542.47	41869.84
542.63	41745.80
542.80	41949.42
542.97	42333.27
543.14	42281.78
543.31	42274.76
543.48	42227.95
543.64	42869.25
543.81	42719.46
543.98	42656.26
544.15	42340.29
544.32	42967.55
544.48	42824.78
544.65	42941.81
544.82	42642.22
544.99	42436.25
545.16	42630.52
545.32	42560.30
545.49	42792.01
545.66	43173.52
545.83	42756.91
546.00	42787.33
546.16	42770.95
546.33	42555.62
546.50	43023.73
546.67	43384.17
546.83	42827.12
547.00	43044.79
547.17	42967.55
547.34	42873.93
547.50	42644.56
547.67	43344.38
547.84	43356.08
548.00	43555.03
548.17	43440.34
548.34	43665.03
548.51	43990.37
548.67	43571.41
548.84	43831.21
549.01	43456.73
549.18	43227.35
549.34	43758.66
549.51	43608.86
549.68	43370.13
549.84	43414.60
550.01	43973.98
550.18	43358.42
550.34	43866.32
550.51	43716.53
550.68	43590.14
550.84	43339.70
551.01	43856.96
551.18	43936.54
551.34	43590.14
551.51	43917.81
551.68	43697.80
551.84	44034.84
552.01	43852.28
552.18	43709.50
552.34	43665.03
552.51	43924.83
552.68	43751.63
552.84	44451.45
553.01	44231.44
553.18	44027.82
553.34	44069.95
553.51	44304.00
553.67	44179.95
553.84	44725.30
554.01	44406.98
554.17	44552.10
554.34	44493.58
554.51	44505.29
554.67	44481.88
554.84	44355.49
555.00	44329.75
555.17	44507.63
555.33	44610.61
555.50	44439.75
555.67	44919.56
555.83	44467.84
556.00	44421.03
556.16	45106.80
556.33	44531.03
556.50	44837.64
556.66	44760.40
556.83	44392.94
556.99	44737.00
557.16	44657.42
557.32	44772.11
557.49	44669.12
557.65	44456.14
557.82	45067.02
557.98	44414.01
558.15	45359.58
558.32	44891.48
558.48	44463.16
558.65	44378.90
558.81	44444.43
558.98	44989.78
559.14	45151.27
559.31	44737.00
559.47	44687.85
559.64	45038.93
559.80	44924.24
559.97	44779.13
560.13	44772.11
560.30	45062.33
560.46	44926.58
560.63	44830.62
560.79	45406.39
560.96	45481.29
561.12	45219.15
561.29	44940.63
561.45	45127.87
561.61	45003.82
561.78	45022.54
561.94	45127.87
562.11	45202.77
562.27	45076.38
562.44	45390.01
562.60	45350.22
562.77	45043.61
562.93	44825.94
563.10	45195.74
563.26	45366.60
563.42	45350.22
563.59	45350.22
563.75	45024.89
563.92	45738.75
564.08	45698.96
564.24	45818.33
564.41	45340.86
564.57	44919.56
564.74	45380.65
564.90	45284.68
565.07	45420.44
565.23	45111.49
565.39	45537.46
565.56	45621.72
565.72	44999.14
565.88	45099.78
566.05	45249.58
566.21	45258.94
566.38	45420.44
566.54	45315.11
566.70	45694.28
566.87	45918.97
567.03	45778.54
567.19	46279.41
567.36	45708.32
567.52	45469.59
567.68	45502.35
567.85	45460.23
568.01	45638.11
568.17	45764.49
568.34	45811.31
568.50	45621.72
568.66	45551.51
568.83	45886.20
568.99	45659.17
569.15	45366.60
569.32	45628.74
569.48	45471.93
569.64	45701.30
569.81	45640.45
569.97	45523.42
570.13	45621.72
570.30	45050.63
570.46	45310.43
570.62	45329.16
570.78	44971.05
570.95	45518.74
571.11	45249.58
571.27	45584.27
571.43	45277.66
571.60	45607.68
571.76	45502.35
571.92	45551.51
572.09	46040.68
572.25	45631.08
572.41	45813.65
572.57	45958.76
572.74	46089.83
572.90	45696.62
573.06	45839.39
573.22	45689.60
573.38	45731.73
573.55	45448.52
573.71	45928.33
573.87	45935.35
574.03	45373.63
574.20	45696.62
574.36	45464.91
574.52	45478.95
574.68	45925.99
574.84	45612.36
575.01	45888.54
575.17	45935.35
575.33	45839.39
575.49	45441.50
575.65	46101.53
575.82	46003.23
575.98	45677.90
576.14	46080.47
576.30	45961.10
576.46	45745.77
576.62	45574.91
576.79	45724.71
576.95	45607.68
577.11	45968.12
577.27	45736.41
577.43	45727.05
577.59	45888.54
577.75	45825.35
577.92	45593.64
578.08	45116.17
578.24	45230.85
578.40	45516.40
578.56	46134.30
578.72	45890.88
578.88	45844.07
579.04	46230.26
579.21	45610.02
579.37	45460.23
579.53	45815.99
579.69	45394.69
579.85	45111.49
580.01	45883.86
580.17	45787.90
580.33	46050.04
580.49	45820.67
580.65	45874.50
580.82	45432.14
580.98	45839.39
581.14	45340.86
581.30	45911.95
581.46	45879.18
581.62	46476.02
581.78	45989.19
581.94	46363.67
582.10	46026.63
582.26	45876.84
582.42	46036.00
582.58	45848.75
582.74	45670.87
582.90	45888.54
583.06	46141.32
583.22	46248.99
583.38	46150.68
583.54	46080.47
583.70	46036.00
583.86	45535.12
584.02	45942.38
584.18	45867.48
584.34	45705.98
584.50	45680.24
584.66	46164.73
584.82	45448.52
584.98	46440.91
585.14	45825.35
585.30	45818.33
585.46	45703.64
585.62	45851.09
585.78	45727.05
585.94	45626.40
586.10	45378.31
586.26	45673.21
586.42	45708.32
586.58	46017.27
586.74	45928.33
586.90	46033.66
587.06	45696.62
587.22	45764.49
587.38	45790.24
587.54	45968.12
587.70	45963.44
587.86	45928.33
588.02	45848.75
588.18	45874.50
588.34	45390.01
588.49	45247.24
588.65	45624.06
588.81	45591.30
588.97	45338.52
589.13	45254.26
589.29	45729.39
589.45	45717.68
589.61	45495.33
589.77	46164.73
589.93	45979.82
590.08	45591.30
