SpectraSuite Data File
++++++++++++++++++++++++++++++++++++
Date: Fri Oct 25 10:47:52 EDT 2013
User: price-jones
Dark Spectrum Present: No
Reference Spectrum Present: No
Number of Sampled Component Spectra: 1
Spectrometers: USB2+H05261
Integration Time (usec): 100000 (USB2+H05261)
Spectra Averaged: 1 (USB2+H05261)
Boxcar Smoothing: 0 (USB2+H05261)
Correct for Electrical Dark: No (USB2+H05261)
Strobe/Lamp Enabled: No (USB2+H05261)
Correct for Detector Non-linearity: No (USB2+H05261)
Correct for Stray Light: No (USB2+H05261)
Number of Pixels in Processed Spectrum: 2048
>>>>>Begin Processed Spectral Data<<<<<
365.73	147.45
365.92	147.45
366.12	147.45
366.32	0.00
366.52	0.00
366.72	56.17
366.91	56.17
367.11	88.94
367.31	67.88
367.51	28.09
367.70	21.06
367.90	79.58
368.10	21.06
368.30	46.81
368.49	21.06
368.69	63.19
368.89	46.81
369.09	63.19
369.28	91.28
369.48	44.47
369.68	56.17
369.87	161.50
370.07	65.54
370.27	163.84
370.47	133.41
370.66	374.49
370.86	400.23
371.06	407.25
371.25	458.74
371.45	463.43
371.65	444.70
371.84	425.98
372.04	437.68
372.24	528.96
372.44	526.62
372.63	461.09
372.83	491.51
373.03	416.62
373.22	409.59
373.42	517.26
373.62	496.19
373.81	500.87
374.01	564.07
374.21	582.79
374.40	503.22
374.60	587.47
374.79	521.94
374.99	617.90
375.19	564.07
375.38	475.13
375.58	613.22
375.78	596.84
375.97	589.82
376.17	615.56
376.37	601.52
376.56	521.94
376.76	557.05
376.95	543.00
377.15	702.16
377.35	617.90
377.54	643.65
377.74	545.34
377.93	629.60
378.13	660.03
378.33	650.67
378.52	685.78
378.72	655.35
378.91	606.20
379.11	589.82
379.31	641.31
379.50	578.11
379.70	571.09
379.89	695.14
380.09	643.65
380.28	643.65
380.48	683.44
380.68	638.97
380.87	596.84
381.07	699.82
381.26	645.99
381.46	685.78
381.65	704.50
381.85	629.60
382.04	678.76
382.24	690.46
382.43	739.61
382.63	725.57
382.83	737.27
383.02	812.17
383.22	758.33
383.41	730.25
383.61	723.23
383.80	779.40
384.00	739.61
384.19	809.83
384.39	669.39
384.58	746.63
384.78	711.52
384.97	805.14
385.17	695.14
385.36	755.99
385.56	746.63
385.75	716.20
385.95	732.59
386.14	732.59
386.34	734.93
386.53	800.46
386.72	720.88
386.92	847.27
387.11	947.92
387.31	877.70
387.50	816.85
387.70	793.44
387.89	781.74
388.09	830.89
388.28	812.17
388.48	758.33
388.67	851.96
388.86	856.64
389.06	858.98
389.25	929.19
389.45	837.91
389.64	917.49
389.84	950.26
390.03	905.79
390.22	961.96
390.42	880.04
390.61	976.00
390.81	919.83
391.00	952.60
391.19	954.94
391.39	898.77
391.58	924.51
391.78	952.60
391.97	1071.97
392.16	936.21
392.36	919.83
392.55	924.51
392.75	936.21
392.94	943.24
393.13	968.98
393.33	940.90
393.52	983.02
393.71	992.39
393.91	994.73
394.10	987.71
394.29	1116.44
394.49	1050.90
394.68	1048.56
394.88	1062.60
395.07	1093.03
395.26	1163.25
395.46	1128.14
395.65	1083.67
395.84	1090.69
396.04	1151.54
396.23	1212.40
396.42	1123.46
396.62	1102.39
396.81	1259.21
397.00	1121.12
397.19	1207.72
397.39	1210.06
397.58	1263.89
397.77	1224.10
397.97	1163.25
398.16	1221.76
398.35	1329.42
398.55	1277.93
398.74	1327.08
398.93	1380.92
399.12	1242.82
399.32	1247.51
399.51	1359.85
399.70	1369.21
399.90	1303.68
400.09	1409.00
400.28	1378.58
400.47	1514.33
400.67	1446.45
400.86	1444.11
401.05	1465.18
401.24	1350.49
401.44	1434.75
401.63	1488.58
401.82	1502.62
402.01	1476.88
402.21	1526.03
402.40	1495.60
402.59	1540.07
402.78	1533.05
402.97	1528.37
403.17	1521.35
403.36	1607.95
403.55	1584.54
403.74	1661.78
403.93	1502.62
404.13	1624.33
404.32	1619.65
404.51	1633.69
404.70	1612.63
404.89	1643.06
405.09	1713.27
405.28	1734.34
405.47	1664.12
405.66	1849.02
405.85	1809.23
406.05	1724.97
406.24	1696.89
406.43	1778.81
406.62	1757.74
406.81	1872.43
407.00	1797.53
407.20	1776.47
407.39	1844.34
407.58	1956.69
407.77	1898.17
407.96	1937.96
408.15	1898.17
408.34	1949.67
408.54	2003.50
408.73	1937.96
408.92	1963.71
409.11	2057.33
409.30	1947.33
409.49	2085.42
409.68	1980.09
409.87	1893.49
410.07	2108.82
410.26	2160.31
410.45	2129.89
410.64	2150.95
410.83	2165.00
411.02	2057.33
411.21	2223.51
411.40	2256.28
411.59	2354.58
411.78	2373.30
411.98	2331.17
412.17	2345.22
412.36	2312.45
412.55	2420.11
412.74	2394.37
412.93	2326.49
413.12	2340.54
413.31	2499.69
413.50	2544.16
413.69	2541.82
413.88	2605.02
414.07	2457.56
414.26	2530.12
414.45	2586.29
414.64	2609.70
414.83	2684.59
415.02	2785.24
415.22	2853.11
415.41	2752.47
415.60	2843.75
415.79	2787.58
415.98	2813.32
416.17	2794.60
416.36	2874.18
416.55	2794.60
416.74	2846.09
416.93	2913.97
417.12	2991.20
417.31	2949.08
417.50	2963.12
417.69	3091.85
417.88	3038.02
418.07	3012.27
418.26	3021.63
418.45	3164.40
418.64	3141.00
418.83	3220.58
419.02	3126.96
419.21	3265.05
419.39	3148.02
419.58	3192.49
419.77	3136.32
419.96	3279.09
420.15	3211.22
420.34	3274.41
420.53	3311.86
420.72	3368.03
420.91	3403.14
421.10	3391.44
421.29	3377.39
421.48	3316.54
421.67	3440.59
421.86	3391.44
422.05	3295.47
422.24	3307.18
422.43	3527.19
422.61	3361.01
422.80	3541.23
422.99	3480.38
423.18	3550.59
423.37	3550.59
423.56	3581.02
423.75	3482.72
423.94	3389.10
424.13	3318.88
424.32	3389.10
424.50	3552.93
424.69	3487.40
424.88	3611.45
425.07	3456.97
425.26	3475.70
425.45	3630.17
425.64	3482.72
425.83	3454.63
426.01	3534.21
426.20	3456.97
426.39	3634.85
426.58	3574.00
426.77	3658.26
426.96	3620.81
427.15	3590.38
427.33	3583.36
427.52	3662.94
427.71	3510.80
427.90	3658.26
428.09	3754.22
428.28	3716.77
428.46	3889.97
428.65	3922.74
428.84	3845.50
429.03	3801.03
429.22	3786.99
429.40	3901.67
429.59	3913.38
429.78	3684.00
429.97	3714.43
430.16	3676.98
430.34	3751.88
430.53	3854.86
430.72	3836.14
430.91	3908.69
431.10	3939.12
431.28	4014.02
431.47	4018.70
431.66	4070.19
431.85	4032.74
432.03	4196.58
432.22	4147.43
432.41	4112.32
432.60	4198.92
432.79	4194.24
432.97	4306.59
433.16	4128.70
433.35	4124.02
433.54	4224.67
433.72	4196.58
433.91	4229.35
434.10	4287.86
434.28	4271.48
434.47	4339.35
434.66	4484.47
434.85	4351.06
435.03	4432.97
435.22	4297.22
435.41	4603.83
435.59	4486.81
435.78	4582.77
435.97	4432.97
436.16	4573.41
436.34	4620.22
436.53	4610.86
436.72	4805.12
436.90	4601.49
437.09	4571.07
437.28	4568.73
437.46	4606.17
437.65	4657.67
437.84	4615.54
438.02	4786.40
438.21	4844.91
438.40	4671.71
438.58	4800.44
438.77	4903.42
438.96	4873.00
439.14	4887.04
439.33	5118.75
439.52	5142.16
439.70	5043.85
439.89	5060.24
440.08	5146.84
440.26	5219.39
440.45	4990.02
440.63	5210.03
440.82	5423.02
441.01	5277.91
441.19	5334.08
441.38	5521.32
441.57	5533.03
441.75	5551.75
441.94	5554.09
442.12	5563.45
442.31	5572.82
442.50	5591.54
442.68	5563.45
442.87	5612.60
443.05	5628.99
443.24	5720.27
443.43	5738.99
443.61	5701.54
443.80	5879.43
443.98	5713.25
444.17	5460.47
444.35	5727.29
444.54	5879.43
444.73	5804.53
444.91	5624.31
445.10	5804.53
445.28	5696.86
445.47	5750.70
445.65	5755.38
445.84	5844.32
446.02	5771.76
446.21	5856.02
446.39	5813.89
446.58	5928.58
446.77	5951.98
446.95	5916.87
447.14	5926.24
447.32	5860.70
447.51	5858.36
447.69	5940.28
447.88	6120.50
448.06	6146.25
448.25	5858.36
448.43	6157.95
448.62	6040.92
448.80	5818.57
448.99	6171.99
449.17	6143.91
449.36	6024.54
449.54	6052.63
449.73	6223.48
449.91	6375.62
450.10	6333.49
450.28	6527.75
450.46	6340.51
450.65	6483.28
450.83	6473.92
451.02	6228.17
451.20	6382.64
451.39	6370.94
451.57	6272.64
451.76	6354.55
451.94	6466.90
452.13	6619.04
452.31	6480.94
452.49	6448.18
452.68	6399.02
452.86	6693.93
453.05	6593.29
453.23	6642.44
453.42	6436.47
453.60	6712.66
453.78	6656.48
453.97	6705.63
454.15	6630.74
454.34	6693.93
454.52	6825.00
454.70	6600.31
454.89	6799.26
455.07	6745.42
455.26	6825.00
455.44	6780.53
455.62	6895.22
455.81	6878.83
455.99	6817.98
456.17	6967.77
456.36	6923.30
456.54	7021.61
456.73	7045.01
456.91	7265.02
457.09	7037.99
457.28	7396.09
457.46	7087.14
457.64	7225.23
457.83	7295.45
458.01	7183.10
458.19	7372.69
458.38	7199.49
458.56	7363.33
458.74	7243.96
458.93	7286.09
459.11	7541.21
459.29	7321.20
459.48	7501.42
459.66	7552.91
459.84	7513.12
460.03	7583.34
460.21	7513.12
460.39	7712.07
460.57	7403.11
460.76	7730.79
460.94	7857.18
461.12	7669.94
461.31	7674.62
461.49	7599.72
461.67	7726.11
461.85	7866.54
462.04	7777.60
462.22	8229.32
462.40	7786.96
462.59	8229.32
462.77	7927.39
462.95	7981.23
463.13	7981.23
463.32	7992.93
463.50	8126.34
463.68	7962.50
463.86	7899.31
464.05	8086.55
464.23	8058.46
464.41	8166.13
464.59	8035.06
464.78	8271.45
464.96	8142.72
465.14	8086.55
465.32	8182.51
465.50	8002.29
465.69	8404.86
465.87	8344.01
466.05	8325.29
466.23	8437.63
466.41	8351.03
466.60	8428.27
466.78	8409.54
466.96	8182.51
467.14	8444.65
467.32	8465.72
467.51	8702.11
467.69	8290.18
467.87	8596.79
468.05	8664.66
468.23	8688.07
468.41	8482.10
468.60	8664.66
468.78	8552.32
468.96	8622.53
469.14	8681.05
469.32	8739.56
469.50	8575.72
469.69	8688.07
469.87	8992.34
470.05	8851.91
470.23	8791.05
470.41	8898.72
470.59	9191.28
470.77	8931.48
470.95	8887.01
471.14	9193.62
471.32	9004.04
471.50	9261.50
471.68	9172.56
471.86	9254.48
472.04	9254.48
472.22	9675.77
472.40	9202.99
472.58	9331.72
472.77	9448.74
472.95	9523.64
473.13	9783.44
473.31	9631.30
473.49	9568.11
473.67	9465.13
473.85	9682.80
474.03	10064.30
474.21	10024.51
474.39	9813.87
474.57	9984.73
474.75	10078.35
474.93	10108.77
475.12	10033.88
475.30	10193.03
475.48	10263.25
475.66	10157.92
475.84	10150.90
476.02	10345.17
476.20	10338.15
476.38	10544.11
476.56	10736.04
476.74	10771.15
476.92	10670.50
477.10	10733.70
477.28	10864.77
477.46	11061.37
477.64	10923.28
477.82	11236.91
478.00	11311.81
478.18	11201.80
478.36	11396.07
478.54	11681.61
478.72	11602.04
478.90	11623.10
479.08	11957.80
479.26	11861.84
479.44	12056.10
479.62	12060.78
479.80	12168.45
479.98	12042.06
480.16	12304.20
480.34	12215.26
480.52	12393.14
480.70	12446.97
480.88	12610.81
481.06	12608.47
481.24	12645.91
481.41	12725.49
481.59	13165.51
481.77	12931.46
481.95	13074.23
482.13	13064.87
482.31	13275.52
482.49	13589.15
482.67	13614.90
482.85	13596.17
483.03	13614.90
483.21	13914.48
483.39	13825.54
483.57	13928.53
483.74	14094.71
483.92	14319.40
484.10	14155.56
484.28	14328.76
484.46	14808.57
484.64	15096.46
484.82	14511.32
485.00	14799.21
485.18	15040.28
485.35	15307.10
485.53	14843.68
485.71	14820.27
485.89	15382.00
486.07	15066.03
486.25	15272.00
486.43	15456.90
486.61	15932.03
486.78	15639.46
486.96	15836.06
487.14	16030.33
487.32	16170.76
487.50	16332.26
487.68	16521.84
487.85	16629.51
488.03	16992.29
488.21	17074.21
488.39	16769.94
488.57	17083.57
488.75	17090.59
488.92	17390.18
489.10	17551.68
489.28	17664.02
489.46	17762.33
489.64	17661.68
489.81	18319.37
489.99	18125.11
490.17	18265.54
490.35	18544.06
490.53	18389.59
490.70	18473.85
490.88	18766.42
491.06	19271.97
491.24	18953.66
491.41	18782.80
491.59	19220.48
491.77	19241.54
491.95	19559.86
492.13	19564.54
492.30	19690.93
492.48	19770.51
492.66	19686.25
492.84	20170.74
493.01	20418.83
493.19	20257.34
493.37	20585.01
493.54	20500.75
493.72	20819.07
493.90	21111.63
494.08	21001.63
494.25	21315.26
494.43	21378.45
494.61	21593.78
494.79	21448.67
494.96	21556.33
495.14	21521.23
495.32	21776.34
495.49	21535.27
495.67	21607.83
495.85	21930.82
496.02	22459.78
496.20	22389.56
496.38	22286.58
496.55	22448.08
496.73	22941.93
496.91	22888.10
497.09	22939.59
497.26	23136.20
497.44	23030.87
497.62	23019.17
497.79	23447.49
497.97	23023.85
498.14	23215.77
498.32	23477.91
498.50	23154.92
498.67	23419.40
498.85	23882.83
499.03	23924.96
499.20	24175.39
499.38	24100.50
499.56	24318.17
499.73	23716.65
499.91	24425.83
500.08	24353.27
500.26	24292.42
500.44	24458.60
500.61	24432.85
500.79	24566.26
500.97	25214.59
501.14	25102.25
501.32	25083.52
501.49	25025.01
501.67	24975.86
501.84	25338.64
502.02	25043.73
502.20	25453.33
502.37	25649.93
502.55	25558.65
502.72	25748.23
502.90	26015.05
503.07	25898.03
503.25	25757.60
503.43	25874.62
503.60	26045.48
503.78	26363.79
503.95	25996.33
504.13	26366.13
504.30	26485.50
504.48	26380.18
504.65	26527.63
504.83	26707.85
505.01	26871.69
505.18	26712.53
505.36	27070.64
505.53	26939.57
505.71	27325.75
505.88	27278.94
506.06	26977.01
506.23	27566.83
506.41	26998.08
506.58	27332.78
506.76	27758.75
506.93	27644.07
507.11	27700.24
507.28	27761.09
507.46	27669.81
507.63	28135.58
507.81	28161.33
507.98	28037.28
508.16	28044.30
508.33	28322.82
508.50	28285.37
508.68	28933.70
508.85	28819.02
509.03	28779.23
509.20	28554.54
509.38	29067.11
509.55	29151.37
509.73	28961.79
509.90	29017.96
510.08	29134.99
510.25	29399.47
510.42	29163.08
510.60	29460.32
510.77	29237.97
510.95	29310.53
511.12	29476.71
511.30	29469.69
511.47	30221.00
511.64	29902.68
511.82	30312.28
511.99	30155.46
512.17	29993.97
512.34	30031.41
512.51	30410.58
512.69	30370.79
512.86	30710.17
513.04	30724.21
513.21	30314.62
513.38	30478.46
513.56	30534.63
513.73	30405.90
513.90	30724.21
514.08	30859.96
514.25	30911.46
514.43	31250.83
514.60	30646.97
514.77	31189.98
514.95	31178.28
515.12	31213.38
515.29	31400.63
515.47	31564.46
515.64	31428.71
515.81	31304.67
515.99	31421.69
516.16	32046.62
516.33	31517.65
516.51	31915.54
516.68	30955.93
516.85	31608.93
517.03	31571.49
517.20	31571.49
517.37	31948.31
517.54	32170.66
517.72	32041.93
517.89	31859.37
518.06	31594.89
518.24	32233.86
518.41	32205.77
518.58	32161.30
518.75	32587.28
518.93	32987.51
519.10	32517.06
519.27	32699.62
519.45	32404.72
519.62	32800.27
519.79	33266.03
519.96	33092.83
520.14	33130.28
520.31	33104.54
520.48	33638.18
520.65	33408.81
520.83	33324.55
521.00	33614.77
521.17	33205.18
521.34	33876.91
521.52	33806.70
521.69	34171.82
521.86	33851.17
522.03	34078.20
522.20	33844.15
522.38	34314.59
522.55	34548.65
522.72	34132.03
522.89	34160.12
523.07	34319.28
523.24	34164.80
523.41	34433.96
523.58	34522.90
523.75	34593.12
523.92	34754.61
524.10	34668.02
524.27	34873.98
524.44	35269.53
524.61	34883.34
524.78	34911.43
524.96	35161.87
525.13	35316.34
525.30	35447.41
525.47	35157.19
525.64	34930.16
525.81	35428.69
525.98	35007.39
526.16	34983.99
526.33	35477.84
526.50	35601.89
526.67	35742.32
526.84	35339.75
527.01	35428.69
527.18	35461.46
527.36	36105.10
527.53	35885.09
527.70	36301.71
527.87	36210.43
528.04	35669.76
528.21	36463.21
528.38	35779.77
528.55	36353.20
528.72	36362.56
528.89	36481.93
529.07	36624.70
529.24	35735.30
529.41	36767.48
529.58	36119.15
529.75	36704.28
529.92	37214.52
530.09	36802.58
530.26	36779.18
530.43	36732.37
530.60	36477.25
530.77	36744.07
530.94	37172.39
531.11	36935.99
531.28	36959.40
531.46	37392.40
531.63	37294.10
531.80	36877.48
531.97	37031.96
532.14	37254.31
532.31	37191.11
532.48	37509.43
532.65	37947.11
532.82	37219.20
532.99	37914.34
533.16	37043.66
533.33	37848.80
533.50	37949.45
533.67	37453.25
533.84	37579.64
534.01	37516.45
534.18	37633.47
534.35	37867.53
534.52	37860.51
534.69	38101.58
534.86	38284.14
535.03	37944.76
535.20	38206.90
535.37	38417.55
535.54	38492.45
535.71	38436.28
535.88	38642.24
536.05	37998.60
536.22	38569.69
536.38	38309.89
536.55	38532.24
536.72	38433.94
536.89	38113.28
537.06	38363.72
537.23	38941.83
537.40	38501.81
537.57	38607.14
537.74	38948.85
537.91	38773.31
538.08	38630.54
538.25	38731.18
538.42	38895.02
538.59	39367.81
538.75	38770.97
538.92	39199.29
539.09	39126.74
539.26	39255.46
539.43	39206.31
539.60	39842.94
539.77	39201.63
539.94	39285.89
540.11	39129.08
540.28	39187.59
540.44	39349.09
540.61	39159.50
540.78	39330.36
540.95	39559.73
541.12	39154.82
541.29	39407.60
541.46	39526.97
541.62	39725.91
541.79	39821.87
541.96	39262.49
542.13	40069.97
542.30	39765.70
542.47	40137.85
542.63	39737.62
542.80	39873.37
542.97	40715.96
543.14	40495.95
543.31	40563.82
543.48	40517.01
543.64	41076.40
543.81	40715.96
543.98	40439.78
544.15	40687.87
544.32	40957.03
544.48	40657.45
544.65	40683.19
544.82	40676.17
544.99	40439.78
545.16	40383.60
545.32	40968.74
545.49	41200.45
545.66	40776.81
545.83	40924.27
546.00	41216.83
546.16	41099.81
546.33	41074.06
546.50	40652.76
546.67	41179.39
546.83	40638.72
547.00	40631.70
547.17	40858.73
547.34	41411.10
547.50	41467.27
547.67	41282.37
547.84	41090.44
548.00	41368.97
548.17	41762.18
548.34	41322.16
548.51	41577.28
548.67	41467.27
548.84	41710.69
549.01	41352.58
549.18	41488.34
549.34	41345.56
549.51	41273.01
549.68	42382.42
549.84	41825.37
550.01	42569.66
550.18	41647.49
550.34	41888.57
550.51	41738.77
550.68	41975.17
550.84	41766.86
551.01	41715.37
551.18	42007.94
551.34	41993.89
551.51	42019.64
551.68	42532.22
551.84	42340.29
552.01	42319.23
552.18	42021.98
552.34	41780.90
552.51	42342.63
552.68	42005.59
552.84	42541.58
553.01	42733.50
553.18	42436.25
553.34	42391.78
553.51	42351.99
553.67	42417.53
553.84	42904.36
554.01	42539.24
554.17	42777.97
554.34	42864.57
554.51	42775.63
554.67	42906.70
554.84	43058.84
555.00	42934.79
555.17	43058.84
555.33	42810.74
555.50	42873.93
555.67	42848.19
555.83	42857.55
556.00	42419.87
556.16	43152.46
556.33	42890.32
556.50	42972.24
556.66	42960.53
556.83	43000.32
556.99	43199.27
557.16	43358.42
557.32	42773.29
557.49	43105.65
557.65	42955.85
557.82	42911.38
557.98	42543.92
558.15	43138.41
558.32	43285.87
558.48	43229.69
558.65	43068.20
558.81	43180.54
558.98	43419.28
559.14	42969.90
559.31	42993.30
559.47	43536.30
559.64	43770.36
559.80	43611.20
559.97	43470.77
560.13	43320.98
560.30	43005.00
560.46	43274.16
560.63	43323.32
560.79	43374.81
560.96	43693.12
561.12	43423.96
561.29	43791.42
561.45	43826.53
561.61	43838.23
561.78	43814.83
561.94	43407.58
562.11	43445.02
562.27	43564.39
562.44	43489.49
562.60	43744.61
562.77	44233.78
562.93	44009.09
563.10	43838.23
563.26	43414.60
563.42	43515.24
563.59	43548.01
563.75	43620.56
563.92	44168.25
564.08	43840.57
564.24	44109.74
564.41	43601.84
564.57	43981.01
564.74	43674.40
564.90	43812.49
565.07	43896.75
565.23	43803.13
565.39	43814.83
565.56	44617.63
565.72	43950.58
565.88	43835.89
566.05	44034.84
566.21	43978.67
566.38	44046.54
566.54	43592.48
566.70	44140.16
566.87	44428.05
567.03	44102.71
567.19	44514.65
567.36	44208.04
567.52	44053.56
567.68	44280.60
567.85	44170.59
568.01	44252.51
568.17	44182.29
568.34	44100.37
568.50	44271.23
568.66	44203.36
568.83	44570.82
568.99	44112.08
569.15	44315.70
569.32	44060.58
569.48	43995.05
569.64	44388.26
569.81	44130.80
569.97	44369.54
570.13	44088.67
570.30	44282.94
570.46	43810.15
570.62	44081.65
570.78	43913.13
570.95	44025.48
571.11	44683.17
571.27	44378.90
571.43	44402.30
571.60	44561.46
571.76	44559.12
571.92	44315.70
572.09	44226.76
572.25	44076.97
572.41	44439.75
572.57	44325.07
572.74	45228.51
572.90	44381.24
573.06	44526.35
573.22	44250.17
573.38	44060.58
573.55	44191.65
573.71	44516.99
573.87	44514.65
574.03	44638.70
574.20	44442.09
574.36	44713.59
574.52	44760.40
574.68	44385.92
574.84	44514.65
575.01	44341.45
575.17	44601.25
575.33	44205.70
575.49	43885.04
575.65	44687.85
575.82	44769.77
575.98	44612.95
576.14	44971.05
576.30	44275.91
576.46	44137.82
576.62	44577.84
576.79	44416.35
576.95	44229.10
577.11	44540.39
577.27	45085.74
577.43	44568.48
577.59	44697.21
577.75	44549.76
577.92	44217.40
578.08	44542.74
578.24	44437.41
578.40	44240.81
578.56	44493.58
578.72	44788.49
578.88	44669.12
579.04	44545.08
579.21	44299.32
579.37	44428.05
579.53	44535.71
579.69	44123.78
579.85	44430.39
580.01	44641.04
580.17	44589.55
580.33	45024.89
580.49	44687.85
580.65	44680.83
580.82	44734.66
580.98	44498.26
581.14	44804.88
581.30	44404.64
581.46	44589.55
581.62	44610.61
581.78	44683.17
581.94	44884.45
582.10	44655.08
582.26	44971.05
582.42	44432.73
582.58	44554.44
582.74	44456.14
582.90	44559.12
583.06	44751.04
583.22	44832.96
583.38	44959.35
583.54	44655.08
583.70	44875.09
583.86	44535.71
584.02	44704.23
584.18	44727.64
584.34	45088.08
584.50	44559.12
584.66	44671.46
584.82	44662.10
584.98	44856.37
585.14	44854.03
585.30	44641.04
585.46	44549.76
585.62	44484.22
585.78	44367.20
585.94	44472.52
586.10	44547.42
586.26	44428.05
586.42	44889.13
586.58	44802.53
586.74	44809.56
586.90	44587.21
587.06	44360.17
587.22	44802.53
587.38	44388.26
587.54	45071.70
587.70	44823.60
587.86	44587.21
588.02	44837.64
588.18	44720.62
588.34	44669.12
588.49	44432.73
588.65	44395.28
588.81	44521.67
588.97	44414.01
589.13	44428.05
589.29	44098.03
589.45	44725.30
589.61	44947.65
589.77	44896.16
589.93	45233.19
590.08	45038.93
590.24	45109.14
