SpectraSuite Data File
++++++++++++++++++++++++++++++++++++
Date: Fri Oct 25 11:34:13 EDT 2013
User: price-jones
Dark Spectrum Present: No
Reference Spectrum Present: No
Number of Sampled Component Spectra: 1
Spectrometers: USB2+H05261
Integration Time (usec): 100000 (USB2+H05261)
Spectra Averaged: 1 (USB2+H05261)
Boxcar Smoothing: 0 (USB2+H05261)
Correct for Electrical Dark: No (USB2+H05261)
Strobe/Lamp Enabled: No (USB2+H05261)
Correct for Detector Non-linearity: No (USB2+H05261)
Correct for Stray Light: No (USB2+H05261)
Number of Pixels in Processed Spectrum: 2048
>>>>>Begin Processed Spectral Data<<<<<
365.73	308.95
365.92	308.95
366.12	308.95
366.32	184.90
366.52	222.35
366.72	215.33
366.91	142.77
367.11	189.58
367.31	131.07
367.51	177.88
367.70	147.45
367.90	229.37
368.10	182.56
368.30	163.84
368.49	182.56
368.69	259.80
368.89	182.56
369.09	250.44
369.28	205.97
369.48	217.67
369.68	161.50
369.87	201.29
370.07	236.39
370.27	301.93
370.47	318.31
370.66	491.51
370.86	545.34
371.06	463.43
371.25	533.64
371.45	575.77
371.65	575.77
371.84	585.13
372.04	528.96
372.24	636.63
372.44	669.39
372.63	655.35
372.83	624.92
373.03	552.37
373.22	580.45
373.42	631.94
373.62	587.47
373.81	674.07
374.01	629.60
374.21	634.29
374.40	641.31
374.60	620.24
374.79	587.47
374.99	643.65
375.19	662.37
375.38	638.97
375.58	709.18
375.78	699.82
375.97	601.52
376.17	699.82
376.37	660.03
376.56	641.31
376.76	685.78
376.95	660.03
377.15	709.18
377.35	690.46
377.54	683.44
377.74	657.69
377.93	685.78
378.13	685.78
378.33	664.71
378.52	770.04
378.72	685.78
378.91	765.36
379.11	727.91
379.31	737.27
379.50	685.78
379.70	758.33
379.89	777.06
380.09	709.18
380.28	706.84
380.48	671.73
380.68	723.23
380.87	763.01
381.07	737.27
381.26	826.21
381.46	760.67
381.65	753.65
381.85	777.06
382.04	819.19
382.24	777.06
382.43	746.63
382.63	723.23
382.83	765.36
383.02	835.57
383.22	777.06
383.41	793.44
383.61	772.38
383.80	772.38
384.00	753.65
384.19	835.57
384.39	805.14
384.58	784.08
384.78	781.74
384.97	763.01
385.17	868.34
385.36	814.51
385.56	903.45
385.75	835.57
385.95	795.78
386.14	856.64
386.34	873.02
386.53	873.02
386.72	814.51
386.92	835.57
387.11	896.43
387.31	870.68
387.50	758.33
387.70	961.96
387.89	856.64
388.09	856.64
388.28	830.89
388.48	1008.77
388.67	1013.45
388.86	877.70
389.06	1036.86
389.25	952.60
389.45	858.98
389.64	884.72
389.84	1029.84
390.03	999.41
390.22	966.64
390.42	954.94
390.61	945.58
390.81	936.21
391.00	1006.43
391.19	1015.79
391.39	1004.09
391.58	1055.58
391.78	1039.20
391.97	957.28
392.16	1006.43
392.36	1064.94
392.55	1067.28
392.75	1029.84
392.94	992.39
393.13	1071.97
393.33	1074.31
393.52	1093.03
393.71	1062.60
393.91	1109.41
394.10	1027.50
394.29	1078.99
394.49	1057.92
394.68	1158.57
394.88	1020.47
395.07	1179.63
395.26	1081.33
395.46	1057.92
395.65	1181.97
395.84	1104.73
396.04	1282.61
396.23	1144.52
396.42	1074.31
396.62	1181.97
396.81	1219.42
397.00	1135.16
397.19	1289.64
397.39	1221.76
397.58	1193.67
397.77	1196.01
397.97	1188.99
398.16	1242.82
398.35	1249.85
398.55	1240.48
398.74	1270.91
398.93	1315.38
399.12	1331.76
399.32	1284.95
399.51	1249.85
399.70	1343.47
399.90	1299.00
400.09	1364.53
400.28	1390.28
400.47	1291.98
400.67	1451.13
400.86	1378.58
401.05	1383.26
401.24	1418.36
401.44	1376.24
401.63	1376.24
401.82	1444.11
402.01	1446.45
402.21	1418.36
402.40	1509.65
402.59	1404.32
402.78	1490.92
402.97	1544.75
403.17	1451.13
403.36	1565.82
403.55	1526.03
403.74	1526.03
403.93	1577.52
404.13	1514.33
404.32	1544.75
404.51	1633.69
404.70	1565.82
404.89	1556.46
405.09	1624.33
405.28	1614.97
405.47	1633.69
405.66	1692.21
405.85	1703.91
406.05	1561.14
406.24	1788.17
406.43	1708.59
406.62	1813.92
406.81	1842.00
407.00	1823.28
407.20	1783.49
407.39	1687.53
407.58	1839.66
407.77	1739.02
407.96	1776.47
408.15	1827.96
408.34	1893.49
408.54	1856.04
408.73	1781.15
408.92	1877.11
409.11	1980.09
409.30	1956.69
409.49	1930.94
409.68	1961.37
409.87	1858.39
410.07	1966.05
410.26	2017.54
410.45	2066.69
410.64	1966.05
410.83	2066.69
411.02	2010.52
411.21	2204.78
411.40	2183.72
411.59	2076.06
411.78	2125.21
411.98	2139.25
412.17	2214.15
412.36	2195.42
412.55	2223.51
412.74	2368.62
412.93	2333.51
413.12	2165.00
413.31	2331.17
413.50	2377.98
413.69	2387.35
413.88	2422.45
414.07	2457.56
414.26	2422.45
414.45	2410.75
414.64	2483.31
414.83	2506.71
415.02	2537.14
415.22	2679.91
415.41	2719.70
415.60	2637.78
415.79	2637.78
415.98	2527.78
416.17	2743.11
416.36	2644.81
416.55	2586.29
416.74	2836.73
416.93	2733.75
417.12	2729.06
417.31	2928.01
417.50	2874.18
417.69	2911.63
417.88	2860.13
418.07	2850.77
418.26	2796.94
418.45	2958.44
418.64	2944.39
418.83	3030.99
419.02	2977.16
419.21	3000.57
419.39	2974.82
419.58	2935.03
419.77	2949.08
419.96	2956.10
420.15	3087.17
420.34	2991.20
420.53	3157.38
420.72	3138.66
420.91	3197.17
421.10	3136.32
421.29	3204.19
421.48	3325.90
421.67	3117.59
421.86	3201.85
422.05	3276.75
422.24	3171.43
422.43	3234.62
422.61	3272.07
422.80	3335.26
422.99	3262.71
423.18	3232.28
423.37	3370.37
423.56	3330.58
423.75	3260.37
423.94	3194.83
424.13	3002.91
424.32	3265.05
424.50	3335.26
424.69	3473.36
424.88	3393.78
425.07	3349.31
425.26	3311.86
425.45	3309.52
425.64	3339.94
425.83	3300.16
426.01	3363.35
426.20	3361.01
426.39	3363.35
426.58	3279.09
426.77	3386.76
426.96	3424.20
427.15	3386.76
427.33	3478.04
427.52	3515.48
427.71	3665.28
427.90	3597.40
428.09	3691.02
428.28	3588.04
428.46	3574.00
428.65	3595.06
428.84	3585.70
429.03	3719.11
429.22	3513.14
429.40	3749.54
429.59	3751.88
429.78	3658.26
429.97	3676.98
430.16	3672.30
430.34	3803.37
430.53	3740.18
430.72	3927.42
430.91	3758.90
431.10	3660.60
431.28	3854.86
431.47	3808.05
431.66	4004.66
431.85	3880.61
432.03	3908.69
432.22	4018.70
432.41	3999.98
432.60	4088.92
432.79	3948.48
432.97	3962.53
433.16	3988.27
433.35	4091.26
433.54	3995.29
433.72	4098.28
433.91	4030.40
434.10	4149.77
434.28	4128.70
434.47	4271.48
434.66	4215.30
434.85	4102.96
435.03	4187.22
435.22	4093.60
435.41	4210.62
435.59	4135.73
435.78	4332.33
435.97	4353.40
436.16	4285.52
436.34	4301.90
436.53	4362.76
436.72	4346.37
436.90	4472.76
437.09	4447.02
437.28	4308.93
437.46	4465.74
437.65	4566.39
437.84	4559.36
438.02	4622.56
438.21	4596.81
438.40	4390.84
438.58	4695.11
438.77	4622.56
438.96	4786.40
439.14	4767.67
439.33	4660.01
439.52	4699.80
439.70	4770.01
439.89	4880.02
440.08	4847.25
440.26	4826.18
440.45	4912.78
440.63	4823.84
440.82	4985.34
441.01	4980.66
441.19	5013.43
441.38	5121.09
441.57	5078.96
441.75	5013.43
441.94	5240.46
442.12	5205.35
442.31	5296.63
442.50	5305.99
442.68	5210.03
442.87	5121.09
443.05	5324.72
443.24	5338.76
443.43	5364.51
443.61	5427.70
443.80	5561.11
443.98	5378.55
444.17	5205.35
444.35	5408.98
444.54	5516.64
444.73	5420.68
444.91	5343.44
445.10	5509.62
445.28	5530.69
445.47	5589.20
445.65	5411.32
445.84	5605.58
446.02	5488.56
446.21	5591.54
446.39	5408.98
446.58	5509.62
446.77	5640.69
446.95	5432.38
447.14	5554.09
447.32	5509.62
447.51	5504.94
447.69	5537.71
447.88	5467.49
448.06	5509.62
448.25	5722.61
448.43	5617.29
448.62	5600.90
448.80	5774.10
448.99	5867.72
449.17	5860.70
449.36	5652.39
449.54	5806.87
449.73	5902.83
449.91	5991.77
450.10	5760.06
450.28	5867.72
450.46	5991.77
450.65	5902.83
450.83	6122.84
451.02	5893.47
451.20	5989.43
451.39	5947.30
451.57	5893.47
451.76	5977.73
451.94	6038.58
452.13	6153.27
452.31	6059.65
452.49	5841.98
452.68	6162.63
452.86	6064.33
453.05	6193.06
453.23	6183.70
453.42	6106.46
453.60	6127.52
453.78	6207.10
453.97	6115.82
454.15	6314.77
454.34	6305.40
454.52	6303.06
454.70	6399.02
454.89	6389.66
455.07	6513.71
455.26	6520.73
455.44	6572.22
455.62	6551.16
455.81	6478.60
455.99	6462.22
456.17	6581.59
456.36	6745.42
456.54	6635.42
456.73	6754.79
456.91	6895.22
457.09	6740.74
457.28	6960.75
457.46	6832.02
457.64	7040.33
457.83	6848.41
458.01	6672.87
458.19	6967.77
458.38	6827.34
458.56	6857.77
458.74	7005.22
458.93	7045.01
459.11	6984.16
459.29	7021.61
459.48	7103.53
459.66	7005.22
459.84	7180.76
460.03	7372.69
460.21	7140.97
460.39	7201.83
460.57	7047.35
460.76	7339.92
460.94	7269.70
461.12	7337.58
461.31	7363.33
461.49	7407.80
461.67	7386.73
461.85	7496.74
462.04	7321.20
462.22	7824.41
462.40	7655.89
462.59	7538.87
462.77	7552.91
462.95	7634.83
463.13	7691.00
463.32	7733.13
463.50	7672.28
463.68	7847.82
463.86	7716.75
464.05	7541.21
464.23	7543.55
464.41	7688.66
464.59	7676.96
464.78	7789.30
464.96	7756.54
465.14	7583.34
465.32	7936.76
465.50	7716.75
465.69	7894.63
465.87	7815.05
466.05	7838.45
466.23	7894.63
466.41	7892.29
466.60	8018.68
466.78	7894.63
466.96	7983.57
467.14	7887.61
467.32	7962.50
467.51	8219.96
467.69	8018.68
467.87	8081.87
468.05	8084.21
468.23	8212.94
468.41	7967.18
468.60	8189.53
468.78	8196.56
468.96	8301.88
469.14	8393.16
469.32	8402.52
469.50	8231.66
469.69	8336.99
469.87	8498.49
470.05	8402.52
470.23	8409.54
470.41	8468.06
470.59	8910.42
470.77	8711.47
470.95	8545.30
471.14	8840.20
471.32	8542.96
471.50	8734.88
471.68	8704.45
471.86	8830.84
472.04	8875.31
472.22	9050.85
472.40	8896.38
472.58	8903.40
472.77	9095.32
472.95	9078.94
473.13	9453.42
473.31	9170.22
473.49	9151.49
473.67	9266.18
473.85	9298.95
474.03	9320.01
474.21	9383.21
474.39	9530.66
474.57	9518.96
474.75	9757.69
474.93	9771.74
475.12	9816.21
475.30	9797.48
475.48	9668.75
475.66	9731.95
475.84	9846.63
476.02	9872.38
476.20	10120.48
476.38	10136.86
476.56	10160.27
476.74	10237.50
476.92	10204.74
477.10	10225.80
477.28	10457.51
477.46	10581.56
477.64	10443.47
477.82	10513.69
478.00	10761.78
478.18	10813.28
478.36	10977.11
478.54	11052.01
478.72	10972.43
478.90	11265.00
479.08	11267.34
479.26	11262.66
479.44	11349.26
479.62	11269.68
479.80	11604.38
479.98	11639.48
480.16	11999.93
480.34	12011.63
480.52	11915.67
480.70	12032.69
480.88	11751.83
481.06	11857.15
481.24	12116.95
481.41	12222.28
481.59	12334.62
481.77	12528.89
481.95	12423.56
482.13	12498.46
482.31	12561.66
482.49	12985.29
482.67	12950.18
482.85	12875.29
483.03	13160.83
483.21	13305.95
483.39	13446.38
483.57	13490.85
483.74	13481.49
483.92	13640.64
484.10	13483.83
484.28	13909.80
484.46	14031.51
484.64	14040.87
484.82	14066.62
485.00	14087.68
485.18	14382.59
485.35	14675.16
485.53	14569.83
485.71	14721.97
485.89	14984.11
486.07	14890.49
486.25	14995.81
486.43	15089.43
486.61	15197.10
486.78	15386.68
486.96	15335.19
487.14	15508.39
487.32	15653.50
487.50	15695.63
487.68	16098.20
487.85	16290.13
488.03	16343.96
488.21	16334.60
488.39	16315.87
488.57	16491.41
488.75	16610.78
488.92	16709.08
489.10	16987.61
489.28	17062.51
489.46	17247.41
489.64	17188.89
489.81	17657.00
489.99	17465.08
490.17	17689.77
490.35	18092.34
490.53	18118.09
490.70	18314.69
490.88	17954.25
491.06	18167.24
491.24	18450.44
491.41	18391.93
491.59	18686.84
491.77	18771.10
491.95	18909.19
492.13	18719.60
492.30	19171.33
492.48	19311.76
492.66	18944.30
492.84	19194.73
493.01	19384.32
493.19	19496.66
493.37	19627.73
493.54	19812.63
493.72	19955.41
493.90	20332.23
494.08	20306.49
494.25	20315.85
494.43	20240.95
494.61	20753.53
494.79	20886.94
494.96	20540.54
495.14	20585.01
495.32	21106.95
495.49	21062.48
495.67	21146.74
495.85	21687.40
496.02	21645.27
496.20	21392.50
496.38	21561.02
496.55	21996.35
496.73	22342.75
496.91	22143.81
497.09	21879.33
497.26	22197.64
497.44	22401.27
497.62	22366.16
497.79	22864.69
497.97	22689.15
498.14	22799.16
498.32	23016.83
498.50	23283.65
498.67	23342.16
498.85	23281.31
499.03	23442.81
499.20	23611.32
499.38	23810.27
499.56	23740.05
499.73	23711.97
499.91	23782.18
500.08	24395.40
500.26	23569.19
500.44	24252.63
500.61	23953.04
500.79	24170.71
500.97	23955.38
501.14	24603.71
501.32	24519.45
501.49	24493.71
501.67	24498.39
501.84	24898.62
502.02	24760.53
502.20	24812.02
502.37	24978.20
502.55	24886.92
502.72	25179.48
502.90	24889.26
503.07	25303.53
503.25	25420.56
503.43	24989.90
503.60	25752.91
503.78	25404.17
503.95	25671.00
504.13	25469.71
504.30	25914.41
504.48	25848.88
504.65	26099.31
504.83	26401.24
505.01	26148.46
505.18	26398.90
505.36	26291.24
505.53	26134.42
505.71	26658.70
505.88	26904.46
506.06	26363.79
506.23	26757.00
506.41	26904.46
506.58	26967.65
506.76	27388.95
506.93	27126.81
507.11	27136.17
507.28	27529.38
507.46	26981.70
507.63	27620.66
507.81	27833.65
507.98	27728.33
508.16	27632.36
508.33	27637.05
508.50	27721.30
508.68	28147.28
508.85	28257.29
509.03	28121.54
509.20	28603.69
509.38	28287.71
509.55	28510.07
509.73	28746.46
509.90	28641.14
510.08	28390.70
510.25	28643.48
510.42	28947.75
510.60	28933.70
510.77	29219.25
510.95	29109.24
511.12	29181.80
511.30	28964.13
511.47	28877.53
511.64	29275.42
511.82	29446.28
511.99	29443.94
512.17	29551.60
512.34	29394.79
512.51	29820.77
512.69	29780.98
512.86	29851.19
513.04	30127.38
513.21	29701.40
513.38	30249.08
513.56	30476.12
513.73	29851.19
513.90	30239.72
514.08	30567.40
514.25	30532.29
514.43	30651.66
514.60	30403.56
514.77	30726.55
514.95	31000.40
515.12	31068.27
515.29	30581.44
515.47	30934.86
515.64	31250.83
515.81	31042.53
515.99	31412.33
516.16	31641.70
516.33	31339.77
516.51	31517.65
516.68	31407.65
516.85	31644.04
517.03	31859.37
517.20	31821.92
517.37	31370.20
517.54	31821.92
517.72	32151.94
517.89	31945.97
518.06	32196.41
518.24	32084.06
518.41	31931.93
518.58	32107.47
518.75	31847.67
518.93	32233.86
519.10	32313.44
519.27	32395.35
519.45	32278.33
519.62	32533.45
519.79	32959.42
519.96	32739.41
520.14	33315.19
520.31	32381.31
520.48	32940.70
520.65	32737.07
520.83	33500.09
521.00	33649.88
521.17	33441.57
521.34	33443.91
521.52	33591.37
521.69	33193.48
521.86	33926.07
522.03	33572.64
522.20	33766.91
522.38	34169.48
522.55	34038.41
522.72	33897.98
522.89	34197.57
523.07	34150.76
523.24	34059.48
523.41	34206.93
523.58	34127.35
523.75	34625.89
523.92	34242.04
524.10	34794.40
524.27	34508.86
524.44	34593.12
524.61	34951.22
524.78	34724.19
524.96	35131.44
525.13	35002.71
525.30	34892.71
525.47	34976.97
525.64	35072.93
525.81	35026.12
525.98	35260.17
526.16	35040.16
526.33	35552.74
526.50	35880.41
526.67	35274.21
526.84	35730.62
527.01	35468.48
527.18	35487.20
527.36	36044.25
527.53	35604.23
527.70	36479.59
527.87	36041.91
528.04	35931.90
528.21	35831.26
528.38	35842.96
528.55	36456.18
528.72	36180.00
528.89	36292.35
529.07	36369.58
529.24	35849.99
529.41	36348.52
529.58	36322.77
529.75	36404.69
529.92	36856.42
530.09	36713.64
530.26	36521.72
530.43	36821.31
530.60	36898.55
530.77	36631.72
530.94	36545.12
531.11	36840.03
531.28	37041.32
531.46	36783.86
531.63	37378.36
531.80	36938.33
531.97	37191.11
532.14	37081.11
532.31	36999.19
532.48	37500.06
532.65	37977.53
532.82	37261.33
532.99	37266.01
533.16	37118.56
533.33	37677.94
533.50	37443.89
533.67	37256.65
533.84	37546.87
534.01	37380.70
534.18	37607.73
534.35	37986.89
534.52	37844.12
534.69	38370.74
534.86	38419.89
535.03	38237.33
535.20	38129.67
535.37	38525.22
535.54	38419.89
535.71	38017.32
535.88	38983.96
536.05	38541.60
536.22	38515.86
536.38	38316.91
536.55	38789.70
536.72	38656.29
536.89	38698.42
537.06	38778.00
537.23	38981.62
537.40	39152.48
537.57	38728.84
537.74	38937.15
537.91	39065.88
538.08	38770.97
538.25	39056.52
538.42	38953.54
538.59	39079.92
538.75	38932.47
538.92	38962.90
539.09	39423.98
539.26	39470.79
539.43	39194.61
539.60	39381.85
539.77	39613.57
539.94	39552.71
540.11	39615.91
540.28	39564.42
540.44	39545.69
540.61	39360.79
540.78	39388.88
540.95	39435.69
541.12	39533.99
541.29	39615.91
541.46	39620.59
541.62	39669.74
541.79	39882.73
541.96	39793.79
542.13	39971.67
542.30	39913.16
542.47	40353.18
542.63	40168.27
542.80	40187.00
542.97	40720.64
543.14	40945.33
543.31	40620.00
543.48	40685.53
543.64	41092.79
543.81	40947.67
543.98	40039.54
544.15	41092.79
544.32	41006.19
544.48	40823.62
544.65	40865.75
544.82	41305.77
544.99	40727.66
545.16	41322.16
545.32	41078.74
545.49	41361.95
545.66	41930.70
545.83	41418.12
546.00	41713.03
546.16	41060.02
546.33	40769.79
546.50	41478.97
546.67	41684.94
546.83	41193.43
547.00	41607.70
547.17	41535.15
547.34	41560.89
547.50	41698.98
547.67	41977.51
547.84	42029.00
548.00	41984.53
548.17	42232.63
548.34	41914.31
548.51	42403.49
548.67	42075.81
548.84	42136.66
549.01	42181.13
549.18	42010.28
549.34	42188.16
549.51	42197.52
549.68	42319.23
549.84	42370.72
550.01	42120.28
550.18	42131.98
550.34	42141.35
550.51	42319.23
550.68	42817.76
550.84	42534.56
551.01	42946.49
551.18	42494.77
551.34	42036.02
551.51	42883.30
551.68	42504.13
551.84	42518.17
552.01	42478.38
552.18	42319.23
552.34	42382.42
552.51	42747.54
552.68	42705.41
552.84	42728.82
553.01	42763.93
553.18	42726.48
553.34	42972.24
553.51	43105.65
553.67	42969.90
553.84	42993.30
554.01	43353.74
554.17	43009.68
554.34	43466.09
554.51	43510.56
554.67	43166.50
554.84	43505.88
555.00	43150.12
555.17	43042.45
555.33	43573.75
555.50	42962.87
555.67	43550.35
555.83	43122.03
556.00	43599.50
556.16	43882.70
556.33	43536.30
556.50	43728.23
556.66	43421.62
556.83	43285.87
556.99	43948.24
557.16	44032.50
557.32	43423.96
557.49	43564.39
557.65	43695.46
557.82	43761.00
557.98	43995.05
558.15	44041.86
558.32	44191.65
558.48	43416.94
558.65	43894.41
558.81	44165.91
558.98	43571.41
559.14	44105.06
559.31	43810.15
559.47	44208.04
559.64	44215.06
559.80	43800.79
559.97	44172.93
560.13	43636.95
560.30	44254.85
560.46	44421.03
560.63	44528.69
560.79	44243.15
560.96	44362.51
561.12	44615.29
561.29	44659.76
561.45	44336.77
561.61	44547.42
561.78	44072.29
561.94	44575.50
562.11	44334.43
562.27	44495.92
562.44	44671.46
562.60	44418.69
562.77	44825.94
562.93	44212.72
563.10	45057.65
563.26	44678.49
563.42	45277.66
563.59	44367.20
563.75	44591.89
563.92	44863.39
564.08	44755.72
564.24	44744.02
564.41	44687.85
564.57	44673.81
564.74	45165.32
564.90	44275.91
565.07	44554.44
565.23	44889.13
565.39	44538.05
565.56	45097.44
565.72	44357.83
565.88	45254.26
566.05	45270.64
566.21	44900.84
566.38	44987.44
566.54	44470.18
566.70	45195.74
566.87	44500.61
567.03	44912.54
567.19	44809.56
567.36	44891.48
567.52	44919.56
567.68	45155.96
567.85	44889.13
568.01	45485.97
568.17	45411.07
568.34	45628.74
568.50	45324.47
568.66	45303.41
568.83	45336.18
568.99	45006.16
569.15	45155.96
569.32	44877.43
569.48	45483.63
569.64	45886.20
569.81	45439.16
569.97	45537.46
570.13	45572.57
570.30	44992.12
570.46	45116.17
570.62	45488.31
570.78	45432.14
570.95	45415.76
571.11	45900.25
571.27	45191.06
571.43	45029.57
571.60	45598.32
571.76	45478.95
571.92	45684.92
572.09	45118.51
572.25	45083.40
572.41	45303.41
572.57	45556.19
572.74	45825.35
572.90	45734.07
573.06	45687.26
573.22	45593.64
573.38	45455.54
573.55	45595.98
573.71	46195.15
573.87	45647.47
574.03	45652.15
574.20	45883.86
574.36	45832.37
574.52	46211.54
574.68	45544.48
574.84	45949.40
575.01	45778.54
575.17	45799.60
575.33	45776.20
575.49	45617.04
575.65	45937.69
575.82	45876.84
575.98	45640.45
576.14	46007.91
576.30	45762.15
576.46	46075.79
576.62	45673.21
576.79	45818.33
576.95	45495.33
577.11	45319.79
577.27	46036.00
577.43	45851.09
577.59	45544.48
577.75	46031.32
577.92	45453.20
578.08	45860.46
578.24	45930.67
578.40	45977.48
578.56	45958.76
578.72	45539.80
578.88	45916.63
579.04	45940.04
579.21	45972.80
579.37	45741.09
579.53	45914.29
579.69	45621.72
579.85	45933.01
580.01	45441.50
580.17	45982.16
580.33	46113.23
580.49	45626.40
580.65	46197.49
580.82	45930.67
580.98	46103.87
581.14	45626.40
581.30	46274.73
581.46	45581.93
581.62	46134.30
581.78	46068.76
581.94	46190.47
582.10	45837.05
582.26	45989.19
582.42	46129.62
582.58	45977.48
582.74	46155.36
582.90	45844.07
583.06	46433.89
583.22	45724.71
583.38	46131.96
583.54	46312.18
583.70	46309.84
583.86	46197.49
584.02	46108.55
584.18	46614.11
584.34	46281.75
584.50	46471.34
584.66	46494.74
584.82	46150.68
584.98	46408.14
585.14	45841.73
585.30	45701.30
585.46	46286.43
585.62	46363.67
585.78	46129.62
585.94	45879.18
586.10	46040.68
586.26	45928.33
586.42	45818.33
586.58	46174.09
586.74	46103.87
586.90	46033.66
587.06	46319.20
587.22	46270.05
587.38	45801.94
587.54	46396.44
587.70	46167.07
587.86	46265.37
588.02	46019.61
588.18	45815.99
588.34	46028.98
588.49	46033.66
588.65	46181.11
588.81	46178.77
588.97	46066.42
589.13	46253.67
589.29	46344.95
589.45	46579.00
589.61	46541.55
589.77	46298.14
589.93	46445.59
590.08	46422.19
