SpectraSuite Data File
++++++++++++++++++++++++++++++++++++
Date: Fri Oct 25 10:47:15 EDT 2013
User: price-jones
Dark Spectrum Present: No
Reference Spectrum Present: No
Number of Sampled Component Spectra: 1
Spectrometers: USB2+H05261
Integration Time (usec): 100000 (USB2+H05261)
Spectra Averaged: 1 (USB2+H05261)
Boxcar Smoothing: 0 (USB2+H05261)
Correct for Electrical Dark: No (USB2+H05261)
Strobe/Lamp Enabled: No (USB2+H05261)
Correct for Detector Non-linearity: No (USB2+H05261)
Correct for Stray Light: No (USB2+H05261)
Number of Pixels in Processed Spectrum: 2048
>>>>>Begin Processed Spectral Data<<<<<
365.73	161.50
365.92	161.50
366.12	161.50
366.32	0.00
366.52	46.81
366.72	100.64
366.91	39.79
367.11	28.09
367.31	0.00
367.51	0.00
367.70	0.00
367.90	42.13
368.10	72.56
368.30	173.20
368.49	58.51
368.69	112.35
368.89	16.38
369.09	42.13
369.28	32.77
369.48	74.90
369.68	67.88
369.87	128.73
370.07	117.03
370.27	156.82
370.47	180.22
370.66	416.62
370.86	355.76
371.06	458.74
371.25	433.00
371.45	397.89
371.65	386.19
371.84	402.57
372.04	435.34
372.24	517.26
372.44	468.11
372.63	472.79
372.83	472.79
373.03	486.83
373.22	482.15
373.42	545.34
373.62	510.24
373.81	540.66
374.01	592.16
374.21	550.03
374.40	498.53
374.60	503.22
374.79	552.37
374.99	587.47
375.19	603.86
375.38	587.47
375.58	552.37
375.78	617.90
375.97	587.47
376.17	629.60
376.37	547.69
376.56	592.16
376.76	547.69
376.95	580.45
377.15	580.45
377.35	561.73
377.54	645.99
377.74	543.00
377.93	582.79
378.13	681.10
378.33	617.90
378.52	613.22
378.72	671.73
378.91	650.67
379.11	613.22
379.31	578.11
379.50	554.71
379.70	587.47
379.89	631.94
380.09	540.66
380.28	540.66
380.48	573.43
380.68	634.29
380.87	716.20
381.07	650.67
381.26	737.27
381.46	643.65
381.65	692.80
381.85	594.50
382.04	704.50
382.24	786.42
382.43	667.05
382.63	653.01
382.83	683.44
383.02	711.52
383.22	702.16
383.41	809.83
383.61	690.46
383.80	723.23
384.00	751.31
384.19	660.03
384.39	706.84
384.58	739.61
384.78	706.84
384.97	770.04
385.17	734.93
385.36	746.63
385.56	791.10
385.75	716.20
385.95	720.88
386.14	765.36
386.34	809.83
386.53	788.76
386.72	716.20
386.92	807.48
387.11	753.65
387.31	716.20
387.50	833.23
387.70	772.38
387.89	805.14
388.09	763.01
388.28	760.67
388.48	793.44
388.67	816.85
388.86	842.59
389.06	812.17
389.25	889.40
389.45	809.83
389.64	840.25
389.84	910.47
390.03	854.30
390.22	903.45
390.42	903.45
390.61	847.27
390.81	889.40
391.00	887.06
391.19	936.21
391.39	816.85
391.58	905.79
391.78	875.36
391.97	940.90
392.16	933.87
392.36	999.41
392.55	908.13
392.75	980.68
392.94	908.13
393.13	924.51
393.33	959.62
393.52	954.94
393.71	1022.81
393.91	1013.45
394.10	990.05
394.29	1128.14
394.49	1062.60
394.68	1165.59
394.88	1032.18
395.07	1132.82
395.26	1039.20
395.46	1043.88
395.65	1123.46
395.84	1153.88
396.04	1076.65
396.23	1149.20
396.42	1018.13
396.62	1111.75
396.81	973.66
397.00	1107.07
397.19	1128.14
397.39	1111.75
397.58	1277.93
397.77	1203.04
397.97	1139.84
398.16	1224.10
398.35	1158.57
398.55	1219.42
398.74	1212.40
398.93	1315.38
399.12	1282.61
399.32	1268.57
399.51	1273.25
399.70	1352.83
399.90	1343.47
400.09	1212.40
400.28	1245.16
400.47	1357.51
400.67	1390.28
400.86	1373.89
401.05	1394.96
401.24	1343.47
401.44	1462.83
401.63	1554.12
401.82	1425.39
402.01	1430.07
402.21	1446.45
402.40	1486.24
402.59	1434.75
402.78	1472.20
402.97	1458.15
403.17	1561.14
403.36	1497.94
403.55	1507.30
403.74	1554.12
403.93	1521.35
404.13	1561.14
404.32	1650.08
404.51	1650.08
404.70	1645.40
404.89	1619.65
405.09	1664.12
405.28	1600.93
405.47	1598.59
405.66	1540.07
405.85	1739.02
406.05	1668.80
406.24	1652.42
406.43	1757.74
406.62	1811.57
406.81	1811.57
407.00	1792.85
407.20	1722.63
407.39	1743.70
407.58	1820.94
407.77	1806.89
407.96	1884.13
408.15	1947.33
408.34	1837.32
408.54	1968.39
408.73	1872.43
408.92	1884.13
409.11	1942.64
409.30	1865.41
409.49	1790.51
409.68	1905.20
409.87	1968.39
410.07	2005.84
410.26	2038.61
410.45	2087.76
410.64	2059.67
410.83	2099.46
411.02	2113.50
411.21	2139.25
411.40	2235.21
411.59	2188.40
411.78	2223.51
411.98	2118.18
412.17	2230.53
412.36	2249.25
412.55	2249.25
412.74	2352.24
412.93	2197.76
413.12	2256.28
413.31	2427.14
413.50	2385.01
413.69	2436.50
413.88	2490.33
414.07	2443.52
414.26	2487.99
414.45	2483.31
414.64	2541.82
414.83	2560.55
415.02	2574.59
415.22	2480.97
415.41	2619.06
415.60	2644.81
415.79	2644.81
415.98	2738.43
416.17	2700.98
416.36	2736.09
416.55	2757.15
416.74	2771.19
416.93	2729.06
417.12	2771.19
417.31	2869.50
417.50	2820.35
417.69	2906.95
417.88	2911.63
418.07	2836.73
418.26	2942.05
418.45	3047.38
418.64	3042.70
418.83	2951.42
419.02	3005.25
419.21	3112.91
419.39	3000.57
419.58	3000.57
419.77	3159.72
419.96	3129.30
420.15	3080.14
420.34	3213.56
420.53	3101.21
420.72	3232.28
420.91	3234.62
421.10	3218.24
421.29	3337.60
421.48	3246.32
421.67	3272.07
421.86	3288.45
422.05	3419.52
422.24	3183.13
422.43	3267.39
422.61	3407.82
422.80	3325.90
422.99	3353.99
423.18	3478.04
423.37	3407.82
423.56	3527.19
423.75	3440.59
423.94	3300.16
424.13	3173.77
424.32	3309.52
424.50	3456.97
424.69	3466.33
424.88	3478.04
425.07	3389.10
425.26	3330.58
425.45	3370.37
425.64	3290.79
425.83	3330.58
426.01	3403.14
426.20	3384.41
426.39	3365.69
426.58	3496.76
426.77	3454.63
426.96	3417.18
427.15	3417.18
427.33	3506.12
427.52	3461.65
427.71	3410.16
427.90	3564.64
428.09	3543.57
428.28	3503.78
428.46	3583.36
428.65	3669.96
428.84	3634.85
429.03	3777.62
429.22	3599.74
429.40	3735.50
429.59	3634.85
429.78	3625.49
429.97	3590.38
430.16	3620.81
430.34	3627.83
430.53	3798.69
430.72	3765.92
430.91	3742.52
431.10	3716.77
431.28	3962.53
431.47	3911.04
431.66	4105.30
431.85	3871.25
432.03	4175.52
432.22	4091.26
432.41	4053.81
432.60	4105.30
432.79	4009.34
432.97	4124.02
433.16	4072.53
433.35	3990.61
433.54	4060.83
433.72	4072.53
433.91	4042.11
434.10	4105.30
434.28	4058.49
434.47	4079.55
434.66	4304.25
434.85	4257.43
435.03	4184.88
435.22	4351.06
435.41	4451.70
435.59	4521.92
435.78	4458.72
435.97	4374.46
436.16	4299.56
436.34	4514.89
436.53	4468.08
436.72	4517.23
436.90	4381.48
437.09	4503.19
437.28	4346.37
437.46	4535.96
437.65	4444.68
437.84	4437.66
438.02	4500.85
438.21	4524.26
438.40	4402.55
438.58	4720.86
438.77	4795.76
438.96	4802.78
439.14	4711.50
439.33	4631.92
439.52	4961.94
439.70	4791.08
439.89	4947.89
440.08	4875.34
440.26	5011.09
440.45	5039.17
440.63	5071.94
440.82	5167.90
441.01	4992.36
441.19	5207.69
441.38	5193.65
441.57	5369.19
441.75	5383.23
441.94	5483.88
442.12	5341.10
442.31	5610.26
442.50	5516.64
442.68	5301.31
442.87	5423.02
443.05	5504.94
443.24	5434.72
443.43	5626.65
443.61	5490.90
443.80	5692.18
443.98	5439.40
444.17	5329.40
444.35	5631.33
444.54	5689.84
444.73	5818.57
444.91	5650.05
445.10	5586.86
445.28	5664.10
445.47	5554.09
445.65	5540.05
445.84	5694.52
446.02	5628.99
446.21	5657.07
446.39	5624.31
446.58	5771.76
446.77	5657.07
446.95	5628.99
447.14	5659.42
447.32	5650.05
447.51	5582.18
447.69	5659.42
447.88	5825.59
448.06	5792.83
448.25	5830.27
448.43	5942.62
448.62	5722.61
448.80	5638.35
448.99	5818.57
449.17	5933.26
449.36	5877.09
449.54	6003.47
449.73	6001.13
449.91	5961.34
450.10	6099.44
450.28	6019.86
450.46	6043.26
450.65	5984.75
450.83	6260.93
451.02	6094.76
451.20	6193.06
451.39	6153.27
451.57	6186.04
451.76	6001.13
451.94	6200.08
452.13	6277.32
452.31	6296.04
452.49	6183.70
452.68	6312.42
452.86	6083.05
453.05	6347.53
453.23	6340.51
453.42	6380.30
453.60	6354.55
453.78	6485.62
453.97	6469.24
454.15	6384.98
454.34	6427.11
454.52	6483.28
454.70	6389.66
454.89	6607.33
455.07	6509.03
455.26	6466.90
455.44	6771.17
455.62	6574.56
455.81	6567.54
455.99	6635.42
456.17	6796.92
456.36	6832.02
456.54	6930.33
456.73	6808.62
456.91	7073.10
457.09	6899.90
457.28	7194.81
457.46	6715.00
457.64	7110.55
457.83	6977.14
458.01	6988.84
458.19	7054.37
458.38	6960.75
458.56	7014.59
458.74	7178.42
458.93	7215.87
459.11	7133.95
459.29	7206.51
459.48	7274.38
459.66	7176.08
459.84	7428.86
460.03	7531.84
460.21	7227.57
460.39	7421.84
460.57	7382.05
460.76	7456.95
460.94	7377.37
461.12	7522.48
461.31	7616.10
461.49	7499.08
461.67	7559.93
461.85	7545.89
462.04	7627.81
462.22	8105.28
462.40	7667.60
462.59	7691.00
462.77	7672.28
462.95	7599.72
463.13	7770.58
463.32	7700.36
463.50	7730.79
463.68	7735.47
463.86	7882.92
464.05	7803.35
464.23	7613.76
464.41	8056.12
464.59	7473.33
464.78	7974.21
464.96	7999.95
465.14	7882.92
465.32	7985.91
465.50	8100.59
465.69	8205.92
465.87	7864.20
466.05	7946.12
466.23	8056.12
466.41	7866.54
466.60	8297.20
466.78	8105.28
466.96	7999.95
467.14	8114.64
467.32	8030.38
467.51	8386.14
467.69	8131.02
467.87	8196.56
468.05	8388.48
468.23	8189.53
468.41	8292.52
468.60	8601.47
468.78	8566.36
468.96	8402.52
469.14	8517.21
469.32	8449.33
469.50	8423.59
469.69	8526.57
469.87	8461.04
470.05	8622.53
470.23	8512.53
470.41	8741.90
470.59	8758.28
470.77	8643.60
470.95	8500.83
471.14	8861.27
471.32	8760.63
471.50	8863.61
471.68	8830.84
471.86	9008.72
472.04	9102.34
472.22	9280.22
472.40	9008.72
472.58	9188.94
472.77	9088.30
472.95	9369.16
473.13	9444.06
473.31	9139.79
473.49	9275.54
473.67	9219.37
473.85	9266.18
474.03	9572.79
474.21	9671.09
474.39	9554.07
474.57	9722.59
474.75	9774.08
474.93	9659.39
475.12	9820.89
475.30	9799.82
475.48	9954.30
475.66	9888.76
475.84	9708.54
476.02	9881.74
476.20	10012.81
476.38	10265.59
476.56	10396.66
476.74	10593.26
476.92	10326.44
477.10	10609.65
477.28	10480.92
477.46	10466.88
477.64	10813.28
477.82	10920.94
478.00	11208.83
478.18	11089.46
478.36	10963.07
478.54	11190.10
478.72	11082.44
478.90	11229.89
479.08	11424.15
479.26	11417.13
479.44	11339.90
479.62	11686.29
479.80	11744.81
479.98	11707.36
480.16	12098.23
480.34	11922.69
480.52	12133.34
480.70	11899.28
480.88	11894.60
481.06	12002.27
481.24	12280.79
481.41	12561.66
481.59	12732.51
481.77	12758.26
481.95	12779.32
482.13	12709.11
482.31	12720.81
482.49	13064.87
482.67	13181.90
482.85	13284.88
483.03	13458.08
483.21	13427.65
483.39	13647.66
483.57	13680.43
483.74	13547.02
483.92	13598.51
484.10	13774.05
484.28	14214.07
484.46	14445.79
484.64	14382.59
484.82	14368.55
485.00	14490.26
485.18	14785.16
485.35	14829.63
485.53	14773.46
485.71	14525.36
485.89	14750.06
486.07	14913.89
486.25	14602.60
486.43	14967.73
486.61	15302.42
486.78	15447.54
486.96	15587.97
487.14	15529.45
487.32	15545.84
487.50	15822.02
487.68	16196.51
487.85	16458.65
488.03	16505.46
488.21	16442.26
488.39	16409.50
488.57	16559.29
488.75	16753.55
488.92	16924.41
489.10	17235.70
489.28	17275.49
489.46	17256.77
489.64	17490.82
489.81	17776.37
489.99	17741.26
490.17	17930.84
490.35	18026.81
490.53	17862.97
490.70	18317.03
490.88	18497.25
491.06	18558.11
491.24	18342.78
491.41	18478.53
491.59	18775.78
491.77	18654.07
491.95	18874.08
492.13	19325.80
492.30	19295.38
492.48	19105.79
492.66	19307.08
492.84	19143.24
493.01	19529.43
493.19	19747.10
493.37	19817.32
493.54	19838.38
493.72	19847.74
493.90	20247.97
494.08	20217.55
494.25	20760.55
494.43	20762.89
494.61	21102.27
494.79	20807.36
494.96	20603.74
495.14	20713.74
495.32	20985.24
495.49	21324.62
495.67	21291.85
495.85	21497.82
496.02	21502.50
496.20	22085.30
496.38	22080.61
496.55	21563.36
496.73	22398.93
496.91	22015.08
497.09	22150.83
497.26	22412.97
497.44	22101.68
497.62	22525.32
497.79	22707.88
497.97	22354.46
498.14	22558.08
498.32	23131.51
498.50	22841.29
498.67	23084.70
498.85	23405.36
499.03	23414.72
499.20	23608.98
499.38	23651.11
499.56	23721.33
499.73	23681.54
499.91	23941.34
500.08	23882.83
500.26	23611.32
500.44	23737.71
500.61	24053.69
500.79	23892.19
500.97	24311.14
501.14	24552.22
501.32	24425.83
501.49	24212.84
501.67	24458.60
501.84	24844.79
502.02	24783.93
502.20	24823.72
502.37	25099.90
502.55	24919.68
502.72	25048.41
502.90	25591.42
503.07	25209.91
503.25	25195.87
503.43	25460.35
503.60	25415.88
503.78	25640.57
503.95	25411.20
504.13	25439.28
504.30	25858.24
504.48	25907.39
504.65	26129.74
504.83	26174.21
505.01	26050.16
505.18	26122.72
505.36	26450.39
505.53	26581.46
505.71	26696.15
505.88	27030.85
506.06	26712.53
506.23	26544.02
506.41	26513.59
506.58	27192.34
506.76	26862.33
506.93	27152.55
507.11	26576.78
507.28	27105.74
507.46	27206.39
507.63	26848.29
507.81	27227.45
507.98	27466.19
508.16	27711.94
508.33	27498.95
508.50	27702.58
508.68	27857.06
508.85	28245.58
509.03	27941.32
509.20	27775.14
509.38	28182.39
509.55	28166.01
509.73	28268.99
509.90	28589.64
510.08	28470.28
510.25	28496.02
510.42	28898.59
510.60	28416.44
510.77	28837.74
510.95	28762.84
511.12	28933.70
511.30	28816.68
511.47	28936.04
511.64	29425.22
511.82	29443.94
511.99	28847.10
512.17	29422.87
512.34	29067.11
512.51	29661.61
512.69	29579.69
512.86	29631.18
513.04	29928.43
513.21	30085.25
513.38	29780.98
513.56	29898.00
513.73	29912.05
513.90	30181.21
514.08	30000.99
514.25	30008.01
514.43	30012.69
514.60	30052.48
514.77	30108.65
514.95	30707.83
515.12	30146.10
515.29	30813.15
515.47	30862.30
515.64	30960.61
515.81	30724.21
515.99	30689.10
516.16	30792.09
516.33	31103.38
516.51	31461.48
516.68	31075.29
516.85	30639.95
517.03	30869.33
517.20	31255.51
517.37	31187.64
517.54	31751.71
517.72	31428.71
517.89	31236.79
518.06	31519.99
518.24	31576.17
518.41	31831.29
518.58	31707.24
518.75	31934.27
518.93	31887.46
519.10	31903.84
519.27	32081.72
519.45	32287.69
519.62	32128.53
519.79	32371.95
519.96	32601.32
520.14	32760.48
520.31	32308.76
520.48	32797.93
520.65	32594.30
520.83	32966.45
521.00	33263.69
521.17	32844.74
521.34	33003.89
521.52	32987.51
521.69	33404.13
521.86	33015.60
522.03	32978.15
522.20	33390.08
522.38	33511.79
522.55	33720.10
522.72	33385.40
522.89	33612.43
523.07	33642.86
523.24	33804.36
523.41	33694.35
523.58	33668.61
523.75	34185.86
523.92	34132.03
524.10	34188.21
524.27	34220.97
524.44	34157.78
524.61	34160.12
524.78	34780.36
524.96	34637.59
525.13	34761.64
525.30	34906.75
525.47	34635.25
525.64	34450.35
525.81	34450.35
525.98	34553.33
526.16	34450.35
526.33	34469.07
526.50	34763.98
526.67	35058.88
526.84	34960.58
527.01	34939.52
527.18	34941.86
527.36	34803.77
527.53	35543.38
527.70	35552.74
527.87	35580.82
528.04	35283.58
528.21	35552.74
528.38	35208.68
528.55	35182.93
528.72	35672.10
528.89	35976.37
529.07	35840.62
529.24	35468.48
529.41	35917.86
529.58	35473.16
529.75	35526.99
529.92	35613.59
530.09	35737.64
530.26	36341.50
530.43	36247.88
530.60	36065.31
530.77	35864.03
530.94	36201.07
531.11	36112.13
531.28	36013.82
531.46	36151.91
531.63	36343.84
531.80	36657.47
531.97	36385.97
532.14	36486.61
532.31	36491.29
532.48	36627.04
532.65	36605.98
532.82	36589.59
532.99	36776.84
533.16	36362.56
533.33	36833.01
533.50	37270.69
533.67	36994.51
533.84	36804.92
534.01	37471.98
534.18	36935.99
534.35	37366.65
534.52	37214.52
534.69	37076.43
534.86	37148.98
535.03	37153.66
535.20	37553.90
535.37	37605.39
535.54	37682.62
535.71	37771.57
535.88	37350.27
536.05	37172.39
536.22	37656.88
536.38	37844.12
536.55	37935.40
536.72	38146.05
536.89	37261.33
537.06	37462.61
537.23	38068.81
537.40	37640.50
537.57	38014.98
537.74	37844.12
537.91	38419.89
538.08	38305.21
538.25	38113.28
538.42	38506.49
538.59	38345.00
538.75	38195.20
538.92	38305.21
539.09	38548.62
539.26	38466.70
539.43	38546.28
539.60	38546.28
539.77	38810.76
539.94	38398.83
540.11	38829.49
540.28	38911.41
540.44	38696.08
540.61	38923.11
540.78	39173.55
540.95	38857.57
541.12	38763.95
541.29	38642.24
541.46	38817.78
541.62	39222.70
541.79	39510.58
541.96	38651.61
542.13	38906.73
542.30	39435.69
542.47	39349.09
542.63	39007.37
542.80	39433.35
542.97	39690.80
543.14	40322.75
543.31	39880.39
543.48	39730.59
543.64	40084.01
543.81	39952.94
543.98	40016.14
544.15	39782.09
544.32	40357.86
544.48	40177.64
544.65	40051.25
544.82	40308.71
544.99	40041.88
545.16	40196.36
545.32	40011.46
545.49	40540.42
545.66	40552.12
545.83	40084.01
546.00	40444.46
546.16	40399.99
546.33	40212.74
546.50	39639.31
546.67	40325.09
546.83	40102.74
547.00	40402.33
547.17	40100.40
547.34	40561.48
547.50	40708.94
547.67	40648.08
547.84	40418.71
548.00	40655.11
548.17	40755.75
548.34	40540.42
548.51	40966.40
548.67	41024.91
548.84	41057.68
549.01	40914.90
549.18	40903.20
549.34	41146.62
549.51	41446.21
549.68	40957.03
549.84	40687.87
550.01	41495.36
550.18	40814.26
550.34	41361.95
550.51	40987.46
550.68	41097.47
550.84	40460.84
551.01	41511.74
551.18	41411.10
551.34	41357.27
551.51	41521.10
551.68	41710.69
551.84	41244.92
552.01	41455.57
552.18	41364.29
552.34	41340.88
552.51	41291.73
552.68	41457.91
552.84	41539.83
553.01	41865.16
553.18	41530.47
553.34	41490.68
553.51	41434.50
553.67	41373.65
553.84	41694.30
554.01	41848.78
554.17	42298.16
554.34	42197.52
554.51	42040.70
554.67	41907.29
554.84	42469.02
555.00	42026.66
555.17	41708.35
555.33	42272.42
555.50	42066.45
555.67	42515.83
555.83	42047.72
556.00	42188.16
556.16	42806.06
556.33	42330.93
556.50	42099.22
556.66	42553.28
556.83	42511.15
556.99	42593.07
557.16	42766.27
557.32	42614.13
557.49	42637.54
557.65	42036.02
557.82	42431.57
557.98	42408.17
558.15	42359.02
558.32	42497.11
558.48	42841.17
558.65	42515.83
558.81	42302.84
558.98	42763.93
559.14	42665.63
559.31	42717.12
559.47	42693.71
559.64	42742.86
559.80	42920.74
559.97	42759.25
560.13	42656.26
560.30	42775.63
560.46	42595.41
560.63	42660.94
560.79	42600.09
560.96	42948.83
561.12	42773.29
561.29	43278.85
561.45	43023.73
561.61	42752.23
561.78	42932.45
561.94	43269.48
562.11	42927.77
562.27	42775.63
562.44	42871.59
562.60	42981.60
562.77	43655.67
562.93	43346.72
563.10	43225.01
563.26	42445.62
563.42	43220.33
563.59	43194.59
563.75	42866.91
563.92	43306.93
564.08	43215.65
564.24	43040.11
564.41	43253.10
564.57	43391.19
564.74	43210.97
564.90	43016.71
565.07	42918.40
565.23	43196.93
565.39	43239.06
565.56	43496.52
565.72	43552.69
565.88	43402.89
566.05	43325.66
566.21	43370.13
566.38	43386.51
566.54	43344.38
566.70	43887.39
566.87	43973.98
567.03	43391.19
567.19	43636.95
567.36	43903.77
567.52	43533.96
567.68	43672.06
567.85	43508.22
568.01	43482.47
568.17	43056.50
568.34	43124.37
568.50	43814.83
568.66	43360.76
568.83	43548.01
568.99	42909.04
569.15	43306.93
569.32	43335.02
569.48	43559.71
569.64	43765.68
569.81	43597.16
569.97	43271.82
570.13	43363.11
570.30	43475.45
570.46	43384.17
570.62	43374.81
570.78	43540.99
570.95	43370.13
571.11	43505.88
571.27	43573.75
571.43	43704.82
571.60	43894.41
571.76	43894.41
571.92	43501.20
572.09	43721.21
572.25	43840.57
572.41	43505.88
572.57	43597.16
572.74	43920.15
572.90	44151.87
573.06	43962.28
573.22	43662.69
573.38	43875.68
573.55	43515.24
573.71	43941.22
573.87	43613.54
574.03	43526.94
574.20	43227.35
574.36	43772.70
574.52	43786.74
574.68	43945.90
574.84	44002.07
575.01	43739.93
575.17	43613.54
575.33	43309.27
575.49	43381.83
575.65	44107.40
575.82	44435.07
575.98	44058.24
576.14	44212.72
576.30	44215.06
576.46	43679.08
576.62	43714.19
576.79	43924.83
576.95	43618.22
577.11	43964.62
577.27	43782.06
577.43	44416.35
577.59	44126.12
577.75	43798.44
577.92	44151.87
578.08	43442.68
578.24	43543.33
578.40	43810.15
578.56	44072.29
578.72	43721.21
578.88	44397.62
579.04	43737.59
579.21	43777.38
579.37	43784.40
579.53	44109.74
579.69	43969.30
579.85	44053.56
580.01	44088.67
580.17	44004.41
580.33	44186.97
580.49	44376.56
580.65	43945.90
580.82	43969.30
580.98	44271.23
581.14	43524.60
581.30	44191.65
581.46	43971.64
581.62	44191.65
581.78	43992.71
581.94	43920.15
582.10	43913.13
582.26	44395.28
582.42	43590.14
582.58	43674.40
582.74	43910.79
582.90	43934.20
583.06	44339.11
583.22	44467.84
583.38	43988.03
583.54	44189.31
583.70	44194.00
583.86	44151.87
584.02	43817.17
584.18	44105.06
584.34	44203.36
584.50	43753.97
584.66	43924.83
584.82	43878.02
584.98	44140.16
585.14	44140.16
585.30	43896.75
585.46	43985.69
585.62	43793.76
585.78	44362.51
585.94	43777.38
586.10	43576.09
586.26	43512.90
586.42	44144.84
586.58	44058.24
586.74	44301.66
586.90	44177.61
587.06	43854.62
587.22	44304.00
587.38	43597.16
587.54	44161.23
587.70	44439.75
587.86	44526.35
588.02	44519.33
588.18	44435.07
588.34	43957.60
588.49	44186.97
588.65	43632.27
588.81	43819.51
588.97	43721.21
589.13	43866.32
589.29	44083.99
589.45	44552.10
589.61	43927.17
589.77	44301.66
589.93	44388.26
590.08	44126.12
590.24	44498.26
590.40	44676.15
