SpectraSuite Data File
++++++++++++++++++++++++++++++++++++
Date: Fri Oct 25 10:43:14 EDT 2013
User: price-jones
Dark Spectrum Present: No
Reference Spectrum Present: No
Number of Sampled Component Spectra: 1
Spectrometers: USB2+H05261
Integration Time (usec): 100000 (USB2+H05261)
Spectra Averaged: 1 (USB2+H05261)
Boxcar Smoothing: 0 (USB2+H05261)
Correct for Electrical Dark: No (USB2+H05261)
Strobe/Lamp Enabled: No (USB2+H05261)
Correct for Detector Non-linearity: No (USB2+H05261)
Correct for Stray Light: No (USB2+H05261)
Number of Pixels in Processed Spectrum: 2048
>>>>>Begin Processed Spectral Data<<<<<
365.73	140.43
365.92	140.43
366.12	140.43
366.32	0.00
366.52	28.09
366.72	9.36
366.91	0.00
367.11	30.43
367.31	25.75
367.51	0.00
367.70	0.00
367.90	16.38
368.10	21.06
368.30	0.00
368.49	0.00
368.69	65.54
368.89	28.09
369.09	49.15
369.28	51.49
369.48	30.43
369.68	58.51
369.87	44.47
370.07	44.47
370.27	149.79
370.47	191.92
370.66	404.91
370.86	461.09
371.06	540.66
371.25	449.38
371.45	465.77
371.65	421.30
371.84	475.13
372.04	447.04
372.24	475.13
372.44	507.90
372.63	524.28
372.83	507.90
373.03	514.92
373.22	475.13
373.42	531.30
373.62	575.77
373.81	580.45
374.01	550.03
374.21	648.33
374.40	557.05
374.60	524.28
374.79	587.47
374.99	587.47
375.19	573.43
375.38	601.52
375.58	557.05
375.78	585.13
375.97	564.07
376.17	678.76
376.37	500.87
376.56	601.52
376.76	554.71
376.95	573.43
377.15	678.76
377.35	645.99
377.54	664.71
377.74	587.47
377.93	638.97
378.13	702.16
378.33	699.82
378.52	631.94
378.72	648.33
378.91	634.29
379.11	582.79
379.31	627.26
379.50	596.84
379.70	706.84
379.89	671.73
380.09	737.27
380.28	638.97
380.48	713.86
380.68	643.65
380.87	751.31
381.07	730.25
381.26	718.54
381.46	674.07
381.65	676.41
381.85	734.93
382.04	674.07
382.24	739.61
382.43	683.44
382.63	753.65
382.83	699.82
383.02	779.40
383.22	826.21
383.41	718.54
383.61	718.54
383.80	755.99
384.00	779.40
384.19	741.95
384.39	779.40
384.58	849.61
384.78	800.46
384.97	748.97
385.17	786.42
385.36	837.91
385.56	819.19
385.75	753.65
385.95	767.70
386.14	847.27
386.34	732.59
386.53	861.32
386.72	840.25
386.92	917.49
387.11	854.30
387.31	901.11
387.50	828.55
387.70	793.44
387.89	826.21
388.09	884.72
388.28	901.11
388.48	1039.20
388.67	896.43
388.86	917.49
389.06	987.71
389.25	990.05
389.45	1020.47
389.64	1011.11
389.84	1090.69
390.03	964.30
390.22	987.71
390.42	997.07
390.61	1041.54
390.81	1034.52
391.00	1013.45
391.19	1090.69
391.39	1013.45
391.58	1055.58
391.78	1071.97
391.97	1039.20
392.16	1067.28
392.36	983.02
392.55	1025.15
392.75	971.32
392.94	1025.15
393.13	1001.75
393.33	980.68
393.52	1088.35
393.71	1107.07
393.91	1008.77
394.10	1137.50
394.29	1149.20
394.49	1167.93
394.68	1149.20
394.88	1200.69
395.07	1303.68
395.26	1273.25
395.46	1170.27
395.65	1273.25
395.84	1219.42
396.04	1170.27
396.23	1100.05
396.42	1109.41
396.62	1188.99
396.81	1207.72
397.00	1214.74
397.19	1200.69
397.39	1289.64
397.58	1380.92
397.77	1409.00
397.97	1348.15
398.16	1411.34
398.35	1462.83
398.55	1355.17
398.74	1413.68
398.93	1451.13
399.12	1406.66
399.32	1481.56
399.51	1514.33
399.70	1502.62
399.90	1598.59
400.09	1572.84
400.28	1526.03
400.47	1734.34
400.67	1640.72
400.86	1678.16
401.05	1617.31
401.24	1680.50
401.44	1746.04
401.63	1636.03
401.82	1727.32
402.01	1631.35
402.21	1778.81
402.40	1781.15
402.59	1689.87
402.78	1678.16
402.97	1785.83
403.17	1851.36
403.36	1816.26
403.55	1884.13
403.74	1806.89
403.93	1816.26
404.13	1888.81
404.32	1881.79
404.51	1895.83
404.70	1961.37
404.89	1870.09
405.09	1968.39
405.28	2001.16
405.47	1956.69
405.66	1935.62
405.85	1987.11
406.05	1937.96
406.24	2019.88
406.43	1991.80
406.62	2083.08
406.81	2230.53
407.00	2132.23
407.20	2010.52
407.39	2183.72
407.58	2125.21
407.77	2155.63
407.96	2085.42
408.15	2195.42
408.34	2244.57
408.54	2239.89
408.73	2265.64
408.92	2312.45
409.11	2303.09
409.30	2328.83
409.49	2310.11
409.68	2251.60
409.87	2275.00
410.07	2328.83
410.26	2396.71
410.45	2406.07
410.64	2368.62
410.83	2495.01
411.02	2537.14
411.21	2689.28
411.40	2567.57
411.59	2677.57
411.78	2623.74
411.98	2619.06
412.17	2722.04
412.36	2656.51
412.55	2593.31
412.74	2708.00
412.93	2708.00
413.12	2785.24
413.31	2883.54
413.50	2771.19
413.69	2691.62
413.88	2799.28
414.07	2892.90
414.26	2918.65
414.45	2909.29
414.64	2986.52
414.83	3108.23
415.02	3021.63
415.22	3021.63
415.41	2998.23
415.60	3131.64
415.79	3288.45
415.98	3314.20
416.17	3323.56
416.36	3255.69
416.55	3162.06
416.74	3199.51
416.93	3241.64
417.12	3204.19
417.31	3295.47
417.50	3260.37
417.69	3454.63
417.88	3417.18
418.07	3379.73
418.26	3361.01
418.45	3407.82
418.64	3613.79
418.83	3625.49
419.02	3543.57
419.21	3662.94
419.39	3733.15
419.58	3475.70
419.77	3438.25
419.96	3574.00
420.15	3662.94
420.34	3681.66
420.53	3588.04
420.72	3637.19
420.91	3691.02
421.10	3721.45
421.29	3932.10
421.48	3770.60
421.67	3840.82
421.86	3665.28
422.05	3810.39
422.24	3737.84
422.43	3808.05
422.61	3882.95
422.80	3950.82
422.99	3772.94
423.18	3861.88
423.37	4084.23
423.56	3925.08
423.75	3946.14
423.94	3775.28
424.13	3723.79
424.32	3695.71
424.50	3885.29
424.69	4051.47
424.88	3939.12
425.07	3985.93
425.26	3892.31
425.45	3861.88
425.64	3847.84
425.83	4028.06
426.01	4007.00
426.20	4007.00
426.39	3906.35
426.58	3819.75
426.77	3908.69
426.96	4039.76
427.15	3988.27
427.33	4051.47
427.52	3964.87
427.71	4161.47
427.90	4095.94
428.09	4086.58
428.28	4124.02
428.46	4060.83
428.65	4184.88
428.84	4348.72
429.03	4180.20
429.22	4138.07
429.40	4119.34
429.59	4255.09
429.78	3920.40
429.97	3847.84
430.16	3997.64
430.34	4051.47
430.53	4306.59
430.72	4147.43
430.91	4173.18
431.10	4334.67
431.28	4484.47
431.47	4620.22
431.66	4685.75
431.85	4587.45
432.03	4681.07
432.22	4482.13
432.41	4596.81
432.60	4587.45
432.79	4746.61
432.97	4741.93
433.16	4582.77
433.35	4727.88
433.54	4692.77
433.72	4617.88
433.91	4631.92
434.10	4615.54
434.28	4709.16
434.47	4713.84
434.66	4910.44
434.85	4896.40
435.03	4858.95
435.22	4807.46
435.41	5144.50
435.59	4966.62
435.78	5137.48
435.97	5076.62
436.16	5249.82
436.34	4931.51
436.53	4990.02
436.72	5301.31
436.90	5231.10
437.09	5252.16
437.28	4980.66
437.46	5221.74
437.65	5179.61
437.84	5163.22
438.02	5235.78
438.21	5114.07
438.40	5214.71
438.58	5329.40
438.77	5434.72
438.96	5493.24
439.14	5523.66
439.33	5469.83
439.52	5582.18
439.70	5593.88
439.89	5696.86
440.08	5476.85
440.26	5762.40
440.45	5626.65
440.63	5825.59
440.82	5966.03
441.01	5804.53
441.19	6078.37
441.38	6113.48
441.57	6143.91
441.75	6181.35
441.94	6324.13
442.12	6340.51
442.31	6218.80
442.50	6399.02
442.68	6289.02
442.87	6169.65
443.05	6284.34
443.24	6392.00
443.43	6342.85
443.61	6567.54
443.80	6579.25
443.98	6438.81
444.17	6263.27
444.35	6436.47
444.54	6476.26
444.73	6609.67
444.91	6457.54
445.10	6436.47
445.28	6506.69
445.47	6296.04
445.65	6429.45
445.84	6352.21
446.02	6607.33
446.21	6586.27
446.39	6574.56
446.58	6490.31
446.77	6670.53
446.95	6604.99
447.14	6686.91
447.32	6895.22
447.51	6546.48
447.69	6810.96
447.88	6700.95
448.06	6672.87
448.25	6754.79
448.43	6689.25
448.62	6651.80
448.80	6740.74
448.99	6717.34
449.17	6937.35
449.36	6764.15
449.54	6782.87
449.73	6913.94
449.91	7124.59
450.10	7260.34
450.28	7225.23
450.46	7091.82
450.65	7281.41
450.83	7227.57
451.02	7122.25
451.20	7339.92
451.39	7129.27
451.57	7187.79
451.76	7061.40
451.94	7227.57
452.13	7272.04
452.31	7267.36
452.49	6995.86
452.68	7049.69
452.86	7014.59
453.05	7162.04
453.23	7321.20
453.42	7229.91
453.60	7351.62
453.78	7447.58
453.97	7255.66
454.15	7339.92
454.34	7438.22
454.52	7517.80
454.70	7454.61
454.89	7655.89
455.07	7611.42
455.26	7531.84
455.44	7777.60
455.62	7726.11
455.81	7602.06
455.99	7915.69
456.17	7662.91
456.36	7667.60
456.54	7908.67
456.73	7903.99
456.91	8187.19
457.09	8095.91
457.28	8257.41
457.46	8042.08
457.64	8255.07
457.83	8166.13
458.01	8039.74
458.19	8322.94
458.38	8056.12
458.56	8229.32
458.74	8131.02
458.93	8189.53
459.11	8133.36
459.29	8456.36
459.48	8526.57
459.66	8264.43
459.84	8360.39
460.03	8306.56
460.21	8320.60
460.39	8393.16
460.57	8290.18
460.76	8542.96
460.94	8671.68
461.12	8479.76
461.31	8643.60
461.49	8669.34
461.67	8793.39
461.85	8667.00
462.04	8821.48
462.22	9270.86
462.40	8947.87
462.59	8858.93
462.77	8875.31
462.95	9118.73
463.13	8650.62
463.32	8833.18
463.50	8917.44
463.68	8966.59
463.86	8908.08
464.05	8774.67
464.23	8966.59
464.41	8879.99
464.59	8786.37
464.78	9219.37
464.96	9156.18
465.14	9057.87
465.32	9249.80
465.50	9259.16
465.69	9334.06
465.87	9057.87
466.05	9263.84
466.23	8987.66
466.41	9090.64
466.60	9493.21
466.78	9006.38
466.96	9310.65
467.14	9217.03
467.32	9177.24
467.51	9521.30
467.69	9114.05
467.87	9430.02
468.05	9488.53
468.23	9441.72
468.41	9423.00
468.60	9385.55
468.78	9628.96
468.96	9472.15
469.14	9568.11
469.32	9701.52
469.50	9408.95
469.69	9554.07
469.87	9696.84
470.05	9949.62
470.23	10052.60
470.41	9745.99
470.59	9788.12
470.77	9734.29
470.95	9921.53
471.14	9951.96
471.32	9977.70
471.50	10092.39
471.68	10239.84
471.86	10289.00
472.04	10345.17
472.22	10621.35
472.40	10209.42
472.58	10244.52
472.77	10326.44
472.95	10328.78
473.13	10984.13
473.31	10466.88
473.49	10480.92
473.67	10445.81
473.85	10647.10
474.03	11110.52
474.21	10916.26
474.39	10970.09
474.57	11183.08
474.75	11176.06
474.93	11138.61
475.12	11089.46
475.30	11227.55
475.48	11208.83
475.66	11428.84
475.84	11183.08
476.02	11339.90
476.20	11468.62
476.38	11714.38
476.56	11758.85
476.74	11817.36
476.92	11847.79
477.10	11786.94
477.28	12189.51
477.46	12123.98
477.64	12194.19
477.82	12259.73
478.00	12521.87
478.18	12336.96
478.36	12519.53
478.54	12472.71
478.72	12905.71
478.90	12891.67
479.08	13078.91
479.26	13111.68
479.44	13142.11
479.62	13125.72
479.80	13055.51
479.98	13242.75
480.16	13624.26
480.34	13481.49
480.52	13528.30
480.70	13710.86
480.88	13556.38
481.06	13783.41
481.24	13977.68
481.41	14359.19
481.59	14300.67
481.77	14338.12
481.95	14270.25
482.13	14494.94
482.31	14555.79
482.49	14698.56
482.67	14855.38
482.85	14949.00
483.03	15054.33
483.21	15124.54
483.39	15468.60
483.57	14899.85
483.74	15370.30
483.92	15494.35
484.10	15414.77
484.28	15712.02
484.46	16053.73
484.64	16233.96
484.82	15978.84
485.00	16170.76
485.18	16208.21
485.35	16386.09
485.53	15957.77
485.71	16065.44
485.89	16430.56
486.07	16397.79
486.25	16341.62
486.43	16631.85
486.61	17163.15
486.78	17041.44
486.96	17364.43
487.14	17556.36
487.32	17490.82
487.50	18111.07
487.68	18064.25
487.85	18338.10
488.03	18555.77
488.21	18448.10
488.39	18410.65
488.57	18466.83
488.75	18733.65
488.92	18841.31
489.10	19021.53
489.28	19332.82
489.46	19440.49
489.64	19681.56
489.81	20030.30
489.99	20044.35
490.17	20173.08
490.35	20236.27
490.53	20109.88
490.70	20409.47
490.88	20589.69
491.06	20601.40
491.24	20634.16
491.41	20592.03
491.59	20622.46
491.77	20627.14
491.95	21020.35
492.13	21074.18
492.30	21495.48
492.48	21884.01
492.66	21827.84
492.84	21834.86
493.01	21912.10
493.19	21916.78
493.37	21984.65
493.54	22328.71
493.72	22331.05
493.90	22300.62
494.08	22988.74
494.25	23180.67
494.43	23173.64
494.61	23321.10
494.79	23335.14
494.96	23482.59
495.14	23484.94
495.32	23419.40
495.49	23417.06
495.67	23782.18
495.85	23939.00
496.02	23836.02
496.20	24144.97
496.38	24301.78
496.55	24685.63
496.73	25191.19
496.91	24556.90
497.09	25186.50
497.26	24900.96
497.44	24788.61
497.62	25289.49
497.79	25565.67
497.97	25277.79
498.14	25102.25
498.32	25654.61
498.50	25465.03
498.67	26031.44
498.85	26197.62
499.03	25778.66
499.20	26113.36
499.38	26024.42
499.56	26492.52
499.73	26377.84
499.91	26541.68
500.08	26726.58
500.26	26398.90
500.44	26544.02
500.61	26464.44
500.79	26387.20
500.97	26881.05
501.14	27026.17
501.32	27051.91
501.49	26998.08
501.67	26883.39
501.84	27304.69
502.02	27751.73
502.20	27536.40
502.37	27803.22
502.55	27402.99
502.72	27756.41
502.90	27793.86
503.07	27541.08
503.25	27908.55
503.43	28226.86
503.60	28158.99
503.78	28116.86
503.95	27948.34
504.13	28297.08
504.30	28526.45
504.48	28636.45
504.65	29001.58
504.83	28882.21
505.01	28861.15
505.18	28929.02
505.36	29296.49
505.53	29268.40
505.71	29474.37
505.88	29659.27
506.06	29310.53
506.23	29701.40
506.41	29284.78
506.58	29675.65
506.76	29720.12
506.93	29935.45
507.11	29809.06
507.28	29820.77
507.46	29394.79
507.63	29731.83
507.81	30047.80
507.98	30000.99
508.16	30239.72
508.33	30883.37
508.50	30595.48
508.68	30541.65
508.85	31042.53
509.03	30827.20
509.20	30993.37
509.38	31056.57
509.55	31213.38
509.73	31253.17
509.90	31047.21
510.08	31370.20
510.25	31349.14
510.42	31606.59
510.60	31529.36
510.77	32023.21
510.95	31913.20
511.12	31494.25
511.30	31758.73
511.47	32315.78
511.64	31997.46
511.82	31955.33
511.99	31644.04
512.17	32304.07
512.34	32287.69
512.51	32275.99
512.69	32519.40
512.86	32446.85
513.04	32594.30
513.21	32638.77
513.38	32479.61
513.56	32723.03
513.73	32374.29
513.90	33069.43
514.08	32868.14
514.25	33350.29
514.43	33242.63
514.60	33249.65
514.77	33462.64
514.95	33146.67
515.12	33420.51
515.29	33703.71
515.47	33694.35
515.64	34181.18
515.81	33640.52
515.99	33532.86
516.16	33413.49
516.33	33574.98
516.51	33631.16
516.68	33322.21
516.85	32863.46
517.03	33195.82
517.20	33369.02
517.37	34319.28
517.54	34478.43
517.72	34019.69
517.89	33619.46
518.06	33893.30
518.24	33991.60
518.41	34148.42
518.58	34398.85
518.75	34326.30
518.93	34422.26
519.10	34616.52
519.27	34881.00
519.45	34637.59
519.62	35178.25
519.79	35459.12
519.96	35365.49
520.14	35232.08
520.31	34831.85
520.48	35264.85
520.65	35351.45
520.83	35522.31
521.00	35592.53
521.17	35988.08
521.34	35812.54
521.52	35913.18
521.69	36037.23
521.86	35962.33
522.03	36107.44
522.20	36245.54
522.38	36107.44
522.55	36222.13
522.72	36121.49
522.89	36369.58
523.07	36177.66
523.24	36582.57
523.41	37127.92
523.58	36622.36
523.75	36999.19
523.92	36861.10
524.10	36940.68
524.27	37212.18
524.44	36678.54
524.61	37420.48
524.78	37479.00
524.96	37244.94
525.13	36828.33
525.30	37167.71
525.47	37441.55
525.64	37621.77
525.81	37205.16
525.98	37361.97
526.16	37144.30
526.33	36870.46
526.50	37450.91
526.67	37127.92
526.84	37333.89
527.01	37387.72
527.18	37518.79
527.36	37816.04
527.53	38218.61
527.70	38157.75
527.87	38162.43
528.04	38110.94
528.21	38029.02
528.38	38593.09
528.55	38965.24
528.72	38300.53
528.89	38937.15
529.07	38508.83
529.24	38293.50
529.41	38553.30
529.58	38817.78
529.75	39103.33
529.92	38712.46
530.09	38925.45
530.26	38782.68
530.43	38824.81
530.60	39028.43
530.77	39325.68
530.94	39175.89
531.11	38871.62
531.28	38906.73
531.46	39267.17
531.63	39541.01
531.80	39065.88
531.97	39215.68
532.14	39105.67
532.31	38988.64
532.48	39173.55
532.65	39297.59
532.82	39459.09
532.99	39636.97
533.16	39372.49
533.33	39901.45
533.50	39943.58
533.67	39536.33
533.84	39842.94
534.01	39910.82
534.18	39704.85
534.35	40177.64
534.52	39573.78
534.69	40306.37
534.86	40495.95
535.03	40088.70
535.20	40505.31
535.37	40802.56
535.54	40942.99
535.71	40746.39
535.88	40617.66
536.05	40292.32
536.22	40727.66
536.38	40673.83
536.55	40596.59
536.72	40472.54
536.89	40395.31
537.06	40648.08
537.23	40959.38
537.40	40659.79
537.57	41111.51
537.74	40919.59
537.91	41439.18
538.08	41181.73
538.25	40800.22
538.42	40982.78
538.59	41003.85
538.75	40968.74
538.92	41308.11
539.09	41453.23
539.26	40858.73
539.43	41375.99
539.60	41144.28
539.77	41057.68
539.94	41303.43
540.11	40950.01
540.28	41067.04
540.44	41083.42
540.61	41427.48
540.78	41048.32
540.95	41392.37
541.12	41265.99
541.29	41432.16
541.46	41605.36
541.62	41518.76
541.79	41574.94
541.96	41469.61
542.13	41708.35
542.30	41603.02
542.47	41984.53
542.63	41441.53
542.80	41773.88
542.97	42539.24
543.14	42752.23
543.31	42232.63
543.48	42026.66
543.64	42892.66
543.81	42550.94
543.98	42146.03
544.15	42663.28
544.32	42541.58
544.48	42883.30
544.65	42731.16
544.82	42733.50
544.99	42670.31
545.16	43126.71
545.32	42707.76
545.49	43143.09
545.66	43232.04
545.83	42866.91
546.00	43082.24
546.16	42773.29
546.33	43140.75
546.50	42618.81
546.67	43096.28
546.83	42548.60
547.00	43126.71
547.17	43012.02
547.34	43374.81
547.50	43330.34
547.67	43215.65
547.84	43440.34
548.00	43723.55
548.17	43246.08
548.34	43615.88
548.51	43452.05
548.67	43332.68
548.84	43129.05
549.01	43398.21
549.18	43330.34
549.34	43512.90
549.51	43423.96
549.68	43901.43
549.84	43594.82
550.01	43842.92
550.18	43470.77
550.34	43583.12
550.51	43510.56
550.68	43859.30
550.84	43407.58
551.01	43943.56
551.18	43667.37
551.34	43585.46
551.51	43995.05
551.68	44135.48
551.84	43646.31
552.01	43847.60
552.18	43990.37
552.34	43622.90
552.51	44016.11
552.68	43391.19
552.84	44098.03
553.01	44385.92
553.18	44545.08
553.34	43854.62
553.51	44327.41
553.67	44142.50
553.84	44774.45
554.01	44706.57
554.17	44545.08
554.34	44575.50
554.51	44549.76
554.67	44343.79
554.84	44533.37
555.00	44376.56
555.17	44282.94
555.33	44465.50
555.50	44662.10
555.67	44561.46
555.83	44296.98
556.00	44467.84
556.16	44903.18
556.33	44416.35
556.50	44378.90
556.66	44666.78
556.83	44624.65
556.99	44439.75
557.16	44533.37
557.32	44477.20
557.49	45102.12
557.65	43941.22
557.82	44830.62
557.98	44299.32
558.15	45057.65
558.32	44830.62
558.48	44711.25
558.65	44694.87
558.81	44671.46
558.98	44278.25
559.14	45015.52
559.31	44844.66
559.47	44877.43
559.64	45006.16
559.80	45003.82
559.97	45083.40
560.13	45127.87
560.30	44914.88
560.46	44987.44
560.63	45474.27
560.79	45408.73
560.96	45294.05
561.12	45467.25
561.29	44968.71
561.45	45301.07
561.61	45195.74
561.78	45170.00
561.94	44938.29
562.11	44992.12
562.27	45111.49
562.44	45186.38
562.60	45074.04
562.77	45258.94
562.93	45223.83
563.10	45338.52
563.26	44872.75
563.42	45584.27
563.59	45404.05
563.75	45621.72
563.92	45219.15
564.08	44814.24
564.24	45858.12
564.41	45179.36
564.57	45202.77
564.74	45420.44
564.90	45258.94
565.07	45521.08
565.23	45586.61
565.39	45240.21
565.56	45586.61
565.72	45130.21
565.88	45507.04
566.05	45296.39
566.21	45507.04
566.38	45097.44
566.54	45624.06
566.70	45492.99
566.87	45607.68
567.03	45844.07
567.19	45698.96
567.36	45170.00
567.52	45741.09
567.68	45397.03
567.85	45476.61
568.01	45773.86
568.17	45914.29
568.34	45947.06
568.50	45092.76
568.66	45701.30
568.83	45478.95
568.99	45881.52
569.15	45504.70
569.32	45591.30
569.48	45696.62
569.64	45469.59
569.81	46012.59
569.97	45083.40
570.13	45612.36
570.30	45476.61
570.46	45373.63
570.62	45322.13
570.78	45284.68
570.95	45132.55
571.11	45523.42
571.27	45418.10
571.43	45490.65
571.60	45923.65
571.76	45755.13
571.92	45827.69
572.09	45710.66
572.25	45900.25
572.41	46066.42
572.57	45827.69
572.74	46120.26
572.90	45717.68
573.06	45928.33
573.22	45612.36
573.38	45366.60
573.55	45331.50
573.71	45977.48
573.87	45970.46
574.03	45624.06
574.20	45858.12
574.36	45846.41
574.52	45572.57
574.68	45228.51
574.84	45500.01
575.01	45766.84
575.17	45200.43
575.33	45553.85
575.49	45511.72
575.65	46026.63
575.82	45542.14
575.98	45734.07
576.14	46272.39
576.30	45853.44
576.46	45741.09
576.62	45509.38
576.79	45848.75
576.95	45574.91
577.11	46043.02
577.27	45837.05
577.43	45380.65
577.59	45874.50
577.75	45853.44
577.92	45361.92
578.08	45378.31
578.24	45469.59
578.40	45687.26
578.56	46028.98
578.72	45399.37
578.88	46487.72
579.04	46101.53
579.21	45448.52
579.37	45567.89
579.53	45710.66
579.69	45483.63
579.85	45991.53
580.01	45647.47
580.17	45755.13
580.33	46047.70
580.49	45563.21
580.65	45682.58
580.82	45652.15
580.98	45680.24
581.14	45624.06
581.30	45886.20
581.46	45808.96
581.62	45745.77
581.78	45659.17
581.94	46176.43
582.10	46057.06
582.26	45918.97
582.42	45888.54
582.58	45785.56
582.74	45722.37
582.90	46021.95
583.06	46253.67
583.22	45736.41
583.38	46281.75
583.54	46342.61
583.70	45872.16
583.86	45769.18
584.02	45830.03
584.18	46197.49
584.34	46019.61
584.50	45918.97
584.66	45738.75
584.82	46059.40
584.98	46094.51
585.14	46106.21
585.30	45558.53
585.46	45797.26
585.62	45579.59
585.78	45930.67
585.94	45406.39
586.10	46019.61
586.26	45588.95
586.42	45673.21
586.58	46157.70
586.74	45867.48
586.90	45902.59
587.06	45879.18
587.22	46040.68
587.38	45918.97
587.54	45986.85
587.70	45982.16
587.86	45656.83
588.02	46026.63
588.18	46522.83
588.34	45427.46
588.49	45340.86
588.65	45411.07
588.81	45532.78
588.97	45490.65
589.13	45436.82
589.29	45090.42
589.45	45713.00
589.61	45619.38
589.77	45565.55
589.93	45682.58
590.08	46117.92
