SpectraSuite Data File
++++++++++++++++++++++++++++++++++++
Date: Fri Oct 25 10:47:59 EDT 2013
User: price-jones
Dark Spectrum Present: No
Reference Spectrum Present: No
Number of Sampled Component Spectra: 1
Spectrometers: USB2+H05261
Integration Time (usec): 100000 (USB2+H05261)
Spectra Averaged: 1 (USB2+H05261)
Boxcar Smoothing: 0 (USB2+H05261)
Correct for Electrical Dark: No (USB2+H05261)
Strobe/Lamp Enabled: No (USB2+H05261)
Correct for Detector Non-linearity: No (USB2+H05261)
Correct for Stray Light: No (USB2+H05261)
Number of Pixels in Processed Spectrum: 2048
>>>>>Begin Processed Spectral Data<<<<<
365.73	95.96
365.92	95.96
366.12	95.96
366.32	30.43
366.52	77.24
366.72	35.11
366.91	37.45
367.11	39.79
367.31	14.04
367.51	30.43
367.70	9.36
367.90	95.96
368.10	32.77
368.30	70.22
368.49	44.47
368.69	37.45
368.89	88.94
369.09	105.32
369.28	102.98
369.48	91.28
369.68	215.33
369.87	152.13
370.07	149.79
370.27	131.07
370.47	276.18
370.66	351.08
370.86	362.78
371.06	456.40
371.25	414.27
371.45	437.68
371.65	458.74
371.84	477.47
372.04	440.02
372.24	528.96
372.44	477.47
372.63	514.92
372.83	484.49
373.03	489.17
373.22	458.74
373.42	554.71
373.62	540.66
373.81	599.18
374.01	564.07
374.21	582.79
374.40	528.96
374.60	554.71
374.79	594.50
374.99	580.45
375.19	528.96
375.38	557.05
375.58	533.64
375.78	613.22
375.97	634.29
376.17	683.44
376.37	592.16
376.56	531.30
376.76	561.73
376.95	596.84
377.15	587.47
377.35	582.79
377.54	533.64
377.74	566.41
377.93	573.43
378.13	589.82
378.33	627.26
378.52	566.41
378.72	594.50
378.91	657.69
379.11	643.65
379.31	575.77
379.50	592.16
379.70	688.12
379.89	589.82
380.09	603.86
380.28	676.41
380.48	624.92
380.68	648.33
380.87	688.12
381.07	676.41
381.26	594.50
381.46	638.97
381.65	617.90
381.85	676.41
382.04	662.37
382.24	664.71
382.43	688.12
382.63	671.73
382.83	727.91
383.02	781.74
383.22	786.42
383.41	800.46
383.61	678.76
383.80	732.59
384.00	741.95
384.19	793.44
384.39	681.10
384.58	699.82
384.78	748.97
384.97	777.06
385.17	767.70
385.36	774.72
385.56	688.12
385.75	753.65
385.95	823.87
386.14	725.57
386.34	795.78
386.53	842.59
386.72	739.61
386.92	875.36
387.11	777.06
387.31	802.80
387.50	835.57
387.70	793.44
387.89	795.78
388.09	774.72
388.28	840.25
388.48	835.57
388.67	805.14
388.86	830.89
389.06	966.64
389.25	919.83
389.45	877.70
389.64	896.43
389.84	868.34
390.03	884.72
390.22	961.96
390.42	940.90
390.61	837.91
390.81	959.62
391.00	901.11
391.19	922.17
391.39	966.64
391.58	922.17
391.78	938.55
391.97	1004.09
392.16	868.34
392.36	997.07
392.55	980.68
392.75	903.45
392.94	1006.43
393.13	915.15
393.33	901.11
393.52	973.66
393.71	1006.43
393.91	992.39
394.10	994.73
394.29	1074.31
394.49	990.05
394.68	1076.65
394.88	1123.46
395.07	1193.67
395.26	1153.88
395.46	1207.72
395.65	1050.90
395.84	1163.25
396.04	1233.46
396.23	1076.65
396.42	1062.60
396.62	1071.97
396.81	1090.69
397.00	1128.14
397.19	1146.86
397.39	1163.25
397.58	1266.23
397.77	1221.76
397.97	1231.12
398.16	1306.02
398.35	1287.29
398.55	1289.64
398.74	1294.32
398.93	1390.28
399.12	1310.70
399.32	1167.93
399.51	1397.30
399.70	1366.87
399.90	1261.55
400.09	1376.24
400.28	1409.00
400.47	1357.51
400.67	1411.34
400.86	1444.11
401.05	1504.96
401.24	1511.99
401.44	1411.34
401.63	1504.96
401.82	1434.75
402.01	1401.98
402.21	1533.05
402.40	1479.22
402.59	1502.62
402.78	1526.03
402.97	1547.09
403.17	1621.99
403.36	1617.31
403.55	1582.20
403.74	1652.42
403.93	1607.95
404.13	1664.12
404.32	1540.07
404.51	1647.74
404.70	1582.20
404.89	1689.87
405.09	1748.38
405.28	1680.50
405.47	1694.55
405.66	1715.61
405.85	1760.08
406.05	1743.70
406.24	1778.81
406.43	1806.89
406.62	1820.94
406.81	1919.24
407.00	1774.13
407.20	1919.24
407.39	1774.13
407.58	1830.30
407.77	1792.85
407.96	1987.11
408.15	2010.52
408.34	1996.48
408.54	1949.67
408.73	1905.20
408.92	1998.82
409.11	2064.35
409.30	1994.14
409.49	1996.48
409.68	1905.20
409.87	1991.80
410.07	2223.51
410.26	2073.71
410.45	2087.76
410.64	2078.40
410.83	2183.72
411.02	2157.97
411.21	2216.49
411.40	2291.38
411.59	2246.91
411.78	2267.98
411.98	2251.60
412.17	2296.07
412.36	2335.85
412.55	2347.56
412.74	2392.03
412.93	2431.82
413.12	2385.01
413.31	2427.14
413.50	2450.54
413.69	2429.48
413.88	2548.84
414.07	2539.48
414.26	2576.93
414.45	2520.76
414.64	2614.38
414.83	2647.15
415.02	2731.41
415.22	2726.72
415.41	2782.90
415.60	2593.31
415.79	2768.85
415.98	2736.09
416.17	2899.92
416.36	2794.60
416.55	2841.41
416.74	2820.35
416.93	2792.26
417.12	2956.10
417.31	2967.80
417.50	2860.13
417.69	3087.17
417.88	2946.73
418.07	2956.10
418.26	3070.78
418.45	3110.57
418.64	3094.19
418.83	3187.81
419.02	3126.96
419.21	3056.74
419.39	3178.45
419.58	3290.79
419.77	3103.55
419.96	3279.09
420.15	3110.57
420.34	3288.45
420.53	3375.05
420.72	3410.16
420.91	3389.10
421.10	3391.44
421.29	3407.82
421.48	3265.05
421.67	3353.99
421.86	3253.34
422.05	3428.88
422.24	3316.54
422.43	3321.22
422.61	3475.70
422.80	3283.77
422.99	3485.06
423.18	3501.44
423.37	3557.61
423.56	3442.93
423.75	3461.65
423.94	3496.76
424.13	3218.24
424.32	3220.58
424.50	3487.40
424.69	3557.61
424.88	3555.27
425.07	3396.12
425.26	3471.01
425.45	3442.93
425.64	3527.19
425.83	3604.42
426.01	3684.00
426.20	3592.72
426.39	3613.79
426.58	3627.83
426.77	3478.04
426.96	3609.11
427.15	3632.51
427.33	3548.25
427.52	3730.81
427.71	3695.71
427.90	3777.62
428.09	3679.32
428.28	3810.39
428.46	3859.54
428.65	3761.24
428.84	3843.16
429.03	3812.73
429.22	3822.09
429.40	3765.92
429.59	3737.84
429.78	3574.00
429.97	3569.32
430.16	3702.73
430.34	3700.39
430.53	3857.20
430.72	3798.69
430.91	3822.09
431.10	3960.19
431.28	3978.91
431.47	4042.11
431.66	3995.29
431.85	3948.48
432.03	4051.47
432.22	4100.62
432.41	4175.52
432.60	4117.00
432.79	4217.65
432.97	4191.90
433.16	4166.15
433.35	4198.92
433.54	4124.02
433.72	4058.49
433.91	4117.00
434.10	4243.39
434.28	4411.91
434.47	4121.68
434.66	4292.54
434.85	4374.46
435.03	4432.97
435.22	4341.69
435.41	4454.04
435.59	4540.64
435.78	4550.00
435.97	4657.67
436.16	4451.70
436.34	4475.10
436.53	4657.67
436.72	4655.33
436.90	4542.98
437.09	4580.43
437.28	4540.64
437.46	4615.54
437.65	4657.67
437.84	4610.86
438.02	4557.02
438.21	4643.62
438.40	4725.54
438.58	4641.28
438.77	4964.28
438.96	4863.63
439.14	5025.13
439.33	4922.15
439.52	5064.92
439.70	4910.44
439.89	5025.13
440.08	5032.15
440.26	5043.85
440.45	5135.14
440.63	5212.37
440.82	5242.80
441.01	5207.69
441.19	5394.93
441.38	5355.15
441.57	5217.05
441.75	5507.28
441.94	5401.96
442.12	5668.78
442.31	5736.65
442.50	5614.95
442.68	5556.43
442.87	5643.03
443.05	5694.52
443.24	5654.73
443.43	5544.73
443.61	5666.44
443.80	6059.65
443.98	5701.54
444.17	5568.13
444.35	5713.25
444.54	5837.30
444.73	5673.46
444.91	5652.39
445.10	5806.87
445.28	5753.04
445.47	5650.05
445.65	5687.50
445.84	5785.80
446.02	5874.74
446.21	5872.40
446.39	5736.65
446.58	5746.02
446.77	5792.83
446.95	5764.74
447.14	5830.27
447.32	5947.30
447.51	5940.28
447.69	5834.96
447.88	6136.88
448.06	5909.85
448.25	5872.40
448.43	5795.17
448.62	5858.36
448.80	6022.20
448.99	5912.19
449.17	5942.62
449.36	5963.68
449.54	6183.70
449.73	6237.53
449.91	6186.04
450.10	6389.66
450.28	6239.87
450.46	6354.55
450.65	6244.55
450.83	6249.23
451.02	6394.34
451.20	6321.79
451.39	6420.09
451.57	6094.76
451.76	6244.55
451.94	6333.49
452.13	6464.56
452.31	6448.18
452.49	6349.87
452.68	6427.11
452.86	6256.25
453.05	6422.43
453.23	6588.61
453.42	6424.77
453.60	6518.39
453.78	6719.68
453.97	6494.99
454.15	6562.86
454.34	6452.86
454.52	6665.85
454.70	6745.42
454.89	6736.06
455.07	6815.64
455.26	6782.87
455.44	6897.56
455.62	6672.87
455.81	6726.70
455.99	6899.90
456.17	6988.84
456.36	7028.63
456.54	7194.81
456.73	7068.42
456.91	7023.95
457.09	7117.57
457.28	7414.82
457.46	7119.91
457.64	7075.44
457.83	7279.07
458.01	7192.47
458.19	7435.88
458.38	7344.60
458.56	7293.11
458.74	7304.81
458.93	7220.55
459.11	7393.75
459.29	7438.22
459.48	7407.80
459.66	7454.61
459.84	7396.09
460.03	7595.04
460.21	7454.61
460.39	7489.71
460.57	7510.78
460.76	7536.52
460.94	7698.02
461.12	7714.41
461.31	7653.55
461.49	7545.89
461.67	7639.51
461.85	7894.63
462.04	7796.32
462.22	8152.09
462.40	7976.55
462.59	7761.22
462.77	7997.61
462.95	7995.27
463.13	7939.10
463.32	8091.23
463.50	7845.48
463.68	8084.21
463.86	7950.80
464.05	7957.82
464.23	7939.10
464.41	8072.51
464.59	7873.56
464.78	8166.13
464.96	7932.08
465.14	7918.03
465.32	8135.70
465.50	8208.26
465.69	8182.51
465.87	8063.15
466.05	8334.65
466.23	8177.83
466.41	8468.06
466.60	8472.74
466.78	8264.43
466.96	8262.09
467.14	8386.14
467.32	8367.42
467.51	8491.46
467.69	8126.34
467.87	8526.57
468.05	8407.20
468.23	8383.80
468.41	8273.79
468.60	8446.99
468.78	8503.17
468.96	8432.95
469.14	8692.75
469.32	8695.09
469.50	8552.32
469.69	8828.50
469.87	8711.47
470.05	8915.10
470.23	9022.77
470.41	9022.77
470.59	8870.63
470.77	8692.75
470.95	9132.77
471.14	9078.94
471.32	9022.77
471.50	9198.31
471.68	9334.06
471.86	9090.64
472.04	9123.41
472.22	9664.07
472.40	9177.24
472.58	9401.93
472.77	9305.97
472.95	9434.70
473.13	9610.24
473.31	9479.17
473.49	9399.59
473.67	9502.58
473.85	9736.63
474.03	9785.78
474.21	9764.72
474.39	9921.53
474.57	9839.61
474.75	10076.01
474.93	10099.41
475.12	10022.17
475.30	10029.20
475.48	9937.91
475.66	10235.16
475.84	10225.80
476.02	10473.90
476.20	10108.77
476.38	10501.98
476.56	10616.67
476.74	10504.32
476.92	10691.57
477.10	10686.89
477.28	11047.33
477.46	10600.29
477.64	11016.90
477.82	11201.80
478.00	11211.17
478.18	11180.74
478.36	11225.21
478.54	11283.72
478.72	11428.84
478.90	11669.91
479.08	11840.77
479.26	11723.74
479.44	11836.09
479.62	11761.19
479.80	12065.46
479.98	11899.28
480.16	12493.78
480.34	12112.27
480.52	12409.52
480.70	12465.69
480.88	12332.28
481.06	12322.92
481.24	12592.08
481.41	12713.79
481.59	12786.35
481.77	12933.80
481.95	12910.40
482.13	13170.19
482.31	13179.56
482.49	13397.23
482.67	13589.15
482.85	13577.45
483.03	13928.53
483.21	13603.19
483.39	13865.33
483.57	14033.85
483.74	14026.83
483.92	14223.44
484.10	14010.45
484.28	14225.78
484.46	14654.09
484.64	14897.51
484.82	14380.25
485.00	14675.16
485.18	14731.33
485.35	15084.75
485.53	14967.73
485.71	14918.57
485.89	15140.93
486.07	15370.30
486.25	15084.75
486.43	15555.20
486.61	15440.51
486.78	15826.70
486.96	15941.39
487.14	15960.11
487.32	16079.48
487.50	16226.93
487.68	16332.26
487.85	16482.05
488.03	16931.44
488.21	16884.62
488.39	16938.46
488.57	17186.55
488.75	17146.76
488.92	17488.48
489.10	17378.48
489.28	17427.63
489.46	17900.42
489.64	17659.34
489.81	18200.01
489.99	18293.63
490.17	18146.17
490.35	18431.72
490.53	18471.51
490.70	18511.30
490.88	18532.36
491.06	18925.57
491.24	18876.42
491.41	18897.49
491.59	18693.86
491.77	18944.30
491.95	19218.14
492.13	19529.43
492.30	19623.05
492.48	19606.67
492.66	19719.01
492.84	19784.55
493.01	19990.52
493.19	19915.62
493.37	20072.43
493.54	20313.51
493.72	20493.73
493.90	20599.05
494.08	20432.88
494.25	21046.10
494.43	21139.72
494.61	21544.63
494.79	21088.23
494.96	21212.28
495.14	20989.92
495.32	21460.37
495.49	21876.99
495.67	21568.04
495.85	21783.37
496.02	22188.28
496.20	22155.51
496.38	22155.51
496.55	22202.32
496.73	22848.31
496.91	22228.07
497.09	22658.73
497.26	23264.92
497.44	22691.49
497.62	22944.27
497.79	23204.07
497.97	22614.26
498.14	23576.22
498.32	23325.78
498.50	23424.08
498.67	23452.17
498.85	23695.58
499.03	23936.66
499.20	23681.54
499.38	23985.81
499.56	24236.25
499.73	24545.20
499.91	24439.87
500.08	24409.45
500.26	24168.37
500.44	24570.94
500.61	24896.28
500.79	24496.05
500.97	24945.43
501.14	25116.29
501.32	24980.54
501.49	24830.74
501.67	25053.09
501.84	25577.37
502.02	25434.60
502.20	25240.34
502.37	25635.89
502.55	25638.23
502.72	25656.95
502.90	25799.73
503.07	25553.97
503.25	25745.89
503.43	25640.57
503.60	25954.20
503.78	26061.87
503.95	25968.24
504.13	26295.92
504.30	26171.87
504.48	26211.66
504.65	26525.29
504.83	26497.20
505.01	27033.19
505.18	26536.99
505.36	26796.79
505.53	26834.24
505.71	27211.07
505.88	27243.84
506.06	26799.13
506.23	27410.01
506.41	27159.58
506.58	27225.11
506.76	27606.62
506.93	27740.03
507.11	27630.02
507.28	27658.11
507.46	27899.19
507.63	27812.59
507.81	28191.75
507.98	27903.87
508.16	27903.87
508.33	28194.09
508.50	28470.28
508.68	28219.84
508.85	28664.54
509.03	28519.43
509.20	28521.77
509.38	28727.74
509.55	29083.50
509.73	28474.96
509.90	28596.67
510.08	28540.49
510.25	28493.68
510.42	29144.35
510.60	29053.07
510.77	29455.64
510.95	29567.99
511.12	29280.10
511.30	29734.17
511.47	29696.72
511.64	29865.24
511.82	29970.56
511.99	29607.78
512.17	30181.21
512.34	30038.44
512.51	30146.10
512.69	30373.13
512.86	30321.64
513.04	30298.23
513.21	30099.29
513.38	30405.90
513.56	30600.16
513.73	30108.65
513.90	30258.45
514.08	30572.08
514.25	30888.05
514.43	30576.76
514.60	30707.83
514.77	30836.56
514.95	30993.37
515.12	30829.54
515.29	31122.10
515.47	31580.85
515.64	31250.83
515.81	31590.21
515.99	31166.57
516.16	31494.25
516.33	31126.78
516.51	31686.17
516.68	31363.18
516.85	31117.42
517.03	31433.39
517.20	31732.98
517.37	32046.62
517.54	32184.71
517.72	31931.93
517.89	32133.21
518.06	31852.35
518.24	31740.00
518.41	31838.31
518.58	32397.70
518.75	32027.89
518.93	32835.38
519.10	32285.35
519.27	32741.75
519.45	32355.57
519.62	32957.08
519.79	32910.27
519.96	33088.15
520.14	32826.01
520.31	32961.76
520.48	32985.17
520.65	33006.23
520.83	33188.80
521.00	33336.25
521.17	33483.70
521.34	33493.07
521.52	33780.95
521.69	33804.36
521.86	33944.79
522.03	33493.07
522.20	34094.58
522.38	33954.15
522.55	34354.38
522.72	34122.67
522.89	33816.06
523.07	34122.67
523.24	34139.05
523.41	34171.82
523.58	34286.51
523.75	34993.35
523.92	34618.86
524.10	34518.22
524.27	34967.60
524.44	34660.99
524.61	34972.28
524.78	34983.99
524.96	34876.32
525.13	35093.99
525.30	35456.78
525.47	35281.24
525.64	35035.48
525.81	35634.66
525.98	35473.16
526.16	35014.41
526.33	35065.91
526.50	35131.44
526.67	34965.26
526.84	35454.44
527.01	35211.02
527.18	35583.16
527.36	35793.81
527.53	35559.76
527.70	35878.07
527.87	36208.09
528.04	35622.95
528.21	36119.15
528.38	36006.80
528.55	36341.50
528.72	35878.07
528.89	36142.55
529.07	36205.75
529.24	36156.60
529.41	36339.16
529.58	36053.61
529.75	36517.04
529.92	36662.15
530.09	36299.37
530.26	36540.44
530.43	36591.94
530.60	36495.97
530.77	36343.84
530.94	36840.03
531.11	36701.94
531.28	36741.73
531.46	37172.39
531.63	36891.52
531.80	37031.96
531.97	36811.95
532.14	37385.38
532.31	37230.90
532.48	37596.03
532.65	37333.89
532.82	37177.07
532.99	37504.74
533.16	37038.98
533.33	37553.90
533.50	37376.01
533.67	37331.54
533.84	37404.10
534.01	37525.81
534.18	37888.59
534.35	37511.77
534.52	37544.53
534.69	37855.82
534.86	38087.54
535.03	37741.14
535.20	38239.67
535.37	38227.97
535.54	38352.02
535.71	38171.80
535.88	38110.94
536.05	38251.38
536.22	38618.84
536.38	38410.53
536.55	38096.90
536.72	38506.49
536.89	38279.46
537.06	38464.36
537.23	38733.53
537.40	38520.54
537.57	38543.94
537.74	38986.30
537.91	38995.67
538.08	38665.65
538.25	38164.78
538.42	38820.13
538.59	39208.65
538.75	38546.28
538.92	38890.34
539.09	39239.08
539.26	39091.63
539.43	39002.69
539.60	39475.48
539.77	39117.37
539.94	39295.25
540.11	38920.77
540.28	39260.15
540.44	39040.14
540.61	39103.33
540.78	38946.51
540.95	39438.03
541.12	39313.98
541.29	39728.25
541.46	39313.98
541.62	39749.32
541.79	39690.80
541.96	39426.32
542.13	39697.83
542.30	39725.91
542.47	40016.14
542.63	39751.66
542.80	39744.64
542.97	40346.15
543.14	40549.78
543.31	40353.18
543.48	40437.44
543.64	40299.34
543.81	40451.48
543.98	39966.99
544.15	40198.70
544.32	40584.89
544.48	40832.99
544.65	40868.09
544.82	40411.69
544.99	40463.18
545.16	40844.69
545.32	40011.46
545.49	40655.11
545.66	40706.60
545.83	40795.54
546.00	40844.69
546.16	40706.60
546.33	40804.90
546.50	40449.14
546.67	40734.68
546.83	40308.71
547.00	41132.57
547.17	40807.24
547.34	40919.59
547.50	40973.42
547.67	41291.73
547.84	41184.07
548.00	41769.20
548.17	41078.74
548.34	41090.44
548.51	41523.44
548.67	41464.93
548.84	41715.37
549.01	41144.28
549.18	41633.45
549.34	41528.13
549.51	41827.71
549.68	41591.32
549.84	41862.82
550.01	41968.15
550.18	41640.47
550.34	41408.76
550.51	41511.74
550.68	41928.36
550.84	41422.80
551.01	42169.43
551.18	42029.00
551.34	41986.87
551.51	41727.07
551.68	42017.30
551.84	41977.51
552.01	41659.20
552.18	42265.39
552.34	41336.20
552.51	42115.60
552.68	41855.80
552.84	42052.41
553.01	42473.70
553.18	41982.19
553.34	42462.00
553.51	41879.21
553.67	42270.08
553.84	42380.08
554.01	42335.61
554.17	43035.43
554.34	43061.18
554.51	42710.10
554.67	42890.32
554.84	42658.60
555.00	42658.60
555.17	42382.42
555.33	42756.91
555.50	42747.54
555.67	42852.87
555.83	42960.53
556.00	42623.50
556.16	42967.55
556.33	42595.41
556.50	43159.48
556.66	42508.81
556.83	42691.37
556.99	43482.47
557.16	42885.64
557.32	43281.19
557.49	43105.65
557.65	42660.94
557.82	42632.86
557.98	43260.12
558.15	42911.38
558.32	43023.73
558.48	42801.38
558.65	43019.05
558.81	43086.92
558.98	43426.30
559.14	42986.28
559.31	43138.41
559.47	43035.43
559.64	43323.32
559.80	43540.99
559.97	43515.24
560.13	42792.01
560.30	43124.37
560.46	43515.24
560.63	42775.63
560.79	43274.16
560.96	43765.68
561.12	43407.58
561.29	43374.81
561.45	43428.64
561.61	43468.43
561.78	43482.47
561.94	43386.51
562.11	43526.94
562.27	43482.47
562.44	43365.45
562.60	43653.33
562.77	43913.13
562.93	43442.68
563.10	43695.46
563.26	43814.83
563.42	43543.33
563.59	43793.76
563.75	43922.49
563.92	44186.97
564.08	43627.59
564.24	44016.11
564.41	43973.98
564.57	43650.99
564.74	43739.93
564.90	43606.52
565.07	43627.59
565.23	43875.68
565.39	43660.35
565.56	44079.31
565.72	44086.33
565.88	43650.99
566.05	43646.31
566.21	44250.17
566.38	43775.04
566.54	43779.72
566.70	44421.03
566.87	44442.09
567.03	43936.54
567.19	44109.74
567.36	44116.76
567.52	43702.48
567.68	44044.20
567.85	44069.95
568.01	43711.84
568.17	43868.66
568.34	44371.88
568.50	44100.37
568.66	44432.73
568.83	43709.50
568.99	43866.32
569.15	43777.38
569.32	43922.49
569.48	43669.72
569.64	44273.57
569.81	43763.34
569.97	43969.30
570.13	44179.95
570.30	44121.44
570.46	43859.30
570.62	43856.96
570.78	43782.06
570.95	43941.22
571.11	44374.22
571.27	43997.39
571.43	44062.93
571.60	44004.41
571.76	44088.67
571.92	44060.58
572.09	44364.85
572.25	44491.24
572.41	44048.88
572.57	44449.11
572.74	44456.14
572.90	44163.57
573.06	43952.92
573.22	44296.98
573.38	44226.76
573.55	44055.90
573.71	44680.83
573.87	44446.77
574.03	44236.12
574.20	44514.65
574.36	44254.85
574.52	44198.68
574.68	44491.24
574.84	44645.72
575.01	44112.08
575.17	44304.00
575.33	44158.89
575.49	44053.56
575.65	44701.89
575.82	44549.76
575.98	44467.84
576.14	44219.74
576.30	44285.28
576.46	44376.56
576.62	43655.67
576.79	44093.35
576.95	43957.60
577.11	44355.49
577.27	44123.78
577.43	44306.34
577.59	44299.32
577.75	44619.97
577.92	44320.38
578.08	44156.55
578.24	44350.81
578.40	44414.01
578.56	43969.30
578.72	44547.42
578.88	44549.76
579.04	44463.16
579.21	44446.77
579.37	44329.75
579.53	44439.75
579.69	44261.87
579.85	44177.61
580.01	45076.38
580.17	44435.07
580.33	44900.84
580.49	44926.58
580.65	44591.89
580.82	44563.80
580.98	44151.87
581.14	44002.07
581.30	44442.09
581.46	44868.07
581.62	44231.44
581.78	44315.70
581.94	44430.39
582.10	44725.30
582.26	44748.70
582.42	44385.92
582.58	44353.15
582.74	44912.54
582.90	44720.62
583.06	44933.60
583.22	44638.70
583.38	44711.25
583.54	44189.31
583.70	44772.11
583.86	44596.57
584.02	44378.90
584.18	44378.90
584.34	44744.02
584.50	44816.58
584.66	44364.85
584.82	44514.65
584.98	44942.97
585.14	44898.50
585.30	44168.25
585.46	44247.83
585.62	44126.12
585.78	44652.74
585.94	44243.15
586.10	44271.23
586.26	44318.04
586.42	44818.92
586.58	44657.42
586.74	44596.57
586.90	44722.96
587.06	44261.87
587.22	44598.91
587.38	44247.83
587.54	45303.41
587.70	44737.00
587.86	44739.34
588.02	44961.69
588.18	44652.74
588.34	44626.99
588.49	44423.37
588.65	44210.38
588.81	44135.48
588.97	44638.70
589.13	44484.22
589.29	44842.32
589.45	44729.98
589.61	44858.71
589.77	44905.52
589.93	44921.90
590.08	44931.26
590.24	44856.37
