SpectraSuite Data File
++++++++++++++++++++++++++++++++++++
Date: Fri Oct 25 11:33:19 EDT 2013
User: price-jones
Dark Spectrum Present: No
Reference Spectrum Present: No
Number of Sampled Component Spectra: 1
Spectrometers: USB2+H05261
Integration Time (usec): 100000 (USB2+H05261)
Spectra Averaged: 1 (USB2+H05261)
Boxcar Smoothing: 0 (USB2+H05261)
Correct for Electrical Dark: No (USB2+H05261)
Strobe/Lamp Enabled: No (USB2+H05261)
Correct for Detector Non-linearity: No (USB2+H05261)
Correct for Stray Light: No (USB2+H05261)
Number of Pixels in Processed Spectrum: 2048
>>>>>Begin Processed Spectral Data<<<<<
365.73	273.84
365.92	273.84
366.12	273.84
366.32	220.01
366.52	142.77
366.72	140.43
366.91	196.60
367.11	175.54
367.31	163.84
367.51	222.35
367.70	187.24
367.90	121.71
368.10	114.69
368.30	166.18
368.49	248.10
368.69	257.46
368.89	238.73
369.09	208.31
369.28	196.60
369.48	177.88
369.68	154.48
369.87	215.33
370.07	215.33
370.27	255.12
370.47	304.27
370.66	482.15
370.86	458.74
371.06	524.28
371.25	514.92
371.45	507.90
371.65	578.11
371.84	528.96
372.04	545.34
372.24	507.90
372.44	589.82
372.63	603.86
372.83	606.20
373.03	568.75
373.22	620.24
373.42	608.54
373.62	601.52
373.81	613.22
374.01	727.91
374.21	613.22
374.40	620.24
374.60	645.99
374.79	585.13
374.99	624.92
375.19	650.67
375.38	685.78
375.58	589.82
375.78	669.39
375.97	753.65
376.17	755.99
376.37	683.44
376.56	610.88
376.76	676.41
376.95	748.97
377.15	713.86
377.35	699.82
377.54	725.57
377.74	683.44
377.93	683.44
378.13	725.57
378.33	753.65
378.52	702.16
378.72	718.54
378.91	758.33
379.11	716.20
379.31	685.78
379.50	709.18
379.70	725.57
379.89	807.48
380.09	699.82
380.28	709.18
380.48	699.82
380.68	674.07
380.87	725.57
381.07	767.70
381.26	760.67
381.46	791.10
381.65	734.93
381.85	765.36
382.04	748.97
382.24	791.10
382.43	730.25
382.63	777.06
382.83	723.23
383.02	837.91
383.22	858.98
383.41	837.91
383.61	882.38
383.80	880.04
384.00	755.99
384.19	828.55
384.39	889.40
384.58	798.12
384.78	880.04
384.97	774.72
385.17	758.33
385.36	791.10
385.56	882.38
385.75	851.96
385.95	821.53
386.14	863.66
386.34	814.51
386.53	758.33
386.72	849.61
386.92	912.81
387.11	915.15
387.31	826.21
387.50	819.19
387.70	877.70
387.89	912.81
388.09	950.26
388.28	891.74
388.48	903.45
388.67	898.77
388.86	908.13
389.06	943.24
389.25	819.19
389.45	950.26
389.64	929.19
389.84	940.90
390.03	959.62
390.22	940.90
390.42	968.98
390.61	1018.13
390.81	910.47
391.00	943.24
391.19	961.96
391.39	978.34
391.58	1013.45
391.78	1029.84
391.97	1043.88
392.16	973.66
392.36	1086.01
392.55	1008.77
392.75	990.05
392.94	1004.09
393.13	1081.33
393.33	1095.37
393.52	1025.15
393.71	1076.65
393.91	1078.99
394.10	1086.01
394.29	1130.48
394.49	1121.12
394.68	1167.93
394.88	1076.65
395.07	1116.44
395.26	1130.48
395.46	1102.39
395.65	1172.61
395.84	1165.59
396.04	1203.04
396.23	1144.52
396.42	1179.63
396.62	1191.33
396.81	1350.49
397.00	1188.99
397.19	1200.69
397.39	1205.38
397.58	1228.78
397.77	1228.78
397.97	1306.02
398.16	1242.82
398.35	1310.70
398.55	1284.95
398.74	1261.55
398.93	1219.42
399.12	1273.25
399.32	1320.06
399.51	1336.45
399.70	1373.89
399.90	1355.17
400.09	1397.30
400.28	1376.24
400.47	1357.51
400.67	1519.01
400.86	1406.66
401.05	1387.94
401.24	1409.00
401.44	1411.34
401.63	1521.35
401.82	1481.56
402.01	1493.26
402.21	1458.15
402.40	1511.99
402.59	1455.81
402.78	1509.65
402.97	1533.05
403.17	1558.80
403.36	1551.78
403.55	1530.71
403.74	1612.63
403.93	1626.67
404.13	1551.78
404.32	1633.69
404.51	1671.14
404.70	1614.97
404.89	1626.67
405.09	1804.55
405.28	1706.25
405.47	1722.63
405.66	1703.91
405.85	1722.63
406.05	1680.50
406.24	1624.33
406.43	1675.82
406.62	1867.75
406.81	1788.17
407.00	1776.47
407.20	1732.00
407.39	1881.79
407.58	1912.22
407.77	1952.01
407.96	1909.88
408.15	1872.43
408.34	1820.94
408.54	1921.58
408.73	1933.28
408.92	1940.30
409.11	2022.22
409.30	2038.61
409.49	2052.65
409.68	2066.69
409.87	1987.11
410.07	1994.14
410.26	2054.99
410.45	2062.01
410.64	2139.25
410.83	2146.27
411.02	2085.42
411.21	2179.04
411.40	2017.54
411.59	2319.47
411.78	2253.94
411.98	2148.61
412.17	2176.70
412.36	2209.47
412.55	2230.53
412.74	2380.32
412.93	2385.01
413.12	2380.32
413.31	2546.50
413.50	2394.37
413.69	2450.54
413.88	2487.99
414.07	2417.77
414.26	2616.72
414.45	2567.57
414.64	2567.57
414.83	2569.91
415.02	2635.44
415.22	2677.57
415.41	2724.38
415.60	2621.40
415.79	2614.38
415.98	2825.03
416.17	2719.70
416.36	2759.49
416.55	2829.71
416.74	2822.69
416.93	2768.85
417.12	2862.48
417.31	2874.18
417.50	2904.60
417.69	2967.80
417.88	2860.13
418.07	3035.67
418.26	2967.80
418.45	2998.23
418.64	3045.04
418.83	3049.72
419.02	2958.44
419.21	3091.85
419.39	3068.44
419.58	3169.09
419.77	3075.46
419.96	3126.96
420.15	3302.50
420.34	3197.17
420.53	3265.05
420.72	3080.14
420.91	3197.17
421.10	3274.41
421.29	3267.39
421.48	3361.01
421.67	3272.07
421.86	3410.16
422.05	3267.39
422.24	3255.69
422.43	3328.24
422.61	3314.20
422.80	3410.16
422.99	3410.16
423.18	3356.33
423.37	3646.55
423.56	3328.24
423.75	3438.25
423.94	3260.37
424.13	3225.26
424.32	3332.92
424.50	3557.61
424.69	3494.42
424.88	3403.14
425.07	3431.23
425.26	3325.90
425.45	3428.88
425.64	3456.97
425.83	3529.53
426.01	3384.41
426.20	3597.40
426.39	3583.36
426.58	3583.36
426.77	3597.40
426.96	3531.87
427.15	3510.80
427.33	3754.22
427.52	3506.12
427.71	3576.34
427.90	3672.30
428.09	3742.52
428.28	3653.58
428.46	3611.45
428.65	3815.07
428.84	3911.04
429.03	3786.99
429.22	3651.24
429.40	3932.10
429.59	3777.62
429.78	3740.18
429.97	3721.45
430.16	3744.86
430.34	3747.20
430.53	3843.16
430.72	3859.54
430.91	3929.76
431.10	3854.86
431.28	3950.82
431.47	4152.11
431.66	4081.89
431.85	4091.26
432.03	4112.32
432.22	4189.56
432.41	3981.25
432.60	4166.15
432.79	4014.02
432.97	4170.83
433.16	4131.05
433.35	4105.30
433.54	4205.94
433.72	4334.67
433.91	4257.43
434.10	4294.88
434.28	4278.50
434.47	4255.09
434.66	4264.46
434.85	4337.01
435.03	4315.95
435.22	4252.75
435.41	4435.32
435.59	4507.87
435.78	4465.74
435.97	4379.14
436.16	4442.34
436.34	4454.04
436.53	4381.48
436.72	4493.83
436.90	4367.44
437.09	4538.30
437.28	4568.73
437.46	4634.26
437.65	4540.64
437.84	4636.60
438.02	4688.09
438.21	4664.69
438.40	4610.86
438.58	4833.21
438.77	4858.95
438.96	4781.71
439.14	4882.36
439.33	4821.50
439.52	4938.53
439.70	5011.09
439.89	5146.84
440.08	5032.15
440.26	5011.09
440.45	5022.79
440.63	5041.51
440.82	5224.08
441.01	5135.14
441.19	5235.78
441.38	5432.38
441.57	5350.46
441.75	5509.62
441.94	5582.18
442.12	5497.92
442.31	5359.83
442.50	5591.54
442.68	5425.36
442.87	5427.70
443.05	5621.97
443.24	5605.58
443.43	5458.13
443.61	5568.13
443.80	5816.23
443.98	5430.04
444.17	5247.48
444.35	5675.80
444.54	5657.07
444.73	5713.25
444.91	5755.38
445.10	5748.36
445.28	5820.91
445.47	5776.44
445.65	5771.76
445.84	5785.80
446.02	5799.85
446.21	5865.38
446.39	5806.87
446.58	5748.36
446.77	5942.62
446.95	5746.02
447.14	5809.21
447.32	5778.78
447.51	5783.46
447.69	5820.91
447.88	5753.04
448.06	5825.59
448.25	5916.87
448.43	5879.43
448.62	5893.47
448.80	5785.80
448.99	5933.26
449.17	5930.92
449.36	5818.57
449.54	5966.03
449.73	6164.97
449.91	6085.39
450.10	6143.91
450.28	6080.71
450.46	6214.12
450.65	6087.73
450.83	6057.31
451.02	6258.59
451.20	6380.30
451.39	6246.89
451.57	6279.66
451.76	6176.67
451.94	6225.82
452.13	6293.70
452.31	6373.28
452.49	6153.27
452.68	6237.53
452.86	6300.72
453.05	6504.35
453.23	6480.94
453.42	6588.61
453.60	6342.85
453.78	6686.91
453.97	6366.26
454.15	6452.86
454.34	6534.78
454.52	6450.52
454.70	6668.19
454.89	6693.93
455.07	6640.10
455.26	6761.81
455.44	6637.76
455.62	6761.81
455.81	6822.66
455.99	6890.54
456.17	6923.30
456.36	6850.75
456.54	6782.87
456.73	6937.35
456.91	7126.93
457.09	7052.03
457.28	7297.79
457.46	7087.14
457.64	7155.02
457.83	6965.43
458.01	7098.84
458.19	7293.11
458.38	7344.60
458.56	7227.57
458.74	7220.55
458.93	7405.46
459.11	7159.70
459.29	7300.13
459.48	7360.98
459.66	7349.28
459.84	7314.17
460.03	7492.05
460.21	7545.89
460.39	7396.09
460.57	7559.93
460.76	7527.16
460.94	7602.06
461.12	7454.61
461.31	7548.23
461.49	7562.27
461.67	7625.47
461.85	7831.43
462.04	7475.67
462.22	8091.23
462.40	7798.66
462.59	7716.75
462.77	7660.57
462.95	7864.20
463.13	7719.09
463.32	7864.20
463.50	7831.43
463.68	7962.50
463.86	8016.33
464.05	7908.67
464.23	7889.95
464.41	8072.51
464.59	7756.54
464.78	8276.13
464.96	8194.22
465.14	8243.37
465.32	8124.00
465.50	8100.59
465.69	8077.19
465.87	8112.30
466.05	8355.71
466.23	8243.37
466.41	8355.71
466.60	8379.12
466.78	8329.97
466.96	8203.58
467.14	8252.73
467.32	8407.20
467.51	8510.19
467.69	8191.88
467.87	8170.81
468.05	8456.36
468.23	8313.58
468.41	8177.83
468.60	8482.10
468.78	8685.73
468.96	8379.12
469.14	8641.26
469.32	8730.20
469.50	8524.23
469.69	8603.81
469.87	8814.46
470.05	8744.24
470.23	8833.18
470.41	8814.46
470.59	8908.08
470.77	8933.82
470.95	8842.54
471.14	8926.80
471.32	8861.27
471.50	9074.26
471.68	9092.98
471.86	9221.71
472.04	9090.64
472.22	9544.70
472.40	9181.92
472.58	9125.75
472.77	9511.94
472.95	9504.92
473.13	9940.26
473.31	9540.02
473.49	9528.32
473.67	9474.49
473.85	9469.81
474.03	9743.65
474.21	9975.36
474.39	9902.81
474.57	9799.82
474.75	10195.37
474.93	9860.68
475.12	9909.83
475.30	10181.33
475.48	9771.74
475.66	9998.77
475.84	10242.18
476.02	10420.06
476.20	10267.93
476.38	10420.06
476.56	10780.51
476.74	10712.63
476.92	10752.42
477.10	10511.35
477.28	10696.25
477.46	10747.74
477.64	10946.69
477.82	11218.19
478.00	11133.93
478.18	11234.57
478.36	11599.70
478.54	11187.76
478.72	11412.45
478.90	11627.78
479.08	11838.43
479.26	11903.96
479.44	11824.39
479.62	11871.20
479.80	11850.13
479.98	12210.57
480.16	12212.92
480.34	12166.10
480.52	12273.77
480.70	12517.18
480.88	12294.83
481.06	12369.73
481.24	12477.40
481.41	12943.16
481.59	12863.58
481.77	12940.82
481.95	13179.56
482.13	13170.19
482.31	12879.97
482.49	13327.01
482.67	13502.55
482.85	13378.50
483.03	13551.70
483.21	13710.86
483.39	14003.43
483.57	13675.75
483.74	13994.06
483.92	14356.85
484.10	14228.12
484.28	14548.77
484.46	14747.72
484.64	14710.27
484.82	14586.22
485.00	14537.07
485.18	15073.05
485.35	15269.66
485.53	15330.51
485.71	15199.44
485.89	15714.36
486.07	15651.16
486.25	15613.71
486.43	15775.21
486.61	15789.25
486.78	15875.85
486.96	16039.69
487.14	16407.16
487.32	16287.79
487.50	16479.71
487.68	16556.95
487.85	16650.57
488.03	16896.33
488.21	17111.66
488.39	17394.86
488.57	17254.43
488.75	17418.27
488.92	17411.25
489.10	17881.69
489.28	17554.02
489.46	17928.50
489.64	18038.51
489.81	18097.02
489.99	18450.44
490.17	18305.33
490.35	18714.92
490.53	18604.92
490.70	18876.42
490.88	18745.35
491.06	19124.52
491.24	19241.54
491.41	19168.99
491.59	19508.37
491.77	19225.16
491.95	19601.99
492.13	19805.61
492.30	19999.88
492.48	20133.29
492.66	20184.78
492.84	19974.13
493.01	20535.86
493.19	20208.19
493.37	20748.85
493.54	20505.43
493.72	20819.07
493.90	20725.44
494.08	21130.36
494.25	20877.58
494.43	21188.87
494.61	21362.07
494.79	21603.14
494.96	21343.35
495.14	21876.99
495.32	21610.17
495.49	21935.50
495.67	21979.97
495.85	22387.22
496.02	22405.95
496.20	22558.08
496.38	22705.54
496.55	22771.07
496.73	23051.94
496.91	23009.81
497.09	23087.04
497.26	23152.58
497.44	23288.33
497.62	23407.70
497.79	23653.45
497.97	23564.51
498.14	24177.73
498.32	23604.30
498.50	23786.86
498.67	24238.59
498.85	24304.12
499.03	24257.31
499.20	24460.94
499.38	24261.99
499.56	24797.98
499.73	24514.77
499.91	24460.94
500.08	24636.48
500.26	24655.20
500.44	25057.78
500.61	25259.06
500.79	25088.20
500.97	25514.18
501.14	25401.83
501.32	25696.74
501.49	25933.14
501.67	25638.23
501.84	26001.01
502.02	25848.88
502.20	26024.42
502.37	25823.13
502.55	26010.37
502.72	26195.28
502.90	26005.69
503.07	26129.74
503.25	26321.66
503.43	26008.03
503.60	26871.69
503.78	26639.98
503.95	26625.93
504.13	27068.30
504.30	26977.01
504.48	27126.81
504.65	26902.12
504.83	27402.99
505.01	27470.87
505.18	27187.66
505.36	27552.79
505.53	27508.32
505.71	27611.30
505.88	27725.99
506.06	27742.37
506.23	27679.18
506.41	27915.57
506.58	27920.25
506.76	27859.40
506.93	28044.30
507.11	28659.86
507.28	28580.28
507.46	28652.84
507.63	28594.32
507.81	28704.33
507.98	28830.72
508.16	28669.22
508.33	28851.78
508.50	28961.79
508.68	29221.59
508.85	29237.97
509.03	29191.16
509.20	29474.37
509.38	29598.41
509.55	29586.71
509.73	29446.28
509.90	29575.01
510.08	29546.92
510.25	29809.06
510.42	29958.86
510.60	30057.16
510.77	30221.00
510.95	29996.31
511.12	30155.46
511.30	30106.31
511.47	30436.33
511.64	30237.38
511.82	30691.44
511.99	30422.28
512.17	31007.42
512.34	30487.82
512.51	31192.32
512.69	31299.98
512.86	31599.57
513.04	31311.69
513.21	31255.51
513.38	31519.99
513.56	31407.65
513.73	31342.11
513.90	31035.50
514.08	31096.36
514.25	31740.00
514.43	31803.20
514.60	31796.18
514.77	31964.70
514.95	32435.14
515.12	32168.32
515.29	31721.28
515.47	32238.54
515.64	32568.55
515.81	32294.71
515.99	32346.20
516.16	32711.33
516.33	32549.83
516.51	32655.15
516.68	32713.67
516.85	32629.41
517.03	33261.35
517.20	33322.21
517.37	32561.53
517.54	33017.94
517.72	33322.21
517.89	33212.20
518.06	32999.21
518.24	33319.87
518.41	33305.82
518.58	33450.94
518.75	33315.19
518.93	33439.23
519.10	33663.93
519.27	33769.25
519.45	33982.24
519.62	33860.53
519.79	34143.74
519.96	33867.55
520.14	34462.05
520.31	34108.63
520.48	34239.70
520.65	34558.01
520.83	34527.58
521.00	34597.80
521.17	34705.46
521.34	34120.33
521.52	34607.16
521.69	34941.86
521.86	35274.21
522.03	34831.85
522.20	34960.58
522.38	35564.44
522.55	35461.46
522.72	35136.12
522.89	34843.56
523.07	36009.14
523.24	35543.38
523.41	35747.00
523.58	35328.05
523.75	36109.78
523.92	35728.28
524.10	35608.91
524.27	35798.49
524.44	35857.01
524.61	36591.94
524.78	36446.82
524.96	36308.73
525.13	36240.86
525.30	36261.92
525.47	36299.37
525.64	36580.23
525.81	36439.80
525.98	36692.58
526.16	37008.55
526.33	36521.72
526.50	36795.56
526.67	36877.48
526.84	37057.70
527.01	36825.99
527.18	36786.20
527.36	37425.17
527.53	36989.83
527.70	37745.82
527.87	37296.44
528.04	37123.24
528.21	37441.55
528.38	37574.96
528.55	37134.94
528.72	37633.47
528.89	37450.91
529.07	37368.99
529.24	37436.87
529.41	38349.68
529.58	38019.66
529.75	37593.68
529.92	37961.15
530.09	38061.79
530.26	37984.55
530.43	38298.19
530.60	37991.58
530.77	37904.98
530.94	38684.37
531.11	38279.46
531.28	38628.20
531.46	38405.85
531.63	38684.37
531.80	38532.24
531.97	38960.56
532.14	38815.44
532.31	38492.45
532.48	39103.33
532.65	39072.90
532.82	38862.26
532.99	38628.20
533.16	38820.13
533.33	39192.27
533.50	39339.72
533.67	39117.37
533.84	38473.73
534.01	39189.93
534.18	39299.94
534.35	39704.85
534.52	39466.11
534.69	39611.23
534.86	39833.58
535.03	39765.70
535.20	39665.06
535.37	40414.03
535.54	40149.55
535.71	39805.49
535.88	39746.98
536.05	40107.42
536.22	40156.57
536.38	40109.76
536.55	40226.79
536.72	40034.86
536.89	39941.24
537.06	40224.45
537.23	40568.51
537.40	40154.23
537.57	40055.93
537.74	40194.02
537.91	40954.69
538.08	40701.92
538.25	39852.30
538.42	40783.83
538.59	40779.15
538.75	40671.49
538.92	40889.16
539.09	41013.21
539.26	40715.96
539.43	40811.92
539.60	40804.90
539.77	40928.95
539.94	40856.39
540.11	40994.48
540.28	41139.60
540.44	40720.64
540.61	41338.54
540.78	41198.11
540.95	41034.27
541.12	41127.89
541.29	41385.35
541.46	41322.16
541.62	41338.54
541.79	41558.55
541.96	41298.75
542.13	41298.75
542.30	41720.05
542.47	41708.35
542.63	41823.03
542.80	41640.47
542.97	42124.96
543.14	42426.89
543.31	42096.88
543.48	42047.72
543.64	42267.73
543.81	42693.71
543.98	42506.47
544.15	42440.93
544.32	42773.29
544.48	43255.44
544.65	42658.60
544.82	43065.86
544.99	41909.63
545.16	43103.31
545.32	42979.26
545.49	43374.81
545.66	43185.22
545.83	42852.87
546.00	43002.66
546.16	42782.65
546.33	42988.62
546.50	42567.32
546.67	42983.94
546.83	42653.92
547.00	42440.93
547.17	42887.98
547.34	43049.47
547.50	43260.12
547.67	43632.27
547.84	43225.01
548.00	43674.40
548.17	43695.46
548.34	43522.26
548.51	43866.32
548.67	43835.89
548.84	43899.09
549.01	43842.92
549.18	43569.07
549.34	43468.43
549.51	43765.68
549.68	43611.20
549.84	43517.58
550.01	44144.84
550.18	43807.81
550.34	43863.98
550.51	44402.30
550.68	44343.79
550.84	43768.02
551.01	44069.95
551.18	43742.27
551.34	44325.07
551.51	44273.57
551.68	44388.26
551.84	44032.50
552.01	43730.57
552.18	44715.93
552.34	44215.06
552.51	44229.10
552.68	44381.24
552.84	44327.41
553.01	44456.14
553.18	44041.86
553.34	44634.02
553.51	44509.97
553.67	44208.04
553.84	44814.24
554.01	44751.04
554.17	44683.17
554.34	44947.65
554.51	45078.72
554.67	44971.05
554.84	45085.74
555.00	44722.96
555.17	45216.81
555.33	45111.49
555.50	44889.13
555.67	45235.53
555.83	45067.02
556.00	45469.59
556.16	46007.91
556.33	45518.74
556.50	45277.66
556.66	45123.19
556.83	45130.21
556.99	45844.07
557.16	45736.41
557.32	45560.87
557.49	45380.65
557.65	45413.41
557.82	45640.45
557.98	45586.61
558.15	45722.37
558.32	45579.59
558.48	45518.74
558.65	45069.36
558.81	45345.54
558.98	45212.13
559.14	45680.24
559.31	45464.91
559.47	45574.91
559.64	45708.32
559.80	46148.34
559.97	45984.51
560.13	45441.50
560.30	45624.06
560.46	46312.18
560.63	46307.50
560.79	45855.78
560.96	46366.01
561.12	46010.25
561.29	45865.14
561.45	46312.18
561.61	46094.51
561.78	45780.88
561.94	46160.05
562.11	45989.19
562.27	45958.76
562.44	46452.61
562.60	46426.87
562.77	46354.31
562.93	46085.15
563.10	46564.96
563.26	46466.66
563.42	46358.99
563.59	46270.05
563.75	46124.94
563.92	46394.10
564.08	46206.86
564.24	46485.38
564.41	46560.28
564.57	46312.18
564.74	46532.19
564.90	46377.72
565.07	46267.71
565.23	46073.45
565.39	46323.88
565.56	46586.02
565.72	46506.44
565.88	46466.66
566.05	46616.45
566.21	46452.61
566.38	46698.37
566.54	46813.05
566.70	46295.80
566.87	46557.94
567.03	46925.40
567.19	46581.34
567.36	46513.47
567.52	46550.91
567.68	47246.05
567.85	46918.38
568.01	47068.17
568.17	46649.22
568.34	46843.48
568.50	46871.57
568.66	46756.88
568.83	47175.84
568.99	46890.29
569.15	47222.65
569.32	46588.36
569.48	46712.41
569.64	46635.17
569.81	46946.47
569.97	47166.48
570.13	47269.46
570.30	46948.81
570.46	46934.76
570.62	46838.80
570.78	46934.76
570.95	47470.75
571.11	47007.32
571.27	47180.52
571.43	47054.13
571.60	47360.74
571.76	47311.59
571.92	47243.71
572.09	47316.27
572.25	47016.68
572.41	46843.48
572.57	47133.71
572.74	47587.77
572.90	46976.89
573.06	47117.32
573.22	47482.45
573.38	47550.32
573.55	47683.73
573.71	47721.18
573.87	47227.33
574.03	47407.55
574.20	47491.81
574.36	47323.29
574.52	47615.86
574.68	47075.19
574.84	47351.38
575.01	47657.99
575.17	47224.99
575.33	47629.90
575.49	47463.72
575.65	47075.19
575.82	47210.95
575.98	47161.79
576.14	47482.45
576.30	47817.14
576.46	47494.15
576.62	47299.89
576.79	47430.96
576.95	47470.75
577.11	47140.73
577.27	47243.71
577.43	47384.15
577.59	47545.64
577.75	47175.84
577.92	47349.04
578.08	47409.89
578.24	47325.63
578.40	47650.97
578.56	47737.57
578.72	47643.94
578.88	47367.76
579.04	47585.43
579.21	47501.17
579.37	47356.06
579.53	47739.91
579.69	47452.02
579.85	47566.71
580.01	47627.56
580.17	47728.20
580.33	47402.87
580.49	47702.46
580.65	47674.37
580.82	47519.90
580.98	47470.75
581.14	47065.83
581.30	47910.77
581.46	47283.50
581.62	47030.72
581.78	47283.50
581.94	47847.57
582.10	47721.18
582.26	47824.17
582.42	47601.82
582.58	47971.62
582.74	47711.82
582.90	47517.56
583.06	48062.90
583.22	47379.46
583.38	47838.21
583.54	47679.05
583.70	47473.09
583.86	47842.89
584.02	47239.03
584.18	47807.78
584.34	47732.89
584.50	48009.07
584.66	47672.03
584.82	48184.61
584.98	48472.49
585.14	47934.17
585.30	47915.45
585.46	47400.53
585.62	47721.18
585.78	47878.00
585.94	47569.05
586.10	47597.13
586.26	47367.76
586.42	47564.37
586.58	47580.75
586.74	47854.59
586.90	47409.89
587.06	48025.45
587.22	48011.41
587.38	47246.05
587.54	48002.05
587.70	48172.91
587.86	47969.28
588.02	47648.63
588.18	47870.98
588.34	47840.55
588.49	48086.31
588.65	47716.50
588.81	47959.92
588.97	47915.45
589.13	47955.24
589.29	47798.42
589.45	48114.39
589.61	47948.21
589.77	48060.56
589.93	48203.33
590.08	48161.20
