SpectraSuite Data File
++++++++++++++++++++++++++++++++++++
Date: Fri Oct 25 10:48:27 EDT 2013
User: price-jones
Dark Spectrum Present: No
Reference Spectrum Present: No
Number of Sampled Component Spectra: 1
Spectrometers: USB2+H05261
Integration Time (usec): 100000 (USB2+H05261)
Spectra Averaged: 1 (USB2+H05261)
Boxcar Smoothing: 0 (USB2+H05261)
Correct for Electrical Dark: No (USB2+H05261)
Strobe/Lamp Enabled: No (USB2+H05261)
Correct for Detector Non-linearity: No (USB2+H05261)
Correct for Stray Light: No (USB2+H05261)
Number of Pixels in Processed Spectrum: 2048
>>>>>Begin Processed Spectral Data<<<<<
365.73	142.77
365.92	142.77
366.12	142.77
366.32	56.17
366.52	107.66
366.72	67.88
366.91	42.13
367.11	28.09
367.31	14.04
367.51	93.62
367.70	70.22
367.90	37.45
368.10	0.00
368.30	65.54
368.49	30.43
368.69	58.51
368.89	7.02
369.09	128.73
369.28	4.68
369.48	46.81
369.68	177.88
369.87	107.66
370.07	25.75
370.27	112.35
370.47	229.37
370.66	442.36
370.86	500.87
371.06	458.74
371.25	496.19
371.45	472.79
371.65	468.11
371.84	435.34
372.04	461.09
372.24	545.34
372.44	395.55
372.63	554.71
372.83	505.56
373.03	540.66
373.22	484.49
373.42	533.64
373.62	571.09
373.81	608.54
374.01	573.43
374.21	533.64
374.40	547.69
374.60	575.77
374.79	444.70
374.99	580.45
375.19	594.50
375.38	709.18
375.58	634.29
375.78	655.35
375.97	690.46
376.17	695.14
376.37	606.20
376.56	599.18
376.76	631.94
376.95	662.37
377.15	610.88
377.35	664.71
377.54	613.22
377.74	645.99
377.93	664.71
378.13	678.76
378.33	711.52
378.52	599.18
378.72	678.76
378.91	685.78
379.11	617.90
379.31	688.12
379.50	631.94
379.70	741.95
379.89	711.52
380.09	627.26
380.28	643.65
380.48	711.52
380.68	741.95
380.87	683.44
381.07	713.86
381.26	833.23
381.46	706.84
381.65	737.27
381.85	711.52
382.04	688.12
382.24	692.80
382.43	690.46
382.63	732.59
382.83	683.44
383.02	727.91
383.22	784.08
383.41	690.46
383.61	716.20
383.80	802.80
384.00	863.66
384.19	788.76
384.39	835.57
384.58	812.17
384.78	784.08
384.97	755.99
385.17	922.17
385.36	830.89
385.56	788.76
385.75	833.23
385.95	777.06
386.14	884.72
386.34	851.96
386.53	821.53
386.72	711.52
386.92	894.08
387.11	926.85
387.31	873.02
387.50	884.72
387.70	915.15
387.89	849.61
388.09	910.47
388.28	938.55
388.48	924.51
388.67	873.02
388.86	987.71
389.06	931.53
389.25	924.51
389.45	978.34
389.64	1008.77
389.84	999.41
390.03	1104.73
390.22	992.39
390.42	990.05
390.61	1008.77
390.81	1001.75
391.00	1100.05
391.19	1107.07
391.39	992.39
391.58	1102.39
391.78	1149.20
391.97	1149.20
392.16	1029.84
392.36	983.02
392.55	1020.47
392.75	1022.81
392.94	1088.35
393.13	1109.41
393.33	1015.79
393.52	1135.16
393.71	1095.37
393.91	1125.80
394.10	1130.48
394.29	1181.97
394.49	1135.16
394.68	1170.27
394.88	1198.35
395.07	1259.21
395.26	1240.48
395.46	1186.65
395.65	1259.21
395.84	1249.85
396.04	1263.89
396.23	1186.65
396.42	1130.48
396.62	1158.57
396.81	1188.99
397.00	1233.46
397.19	1352.83
397.39	1263.89
397.58	1315.38
397.77	1362.19
397.97	1413.68
398.16	1294.32
398.35	1462.83
398.55	1434.75
398.74	1430.07
398.93	1544.75
399.12	1469.86
399.32	1474.54
399.51	1577.52
399.70	1509.65
399.90	1582.20
400.09	1614.97
400.28	1572.84
400.47	1493.26
400.67	1696.89
400.86	1647.74
401.05	1710.93
401.24	1673.48
401.44	1629.01
401.63	1600.93
401.82	1706.25
402.01	1680.50
402.21	1657.10
402.40	1767.10
402.59	1767.10
402.78	1792.85
402.97	1624.33
403.17	1790.51
403.36	1753.06
403.55	1762.42
403.74	1816.26
403.93	1825.62
404.13	1804.55
404.32	1802.21
404.51	1874.77
404.70	1891.15
404.89	1893.49
405.09	1959.03
405.28	1898.17
405.47	1970.73
405.66	1912.22
405.85	1914.56
406.05	1916.90
406.24	2043.29
406.43	1937.96
406.62	2083.08
406.81	2099.46
407.00	2064.35
407.20	2003.50
407.39	2115.84
407.58	2291.38
407.77	2066.69
407.96	2134.57
408.15	2200.10
408.34	2181.38
408.54	2363.94
408.73	2321.81
408.92	2197.76
409.11	2279.68
409.30	2209.47
409.49	2303.09
409.68	2232.87
409.87	2216.49
410.07	2303.09
410.26	2375.64
410.45	2373.30
410.64	2307.77
410.83	2502.03
411.02	2406.07
411.21	2504.37
411.40	2499.69
411.59	2509.05
411.78	2665.87
411.98	2511.39
412.17	2590.97
412.36	2780.56
412.55	2623.74
412.74	2644.81
412.93	2710.34
413.12	2665.87
413.31	2764.17
413.50	2803.96
413.69	2832.05
413.88	2803.96
414.07	2862.48
414.26	2951.42
414.45	2841.41
414.64	2939.71
414.83	2972.48
415.02	3082.49
415.22	3026.31
415.41	3190.15
415.60	3105.89
415.79	3115.25
415.98	3225.26
416.17	3260.37
416.36	3159.72
416.55	3080.14
416.74	3265.05
416.93	3164.40
417.12	3276.75
417.31	3241.64
417.50	3431.23
417.69	3407.82
417.88	3461.65
418.07	3349.31
418.26	3372.71
418.45	3396.12
418.64	3478.04
418.83	3463.99
419.02	3576.34
419.21	3616.13
419.39	3482.72
419.58	3426.54
419.77	3588.04
419.96	3524.85
420.15	3768.26
420.34	3735.50
420.53	3660.60
420.72	3728.47
420.91	3688.68
421.10	3705.07
421.29	3843.16
421.48	3735.50
421.67	3824.44
421.86	3667.62
422.05	3854.86
422.24	3721.45
422.43	3857.20
422.61	3801.03
422.80	3796.35
422.99	3819.75
423.18	3936.78
423.37	3887.63
423.56	3887.63
423.75	3925.08
423.94	3798.69
424.13	3733.15
424.32	3866.56
424.50	3899.33
424.69	3899.33
424.88	3878.27
425.07	3896.99
425.26	3864.22
425.45	3880.61
425.64	3946.14
425.83	3929.76
426.01	3983.59
426.20	3932.10
426.39	3941.46
426.58	3770.60
426.77	3838.48
426.96	3974.23
427.15	3906.35
427.33	4063.17
427.52	4032.74
427.71	4194.24
427.90	4088.92
428.09	4049.13
428.28	4086.58
428.46	4084.23
428.65	4175.52
428.84	4147.43
429.03	4175.52
429.22	4119.34
429.40	4044.45
429.59	4056.15
429.78	3880.61
429.97	3964.87
430.16	3929.76
430.34	4229.35
430.53	4271.48
430.72	4208.28
430.91	4119.34
431.10	4407.23
431.28	4545.32
431.47	4585.11
431.66	4634.26
431.85	4395.53
432.03	4376.80
432.22	4655.33
432.41	4751.29
432.60	4660.01
432.79	4678.73
432.97	4741.93
433.16	4711.50
433.35	4566.39
433.54	4627.24
433.72	4634.26
433.91	4561.70
434.10	4746.61
434.28	4746.61
434.47	4880.02
434.66	4943.21
434.85	5053.22
435.03	4903.42
435.22	4983.00
435.41	5163.22
435.59	4880.02
435.78	5116.41
435.97	4997.04
436.16	5195.99
436.34	5242.80
436.53	5109.39
436.72	5228.76
436.90	4983.00
437.09	5085.98
437.28	5174.92
437.46	4975.98
437.65	5104.71
437.84	5135.14
438.02	5212.37
438.21	5263.86
438.40	5186.63
438.58	5291.95
438.77	5294.29
438.96	5413.66
439.14	5359.83
439.33	5373.87
439.52	5504.94
439.70	5694.52
439.89	5701.54
440.08	5586.86
440.26	5526.00
440.45	5738.99
440.63	5792.83
440.82	5930.92
441.01	5888.79
441.19	5841.98
441.38	6094.76
441.57	6085.39
441.75	6251.57
441.94	6127.52
442.12	6216.46
442.31	6190.72
442.50	6122.84
442.68	6239.87
442.87	6179.01
443.05	6258.59
443.24	6352.21
443.43	6410.73
443.61	6438.81
443.80	6572.22
443.98	6216.46
444.17	6216.46
444.35	6471.58
444.54	6417.75
444.73	6370.94
444.91	6558.18
445.10	6345.19
445.28	6492.65
445.47	6246.89
445.65	6450.52
445.84	6544.14
446.02	6417.75
446.21	6307.74
446.39	6502.01
446.58	6399.02
446.77	6541.80
446.95	6324.13
447.14	6518.39
447.32	6663.51
447.51	6747.76
447.69	6576.91
447.88	6590.95
448.06	6691.59
448.25	6729.04
448.43	6729.04
448.62	6729.04
448.80	6726.70
448.99	6740.74
449.17	6850.75
449.36	6649.46
449.54	6771.17
449.73	7059.06
449.91	6839.05
450.10	7286.09
450.28	6998.20
450.46	7148.00
450.65	7201.83
450.83	7211.19
451.02	7059.06
451.20	7236.94
451.39	7194.81
451.57	7037.99
451.76	7131.61
451.94	7204.17
452.13	7265.02
452.31	7117.57
452.49	6871.81
452.68	7115.23
452.86	7279.07
453.05	7075.44
453.23	7089.48
453.42	7314.17
453.60	7286.09
453.78	7293.11
453.97	7314.17
454.15	7201.83
454.34	7307.15
454.52	7424.18
454.70	7456.95
454.89	7569.29
455.07	7494.40
455.26	7604.40
455.44	7501.42
455.62	7595.04
455.81	7667.60
455.99	7627.81
456.17	7733.13
456.36	7707.38
456.54	7896.97
456.73	7887.61
456.91	8121.66
457.09	7913.35
457.28	8198.90
457.46	7728.45
457.64	7964.84
457.83	8046.76
458.01	8088.89
458.19	8175.49
458.38	8002.29
458.56	8088.89
458.74	7943.78
458.93	8182.51
459.11	8278.47
459.29	8264.43
459.48	8079.53
459.66	8187.19
459.84	8299.54
460.03	8404.86
460.21	8458.70
460.39	8404.86
460.57	8489.12
460.76	8580.40
460.94	8468.06
461.12	8592.11
461.31	8762.97
461.49	8402.52
461.67	8442.31
461.85	8753.60
462.04	8767.65
462.22	9121.07
462.40	8889.35
462.59	8655.30
462.77	8732.54
462.95	9088.30
463.13	8786.37
463.32	8870.63
463.50	8868.29
463.68	8739.56
463.86	9191.28
464.05	8863.61
464.23	8554.66
464.41	8980.64
464.59	8805.10
464.78	9205.33
464.96	9064.89
465.14	9200.65
465.32	9207.67
465.50	9179.58
465.69	9415.98
465.87	9210.01
466.05	8990.00
466.23	8994.68
466.41	9142.13
466.60	9277.88
466.78	9095.32
466.96	9329.38
467.14	9242.78
467.32	9231.07
467.51	9448.74
467.69	9233.41
467.87	9100.00
468.05	9476.83
468.23	9336.40
468.41	9305.97
468.60	9336.40
468.78	9628.96
468.96	9528.32
469.14	9827.91
469.32	9774.08
469.50	9525.98
469.69	9568.11
469.87	9975.36
470.05	9748.33
470.23	9671.09
470.41	9745.99
470.59	9813.87
470.77	9755.35
470.95	10113.45
471.14	9996.43
471.32	9790.46
471.50	10317.08
471.68	10209.42
471.86	10242.18
472.04	10127.50
472.22	10466.88
472.40	10197.71
472.58	10511.35
472.77	10361.55
472.95	10459.85
473.13	10583.90
473.31	10499.64
473.49	10300.70
473.67	10457.51
473.85	10925.62
474.03	10827.32
474.21	10857.75
474.39	10885.83
474.57	10668.16
474.75	11007.54
474.93	11211.17
475.12	11492.03
475.30	11164.36
475.48	11119.89
475.66	11288.40
475.84	11222.87
476.02	11618.42
476.20	11398.41
476.38	11590.33
476.56	11719.06
476.74	11618.42
476.92	11707.36
477.10	11653.53
477.28	11974.18
477.46	11992.90
477.64	12205.89
477.82	12138.02
478.00	12573.36
478.18	12128.66
478.36	12489.10
478.54	12554.63
478.72	12730.17
478.90	12610.81
479.08	12779.32
479.26	13071.89
479.44	13008.70
479.62	12954.87
479.80	13107.00
479.98	13268.50
480.16	13542.34
480.34	13294.24
480.52	13738.94
480.70	13715.54
480.88	13703.84
481.06	13818.52
481.24	14061.94
481.41	14078.32
481.59	14310.04
481.77	14384.93
481.95	14347.48
482.13	14434.08
482.31	14391.95
482.49	14871.76
482.67	14956.02
482.85	15276.68
483.03	14810.91
483.21	15105.82
483.39	15051.99
483.57	15269.66
483.74	15728.40
483.92	15545.84
484.10	15222.84
484.28	15793.94
484.46	16084.16
484.64	16168.42
484.82	15887.56
485.00	16095.86
485.18	16582.70
485.35	16189.49
485.53	15969.48
485.71	16051.39
485.89	16432.90
486.07	16592.06
486.25	16418.86
486.43	16671.64
486.61	17003.99
486.78	17011.01
486.96	17532.95
487.14	17399.54
487.32	17666.36
487.50	17685.09
487.68	17790.41
487.85	18324.05
488.03	18324.05
488.21	18492.57
488.39	18452.78
488.57	18637.69
488.75	18689.18
488.92	18953.66
489.10	19489.64
489.28	19117.50
489.46	19323.46
489.64	19784.55
489.81	19992.86
489.99	19871.15
490.17	20006.90
490.35	20470.33
490.53	20191.80
490.70	20589.69
490.88	20313.51
491.06	20924.39
491.24	20669.27
491.41	20570.97
491.59	20926.73
491.77	20734.81
491.95	20692.68
492.13	21184.19
492.30	21546.97
492.48	21825.50
492.66	21837.20
492.84	21443.99
493.01	21839.54
493.19	21907.41
493.37	21865.28
493.54	22354.46
493.72	22309.99
493.90	22396.59
494.08	22483.19
494.25	22822.56
494.43	23087.04
494.61	22948.95
494.79	23225.14
494.96	23054.28
495.14	23468.55
495.32	23510.68
495.49	23604.30
495.67	23440.47
495.85	24060.71
496.02	24032.62
496.20	23931.98
496.38	24301.78
496.55	24233.91
496.73	25310.55
496.91	24699.67
497.09	24734.78
497.26	24718.40
497.44	24907.98
497.62	25137.35
497.79	25092.88
497.97	24982.88
498.14	25642.91
498.32	25406.52
498.50	25462.69
498.67	25886.32
498.85	25912.07
499.03	26143.78
499.20	26305.28
499.38	26036.12
499.56	25982.29
499.73	26656.36
499.91	26342.73
500.08	26803.82
500.26	26373.16
500.44	26768.71
500.61	26525.29
500.79	26398.90
500.97	26874.03
501.14	27222.77
501.32	27089.36
501.49	27419.38
501.67	27241.50
501.84	27187.66
502.02	27552.79
502.20	27466.19
502.37	27833.65
502.55	27828.97
502.72	28044.30
502.90	28084.09
503.07	27948.34
503.25	28266.65
503.43	28357.93
503.60	28128.56
503.78	28109.83
503.95	27943.66
504.13	28390.70
504.30	28783.91
504.48	28772.21
504.65	28723.05
504.83	29020.30
505.01	29160.73
505.18	28737.10
505.36	29600.76
505.53	29163.08
505.71	29818.42
505.88	30197.59
506.06	29530.54
506.23	29783.32
506.41	29453.30
506.58	29862.90
506.76	29827.79
506.93	30253.76
507.11	29851.19
507.28	30073.54
507.46	30038.44
507.63	30017.37
507.81	30218.66
507.98	29921.41
508.16	30597.82
508.33	30417.60
508.50	30796.77
508.68	30925.50
508.85	31058.91
509.03	30478.46
509.20	30974.65
509.38	31309.35
509.55	31021.46
509.73	31159.55
509.90	31316.37
510.08	31164.23
510.25	31171.25
510.42	31290.62
510.60	31835.97
510.77	31842.99
510.95	31985.76
511.12	32027.89
511.30	32233.86
511.47	32423.44
511.64	32306.41
511.82	32533.45
511.99	32100.45
512.17	32275.99
512.34	32577.92
512.51	32767.50
512.69	32685.58
512.86	32549.83
513.04	33141.99
513.21	32868.14
513.38	32280.67
513.56	33340.93
513.73	32772.18
513.90	33137.30
514.08	32907.93
514.25	33291.78
514.43	33216.88
514.60	33034.32
514.77	33113.90
514.95	33516.47
515.12	33198.16
515.29	33584.35
515.47	34277.15
515.64	33858.19
515.81	33893.30
515.99	33394.76
516.16	33867.55
516.33	33937.77
516.51	33752.87
516.68	33364.34
516.85	33113.90
517.03	33469.66
517.20	33986.92
517.37	34071.18
517.54	33984.58
517.72	33965.85
517.89	33640.52
518.06	34183.52
518.24	34326.30
518.41	34075.86
518.58	34143.74
518.75	34604.82
518.93	34810.79
519.10	34384.81
519.27	35054.20
519.45	34820.15
519.62	35522.31
519.79	35101.01
519.96	35573.80
520.14	35714.23
520.31	35306.98
520.48	35534.01
520.65	35878.07
520.83	35957.65
521.00	36002.12
521.17	35817.22
521.34	35938.93
521.52	36449.16
521.69	36339.16
521.86	36488.95
522.03	36030.21
522.20	36252.56
522.38	36421.08
522.55	36730.03
522.72	36748.75
522.89	36540.44
523.07	36285.33
523.24	36266.60
523.41	37041.32
523.58	36383.63
523.75	36985.15
523.92	37083.45
524.10	37268.35
524.27	37198.13
524.44	37455.59
524.61	37111.53
524.78	37603.05
524.96	37317.50
525.13	37846.46
525.30	37565.60
525.47	37762.20
525.64	37818.38
525.81	37453.25
525.98	37713.05
526.16	37471.98
526.33	37104.51
526.50	37584.32
526.67	37572.62
526.84	37811.35
527.01	37633.47
527.18	38232.65
527.36	38349.68
527.53	38061.79
527.70	38756.93
527.87	38309.89
528.04	38616.50
528.21	38499.47
528.38	38857.57
528.55	39082.27
528.72	38518.20
528.89	39047.16
529.07	38649.27
529.24	38763.95
529.41	38707.78
529.58	38663.31
529.75	38909.07
529.92	38864.60
530.09	39002.69
530.26	39040.14
530.43	39597.18
530.60	39234.40
530.77	38983.96
530.94	39416.96
531.11	39236.74
531.28	39955.29
531.46	39810.17
531.63	39796.13
531.80	39700.17
531.97	39555.05
532.14	39838.26
532.31	39110.35
532.48	39639.31
532.65	39714.21
532.82	39927.20
532.99	39856.98
533.16	39882.73
533.33	40011.46
533.50	40304.02
533.67	39988.05
533.84	40168.27
534.01	39896.77
534.18	40175.30
534.35	40924.27
534.52	40212.74
534.69	40622.34
534.86	40847.03
535.03	40353.18
535.20	41350.24
535.37	40722.98
535.54	40802.56
535.71	40694.89
535.88	40821.28
536.05	40711.28
536.22	40992.14
536.38	41017.89
536.55	40856.39
536.72	40790.86
536.89	40886.82
537.06	41045.97
537.23	41455.57
537.40	41329.18
537.57	41167.68
537.74	40959.38
537.91	41567.91
538.08	41237.90
538.25	41055.34
538.42	41181.73
538.59	41684.94
538.75	41099.81
538.92	41221.52
539.09	42010.28
539.26	41794.95
539.43	41811.33
539.60	41392.37
539.77	41507.06
539.94	41462.59
540.11	41256.62
540.28	41792.61
540.44	41455.57
540.61	41663.88
540.78	41219.17
540.95	41750.48
541.12	41818.35
541.29	41708.35
541.46	41876.86
541.62	42059.43
541.79	42274.76
541.96	41876.86
542.13	42078.15
542.30	41930.70
542.47	42246.67
542.63	42223.26
542.80	42852.87
542.97	42623.50
543.14	42518.17
543.31	42682.01
543.48	42941.81
543.64	43239.06
543.81	43288.21
543.98	42754.57
544.15	42880.95
544.32	43126.71
544.48	43285.87
544.65	42876.27
544.82	43168.84
544.99	42913.72
545.16	43021.39
545.32	43157.14
545.49	43398.21
545.66	43285.87
545.83	43627.59
546.00	43653.33
546.16	43299.91
546.33	43428.64
546.50	43072.88
546.67	43498.86
546.83	43044.79
547.00	43480.13
547.17	43206.29
547.34	43709.50
547.50	43512.90
547.67	44065.27
547.84	43723.55
548.00	43742.27
548.17	44065.27
548.34	43461.41
548.51	43945.90
548.67	44378.90
548.84	43803.13
549.01	43927.17
549.18	43779.72
549.34	44041.86
549.51	44388.26
549.68	44196.34
549.84	44301.66
550.01	44194.00
550.18	43880.36
550.34	44289.96
550.51	44088.67
550.68	44224.42
550.84	44137.82
551.01	44229.10
551.18	44051.22
551.34	44039.52
551.51	44774.45
551.68	44662.10
551.84	44584.86
552.01	44196.34
552.18	44268.89
552.34	44617.63
552.51	44072.29
552.68	44500.61
552.84	44516.99
553.01	44928.92
553.18	44542.74
553.34	44776.79
553.51	44254.85
553.67	44755.72
553.84	45113.83
554.01	45591.30
554.17	44949.99
554.34	44865.73
554.51	44996.80
554.67	45095.10
554.84	45237.87
555.00	44645.72
555.17	45099.78
555.33	45031.91
555.50	44872.75
555.67	45305.75
555.83	44996.80
556.00	45139.57
556.16	45624.06
556.33	45373.63
556.50	45436.82
556.66	45298.73
556.83	44713.59
556.99	45177.02
557.16	44928.92
557.32	45404.05
557.49	45404.05
557.65	44921.90
557.82	45244.90
557.98	45237.87
558.15	45043.61
558.32	45469.59
558.48	45432.14
558.65	45272.98
558.81	45357.24
558.98	45551.51
559.14	45453.20
559.31	45207.45
559.47	45659.17
559.64	45497.67
559.80	45661.51
559.97	45322.13
560.13	45067.02
560.30	45375.97
560.46	45439.16
560.63	45595.98
560.79	45904.93
560.96	45804.28
561.12	45825.35
561.29	45757.47
561.45	45565.55
561.61	45858.12
561.78	45722.37
561.94	45778.54
562.11	45205.11
562.27	46036.00
562.44	45588.95
562.60	46087.49
562.77	45727.05
562.93	45717.68
563.10	46038.34
563.26	45808.96
563.42	46340.27
563.59	45757.47
563.75	45848.75
563.92	45771.52
564.08	46064.08
564.24	46251.33
564.41	46164.73
564.57	45762.15
564.74	45923.65
564.90	45830.03
565.07	46218.56
565.23	45951.74
565.39	45792.58
565.56	46478.36
565.72	46080.47
565.88	45895.56
566.05	46134.30
566.21	46131.96
566.38	46085.15
566.54	46092.17
566.70	46618.79
566.87	46593.04
567.03	46272.39
567.19	46387.08
567.36	46270.05
567.52	45624.06
567.68	46454.95
567.85	45874.50
568.01	46138.98
568.17	46117.92
568.34	45965.78
568.50	46007.91
568.66	45977.48
568.83	46188.13
568.99	46087.49
569.15	45963.44
569.32	46230.26
569.48	46176.43
569.64	46260.69
569.81	46396.44
569.97	45963.44
570.13	46520.49
570.30	46078.13
570.46	46127.28
570.62	45717.68
570.78	45965.78
570.95	46408.14
571.11	46639.86
571.27	45787.90
571.43	46344.95
571.60	46225.58
571.76	46155.36
571.92	46550.91
572.09	46274.73
572.25	46244.30
572.41	46188.13
572.57	46288.77
572.74	46693.69
572.90	46314.52
573.06	46562.62
573.22	46670.28
573.38	46160.05
573.55	46286.43
573.71	46426.87
573.87	46686.67
574.03	46080.47
574.20	46487.72
574.36	46401.12
574.52	46497.08
574.68	46576.66
574.84	46677.30
575.01	46401.12
575.17	46506.44
575.33	46108.55
575.49	46038.34
575.65	46398.78
575.82	46672.62
575.98	46789.65
576.14	46506.44
576.30	46382.40
576.46	46756.88
576.62	46085.15
576.79	45970.46
576.95	45940.04
577.11	46412.82
577.27	46822.42
577.43	46450.27
577.59	46532.19
577.75	46492.40
577.92	45720.02
578.08	45724.71
578.24	46375.37
578.40	46335.59
578.56	46410.48
578.72	46284.09
578.88	46820.08
579.04	46452.61
579.21	46543.89
579.37	46141.32
579.53	46244.30
579.69	46167.07
579.85	46848.16
580.01	46576.66
580.17	45883.86
580.33	46906.68
580.49	46382.40
580.65	46466.66
580.82	46536.87
580.98	46239.62
581.14	46134.30
581.30	46745.18
581.46	46162.39
581.62	46218.56
581.78	46494.74
581.94	47021.36
582.10	46447.93
582.26	46586.02
582.42	46773.27
582.58	46499.42
582.74	46440.91
582.90	46539.21
583.06	46583.68
583.22	46518.15
583.38	47356.06
583.54	46934.76
583.70	46543.89
583.86	46213.88
584.02	46312.18
584.18	46293.46
584.34	46806.03
584.50	46941.78
584.66	46539.21
584.82	46445.59
584.98	46759.22
585.14	46417.50
585.30	46382.40
585.46	46740.50
585.62	46614.11
585.78	46543.89
585.94	46124.94
586.10	46466.66
586.26	46321.54
586.42	46909.02
586.58	46920.72
586.74	46412.82
586.90	46504.10
587.06	46899.65
587.22	46600.07
587.38	46241.96
587.54	46808.37
587.70	46625.81
587.86	47107.96
588.02	46780.29
588.18	46646.88
588.34	46588.36
588.49	46363.67
588.65	46148.34
588.81	46024.29
588.97	46305.16
589.13	45804.28
589.29	46454.95
589.45	46239.62
589.61	46560.28
589.77	46340.27
589.93	46614.11
