SpectraSuite Data File
++++++++++++++++++++++++++++++++++++
Date: Fri Oct 25 11:34:35 EDT 2013
User: price-jones
Dark Spectrum Present: No
Reference Spectrum Present: No
Number of Sampled Component Spectra: 1
Spectrometers: USB2+H05261
Integration Time (usec): 100000 (USB2+H05261)
Spectra Averaged: 1 (USB2+H05261)
Boxcar Smoothing: 0 (USB2+H05261)
Correct for Electrical Dark: No (USB2+H05261)
Strobe/Lamp Enabled: No (USB2+H05261)
Correct for Detector Non-linearity: No (USB2+H05261)
Correct for Stray Light: No (USB2+H05261)
Number of Pixels in Processed Spectrum: 2048
>>>>>Begin Processed Spectral Data<<<<<
365.73	318.31
365.92	318.31
366.12	318.31
366.32	205.97
366.52	208.31
366.72	285.55
366.91	184.90
367.11	166.18
367.31	88.94
367.51	140.43
367.70	131.07
367.90	184.90
368.10	173.20
368.30	175.54
368.49	170.86
368.69	147.45
368.89	245.76
369.09	177.88
369.28	154.48
369.48	168.52
369.68	208.31
369.87	299.59
370.07	205.97
370.27	304.27
370.47	315.97
370.66	503.22
370.86	531.30
371.06	465.77
371.25	543.00
371.45	561.73
371.65	568.75
371.84	489.17
372.04	568.75
372.24	538.32
372.44	533.64
372.63	524.28
372.83	622.58
373.03	582.79
373.22	547.69
373.42	538.32
373.62	545.34
373.81	643.65
374.01	638.97
374.21	547.69
374.40	608.54
374.60	610.88
374.79	608.54
374.99	671.73
375.19	702.16
375.38	624.92
375.58	678.76
375.78	617.90
375.97	664.71
376.17	660.03
376.37	692.80
376.56	695.14
376.76	664.71
376.95	641.31
377.15	772.38
377.35	674.07
377.54	667.05
377.74	629.60
377.93	603.86
378.13	702.16
378.33	725.57
378.52	692.80
378.72	685.78
378.91	706.84
379.11	678.76
379.31	678.76
379.50	664.71
379.70	751.31
379.89	692.80
380.09	702.16
380.28	720.88
380.48	767.70
380.68	720.88
380.87	683.44
381.07	751.31
381.26	753.65
381.46	727.91
381.65	798.12
381.85	763.01
382.04	753.65
382.24	802.80
382.43	763.01
382.63	711.52
382.83	816.85
383.02	835.57
383.22	807.48
383.41	760.67
383.61	727.91
383.80	837.91
384.00	751.31
384.19	727.91
384.39	746.63
384.58	786.42
384.78	849.61
384.97	791.10
385.17	814.51
385.36	807.48
385.56	753.65
385.75	767.70
385.95	894.08
386.14	903.45
386.34	840.25
386.53	840.25
386.72	842.59
386.92	898.77
387.11	943.24
387.31	807.48
387.50	849.61
387.70	791.10
387.89	819.19
388.09	844.93
388.28	798.12
388.48	889.40
388.67	851.96
388.86	940.90
389.06	910.47
389.25	945.58
389.45	856.64
389.64	898.77
389.84	959.62
390.03	931.53
390.22	936.21
390.42	945.58
390.61	924.51
390.81	1001.75
391.00	910.47
391.19	950.26
391.39	952.60
391.58	1043.88
391.78	1076.65
391.97	961.96
392.16	940.90
392.36	987.71
392.55	1032.18
392.75	1053.24
392.94	976.00
393.13	947.92
393.33	1015.79
393.52	1034.52
393.71	1032.18
393.91	1069.62
394.10	1111.75
394.29	1100.05
394.49	1036.86
394.68	1083.67
394.88	1107.07
395.07	1043.88
395.26	1043.88
395.46	1132.82
395.65	1149.20
395.84	1135.16
396.04	1247.51
396.23	1100.05
396.42	1144.52
396.62	1160.91
396.81	1184.31
397.00	1179.63
397.19	1242.82
397.39	1214.74
397.58	1048.56
397.77	1116.44
397.97	1179.63
398.16	1181.97
398.35	1259.21
398.55	1207.72
398.74	1259.21
398.93	1362.19
399.12	1142.18
399.32	1252.19
399.51	1174.95
399.70	1327.08
399.90	1301.34
400.09	1327.08
400.28	1254.53
400.47	1249.85
400.67	1378.58
400.86	1324.74
401.05	1425.39
401.24	1380.92
401.44	1373.89
401.63	1352.83
401.82	1296.66
402.01	1348.15
402.21	1329.42
402.40	1439.43
402.59	1406.66
402.78	1385.60
402.97	1437.09
403.17	1481.56
403.36	1448.79
403.55	1551.78
403.74	1483.90
403.93	1476.88
404.13	1516.67
404.32	1458.15
404.51	1530.71
404.70	1633.69
404.89	1572.84
405.09	1647.74
405.28	1774.13
405.47	1586.88
405.66	1640.72
405.85	1596.25
406.05	1654.76
406.24	1774.13
406.43	1685.19
406.62	1748.38
406.81	1675.82
407.00	1593.90
407.20	1673.48
407.39	1715.61
407.58	1762.42
407.77	1736.68
407.96	1760.08
408.15	1811.57
408.34	1769.44
408.54	1724.97
408.73	1792.85
408.92	1837.32
409.11	1881.79
409.30	1905.20
409.49	1928.60
409.68	1933.28
409.87	1912.22
410.07	2017.54
410.26	1846.68
410.45	1940.30
410.64	1952.01
410.83	2076.06
411.02	2040.95
411.21	2129.89
411.40	2174.36
411.59	2174.36
411.78	2043.29
411.98	2101.80
412.17	2214.15
412.36	2162.66
412.55	2188.40
412.74	2310.11
412.93	2249.25
413.12	2172.02
413.31	2253.94
413.50	2272.66
413.69	2291.38
413.88	2331.17
414.07	2335.85
414.26	2518.42
414.45	2427.14
414.64	2373.30
414.83	2279.68
415.02	2441.18
415.22	2490.33
415.41	2464.58
415.60	2548.84
415.79	2487.99
415.98	2635.44
416.17	2621.40
416.36	2647.15
416.55	2656.51
416.74	2670.55
416.93	2677.57
417.12	2736.09
417.31	2616.72
417.50	2787.58
417.69	2876.52
417.88	2708.00
418.07	2855.45
418.26	2925.67
418.45	2834.39
418.64	3056.74
418.83	2909.29
419.02	2977.16
419.21	3164.40
419.39	2920.99
419.58	2958.44
419.77	2888.22
419.96	3059.08
420.15	2965.46
420.34	3073.12
420.53	3014.61
420.72	3045.04
420.91	3101.21
421.10	2986.52
421.29	3082.49
421.48	3178.45
421.67	3180.79
421.86	3166.74
422.05	3241.64
422.24	3112.91
422.43	3241.64
422.61	3192.49
422.80	3220.58
422.99	3162.06
423.18	3255.69
423.37	3407.82
423.56	3215.90
423.75	3103.55
423.94	3225.26
424.13	3063.76
424.32	3192.49
424.50	3279.09
424.69	3309.52
424.88	3384.41
425.07	3164.40
425.26	3335.26
425.45	3213.56
425.64	3145.68
425.83	3218.24
426.01	3307.18
426.20	3236.96
426.39	3288.45
426.58	3384.41
426.77	3192.49
426.96	3382.07
427.15	3311.86
427.33	3496.76
427.52	3375.05
427.71	3459.31
427.90	3396.12
428.09	3419.52
428.28	3424.20
428.46	3466.33
428.65	3393.78
428.84	3536.55
429.03	3599.74
429.22	3634.85
429.40	3550.59
429.59	3585.70
429.78	3442.93
429.97	3501.44
430.16	3613.79
430.34	3665.28
430.53	3709.75
430.72	3744.86
430.91	3679.32
431.10	3784.65
431.28	3733.15
431.47	3735.50
431.66	3801.03
431.85	3756.56
432.03	3922.74
432.22	3899.33
432.41	3964.87
432.60	3922.74
432.79	3817.41
432.97	3833.80
433.16	3932.10
433.35	3777.62
433.54	3904.01
433.72	4014.02
433.91	4037.42
434.10	4021.04
434.28	3953.16
434.47	4065.51
434.66	3978.91
434.85	4053.81
435.03	4107.64
435.22	3992.95
435.41	4205.94
435.59	4222.33
435.78	4154.45
435.97	4219.99
436.16	4285.52
436.34	4037.42
436.53	4203.60
436.72	4322.97
436.90	4337.01
437.09	4236.37
437.28	4248.07
437.46	4205.94
437.65	4315.95
437.84	4264.46
438.02	4414.25
438.21	4447.02
438.40	4416.59
438.58	4465.74
438.77	4571.07
438.96	4285.52
439.14	4744.27
439.33	4650.64
439.52	4622.56
439.70	4671.71
439.89	4713.84
440.08	4889.38
440.26	4870.65
440.45	4662.35
440.63	4835.55
440.82	4898.74
441.01	4758.31
441.19	4887.04
441.38	5085.98
441.57	4987.68
441.75	5146.84
441.94	5085.98
442.12	5071.94
442.31	5184.29
442.50	5205.35
442.68	5125.77
442.87	5305.99
443.05	5188.97
443.24	5231.10
443.43	5284.93
443.61	5294.29
443.80	5451.11
443.98	5078.96
444.17	5036.83
444.35	5210.03
444.54	5575.16
444.73	5334.08
444.91	5355.15
445.10	5390.25
445.28	5521.32
445.47	5488.56
445.65	5423.02
445.84	5575.16
446.02	5614.95
446.21	5465.15
446.39	5441.75
446.58	5558.77
446.77	5416.00
446.95	5139.82
447.14	5462.81
447.32	5458.13
447.51	5350.46
447.69	5509.62
447.88	5518.98
448.06	5610.26
448.25	5413.66
448.43	5584.52
448.62	5472.17
448.80	5561.11
448.99	5610.26
449.17	5481.53
449.36	5568.13
449.54	5621.97
449.73	5729.63
449.91	5823.25
450.10	5668.78
450.28	5881.77
450.46	5767.08
450.65	5860.70
450.83	5921.56
451.02	5781.12
451.20	5792.83
451.39	5886.45
451.57	5762.40
451.76	5734.31
451.94	5760.06
452.13	5935.60
452.31	5902.83
452.49	5991.77
452.68	5944.96
452.86	6080.71
453.05	5975.39
453.23	6076.03
453.42	6106.46
453.60	5989.43
453.78	6080.71
453.97	6169.65
454.15	6029.22
454.34	5980.07
454.52	6317.11
454.70	6237.53
454.89	6200.08
455.07	6282.00
455.26	6452.86
455.44	6305.40
455.62	6300.72
455.81	6352.21
455.99	6303.06
456.17	6473.92
456.36	6593.29
456.54	6424.77
456.73	6567.54
456.91	6534.78
457.09	6757.13
457.28	6864.79
457.46	6738.40
457.64	6796.92
457.83	6637.76
458.01	6707.98
458.19	7023.95
458.38	6918.62
458.56	6820.32
458.74	6895.22
458.93	6801.60
459.11	6878.83
459.29	6778.19
459.48	6923.30
459.66	7073.10
459.84	6878.83
460.03	7215.87
460.21	7112.89
460.39	7045.01
460.57	7148.00
460.76	7119.91
460.94	7110.55
461.12	7140.97
461.31	7080.12
461.49	7105.87
461.67	7091.82
461.85	7332.90
462.04	7283.75
462.22	7716.75
462.40	7496.74
462.59	7363.33
462.77	7178.42
462.95	7276.73
463.13	7279.07
463.32	7492.05
463.50	7527.16
463.68	7517.80
463.86	7487.37
464.05	7522.48
464.23	7363.33
464.41	7651.21
464.59	7595.04
464.78	7691.00
464.96	7702.70
465.14	7414.82
465.32	7590.36
465.50	7779.94
465.69	7674.62
465.87	7763.56
466.05	7712.07
466.23	7791.64
466.41	7899.31
466.60	7798.66
466.78	7740.15
466.96	7847.82
467.14	7791.64
467.32	7906.33
467.51	7782.28
467.69	7786.96
467.87	7723.77
468.05	7922.71
468.23	7852.50
468.41	8091.23
468.60	7934.42
468.78	8065.49
468.96	8079.53
469.14	8053.78
469.32	8205.92
469.50	8046.76
469.69	8205.92
469.87	8393.16
470.05	8243.37
470.23	8388.48
470.41	8280.82
470.59	8215.28
470.77	8339.33
470.95	8397.84
471.14	8538.27
471.32	8486.78
471.50	8533.59
471.68	8489.12
471.86	8540.61
472.04	8587.43
472.22	8767.65
472.40	8748.92
472.58	8706.79
472.77	8870.63
472.95	8940.85
473.13	9247.46
473.31	8896.38
473.49	9118.73
473.67	9046.17
473.85	9032.13
474.03	9186.60
474.21	9275.54
474.39	9247.46
474.57	9301.29
474.75	9423.00
474.93	9565.77
475.12	9490.87
475.30	9439.38
475.48	9329.38
475.66	9607.90
475.84	9558.75
476.02	9750.67
476.20	9797.48
476.38	9797.48
476.56	10036.22
476.74	10024.51
476.92	9975.36
477.10	9905.15
477.28	10141.54
477.46	10108.77
477.64	10239.84
477.82	10319.42
478.00	10619.01
478.18	10497.30
478.36	10640.08
478.54	10839.02
478.72	10658.80
478.90	10885.83
479.08	10906.90
479.26	11037.97
479.44	11119.89
479.62	11375.00
479.80	11372.66
479.98	11236.91
480.16	11641.82
480.34	11419.47
480.52	11686.29
480.70	11840.77
480.88	11599.70
481.06	11606.72
481.24	11754.17
481.41	12205.89
481.59	12032.69
481.77	12189.51
481.95	12109.93
482.13	12479.74
482.31	12430.59
482.49	12776.98
482.67	12643.57
482.85	12400.16
483.03	12688.04
483.21	13029.76
483.39	13149.13
483.57	12915.08
483.74	13146.79
483.92	13408.93
484.10	13287.22
484.28	13495.53
484.46	13774.05
484.64	13830.23
484.82	13809.16
485.00	13991.72
485.18	13963.64
485.35	14153.22
485.53	14104.07
485.71	14410.68
485.89	14829.63
486.07	14614.30
486.25	14684.52
486.43	14796.87
486.61	14857.72
486.78	15028.58
486.96	14902.19
487.14	15213.48
487.32	15363.28
487.50	15515.41
487.68	15454.56
487.85	15590.31
488.03	15779.89
488.21	16273.74
488.39	16119.27
488.57	15836.06
488.75	16212.89
488.92	16290.13
489.10	16456.31
489.28	16652.91
489.46	16636.53
489.64	16886.97
489.81	16847.18
489.99	17221.66
490.17	17181.87
490.35	17280.18
490.53	17558.70
490.70	17996.38
490.88	17865.31
491.06	17914.46
491.24	17806.80
491.41	17968.29
491.59	17928.50
491.77	18043.19
491.95	18677.48
492.13	18607.26
492.30	18689.18
492.48	18431.72
492.66	18649.39
492.84	18934.93
493.01	19243.88
493.19	19164.31
493.37	19363.25
493.54	19475.60
493.72	19686.25
493.90	19777.53
494.08	19667.52
494.25	19941.36
494.43	19704.97
494.61	20219.89
494.79	20037.33
494.96	20276.06
495.14	20222.23
495.32	20409.47
495.49	20636.50
495.67	20631.82
495.85	20695.02
496.02	20922.05
496.20	21200.57
496.38	21060.14
496.55	20961.84
496.73	21685.06
496.91	21376.11
497.09	21654.64
497.26	21757.62
497.44	21652.30
497.62	21790.39
497.79	22218.71
497.97	22134.45
498.14	22045.51
498.32	22377.86
498.50	22546.38
498.67	22513.61
498.85	22752.35
499.03	22993.42
499.20	23084.70
499.38	22815.54
499.56	22995.76
499.73	23073.00
499.91	23257.90
500.08	23288.33
500.26	23293.01
500.44	23246.20
500.61	23417.06
500.79	23342.16
500.97	23625.37
501.14	24166.03
501.32	24348.59
501.49	23587.92
501.67	24013.90
501.84	24297.10
502.02	23948.36
502.20	23733.03
502.37	24369.66
502.55	24278.38
502.72	24400.08
502.90	24334.55
503.07	24463.28
503.25	24938.41
503.43	24512.43
503.60	24940.75
503.78	25055.43
503.95	25214.59
504.13	24952.45
504.30	25481.41
504.48	25291.83
504.65	25434.60
504.83	25476.73
505.01	25397.15
505.18	25834.83
505.36	26181.23
505.53	25902.71
505.71	25891.01
505.88	26064.21
506.06	26087.61
506.23	26216.34
506.41	25741.21
506.58	26040.80
506.76	26426.99
506.93	26504.23
507.11	26647.00
507.28	26506.57
507.46	26483.16
507.63	26686.79
507.81	27019.14
507.98	27016.80
508.16	26560.40
508.33	27133.83
508.50	27122.13
508.68	27276.60
508.85	27550.45
509.03	27545.76
509.20	27566.83
509.38	27672.15
509.55	27835.99
509.73	27723.65
509.90	27585.55
510.08	28072.39
510.25	27480.23
510.42	28135.58
510.60	28032.60
510.77	28577.94
510.95	28360.27
511.12	28390.70
511.30	28194.09
511.47	28613.05
511.64	28435.17
511.82	28723.05
511.99	28879.87
512.17	28849.44
512.34	28680.92
512.51	28912.64
512.69	29039.03
512.86	29113.92
513.04	29177.12
513.21	29142.01
513.38	29509.47
513.56	29532.88
513.73	29383.09
513.90	29624.16
514.08	29633.52
514.25	29647.57
514.43	29638.20
514.60	29841.83
514.77	29876.94
514.95	30101.63
515.12	30012.69
515.29	30333.34
515.47	30452.71
515.64	30611.87
515.81	30089.93
515.99	30658.68
516.16	30436.33
516.33	30747.62
516.51	30518.25
516.68	30621.23
516.85	30881.03
517.03	31264.88
517.20	31119.76
517.37	30780.39
517.54	31072.95
517.72	31255.51
517.89	30934.86
518.06	31166.57
518.24	31307.01
518.41	31225.09
518.58	31417.01
518.75	31136.15
518.93	31440.42
519.10	31161.89
519.27	31784.48
519.45	31374.88
519.62	31779.79
519.79	31639.36
519.96	31878.10
520.14	31948.31
520.31	31873.42
520.48	32512.38
520.65	31857.03
520.83	32432.80
521.00	32236.20
521.17	32615.37
521.34	32786.22
521.52	32617.71
521.69	32947.72
521.86	33179.43
522.03	32615.37
522.20	33436.89
522.38	33481.36
522.55	33284.76
522.72	33102.20
522.89	33235.61
523.07	33399.44
523.24	33329.23
523.41	33354.97
523.58	33617.11
523.75	33755.21
523.92	33504.77
524.10	33582.01
524.27	33645.20
524.44	33905.00
524.61	33900.32
524.78	33963.51
524.96	34019.69
525.13	34316.93
525.30	34068.84
525.47	34520.56
525.64	34007.98
525.81	34625.89
525.98	34511.20
526.16	34396.51
526.33	34389.49
526.50	34487.79
526.67	34328.64
526.84	34401.19
527.01	34555.67
527.18	34834.19
527.36	34866.96
527.53	34944.20
527.70	35075.27
527.87	35218.04
528.04	34939.52
528.21	34976.97
528.38	35119.74
528.55	35168.89
528.72	35199.32
528.89	35332.73
529.07	35131.44
529.24	35159.53
529.41	35599.55
529.58	35576.14
529.75	35597.21
529.92	35393.58
530.09	35051.86
530.26	35592.53
530.43	35611.25
530.60	35658.06
530.77	35531.67
530.94	35866.37
531.11	35608.91
531.28	36116.81
531.46	36020.84
531.63	36062.97
531.80	35981.06
531.97	36208.09
532.14	36240.86
532.31	36348.52
532.48	36091.06
532.65	36608.32
532.82	36444.48
532.99	36451.50
533.16	36343.84
533.33	36650.45
533.50	36737.05
533.67	36868.12
533.84	36840.03
534.01	36800.24
534.18	36594.28
534.35	37324.52
534.52	36833.01
534.69	37249.63
534.86	37137.28
535.03	36931.31
535.20	37532.83
535.37	36994.51
535.54	37673.26
535.71	37301.12
535.88	37020.25
536.05	37174.73
536.22	37820.72
536.38	37780.93
536.55	37834.76
536.72	37701.35
536.89	37684.97
537.06	37518.79
537.23	37755.18
537.40	37748.16
537.57	37713.05
537.74	37476.66
537.91	38352.02
538.08	37677.94
538.25	37809.01
538.42	38057.11
538.59	38314.57
538.75	38134.35
538.92	38160.09
539.09	38436.28
539.26	38892.68
539.43	38749.91
539.60	38548.62
539.77	38473.73
539.94	38871.62
540.11	38572.03
540.28	38440.96
540.44	38284.14
540.61	38609.48
540.78	38763.95
540.95	38902.04
541.12	38541.60
541.29	38335.63
541.46	38932.47
541.62	38937.15
541.79	39192.27
541.96	38602.46
542.13	38541.60
542.30	38841.19
542.47	39030.77
542.63	39129.08
542.80	39611.23
542.97	39545.69
543.14	39576.12
543.31	39365.47
543.48	39428.66
543.64	39819.53
543.81	40133.17
543.98	39768.04
544.15	39611.23
544.32	40067.63
544.48	40339.13
544.65	40205.72
544.82	40311.05
544.99	39988.05
545.16	39931.88
545.32	39831.24
545.49	40114.44
545.66	40568.51
545.83	40428.07
546.00	40933.63
546.16	40294.66
546.33	40591.91
546.50	39903.79
546.67	40854.05
546.83	40254.87
547.00	40294.66
547.17	40369.56
547.34	40222.11
547.50	40900.86
547.67	41160.66
547.84	40634.04
548.00	40790.86
548.17	40549.78
548.34	40568.51
548.51	41170.02
548.67	40851.71
548.84	41076.40
549.01	40645.74
549.18	40900.86
549.34	41261.30
549.51	41287.05
549.68	41315.14
549.84	41071.72
550.01	41315.14
550.18	41354.93
550.34	40989.80
550.51	41734.09
550.68	41715.37
550.84	40952.35
551.01	41757.50
551.18	41738.77
551.34	41308.11
551.51	41656.85
551.68	41638.13
551.84	41539.83
552.01	41720.05
552.18	41488.34
552.34	41425.14
552.51	41930.70
552.68	41373.65
552.84	41617.07
553.01	41785.58
553.18	41790.27
553.34	42101.56
553.51	42239.65
553.67	42146.03
553.84	42731.16
554.01	42328.59
554.17	42506.47
554.34	41949.42
554.51	42237.31
554.67	42581.37
554.84	42508.81
555.00	42050.06
555.17	42312.20
555.33	42415.19
555.50	42288.80
555.67	42314.55
555.83	42237.31
556.00	42209.22
556.16	42700.73
556.33	42508.81
556.50	42660.94
556.66	42445.62
556.83	42466.68
556.99	42864.57
557.16	42948.83
557.32	42976.92
557.49	43201.61
557.65	42347.31
557.82	42623.50
557.98	42635.20
558.15	43119.69
558.32	42724.14
558.48	43051.81
558.65	43070.54
558.81	42895.00
558.98	42689.03
559.14	43082.24
559.31	42799.04
559.47	42930.11
559.64	42899.68
559.80	43192.25
559.97	43271.82
560.13	43290.55
560.30	43100.97
560.46	43517.58
560.63	43222.67
560.79	43690.78
560.96	43461.41
561.12	42909.04
561.29	43529.28
561.45	43456.73
561.61	43194.59
561.78	43606.52
561.94	43229.69
562.11	43519.92
562.27	43646.31
562.44	43529.28
562.60	43503.54
562.77	43538.65
562.93	43330.34
563.10	43672.06
563.26	43515.24
563.42	43990.37
563.59	43555.03
563.75	43342.04
563.92	43519.92
564.08	43442.68
564.24	43936.54
564.41	43524.60
564.57	43866.32
564.74	43847.60
564.90	43702.48
565.07	43772.70
565.23	43606.52
565.39	43889.73
565.56	44430.39
565.72	43473.11
565.88	43803.13
566.05	43833.55
566.21	43786.74
566.38	43835.89
566.54	44128.46
566.70	44201.02
566.87	43746.95
567.03	43613.54
567.19	44133.14
567.36	44325.07
567.52	43777.38
567.68	43908.45
567.85	44123.78
568.01	44177.61
568.17	43948.24
568.34	44589.55
568.50	43931.86
568.66	43466.09
568.83	44186.97
568.99	44327.41
569.15	44502.95
569.32	43849.94
569.48	44163.57
569.64	44507.63
569.81	44360.17
569.97	44336.77
570.13	44641.04
570.30	44549.76
570.46	44348.47
570.62	44584.86
570.78	44320.38
570.95	44655.08
571.11	44360.17
571.27	44388.26
571.43	44332.09
571.60	44294.64
571.76	44062.93
571.92	44222.08
572.09	44250.17
572.25	44339.11
572.41	44378.90
572.57	44942.97
572.74	44964.03
572.90	44547.42
573.06	44699.55
573.22	44425.71
573.38	44839.98
573.55	44811.90
573.71	45151.27
573.87	44720.62
574.03	45029.57
574.20	44650.40
574.36	44931.26
574.52	44587.21
574.68	44872.75
574.84	44900.84
575.01	44692.53
575.17	44655.08
575.33	45036.59
575.49	44425.71
575.65	44664.44
575.82	45043.61
575.98	44828.28
576.14	44907.86
576.30	44917.22
576.46	44680.83
576.62	44935.95
576.79	44657.42
576.95	44233.78
577.11	44439.75
577.27	44598.91
577.43	44980.42
577.59	44519.33
577.75	44357.83
577.92	44652.74
578.08	44935.95
578.24	44608.27
578.40	44875.09
578.56	44615.29
578.72	44617.63
578.88	45139.57
579.04	44746.36
579.21	44680.83
579.37	44802.53
579.53	45059.99
579.69	45200.43
579.85	44655.08
580.01	44854.03
580.17	44734.66
580.33	44793.17
580.49	45134.89
580.65	44758.06
580.82	44875.09
580.98	44430.39
581.14	44626.99
581.30	44781.47
581.46	44605.93
581.62	44481.88
581.78	44973.39
581.94	45361.92
582.10	44905.52
582.26	45078.72
582.42	45015.52
582.58	44802.53
582.74	45059.99
582.90	44641.04
583.06	45041.27
583.22	44619.97
583.38	45354.90
583.54	44814.24
583.70	45195.74
583.86	45050.63
584.02	44971.05
584.18	45312.77
584.34	44961.69
584.50	45687.26
584.66	45048.29
584.82	45003.82
584.98	45446.18
585.14	45432.14
585.30	44886.79
585.46	44940.63
585.62	44643.38
585.78	44980.42
585.94	44570.82
586.10	44769.77
586.26	44945.31
586.42	44624.65
586.58	45057.65
586.74	45216.81
586.90	44912.54
587.06	45170.00
587.22	45034.25
587.38	44947.65
587.54	45439.16
587.70	45074.04
587.86	45057.65
588.02	45221.49
588.18	45474.27
588.34	44935.95
588.49	45558.53
588.65	45331.50
588.81	45167.66
588.97	45256.60
589.13	45027.23
589.29	45198.09
589.45	45432.14
589.61	45354.90
589.77	45324.47
589.93	45179.36
590.08	45684.92
