SpectraSuite Data File
++++++++++++++++++++++++++++++++++++
Date: Fri Oct 25 10:44:36 EDT 2013
User: price-jones
Dark Spectrum Present: No
Reference Spectrum Present: No
Number of Sampled Component Spectra: 1
Spectrometers: USB2+H05261
Integration Time (usec): 100000 (USB2+H05261)
Spectra Averaged: 1 (USB2+H05261)
Boxcar Smoothing: 0 (USB2+H05261)
Correct for Electrical Dark: No (USB2+H05261)
Strobe/Lamp Enabled: No (USB2+H05261)
Correct for Detector Non-linearity: No (USB2+H05261)
Correct for Stray Light: No (USB2+H05261)
Number of Pixels in Processed Spectrum: 2048
>>>>>Begin Processed Spectral Data<<<<<
365.73	194.26
365.92	194.26
366.12	194.26
366.32	0.00
366.52	49.15
366.72	16.38
366.91	16.38
367.11	46.81
367.31	44.47
367.51	46.81
367.70	60.85
367.90	49.15
368.10	0.00
368.30	4.68
368.49	39.79
368.69	65.54
368.89	2.34
369.09	0.00
369.28	49.15
369.48	37.45
369.68	100.64
369.87	126.39
370.07	145.11
370.27	175.54
370.47	112.35
370.66	397.89
370.86	416.62
371.06	447.04
371.25	458.74
371.45	402.57
371.65	458.74
371.84	468.11
372.04	418.96
372.24	484.49
372.44	493.85
372.63	514.92
372.83	463.43
373.03	442.36
373.22	444.70
373.42	489.17
373.62	463.43
373.81	477.47
374.01	535.98
374.21	521.94
374.40	414.27
374.60	538.32
374.79	454.06
374.99	440.02
375.19	566.41
375.38	528.96
375.58	547.69
375.78	596.84
375.97	568.75
376.17	676.41
376.37	559.39
376.56	482.15
376.76	535.98
376.95	543.00
377.15	519.60
377.35	601.52
377.54	587.47
377.74	512.58
377.93	561.73
378.13	582.79
378.33	608.54
378.52	648.33
378.72	559.39
378.91	653.01
379.11	603.86
379.31	662.37
379.50	667.05
379.70	678.76
379.89	681.10
380.09	641.31
380.28	596.84
380.48	674.07
380.68	667.05
380.87	676.41
381.07	674.07
381.26	671.73
381.46	676.41
381.65	746.63
381.85	627.26
382.04	645.99
382.24	744.29
382.43	601.52
382.63	645.99
382.83	732.59
383.02	690.46
383.22	653.01
383.41	720.88
383.61	730.25
383.80	809.83
384.00	704.50
384.19	713.86
384.39	723.23
384.58	753.65
384.78	809.83
384.97	786.42
385.17	791.10
385.36	760.67
385.56	767.70
385.75	678.76
385.95	793.44
386.14	802.80
386.34	821.53
386.53	823.87
386.72	777.06
386.92	856.64
387.11	779.40
387.31	858.98
387.50	772.38
387.70	835.57
387.89	798.12
388.09	784.08
388.28	779.40
388.48	809.83
388.67	868.34
388.86	884.72
389.06	882.38
389.25	908.13
389.45	884.72
389.64	978.34
389.84	922.17
390.03	896.43
390.22	926.85
390.42	891.74
390.61	880.04
390.81	976.00
391.00	957.28
391.19	844.93
391.39	997.07
391.58	980.68
391.78	938.55
391.97	912.81
392.16	898.77
392.36	1013.45
392.55	990.05
392.75	952.60
392.94	910.47
393.13	992.39
393.33	959.62
393.52	990.05
393.71	1043.88
393.91	1055.58
394.10	1050.90
394.29	994.73
394.49	1069.62
394.68	1064.94
394.88	1123.46
395.07	1210.06
395.26	1191.33
395.46	1069.62
395.65	1097.71
395.84	1184.31
396.04	1132.82
396.23	1135.16
396.42	1149.20
396.62	1167.93
396.81	1151.54
397.00	1111.75
397.19	1114.10
397.39	1188.99
397.58	1261.55
397.77	1196.01
397.97	1336.45
398.16	1310.70
398.35	1324.74
398.55	1359.85
398.74	1291.98
398.93	1427.73
399.12	1324.74
399.32	1343.47
399.51	1313.04
399.70	1474.54
399.90	1390.28
400.09	1441.77
400.28	1469.86
400.47	1425.39
400.67	1423.05
400.86	1366.87
401.05	1397.30
401.24	1511.99
401.44	1497.94
401.63	1617.31
401.82	1577.52
402.01	1488.58
402.21	1521.35
402.40	1465.18
402.59	1530.71
402.78	1509.65
402.97	1682.85
403.17	1577.52
403.36	1629.01
403.55	1610.29
403.74	1729.66
403.93	1610.29
404.13	1717.95
404.32	1631.35
404.51	1586.88
404.70	1692.21
404.89	1720.29
405.09	1708.59
405.28	1673.48
405.47	1797.53
405.66	1795.19
405.85	1849.02
406.05	1832.64
406.24	1743.70
406.43	1853.70
406.62	1839.66
406.81	1902.86
407.00	1804.55
407.20	1827.96
407.39	1797.53
407.58	1839.66
407.77	1921.58
407.96	2024.56
408.15	2019.88
408.34	2057.33
408.54	2024.56
408.73	1898.17
408.92	2012.86
409.11	2186.06
409.30	2057.33
409.49	2052.65
409.68	2050.31
409.87	2132.23
410.07	2111.16
410.26	2146.27
410.45	2176.70
410.64	2249.25
410.83	2155.63
411.02	2223.51
411.21	2284.36
411.40	2422.45
411.59	2305.43
411.78	2242.23
411.98	2242.23
412.17	2438.84
412.36	2394.37
412.55	2373.30
412.74	2553.52
412.93	2506.71
413.12	2558.21
413.31	2544.16
413.50	2530.12
413.69	2670.55
413.88	2743.11
414.07	2583.95
414.26	2686.94
414.45	2738.43
414.64	2705.66
414.83	2796.94
415.02	2822.69
415.22	2712.68
415.41	2810.98
415.60	2712.68
415.79	2871.84
415.98	2848.43
416.17	2815.66
416.36	2963.12
416.55	3009.93
416.74	3016.95
416.93	2916.31
417.12	3002.91
417.31	3019.29
417.50	3059.08
417.69	3208.87
417.88	3110.57
418.07	3052.06
418.26	3133.98
418.45	3176.11
418.64	3251.00
418.83	3150.36
419.02	3316.54
419.21	3293.13
419.39	3199.51
419.58	3208.87
419.77	3363.35
419.96	3295.47
420.15	3384.41
420.34	3361.01
420.53	3335.26
420.72	3599.74
420.91	3445.27
421.10	3248.66
421.29	3527.19
421.48	3468.67
421.67	3555.27
421.86	3414.84
422.05	3375.05
422.24	3403.14
422.43	3466.33
422.61	3407.82
422.80	3538.89
422.99	3630.17
423.18	3538.89
423.37	3543.57
423.56	3613.79
423.75	3569.32
423.94	3492.08
424.13	3218.24
424.32	3456.97
424.50	3515.48
424.69	3576.34
424.88	3583.36
425.07	3747.20
425.26	3557.61
425.45	3693.37
425.64	3641.87
425.83	3606.77
426.01	3789.33
426.20	3700.39
426.39	3698.05
426.58	3625.49
426.77	3627.83
426.96	3655.92
427.15	3634.85
427.33	3686.34
427.52	3705.07
427.71	3805.71
427.90	3831.46
428.09	3712.09
428.28	3716.77
428.46	3812.73
428.65	3927.42
428.84	3911.04
429.03	3950.82
429.22	3730.81
429.40	3894.65
429.59	3843.16
429.78	3712.09
429.97	3611.45
430.16	3660.60
430.34	3786.99
430.53	4011.68
430.72	3983.59
430.91	3997.64
431.10	3843.16
431.28	4105.30
431.47	4114.66
431.66	4177.86
431.85	4121.68
432.03	4262.12
432.22	4351.06
432.41	4217.65
432.60	4238.71
432.79	4184.88
432.97	4325.31
433.16	4355.74
433.35	4259.78
433.54	4175.52
433.72	4315.95
433.91	4287.86
434.10	4294.88
434.28	4341.69
434.47	4542.98
434.66	4360.42
434.85	4451.70
435.03	4580.43
435.22	4610.86
435.41	4744.27
435.59	4571.07
435.78	4596.81
435.97	4629.58
436.16	4634.26
436.34	4559.36
436.53	4500.85
436.72	4816.82
436.90	4470.42
437.09	4634.26
437.28	4624.90
437.46	4734.90
437.65	4833.21
437.84	4779.37
438.02	4711.50
438.21	4784.06
438.40	4746.61
438.58	4793.42
438.77	4887.04
438.96	4891.72
439.14	5130.45
439.33	5130.45
439.52	5060.24
439.70	5088.32
439.89	5172.58
440.08	5151.52
440.26	5313.02
440.45	5268.55
440.63	5355.15
440.82	5437.06
441.01	5179.61
441.19	5526.00
441.38	5563.45
441.57	5528.35
441.75	5528.35
441.94	5708.57
442.12	5678.14
442.31	5762.40
442.50	5785.80
442.68	5582.18
442.87	5715.59
443.05	5722.61
443.24	5928.58
443.43	5949.64
443.61	5792.83
443.80	5954.32
443.98	5710.91
444.17	5621.97
444.35	5785.80
444.54	5914.53
444.73	6078.37
444.91	5872.40
445.10	5839.64
445.28	5977.73
445.47	5823.25
445.65	5750.70
445.84	5902.83
446.02	5963.68
446.21	6167.31
446.39	5839.64
446.58	6076.03
446.77	6033.90
446.95	5895.81
447.14	6181.35
447.32	6069.01
447.51	5973.05
447.69	5977.73
447.88	6228.17
448.06	6080.71
448.25	6076.03
448.43	6136.88
448.62	5975.39
448.80	5998.79
448.99	6040.92
449.17	6260.93
449.36	6188.38
449.54	6265.61
449.73	6197.74
449.91	6406.05
450.10	6373.28
450.28	6588.61
450.46	6483.28
450.65	6448.18
450.83	6480.94
451.02	6352.21
451.20	6579.25
451.39	6633.08
451.57	6551.16
451.76	6445.84
451.94	6602.65
452.13	6518.39
452.31	6537.12
452.49	6401.37
452.68	6483.28
452.86	6558.18
453.05	6705.63
453.23	6609.67
453.42	6560.52
453.60	6462.22
453.78	6750.10
453.97	6642.44
454.15	6689.25
454.34	6792.23
454.52	6878.83
454.70	6733.72
454.89	6785.21
455.07	6911.60
455.26	6916.28
455.44	7056.72
455.62	6946.71
455.81	7129.27
455.99	7157.36
456.17	7173.74
456.36	7054.37
456.54	7281.41
456.73	7250.98
456.91	7295.45
457.09	7375.03
457.28	7583.34
457.46	7403.11
457.64	7503.76
457.83	7428.86
458.01	7421.84
458.19	7506.10
458.38	7297.79
458.56	7470.99
458.74	7346.94
458.93	7543.55
459.11	7382.05
459.29	7564.61
459.48	7691.00
459.66	7641.85
459.84	7480.35
460.03	7875.90
460.21	7826.75
460.39	7782.28
460.57	7791.64
460.76	7646.53
460.94	7889.95
461.12	7803.35
461.31	8051.44
461.49	7911.01
461.67	7873.56
461.85	8154.43
462.04	7873.56
462.22	8060.80
462.40	8187.19
462.59	7922.71
462.77	8079.53
462.95	8217.62
463.13	8065.49
463.32	8049.10
463.50	8311.24
463.68	8131.02
463.86	8163.79
464.05	8070.17
464.23	8168.47
464.41	8383.80
464.59	8025.70
464.78	8446.99
464.96	8325.29
465.14	8367.42
465.32	8617.85
465.50	8360.39
465.69	8517.21
465.87	8308.90
466.05	8414.23
466.23	8435.29
466.41	8432.95
466.60	8674.03
466.78	8234.00
466.96	8423.59
467.14	8510.19
467.32	8585.08
467.51	8830.84
467.69	8505.51
467.87	8477.42
468.05	8627.21
468.23	8767.65
468.41	8578.06
468.60	8683.39
468.78	8917.44
468.96	8641.26
469.14	8889.35
469.32	8868.29
469.50	8688.07
469.69	8910.42
469.87	9015.74
470.05	8954.89
470.23	8947.87
470.41	9121.07
470.59	9149.15
470.77	8945.53
470.95	9186.60
471.14	9350.44
471.32	9142.13
471.50	9231.07
471.68	9282.56
471.86	9535.34
472.04	9521.30
472.22	9551.73
472.40	9486.19
472.58	9453.42
472.77	9589.17
472.95	9750.67
473.13	9994.09
473.31	9666.41
473.49	9774.08
473.67	9734.29
473.85	9998.77
474.03	10136.86
474.21	9895.78
474.39	10097.07
474.57	9954.30
474.75	10326.44
474.93	10296.02
475.12	10115.80
475.30	10349.85
475.48	10321.76
475.66	10611.99
475.84	10429.43
476.02	10602.63
476.20	10434.11
476.38	10628.37
476.56	10862.43
476.74	11068.39
476.92	10848.38
477.10	10934.98
477.28	11147.97
477.46	11012.22
477.64	11169.04
477.82	11492.03
478.00	11407.77
478.18	11379.68
478.36	11620.76
478.54	11648.85
478.72	11737.79
478.90	12065.46
479.08	11908.65
479.26	12175.47
479.44	12217.60
479.62	12196.53
479.80	12079.50
479.98	12531.23
480.16	12482.08
480.34	12580.38
480.52	12917.42
480.70	12606.13
480.88	12465.69
481.06	12652.94
481.24	12758.26
481.41	12905.71
481.59	13376.16
481.77	13114.02
481.95	13282.54
482.13	13462.76
482.31	13387.86
482.49	13738.94
482.67	13612.56
482.85	13760.01
483.03	13905.12
483.21	14047.90
483.39	14185.99
483.57	14111.09
483.74	14253.86
483.92	14459.83
484.10	14324.08
484.28	14452.81
484.46	14956.02
484.64	15040.28
484.82	14892.83
485.00	14949.00
485.18	14970.07
485.35	15349.23
485.53	14892.83
485.71	15262.63
485.89	15360.94
486.07	15592.65
486.25	15480.30
486.43	15861.81
486.61	15822.02
486.78	16189.49
486.96	16123.95
487.14	16610.78
487.32	16320.56
487.50	16610.78
487.68	16971.22
487.85	17036.76
488.03	17050.80
488.21	17114.00
488.39	17301.24
488.57	17308.26
488.75	17706.15
488.92	17544.66
489.10	17781.05
489.28	17942.55
489.46	18354.48
489.64	17818.50
489.81	18710.24
489.99	18464.49
490.17	18604.92
490.35	18768.76
490.53	18743.01
490.70	19115.16
490.88	19007.49
491.06	19281.33
491.24	19360.91
491.41	19456.87
491.59	19381.98
491.77	19206.44
491.95	19618.37
492.13	19583.26
492.30	20166.06
492.48	20154.35
492.66	19957.75
492.84	20224.57
493.01	20496.07
493.19	20563.95
493.37	20704.38
493.54	20968.86
493.72	20685.65
493.90	20753.53
494.08	21137.38
494.25	21160.78
494.43	21252.06
494.61	21322.28
494.79	21408.88
494.96	21298.88
495.14	21741.24
495.32	22045.51
495.49	22059.55
495.67	21930.82
495.85	22277.22
496.02	22188.28
496.20	22640.00
496.38	22544.04
496.55	22651.70
496.73	23304.71
496.91	22974.70
497.09	23248.54
497.26	23332.80
497.44	23435.78
497.62	23527.06
497.79	23679.20
497.97	23585.58
498.14	23983.47
498.32	23714.31
498.50	23852.40
498.67	23934.32
498.85	24212.84
499.03	23953.04
499.20	24079.43
499.38	24353.27
499.56	24566.26
499.73	24608.39
499.91	24713.72
500.08	24823.72
500.26	24886.92
500.44	24875.21
500.61	25078.84
500.79	24781.59
500.97	25259.06
501.14	25488.43
501.32	25270.76
501.49	25425.24
501.67	25570.35
501.84	25544.61
502.02	25539.93
502.20	26263.15
502.37	25804.41
502.55	25876.96
502.72	25699.08
502.90	26176.55
503.07	26059.52
503.25	26412.95
503.43	25902.71
503.60	26230.38
503.78	25898.03
503.95	26143.78
504.13	26876.37
504.30	26583.80
504.48	26775.73
504.65	27215.75
504.83	27302.35
505.01	27213.41
505.18	27234.47
505.36	27489.59
505.53	27246.18
505.71	27758.75
505.88	27831.31
506.06	27297.67
506.23	27838.33
506.41	27592.58
506.58	27627.68
506.76	27725.99
506.93	28158.99
507.11	27929.61
507.28	28226.86
507.46	27658.11
507.63	27990.47
507.81	28685.61
507.98	28081.75
508.16	28056.00
508.33	28465.60
508.50	28648.16
508.68	28563.90
508.85	29097.54
509.03	28910.30
509.20	29071.79
509.38	29448.62
509.55	29275.42
509.73	29071.79
509.90	29518.84
510.08	29343.30
510.25	29701.40
510.42	29612.46
510.60	29631.18
510.77	29560.97
510.95	30284.19
511.12	29996.31
511.30	29823.11
511.47	30169.51
511.64	30366.11
511.82	30366.11
511.99	30110.99
512.17	30536.97
512.34	30073.54
512.51	30349.73
512.69	30625.91
512.86	30602.50
513.04	30815.49
513.21	30934.86
513.38	30969.97
513.56	31077.63
513.73	30773.36
513.90	31229.77
514.08	30923.16
514.25	31281.26
514.43	30923.16
514.60	31189.98
514.77	31498.93
514.95	31606.59
515.12	31365.52
515.29	31585.53
515.47	31896.82
515.64	32165.98
515.81	31445.10
515.99	31887.46
516.16	32329.82
516.33	31931.93
516.51	31749.37
516.68	31435.74
516.85	32142.58
517.03	31842.99
517.20	32130.87
517.37	32708.99
517.54	32423.44
517.72	32430.46
517.89	32416.42
518.06	32594.30
518.24	32381.31
518.41	32662.18
518.58	32690.26
518.75	32292.37
518.93	33048.36
519.10	32830.69
519.27	32795.59
519.45	33413.49
519.62	33088.15
519.79	33057.73
519.96	33076.45
520.14	33565.62
520.31	33303.48
520.48	33715.42
520.65	33392.42
520.83	33827.76
521.00	33902.66
521.17	34029.05
521.34	34192.89
521.52	34094.58
521.69	33755.21
521.86	34455.03
522.03	34181.18
522.20	34426.94
522.38	34653.97
522.55	34621.20
522.72	34602.48
522.89	34623.54
523.07	34153.10
523.24	34426.94
523.41	34590.78
523.58	34682.06
523.75	35344.43
523.92	35138.46
524.10	35323.36
524.27	35225.06
524.44	35019.10
524.61	35456.78
524.78	35718.92
524.96	35625.29
525.13	35903.82
525.30	35845.30
525.47	35840.62
525.64	35552.74
525.81	35557.42
525.98	35651.04
526.16	35337.41
526.33	35538.69
526.50	35386.56
526.67	35529.33
526.84	35580.82
527.01	35859.35
527.18	35653.38
527.36	36376.61
527.53	36046.59
527.70	36395.33
527.87	36720.66
528.04	36236.17
528.21	36306.39
528.38	36257.24
528.55	36893.86
528.72	36390.65
528.89	37249.63
529.07	36769.82
529.24	36538.10
529.41	37031.96
529.58	36687.90
529.75	36723.01
529.92	36954.72
530.09	36821.31
530.26	37158.34
530.43	37287.07
530.60	36727.69
530.77	36900.89
530.94	37258.99
531.11	36961.74
531.28	37345.59
531.46	37254.31
531.63	37251.97
531.80	37340.91
531.97	37244.94
532.14	37565.60
532.31	37591.34
532.48	37104.51
532.65	37930.72
532.82	37511.77
532.99	38014.98
533.16	37495.38
533.33	38218.61
533.50	38227.97
533.67	37986.89
533.84	38047.75
534.01	38363.72
534.18	37907.32
534.35	38410.53
534.52	37933.06
534.69	38419.89
534.86	38220.95
535.03	38616.50
535.20	38937.15
535.37	39143.12
535.54	39124.40
535.71	38494.79
535.88	38405.85
536.05	38450.32
536.22	38553.30
536.38	38803.74
536.55	38721.82
536.72	38621.18
536.89	39105.67
537.06	39089.29
537.23	38909.07
537.40	39075.24
537.57	38972.26
537.74	39091.63
537.91	39271.85
538.08	39459.09
538.25	38763.95
538.42	38972.26
538.59	39316.32
538.75	38888.00
538.92	39655.70
539.09	39098.65
539.26	39426.32
539.43	38962.90
539.60	39482.50
539.77	39449.73
539.94	39407.60
540.11	39779.74
540.28	39761.02
540.44	39704.85
540.61	39569.10
540.78	39606.55
540.95	39498.88
541.12	39625.27
541.29	39419.30
541.46	39833.58
541.62	39552.71
541.79	39974.01
541.96	39683.78
542.13	40484.25
542.30	40194.02
542.47	40060.61
542.63	40013.80
542.80	40121.46
542.97	40500.63
543.14	40687.87
543.31	40594.25
543.48	40179.98
543.64	41102.15
543.81	40954.69
543.98	41001.50
544.15	40528.72
544.32	40828.30
544.48	41139.60
544.65	41123.21
544.82	40528.72
544.99	40442.12
545.16	41010.87
545.32	40961.72
545.49	41155.98
545.66	41525.78
545.83	41184.07
546.00	41614.72
546.16	41467.27
546.33	41228.54
546.50	41104.49
546.67	41207.47
546.83	40914.90
547.00	41713.03
547.17	41371.31
547.34	41420.46
547.50	41752.82
547.67	41729.41
547.84	41612.38
548.00	41565.57
548.17	42176.45
548.34	41666.22
548.51	42019.64
548.67	41918.99
548.84	41839.42
549.01	41876.86
549.18	42078.15
549.34	41862.82
549.51	42185.82
549.68	42277.10
549.84	42211.56
550.01	42195.18
550.18	41907.29
550.34	41940.06
550.51	42452.64
550.68	42211.56
550.84	41420.46
551.01	42567.32
551.18	42462.00
551.34	42511.15
551.51	42249.01
551.68	41979.85
551.84	42574.34
552.01	41832.39
552.18	42256.03
552.34	41989.21
552.51	41998.57
552.68	42511.15
552.84	42646.90
553.01	42576.69
553.18	42532.22
553.34	42674.99
553.51	42335.61
553.67	42674.99
553.84	42602.43
554.01	42618.81
554.17	42719.46
554.34	43203.95
554.51	42941.81
554.67	42806.06
554.84	43210.97
555.00	42859.89
555.17	42560.30
555.33	42883.30
555.50	42511.15
555.67	42567.32
555.83	42782.65
556.00	43260.12
556.16	43400.55
556.33	42941.81
556.50	42705.41
556.66	42923.08
556.83	42693.71
556.99	43065.86
557.16	43445.02
557.32	43157.14
557.49	42937.13
557.65	42850.53
557.82	43131.39
557.98	43566.73
558.15	43143.09
558.32	43489.49
558.48	43461.41
558.65	43026.07
558.81	43548.01
558.98	43274.16
559.14	43236.72
559.31	43475.45
559.47	43306.93
559.64	43739.93
559.80	43746.95
559.97	43917.81
560.13	43428.64
560.30	43398.21
560.46	43690.78
560.63	43871.00
560.79	43646.31
560.96	44215.06
561.12	43784.40
561.29	43508.22
561.45	43882.70
561.61	44058.24
561.78	43435.66
561.94	43353.74
562.11	43735.25
562.27	43548.01
562.44	44032.50
562.60	44004.41
562.77	44414.01
562.93	43576.09
563.10	44098.03
563.26	43709.50
563.42	43587.80
563.59	43585.46
563.75	43526.94
563.92	44009.09
564.08	43838.23
564.24	44163.57
564.41	44006.75
564.57	43931.86
564.74	43587.80
564.90	44079.31
565.07	43955.26
565.23	43938.88
565.39	44065.27
565.56	43625.25
565.72	44201.02
565.88	43990.37
566.05	44500.61
566.21	43934.20
566.38	44060.58
566.54	44278.25
566.70	44334.43
566.87	44493.58
567.03	44212.72
567.19	44671.46
567.36	44201.02
567.52	43838.23
567.68	44879.77
567.85	44140.16
568.01	44327.41
568.17	44041.86
568.34	44442.09
568.50	43931.86
568.66	44065.27
568.83	44409.32
568.99	43828.87
569.15	43999.73
569.32	44210.38
569.48	44177.61
569.64	44369.54
569.81	44540.39
569.97	44201.02
570.13	44488.90
570.30	44238.47
570.46	44065.27
570.62	43938.88
570.78	43899.09
570.95	44158.89
571.11	44453.79
571.27	43941.22
571.43	44275.91
571.60	44154.21
571.76	44435.07
571.92	44336.77
572.09	44282.94
572.25	44156.55
572.41	44428.05
572.57	44868.07
572.74	44371.88
572.90	44425.71
573.06	44327.41
573.22	44315.70
573.38	44163.57
573.55	44516.99
573.71	44655.08
573.87	44701.89
574.03	44194.00
574.20	44573.16
574.36	44318.04
574.52	44549.76
574.68	44502.95
574.84	44650.40
575.01	44311.02
575.17	44500.61
575.33	44416.35
575.49	44477.20
575.65	44587.21
575.82	44355.49
575.98	44416.35
576.14	44516.99
576.30	44622.31
576.46	44556.78
576.62	44294.64
576.79	44135.48
576.95	44376.56
577.11	44481.88
577.27	44580.18
577.43	44865.73
577.59	44367.20
577.75	44491.24
577.92	44414.01
578.08	44051.22
578.24	44175.27
578.40	44285.28
578.56	44416.35
578.72	44538.05
578.88	44823.60
579.04	44851.69
579.21	44507.63
579.37	44575.50
579.53	44109.74
579.69	44467.84
579.85	44638.70
580.01	44704.23
580.17	44767.43
580.33	44439.75
580.49	44746.36
580.65	44439.75
580.82	44474.86
580.98	44524.01
581.14	44657.42
581.30	45319.79
581.46	44556.78
581.62	44336.77
581.78	44612.95
581.94	45148.93
582.10	44343.79
582.26	44619.97
582.42	44814.24
582.58	44409.32
582.74	44641.04
582.90	44949.99
583.06	44957.01
583.22	44502.95
583.38	44734.66
583.54	44914.88
583.70	44830.62
583.86	45020.20
584.02	44341.45
584.18	44512.31
584.34	44531.03
584.50	44692.53
584.66	45069.36
584.82	44491.24
584.98	44870.41
585.14	44949.99
585.30	44179.95
585.46	44547.42
585.62	44406.98
585.78	44603.59
585.94	44304.00
586.10	44442.09
586.26	44339.11
586.42	44596.57
586.58	44968.71
586.74	45219.15
586.90	44685.51
587.06	44355.49
587.22	44332.09
587.38	44109.74
587.54	44814.24
587.70	44926.58
587.86	44683.17
588.02	44832.96
588.18	44837.64
588.34	44603.59
588.49	44149.53
588.65	44264.21
588.81	44350.81
588.97	44699.55
589.13	44191.65
589.29	44786.15
589.45	45301.07
589.61	44266.55
589.77	44900.84
589.93	44980.42
590.08	45137.23
590.24	44814.24
