SpectraSuite Data File
++++++++++++++++++++++++++++++++++++
Date: Fri Oct 25 11:25:41 EDT 2013
User: price-jones
Dark Spectrum Present: No
Reference Spectrum Present: No
Number of Sampled Component Spectra: 1
Spectrometers: USB2+H05261
Integration Time (usec): 100000 (USB2+H05261)
Spectra Averaged: 1 (USB2+H05261)
Boxcar Smoothing: 0 (USB2+H05261)
Correct for Electrical Dark: No (USB2+H05261)
Strobe/Lamp Enabled: No (USB2+H05261)
Correct for Detector Non-linearity: No (USB2+H05261)
Correct for Stray Light: No (USB2+H05261)
Number of Pixels in Processed Spectrum: 2048
>>>>>Begin Processed Spectral Data<<<<<
365.73	255.12
365.92	255.12
366.12	255.12
366.32	184.90
366.52	126.39
366.72	131.07
366.91	49.15
367.11	215.33
367.31	133.41
367.51	161.50
367.70	133.41
367.90	152.13
368.10	124.05
368.30	107.66
368.49	124.05
368.69	133.41
368.89	88.94
369.09	187.24
369.28	198.95
369.48	189.58
369.68	227.03
369.87	177.88
370.07	212.99
370.27	229.37
370.47	355.76
370.66	594.50
370.86	688.12
371.06	685.78
371.25	667.05
371.45	648.33
371.65	744.29
371.84	575.77
372.04	653.01
372.24	695.14
372.44	671.73
372.63	699.82
372.83	629.60
373.03	800.46
373.22	777.06
373.42	704.50
373.62	774.72
373.81	800.46
374.01	781.74
374.21	800.46
374.40	798.12
374.60	851.96
374.79	779.40
374.99	744.29
375.19	849.61
375.38	802.80
375.58	779.40
375.78	873.02
375.97	861.32
376.17	903.45
376.37	875.36
376.56	912.81
376.76	835.57
376.95	868.34
377.15	837.91
377.35	840.25
377.54	854.30
377.74	851.96
377.93	880.04
378.13	891.74
378.33	898.77
378.52	950.26
378.72	821.53
378.91	943.24
379.11	966.64
379.31	884.72
379.50	917.49
379.70	1006.43
379.89	1086.01
380.09	1011.11
380.28	938.55
380.48	1013.45
380.68	933.87
380.87	940.90
381.07	1034.52
381.26	884.72
381.46	987.71
381.65	987.71
381.85	987.71
382.04	1039.20
382.24	959.62
382.43	1114.10
382.63	1078.99
382.83	1046.22
383.02	1139.84
383.22	1139.84
383.41	1053.24
383.61	1008.77
383.80	1224.10
384.00	1004.09
384.19	1067.28
384.39	1121.12
384.58	1181.97
384.78	1184.31
384.97	1186.65
385.17	1114.10
385.36	1160.91
385.56	1144.52
385.75	1149.20
385.95	1144.52
386.14	1235.80
386.34	1174.95
386.53	1231.12
386.72	1249.85
386.92	1207.72
387.11	1249.85
387.31	1315.38
387.50	1249.85
387.70	1226.44
387.89	1277.93
388.09	1214.74
388.28	1273.25
388.48	1282.61
388.67	1331.76
388.86	1303.68
389.06	1385.60
389.25	1320.06
389.45	1331.76
389.64	1310.70
389.84	1397.30
390.03	1357.51
390.22	1378.58
390.42	1373.89
390.61	1380.92
390.81	1409.00
391.00	1479.22
391.19	1401.98
391.39	1350.49
391.58	1406.66
391.78	1404.32
391.97	1507.30
392.16	1444.11
392.36	1610.29
392.55	1465.18
392.75	1495.60
392.94	1575.18
393.13	1561.14
393.33	1629.01
393.52	1453.47
393.71	1582.20
393.91	1605.61
394.10	1631.35
394.29	1563.48
394.49	1614.97
394.68	1629.01
394.88	1713.27
395.07	1591.56
395.26	1678.16
395.46	1715.61
395.65	1699.23
395.84	1750.72
396.04	1767.10
396.23	1760.08
396.42	1788.17
396.62	1863.07
396.81	1823.28
397.00	1858.39
397.19	1732.00
397.39	1757.74
397.58	1893.49
397.77	1846.68
397.97	1757.74
398.16	1851.36
398.35	1881.79
398.55	1853.70
398.74	1886.47
398.93	1902.86
399.12	1886.47
399.32	1963.71
399.51	1919.24
399.70	1980.09
399.90	2022.22
400.09	2001.16
400.28	2064.35
400.47	2062.01
400.67	2064.35
400.86	1989.46
401.05	2029.24
401.24	2066.69
401.44	2054.99
401.63	2209.47
401.82	2092.44
402.01	2141.59
402.21	2174.36
402.40	2183.72
402.59	2282.02
402.78	2207.13
402.97	2277.34
403.17	2214.15
403.36	2115.84
403.55	2352.24
403.74	2392.03
403.93	2356.92
404.13	2354.58
404.32	2260.96
404.51	2282.02
404.70	2459.90
404.89	2406.07
405.09	2462.24
405.28	2492.67
405.47	2520.76
405.66	2452.88
405.85	2382.67
406.05	2459.90
406.24	2457.56
406.43	2588.63
406.62	2600.34
406.81	2696.30
407.00	2553.52
407.20	2616.72
407.39	2516.08
407.58	2686.94
407.77	2710.34
407.96	2717.36
408.15	2787.58
408.34	2675.23
408.54	2825.03
408.73	2822.69
408.92	2810.98
409.11	2764.17
409.30	2928.01
409.49	2815.66
409.68	2995.89
409.87	2956.10
410.07	2958.44
410.26	2899.92
410.45	3014.61
410.64	3002.91
410.83	3087.17
411.02	3012.27
411.21	3049.72
411.40	3103.55
411.59	3166.74
411.78	3169.09
411.98	3279.09
412.17	3176.11
412.36	3248.66
412.55	3424.20
412.74	3391.44
412.93	3304.84
413.12	3346.97
413.31	3485.06
413.50	3562.30
413.69	3487.40
413.88	3529.53
414.07	3440.59
414.26	3494.42
414.45	3653.58
414.64	3655.92
414.83	3648.90
415.02	3747.20
415.22	3871.25
415.41	3889.97
415.60	3735.50
415.79	3679.32
415.98	3875.93
416.17	3964.87
416.36	3782.31
416.55	3971.89
416.74	3955.51
416.93	4102.96
417.12	4133.39
417.31	4051.47
417.50	4189.56
417.69	4416.59
417.88	4189.56
418.07	4294.88
418.26	4318.29
418.45	4367.44
418.64	4411.91
418.83	4454.04
419.02	4351.06
419.21	4409.57
419.39	4442.34
419.58	4566.39
419.77	4400.21
419.96	4540.64
420.15	4674.05
420.34	4709.16
420.53	4697.46
420.72	4748.95
420.91	4547.66
421.10	4683.41
421.29	4774.69
421.48	4657.67
421.67	4772.35
421.86	4760.65
422.05	4770.01
422.24	4800.44
422.43	4954.91
422.61	4877.68
422.80	4966.62
422.99	4983.00
423.18	4980.66
423.37	4774.69
423.56	4861.29
423.75	5004.07
423.94	4873.00
424.13	4688.09
424.32	4727.88
424.50	4933.85
424.69	5067.26
424.88	4987.68
425.07	5004.07
425.26	4875.34
425.45	4929.17
425.64	4851.93
425.83	4950.23
426.01	5095.35
426.20	5022.79
426.39	5139.82
426.58	5048.54
426.77	5043.85
426.96	5165.56
427.15	5177.26
427.33	5109.39
427.52	5039.17
427.71	5296.63
427.90	5149.18
428.09	5366.85
428.28	5301.31
428.46	5462.81
428.65	5404.30
428.84	5401.96
429.03	5380.89
429.22	5551.75
429.40	5486.22
429.59	5434.72
429.78	5437.06
429.97	4964.28
430.16	5455.79
430.34	5680.48
430.53	5565.79
430.72	5633.67
430.91	5713.25
431.10	5549.41
431.28	5699.20
431.47	5834.96
431.66	5816.23
431.85	5797.51
432.03	5710.91
432.22	5926.24
432.41	5923.90
432.60	5844.32
432.79	6043.26
432.97	6162.63
433.16	5949.64
433.35	5898.15
433.54	6073.69
433.72	6143.91
433.91	6106.46
434.10	5973.05
434.28	6066.67
434.47	6092.41
434.66	6197.74
434.85	6324.13
435.03	6272.64
435.22	6265.61
435.41	6448.18
435.59	6314.77
435.78	6256.25
435.97	6525.41
436.16	6359.24
436.34	6459.88
436.53	6537.12
436.72	6553.50
436.90	6609.67
437.09	6670.53
437.28	6359.24
437.46	6616.69
437.65	6553.50
437.84	6731.38
438.02	6733.72
438.21	6700.95
438.40	6675.21
438.58	7115.23
438.77	6906.92
438.96	6897.56
439.14	7103.53
439.33	7138.63
439.52	7136.29
439.70	7246.30
439.89	7382.05
440.08	7344.60
440.26	7358.64
440.45	7286.09
440.63	7276.73
440.82	7595.04
441.01	7555.25
441.19	7691.00
441.38	7686.32
441.57	7527.16
441.75	7866.54
441.94	7847.82
442.12	7829.09
442.31	7920.37
442.50	7929.74
442.68	8042.08
442.87	8044.42
443.05	7822.07
443.24	8201.24
443.43	8046.76
443.61	8212.94
443.80	8423.59
443.98	8138.04
444.17	7878.24
444.35	8175.49
444.54	8212.94
444.73	8264.43
444.91	8290.18
445.10	8285.50
445.28	8383.80
445.47	8105.28
445.65	8439.97
445.84	8360.39
446.02	8430.61
446.21	8423.59
446.39	8248.05
446.58	8301.88
446.77	8367.42
446.95	8329.97
447.14	8390.82
447.32	8484.44
447.51	8442.31
447.69	8517.21
447.88	8538.27
448.06	8456.36
448.25	8507.85
448.43	8575.72
448.62	8557.00
448.80	8643.60
448.99	8702.11
449.17	8662.32
449.36	8470.40
449.54	8561.68
449.73	8709.13
449.91	9060.21
450.10	8898.72
450.28	8863.61
450.46	8982.98
450.65	9034.47
450.83	9048.51
451.02	9167.88
451.20	9092.98
451.39	9008.72
451.57	9144.47
451.76	9142.13
451.94	9210.01
452.13	9324.69
452.31	9104.68
452.49	9060.21
452.68	9315.33
452.86	9205.33
453.05	9362.14
453.23	9198.31
453.42	9441.72
453.60	9312.99
453.78	9530.66
453.97	9352.78
454.15	9638.33
454.34	9586.83
454.52	9792.80
454.70	9628.96
454.89	9664.07
455.07	9720.24
455.26	9577.47
455.44	10031.54
455.62	9963.66
455.81	9958.98
455.99	9834.93
456.17	10010.47
456.36	10143.88
456.54	10134.52
456.73	10209.42
456.91	10352.19
457.09	10186.01
457.28	10682.20
457.46	10260.91
457.64	10415.38
457.83	10338.15
458.01	10375.59
458.19	10450.49
458.38	10604.97
458.56	10537.09
458.74	10658.80
458.93	10480.92
459.11	10853.06
459.29	10527.73
459.48	10614.33
459.66	10604.97
459.84	10874.13
460.03	11021.58
460.21	10785.19
460.39	10965.41
460.57	11044.99
460.76	11094.14
460.94	11030.94
461.12	11154.99
461.31	11019.24
461.49	10932.64
461.67	11075.42
461.85	11435.86
462.04	11171.38
462.22	11730.76
462.40	11466.28
462.59	11267.34
462.77	11349.26
462.95	11695.66
463.13	11777.58
463.32	11660.55
463.50	11709.70
463.68	11749.49
463.86	11805.66
464.05	11651.19
464.23	11705.02
464.41	11910.99
464.59	11868.86
464.78	12170.79
464.96	11822.05
465.14	11679.27
465.32	12156.74
465.50	12138.02
465.69	12161.42
465.87	12187.17
466.05	12016.31
466.23	12156.74
466.41	12056.10
466.60	12493.78
466.78	12255.04
466.96	11925.03
467.14	12081.85
467.32	12409.52
467.51	12601.44
467.69	12203.55
467.87	12243.34
468.05	12538.25
468.23	12580.38
468.41	12201.21
468.60	12472.71
468.78	12772.30
468.96	12482.08
469.14	12751.24
469.32	12915.08
469.50	12568.68
469.69	12886.99
469.87	12966.57
470.05	12912.74
470.23	13334.03
470.41	13177.22
470.59	13200.62
470.77	13071.89
470.95	13256.79
471.14	13451.06
471.32	12992.31
471.50	13621.92
471.68	13738.94
471.86	13448.72
472.04	13694.47
472.22	13900.44
472.40	13865.33
472.58	13956.61
472.77	14012.79
472.95	13958.96
473.13	14555.79
473.31	13975.34
473.49	14178.97
473.67	14054.92
473.85	13968.32
474.03	14635.37
474.21	14628.35
474.39	14581.54
474.57	14541.75
474.75	14829.63
474.93	14721.97
475.12	14939.64
475.30	15220.50
475.48	14785.16
475.66	14953.68
475.84	15133.90
476.02	15283.70
476.20	15316.47
476.38	15681.59
476.56	15976.50
476.74	15836.06
476.92	15793.94
477.10	15712.02
477.28	16013.95
477.46	15906.28
477.64	16243.32
477.82	16439.92
478.00	16856.54
478.18	16933.78
478.36	16919.73
478.54	17125.70
478.72	17116.34
478.90	17439.33
479.08	17205.28
479.26	17521.25
479.44	17589.13
479.62	17703.81
479.80	17692.11
479.98	17837.22
480.16	18274.90
480.34	18345.12
480.52	18394.27
480.70	18256.18
480.88	18312.35
481.06	18553.43
481.24	18539.38
481.41	19192.39
481.59	19152.60
481.77	19695.61
481.95	19459.21
482.13	19281.33
482.31	19693.27
482.49	20402.45
482.67	19892.21
482.85	19992.86
483.03	20439.90
483.21	20627.14
483.39	20547.56
483.57	20915.03
483.74	21282.49
483.92	21228.66
484.10	21142.06
484.28	21486.12
484.46	21977.63
484.64	21951.88
484.82	21729.53
485.00	22160.19
485.18	22808.52
485.35	22752.35
485.53	22803.84
485.71	22927.89
485.89	23349.18
486.07	23321.10
486.25	23166.62
486.43	23562.17
486.61	23491.96
486.78	24034.96
486.96	23913.25
487.14	24364.98
487.32	24690.31
487.50	24706.70
487.68	24861.17
487.85	25198.21
488.03	25298.85
488.21	25867.60
488.39	25392.47
488.57	26057.18
488.75	25867.60
488.92	26185.91
489.10	26752.32
489.28	26593.17
489.46	27110.43
489.64	26822.54
489.81	27161.92
489.99	27372.57
490.17	27388.95
490.35	27948.34
490.53	28266.65
490.70	28311.12
490.88	28367.29
491.06	28760.50
491.24	28807.31
491.41	28985.19
491.59	29298.83
491.77	29001.58
491.95	29446.28
492.13	29479.05
492.30	29785.66
492.48	29963.54
492.66	29720.12
492.84	30281.85
493.01	30583.78
493.19	30368.45
493.37	30960.61
493.54	31379.56
493.72	31372.54
493.90	31133.81
494.08	31735.32
494.25	31735.32
494.43	31723.62
494.61	32266.63
494.79	32170.66
494.96	32278.33
495.14	32521.74
495.32	33048.36
495.49	33010.92
495.67	33055.39
495.85	33544.56
496.02	33654.56
496.20	33614.77
496.38	33656.90
496.55	34078.20
496.73	34473.75
496.91	34403.53
497.09	34558.01
497.26	34398.85
497.44	34588.44
497.62	34665.67
497.79	35318.68
497.97	35433.37
498.14	35800.83
498.32	35838.28
498.50	35779.77
498.67	36364.90
498.85	35784.45
499.03	36282.98
499.20	36645.77
499.38	36538.10
499.56	36833.01
499.73	37102.17
499.91	37015.57
500.08	37446.23
500.26	37233.24
500.44	37467.30
500.61	37298.78
500.79	37514.11
500.97	37659.22
501.14	38335.63
501.32	38169.46
501.49	38370.74
501.67	38476.07
501.84	38916.09
502.02	38981.62
502.20	38859.91
502.37	39086.95
502.55	38700.76
502.72	39550.37
502.90	39082.27
503.07	39447.39
503.25	39419.30
503.43	39332.70
503.60	39906.13
503.78	39838.26
503.95	40254.87
504.13	40753.41
504.30	41015.55
504.48	40561.48
504.65	40673.83
504.83	40989.80
505.01	41170.02
505.18	40505.31
505.36	41200.45
505.53	41036.61
505.71	41422.80
505.88	41493.02
506.06	41078.74
506.23	42171.77
506.41	41455.57
506.58	42174.11
506.76	41872.18
506.93	42085.17
507.11	41944.74
507.28	42312.20
507.46	42604.77
507.63	42817.76
507.81	42834.14
507.98	42684.35
508.16	43100.97
508.33	43203.95
508.50	43697.80
508.68	43438.00
508.85	43730.57
509.03	43744.61
509.20	44037.18
509.38	43999.73
509.55	44210.38
509.73	44100.37
509.90	44566.14
510.08	44533.37
510.25	44376.56
510.42	44470.18
510.60	44769.77
510.77	44793.17
510.95	45146.59
511.12	44989.78
511.30	45095.10
511.47	45092.76
511.64	45581.93
511.82	45614.70
511.99	45324.47
512.17	45984.51
512.34	45783.22
512.51	46801.35
512.69	46150.68
512.86	46080.47
513.04	46227.92
513.21	46604.75
513.38	46773.27
513.56	46237.28
513.73	46469.00
513.90	46939.44
514.08	46281.75
514.25	47021.36
514.43	46969.87
514.60	47496.49
514.77	47374.78
514.95	47484.79
515.12	47035.41
515.29	47253.08
515.47	47686.07
515.64	48259.51
515.81	47599.47
515.99	47885.02
516.16	47983.32
516.33	48074.60
516.51	48538.03
516.68	48236.10
516.85	48535.69
517.03	48552.07
517.20	48690.16
517.37	48360.15
517.54	48736.98
517.72	48975.71
517.89	49057.63
518.06	49041.24
518.24	48889.11
518.41	48889.11
518.58	48968.69
518.75	49411.05
518.93	49261.26
519.10	49191.04
519.27	49263.60
519.45	49785.54
519.62	49647.44
519.79	49762.13
519.96	49982.14
520.14	49825.32
520.31	49635.74
520.48	50267.69
520.65	50539.19
520.83	50452.59
521.00	50454.93
521.17	49968.10
521.34	50586.00
521.52	50539.19
521.69	50614.08
521.86	50691.32
522.03	51021.34
522.20	51002.61
522.38	51154.75
522.55	51239.01
522.72	50934.74
522.89	51210.92
523.07	51538.60
523.24	51157.09
523.41	51407.53
523.58	51311.56
523.75	51824.14
523.92	51648.60
524.10	51627.54
524.27	51737.54
524.44	51821.80
524.61	51828.82
524.78	51999.68
524.96	52006.70
525.13	52032.45
525.30	52327.36
525.47	52521.62
525.64	52346.08
525.81	52369.49
525.98	52566.09
526.16	52224.37
526.33	52591.84
526.50	52861.00
526.67	52919.51
526.84	52624.60
527.01	52631.63
527.18	52669.08
527.36	52750.99
527.53	53062.29
527.70	53207.40
527.87	53212.08
528.04	53034.20
528.21	53006.11
528.38	52919.51
528.55	53535.07
528.72	53137.18
528.89	53118.46
529.07	53106.76
529.24	53443.79
529.41	53542.10
529.58	53488.26
529.75	53490.60
529.92	53502.31
530.09	54152.97
530.26	53677.85
530.43	53785.51
530.60	53652.10
530.77	53886.15
530.94	54174.04
531.11	54115.53
531.28	54092.12
531.46	54169.36
531.63	53897.86
531.80	53918.92
531.97	54195.10
532.14	54272.34
532.31	54438.52
532.48	54539.16
532.65	54651.51
532.82	54415.11
532.99	54707.68
533.16	54443.20
533.33	54424.48
533.50	54635.13
533.67	54527.46
533.84	54471.29
534.01	54754.49
534.18	54536.82
534.35	55100.89
534.52	54986.21
534.69	55159.41
534.86	55114.94
535.03	54864.50
535.20	55084.51
535.37	55304.52
535.54	55189.83
535.71	55093.87
535.88	55168.77
536.05	55253.03
536.22	55735.18
536.38	55620.49
536.55	55384.10
536.72	55557.30
536.89	55447.29
537.06	55440.27
537.23	55536.23
537.40	55489.42
537.57	55669.64
537.74	55716.45
537.91	55831.14
538.08	55803.05
538.25	55669.64
538.42	55819.44
538.59	56041.79
538.75	55580.70
538.92	55964.55
539.09	56072.21
539.26	55791.35
539.43	56114.34
539.60	56119.02
539.77	55800.71
539.94	56259.46
540.11	56259.46
540.28	56266.48
540.44	56320.31
540.61	56163.50
540.78	56198.60
540.95	56186.90
541.12	56336.69
541.29	56172.86
541.46	56402.23
541.62	56446.70
541.79	56507.55
541.96	56509.89
542.13	56320.31
542.30	56561.39
542.47	56636.28
542.63	56655.01
542.80	56512.23
542.97	57045.88
543.14	57181.63
543.31	57015.45
543.48	57064.60
543.64	57174.61
543.81	57399.30
543.98	57151.20
544.15	57050.56
544.32	57291.63
544.48	57509.30
544.65	57167.58
544.82	57343.12
544.99	57244.82
545.16	57174.61
545.32	57315.04
545.49	57511.64
545.66	57560.79
545.83	57509.30
546.00	57581.86
546.16	57446.11
546.33	57464.83
546.50	57406.32
546.67	57542.07
546.83	57387.60
547.00	57563.14
547.17	57401.64
547.34	57729.31
547.50	57783.15
547.67	58096.78
547.84	57855.70
548.00	58068.69
548.17	58026.56
548.34	57958.69
548.51	58056.99
548.67	58052.31
548.84	57794.85
549.01	57909.53
549.18	57790.17
549.34	57820.59
549.51	58532.12
549.68	58265.30
549.84	58108.48
550.01	58410.41
550.18	58113.16
550.34	58370.62
550.51	58445.52
550.68	58525.10
550.84	58354.24
551.01	58316.79
551.18	58384.66
551.34	58431.47
551.51	58279.34
551.68	58412.75
551.84	58401.05
552.01	58375.30
552.18	58684.25
552.34	58372.96
552.51	58468.92
552.68	58466.58
552.84	58501.69
553.01	58651.48
553.18	58733.40
553.34	58782.55
553.51	58560.20
553.67	58731.06
553.84	58934.69
554.01	58894.90
554.17	58794.26
554.34	58848.09
554.51	58695.95
554.67	58927.67
554.84	58803.62
555.00	58745.11
555.17	58892.56
555.33	59056.40
555.50	58754.47
555.67	58822.34
555.83	58965.12
556.00	59084.48
556.16	59203.85
556.33	59091.51
556.50	59091.51
556.66	59124.27
556.83	59051.72
556.99	59297.47
557.16	59358.33
557.32	59348.96
557.49	59590.04
557.65	59309.18
557.82	59175.76
557.98	59468.33
558.15	59316.20
558.32	59435.56
558.48	59405.14
558.65	59302.15
558.81	59241.30
558.98	59257.68
559.14	59470.67
559.31	59386.41
559.47	59639.19
559.64	59451.95
559.80	59641.53
559.97	59671.96
560.13	59395.77
560.30	59580.68
560.46	59779.62
560.63	59700.04
560.79	59578.34
560.96	59636.85
561.12	59660.26
561.29	59650.89
561.45	59831.11
561.61	59868.56
561.78	59707.07
561.94	59480.03
562.11	59744.51
562.27	59756.22
562.44	59889.63
562.60	60130.70
562.77	59952.82
562.93	59660.26
563.10	60013.68
563.26	59636.85
563.42	60065.17
563.59	59924.74
563.75	60121.34
563.92	59798.35
564.08	59952.82
564.24	60076.87
564.41	59803.03
564.57	60039.42
564.74	60090.91
564.90	60044.10
565.07	60081.55
565.23	59994.95
565.39	60060.49
565.56	60142.41
565.72	60205.60
565.88	60193.90
566.05	59945.80
566.21	60179.85
566.38	60065.17
566.54	60027.72
566.70	60243.05
566.87	60149.43
567.03	59971.55
567.19	60102.62
567.36	60278.16
567.52	60336.67
567.68	60498.17
567.85	60184.54
568.01	60397.52
568.17	60023.04
568.34	60287.52
568.50	60076.87
568.66	60203.26
568.83	60189.22
568.99	60299.22
569.15	60184.54
569.32	60491.15
569.48	60177.51
569.64	60402.21
569.81	60331.99
569.97	60243.05
570.13	60278.16
570.30	60264.11
570.46	60303.90
570.62	60224.32
570.78	60243.05
570.95	60306.24
571.11	60383.48
571.27	60439.65
571.43	60472.42
571.60	60441.99
571.76	60458.38
571.92	60563.70
572.09	60247.73
572.25	60502.85
572.41	60479.44
572.57	60331.99
572.74	60549.66
572.90	60537.96
573.06	60500.51
573.22	60493.49
573.38	60570.72
573.55	60505.19
573.71	60582.43
573.87	60561.36
574.03	60334.33
574.20	60631.58
574.36	60650.30
574.52	60718.18
574.68	60615.19
574.84	60645.62
575.01	60750.94
575.17	60676.05
575.33	60647.96
575.49	60509.87
575.65	60727.54
575.82	60743.92
575.98	60741.58
576.14	60750.94
576.30	60528.59
576.46	60741.58
576.62	60505.19
576.79	60727.54
576.95	60612.85
577.11	60540.30
577.27	60708.82
577.43	60631.58
577.59	60750.94
577.75	60636.26
577.92	60720.52
578.08	60774.35
578.24	60603.49
578.40	61106.71
578.56	60659.66
578.72	60886.70
578.88	60846.91
579.04	60757.97
579.21	60797.76
579.37	60736.90
579.53	60626.90
579.69	60566.04
579.85	60764.99
580.01	60776.69
580.17	60823.50
580.33	60760.31
580.49	60940.53
580.65	60725.20
580.82	60853.93
580.98	60837.54
581.14	60652.64
581.30	60867.97
581.46	60596.47
581.62	60942.87
581.78	60507.53
581.94	60947.55
582.10	60762.65
582.26	60664.35
582.42	60835.20
582.58	60715.84
582.74	60797.76
582.90	60821.16
583.06	60853.93
583.22	60699.45
583.38	60814.14
583.54	60846.91
583.70	60940.53
583.86	60877.33
584.02	60734.56
584.18	61104.37
584.34	60985.00
584.50	60851.59
584.66	60718.18
584.82	60690.09
584.98	61001.38
585.14	60959.25
585.30	60912.44
585.46	60992.02
585.62	60631.58
585.78	61073.94
585.94	60568.38
586.10	60748.60
586.26	60959.25
586.42	60874.99
586.58	61120.75
586.74	60935.85
586.90	60800.10
587.06	61132.45
587.22	60907.76
587.38	60874.99
587.54	61024.79
587.70	61104.37
587.86	61001.38
588.02	60762.65
588.18	61073.94
588.34	60966.27
588.49	61055.21
