SpectraSuite Data File
++++++++++++++++++++++++++++++++++++
Date: Fri Oct 25 11:23:45 EDT 2013
User: price-jones
Dark Spectrum Present: No
Reference Spectrum Present: No
Number of Sampled Component Spectra: 1
Spectrometers: USB2+H05261
Integration Time (usec): 100000 (USB2+H05261)
Spectra Averaged: 1 (USB2+H05261)
Boxcar Smoothing: 0 (USB2+H05261)
Correct for Electrical Dark: No (USB2+H05261)
Strobe/Lamp Enabled: No (USB2+H05261)
Correct for Detector Non-linearity: No (USB2+H05261)
Correct for Stray Light: No (USB2+H05261)
Number of Pixels in Processed Spectrum: 2048
>>>>>Begin Processed Spectral Data<<<<<
365.73	229.37
365.92	229.37
366.12	229.37
366.32	114.69
366.52	175.54
366.72	180.22
366.91	84.26
367.11	126.39
367.31	93.62
367.51	145.11
367.70	128.73
367.90	166.18
368.10	168.52
368.30	149.79
368.49	114.69
368.69	166.18
368.89	170.86
369.09	156.82
369.28	102.98
369.48	119.37
369.68	205.97
369.87	170.86
370.07	203.63
370.27	236.39
370.47	320.65
370.66	571.09
370.86	641.31
371.06	676.41
371.25	678.76
371.45	596.84
371.65	603.86
371.84	671.73
372.04	699.82
372.24	676.41
372.44	624.92
372.63	716.20
372.83	734.93
373.03	819.19
373.22	730.25
373.42	809.83
373.62	772.38
373.81	711.52
374.01	805.14
374.21	833.23
374.40	819.19
374.60	849.61
374.79	774.72
374.99	814.51
375.19	774.72
375.38	788.76
375.58	880.04
375.78	873.02
375.97	833.23
376.17	945.58
376.37	802.80
376.56	903.45
376.76	854.30
376.95	922.17
377.15	891.74
377.35	889.40
377.54	905.79
377.74	915.15
377.93	936.21
378.13	1034.52
378.33	915.15
378.52	971.32
378.72	903.45
378.91	936.21
379.11	814.51
379.31	980.68
379.50	983.02
379.70	936.21
379.89	1048.56
380.09	968.98
380.28	1011.11
380.48	912.81
380.68	957.28
380.87	983.02
381.07	1062.60
381.26	980.68
381.46	1097.71
381.65	1053.24
381.85	1067.28
382.04	1027.50
382.24	985.37
382.43	1022.81
382.63	1011.11
382.83	1151.54
383.02	1114.10
383.22	1086.01
383.41	1055.58
383.61	1179.63
383.80	1146.86
384.00	1142.18
384.19	1090.69
384.39	1146.86
384.58	1210.06
384.78	1177.29
384.97	1088.35
385.17	1123.46
385.36	1128.14
385.56	1191.33
385.75	1217.08
385.95	1228.78
386.14	1214.74
386.34	1088.35
386.53	1177.29
386.72	1345.81
386.92	1186.65
387.11	1219.42
387.31	1296.66
387.50	1231.12
387.70	1249.85
387.89	1226.44
388.09	1221.76
388.28	1310.70
388.48	1228.78
388.67	1343.47
388.86	1313.04
389.06	1310.70
389.25	1249.85
389.45	1331.76
389.64	1287.29
389.84	1387.94
390.03	1338.79
390.22	1364.53
390.42	1313.04
390.61	1406.66
390.81	1289.64
391.00	1516.67
391.19	1357.51
391.39	1488.58
391.58	1437.09
391.78	1413.68
391.97	1446.45
392.16	1437.09
392.36	1542.41
392.55	1551.78
392.75	1488.58
392.94	1530.71
393.13	1472.20
393.33	1423.05
393.52	1607.95
393.71	1472.20
393.91	1509.65
394.10	1626.67
394.29	1551.78
394.49	1617.31
394.68	1746.04
394.88	1687.53
395.07	1600.93
395.26	1657.10
395.46	1666.46
395.65	1757.74
395.84	1680.50
396.04	1785.83
396.23	1839.66
396.42	1757.74
396.62	1785.83
396.81	1830.30
397.00	1685.19
397.19	1783.49
397.39	1825.62
397.58	1926.26
397.77	1795.19
397.97	1933.28
398.16	1729.66
398.35	1809.23
398.55	1902.86
398.74	1884.13
398.93	2050.31
399.12	1916.90
399.32	1916.90
399.51	1970.73
399.70	2033.93
399.90	1956.69
400.09	2024.56
400.28	2139.25
400.47	1982.43
400.67	2038.61
400.86	2036.27
401.05	2134.57
401.24	2188.40
401.44	2101.80
401.63	2179.04
401.82	2150.95
402.01	2115.84
402.21	2195.42
402.40	2218.83
402.59	2258.62
402.78	2244.57
402.97	2221.17
403.17	2183.72
403.36	2331.17
403.55	2319.47
403.74	2244.57
403.93	2303.09
404.13	2375.64
404.32	2333.51
404.51	2373.30
404.70	2389.69
404.89	2431.82
405.09	2424.80
405.28	2305.43
405.47	2438.84
405.66	2471.61
405.85	2530.12
406.05	2525.44
406.24	2612.04
406.43	2490.33
406.62	2665.87
406.81	2635.44
407.00	2712.68
407.20	2483.31
407.39	2555.86
407.58	2700.98
407.77	2761.83
407.96	2693.96
408.15	2799.28
408.34	2630.76
408.54	2853.11
408.73	2839.07
408.92	2782.90
409.11	2820.35
409.30	2846.09
409.49	2888.22
409.68	2932.69
409.87	2960.78
410.07	2939.71
410.26	2967.80
410.45	2932.69
410.64	3040.36
410.83	3103.55
411.02	3080.14
411.21	3110.57
411.40	3166.74
411.59	3241.64
411.78	3213.56
411.98	3269.73
412.17	3218.24
412.36	3396.12
412.55	3267.39
412.74	3407.82
412.93	3428.88
413.12	3386.76
413.31	3520.17
413.50	3552.93
413.69	3428.88
413.88	3604.42
414.07	3634.85
414.26	3627.83
414.45	3665.28
414.64	3686.34
414.83	3719.11
415.02	3756.56
415.22	4004.66
415.41	3826.78
415.60	3777.62
415.79	3915.72
415.98	4021.04
416.17	4049.13
416.36	3981.25
416.55	4011.68
416.74	4081.89
416.93	4056.15
417.12	4142.75
417.31	4227.01
417.50	4252.75
417.69	4276.16
417.88	4344.03
418.07	4196.58
418.26	4531.28
418.45	4423.61
418.64	4594.47
418.83	4334.67
419.02	4449.36
419.21	4470.42
419.39	4486.81
419.58	4411.91
419.77	4505.53
419.96	4568.73
420.15	4629.58
420.34	4636.60
420.53	4725.54
420.72	4779.37
420.91	4784.06
421.10	4774.69
421.29	4699.80
421.48	4681.07
421.67	4739.58
421.86	4709.16
422.05	4894.06
422.24	4950.23
422.43	4896.40
422.61	4828.53
422.80	5093.01
422.99	4964.28
423.18	4873.00
423.37	5039.17
423.56	4954.91
423.75	4973.64
423.94	4802.78
424.13	4674.05
424.32	4727.88
424.50	4971.30
424.69	5055.56
424.88	5149.18
425.07	5057.90
425.26	4968.96
425.45	4884.70
425.64	5046.20
425.83	5067.26
426.01	5270.89
426.20	5081.30
426.39	5076.62
426.58	5111.73
426.77	4999.38
426.96	5142.16
427.15	5308.34
427.33	5144.50
427.52	5184.29
427.71	5320.04
427.90	5282.59
428.09	5273.23
428.28	5310.68
428.46	5411.32
428.65	5392.59
428.84	5516.64
429.03	5607.92
429.22	5427.70
429.40	5589.20
429.59	5570.48
429.78	5228.76
429.97	5181.95
430.16	5542.39
430.34	5666.44
430.53	5694.52
430.72	5753.04
430.91	5820.91
431.10	5687.50
431.28	5886.45
431.47	5907.51
431.66	5806.87
431.85	5628.99
432.03	5879.43
432.22	5989.43
432.41	6031.56
432.60	5994.11
432.79	5940.28
432.97	5980.07
433.16	6024.54
433.35	5947.30
433.54	6097.10
433.72	6162.63
433.91	6125.18
434.10	6167.31
434.28	5968.37
434.47	6263.27
434.66	6464.56
434.85	6225.82
435.03	6377.96
435.22	6347.53
435.41	6525.41
435.59	6380.30
435.78	6462.22
435.97	6532.44
436.16	6548.82
436.34	6471.58
436.53	6497.33
436.72	6565.20
436.90	6502.01
437.09	6600.31
437.28	6424.77
437.46	6635.42
437.65	6612.01
437.84	6822.66
438.02	6750.10
438.21	6892.88
438.40	6731.38
438.58	7108.21
438.77	7143.32
438.96	7059.06
439.14	7211.19
439.33	7140.97
439.52	7279.07
439.70	7323.54
439.89	7398.43
440.08	7522.48
440.26	7433.54
440.45	7478.01
440.63	7473.33
440.82	7625.47
441.01	7492.05
441.19	7712.07
441.38	7611.42
441.57	7817.39
441.75	7875.90
441.94	8112.30
442.12	8037.40
442.31	8009.31
442.50	8229.32
442.68	7939.10
442.87	8053.78
443.05	8299.54
443.24	8510.19
443.43	8065.49
443.61	8152.09
443.80	8454.02
443.98	7840.79
444.17	7845.48
444.35	8341.67
444.54	8397.84
444.73	8301.88
444.91	8306.56
445.10	8716.16
445.28	8236.35
445.47	7981.23
445.65	8217.62
445.84	8538.27
446.02	8493.80
446.21	8484.44
446.39	8514.87
446.58	8517.21
446.77	8425.93
446.95	8306.56
447.14	8470.40
447.32	8608.49
447.51	8676.37
447.69	8552.32
447.88	8451.67
448.06	8652.96
448.25	8535.93
448.43	8676.37
448.62	8681.05
448.80	8709.13
448.99	8842.54
449.17	8786.37
449.36	8681.05
449.54	9001.70
449.73	9067.24
449.91	9205.33
450.10	8842.54
450.28	9270.86
450.46	9111.71
450.65	9163.20
450.83	9109.36
451.02	8999.36
451.20	9167.88
451.39	9100.00
451.57	9167.88
451.76	9132.77
451.94	9057.87
452.13	9308.31
452.31	9425.34
452.49	9242.78
452.68	9518.96
452.86	9441.72
453.05	9305.97
453.23	9488.53
453.42	9303.63
453.60	9495.55
453.78	9572.79
453.97	9427.68
454.15	9565.77
454.34	9687.48
454.52	9900.47
454.70	9650.03
454.89	9799.82
455.07	9867.70
455.26	9760.03
455.44	10010.47
455.62	10012.81
455.81	10008.13
455.99	10031.54
456.17	10078.35
456.36	10296.02
456.54	10146.22
456.73	10211.76
456.91	10560.50
457.09	10619.01
457.28	10623.69
457.46	10146.22
457.64	10436.45
457.83	10487.94
458.01	10321.76
458.19	10583.90
458.38	10391.98
458.56	10703.27
458.74	10780.51
458.93	10752.42
459.11	10834.34
459.29	10581.56
459.48	10518.37
459.66	10602.63
459.84	10827.32
460.03	11159.67
460.21	11035.63
460.39	10963.07
460.57	11094.14
460.76	11049.67
460.94	11288.40
461.12	11122.23
461.31	11091.80
461.49	11162.01
461.67	11243.93
461.85	11447.56
462.04	11463.94
462.22	11653.53
462.40	11726.08
462.59	11637.14
462.77	11569.27
462.95	11641.82
463.13	11534.16
463.32	11700.34
463.50	11997.59
463.68	11969.50
463.86	11712.04
464.05	11758.85
464.23	11679.27
464.41	11899.28
464.59	11672.25
464.78	11798.64
464.96	12231.64
465.14	12046.74
465.32	12114.61
465.50	12147.38
465.69	12236.32
465.87	12149.72
466.05	12095.89
466.23	12301.86
466.41	12278.45
466.60	12624.85
466.78	12245.68
466.96	12280.79
467.14	12355.69
467.32	12334.62
467.51	12692.73
467.69	12369.73
467.87	12580.38
468.05	12732.51
468.23	12627.19
468.41	12706.77
468.60	12882.31
468.78	12727.83
468.96	12779.32
469.14	12795.71
469.32	13146.79
469.50	12685.70
469.69	12943.16
469.87	12922.10
470.05	13015.72
470.23	13224.03
470.41	13214.66
470.59	13504.89
470.77	13102.32
470.95	13186.58
471.14	13635.96
471.32	13128.06
471.50	13802.14
471.68	13792.78
471.86	13701.50
472.04	13750.65
472.22	14218.75
472.40	13692.13
472.58	14040.87
472.77	14024.49
472.95	14370.89
473.13	14743.03
473.31	14274.93
473.49	14200.03
473.67	14155.56
473.85	14490.26
474.03	14572.18
474.21	14504.30
474.39	14892.83
474.57	14480.89
474.75	14965.39
474.93	14916.23
475.12	14932.62
475.30	15159.65
475.48	15012.20
475.66	15428.81
475.84	15307.10
476.02	15531.80
476.20	15337.53
476.38	15681.59
476.56	16133.31
476.74	16030.33
476.92	16030.33
477.10	15648.82
477.28	16299.49
477.46	16259.70
477.64	16212.89
477.82	16535.88
478.00	16889.31
478.18	16931.44
478.36	17137.40
478.54	17191.23
478.72	17013.35
478.90	17476.78
479.08	17621.89
479.26	17846.58
479.44	17680.41
479.62	17921.48
479.80	18082.98
479.98	18218.73
480.16	18295.97
480.34	18525.34
480.52	18855.36
480.70	18579.17
480.88	18352.14
481.06	18932.59
481.24	19075.37
481.41	19248.57
481.59	19592.62
481.77	19520.07
481.95	19765.82
482.13	19915.62
482.31	19742.42
482.49	20142.65
482.67	20467.98
482.85	20514.80
483.03	20538.20
483.21	21113.97
483.39	21081.21
483.57	20943.11
483.74	21305.90
483.92	21467.39
484.10	21338.66
484.28	21874.65
484.46	22052.53
484.64	22237.43
484.82	22197.64
485.00	22408.29
485.18	23140.88
485.35	23229.82
485.53	23065.98
485.71	23295.35
485.89	23847.72
486.07	23438.12
486.25	23859.42
486.43	23550.47
486.61	24112.20
486.78	24259.65
486.96	24180.07
487.14	24767.55
487.32	24783.93
487.50	24905.64
487.68	25022.67
487.85	25324.60
488.03	25663.97
488.21	25977.61
488.39	26047.82
488.57	26239.75
488.75	26462.10
488.92	26867.01
489.10	26927.86
489.28	26857.65
489.46	27007.44
489.64	27447.46
489.81	27700.24
489.99	27606.62
490.17	27754.07
490.35	28418.78
490.53	28194.09
490.70	28882.21
490.88	28334.53
491.06	29069.45
491.24	28926.68
491.41	28980.51
491.59	29378.40
491.77	29036.69
491.95	29546.92
492.13	29682.67
492.30	30082.91
492.48	30136.74
492.66	30724.21
492.84	30583.78
493.01	30691.44
493.19	30960.61
493.37	31288.28
493.54	31428.71
493.72	31754.05
493.90	31622.98
494.08	32231.52
494.25	32121.51
494.43	32123.85
494.61	32456.21
494.79	32683.24
494.96	32610.68
495.14	32975.81
495.32	33479.02
495.49	33635.84
495.67	33123.26
495.85	33270.72
496.02	33919.04
496.20	34370.77
496.38	34345.02
496.55	34244.38
496.73	35028.46
496.91	34976.97
497.09	35232.08
497.26	35072.93
497.44	35236.77
497.62	35342.09
497.79	36002.12
497.97	35845.30
498.14	36641.09
498.32	36517.04
498.50	36418.74
498.67	36765.14
498.85	36816.63
499.03	37092.81
499.20	36940.68
499.38	37134.94
499.56	37083.45
499.73	37268.35
499.91	37741.14
500.08	37298.78
500.26	37542.19
500.44	38031.36
500.61	38450.32
500.79	38153.07
500.97	38316.91
501.14	38731.18
501.32	38600.12
501.49	38953.54
501.67	38735.87
501.84	39281.21
502.02	38990.98
502.20	39091.63
502.37	39468.45
502.55	39494.20
502.72	39758.68
502.90	39739.96
503.07	39929.54
503.25	39859.32
503.43	39901.45
503.60	40339.13
503.78	40275.94
503.95	40643.40
504.13	40954.69
504.30	40769.79
504.48	40690.21
504.65	40840.01
504.83	41703.67
505.01	41347.90
505.18	41368.97
505.36	42000.91
505.53	41170.02
505.71	41841.76
505.88	42178.79
506.06	41787.92
506.23	42106.24
506.41	42031.34
506.58	42139.00
506.76	42267.73
506.93	42946.49
507.11	42419.87
507.28	42719.46
507.46	42972.24
507.63	42993.30
507.81	43487.15
507.98	43309.27
508.16	43831.21
508.33	44032.50
508.50	43683.76
508.68	43688.44
508.85	44128.46
509.03	44123.78
509.20	44086.33
509.38	44313.36
509.55	44713.59
509.73	44818.92
509.90	44582.52
510.08	45038.93
510.25	44495.92
510.42	45015.52
510.60	45500.01
510.77	45221.49
510.95	45338.52
511.12	45216.81
511.30	45656.83
511.47	45923.65
511.64	45720.02
511.82	46405.80
511.99	45750.45
512.17	46263.03
512.34	46075.79
512.51	46759.22
512.69	46780.29
512.86	46527.51
513.04	46871.57
513.21	46644.54
513.38	46653.90
513.56	47075.19
513.73	46731.14
513.90	47222.65
514.08	46590.70
514.25	47533.94
514.43	47459.04
514.60	47695.44
514.77	47793.74
514.95	48278.23
515.12	47660.33
515.29	47730.54
515.47	48016.09
515.64	48336.74
515.81	47786.72
515.99	48381.21
516.16	48619.95
516.33	49102.10
516.51	49027.20
516.68	48465.47
516.85	48741.66
517.03	48971.03
517.20	48994.43
517.37	49062.31
517.54	49441.48
517.72	49401.69
517.89	49577.23
518.06	49797.24
518.24	49446.16
518.41	49357.22
518.58	49418.07
518.75	49628.72
518.93	50021.93
519.10	49656.81
519.27	49956.39
519.45	49851.07
519.62	50199.81
519.79	50600.04
519.96	50349.60
520.14	50405.78
520.31	50157.68
520.48	50450.25
520.65	50623.45
520.83	50445.57
521.00	50906.65
521.17	50508.76
521.34	50639.83
521.52	50749.84
521.69	50852.82
521.86	51311.56
522.03	51449.66
522.20	51554.98
522.38	51798.40
522.55	51592.43
522.72	51519.87
522.89	51302.20
523.07	51814.78
523.24	51332.63
523.41	51723.50
523.58	51868.61
523.75	52308.63
523.92	52079.26
524.10	52200.97
524.27	51833.50
524.44	52144.80
524.61	52413.96
524.78	52200.97
524.96	52369.49
525.13	52367.15
525.30	52903.13
525.47	52938.24
525.64	52692.48
525.81	52612.90
525.98	52760.36
526.16	52640.99
526.33	52886.74
526.50	53102.07
526.67	53158.25
526.84	53347.83
527.01	52903.13
527.18	53176.97
527.36	53404.00
527.53	53294.00
527.70	53621.67
527.87	53724.66
528.04	53125.48
528.21	53741.04
528.38	53492.94
528.55	53932.96
528.72	53247.19
528.89	53537.41
529.07	53439.11
529.24	53670.82
529.41	53907.22
529.58	53907.22
529.75	53588.91
529.92	53902.54
530.09	53921.26
530.26	53951.69
530.43	54160.00
530.60	54026.59
530.77	54019.56
530.94	54307.45
531.11	53984.46
531.28	54075.74
531.46	54384.69
531.63	54281.70
531.80	54578.95
531.97	54490.01
532.14	54677.25
532.31	54686.62
532.48	54859.82
532.65	55023.65
532.82	54887.90
532.99	54770.88
533.16	54609.38
533.33	55004.93
533.50	54747.47
533.67	55098.55
533.84	54642.15
534.01	55072.81
534.18	54859.82
534.35	55332.60
534.52	55065.78
534.69	55454.31
534.86	55136.00
535.03	55133.66
535.20	55508.14
535.37	55458.99
535.54	55583.04
535.71	55618.15
535.88	55690.71
536.05	55643.90
536.22	55613.47
536.38	55868.59
536.55	55723.47
536.72	55922.42
536.89	55648.58
537.06	55838.16
537.23	55999.66
537.40	55615.81
537.57	55819.44
537.74	55903.70
537.91	55833.48
538.08	56053.49
538.25	56025.40
538.42	56083.92
538.59	56179.88
538.75	55805.39
538.92	56233.71
539.09	56222.01
539.26	56381.16
539.43	56165.84
539.60	56217.33
539.77	56210.31
539.94	56577.77
540.11	56399.89
540.28	56491.17
540.44	56589.47
540.61	56509.89
540.78	56453.72
540.95	56547.34
541.12	56273.50
541.29	56718.20
541.46	56704.16
541.62	56645.65
541.79	56757.99
541.96	56432.66
542.13	56640.96
542.30	56917.15
542.47	57111.41
542.63	56931.19
542.80	56999.07
542.97	57247.16
543.14	57406.32
543.31	57373.55
543.48	57296.31
543.64	57439.09
543.81	57408.66
543.98	57506.96
544.15	57350.15
544.32	57591.22
544.48	57785.49
544.65	57525.69
544.82	57403.98
544.99	57301.00
545.16	57450.79
545.32	57525.69
545.49	57862.72
545.66	57921.24
545.83	57895.49
546.00	57928.26
546.16	57663.78
546.33	57790.17
546.50	57806.55
546.67	57977.41
546.83	57476.54
547.00	57949.32
547.17	57937.62
547.34	57979.75
547.50	58206.78
547.67	58108.48
547.84	58010.18
548.00	58288.70
548.17	58246.57
548.34	58277.00
548.51	58499.35
548.67	58340.19
548.84	58323.81
549.01	58178.70
549.18	58408.07
549.34	58347.21
549.51	58255.93
549.68	58576.59
549.84	58457.22
550.01	58436.16
550.18	58489.99
550.34	58555.52
550.51	58731.06
550.68	58398.71
550.84	58410.41
551.01	58803.62
551.18	58766.17
551.34	58742.77
551.51	58773.19
551.68	58969.80
551.84	58693.61
552.01	58590.63
552.18	58958.09
552.34	58651.48
552.51	58920.65
552.68	58810.64
552.84	58684.25
553.01	58894.90
553.18	59011.93
553.34	59159.38
553.51	58983.84
553.67	58880.86
553.84	58965.12
554.01	59016.61
554.17	59145.34
554.34	58930.01
554.51	58932.35
554.67	59143.00
554.84	59213.21
555.00	59316.20
555.17	59112.57
555.33	59028.31
555.50	59316.20
555.67	59234.28
555.83	59128.95
556.00	59395.77
556.16	59442.59
556.33	59306.83
556.50	59274.07
556.66	59561.95
556.83	59154.70
556.99	59552.59
557.16	59634.51
557.32	59821.75
557.49	59643.87
557.65	59547.91
557.82	59613.44
557.98	59554.93
558.15	59700.04
558.32	59777.28
558.48	59561.95
558.65	59671.96
558.81	59578.34
558.98	59554.93
559.14	59742.17
559.31	59875.58
559.47	59678.98
559.64	59873.24
559.80	59934.10
559.97	60037.08
560.13	59812.39
560.30	59941.12
560.46	60048.78
560.63	60060.49
560.79	59824.09
560.96	59978.57
561.12	59875.58
561.29	59917.71
561.45	59938.78
561.61	59875.58
561.78	59891.97
561.94	60048.78
562.11	59920.05
562.27	60053.47
562.44	60074.53
562.60	60198.58
562.77	60114.32
562.93	59964.52
563.10	60341.35
563.26	59875.58
563.42	60275.82
563.59	59941.12
563.75	60163.47
563.92	60184.54
564.08	60266.45
564.24	60243.05
564.41	60231.35
564.57	60294.54
564.74	60273.48
564.90	60184.54
565.07	60154.11
565.23	60217.30
565.39	60212.62
565.56	60350.71
565.72	60432.63
565.88	60383.48
566.05	60189.22
566.21	60236.03
566.38	60416.25
566.54	60418.59
566.70	60477.10
566.87	60463.06
567.03	60409.23
567.19	60392.84
567.36	60439.65
567.52	60229.01
567.68	60645.62
567.85	60601.15
568.01	60561.36
568.17	60477.10
568.34	60423.27
568.50	60413.91
568.66	60395.18
568.83	60381.14
568.99	60563.70
569.15	60654.98
569.32	60512.21
569.48	60449.02
569.64	60657.32
569.81	60741.58
569.97	60376.46
570.13	60629.24
570.30	60514.55
570.46	60507.53
570.62	60640.94
570.78	60699.45
570.95	60640.94
571.11	60732.22
571.27	60657.32
571.43	60743.92
571.60	60860.95
571.76	60669.03
571.92	60893.72
572.09	60811.80
572.25	60760.31
572.41	60315.61
572.57	60832.86
572.74	60966.27
572.90	60711.16
573.06	60884.36
573.22	60804.78
573.38	60711.16
573.55	60860.95
573.71	60905.42
573.87	60760.31
574.03	60718.18
574.20	60903.08
574.36	60816.48
574.52	60804.78
574.68	60966.27
574.84	61116.07
575.01	60914.78
575.17	60945.21
575.33	60856.27
575.49	60867.97
575.65	60837.54
575.82	60856.27
575.98	60870.31
576.14	61118.41
576.30	60956.91
576.46	60879.67
576.62	60800.10
576.79	60963.93
576.95	60734.56
577.11	61076.28
577.27	61064.58
577.43	60809.46
577.59	60994.36
577.75	60935.85
577.92	60772.01
578.08	60914.78
578.24	60985.00
578.40	61055.21
578.56	61036.49
578.72	60790.73
578.88	61134.79
579.04	61076.28
579.21	60963.93
579.37	61097.34
579.53	61162.88
579.69	60804.78
579.85	60886.70
580.01	60938.19
580.17	60917.12
580.33	60910.10
580.49	61109.05
580.65	61003.72
580.82	61144.16
580.98	60837.54
581.14	61008.40
581.30	61066.92
581.46	60912.44
581.62	60851.59
581.78	61111.39
581.94	61113.73
582.10	60970.96
582.26	60999.04
582.42	61092.66
582.58	61132.45
582.74	61151.18
582.90	61137.13
583.06	61289.27
583.22	61017.77
583.38	60924.14
583.54	60975.64
583.70	61106.71
583.86	61240.12
584.02	60977.98
584.18	61205.01
584.34	61069.26
584.50	60966.27
584.66	61071.60
584.82	60977.98
584.98	61120.75
585.14	61066.92
585.30	60966.27
585.46	61048.19
585.62	61029.47
585.78	61207.35
585.94	61076.28
586.10	61146.50
586.26	61001.38
586.42	61322.04
586.58	61261.18
586.74	61052.87
586.90	61069.26
587.06	61043.51
587.22	61410.98
587.38	61261.18
587.54	61282.25
587.70	61286.93
587.86	61235.44
588.02	61286.93
588.18	61275.22
588.34	61162.88
