SpectraSuite Data File
++++++++++++++++++++++++++++++++++++
Date: Fri Oct 25 11:26:32 EDT 2013
User: price-jones
Dark Spectrum Present: No
Reference Spectrum Present: No
Number of Sampled Component Spectra: 1
Spectrometers: USB2+H05261
Integration Time (usec): 100000 (USB2+H05261)
Spectra Averaged: 1 (USB2+H05261)
Boxcar Smoothing: 0 (USB2+H05261)
Correct for Electrical Dark: No (USB2+H05261)
Strobe/Lamp Enabled: No (USB2+H05261)
Correct for Detector Non-linearity: No (USB2+H05261)
Correct for Stray Light: No (USB2+H05261)
Number of Pixels in Processed Spectrum: 2048
>>>>>Begin Processed Spectral Data<<<<<
365.73	208.31
365.92	208.31
366.12	208.31
366.32	154.48
366.52	215.33
366.72	173.20
366.91	110.01
367.11	170.86
367.31	145.11
367.51	105.32
367.70	196.60
367.90	234.05
368.10	154.48
368.30	250.44
368.49	112.35
368.69	119.37
368.89	145.11
369.09	189.58
369.28	191.92
369.48	187.24
369.68	110.01
369.87	194.26
370.07	220.01
370.27	215.33
370.47	257.46
370.66	631.94
370.86	662.37
371.06	765.36
371.25	732.59
371.45	662.37
371.65	711.52
371.84	704.50
372.04	678.76
372.24	723.23
372.44	711.52
372.63	734.93
372.83	671.73
373.03	858.98
373.22	723.23
373.42	748.97
373.62	758.33
373.81	868.34
374.01	779.40
374.21	821.53
374.40	706.84
374.60	854.30
374.79	833.23
374.99	880.04
375.19	842.59
375.38	887.06
375.58	870.68
375.78	877.70
375.97	877.70
376.17	889.40
376.37	903.45
376.56	849.61
376.76	891.74
376.95	901.11
377.15	947.92
377.35	826.21
377.54	851.96
377.74	994.73
377.93	837.91
378.13	926.85
378.33	908.13
378.52	870.68
378.72	1008.77
378.91	961.96
379.11	945.58
379.31	910.47
379.50	917.49
379.70	898.77
379.89	1039.20
380.09	997.07
380.28	875.36
380.48	1053.24
380.68	926.85
380.87	978.34
381.07	1076.65
381.26	919.83
381.46	1053.24
381.65	1060.26
381.85	1055.58
382.04	1015.79
382.24	1095.37
382.43	990.05
382.63	1088.35
382.83	1057.92
383.02	1076.65
383.22	1071.97
383.41	1167.93
383.61	1114.10
383.80	1228.78
384.00	1121.12
384.19	1198.35
384.39	1116.44
384.58	1160.91
384.78	1123.46
384.97	1111.75
385.17	1090.69
385.36	1139.84
385.56	1153.88
385.75	1160.91
385.95	1210.06
386.14	1104.73
386.34	1196.01
386.53	1235.80
386.72	1200.69
386.92	1165.59
387.11	1268.57
387.31	1228.78
387.50	1268.57
387.70	1291.98
387.89	1259.21
388.09	1294.32
388.28	1238.14
388.48	1233.46
388.67	1359.85
388.86	1338.79
389.06	1275.59
389.25	1324.74
389.45	1439.43
389.64	1420.71
389.84	1404.32
390.03	1406.66
390.22	1385.60
390.42	1378.58
390.61	1390.28
390.81	1420.71
391.00	1348.15
391.19	1469.86
391.39	1483.90
391.58	1413.68
391.78	1448.79
391.97	1469.86
392.16	1399.64
392.36	1474.54
392.55	1617.31
392.75	1497.94
392.94	1565.82
393.13	1500.28
393.33	1514.33
393.52	1607.95
393.71	1455.81
393.91	1561.14
394.10	1565.82
394.29	1600.93
394.49	1638.38
394.68	1654.76
394.88	1654.76
395.07	1769.44
395.26	1729.66
395.46	1736.68
395.65	1790.51
395.84	1710.93
396.04	1736.68
396.23	1647.74
396.42	1703.91
396.62	1818.60
396.81	1746.04
397.00	1675.82
397.19	1760.08
397.39	1797.53
397.58	1886.47
397.77	1919.24
397.97	1867.75
398.16	1858.39
398.35	1830.30
398.55	1865.41
398.74	1909.88
398.93	1973.07
399.12	1905.20
399.32	1872.43
399.51	1923.92
399.70	2052.65
399.90	1994.14
400.09	2064.35
400.28	2125.21
400.47	2090.10
400.67	2101.80
400.86	2094.78
401.05	2071.37
401.24	2115.84
401.44	2188.40
401.63	2127.55
401.82	2216.49
402.01	2094.78
402.21	2190.74
402.40	2153.29
402.59	2204.78
402.78	2300.75
402.97	2193.08
403.17	2267.98
403.36	2321.81
403.55	2331.17
403.74	2377.98
403.93	2277.34
404.13	2349.90
404.32	2389.69
404.51	2326.49
404.70	2429.48
404.89	2389.69
405.09	2476.29
405.28	2448.20
405.47	2457.56
405.66	2576.93
405.85	2555.86
406.05	2518.42
406.24	2530.12
406.43	2565.23
406.62	2462.24
406.81	2642.46
407.00	2708.00
407.20	2600.34
407.39	2635.44
407.58	2581.61
407.77	2717.36
407.96	2574.59
408.15	2700.98
408.34	2780.56
408.54	2813.32
408.73	2724.38
408.92	2839.07
409.11	2871.84
409.30	2920.99
409.49	2923.33
409.68	2920.99
409.87	2956.10
410.07	2939.71
410.26	2993.55
410.45	3066.10
410.64	2967.80
410.83	2977.16
411.02	3021.63
411.21	3180.79
411.40	3183.13
411.59	3236.96
411.78	3190.15
411.98	3087.17
412.17	3267.39
412.36	3337.60
412.55	3426.54
412.74	3379.73
412.93	3379.73
413.12	3396.12
413.31	3585.70
413.50	3459.31
413.69	3543.57
413.88	3599.74
414.07	3581.02
414.26	3623.15
414.45	3686.34
414.64	3681.66
414.83	3651.24
415.02	3714.43
415.22	3896.99
415.41	3887.63
415.60	3880.61
415.79	3915.72
415.98	3889.97
416.17	4072.53
416.36	4014.02
416.55	3885.29
416.74	4030.40
416.93	4025.72
417.12	4023.38
417.31	4168.49
417.50	4215.30
417.69	4390.84
417.88	4353.40
418.07	4308.93
418.26	4416.59
418.45	4397.87
418.64	4620.22
418.83	4507.87
419.02	4526.60
419.21	4526.60
419.39	4554.68
419.58	4491.49
419.77	4468.08
419.96	4671.71
420.15	4655.33
420.34	4695.11
420.53	4650.64
420.72	4793.42
420.91	4638.94
421.10	4856.61
421.29	4919.81
421.48	4683.41
421.67	4657.67
421.86	4854.27
422.05	4702.14
422.24	4746.61
422.43	4762.99
422.61	4926.83
422.80	4931.51
422.99	4915.12
423.18	4971.30
423.37	4929.17
423.56	4837.89
423.75	4844.91
423.94	4779.37
424.13	4699.80
424.32	4826.18
424.50	4999.38
424.69	5041.51
424.88	5188.97
425.07	4912.78
425.26	4922.15
425.45	5048.54
425.64	5125.77
425.83	5015.77
426.01	5177.26
426.20	5172.58
426.39	5270.89
426.58	5008.75
426.77	5050.88
426.96	5167.90
427.15	5348.12
427.33	5357.49
427.52	5259.18
427.71	5273.23
427.90	5331.74
428.09	5240.46
428.28	5296.63
428.46	5509.62
428.65	5331.74
428.84	5423.02
429.03	5497.92
429.22	5359.83
429.40	5626.65
429.59	5406.64
429.78	5341.10
429.97	5399.62
430.16	5483.88
430.34	5582.18
430.53	5671.12
430.72	5526.00
430.91	5591.54
431.10	5547.07
431.28	5682.82
431.47	5603.24
431.66	5849.00
431.85	5888.79
432.03	6057.31
432.22	5966.03
432.41	5846.66
432.60	5872.40
432.79	5935.60
432.97	6094.76
433.16	5949.64
433.35	5987.09
433.54	6076.03
433.72	6338.17
433.91	6022.20
434.10	6169.65
434.28	6050.28
434.47	6338.17
434.66	6289.02
434.85	6183.70
435.03	6431.79
435.22	6260.93
435.41	6438.81
435.59	6558.18
435.78	6382.64
435.97	6415.41
436.16	6223.48
436.34	6457.54
436.53	6700.95
436.72	6710.32
436.90	6485.62
437.09	6609.67
437.28	6516.05
437.46	6675.21
437.65	6595.63
437.84	6808.62
438.02	6710.32
438.21	6860.11
438.40	6768.83
438.58	7138.63
438.77	6911.60
438.96	7033.31
439.14	7091.82
439.33	7211.19
439.52	7274.38
439.70	7335.24
439.89	7494.40
440.08	7555.25
440.26	7541.21
440.45	7215.87
440.63	7517.80
440.82	7613.76
441.01	7494.40
441.19	7440.56
441.38	7777.60
441.57	7660.57
441.75	7700.36
441.94	8025.70
442.12	7873.56
442.31	8053.78
442.50	8032.72
442.68	8060.80
442.87	8156.77
443.05	8021.02
443.24	8484.44
443.43	8074.85
443.61	8091.23
443.80	8425.93
443.98	7995.27
444.17	7854.84
444.35	8152.09
444.54	8472.74
444.73	8208.26
444.91	8400.18
445.10	8500.83
445.28	8388.48
445.47	8243.37
445.65	8503.17
445.84	8484.44
446.02	8510.19
446.21	8358.05
446.39	8446.99
446.58	8631.90
446.77	8456.36
446.95	8301.88
447.14	8470.40
447.32	8566.36
447.51	8580.40
447.69	8465.72
447.88	8557.00
448.06	8744.24
448.25	8699.77
448.43	8608.49
448.62	8681.05
448.80	8683.39
448.99	8732.54
449.17	8622.53
449.36	8631.90
449.54	8823.82
449.73	8858.93
449.91	9032.13
450.10	9146.81
450.28	9149.15
450.46	9081.28
450.65	9184.26
450.83	9090.64
451.02	9170.22
451.20	9291.93
451.39	9207.67
451.57	9139.79
451.76	9064.89
451.94	9474.49
452.13	9453.42
452.31	9153.84
452.49	9100.00
452.68	9418.32
452.86	9383.21
453.05	9444.06
453.23	9612.58
453.42	9369.16
453.60	9432.36
453.78	9540.02
453.97	9614.92
454.15	9647.69
454.34	9558.75
454.52	9942.60
454.70	9736.63
454.89	9673.43
455.07	9933.23
455.26	9841.95
455.44	10022.17
455.62	9921.53
455.81	9919.19
455.99	9947.28
456.17	10113.45
456.36	10050.26
456.54	10235.16
456.73	10312.40
456.91	10574.54
457.09	10296.02
457.28	10471.56
457.46	10239.84
457.64	10345.17
457.83	10478.58
458.01	10518.37
458.19	10743.06
458.38	10520.71
458.56	10796.89
458.74	10822.64
458.93	10567.52
459.11	10888.17
459.29	10682.20
459.48	10822.64
459.66	10916.26
459.84	10766.46
460.03	11197.12
460.21	11009.88
460.39	11194.78
460.57	11016.90
460.76	11098.82
460.94	11227.55
461.12	11140.95
461.31	11002.86
461.49	11178.40
461.67	11253.30
461.85	11513.10
462.04	11440.54
462.22	11634.80
462.40	11473.31
462.59	11815.02
462.77	11679.27
462.95	11468.62
463.13	11698.00
463.32	11625.44
463.50	11616.08
463.68	11852.47
463.86	11969.50
464.05	11566.93
464.23	11707.36
464.41	11978.86
464.59	11782.26
464.78	12020.99
464.96	12121.63
465.14	11913.33
465.32	12091.21
465.50	12243.34
465.69	12547.61
465.87	12224.62
466.05	12042.06
466.23	12351.01
466.41	12236.32
466.60	12496.12
466.78	12138.02
466.96	12173.13
467.14	12290.15
467.32	12283.13
467.51	12685.70
467.69	12245.68
467.87	12311.22
468.05	12727.83
468.23	12498.46
468.41	12603.78
468.60	12528.89
468.78	12910.40
468.96	12524.21
469.14	12802.73
469.32	13104.66
469.50	12788.69
469.69	13032.10
469.87	13116.36
470.05	13371.48
470.23	13296.58
470.41	13111.68
470.59	13256.79
470.77	13153.81
470.95	13366.80
471.14	13551.70
471.32	13109.34
471.50	13783.41
471.68	13708.52
471.86	13776.39
472.04	13823.20
472.22	14127.47
472.40	13769.37
472.58	14043.21
472.77	13764.69
472.95	14108.75
473.13	14572.18
473.31	14097.05
473.49	14143.86
473.67	14310.04
473.85	14370.89
474.03	14696.22
474.21	14621.33
474.39	14773.46
474.57	14771.12
474.75	15009.86
474.93	15143.27
475.12	15012.20
475.30	15407.75
475.48	15173.69
475.66	15173.69
475.84	15293.06
476.02	15414.77
476.20	15363.28
476.38	15599.67
476.56	15929.69
476.74	15910.96
476.92	15915.64
477.10	15798.62
477.28	16250.34
477.46	16395.45
477.64	16435.24
477.82	16711.42
478.00	17064.85
478.18	16917.39
478.36	16966.54
478.54	17205.28
478.72	17130.38
478.90	17635.94
479.08	17645.30
479.26	17933.18
479.44	17809.14
479.62	17965.95
479.80	18024.47
479.98	18274.90
480.16	18651.73
480.34	18286.61
480.52	18670.45
480.70	18242.14
480.88	18579.17
481.06	18686.84
481.24	19063.66
481.41	19019.19
481.59	19386.66
481.77	19707.31
481.95	19971.79
482.13	19864.13
482.31	19873.49
482.49	20367.34
482.67	20379.04
482.85	20547.56
483.03	20643.52
483.21	20975.88
483.39	20830.77
483.57	21062.48
483.74	21296.53
483.92	21411.22
484.10	21535.27
484.28	21518.89
484.46	22178.92
484.64	22590.85
484.82	21907.41
485.00	22590.85
485.18	22696.17
485.35	22888.10
485.53	22963.00
485.71	23108.11
485.89	23625.37
486.07	23421.74
486.25	23264.92
486.43	23882.83
486.61	23777.50
486.78	24020.92
486.96	24072.41
487.14	24493.71
487.32	24982.88
487.50	24982.88
487.68	25156.08
487.85	25249.70
488.03	25439.28
488.21	26150.81
488.39	25781.00
488.57	26148.46
488.75	26417.63
488.92	26600.19
489.10	27178.30
489.28	27117.45
489.46	27136.17
489.64	27199.37
489.81	27857.06
489.99	27735.35
490.17	27885.14
490.35	28421.13
490.53	28350.91
490.70	28196.43
490.88	28397.72
491.06	29254.36
491.24	28905.62
491.41	29284.78
491.59	29406.49
491.77	29345.64
491.95	29748.21
492.13	29710.76
492.30	30260.79
492.48	30008.01
492.66	30106.31
492.84	30316.96
493.01	30923.16
493.19	30536.97
493.37	31241.47
493.54	31550.42
493.72	31634.68
493.90	31728.30
494.08	31828.95
494.25	32163.64
494.43	32278.33
494.61	32346.20
494.79	32582.60
494.96	32919.63
495.14	32701.96
495.32	33378.38
495.49	33385.40
495.67	33053.05
495.85	33628.82
496.02	33979.90
496.20	34323.96
496.38	34211.61
496.55	34349.70
496.73	35189.95
496.91	34635.25
497.09	34930.16
497.26	35129.10
497.44	34822.49
497.62	35236.77
497.79	36030.21
497.97	35873.39
498.14	36226.81
498.32	36130.85
498.50	36158.94
498.67	36411.71
498.85	36435.12
499.03	36800.24
499.20	37233.24
499.38	36919.61
499.56	37120.90
499.73	37221.54
499.91	37397.08
500.08	37710.71
500.26	37511.77
500.44	37954.13
500.61	38092.22
500.79	37848.80
500.97	37825.40
501.14	38415.21
501.32	38520.54
501.49	38604.80
501.67	38581.39
501.84	38995.67
502.02	39131.42
502.20	39203.97
502.37	39494.20
502.55	39700.17
502.72	39576.12
502.90	39768.04
503.07	39522.29
503.25	40308.71
503.43	39908.47
503.60	40163.59
503.78	40357.86
503.95	40289.98
504.13	40713.62
504.30	41036.61
504.48	40505.31
504.65	41144.28
504.83	41251.94
505.01	41434.50
505.18	41464.93
505.36	41738.77
505.53	41216.83
505.71	41916.65
505.88	41593.66
506.06	41579.62
506.23	42078.15
506.41	42232.63
506.58	42370.72
506.76	42347.31
506.93	42794.36
507.11	42813.08
507.28	42663.28
507.46	42609.45
507.63	42920.74
507.81	43531.62
507.98	43084.58
508.16	43426.30
508.33	43676.74
508.50	43978.67
508.68	44065.27
508.85	44086.33
509.03	44165.91
509.20	43978.67
509.38	44463.16
509.55	44531.03
509.73	44626.99
509.90	44844.66
510.08	44828.28
510.25	44619.97
510.42	45219.15
510.60	45478.95
510.77	45165.32
510.95	45710.66
511.12	45125.53
511.30	45455.54
511.47	45902.59
511.64	45497.67
511.82	45806.62
511.99	45801.94
512.17	46403.46
512.34	45940.04
512.51	46658.58
512.69	46054.72
512.86	47019.02
513.04	46930.08
513.21	46878.59
513.38	46721.77
513.56	47318.61
513.73	47056.47
513.90	47157.11
514.08	47114.98
514.25	47742.25
514.43	47557.35
514.60	47763.31
514.77	47639.26
514.95	48009.07
515.12	47831.19
515.29	47934.17
515.47	48161.20
515.64	48226.74
515.81	48041.84
515.99	48037.16
516.16	48580.16
516.33	48683.14
516.51	48673.78
516.68	48549.73
516.85	48875.07
517.03	49153.59
517.20	48711.23
517.37	48788.47
517.54	48832.94
517.72	49294.02
517.89	49003.80
518.06	49191.04
518.24	49301.04
518.41	49535.10
518.58	49855.75
518.75	49518.71
518.93	49851.07
519.10	49525.74
519.27	49813.62
519.45	49902.56
519.62	50047.68
519.79	50270.03
519.96	50192.79
520.14	50148.32
520.31	50117.89
520.48	50473.65
520.65	50490.04
520.83	50305.13
521.00	50796.65
521.17	50698.34
521.34	50927.72
521.52	50883.25
521.69	51187.52
521.86	51044.74
522.03	51299.86
522.20	51496.47
522.38	51398.16
522.55	51590.09
522.72	51178.15
522.89	51444.98
523.07	51622.86
523.24	51393.48
523.41	51863.93
523.58	51444.98
523.75	52055.85
523.92	51847.55
524.10	52009.04
524.27	52140.11
524.44	51847.55
524.61	52144.80
524.78	52320.34
524.96	52439.70
525.13	52163.52
525.30	52186.92
525.47	52549.71
525.64	52481.83
525.81	52718.23
525.98	52554.39
526.16	52821.21
526.33	53034.20
526.50	53242.51
526.67	52863.34
526.84	53078.67
527.01	52889.09
527.18	52823.55
527.36	52872.70
527.53	53195.70
527.70	53338.47
527.87	53509.33
528.04	53261.23
528.21	53621.67
528.38	53614.65
528.55	53523.37
528.72	53219.10
528.89	53497.62
529.07	53759.76
529.24	53408.68
529.41	53698.91
529.58	53984.46
529.75	53741.04
529.92	53893.18
530.09	53982.12
530.26	53797.21
530.43	54052.33
530.60	53979.78
530.77	54190.42
530.94	54248.94
531.11	54365.96
531.28	54349.58
531.46	54169.36
531.63	54209.15
531.80	54010.20
531.97	54656.19
532.14	54471.29
532.31	54319.15
532.48	54607.04
532.65	54934.71
532.82	54595.34
532.99	54649.17
533.16	54714.70
533.33	54752.15
533.50	55068.12
533.67	54803.64
533.84	54754.49
534.01	54904.29
534.18	55058.76
534.35	55194.51
534.52	55072.81
534.69	55208.56
534.86	55246.00
535.03	55128.98
535.20	55325.58
535.37	55559.64
535.54	55721.13
535.71	55288.13
535.88	55461.33
536.05	55503.46
536.22	55669.64
536.38	55599.43
536.55	55683.69
536.72	55580.70
536.89	55578.36
537.06	55957.53
537.23	55931.78
537.40	55669.64
537.57	55891.99
537.74	55868.59
537.91	55994.98
538.08	56067.53
538.25	55901.36
538.42	56006.68
538.59	56334.35
538.75	56011.36
538.92	56121.37
539.09	56292.22
539.26	56388.19
539.43	56301.59
539.60	56374.14
539.77	56324.99
539.94	56603.52
540.11	56479.47
540.28	56535.64
540.44	56453.72
540.61	56420.95
540.78	56472.45
540.95	56467.76
541.12	56418.61
541.29	56324.99
541.46	56914.81
541.62	56725.22
541.79	56750.97
541.96	56624.58
542.13	56699.48
542.30	56844.59
542.47	57064.60
542.63	56872.68
542.80	57076.30
542.97	57073.96
543.14	57221.42
543.31	57256.53
543.48	57373.55
543.64	57675.48
543.81	57614.63
543.98	57464.83
544.15	57364.19
544.32	57382.91
544.48	57836.98
544.65	57558.45
544.82	57488.24
544.99	57277.59
545.16	57654.42
545.32	57741.02
545.49	57944.64
545.66	57771.44
545.83	57499.94
546.00	57879.11
546.16	57855.70
546.33	57588.88
546.50	57598.24
546.67	57836.98
546.83	57497.60
547.00	57722.29
547.17	57921.24
547.34	57815.91
547.50	58031.24
547.67	57982.09
547.84	57855.70
548.00	58080.39
548.17	58316.79
548.34	58089.76
548.51	58396.37
548.67	58349.56
548.84	58248.91
549.01	58017.20
549.18	58087.42
549.34	58319.13
549.51	58337.85
549.68	58426.79
549.84	58557.86
550.01	58471.26
550.18	58031.24
550.34	58702.98
550.51	58485.31
550.68	58731.06
550.84	58307.43
551.01	58735.74
551.18	58740.42
551.34	58560.20
551.51	59000.22
551.68	58597.65
551.84	58478.28
552.01	58447.86
552.18	58639.78
552.34	58525.10
552.51	58801.28
552.68	58478.28
552.84	58672.55
553.01	58955.75
553.18	58988.52
553.34	59119.59
553.51	58958.09
553.67	58834.05
553.84	58990.86
554.01	59016.61
554.17	59072.78
554.34	59166.40
554.51	59152.36
554.67	59110.23
554.84	59124.27
555.00	59271.73
555.17	59105.55
555.33	59285.77
555.50	59000.22
555.67	58944.05
555.83	59135.98
556.00	59297.47
556.16	59648.55
556.33	59245.98
556.50	59241.30
556.66	59220.23
556.83	59292.79
556.99	59597.06
557.16	59573.66
557.32	59568.97
557.49	59594.72
557.65	59498.76
557.82	59583.02
557.98	59348.96
558.15	59667.28
558.32	59639.19
558.48	59772.60
558.65	59622.81
558.81	59662.60
558.98	59604.08
559.14	59547.91
559.31	59594.72
559.47	59704.73
559.64	59774.94
559.80	59826.43
559.97	60009.00
560.13	59653.23
560.30	59852.18
560.46	59859.20
560.63	59845.16
560.79	59821.75
560.96	60107.30
561.12	60046.44
561.29	59901.33
561.45	60046.44
561.61	59931.76
561.78	59725.79
561.94	59896.65
562.11	60004.31
562.27	59786.64
562.44	60044.10
562.60	60214.96
562.77	60137.72
562.93	59756.22
563.10	60364.76
563.26	60055.81
563.42	60147.09
563.59	60067.51
563.75	60104.96
563.92	60104.96
564.08	60018.36
564.24	60149.43
564.41	60083.89
564.57	60130.70
564.74	60060.49
564.90	60388.16
565.07	60114.32
565.23	60048.78
565.39	60142.41
565.56	60420.93
565.72	60175.17
565.88	60416.25
566.05	60231.35
566.21	60229.01
566.38	60182.19
566.54	60212.62
566.70	60271.14
566.87	60397.52
567.03	60186.88
567.19	60449.02
567.36	60271.14
567.52	60245.39
567.68	60498.17
567.85	60523.91
568.01	60533.28
568.17	60362.42
568.34	60582.43
568.50	60357.74
568.66	60582.43
568.83	60493.49
568.99	60411.57
569.15	60526.25
569.32	60383.48
569.48	60449.02
569.64	60575.40
569.81	60505.19
569.97	60509.87
570.13	60589.45
570.30	60275.82
570.46	60559.02
570.62	60587.11
570.78	60507.53
570.95	60437.31
571.11	60556.68
571.27	60521.57
571.43	60631.58
571.60	60687.75
571.76	60502.85
571.92	60715.84
572.09	60638.60
572.25	60687.75
572.41	60734.56
572.57	60743.92
572.74	60956.91
572.90	60519.23
573.06	60907.76
573.22	60816.48
573.38	60605.83
573.55	60662.00
573.71	60903.08
573.87	60853.93
574.03	60654.98
574.20	60725.20
574.36	60687.75
574.52	60846.91
574.68	60945.21
574.84	60933.51
575.01	60750.94
575.17	60919.46
575.33	60790.73
575.49	60767.33
575.65	60903.08
575.82	60781.37
575.98	60830.52
576.14	60938.19
576.30	60860.95
576.46	60846.91
576.62	60793.07
576.79	60818.82
576.95	60640.94
577.11	60924.14
577.27	60846.91
577.43	60949.89
577.59	60910.10
577.75	61015.43
577.92	60652.64
578.08	60856.27
578.24	60985.00
578.40	61167.56
578.56	60994.36
578.72	60851.59
578.88	60882.02
579.04	61256.50
579.21	60956.91
579.37	61034.15
579.53	61179.26
579.69	60725.20
579.85	60720.52
580.01	61071.60
580.17	60692.43
580.33	60987.34
580.49	61197.99
580.65	61118.41
580.82	61080.96
580.98	60823.50
581.14	61017.77
581.30	61066.92
581.46	60933.51
581.62	61020.11
581.78	60867.97
581.94	61092.66
582.10	60928.83
582.26	60903.08
582.42	61003.72
582.58	60825.84
582.74	61073.94
582.90	61174.58
583.06	61027.13
583.22	60900.74
583.38	60977.98
583.54	61083.30
583.70	60903.08
583.86	61069.26
584.02	60928.83
584.18	61144.16
584.34	60956.91
584.50	60933.51
584.66	61120.75
584.82	60846.91
584.98	61272.88
585.14	61106.71
585.30	60992.02
585.46	61120.75
585.62	61153.52
585.78	61137.13
585.94	60931.17
586.10	61111.39
586.26	61244.80
586.42	61064.58
586.58	61254.16
586.74	61066.92
586.90	61059.90
587.06	61132.45
587.22	61139.47
587.38	61111.39
587.54	61162.88
587.70	61471.83
587.86	61106.71
588.02	61027.13
588.18	61322.04
588.34	61357.14
588.49	61118.41
