SpectraSuite Data File
++++++++++++++++++++++++++++++++++++
Date: Fri Oct 25 10:47:36 EDT 2013
User: price-jones
Dark Spectrum Present: No
Reference Spectrum Present: No
Number of Sampled Component Spectra: 1
Spectrometers: USB2+H05261
Integration Time (usec): 100000 (USB2+H05261)
Spectra Averaged: 1 (USB2+H05261)
Boxcar Smoothing: 0 (USB2+H05261)
Correct for Electrical Dark: No (USB2+H05261)
Strobe/Lamp Enabled: No (USB2+H05261)
Correct for Detector Non-linearity: No (USB2+H05261)
Correct for Stray Light: No (USB2+H05261)
Number of Pixels in Processed Spectrum: 2048
>>>>>Begin Processed Spectral Data<<<<<
365.73	72.56
365.92	72.56
366.12	72.56
366.32	77.24
366.52	46.81
366.72	65.54
366.91	42.13
367.11	102.98
367.31	0.00
367.51	67.88
367.70	32.77
367.90	79.58
368.10	7.02
368.30	77.24
368.49	51.49
368.69	16.38
368.89	79.58
369.09	42.13
369.28	88.94
369.48	154.48
369.68	107.66
369.87	105.32
370.07	152.13
370.27	140.43
370.47	156.82
370.66	325.33
370.86	433.00
371.06	465.77
371.25	428.32
371.45	428.32
371.65	430.66
371.84	400.23
372.04	486.83
372.24	491.51
372.44	454.06
372.63	477.47
372.83	564.07
373.03	444.70
373.22	475.13
373.42	500.87
373.62	514.92
373.81	472.79
374.01	547.69
374.21	545.34
374.40	498.53
374.60	603.86
374.79	582.79
374.99	608.54
375.19	587.47
375.38	550.03
375.58	571.09
375.78	575.77
375.97	533.64
376.17	641.31
376.37	538.32
376.56	547.69
376.76	636.63
376.95	638.97
377.15	643.65
377.35	638.97
377.54	613.22
377.74	573.43
377.93	578.11
378.13	631.94
378.33	622.58
378.52	643.65
378.72	643.65
378.91	557.05
379.11	561.73
379.31	571.09
379.50	589.82
379.70	617.90
379.89	671.73
380.09	674.07
380.28	692.80
380.48	650.67
380.68	582.79
380.87	664.71
381.07	636.63
381.26	709.18
381.46	725.57
381.65	664.71
381.85	641.31
382.04	723.23
382.24	671.73
382.43	727.91
382.63	713.86
382.83	638.97
383.02	697.48
383.22	704.50
383.41	704.50
383.61	730.25
383.80	711.52
384.00	704.50
384.19	706.84
384.39	760.67
384.58	727.91
384.78	744.29
384.97	770.04
385.17	755.99
385.36	755.99
385.56	798.12
385.75	667.05
385.95	739.61
386.14	809.83
386.34	748.97
386.53	777.06
386.72	826.21
386.92	767.70
387.11	882.38
387.31	833.23
387.50	816.85
387.70	889.40
387.89	851.96
388.09	741.95
388.28	779.40
388.48	849.61
388.67	802.80
388.86	833.23
389.06	915.15
389.25	908.13
389.45	894.08
389.64	933.87
389.84	924.51
390.03	875.36
390.22	931.53
390.42	866.00
390.61	875.36
390.81	896.43
391.00	903.45
391.19	1006.43
391.39	1001.75
391.58	990.05
391.78	992.39
391.97	1013.45
392.16	961.96
392.36	1015.79
392.55	976.00
392.75	947.92
392.94	943.24
393.13	999.41
393.33	945.58
393.52	976.00
393.71	1006.43
393.91	938.55
394.10	980.68
394.29	1013.45
394.49	1013.45
394.68	1011.11
394.88	1071.97
395.07	1228.78
395.26	1146.86
395.46	1130.48
395.65	1174.95
395.84	1053.24
396.04	1240.48
396.23	1188.99
396.42	1078.99
396.62	1170.27
396.81	1097.71
397.00	1095.37
397.19	1226.44
397.39	1191.33
397.58	1299.00
397.77	1217.08
397.97	1277.93
398.16	1287.29
398.35	1362.19
398.55	1366.87
398.74	1369.21
398.93	1416.02
399.12	1249.85
399.32	1315.38
399.51	1327.08
399.70	1404.32
399.90	1390.28
400.09	1394.96
400.28	1394.96
400.47	1420.71
400.67	1507.30
400.86	1462.83
401.05	1511.99
401.24	1565.82
401.44	1451.13
401.63	1537.73
401.82	1540.07
402.01	1586.88
402.21	1486.24
402.40	1636.03
402.59	1500.28
402.78	1535.39
402.97	1476.88
403.17	1575.18
403.36	1636.03
403.55	1647.74
403.74	1650.08
403.93	1621.99
404.13	1682.85
404.32	1626.67
404.51	1643.06
404.70	1682.85
404.89	1746.04
405.09	1818.60
405.28	1760.08
405.47	1678.16
405.66	1703.91
405.85	1832.64
406.05	1685.19
406.24	1823.28
406.43	1687.53
406.62	1797.53
406.81	1907.54
407.00	1844.34
407.20	1668.80
407.39	1739.02
407.58	1898.17
407.77	1898.17
407.96	1987.11
408.15	1940.30
408.34	1886.47
408.54	1970.73
408.73	1888.81
408.92	2045.63
409.11	2040.95
409.30	2019.88
409.49	1968.39
409.68	1954.35
409.87	1984.77
410.07	2148.61
410.26	2038.61
410.45	2218.83
410.64	2317.13
410.83	2223.51
411.02	2228.19
411.21	2307.77
411.40	2270.32
411.59	2291.38
411.78	2324.15
411.98	2342.88
412.17	2328.83
412.36	2375.64
412.55	2408.41
412.74	2434.16
412.93	2441.18
413.12	2424.80
413.31	2607.36
413.50	2567.57
413.69	2670.55
413.88	2614.38
414.07	2637.78
414.26	2619.06
414.45	2597.99
414.64	2719.70
414.83	2862.48
415.02	2686.94
415.22	2729.06
415.41	2757.15
415.60	2972.48
415.79	2906.95
415.98	2970.14
416.17	2843.75
416.36	2963.12
416.55	2995.89
416.74	2909.29
416.93	2932.69
417.12	2930.35
417.31	3007.59
417.50	3042.70
417.69	3117.59
417.88	3162.06
418.07	3026.31
418.26	3206.53
418.45	3251.00
418.64	3258.03
418.83	3288.45
419.02	3171.43
419.21	3243.98
419.39	3272.07
419.58	3201.85
419.77	3155.04
419.96	3325.90
420.15	3393.78
420.34	3316.54
420.53	3323.56
420.72	3412.50
420.91	3431.23
421.10	3433.57
421.29	3557.61
421.48	3440.59
421.67	3485.06
421.86	3447.61
422.05	3424.20
422.24	3438.25
422.43	3368.03
422.61	3447.61
422.80	3552.93
422.99	3522.51
423.18	3545.91
423.37	3667.62
423.56	3571.66
423.75	3634.85
423.94	3433.57
424.13	3342.28
424.32	3393.78
424.50	3623.15
424.69	3571.66
424.88	3672.30
425.07	3571.66
425.26	3562.30
425.45	3550.59
425.64	3576.34
425.83	3564.64
426.01	3658.26
426.20	3754.22
426.39	3740.18
426.58	3665.28
426.77	3520.17
426.96	3630.17
427.15	3646.55
427.33	3669.96
427.52	3698.05
427.71	3726.13
427.90	3777.62
428.09	3770.60
428.28	3770.60
428.46	3786.99
428.65	3964.87
428.84	3840.82
429.03	3892.31
429.22	3805.71
429.40	3747.20
429.59	3777.62
429.78	3779.97
429.97	3693.37
430.16	3707.41
430.34	3873.59
430.53	3819.75
430.72	3932.10
430.91	3967.21
431.10	3999.98
431.28	4084.23
431.47	4135.73
431.66	4184.88
431.85	4131.05
432.03	4203.60
432.22	4222.33
432.41	4163.81
432.60	4245.73
432.79	4170.83
432.97	4407.23
433.16	4341.69
433.35	4219.99
433.54	4248.07
433.72	4362.76
433.91	4259.78
434.10	4379.14
434.28	4397.87
434.47	4414.25
434.66	4493.83
434.85	4444.68
435.03	4634.26
435.22	4503.19
435.41	4601.49
435.59	4372.12
435.78	4559.36
435.97	4561.70
436.16	4643.62
436.34	4713.84
436.53	4802.78
436.72	4697.46
436.90	4545.32
437.09	4758.31
437.28	4608.51
437.46	4793.42
437.65	4683.41
437.84	4847.25
438.02	4894.06
438.21	4791.08
438.40	4669.37
438.58	4835.55
438.77	5025.13
438.96	4968.96
439.14	5191.31
439.33	5088.32
439.52	4987.68
439.70	5093.01
439.89	5256.84
440.08	5172.58
440.26	5247.48
440.45	5125.77
440.63	5348.12
440.82	5296.63
441.01	5418.34
441.19	5376.21
441.38	5420.68
441.57	5497.92
441.75	5544.73
441.94	5699.20
442.12	5579.84
442.31	5933.26
442.50	5738.99
442.68	5593.88
442.87	5692.18
443.05	5900.49
443.24	5881.77
443.43	5788.14
443.61	5888.79
443.80	6019.86
443.98	5788.14
444.17	5717.93
444.35	6125.18
444.54	6038.58
444.73	5926.24
444.91	5914.53
445.10	5743.67
445.28	5914.53
445.47	5783.46
445.65	5762.40
445.84	5914.53
446.02	6001.13
446.21	5989.43
446.39	5902.83
446.58	5884.11
446.77	6087.73
446.95	5898.15
447.14	5956.66
447.32	5994.11
447.51	6033.90
447.69	6260.93
447.88	6073.69
448.06	6010.50
448.25	6010.50
448.43	6057.31
448.62	6069.01
448.80	6012.84
448.99	6277.32
449.17	6164.97
449.36	6235.19
449.54	6314.77
449.73	6307.74
449.91	6300.72
450.10	6363.92
450.28	6478.60
450.46	6476.26
450.65	6366.26
450.83	6569.88
451.02	6434.13
451.20	6595.63
451.39	6532.44
451.57	6525.41
451.76	6464.56
451.94	6569.88
452.13	6509.03
452.31	6551.16
452.49	6370.94
452.68	6731.38
452.86	6455.20
453.05	6729.04
453.23	6649.46
453.42	6649.46
453.60	6640.10
453.78	6782.87
453.97	6658.82
454.15	6719.68
454.34	6771.17
454.52	6853.09
454.70	6839.05
454.89	6836.70
455.07	6827.34
455.26	6878.83
455.44	6988.84
455.62	6832.02
455.81	6822.66
455.99	7108.21
456.17	7007.56
456.36	7222.89
456.54	7094.16
456.73	7169.06
456.91	7363.33
457.09	7506.10
457.28	7459.29
457.46	7325.88
457.64	7470.99
457.83	7433.54
458.01	7248.64
458.19	7482.69
458.38	7307.15
458.56	7536.52
458.74	7536.52
458.93	7396.09
459.11	7562.27
459.29	7485.03
459.48	7662.91
459.66	7581.00
459.84	7562.27
460.03	7878.24
460.21	7627.81
460.39	7676.96
460.57	7473.33
460.76	7674.62
460.94	7866.54
461.12	7822.07
461.31	8002.29
461.49	7763.56
461.67	7957.82
461.85	7871.22
462.04	8018.68
462.22	8498.49
462.40	7974.21
462.59	8072.51
462.77	8102.93
462.95	8285.50
463.13	7936.76
463.32	8037.40
463.50	8290.18
463.68	8259.75
463.86	8409.54
464.05	8049.10
464.23	8128.68
464.41	8189.53
464.59	8023.36
464.78	8278.47
464.96	8252.73
465.14	8114.64
465.32	8388.48
465.50	8517.21
465.69	8379.12
465.87	8301.88
466.05	8493.80
466.23	8451.67
466.41	8425.93
466.60	8624.87
466.78	8294.86
466.96	8393.16
467.14	8486.78
467.32	8573.38
467.51	8732.54
467.69	8308.90
467.87	8559.34
468.05	8833.18
468.23	8809.78
468.41	8676.37
468.60	8784.03
468.78	8629.56
468.96	8582.74
469.14	8697.43
469.32	8723.18
469.50	8641.26
469.69	8755.94
469.87	8978.30
470.05	8901.06
470.23	8884.67
470.41	8926.80
470.59	8987.66
470.77	9006.38
470.95	9109.36
471.14	9252.14
471.32	9163.20
471.50	9458.10
471.68	9364.48
471.86	9350.44
472.04	9338.74
472.22	9633.64
472.40	9453.42
472.58	9312.99
472.77	9488.53
472.95	9628.96
473.13	9963.66
473.31	9453.42
473.49	9619.60
473.67	9745.99
473.85	9785.78
474.03	10167.29
474.21	10026.86
474.39	10111.11
474.57	10059.62
474.75	10249.21
474.93	10225.80
475.12	10216.44
475.30	10303.04
475.48	10324.10
475.66	10370.91
475.84	10387.30
476.02	10202.40
476.20	10361.55
476.38	10661.14
476.56	10927.96
476.74	10691.57
476.92	10829.66
477.10	10930.30
477.28	11056.69
477.46	10923.28
477.64	11250.96
477.82	11342.24
478.00	11550.54
478.18	11309.47
478.36	11454.58
478.54	11639.48
478.72	11800.98
478.90	11728.42
479.08	12053.76
479.26	11878.22
479.44	12107.59
479.62	12037.38
479.80	12135.68
479.98	12322.92
480.16	12690.38
480.34	12346.33
480.52	12629.53
480.70	12561.66
480.88	12571.02
481.06	12568.68
481.24	12709.11
481.41	12833.16
481.59	13130.41
481.77	13151.47
481.95	13057.85
482.13	13380.84
482.31	13308.29
482.49	13434.68
482.67	13937.89
482.85	13774.05
483.03	13741.29
483.21	13951.93
483.39	14057.26
483.57	14176.62
483.74	14104.07
483.92	14471.53
484.10	14249.18
484.28	14525.36
484.46	14815.59
484.64	14984.11
484.82	14813.25
485.00	14965.39
485.18	15143.27
485.35	15419.45
485.53	14991.13
485.71	14974.75
485.89	15431.15
486.07	15243.91
486.25	15573.92
486.43	15749.46
486.61	15719.04
486.78	15985.86
486.96	16056.08
487.14	16631.85
487.32	16126.29
487.50	16688.02
487.68	16877.60
487.85	16975.91
488.03	17008.67
488.21	16978.25
488.39	17027.40
488.57	17142.08
488.75	17509.55
488.92	17825.52
489.10	17678.07
489.28	17947.23
489.46	18256.18
489.64	18270.22
489.81	18562.79
489.99	18464.49
490.17	18801.52
490.35	19019.19
490.53	18588.53
490.70	19176.01
490.88	18794.50
491.06	19154.94
491.24	19414.74
491.41	18885.78
491.59	19424.11
491.77	18979.40
491.95	19695.61
492.13	19779.87
492.30	19908.60
492.48	20161.37
492.66	20056.05
492.84	20308.83
493.01	20570.97
493.19	20088.82
493.37	20713.74
493.54	20727.78
493.72	20961.84
493.90	21032.05
494.08	21261.43
494.25	21212.28
494.43	21373.77
494.61	21727.19
494.79	21727.19
494.96	21792.73
495.14	21757.62
495.32	22078.27
495.49	22050.19
495.67	22024.44
495.85	22078.27
496.02	22148.49
496.20	22396.59
496.38	22768.73
496.55	22530.00
496.73	23573.88
496.91	22787.46
497.09	23084.70
497.26	23267.27
497.44	23339.82
497.62	23140.88
497.79	23625.37
497.97	23590.26
498.14	23506.00
498.32	23812.61
498.50	23557.49
498.67	24205.82
498.85	23894.53
499.03	24451.58
499.20	24381.36
499.38	24547.54
499.56	24636.48
499.73	24236.25
499.91	24580.31
500.08	24982.88
500.26	24629.46
500.44	24694.99
500.61	24924.36
500.79	24854.15
500.97	25233.32
501.14	25355.02
501.32	25476.73
501.49	25039.05
501.67	25593.76
501.84	25186.50
502.02	25881.64
502.20	25715.47
502.37	25766.96
502.55	25755.26
502.72	26136.76
502.90	26078.25
503.07	26169.53
503.25	26288.90
503.43	26328.69
503.60	26424.65
503.78	26314.64
503.95	26529.97
504.13	26260.81
504.30	26764.03
504.48	26668.06
504.65	26962.97
504.83	27096.38
505.01	27033.19
505.18	27075.32
505.36	27632.36
505.53	27274.26
505.71	27630.02
505.88	27510.66
506.06	27101.06
506.23	27658.11
506.41	27784.50
506.58	27491.93
506.76	27854.72
506.93	28161.33
507.11	28123.88
507.28	28121.54
507.46	28432.83
507.63	27702.58
507.81	28177.71
507.98	27955.36
508.16	28568.58
508.33	28734.76
508.50	28797.95
508.68	28325.16
508.85	29008.60
509.03	28514.75
509.20	28982.85
509.38	29406.49
509.55	29776.30
509.73	29362.02
509.90	29001.58
510.08	29364.36
510.25	29244.99
510.42	29638.20
510.60	29888.64
510.77	29518.84
510.95	29989.28
511.12	29649.91
511.30	30043.12
511.47	30122.69
511.64	30382.49
511.82	30221.00
511.99	30010.35
512.17	30511.22
512.34	29926.09
512.51	30403.56
512.69	30490.16
512.86	30328.66
513.04	30693.79
513.21	30857.62
513.38	30822.51
513.56	30955.93
513.73	30852.94
513.90	31014.44
514.08	31063.59
514.25	31477.86
514.43	31157.21
514.60	31227.43
514.77	31346.79
514.95	31512.97
515.12	31405.31
515.29	31529.36
515.47	32053.64
515.64	31983.42
515.81	31377.22
515.99	31426.37
516.16	31915.54
516.33	32093.43
516.51	32037.25
516.68	31353.82
516.85	31611.28
517.03	32086.40
517.20	31999.80
517.37	31772.77
517.54	32416.42
517.72	32863.46
517.89	32079.38
518.06	31948.31
518.24	32371.95
518.41	32371.95
518.58	32821.33
518.75	32549.83
518.93	32952.40
519.10	32835.38
519.27	33127.94
519.45	33118.58
519.62	33652.22
519.79	33254.33
519.96	33081.13
520.14	33958.83
520.31	33228.59
520.48	33596.05
520.65	33301.14
520.83	33830.10
521.00	34150.76
521.17	34291.19
521.34	34031.39
521.52	33841.81
521.69	33703.71
521.86	34457.37
522.03	34113.31
522.20	34225.65
522.38	34471.41
522.55	34637.59
522.72	34429.28
522.89	34555.67
523.07	34869.30
523.24	34771.00
523.41	34478.43
523.58	34684.40
523.75	35182.93
523.92	35131.44
524.10	35321.02
524.27	35173.57
524.44	35461.46
524.61	35222.72
524.78	35585.50
524.96	35239.11
525.13	35519.97
525.30	35777.43
525.47	35803.17
525.64	35777.43
525.81	35952.97
525.98	35702.53
526.16	35367.84
526.33	35510.61
526.50	35866.37
526.67	35386.56
526.84	35861.69
527.01	35388.90
527.18	36041.91
527.36	36353.20
527.53	36474.91
527.70	36325.11
527.87	36313.41
528.04	36240.86
528.21	36217.45
528.38	36170.64
528.55	36643.43
528.72	36336.82
528.89	36877.48
529.07	36250.22
529.24	36327.45
529.41	36975.78
529.58	36833.01
529.75	36268.94
529.92	36828.33
530.09	36753.43
530.26	36964.08
530.43	37097.49
530.60	36678.54
530.77	37188.77
530.94	37495.38
531.11	36928.97
531.28	37104.51
531.46	37563.26
531.63	37046.00
531.80	37120.90
531.97	37919.02
532.14	37823.06
532.31	37511.77
532.48	37518.79
532.65	37703.69
532.82	37577.30
532.99	37935.40
533.16	37546.87
533.33	37897.95
533.50	38345.00
533.67	37759.86
533.84	37949.45
534.01	37825.40
534.18	38099.24
534.35	38595.43
534.52	38532.24
534.69	38464.36
534.86	38391.81
535.03	37888.59
535.20	38747.57
535.37	38742.89
535.54	38869.28
535.71	38806.08
535.88	38796.72
536.05	38859.91
536.22	38377.76
536.38	38340.32
536.55	38672.67
536.72	38651.61
536.89	38923.11
537.06	38796.72
537.23	39030.77
537.40	39248.44
537.57	39180.57
537.74	39065.88
537.91	39054.18
538.08	39367.81
538.25	39019.07
538.42	39150.14
538.59	39335.04
538.75	38831.83
538.92	39178.23
539.09	39660.38
539.26	39594.84
539.43	39278.87
539.60	39264.83
539.77	39564.42
539.94	39952.94
540.11	39761.02
540.28	39344.41
540.44	39585.48
540.61	39524.63
540.78	39391.22
540.95	39728.25
541.12	39021.41
541.29	39988.05
541.46	40236.15
541.62	39821.87
541.79	40079.33
541.96	39431.01
542.13	40079.33
542.30	39854.64
542.47	40376.58
542.63	39988.05
542.80	40458.50
542.97	40327.43
543.14	40126.14
543.31	40294.66
543.48	40762.77
543.64	41319.82
543.81	40751.07
543.98	40921.93
544.15	40971.08
544.32	41081.08
544.48	41483.66
544.65	40840.01
544.82	41329.18
544.99	40575.53
545.16	40861.07
545.32	40837.67
545.49	41223.86
545.66	41394.71
545.83	41476.63
546.00	41134.92
546.16	41130.23
546.33	41165.34
546.50	41427.48
546.67	41226.20
546.83	41106.83
547.00	40889.16
547.17	41195.77
547.34	41308.11
547.50	41696.64
547.67	41799.63
547.84	41441.53
548.00	41949.42
548.17	41816.01
548.34	41897.93
548.51	41743.45
548.67	42087.51
548.84	42192.84
549.01	41792.61
549.18	42153.05
549.34	41956.44
549.51	42216.24
549.68	41553.87
549.84	42010.28
550.01	42309.86
550.18	42122.62
550.34	42195.18
550.51	41759.84
550.68	42059.43
550.84	41209.81
551.01	42492.43
551.18	42230.29
551.34	42085.17
551.51	41996.23
551.68	42630.52
551.84	42625.84
552.01	42092.19
552.18	42377.74
552.34	42068.79
552.51	42249.01
552.68	42171.77
552.84	42562.64
553.01	42686.69
553.18	42471.36
553.34	41961.12
553.51	42288.80
553.67	42887.98
553.84	43124.37
554.01	43037.77
554.17	43388.85
554.34	43098.62
554.51	42937.13
554.67	42883.30
554.84	42873.93
555.00	42883.30
555.17	42925.42
555.33	42883.30
555.50	43524.60
555.67	42684.35
555.83	43201.61
556.00	42972.24
556.16	43658.01
556.33	43124.37
556.50	43117.35
556.66	43320.98
556.83	43014.37
556.99	43248.42
557.16	43262.46
557.32	43325.66
557.49	43430.98
557.65	42974.58
557.82	43232.04
557.98	43349.06
558.15	43150.12
558.32	43442.68
558.48	43426.30
558.65	43313.95
558.81	43604.18
558.98	43445.02
559.14	43550.35
559.31	43154.80
559.47	43566.73
559.64	44147.18
559.80	43524.60
559.97	43842.92
560.13	43639.29
560.30	43456.73
560.46	43613.54
560.63	43608.86
560.79	43501.20
560.96	44154.21
561.12	44179.95
561.29	43997.39
561.45	44079.31
561.61	43548.01
561.78	43697.80
561.94	43641.63
562.11	43667.37
562.27	43964.62
562.44	43868.66
562.60	44273.57
562.77	44304.00
562.93	43966.96
563.10	44044.20
563.26	43590.14
563.42	44320.38
563.59	43629.93
563.75	44041.86
563.92	43798.44
564.08	44196.34
564.24	44409.32
564.41	44367.20
564.57	44126.12
564.74	43395.87
564.90	44172.93
565.07	44041.86
565.23	44201.02
565.39	43892.07
565.56	44163.57
565.72	44219.74
565.88	44409.32
566.05	43756.32
566.21	44107.40
566.38	44098.03
566.54	43906.11
566.70	44357.83
566.87	44671.46
567.03	44135.48
567.19	44526.35
567.36	44507.63
567.52	44226.76
567.68	44488.90
567.85	44175.27
568.01	44037.18
568.17	44116.76
568.34	44641.04
568.50	44318.04
568.66	43978.67
568.83	44430.39
568.99	44299.32
569.15	43966.96
569.32	44123.78
569.48	44486.56
569.64	44336.77
569.81	44542.74
569.97	44437.41
570.13	44528.69
570.30	44320.38
570.46	44093.35
570.62	44027.82
570.78	44191.65
570.95	44011.43
571.11	44343.79
571.27	44545.08
571.43	44559.12
571.60	44596.57
571.76	44439.75
571.92	44123.78
572.09	43978.67
572.25	44091.01
572.41	44442.09
572.57	44739.34
572.74	45151.27
572.90	44383.58
573.06	44739.34
573.22	44289.96
573.38	44776.79
573.55	44612.95
573.71	44582.52
573.87	44444.43
574.03	44577.84
574.20	45216.81
574.36	44311.02
574.52	44830.62
574.68	44629.34
574.84	45186.38
575.01	44385.92
575.17	44879.77
575.33	44465.50
575.49	44680.83
575.65	44781.47
575.82	45008.50
575.98	44313.36
576.14	44718.28
576.30	44673.81
576.46	44751.04
576.62	44402.30
576.79	44828.28
576.95	43885.04
577.11	44570.82
577.27	44774.45
577.43	44809.56
577.59	44285.28
577.75	44521.67
577.92	44608.27
578.08	44411.67
578.24	44519.33
578.40	44610.61
578.56	44795.51
578.72	44465.50
578.88	44788.49
579.04	44945.31
579.21	44254.85
579.37	44348.47
579.53	44524.01
579.69	43976.33
579.85	44751.04
580.01	44870.41
580.17	44865.73
580.33	44957.01
580.49	45130.21
580.65	44886.79
580.82	44456.14
580.98	44456.14
581.14	44767.43
581.30	44685.51
581.46	45017.86
581.62	44566.14
581.78	44746.36
581.94	45141.91
582.10	45162.98
582.26	44891.48
582.42	45003.82
582.58	45385.33
582.74	44809.56
582.90	45036.59
583.06	45244.90
583.22	45050.63
583.38	44758.06
583.54	44622.31
583.70	44863.39
583.86	45052.97
584.02	44327.41
584.18	44982.76
584.34	45155.96
584.50	45008.50
584.66	44818.92
584.82	44460.82
584.98	45116.17
585.14	44863.39
585.30	44484.22
585.46	44657.42
585.62	44301.66
585.78	44891.48
585.94	44268.89
586.10	44755.72
586.26	44823.60
586.42	45310.43
586.58	45116.17
586.74	44968.71
586.90	44935.95
587.06	44741.68
587.22	45181.70
587.38	44533.37
587.54	45373.63
587.70	45698.96
587.86	45097.44
588.02	44882.11
588.18	45193.40
588.34	44779.13
588.49	44650.40
588.65	44507.63
588.81	44549.76
588.97	44748.70
589.13	44545.08
589.29	44949.99
589.45	44893.82
589.61	44996.80
589.77	45139.57
589.93	44821.26
590.08	45069.36
590.24	44725.30
