SpectraSuite Data File
++++++++++++++++++++++++++++++++++++
Date: Fri Oct 25 11:25:07 EDT 2013
User: price-jones
Dark Spectrum Present: No
Reference Spectrum Present: No
Number of Sampled Component Spectra: 1
Spectrometers: USB2+H05261
Integration Time (usec): 100000 (USB2+H05261)
Spectra Averaged: 1 (USB2+H05261)
Boxcar Smoothing: 0 (USB2+H05261)
Correct for Electrical Dark: No (USB2+H05261)
Strobe/Lamp Enabled: No (USB2+H05261)
Correct for Detector Non-linearity: No (USB2+H05261)
Correct for Stray Light: No (USB2+H05261)
Number of Pixels in Processed Spectrum: 2048
>>>>>Begin Processed Spectral Data<<<<<
365.73	168.52
365.92	168.52
366.12	168.52
366.32	177.88
366.52	168.52
366.72	198.95
366.91	159.16
367.11	128.73
367.31	98.30
367.51	124.05
367.70	147.45
367.90	117.03
368.10	177.88
368.30	91.28
368.49	212.99
368.69	152.13
368.89	198.95
369.09	84.26
369.28	189.58
369.48	198.95
369.68	231.71
369.87	187.24
370.07	163.84
370.27	159.16
370.47	257.46
370.66	587.47
370.86	601.52
371.06	678.76
371.25	648.33
371.45	699.82
371.65	690.46
371.84	599.18
372.04	638.97
372.24	702.16
372.44	671.73
372.63	706.84
372.83	723.23
373.03	798.12
373.22	816.85
373.42	786.42
373.62	760.67
373.81	805.14
374.01	772.38
374.21	868.34
374.40	734.93
374.60	802.80
374.79	770.04
374.99	765.36
375.19	798.12
375.38	854.30
375.58	844.93
375.78	889.40
375.97	835.57
376.17	917.49
376.37	863.66
376.56	823.87
376.76	931.53
376.95	866.00
377.15	835.57
377.35	908.13
377.54	908.13
377.74	880.04
377.93	933.87
378.13	922.17
378.33	947.92
378.52	896.43
378.72	938.55
378.91	870.68
379.11	961.96
379.31	931.53
379.50	931.53
379.70	1064.94
379.89	947.92
380.09	994.73
380.28	1001.75
380.48	1046.22
380.68	1020.47
380.87	990.05
381.07	1011.11
381.26	999.41
381.46	1004.09
381.65	1020.47
381.85	987.71
382.04	1053.24
382.24	1027.50
382.43	1041.54
382.63	1149.20
382.83	1020.47
383.02	1067.28
383.22	1114.10
383.41	1046.22
383.61	1163.25
383.80	1104.73
384.00	1139.84
384.19	1170.27
384.39	1139.84
384.58	1212.40
384.78	1071.97
384.97	1149.20
385.17	1104.73
385.36	1107.07
385.56	1200.69
385.75	1165.59
385.95	1165.59
386.14	1188.99
386.34	1167.93
386.53	1172.61
386.72	1196.01
386.92	1158.57
387.11	1172.61
387.31	1184.31
387.50	1188.99
387.70	1198.35
387.89	1233.46
388.09	1167.93
388.28	1282.61
388.48	1254.53
388.67	1277.93
388.86	1315.38
389.06	1310.70
389.25	1336.45
389.45	1291.98
389.64	1343.47
389.84	1350.49
390.03	1299.00
390.22	1446.45
390.42	1406.66
390.61	1277.93
390.81	1383.26
391.00	1392.62
391.19	1446.45
391.39	1427.73
391.58	1425.39
391.78	1455.81
391.97	1474.54
392.16	1462.83
392.36	1530.71
392.55	1418.36
392.75	1526.03
392.94	1444.11
393.13	1579.86
393.33	1467.52
393.52	1561.14
393.71	1521.35
393.91	1591.56
394.10	1523.69
394.29	1563.48
394.49	1544.75
394.68	1607.95
394.88	1626.67
395.07	1720.29
395.26	1659.44
395.46	1717.95
395.65	1673.48
395.84	1748.38
396.04	1790.51
396.23	1764.76
396.42	1776.47
396.62	1739.02
396.81	1823.28
397.00	1736.68
397.19	1837.32
397.39	1858.39
397.58	1879.45
397.77	1799.87
397.97	1811.57
398.16	1762.42
398.35	1785.83
398.55	1837.32
398.74	1944.99
398.93	1909.88
399.12	1863.07
399.32	1874.77
399.51	1827.96
399.70	1940.30
399.90	1987.11
400.09	1973.07
400.28	2064.35
400.47	2059.67
400.67	2139.25
400.86	2153.29
401.05	2097.12
401.24	2111.16
401.44	2106.48
401.63	2104.14
401.82	2193.08
402.01	2148.61
402.21	2162.66
402.40	2120.53
402.59	2157.97
402.78	2298.41
402.97	2118.18
403.17	2146.27
403.36	2197.76
403.55	2230.53
403.74	2289.04
403.93	2429.48
404.13	2370.96
404.32	2312.45
404.51	2328.83
404.70	2385.01
404.89	2319.47
405.09	2565.23
405.28	2464.58
405.47	2389.69
405.66	2415.43
405.85	2572.25
406.05	2464.58
406.24	2459.90
406.43	2492.67
406.62	2597.99
406.81	2626.08
407.00	2623.74
407.20	2452.88
407.39	2628.42
407.58	2626.08
407.77	2761.83
407.96	2644.81
408.15	2794.60
408.34	2729.06
408.54	2698.64
408.73	2684.59
408.92	2857.79
409.11	2864.82
409.30	2942.05
409.49	2766.51
409.68	2979.50
409.87	3042.70
410.07	2993.55
410.26	2986.52
410.45	3021.63
410.64	2965.46
410.83	3049.72
411.02	3056.74
411.21	3126.96
411.40	3054.40
411.59	3183.13
411.78	3131.64
411.98	3164.40
412.17	3220.58
412.36	3407.82
412.55	3330.58
412.74	3325.90
412.93	3344.63
413.12	3428.88
413.31	3536.55
413.50	3309.52
413.69	3529.53
413.88	3550.59
414.07	3562.30
414.26	3648.90
414.45	3595.06
414.64	3723.79
414.83	3824.44
415.02	3838.48
415.22	3918.06
415.41	3808.05
415.60	3826.78
415.79	3953.16
415.98	4042.11
416.17	3868.91
416.36	3829.12
416.55	4119.34
416.74	4119.34
416.93	4077.21
417.12	4016.36
417.31	4133.39
417.50	4152.11
417.69	4280.84
417.88	4224.67
418.07	4217.65
418.26	4133.39
418.45	4414.25
418.64	4376.80
418.83	4386.16
419.02	4386.16
419.21	4603.83
419.39	4435.32
419.58	4435.32
419.77	4430.63
419.96	4472.76
420.15	4461.06
420.34	4430.63
420.53	4568.73
420.72	4606.17
420.91	4608.51
421.10	4594.47
421.29	4753.63
421.48	4592.13
421.67	4887.04
421.86	4746.61
422.05	4807.46
422.24	4711.50
422.43	4861.29
422.61	4777.03
422.80	4847.25
422.99	4887.04
423.18	4964.28
423.37	4947.89
423.56	4950.23
423.75	4912.78
423.94	4896.40
424.13	4561.70
424.32	4786.40
424.50	4891.72
424.69	4933.85
424.88	5130.45
425.07	5004.07
425.26	4746.61
425.45	4983.00
425.64	4805.12
425.83	4945.55
426.01	5069.60
426.20	5006.41
426.39	5135.14
426.58	5064.92
426.77	4990.02
426.96	5027.47
427.15	5109.39
427.33	5116.41
427.52	5263.86
427.71	5158.54
427.90	5280.25
428.09	5355.15
428.28	5249.82
428.46	5343.44
428.65	5397.28
428.84	5434.72
429.03	5418.34
429.22	5188.97
429.40	5453.45
429.59	5455.79
429.78	5238.12
429.97	5296.63
430.16	5514.30
430.34	5481.53
430.53	5575.16
430.72	5706.23
430.91	5537.71
431.10	5572.82
431.28	5605.58
431.47	5570.48
431.66	5865.38
431.85	5905.17
432.03	5860.70
432.22	5753.04
432.41	5914.53
432.60	5837.30
432.79	5841.98
432.97	5790.49
433.16	6026.88
433.35	6069.01
433.54	6169.65
433.72	6087.73
433.91	6010.50
434.10	6052.63
434.28	6122.84
434.47	6209.44
434.66	6314.77
434.85	6291.36
435.03	6242.21
435.22	6305.40
435.41	6345.19
435.59	6312.42
435.78	6450.52
435.97	6363.92
436.16	6394.34
436.34	6244.55
436.53	6361.58
436.72	6609.67
436.90	6253.91
437.09	6406.05
437.28	6504.35
437.46	6628.40
437.65	6630.74
437.84	6785.21
438.02	6525.41
438.21	6623.72
438.40	6665.85
438.58	6918.62
438.77	6913.94
438.96	6897.56
439.14	7279.07
439.33	7176.08
439.52	7028.63
439.70	7276.73
439.89	7295.45
440.08	7421.84
440.26	7344.60
440.45	7325.88
440.63	7248.64
440.82	7712.07
441.01	7283.75
441.19	7730.79
441.38	7639.51
441.57	7854.84
441.75	7698.02
441.94	7761.22
442.12	7969.52
442.31	7913.35
442.50	8021.02
442.68	8133.36
442.87	7992.93
443.05	8175.49
443.24	8060.80
443.43	8187.19
443.61	8067.83
443.80	8472.74
443.98	7866.54
444.17	7896.97
444.35	8219.96
444.54	8313.58
444.73	8355.71
444.91	8229.32
445.10	8409.54
445.28	8166.13
445.47	8180.17
445.65	8194.22
445.84	8421.25
446.02	8461.04
446.21	8482.10
446.39	8133.36
446.58	8500.83
446.77	8500.83
446.95	8301.88
447.14	8482.10
447.32	8594.45
447.51	8226.98
447.69	8526.57
447.88	8676.37
448.06	8430.61
448.25	8564.02
448.43	8629.56
448.62	8435.29
448.80	8425.93
448.99	8685.73
449.17	8631.90
449.36	8720.84
449.54	8889.35
449.73	8779.35
449.91	8933.82
450.10	8936.17
450.28	8821.48
450.46	9128.09
450.65	9050.85
450.83	9057.87
451.02	8992.34
451.20	9202.99
451.39	9165.54
451.57	9174.90
451.76	9118.73
451.94	9247.46
452.13	9149.15
452.31	9149.15
452.49	9174.90
452.68	9167.88
452.86	9252.14
453.05	9280.22
453.23	9404.27
453.42	9284.91
453.60	9268.52
453.78	9430.02
453.97	9350.44
454.15	9336.40
454.34	9401.93
454.52	9486.19
454.70	9638.33
454.89	9511.94
455.07	9863.02
455.26	9816.21
455.44	9877.06
455.62	9600.88
455.81	9951.96
455.99	9940.26
456.17	10195.37
456.36	9912.17
456.54	9958.98
456.73	10413.04
456.91	10523.05
457.09	10324.10
457.28	10413.04
457.46	10340.49
457.64	10464.54
457.83	10490.28
458.01	10380.28
458.19	10689.23
458.38	10450.49
458.56	10738.38
458.74	10480.92
458.93	10565.18
459.11	10513.69
459.29	10649.44
459.48	10782.85
459.66	10778.17
459.84	10717.31
460.03	11016.90
460.21	10824.98
460.39	10883.49
460.57	11037.97
460.76	11157.33
460.94	11117.54
461.12	11115.20
461.31	11328.19
461.49	11089.46
461.67	11215.85
461.85	11283.72
462.04	11192.44
462.22	11625.44
462.40	11517.78
462.59	11185.42
462.77	11552.88
462.95	11545.86
463.13	11562.25
463.32	11452.24
463.50	11604.38
463.68	11812.68
463.86	11875.88
464.05	11470.97
464.23	11550.54
464.41	11932.05
464.59	11351.60
464.78	12070.14
464.96	12025.67
465.14	11665.23
465.32	11903.96
465.50	12280.79
465.69	12072.48
465.87	12035.03
466.05	12093.55
466.23	12060.78
466.41	11927.37
466.60	12372.07
466.78	12077.16
466.96	11918.01
467.14	12306.54
467.32	12182.49
467.51	12470.37
467.69	12219.94
467.87	12241.00
468.05	12498.46
468.23	12437.61
468.41	12458.67
468.60	12613.15
468.78	12753.58
468.96	12486.76
469.14	12751.24
469.32	12760.60
469.50	12475.06
469.69	12802.73
469.87	13055.51
470.05	13085.94
470.23	13247.43
470.41	13001.68
470.59	13226.37
470.77	13167.85
470.95	13249.77
471.14	13493.19
471.32	13081.25
471.50	13584.47
471.68	13301.26
471.86	13467.44
472.04	13664.05
472.22	13963.64
472.40	13549.36
472.58	13619.58
472.77	13944.91
472.95	13870.01
473.13	14480.89
473.31	14298.33
473.49	14190.67
473.67	14057.26
473.85	14153.22
474.03	14333.44
474.21	14235.14
474.39	14530.05
474.57	14473.87
474.75	15131.56
474.93	14728.99
475.12	14939.64
475.30	15035.60
475.48	14719.63
475.66	15049.64
475.84	14909.21
476.02	15257.95
476.20	15281.36
476.38	15569.24
476.56	15819.68
476.74	15822.02
476.92	15946.07
477.10	15489.67
477.28	15646.48
477.46	15971.82
477.64	16152.04
477.82	16224.59
478.00	16704.40
478.18	16709.08
478.36	16833.13
478.54	17151.45
478.72	17008.67
478.90	17476.78
479.08	17486.14
479.26	17631.26
479.44	17617.21
479.62	17848.93
479.80	17980.00
479.98	18052.55
480.16	18295.97
480.34	18092.34
480.52	18623.64
480.70	18408.31
480.88	18403.63
481.06	18593.22
481.24	18633.00
481.41	18860.04
481.59	19316.44
481.77	19606.67
481.95	19594.96
482.13	19398.36
482.31	19648.80
482.49	19957.75
482.67	19793.91
482.85	20528.84
483.03	20657.57
483.21	20851.83
483.39	20676.29
483.57	20950.14
483.74	21125.68
483.92	21060.14
484.10	20926.73
484.28	21364.41
484.46	22008.06
484.64	22221.05
484.82	21708.47
485.00	22288.92
485.18	22712.56
485.35	22939.59
485.53	22349.78
485.71	22766.39
485.89	23466.21
486.07	23000.44
486.25	23246.20
486.43	23498.98
486.61	23435.78
486.78	23913.25
486.96	23887.51
487.14	24245.61
487.32	24643.50
487.50	24460.94
487.68	24833.08
487.85	25153.74
488.03	25205.23
488.21	25582.06
488.39	25467.37
488.57	26235.06
488.75	26122.72
488.92	26441.03
489.10	26391.88
489.28	26649.34
489.46	26792.11
489.64	26789.77
489.81	27370.22
489.99	27379.59
490.17	27592.58
490.35	27517.68
490.53	27899.19
490.70	28222.18
490.88	28371.97
491.06	28355.59
491.24	28765.18
491.41	28683.27
491.59	28680.92
491.77	29167.76
491.95	29633.52
492.13	29467.34
492.30	29792.68
492.48	29666.29
492.66	30022.05
492.84	30391.86
493.01	30632.93
493.19	30230.36
493.37	31105.72
493.54	31129.12
493.72	31152.53
493.90	31349.14
494.08	31536.38
494.25	31850.01
494.43	31821.92
494.61	32341.52
494.79	32746.44
494.96	32711.33
495.14	32554.51
495.32	32989.85
495.49	33186.46
495.67	33151.35
495.85	33137.30
496.02	33298.80
496.20	33837.12
496.38	33741.16
496.55	33909.68
496.73	34569.71
496.91	34340.34
497.09	34735.89
497.26	34642.27
497.44	35056.54
497.62	35194.64
497.79	35407.62
497.97	35351.45
498.14	35810.20
498.32	35880.41
498.50	36081.70
498.67	36119.15
498.85	35955.31
499.03	36573.21
499.20	36318.09
499.38	36900.89
499.56	36879.82
499.73	36931.31
499.91	36907.91
500.08	37617.09
500.26	36891.52
500.44	37591.34
500.61	37134.94
500.79	37956.47
500.97	37809.01
501.14	38211.59
501.32	38375.42
501.49	38492.45
501.67	38192.86
501.84	38239.67
502.02	38937.15
502.20	38574.37
502.37	39313.98
502.55	39409.94
502.72	39416.96
502.90	39281.21
503.07	39234.40
503.25	39428.66
503.43	39503.56
503.60	40034.86
503.78	40076.99
503.95	40048.91
504.13	39976.35
504.30	40341.47
504.48	40399.99
504.65	40711.28
504.83	40844.69
505.01	41095.13
505.18	41083.42
505.36	41406.42
505.53	40945.33
505.71	40992.14
505.88	41617.07
506.06	41509.40
506.23	41750.48
506.41	41586.64
506.58	41638.13
506.76	42073.47
506.93	42174.11
507.11	42092.19
507.28	42302.84
507.46	42195.18
507.63	42410.51
507.81	42754.57
507.98	42829.46
508.16	43049.47
508.33	43381.83
508.50	43140.75
508.68	43377.15
508.85	43695.46
509.03	43861.64
509.20	43608.86
509.38	44002.07
509.55	44027.82
509.73	44151.87
509.90	44327.41
510.08	44516.99
510.25	44591.89
510.42	44519.33
510.60	45202.77
510.77	44584.86
510.95	45357.24
511.12	44928.92
511.30	44893.82
511.47	45336.18
511.64	45287.03
511.82	45617.04
511.99	45724.71
512.17	45851.09
512.34	45619.38
512.51	46010.25
512.69	45586.61
512.86	45610.02
513.04	46527.51
513.21	46293.46
513.38	46536.87
513.56	46307.50
513.73	46370.69
513.90	46656.24
514.08	46562.62
514.25	47021.36
514.43	47236.69
514.60	47257.76
514.77	47044.77
514.95	47426.28
515.12	47351.38
515.29	47349.04
515.47	47440.32
515.64	47826.51
515.81	47866.30
515.99	48081.63
516.16	48608.25
516.33	48025.45
516.51	48399.94
516.68	48350.79
516.85	48184.61
517.03	48561.44
517.20	48704.21
517.37	48687.82
517.54	48334.40
517.72	48751.02
517.89	49057.63
518.06	49092.74
518.24	48715.91
518.41	49195.72
518.58	49186.36
518.75	49177.00
518.93	49453.18
519.10	49165.29
519.27	49598.29
519.45	49282.32
519.62	49734.04
519.79	49808.94
519.96	49514.03
520.14	49855.75
520.31	49696.59
520.48	50078.10
520.65	50225.56
520.83	50604.72
521.00	50564.93
521.17	50176.40
521.34	50281.73
521.52	50501.74
521.69	51042.40
521.86	50806.01
522.03	50866.86
522.20	51199.22
522.38	51304.54
522.55	51040.06
522.72	50841.12
522.89	51098.58
523.07	51419.23
523.24	51222.62
523.41	51625.20
523.58	51255.39
523.75	51760.95
523.92	51344.33
524.10	51695.41
524.27	51913.08
524.44	51824.14
524.61	51707.12
524.78	51690.73
524.96	51964.57
525.13	52275.87
525.30	52133.09
525.47	52399.91
525.64	51969.26
525.81	52673.76
525.98	52519.28
526.16	52416.30
526.33	52549.71
526.50	52708.86
526.67	52626.95
526.84	52942.92
527.01	52575.45
527.18	52741.63
527.36	53050.58
527.53	52807.17
527.70	53277.61
527.87	53207.40
528.04	52863.34
528.21	53212.08
528.38	52935.90
528.55	53265.91
528.72	53095.05
528.89	53464.86
529.07	53041.22
529.24	53172.29
529.41	53612.31
529.58	53090.37
529.75	53528.05
529.92	53715.29
530.09	53811.26
530.26	53801.89
530.43	53790.19
530.60	53457.84
530.77	53478.90
530.94	54115.53
531.11	53581.88
531.28	54000.84
531.46	53998.50
531.63	54288.73
531.80	53935.30
531.97	54007.86
532.14	54389.37
532.31	54141.27
532.48	54614.06
532.65	54288.73
532.82	54237.23
532.99	54667.89
533.16	54497.03
533.33	54831.73
533.50	54714.70
533.67	54693.64
533.84	54419.80
534.01	54490.01
534.18	54747.47
534.35	55217.92
534.52	55002.59
534.69	54834.07
534.86	55171.11
535.03	54805.98
535.20	55072.81
535.37	54967.48
535.54	55014.29
535.71	54780.24
535.88	55189.83
536.05	55079.83
536.22	55440.27
536.38	55466.02
536.55	55353.67
536.72	55473.04
536.89	55243.66
537.06	55330.26
537.23	55594.74
537.40	55353.67
537.57	55519.85
537.74	55674.32
537.91	55938.80
538.08	55608.79
538.25	55679.00
538.42	55721.13
538.59	56041.79
538.75	55473.04
538.92	56095.62
539.09	56055.83
539.26	56154.13
539.43	56053.49
539.60	56072.21
539.77	56156.47
539.94	56207.97
540.11	56236.05
540.28	56563.73
540.44	56219.67
540.61	56097.96
540.78	56109.66
540.95	56287.54
541.12	56437.34
541.29	56332.01
541.46	56317.97
541.62	56420.95
541.79	56528.62
541.96	56339.04
542.13	56320.31
542.30	56575.43
542.47	56605.86
542.63	56727.56
542.80	56877.36
542.97	56919.49
543.14	57088.01
543.31	56940.55
543.48	56945.23
543.64	57205.03
543.81	57052.90
543.98	57095.03
544.15	57216.74
544.32	57387.60
544.48	57509.30
544.65	57148.86
544.82	57286.95
544.99	56835.23
545.16	57427.38
545.32	57308.02
545.49	57502.28
545.66	57652.08
545.83	57422.70
546.00	57443.77
546.16	57675.48
546.33	57513.98
546.50	57310.36
546.67	57654.42
546.83	57453.13
547.00	57586.54
547.17	57600.58
547.34	57773.78
547.50	57631.01
547.67	58136.57
547.84	58052.31
548.00	58080.39
548.17	58234.87
548.34	57942.30
548.51	57951.66
548.67	57949.32
548.84	57939.96
549.01	57778.46
549.18	58003.16
549.34	58101.46
549.51	58248.91
549.68	58150.61
549.84	58078.05
550.01	58365.94
550.18	58113.16
550.34	58202.10
550.51	58277.00
550.68	58199.76
550.84	58122.52
551.01	58237.21
551.18	58363.60
551.34	58302.74
551.51	58316.79
551.68	58377.64
551.84	58489.99
552.01	58466.58
552.18	58419.77
552.34	58391.68
552.51	58546.16
552.68	58426.79
552.84	58571.91
553.01	58836.39
553.18	58618.72
553.34	58869.15
553.51	58599.99
553.67	58592.97
553.84	58953.41
554.01	58913.62
554.17	58922.99
554.34	58815.32
554.51	58838.73
554.67	59238.96
554.84	58841.07
555.00	58829.37
555.17	58717.02
555.33	58873.84
555.50	58642.12
555.67	58920.65
555.83	58990.86
556.00	59119.59
556.16	58981.50
556.33	59231.94
556.50	58885.54
556.66	59255.34
556.83	58983.84
556.99	59470.67
557.16	59477.69
557.32	59339.60
557.49	59564.29
557.65	59121.93
557.82	59213.21
557.98	59330.24
558.15	59341.94
558.32	59283.43
558.48	59171.08
558.65	59189.81
558.81	59264.70
558.98	59402.80
559.14	59529.19
559.31	59388.75
559.47	59465.99
559.64	59671.96
559.80	59695.36
559.97	59622.81
560.13	59597.06
560.30	59454.29
560.46	59660.26
560.63	59480.03
560.79	59688.34
560.96	59807.71
561.12	59625.15
561.29	59599.40
561.45	59725.79
561.61	59749.20
561.78	59721.11
561.94	59711.75
562.11	59554.93
562.27	59721.11
562.44	59887.29
562.60	59891.97
562.77	59796.01
562.93	59702.38
563.10	59917.71
563.26	59690.68
563.42	60058.15
563.59	59831.11
563.75	59803.03
563.92	59973.89
564.08	59765.58
564.24	59807.71
564.41	60189.22
564.57	59796.01
564.74	59877.93
564.90	60212.62
565.07	60041.76
565.23	59945.80
565.39	60224.32
565.56	59966.87
565.72	60212.62
565.88	59812.39
566.05	60009.00
566.21	59863.88
566.38	60128.36
566.54	60266.45
566.70	60275.82
566.87	60301.56
567.03	59849.84
567.19	60280.50
567.36	60214.96
567.52	60135.38
567.68	60441.99
567.85	60406.89
568.01	60320.29
568.17	60170.49
568.34	60409.23
568.50	60322.63
568.66	60184.54
568.83	60416.25
568.99	60245.39
569.15	60126.02
569.32	60243.05
569.48	60149.43
569.64	60643.28
569.81	60343.69
569.97	60095.60
570.13	60217.30
570.30	60287.52
570.46	60453.70
570.62	60229.01
570.78	60439.65
570.95	60392.84
571.11	60224.32
571.27	60383.48
571.43	60376.46
571.60	60334.33
571.76	60212.62
571.92	60425.61
572.09	60537.96
572.25	60336.67
572.41	60528.59
572.57	60353.05
572.74	60736.90
572.90	60418.59
573.06	60521.57
573.22	60523.91
573.38	60788.39
573.55	60430.29
573.71	60664.35
573.87	60598.81
574.03	60580.09
574.20	60772.01
574.36	60367.10
574.52	60919.46
574.68	60629.24
574.84	60800.10
575.01	60596.47
575.17	60624.56
575.33	60601.15
575.49	60406.89
575.65	60650.30
575.82	60687.75
575.98	60441.99
576.14	60626.90
576.30	60666.69
576.46	60605.83
576.62	60582.43
576.79	60657.32
576.95	60650.30
577.11	60659.66
577.27	60718.18
577.43	60640.94
577.59	60617.53
577.75	60729.88
577.92	60465.40
578.08	60458.38
578.24	60626.90
578.40	60835.20
578.56	60687.75
578.72	60879.67
578.88	60720.52
579.04	60886.70
579.21	60739.24
579.37	60839.89
579.53	60788.39
579.69	60559.02
579.85	60711.16
580.01	60743.92
580.17	60416.25
580.33	60968.61
580.49	60823.50
580.65	60935.85
580.82	60917.12
580.98	60739.24
581.14	60640.94
581.30	60942.87
581.46	60853.93
581.62	60774.35
581.78	60624.56
581.94	60919.46
582.10	60715.84
582.26	60757.97
582.42	60882.02
582.58	60657.32
582.74	60903.08
582.90	61095.00
583.06	60872.65
583.22	60544.98
583.38	60823.50
583.54	60987.34
583.70	60769.67
583.86	61048.19
584.02	60706.47
584.18	60963.93
584.34	60832.86
584.50	60851.59
584.66	60816.48
584.82	60676.05
584.98	60994.36
585.14	61031.81
585.30	60893.72
585.46	60907.76
585.62	60795.42
585.78	61071.60
585.94	60769.67
586.10	60851.59
586.26	60867.97
586.42	60999.04
586.58	60947.55
586.74	61045.85
586.90	60725.20
587.06	60732.22
587.22	61160.54
587.38	60882.02
587.54	61076.28
587.70	61003.72
587.86	60956.91
588.02	60842.23
588.18	60956.91
588.34	60753.29
588.49	60973.30
