SpectraSuite Data File
++++++++++++++++++++++++++++++++++++
Date: Fri Oct 25 11:24:05 EDT 2013
User: price-jones
Dark Spectrum Present: No
Reference Spectrum Present: No
Number of Sampled Component Spectra: 1
Spectrometers: USB2+H05261
Integration Time (usec): 100000 (USB2+H05261)
Spectra Averaged: 1 (USB2+H05261)
Boxcar Smoothing: 0 (USB2+H05261)
Correct for Electrical Dark: No (USB2+H05261)
Strobe/Lamp Enabled: No (USB2+H05261)
Correct for Detector Non-linearity: No (USB2+H05261)
Correct for Stray Light: No (USB2+H05261)
Number of Pixels in Processed Spectrum: 2048
>>>>>Begin Processed Spectral Data<<<<<
365.73	217.67
365.92	217.67
366.12	217.67
366.32	128.73
366.52	177.88
366.72	168.52
366.91	138.09
367.11	126.39
367.31	145.11
367.51	210.65
367.70	72.56
367.90	124.05
368.10	112.35
368.30	133.41
368.49	173.20
368.69	205.97
368.89	154.48
369.09	149.79
369.28	180.22
369.48	119.37
369.68	205.97
369.87	269.16
370.07	210.65
370.27	215.33
370.47	381.51
370.66	484.49
370.86	627.26
371.06	671.73
371.25	741.95
371.45	643.65
371.65	716.20
371.84	676.41
372.04	730.25
372.24	702.16
372.44	699.82
372.63	709.18
372.83	669.39
373.03	781.74
373.22	709.18
373.42	791.10
373.62	826.21
373.81	793.44
374.01	800.46
374.21	851.96
374.40	821.53
374.60	847.27
374.79	856.64
374.99	795.78
375.19	835.57
375.38	835.57
375.58	866.00
375.78	734.93
375.97	880.04
376.17	947.92
376.37	887.06
376.56	973.66
376.76	903.45
376.95	952.60
377.15	922.17
377.35	931.53
377.54	887.06
377.74	903.45
377.93	929.19
378.13	931.53
378.33	945.58
378.52	936.21
378.72	978.34
378.91	882.38
379.11	973.66
379.31	875.36
379.50	931.53
379.70	976.00
379.89	1022.81
380.09	926.85
380.28	940.90
380.48	863.66
380.68	954.94
380.87	947.92
381.07	1071.97
381.26	1018.13
381.46	898.77
381.65	1036.86
381.85	915.15
382.04	1057.92
382.24	1102.39
382.43	1109.41
382.63	933.87
382.83	1123.46
383.02	1050.90
383.22	1132.82
383.41	1102.39
383.61	1100.05
383.80	1210.06
384.00	1149.20
384.19	1165.59
384.39	1055.58
384.58	1121.12
384.78	1207.72
384.97	1193.67
385.17	1172.61
385.36	1121.12
385.56	1165.59
385.75	1163.25
385.95	1240.48
386.14	1245.16
386.34	1214.74
386.53	1165.59
386.72	1224.10
386.92	1275.59
387.11	1184.31
387.31	1224.10
387.50	1226.44
387.70	1254.53
387.89	1348.15
388.09	1167.93
388.28	1224.10
388.48	1338.79
388.67	1348.15
388.86	1296.66
389.06	1378.58
389.25	1411.34
389.45	1373.89
389.64	1455.81
389.84	1406.66
390.03	1427.73
390.22	1444.11
390.42	1423.05
390.61	1549.43
390.81	1373.89
391.00	1373.89
391.19	1549.43
391.39	1423.05
391.58	1423.05
391.78	1430.07
391.97	1416.02
392.16	1439.43
392.36	1530.71
392.55	1497.94
392.75	1549.43
392.94	1472.20
393.13	1469.86
393.33	1568.16
393.52	1472.20
393.71	1739.02
393.91	1554.12
394.10	1563.48
394.29	1640.72
394.49	1621.99
394.68	1610.29
394.88	1755.40
395.07	1713.27
395.26	1750.72
395.46	1542.41
395.65	1774.13
395.84	1687.53
396.04	1827.96
396.23	1748.38
396.42	1750.72
396.62	1781.15
396.81	1762.42
397.00	1804.55
397.19	1762.42
397.39	1820.94
397.58	1741.36
397.77	1865.41
397.97	1839.66
398.16	1874.77
398.35	1921.58
398.55	1902.86
398.74	1905.20
398.93	2017.54
399.12	1895.83
399.32	1933.28
399.51	1811.57
399.70	1937.96
399.90	1905.20
400.09	1940.30
400.28	1975.41
400.47	2057.33
400.67	2031.58
400.86	1989.46
401.05	2078.40
401.24	2097.12
401.44	2188.40
401.63	2143.93
401.82	2111.16
402.01	2174.36
402.21	2202.44
402.40	2148.61
402.59	2127.55
402.78	2134.57
402.97	2370.96
403.17	2197.76
403.36	2160.31
403.55	2197.76
403.74	2385.01
403.93	2253.94
404.13	2321.81
404.32	2459.90
404.51	2392.03
404.70	2368.62
404.89	2258.62
405.09	2392.03
405.28	2509.05
405.47	2422.45
405.66	2438.84
405.85	2537.14
406.05	2429.48
406.24	2518.42
406.43	2640.12
406.62	2656.51
406.81	2626.08
407.00	2651.83
407.20	2567.57
407.39	2700.98
407.58	2773.53
407.77	2745.45
407.96	2773.53
408.15	2754.81
408.34	2656.51
408.54	2857.79
408.73	2841.41
408.92	2813.32
409.11	2920.99
409.30	2911.63
409.49	3005.25
409.68	3002.91
409.87	3033.33
410.07	2972.48
410.26	2967.80
410.45	2953.76
410.64	3033.33
410.83	3145.68
411.02	3059.08
411.21	3171.43
411.40	3122.27
411.59	3276.75
411.78	3241.64
411.98	3171.43
412.17	3215.90
412.36	3321.22
412.55	3372.71
412.74	3602.08
412.93	3391.44
413.12	3426.54
413.31	3616.13
413.50	3524.85
413.69	3543.57
413.88	3667.62
414.07	3456.97
414.26	3576.34
414.45	3681.66
414.64	3737.84
414.83	3747.20
415.02	3847.84
415.22	3922.74
415.41	3906.35
415.60	3925.08
415.79	3889.97
415.98	4028.06
416.17	3880.61
416.36	3836.14
416.55	4191.90
416.74	4168.49
416.93	4091.26
417.12	4166.15
417.31	4337.01
417.50	4086.58
417.69	4351.06
417.88	4381.48
418.07	4238.71
418.26	4311.27
418.45	4404.89
418.64	4498.51
418.83	4472.76
419.02	4430.63
419.21	4552.34
419.39	4489.15
419.58	4582.77
419.77	4393.19
419.96	4535.96
420.15	4561.70
420.34	4564.04
420.53	4491.49
420.72	4547.66
420.91	4566.39
421.10	4739.58
421.29	4837.89
421.48	4716.18
421.67	4791.08
421.86	4795.76
422.05	4875.34
422.24	4744.27
422.43	4973.64
422.61	4924.49
422.80	5135.14
422.99	4915.12
423.18	4975.98
423.37	5085.98
423.56	5146.84
423.75	4950.23
423.94	4961.94
424.13	4596.81
424.32	4809.80
424.50	5128.11
424.69	5200.67
424.88	5214.71
425.07	4957.25
425.26	5001.72
425.45	4917.47
425.64	4947.89
425.83	4992.36
426.01	5235.78
426.20	5186.63
426.39	5146.84
426.58	4968.96
426.77	5149.18
426.96	5048.54
427.15	5144.50
427.33	5132.79
427.52	5256.84
427.71	5308.34
427.90	5334.08
428.09	5378.55
428.28	5345.78
428.46	5572.82
428.65	5462.81
428.84	5533.03
429.03	5441.75
429.22	5341.10
429.40	5638.35
429.59	5561.11
429.78	5383.23
429.97	5259.18
430.16	5437.06
430.34	5563.45
430.53	5715.59
430.72	5636.01
430.91	5769.42
431.10	5614.95
431.28	5778.78
431.47	5914.53
431.66	5930.92
431.85	5870.06
432.03	5963.68
432.22	5923.90
432.41	5839.64
432.60	5937.94
432.79	6076.03
432.97	6061.99
433.16	5968.37
433.35	5930.92
433.54	6080.71
433.72	6202.42
433.91	6111.14
434.10	6129.86
434.28	6284.34
434.47	6153.27
434.66	6251.57
434.85	6558.18
435.03	6417.75
435.22	6342.85
435.41	6328.81
435.59	6569.88
435.78	6410.73
435.97	6305.40
436.16	6462.22
436.34	6307.74
436.53	6560.52
436.72	6612.01
436.90	6487.96
437.09	6773.51
437.28	6462.22
437.46	6502.01
437.65	6654.14
437.84	6799.26
438.02	6675.21
438.21	6895.22
438.40	6801.60
438.58	7094.16
438.77	7140.97
438.96	6906.92
439.14	7007.56
439.33	7258.00
439.52	7084.80
439.70	7323.54
439.89	7288.43
440.08	7297.79
440.26	7428.86
440.45	7393.75
440.63	7478.01
440.82	7585.68
441.01	7662.91
441.19	7775.26
441.38	7641.85
441.57	7782.28
441.75	7735.47
441.94	8074.85
442.12	7999.95
442.31	8145.06
442.50	7911.01
442.68	8072.51
442.87	7875.90
443.05	8149.75
443.24	8386.14
443.43	8241.03
443.61	8142.72
443.80	8505.51
443.98	8114.64
444.17	7920.37
444.35	8318.26
444.54	8294.86
444.73	8182.51
444.91	8383.80
445.10	8402.52
445.28	8524.23
445.47	8388.48
445.65	8283.16
445.84	8465.72
446.02	8643.60
446.21	8580.40
446.39	8374.44
446.58	8580.40
446.77	8629.56
446.95	8456.36
447.14	8496.14
447.32	8596.79
447.51	8468.06
447.69	8336.99
447.88	8613.17
448.06	8704.45
448.25	8652.96
448.43	8655.30
448.62	8617.85
448.80	8615.51
448.99	8833.18
449.17	8793.39
449.36	8657.64
449.54	8826.16
449.73	8830.84
449.91	9008.72
450.10	8940.85
450.28	9212.35
450.46	9090.64
450.65	9137.45
450.83	9102.34
451.02	9224.05
451.20	9247.46
451.39	9249.80
451.57	9364.48
451.76	9121.07
451.94	9341.08
452.13	9467.47
452.31	9472.15
452.49	9448.74
452.68	9418.32
452.86	9355.12
453.05	9509.60
453.23	9472.15
453.42	9598.54
453.60	9390.23
453.78	9710.88
453.97	9547.05
454.15	9610.24
454.34	9664.07
454.52	9652.37
454.70	9753.01
454.89	10097.07
455.07	9867.70
455.26	9919.19
455.44	10148.56
455.62	10068.98
455.81	9832.59
455.99	10040.90
456.17	10258.57
456.36	10171.97
456.54	10078.35
456.73	10270.27
456.91	10523.05
457.09	10225.80
457.28	10677.52
457.46	10457.51
457.64	10696.25
457.83	10511.35
458.01	10494.96
458.19	10822.64
458.38	10492.62
458.56	10787.53
458.74	10986.47
458.93	10782.85
459.11	10747.74
459.29	10967.75
459.48	10951.37
459.66	10747.74
459.84	11014.56
460.03	11000.52
460.21	11005.20
460.39	11098.82
460.57	11070.73
460.76	11379.68
460.94	11126.91
461.12	11232.23
461.31	11454.58
461.49	11220.53
461.67	11316.49
461.85	11566.93
462.04	11290.74
462.22	11597.35
462.40	11550.54
462.59	11595.01
462.77	11442.88
462.95	11805.66
463.13	11658.21
463.32	11681.61
463.50	11927.37
463.68	11847.79
463.86	11719.06
464.05	11707.36
464.23	11566.93
464.41	11913.33
464.59	11815.02
464.78	12219.94
464.96	12138.02
465.14	11910.99
465.32	12119.29
465.50	12196.53
465.69	12304.20
465.87	12166.10
466.05	12252.70
466.23	12475.06
466.41	12250.36
466.60	12622.51
466.78	12318.24
466.96	12208.23
467.14	12453.99
467.32	12285.47
467.51	12496.12
467.69	12390.80
467.87	12547.61
468.05	12688.04
468.23	12491.44
468.41	12514.84
468.60	12664.64
468.78	12922.10
468.96	12648.26
469.14	12912.74
469.32	13177.22
469.50	12657.62
469.69	12879.97
469.87	13186.58
470.05	13231.05
470.23	13191.26
470.41	13427.65
470.59	13352.76
470.77	12994.65
470.95	13280.20
471.14	13605.53
471.32	13605.53
471.50	13797.46
471.68	13853.63
471.86	13774.05
472.04	13998.74
472.22	13830.23
472.40	13963.64
472.58	14078.32
472.77	14214.07
472.95	14188.33
473.13	14728.99
473.31	14216.41
473.49	14682.18
473.67	14413.02
473.85	14380.25
474.03	14733.67
474.21	14717.29
474.39	14895.17
474.57	14853.04
474.75	15005.17
474.93	15042.62
475.12	15124.54
475.30	15194.76
475.48	15218.16
475.66	15253.27
475.84	15169.01
476.02	15520.09
476.20	15683.93
476.38	15833.72
476.56	15920.32
476.74	16184.80
476.92	15960.11
477.10	15840.75
477.28	16329.92
477.46	16262.04
477.64	16734.83
477.82	16645.89
478.00	16947.82
478.18	17001.65
478.36	17539.97
478.54	17352.73
478.72	17334.01
478.90	17483.80
479.08	17593.81
479.26	17921.48
479.44	17675.73
479.62	18080.64
479.80	18132.13
479.98	18185.96
480.16	18672.79
480.34	18452.78
480.52	19016.85
480.70	18913.87
480.88	18609.60
481.06	18974.72
481.24	19007.49
481.41	19269.63
481.59	19393.68
481.77	19651.14
481.95	19861.79
482.13	19866.47
482.31	19908.60
482.49	19974.13
482.67	20032.65
482.85	20540.54
483.03	20737.15
483.21	20800.34
483.39	21057.80
483.57	20954.82
483.74	21191.21
483.92	21535.27
484.10	21408.88
484.28	21776.34
484.46	21783.37
484.64	22609.58
484.82	22148.49
485.00	22644.68
485.18	22705.54
485.35	23328.12
485.53	23122.15
485.71	23440.47
485.89	23587.92
486.07	23674.52
486.25	23620.69
486.43	23866.44
486.61	24034.96
486.78	24112.20
486.96	24514.77
487.14	24559.24
487.32	24842.45
487.50	24947.77
487.68	25078.84
487.85	25668.66
488.03	25930.80
488.21	26270.17
488.39	25785.68
488.57	26122.72
488.75	26522.95
488.92	26300.60
489.10	26852.97
489.28	26752.32
489.46	27246.18
489.64	27239.15
489.81	28006.85
489.99	27964.72
490.17	27850.03
490.35	28189.41
490.53	28287.71
490.70	28573.26
490.88	28297.08
491.06	28856.46
491.24	29081.16
491.41	28943.06
491.59	29809.06
491.77	29874.60
491.95	30026.73
492.13	29956.52
492.30	30235.04
492.48	30284.19
492.66	30314.62
492.84	30677.40
493.01	30930.18
493.19	30422.28
493.37	31082.31
493.54	31152.53
493.72	31903.84
493.90	31496.59
494.08	31880.44
494.25	32088.74
494.43	32233.86
494.61	32463.23
494.79	32783.88
494.96	32620.05
495.14	33144.33
495.32	33298.80
495.49	33605.41
495.67	33834.78
495.85	33806.70
496.02	33694.35
496.20	33926.07
496.38	34251.40
496.55	34665.67
496.73	35047.18
496.91	34904.41
497.09	35028.46
497.26	35115.06
497.44	35211.02
497.62	35468.48
497.79	36320.43
497.97	35931.90
498.14	36355.54
498.32	36311.07
498.50	36208.09
498.67	36755.77
498.85	36278.30
499.03	36870.46
499.20	36701.94
499.38	37167.71
499.56	37305.80
499.73	37479.00
499.91	37684.97
500.08	38089.88
500.26	37586.66
500.44	37560.92
500.61	38316.91
500.79	37872.21
500.97	38349.68
501.14	38756.93
501.32	38515.86
501.49	39005.03
501.67	38719.48
501.84	39248.44
502.02	38988.64
502.20	39456.75
502.37	39391.22
502.55	39304.62
502.72	39913.16
502.90	39461.43
503.07	39409.94
503.25	40236.15
503.43	40095.72
503.60	40481.91
503.78	40615.32
503.95	40254.87
504.13	40498.29
504.30	41036.61
504.48	40645.74
504.65	40961.72
504.83	41338.54
505.01	41076.40
505.18	41626.43
505.36	41720.05
505.53	41324.50
505.71	41703.67
505.88	42061.77
506.06	41933.04
506.23	42089.85
506.41	41827.71
506.58	42698.39
506.76	42241.99
506.93	42817.76
507.11	42749.88
507.28	43021.39
507.46	43358.42
507.63	43159.48
507.81	43749.29
507.98	43466.09
508.16	43538.65
508.33	43744.61
508.50	43978.67
508.68	43973.98
508.85	44350.81
509.03	44083.99
509.20	44168.25
509.38	44360.17
509.55	44828.28
509.73	44851.69
509.90	44793.17
510.08	44329.75
510.25	45109.14
510.42	44942.97
510.60	45471.93
510.77	45361.92
510.95	45656.83
511.12	45469.59
511.30	45558.53
511.47	45841.73
511.64	45738.75
511.82	45961.10
511.99	46082.81
512.17	46485.38
512.34	45944.72
512.51	46588.36
512.69	46791.99
512.86	46925.40
513.04	46789.65
513.21	46838.80
513.38	47367.76
513.56	47346.70
513.73	47248.39
513.90	47271.80
514.08	47435.64
514.25	47620.54
514.43	47217.97
514.60	47576.07
514.77	47796.08
514.95	47997.37
515.12	48041.84
515.29	48086.31
515.47	48280.57
515.64	48580.16
515.81	48311.00
515.99	48666.76
516.16	48549.73
516.33	48608.25
516.51	49268.28
516.68	48619.95
516.85	48680.80
517.03	49186.36
517.20	49364.24
517.37	49315.09
517.54	49254.23
517.72	49090.40
517.89	49177.00
518.06	49717.66
518.24	49382.96
518.41	49663.83
518.58	49518.71
518.75	49708.30
518.93	49745.75
519.10	49724.68
519.27	50028.95
519.45	49923.63
519.62	50106.19
519.79	50108.53
519.96	50248.96
520.14	50614.08
520.31	50330.88
520.48	50485.36
520.65	50494.72
520.83	50885.59
521.00	51011.98
521.17	50817.71
521.34	51047.08
521.52	50967.51
521.69	51075.17
521.86	51330.29
522.03	51241.35
522.20	51344.33
522.38	51634.56
522.55	51608.81
522.72	51496.47
522.89	51234.33
523.07	51870.95
523.24	51653.28
523.41	51999.68
523.58	52119.05
523.75	52165.86
523.92	51964.57
524.10	52203.31
524.27	52423.32
524.44	52102.67
524.61	52285.23
524.78	52343.74
524.96	52423.32
525.13	52636.31
525.30	52645.67
525.47	52809.51
525.64	52617.58
525.81	52896.11
525.98	53010.79
526.16	52776.74
526.33	52870.36
526.50	53242.51
526.67	53116.12
526.84	52968.66
527.01	53043.56
527.18	52982.71
527.36	52671.42
527.53	53200.38
527.70	53343.15
527.87	53418.05
528.04	53366.55
528.21	53488.26
528.38	53544.44
528.55	53691.89
528.72	53628.69
528.89	53785.51
529.07	53542.10
529.24	53476.56
529.41	53750.40
529.58	53907.22
529.75	53560.82
529.92	53530.39
530.09	54209.15
530.26	54307.45
530.43	53804.24
530.60	54052.33
530.77	53937.65
530.94	54106.16
531.11	54181.06
531.28	54047.65
531.46	54211.49
531.63	54344.90
531.80	54262.98
531.97	54522.78
532.14	54482.99
532.31	54752.15
532.48	54798.96
532.65	54747.47
532.82	54841.09
532.99	54944.08
533.16	54681.94
533.33	54808.32
533.50	55227.28
533.67	54997.91
533.84	54983.86
534.01	55292.82
534.18	54815.35
534.35	55547.93
534.52	55330.26
534.69	55484.74
534.86	55657.94
535.03	55323.24
535.20	55332.60
535.37	55426.23
535.54	55578.36
535.71	55561.98
535.88	55491.76
536.05	55564.32
536.22	55828.80
536.38	55821.78
536.55	55585.38
536.72	55770.28
536.89	55561.98
537.06	55831.14
537.23	55828.80
537.40	55950.51
537.57	55875.61
537.74	55749.22
537.91	56233.71
538.08	56144.77
538.25	55552.62
538.42	55938.80
538.59	56184.56
538.75	56156.47
538.92	56177.54
539.09	56650.33
539.26	56357.76
539.43	56392.87
539.60	56343.72
539.77	56547.34
539.94	56486.49
540.11	56418.61
540.28	56662.03
540.44	56376.48
540.61	56416.27
540.78	56631.60
540.95	56636.28
541.12	56430.32
541.29	56542.66
541.46	56662.03
541.62	56781.40
541.79	56886.72
541.96	56633.94
542.13	56638.62
542.30	56734.59
542.47	57116.09
542.63	57059.92
542.80	57085.67
542.97	57076.30
543.14	57502.28
543.31	57155.88
543.48	57223.76
543.64	57712.93
543.81	57544.41
543.98	57511.64
544.15	57525.69
544.32	57715.27
544.48	57703.57
544.65	57425.04
544.82	57591.22
544.99	57291.63
545.16	57682.50
545.32	57649.74
545.49	57876.77
545.66	57865.06
545.83	57881.45
546.00	57853.36
546.16	57778.46
546.33	57766.76
546.50	57614.63
546.67	57904.85
546.83	57577.18
547.00	58089.76
547.17	57860.38
547.34	58166.99
547.50	58061.67
547.67	58192.74
547.84	58038.26
548.00	58363.60
548.17	58389.34
548.34	57975.07
548.51	58223.17
548.67	58333.17
548.84	58347.21
549.01	58330.83
549.18	58478.28
549.34	58230.19
549.51	58464.24
549.68	58422.11
549.84	58639.78
550.01	58642.12
550.18	58351.90
550.34	58592.97
550.51	58677.23
550.68	58560.20
550.84	58185.72
551.01	58660.85
551.18	58700.64
551.34	58801.28
551.51	58639.78
551.68	58665.53
551.84	58693.61
552.01	58581.27
552.18	58745.11
552.34	58728.72
552.51	58974.48
552.68	58578.93
552.84	58887.88
553.01	59065.76
553.18	58904.26
553.34	59124.27
553.51	58983.84
553.67	59004.91
553.84	59030.65
554.01	59220.23
554.17	59154.70
554.34	59166.40
554.51	59044.69
554.67	59274.07
554.84	59227.26
555.00	59147.68
555.17	59096.19
555.33	59208.53
555.50	58915.96
555.67	59203.85
555.83	59133.63
556.00	59444.93
556.16	59372.37
556.33	59428.54
556.50	59435.56
556.66	59412.16
556.83	59355.99
556.99	59398.12
557.16	59615.79
557.32	59653.23
557.49	59629.83
557.65	59379.39
557.82	59557.27
557.98	59573.66
558.15	59564.29
558.32	59702.38
558.48	59484.72
558.65	59505.78
558.81	59688.34
558.98	59594.72
559.14	59814.73
559.31	59814.73
559.47	59922.40
559.64	59629.83
559.80	59770.26
559.97	59817.07
560.13	59817.07
560.30	59903.67
560.46	59934.10
560.63	60016.02
560.79	59800.69
560.96	60044.10
561.12	60163.47
561.29	59854.52
561.45	59964.52
561.61	59901.33
561.78	60044.10
561.94	60102.62
562.11	60144.75
562.27	60001.97
562.44	60128.36
562.60	60065.17
562.77	60299.22
562.93	59821.75
563.10	60200.92
563.26	60158.79
563.42	60243.05
563.59	60128.36
563.75	60233.69
563.92	60100.28
564.08	60140.07
564.24	60409.23
564.41	60362.42
564.57	60341.35
564.74	60107.30
564.90	60322.63
565.07	60229.01
565.23	60420.93
565.39	60364.76
565.56	60362.42
565.72	60287.52
565.88	60385.82
566.05	60343.69
566.21	60399.86
566.38	60402.21
566.54	60636.26
566.70	60383.48
566.87	60460.72
567.03	60327.31
567.19	60502.85
567.36	60495.83
567.52	60537.96
567.68	60596.47
567.85	60516.89
568.01	60699.45
568.17	60418.59
568.34	60523.91
568.50	60217.30
568.66	60690.09
568.83	60491.15
568.99	60378.80
569.15	60502.85
569.32	60662.00
569.48	60580.09
569.64	60690.09
569.81	60402.21
569.97	60500.51
570.13	60680.73
570.30	60594.13
570.46	60566.04
570.62	60690.09
570.78	60729.88
570.95	60563.70
571.11	60755.63
571.27	60708.82
571.43	60650.30
571.60	60874.99
571.76	60825.84
571.92	60839.89
572.09	60640.94
572.25	60566.04
572.41	60725.20
572.57	60722.86
572.74	60931.17
572.90	60697.11
573.06	61085.64
573.22	60781.37
573.38	60872.65
573.55	60853.93
573.71	61132.45
573.87	60870.31
574.03	60690.09
574.20	60853.93
574.36	60860.95
574.52	61087.98
574.68	60942.87
574.84	61087.98
575.01	60992.02
575.17	60959.25
575.33	60856.27
575.49	60666.69
575.65	60715.84
575.82	60980.32
575.98	60882.02
576.14	61031.81
576.30	61034.15
576.46	60793.07
576.62	60865.63
576.79	60896.06
576.95	60708.82
577.11	61055.21
577.27	61134.79
577.43	61179.26
577.59	60966.27
577.75	60999.04
577.92	60858.61
578.08	61092.66
578.24	60994.36
578.40	61151.18
578.56	61146.50
578.72	60926.49
578.88	61090.32
579.04	61008.40
579.21	61062.24
579.37	61317.35
579.53	61368.85
579.69	60743.92
579.85	60882.02
580.01	60874.99
580.17	60940.53
580.33	61151.18
580.49	61045.85
580.65	61120.75
580.82	61066.92
580.98	61153.52
581.14	60931.17
581.30	61137.13
581.46	61083.30
581.62	61158.20
581.78	61076.28
581.94	61174.58
582.10	60903.08
582.26	61071.60
582.42	61118.41
582.58	60949.89
582.74	61202.67
582.90	61087.98
583.06	61130.11
583.22	60844.57
583.38	60973.30
583.54	61172.24
583.70	61272.88
583.86	61181.60
584.02	61127.77
584.18	60980.32
584.34	61080.96
584.50	61242.46
584.66	61113.73
584.82	61036.49
584.98	61399.27
585.14	61055.21
585.30	60968.61
585.46	61275.22
585.62	61357.14
585.78	61361.82
585.94	60851.59
586.10	61118.41
586.26	61183.94
586.42	61167.56
586.58	61263.52
586.74	61144.16
586.90	61029.47
587.06	61008.40
587.22	61137.13
587.38	61190.97
587.54	61389.91
587.70	61340.76
587.86	61413.32
588.02	61102.03
588.18	61343.10
588.34	61385.23
588.49	61226.07
