SpectraSuite Data File
++++++++++++++++++++++++++++++++++++
Date: Fri Oct 25 10:44:33 EDT 2013
User: price-jones
Dark Spectrum Present: No
Reference Spectrum Present: No
Number of Sampled Component Spectra: 1
Spectrometers: USB2+H05261
Integration Time (usec): 100000 (USB2+H05261)
Spectra Averaged: 1 (USB2+H05261)
Boxcar Smoothing: 0 (USB2+H05261)
Correct for Electrical Dark: No (USB2+H05261)
Strobe/Lamp Enabled: No (USB2+H05261)
Correct for Detector Non-linearity: No (USB2+H05261)
Correct for Stray Light: No (USB2+H05261)
Number of Pixels in Processed Spectrum: 2048
>>>>>Begin Processed Spectral Data<<<<<
365.73	131.07
365.92	131.07
366.12	131.07
366.32	56.17
366.52	74.90
366.72	42.13
366.91	16.38
367.11	35.11
367.31	0.00
367.51	4.68
367.70	4.68
367.90	70.22
368.10	84.26
368.30	4.68
368.49	46.81
368.69	60.85
368.89	51.49
369.09	14.04
369.28	53.83
369.48	65.54
369.68	88.94
369.87	72.56
370.07	128.73
370.27	105.32
370.47	201.29
370.66	376.83
370.86	447.04
371.06	304.27
371.25	449.38
371.45	404.91
371.65	393.21
371.84	353.42
372.04	379.17
372.24	435.34
372.44	442.36
372.63	538.32
372.83	496.19
373.03	404.91
373.22	428.32
373.42	566.41
373.62	472.79
373.81	447.04
374.01	543.00
374.21	566.41
374.40	428.32
374.60	493.85
374.79	519.60
374.99	550.03
375.19	608.54
375.38	571.09
375.58	533.64
375.78	557.05
375.97	519.60
376.17	676.41
376.37	613.22
376.56	550.03
376.76	580.45
376.95	613.22
377.15	622.58
377.35	645.99
377.54	575.77
377.74	573.43
377.93	566.41
378.13	613.22
378.33	589.82
378.52	594.50
378.72	664.71
378.91	669.39
379.11	599.18
379.31	650.67
379.50	592.16
379.70	667.05
379.89	690.46
380.09	620.24
380.28	678.76
380.48	688.12
380.68	601.52
380.87	613.22
381.07	671.73
381.26	650.67
381.46	739.61
381.65	660.03
381.85	667.05
382.04	681.10
382.24	709.18
382.43	641.31
382.63	692.80
382.83	592.16
383.02	650.67
383.22	758.33
383.41	678.76
383.61	709.18
383.80	737.27
384.00	683.44
384.19	678.76
384.39	730.25
384.58	739.61
384.78	779.40
384.97	765.36
385.17	706.84
385.36	709.18
385.56	732.59
385.75	744.29
385.95	734.93
386.14	835.57
386.34	732.59
386.53	779.40
386.72	807.48
386.92	884.72
387.11	772.38
387.31	877.70
387.50	786.42
387.70	734.93
387.89	795.78
388.09	821.53
388.28	821.53
388.48	795.78
388.67	940.90
388.86	889.40
389.06	840.25
389.25	933.87
389.45	837.91
389.64	858.98
389.84	922.17
390.03	908.13
390.22	1022.81
390.42	964.30
390.61	947.92
390.81	940.90
391.00	856.64
391.19	1008.77
391.39	971.32
391.58	964.30
391.78	968.98
391.97	1011.11
392.16	994.73
392.36	980.68
392.55	1055.58
392.75	966.64
392.94	947.92
393.13	978.34
393.33	933.87
393.52	1086.01
393.71	999.41
393.91	1036.86
394.10	1008.77
394.29	1050.90
394.49	1078.99
394.68	1046.22
394.88	1121.12
395.07	1074.31
395.26	1125.80
395.46	1027.50
395.65	1125.80
395.84	1090.69
396.04	1146.86
396.23	1036.86
396.42	1074.31
396.62	1083.67
396.81	1191.33
397.00	1177.29
397.19	1231.12
397.39	1125.80
397.58	1261.55
397.77	1261.55
397.97	1256.87
398.16	1308.36
398.35	1233.46
398.55	1196.01
398.74	1336.45
398.93	1329.42
399.12	1455.81
399.32	1317.72
399.51	1282.61
399.70	1446.45
399.90	1357.51
400.09	1371.55
400.28	1537.73
400.47	1535.39
400.67	1526.03
400.86	1413.68
401.05	1362.19
401.24	1582.20
401.44	1458.15
401.63	1603.27
401.82	1423.05
402.01	1568.16
402.21	1467.52
402.40	1584.54
402.59	1671.14
402.78	1540.07
402.97	1547.09
403.17	1596.25
403.36	1624.33
403.55	1650.08
403.74	1685.19
403.93	1652.42
404.13	1664.12
404.32	1610.29
404.51	1603.27
404.70	1659.44
404.89	1722.63
405.09	1729.66
405.28	1755.40
405.47	1713.27
405.66	1804.55
405.85	1774.13
406.05	1713.27
406.24	1853.70
406.43	1968.39
406.62	1947.33
406.81	1980.09
407.00	1881.79
407.20	1799.87
407.39	1853.70
407.58	1933.28
407.77	1994.14
407.96	1996.48
408.15	2148.61
408.34	2045.63
408.54	2026.90
408.73	2113.50
408.92	2054.99
409.11	2143.93
409.30	2108.82
409.49	2069.03
409.68	2022.22
409.87	2106.48
410.07	2167.34
410.26	2251.60
410.45	2176.70
410.64	2094.78
410.83	2305.43
411.02	2279.68
411.21	2345.22
411.40	2244.57
411.59	2406.07
411.78	2382.67
411.98	2324.15
412.17	2382.67
412.36	2403.73
412.55	2478.63
412.74	2415.43
412.93	2490.33
413.12	2483.31
413.31	2518.42
413.50	2541.82
413.69	2532.46
413.88	2677.57
414.07	2682.25
414.26	2635.44
414.45	2703.32
414.64	2698.64
414.83	2689.28
415.02	2717.36
415.22	2715.02
415.41	2906.95
415.60	2738.43
415.79	2818.00
415.98	3005.25
416.17	3019.29
416.36	3021.63
416.55	2897.58
416.74	3082.49
416.93	3045.04
417.12	2972.48
417.31	3103.55
417.50	2946.73
417.69	3159.72
417.88	3105.89
418.07	3087.17
418.26	3274.41
418.45	3185.47
418.64	3321.22
418.83	3243.98
419.02	3295.47
419.21	3206.53
419.39	3332.92
419.58	3309.52
419.77	3293.13
419.96	3389.10
420.15	3358.67
420.34	3447.61
420.53	3349.31
420.72	3435.91
420.91	3456.97
421.10	3503.78
421.29	3674.64
421.48	3358.67
421.67	3583.36
421.86	3494.42
422.05	3618.47
422.24	3566.98
422.43	3520.17
422.61	3463.99
422.80	3630.17
422.99	3520.17
423.18	3611.45
423.37	3730.81
423.56	3545.91
423.75	3590.38
423.94	3559.95
424.13	3393.78
424.32	3487.40
424.50	3672.30
424.69	3618.47
424.88	3719.11
425.07	3566.98
425.26	3459.31
425.45	3606.77
425.64	3602.08
425.83	3658.26
426.01	3772.94
426.20	3714.43
426.39	3576.34
426.58	3660.60
426.77	3667.62
426.96	3641.87
427.15	3562.30
427.33	3630.17
427.52	3772.94
427.71	3672.30
427.90	3859.54
428.09	3805.71
428.28	3936.78
428.46	3749.54
428.65	3808.05
428.84	3964.87
429.03	3927.42
429.22	3892.31
429.40	3918.06
429.59	3812.73
429.78	3674.64
429.97	3765.92
430.16	3815.07
430.34	3819.75
430.53	3920.40
430.72	3892.31
430.91	3962.53
431.10	3922.74
431.28	4208.28
431.47	4351.06
431.66	4262.12
431.85	4035.08
432.03	4227.01
432.22	4243.39
432.41	4175.52
432.60	4397.87
432.79	4294.88
432.97	4362.76
433.16	4266.80
433.35	4241.05
433.54	4393.19
433.72	4329.99
433.91	4222.33
434.10	4449.36
434.28	4414.25
434.47	4493.83
434.66	4601.49
434.85	4388.50
435.03	4671.71
435.22	4643.62
435.41	4552.34
435.59	4601.49
435.78	4592.13
435.97	4545.32
436.16	4636.60
436.34	4664.69
436.53	4641.28
436.72	4844.91
436.90	4610.86
437.09	4655.33
437.28	4535.96
437.46	4812.14
437.65	4727.88
437.84	4849.59
438.02	4697.46
438.21	4805.12
438.40	4718.52
438.58	4936.19
438.77	4863.63
438.96	4903.42
439.14	5116.41
439.33	5291.95
439.52	5174.92
439.70	5247.48
439.89	5212.37
440.08	5327.06
440.26	5249.82
440.45	5280.25
440.63	5518.98
440.82	5322.38
441.01	5392.59
441.19	5533.03
441.38	5584.52
441.57	5434.72
441.75	5591.54
441.94	5682.82
442.12	5640.69
442.31	5762.40
442.50	5771.76
442.68	5877.09
442.87	5738.99
443.05	5762.40
443.24	6125.18
443.43	5996.45
443.61	5898.15
443.80	6066.67
443.98	5884.11
444.17	5792.83
444.35	5975.39
444.54	6029.22
444.73	6104.12
444.91	5982.41
445.10	5994.11
445.28	5867.72
445.47	5846.66
445.65	5886.45
445.84	6024.54
446.02	5982.41
446.21	6097.10
446.39	5982.41
446.58	5956.66
446.77	6122.84
446.95	5954.32
447.14	6022.20
447.32	6097.10
447.51	6076.03
447.69	6279.66
447.88	6045.60
448.06	6193.06
448.25	6207.10
448.43	6136.88
448.62	6239.87
448.80	6059.65
448.99	6197.74
449.17	6431.79
449.36	6307.74
449.54	6342.85
449.73	6469.24
449.91	6525.41
450.10	6450.52
450.28	6464.56
450.46	6595.63
450.65	6668.19
450.83	6651.80
451.02	6604.99
451.20	6600.31
451.39	6532.44
451.57	6623.72
451.76	6494.99
451.94	6604.99
452.13	6719.68
452.31	6670.53
452.49	6567.54
452.68	6733.72
452.86	6644.78
453.05	6651.80
453.23	6642.44
453.42	6719.68
453.60	6700.95
453.78	6869.47
453.97	6750.10
454.15	6895.22
454.34	6935.01
454.52	7000.54
454.70	6953.73
454.89	6803.94
455.07	6970.12
455.26	6871.81
455.44	7077.78
455.62	7248.64
455.81	7143.32
455.99	7164.38
456.17	7288.43
456.36	7321.20
456.54	7124.59
456.73	7365.67
456.91	7588.02
457.09	7316.51
457.28	7737.81
457.46	7503.76
457.64	7611.42
457.83	7314.17
458.01	7250.98
458.19	7442.90
458.38	7440.56
458.56	7534.18
458.74	7604.40
458.93	7576.31
459.11	7705.04
459.29	7672.28
459.48	7613.76
459.66	7613.76
459.84	7606.74
460.03	8086.55
460.21	7735.47
460.39	7871.22
460.57	7859.52
460.76	7892.29
460.94	7889.95
461.12	8072.51
461.31	7805.69
461.49	7915.69
461.67	7810.37
461.85	8234.00
462.04	8114.64
462.22	8372.10
462.40	8107.62
462.59	8266.77
462.77	8269.11
462.95	8318.26
463.13	8187.19
463.32	8198.90
463.50	8458.70
463.68	8367.42
463.86	8299.54
464.05	8234.00
464.23	8304.22
464.41	8259.75
464.59	8365.07
464.78	8578.06
464.96	8379.12
465.14	8292.52
465.32	8456.36
465.50	8648.28
465.69	8636.58
465.87	8477.42
466.05	8629.56
466.23	8428.27
466.41	8528.91
466.60	8678.71
466.78	8636.58
466.96	8271.45
467.14	8741.90
467.32	8659.98
467.51	8936.17
467.69	8643.60
467.87	8683.39
468.05	8676.37
468.23	8629.56
468.41	8814.46
468.60	8887.01
468.78	8798.07
468.96	8650.62
469.14	8887.01
469.32	9254.48
469.50	9022.77
469.69	9107.02
469.87	9296.61
470.05	8851.91
470.23	9177.24
470.41	9249.80
470.59	9254.48
470.77	9149.15
470.95	9205.33
471.14	9343.42
471.32	9207.67
471.50	9561.09
471.68	9533.00
471.86	9708.54
472.04	9612.58
472.22	9715.56
472.40	9497.89
472.58	9893.44
472.77	9743.65
472.95	9961.32
473.13	9951.96
473.31	9617.26
473.49	9661.73
473.67	9856.00
473.85	9914.51
474.03	10076.01
474.21	10136.86
474.39	10125.16
474.57	10319.42
474.75	10431.77
474.93	10354.53
475.12	10401.34
475.30	10373.25
475.48	10338.15
475.66	10494.96
475.84	10434.11
476.02	10581.56
476.20	10876.47
476.38	10827.32
476.56	11066.05
476.74	10942.00
476.92	10991.16
477.10	10916.26
477.28	11183.08
477.46	11162.01
477.64	11353.94
477.82	11632.46
478.00	11634.80
478.18	11611.40
478.36	11833.75
478.54	11672.25
478.72	11735.45
478.90	11817.36
479.08	12203.55
479.26	12372.07
479.44	12521.87
479.62	12468.03
479.80	12269.09
479.98	12479.74
480.16	12791.03
480.34	12458.67
480.52	12695.07
480.70	12954.87
480.88	12610.81
481.06	12884.65
481.24	13221.69
481.41	13296.58
481.59	13640.64
481.77	13490.85
481.95	13256.79
482.13	13425.31
482.31	13467.44
482.49	13841.93
482.67	14155.56
482.85	13991.72
483.03	14136.84
483.21	14075.98
483.39	14333.44
483.57	14244.50
483.74	14235.14
483.92	14670.48
484.10	14387.27
484.28	14815.59
484.46	14981.77
484.64	15068.37
484.82	14841.34
485.00	14991.13
485.18	15236.89
485.35	15442.85
485.53	15384.34
485.71	15218.16
485.89	15770.53
486.07	15653.50
486.25	15730.74
486.43	15763.51
486.61	15960.11
486.78	16137.99
486.96	16236.30
487.14	16514.82
487.32	16608.44
487.50	16868.24
487.68	16898.67
487.85	17259.11
488.03	17324.65
488.21	17413.59
488.39	17282.52
488.57	17680.41
488.75	17851.27
488.92	17799.77
489.10	17884.03
489.28	18284.26
489.46	18319.37
489.64	18022.12
489.81	18654.07
489.99	18979.40
490.17	18941.96
490.35	18953.66
490.53	18724.29
490.70	19058.98
490.88	18979.40
491.06	19499.00
491.24	19524.75
491.41	19477.94
491.59	19609.01
491.77	19573.90
491.95	19681.56
492.13	20198.82
492.30	20004.56
492.48	20285.42
492.66	20510.11
492.84	20655.23
493.01	20870.56
493.19	20786.30
493.37	20704.38
493.54	20856.51
493.72	21090.57
493.90	20910.35
494.08	21273.13
494.25	21317.60
494.43	21535.27
494.61	21614.85
494.79	21844.22
494.96	21628.89
495.14	21933.16
495.32	22424.67
495.49	22389.56
495.67	22326.37
495.85	22747.67
496.02	22792.14
496.20	22979.38
496.38	22899.80
496.55	22813.20
496.73	23669.84
496.91	23400.68
497.09	23814.95
497.26	23498.98
497.44	23304.71
497.62	23630.05
497.79	24084.11
497.97	23632.39
498.14	23924.96
498.32	23953.04
498.50	24142.63
498.67	24327.53
498.85	24463.28
499.03	24372.00
499.20	24542.86
499.38	24643.50
499.56	24704.35
499.73	24893.94
499.91	24940.75
500.08	24765.21
500.26	24828.40
500.44	24879.89
500.61	25008.62
500.79	24910.32
500.97	25291.83
501.14	25317.57
501.32	25717.81
501.49	25544.61
501.67	25668.66
501.84	25673.34
502.02	26176.55
502.20	26209.32
502.37	26305.28
502.55	26019.74
502.72	26267.83
502.90	26759.34
503.07	26160.17
503.25	26733.60
503.43	26162.51
503.60	26324.01
503.78	26553.38
503.95	26817.86
504.13	26801.47
504.30	26721.90
504.48	27274.26
504.65	27440.44
504.83	27292.99
505.01	27749.39
505.18	27405.33
505.36	27866.42
505.53	27777.48
505.71	27583.21
505.88	27920.25
506.06	27300.01
506.23	28013.87
506.41	27725.99
506.58	28121.54
506.76	28231.54
506.93	28591.98
507.11	27859.40
507.28	28098.13
507.46	28046.64
507.63	28364.95
507.81	28446.87
507.98	28680.92
508.16	28847.10
508.33	28826.04
508.50	28783.91
508.68	28978.17
508.85	29380.74
509.03	29352.66
509.20	29397.13
509.38	29479.05
509.55	29612.46
509.73	29565.65
509.90	29532.88
510.08	29551.60
510.25	29722.46
510.42	29670.97
510.60	29788.00
510.77	30052.48
510.95	30225.68
511.12	30141.42
511.30	30059.50
511.47	30490.16
511.64	30597.82
511.82	30555.69
511.99	30773.36
512.17	30630.59
512.34	30752.30
512.51	30785.07
512.69	31065.93
512.86	30754.64
513.04	31241.47
513.21	30988.69
513.38	31002.74
513.56	30862.30
513.73	31194.66
513.90	31264.88
514.08	30895.07
514.25	31697.88
514.43	31449.78
514.60	31515.31
514.77	31508.29
514.95	32081.72
515.12	31974.06
515.29	31742.35
515.47	32383.65
515.64	31894.48
515.81	32100.45
515.99	32369.61
516.16	31974.06
516.33	32318.12
516.51	32580.26
516.68	31896.82
516.85	32058.32
517.03	32278.33
517.20	32144.92
517.37	32973.47
517.54	32573.24
517.72	32437.48
517.89	32488.98
518.06	32212.79
518.24	32606.00
518.41	32608.34
518.58	32762.82
518.75	33064.75
518.93	33223.90
519.10	33280.08
519.27	33191.14
519.45	33633.50
519.62	33488.38
519.79	33488.38
519.96	33855.85
520.14	33661.58
520.31	33755.21
520.48	33811.38
520.65	33799.68
520.83	34433.96
521.00	34195.23
521.17	33982.24
521.34	34117.99
521.52	34089.90
521.69	34132.03
521.86	34534.60
522.03	34480.77
522.20	34075.86
522.38	34810.79
522.55	34464.39
522.72	34930.16
522.89	34731.21
523.07	35058.88
523.24	34913.77
523.41	34923.13
523.58	35204.00
523.75	35388.90
523.92	35185.27
524.10	35583.16
524.27	35597.21
524.44	35538.69
524.61	35747.00
524.78	35981.06
524.96	35786.79
525.13	35395.92
525.30	35679.13
525.47	36009.14
525.64	36051.27
525.81	35569.12
525.98	35491.88
526.16	35852.33
526.33	36009.14
526.50	35882.75
526.67	35812.54
526.84	35873.39
527.01	36058.29
527.18	36175.32
527.36	36673.85
527.53	36720.66
527.70	36870.46
527.87	36858.76
528.04	36945.36
528.21	36664.49
528.38	36697.26
528.55	37179.41
528.72	36858.76
528.89	37254.31
529.07	37104.51
529.24	36650.45
529.41	36907.91
529.58	36891.52
529.75	37015.57
529.92	37170.05
530.09	37500.06
530.26	37383.04
530.43	37593.68
530.60	37333.89
530.77	37390.06
530.94	37556.24
531.11	37287.07
531.28	37530.49
531.46	37933.06
531.63	37589.00
531.80	37401.76
531.97	37619.43
532.14	37390.06
532.31	37567.94
532.48	37787.95
532.65	37771.57
532.82	37624.11
532.99	38272.44
533.16	37855.82
533.33	38096.90
533.50	38440.96
533.67	38000.94
533.84	38387.13
534.01	38064.13
534.18	38040.73
534.35	38876.30
534.52	38555.64
534.69	38773.31
534.86	38513.52
535.03	38450.32
535.20	38567.35
535.37	39084.61
535.54	39030.77
535.71	38653.95
535.88	38721.82
536.05	38930.13
536.22	39377.17
536.38	39257.81
536.55	38909.07
536.72	39009.71
536.89	38976.94
537.06	38990.98
537.23	39171.21
537.40	38981.62
537.57	39192.27
537.74	39456.75
537.91	39524.63
538.08	39234.40
538.25	39302.28
538.42	39627.61
538.59	39665.06
538.75	39351.43
538.92	39229.72
539.09	39185.25
539.26	39548.03
539.43	39538.67
539.60	39641.65
539.77	39512.92
539.94	39583.14
540.11	39407.60
540.28	40144.87
540.44	39765.70
540.61	39981.03
540.78	40119.12
540.95	39358.45
541.12	39917.84
541.29	39805.49
541.46	39679.10
541.62	40058.27
541.79	40676.17
541.96	39938.90
542.13	40203.38
542.30	40353.18
542.47	40369.56
542.63	40907.88
542.80	40552.12
542.97	40914.90
543.14	41366.63
543.31	40832.99
543.48	40350.84
543.64	41408.76
543.81	41366.63
543.98	41207.47
544.15	41034.27
544.32	41163.00
544.48	41577.28
544.65	40851.71
544.82	41263.64
544.99	40662.13
545.16	41563.23
545.32	41233.22
545.49	41570.25
545.66	41928.36
545.83	41635.79
546.00	41523.44
546.16	41385.35
546.33	41275.35
546.50	41464.93
546.67	41361.95
546.83	41244.92
547.00	41813.67
547.17	41577.28
547.34	41703.67
547.50	41673.24
547.67	41656.85
547.84	41626.43
548.00	41869.84
548.17	42043.04
548.34	41900.27
548.51	42160.07
548.67	42609.45
548.84	42080.49
549.01	42480.72
549.18	41787.92
549.34	41918.99
549.51	42279.44
549.68	42462.00
549.84	41998.57
550.01	42707.76
550.18	42218.58
550.34	42321.57
550.51	42642.22
550.68	42038.36
550.84	42218.58
551.01	42354.33
551.18	42499.45
551.34	42443.27
551.51	42689.03
551.68	42878.61
551.84	42541.58
552.01	42555.62
552.18	42838.83
552.34	42562.64
552.51	42511.15
552.68	42897.34
552.84	43037.77
553.01	42806.06
553.18	42653.92
553.34	42995.64
553.51	43063.52
553.67	42536.90
553.84	42953.51
554.01	43049.47
554.17	42918.40
554.34	43311.61
554.51	42763.93
554.67	43414.60
554.84	43058.84
555.00	43065.86
555.17	42880.95
555.33	43112.67
555.50	43107.99
555.67	42958.19
555.83	43335.02
556.00	43435.66
556.16	43543.33
556.33	43449.70
556.50	43161.82
556.66	43548.01
556.83	42937.13
556.99	43402.89
557.16	43634.61
557.32	43672.06
557.49	43849.94
557.65	43470.77
557.82	43393.53
557.98	43658.01
558.15	43482.47
558.32	43805.47
558.48	43613.54
558.65	43566.73
558.81	43948.24
558.98	43634.61
559.14	43662.69
559.31	43442.68
559.47	43674.40
559.64	43831.21
559.80	43957.60
559.97	43672.06
560.13	43519.92
560.30	43665.03
560.46	43711.84
560.63	43948.24
560.79	44395.28
560.96	43910.79
561.12	43995.05
561.29	44030.16
561.45	43807.81
561.61	44149.53
561.78	43826.53
561.94	43505.88
562.11	44217.40
562.27	44261.87
562.44	44004.41
562.60	44414.01
562.77	44081.65
562.93	43973.98
563.10	44128.46
563.26	43473.11
563.42	44233.78
563.59	43683.76
563.75	43981.01
563.92	44329.75
564.08	43969.30
564.24	44638.70
564.41	44093.35
564.57	44154.21
564.74	44020.80
564.90	43896.75
565.07	44142.50
565.23	44409.32
565.39	44095.69
565.56	44641.04
565.72	44311.02
565.88	44301.66
566.05	44130.80
566.21	44151.87
566.38	44432.73
566.54	43739.93
566.70	44271.23
566.87	45092.76
567.03	44821.26
567.19	44252.51
567.36	44767.43
567.52	44212.72
567.68	44371.88
567.85	44364.85
568.01	44282.94
568.17	44355.49
568.34	44371.88
568.50	44313.36
568.66	44526.35
568.83	44357.83
568.99	44229.10
569.15	44257.19
569.32	44437.41
569.48	44308.68
569.64	44865.73
569.81	44486.56
569.97	44486.56
570.13	44444.43
570.30	44385.92
570.46	44030.16
570.62	43983.35
570.78	44004.41
570.95	44605.93
571.11	44678.49
571.27	44641.04
571.43	44259.53
571.60	44168.25
571.76	44474.86
571.92	44449.11
572.09	44189.31
572.25	44182.29
572.41	44456.14
572.57	44458.48
572.74	44959.35
572.90	44673.81
573.06	44858.71
573.22	44421.03
573.38	44563.80
573.55	44140.16
573.71	44533.37
573.87	44641.04
574.03	44512.31
574.20	44594.23
574.36	44491.24
574.52	44690.19
574.68	44907.86
574.84	44727.64
575.01	44643.38
575.17	44135.48
575.33	44566.14
575.49	44835.30
575.65	44673.81
575.82	45022.54
575.98	44339.11
576.14	45013.18
576.30	44662.10
576.46	44886.79
576.62	44617.63
576.79	44921.90
576.95	44608.27
577.11	44662.10
577.27	44748.70
577.43	44905.52
577.59	44648.06
577.75	45003.82
577.92	44573.16
578.08	44416.35
578.24	44575.50
578.40	44364.85
578.56	44690.19
578.72	44961.69
578.88	44809.56
579.04	45006.16
579.21	44987.44
579.37	44912.54
579.53	44650.40
579.69	44664.44
579.85	44311.02
580.01	45020.20
580.17	44865.73
580.33	45181.70
580.49	45043.61
580.65	45371.28
580.82	44921.90
580.98	44477.20
581.14	44666.78
581.30	45483.63
581.46	44971.05
581.62	44889.13
581.78	44851.69
581.94	45235.53
582.10	44877.43
582.26	45270.64
582.42	44790.83
582.58	44641.04
582.74	44891.48
582.90	44994.46
583.06	45322.13
583.22	45006.16
583.38	45408.73
583.54	45317.45
583.70	44842.32
583.86	44919.56
584.02	44601.25
584.18	44854.03
584.34	44825.94
584.50	45305.75
584.66	44556.78
584.82	44577.84
584.98	45298.73
585.14	45015.52
585.30	44741.68
585.46	44559.12
585.62	44563.80
585.78	45139.57
585.94	44388.26
586.10	44865.73
586.26	44669.12
586.42	45109.14
586.58	44636.36
586.74	44774.45
586.90	44570.82
587.06	44498.26
587.22	44999.14
587.38	44868.07
587.54	45247.24
587.70	45280.00
587.86	44961.69
588.02	45191.06
588.18	44825.94
588.34	45064.67
588.49	44435.07
588.65	44580.18
588.81	45102.12
588.97	44994.46
589.13	44767.43
589.29	45022.54
589.45	45067.02
589.61	44619.97
589.77	45399.37
589.93	44804.88
590.08	45404.05
590.24	45336.18
