SpectraSuite Data File
++++++++++++++++++++++++++++++++++++
Date: Fri Oct 25 11:22:36 EDT 2013
User: price-jones
Dark Spectrum Present: No
Reference Spectrum Present: No
Number of Sampled Component Spectra: 1
Spectrometers: USB2+H05261
Integration Time (usec): 100000 (USB2+H05261)
Spectra Averaged: 1 (USB2+H05261)
Boxcar Smoothing: 0 (USB2+H05261)
Correct for Electrical Dark: No (USB2+H05261)
Strobe/Lamp Enabled: No (USB2+H05261)
Correct for Detector Non-linearity: No (USB2+H05261)
Correct for Stray Light: No (USB2+H05261)
Number of Pixels in Processed Spectrum: 2048
>>>>>Begin Processed Spectral Data<<<<<
365.73	220.01
365.92	220.01
366.12	220.01
366.32	159.16
366.52	159.16
366.72	131.07
366.91	131.07
367.11	138.09
367.31	95.96
367.51	175.54
367.70	107.66
367.90	107.66
368.10	98.30
368.30	182.56
368.49	138.09
368.69	117.03
368.89	117.03
369.09	135.75
369.28	145.11
369.48	86.60
369.68	182.56
369.87	168.52
370.07	180.22
370.27	222.35
370.47	390.87
370.66	531.30
370.86	566.41
371.06	662.37
371.25	763.01
371.45	566.41
371.65	702.16
371.84	662.37
372.04	561.73
372.24	685.78
372.44	777.06
372.63	800.46
372.83	786.42
373.03	744.29
373.22	807.48
373.42	751.31
373.62	767.70
373.81	753.65
374.01	739.61
374.21	826.21
374.40	849.61
374.60	837.91
374.79	826.21
374.99	844.93
375.19	763.01
375.38	851.96
375.58	765.36
375.78	908.13
375.97	732.59
376.17	971.32
376.37	894.08
376.56	873.02
376.76	823.87
376.95	823.87
377.15	950.26
377.35	954.94
377.54	931.53
377.74	873.02
377.93	887.06
378.13	999.41
378.33	940.90
378.52	821.53
378.72	933.87
378.91	966.64
379.11	987.71
379.31	844.93
379.50	943.24
379.70	1018.13
379.89	994.73
380.09	950.26
380.28	973.66
380.48	889.40
380.68	1001.75
380.87	1055.58
381.07	936.21
381.26	1036.86
381.46	978.34
381.65	1074.31
381.85	1050.90
382.04	959.62
382.24	1018.13
382.43	1013.45
382.63	1025.15
382.83	997.07
383.02	1107.07
383.22	1114.10
383.41	1100.05
383.61	1100.05
383.80	1137.50
384.00	1093.03
384.19	1093.03
384.39	1144.52
384.58	1146.86
384.78	1153.88
384.97	1256.87
385.17	1111.75
385.36	1104.73
385.56	1186.65
385.75	1146.86
385.95	1116.44
386.14	1217.08
386.34	1254.53
386.53	1188.99
386.72	1144.52
386.92	1261.55
387.11	1296.66
387.31	1179.63
387.50	1221.76
387.70	1275.59
387.89	1245.16
388.09	1366.87
388.28	1240.48
388.48	1268.57
388.67	1336.45
388.86	1310.70
389.06	1362.19
389.25	1273.25
389.45	1324.74
389.64	1310.70
389.84	1439.43
390.03	1416.02
390.22	1451.13
390.42	1362.19
390.61	1439.43
390.81	1488.58
391.00	1441.77
391.19	1418.36
391.39	1406.66
391.58	1413.68
391.78	1448.79
391.97	1486.24
392.16	1362.19
392.36	1523.69
392.55	1465.18
392.75	1453.47
392.94	1554.12
393.13	1540.07
393.33	1530.71
393.52	1556.46
393.71	1640.72
393.91	1598.59
394.10	1509.65
394.29	1659.44
394.49	1483.90
394.68	1650.08
394.88	1586.88
395.07	1636.03
395.26	1565.82
395.46	1598.59
395.65	1724.97
395.84	1722.63
396.04	1832.64
396.23	1746.04
396.42	1657.10
396.62	1736.68
396.81	1788.17
397.00	1748.38
397.19	1671.14
397.39	1778.81
397.58	1813.92
397.77	1834.98
397.97	1802.21
398.16	1825.62
398.35	1928.60
398.55	1947.33
398.74	1959.03
398.93	1907.54
399.12	1923.92
399.32	1937.96
399.51	1902.86
399.70	2043.29
399.90	1921.58
400.09	2125.21
400.28	1970.73
400.47	2059.67
400.67	2050.31
400.86	2054.99
401.05	2054.99
401.24	2012.86
401.44	2099.46
401.63	2232.87
401.82	2136.91
402.01	2118.18
402.21	2148.61
402.40	2256.28
402.59	2282.02
402.78	2265.64
402.97	2307.77
403.17	2251.60
403.36	2207.13
403.55	2366.28
403.74	2335.85
403.93	2218.83
404.13	2462.24
404.32	2312.45
404.51	2340.54
404.70	2394.37
404.89	2441.18
405.09	2403.73
405.28	2569.91
405.47	2527.78
405.66	2464.58
405.85	2513.74
406.05	2469.27
406.24	2537.14
406.43	2628.42
406.62	2672.89
406.81	2567.57
407.00	2651.83
407.20	2558.21
407.39	2696.30
407.58	2717.36
407.77	2715.02
407.96	2860.13
408.15	2813.32
408.34	2745.45
408.54	2752.47
408.73	2736.09
408.92	2803.96
409.11	2895.24
409.30	2995.89
409.49	3019.29
409.68	3084.83
409.87	2897.58
410.07	2981.84
410.26	2958.44
410.45	3009.93
410.64	3073.12
410.83	3141.00
411.02	3042.70
411.21	3049.72
411.40	3199.51
411.59	3204.19
411.78	3255.69
411.98	3110.57
412.17	3370.37
412.36	3201.85
412.55	3365.69
412.74	3574.00
412.93	3461.65
413.12	3405.48
413.31	3609.11
413.50	3370.37
413.69	3463.99
413.88	3574.00
414.07	3571.66
414.26	3592.72
414.45	3681.66
414.64	3648.90
414.83	3751.88
415.02	3723.79
415.22	3815.07
415.41	3943.80
415.60	3829.12
415.79	3908.69
415.98	4109.98
416.17	3976.57
416.36	4051.47
416.55	3992.95
416.74	4168.49
416.93	4128.70
417.12	4072.53
417.31	4320.63
417.50	4168.49
417.69	4287.86
417.88	4358.08
418.07	4341.69
418.26	4283.18
418.45	4346.37
418.64	4491.49
418.83	4472.76
419.02	4456.38
419.21	4599.15
419.39	4533.62
419.58	4559.36
419.77	4423.61
419.96	4688.09
420.15	4732.56
420.34	4564.04
420.53	4615.54
420.72	4688.09
420.91	4781.71
421.10	4716.18
421.29	4833.21
421.48	4723.20
421.67	4751.29
421.86	4840.23
422.05	4781.71
422.24	4908.10
422.43	5029.81
422.61	4929.17
422.80	4896.40
422.99	4922.15
423.18	4887.04
423.37	5170.24
423.56	5046.20
423.75	5008.75
423.94	4880.02
424.13	4624.90
424.32	4727.88
424.50	4952.57
424.69	5074.28
424.88	5090.67
425.07	4863.63
425.26	5032.15
425.45	5067.26
425.64	4985.34
425.83	5036.83
426.01	5203.01
426.20	5048.54
426.39	5095.35
426.58	4994.70
426.77	5074.28
426.96	5160.88
427.15	5163.22
427.33	5273.23
427.52	5224.08
427.71	5298.97
427.90	5210.03
428.09	5352.81
428.28	5404.30
428.46	5427.70
428.65	5355.15
428.84	5575.16
429.03	5474.51
429.22	5476.85
429.40	5511.96
429.59	5425.36
429.78	5418.34
429.97	5233.44
430.16	5675.80
430.34	5736.65
430.53	5699.20
430.72	5699.20
430.91	5631.33
431.10	5729.63
431.28	5790.49
431.47	5771.76
431.66	5947.30
431.85	5851.34
432.03	6024.54
432.22	5944.96
432.41	6097.10
432.60	5820.91
432.79	6073.69
432.97	6125.18
433.16	6239.87
433.35	6225.82
433.54	6141.57
433.72	6338.17
433.91	6104.12
434.10	6221.14
434.28	6143.91
434.47	6317.11
434.66	6263.27
434.85	6272.64
435.03	6373.28
435.22	6263.27
435.41	6612.01
435.59	6502.01
435.78	6656.48
435.97	6539.46
436.16	6604.99
436.34	6443.49
436.53	6619.04
436.72	6700.95
436.90	6513.71
437.09	6738.40
437.28	6637.76
437.46	6663.51
437.65	6761.81
437.84	6906.92
438.02	6916.28
438.21	6984.16
438.40	6686.91
438.58	7070.76
438.77	6993.52
438.96	7047.35
439.14	7105.87
439.33	7140.97
439.52	7082.46
439.70	7356.30
439.89	7440.56
440.08	7410.14
440.26	7351.62
440.45	7536.52
440.63	7506.10
440.82	7480.35
441.01	7646.53
441.19	7588.02
441.38	7611.42
441.57	7758.88
441.75	7843.14
441.94	7981.23
442.12	8063.15
442.31	8095.91
442.50	8058.46
442.68	8032.72
442.87	8091.23
443.05	8224.64
443.24	8311.24
443.43	8180.17
443.61	8336.99
443.80	8311.24
443.98	8065.49
444.17	7829.09
444.35	8205.92
444.54	8285.50
444.73	8334.65
444.91	8498.49
445.10	8156.77
445.28	8428.27
445.47	8351.03
445.65	8519.55
445.84	8454.02
446.02	8500.83
446.21	8535.93
446.39	8505.51
446.58	8432.95
446.77	8690.41
446.95	8135.70
447.14	8514.87
447.32	8659.98
447.51	8461.04
447.69	8493.80
447.88	8517.21
448.06	8510.19
448.25	8657.64
448.43	8573.38
448.62	8571.04
448.80	8580.40
448.99	8784.03
449.17	8865.95
449.36	8812.12
449.54	9071.92
449.73	9074.26
449.91	8992.34
450.10	9018.08
450.28	9165.54
450.46	9179.58
450.65	9188.94
450.83	9350.44
451.02	8961.91
451.20	9137.45
451.39	9320.01
451.57	9067.24
451.76	9121.07
451.94	9385.55
452.13	9376.19
452.31	9329.38
452.49	9231.07
452.68	9430.02
452.86	9413.63
453.05	9355.12
453.23	9596.20
453.42	9256.82
453.60	9430.02
453.78	9490.87
453.97	9533.00
454.15	9593.86
454.34	9593.86
454.52	9692.16
454.70	9827.91
454.89	9937.91
455.07	9989.41
455.26	9825.57
455.44	10008.13
455.62	10136.86
455.81	10076.01
455.99	10251.55
456.17	10291.34
456.36	10118.14
456.54	10230.48
456.73	10319.42
456.91	10586.24
457.09	10555.82
457.28	10574.54
457.46	10399.00
457.64	10389.64
457.83	10466.88
458.01	10270.27
458.19	10834.34
458.38	10483.26
458.56	11016.90
458.74	10813.28
458.93	10839.02
459.11	10635.39
459.29	10789.87
459.48	11040.31
459.66	10860.09
459.84	11094.14
460.03	11173.72
460.21	11033.29
460.39	11012.22
460.57	11059.03
460.76	10970.09
460.94	11225.21
461.12	11447.56
461.31	11302.45
461.49	11126.91
461.67	11599.70
461.85	11763.53
462.04	11517.78
462.22	11997.59
462.40	11786.94
462.59	11557.57
462.77	11538.84
462.95	11695.66
463.13	11859.49
463.32	11735.45
463.50	11899.28
463.68	11882.90
463.86	11868.86
464.05	11590.33
464.23	11730.76
464.41	12201.21
464.59	11672.25
464.78	12170.79
464.96	11880.56
465.14	11843.11
465.32	12367.39
465.50	12039.72
465.69	12390.80
465.87	12372.07
466.05	12191.85
466.23	12016.31
466.41	12407.18
466.60	12688.04
466.78	12257.39
466.96	12428.24
467.14	12339.30
467.32	12638.89
467.51	12631.87
467.69	12304.20
467.87	12688.04
468.05	12748.90
468.23	12727.83
468.41	12636.55
468.60	12938.48
468.78	12650.60
468.96	12755.92
469.14	12950.18
469.32	13259.13
469.50	12901.03
469.69	12842.52
469.87	13231.05
470.05	13071.89
470.23	13296.58
470.41	13355.10
470.59	13514.25
470.77	13282.54
470.95	13490.85
471.14	13621.92
471.32	13429.99
471.50	13851.29
471.68	13738.94
471.86	13760.01
472.04	13870.01
472.22	14244.50
472.40	13731.92
472.58	13823.20
472.77	14146.20
472.95	14349.82
473.13	14949.00
473.31	14122.79
473.49	14258.54
473.67	14319.40
473.85	14366.21
474.03	14532.39
474.21	14611.96
474.39	15021.56
474.57	14537.07
474.75	15021.56
474.93	15021.56
475.12	14972.41
475.30	15349.23
475.48	15250.93
475.66	15372.64
475.84	15164.33
476.02	15566.90
476.20	15105.82
476.38	15934.37
476.56	16276.09
476.74	16327.58
476.92	16128.63
477.10	15981.18
477.28	16177.78
477.46	16311.19
477.64	16402.47
477.82	16865.90
478.00	17219.32
478.18	17015.69
478.36	17263.79
478.54	17209.96
478.72	17364.43
478.90	17617.21
479.08	17919.14
479.26	17813.82
479.44	17802.11
479.62	18204.69
479.80	18104.04
479.98	18284.26
480.16	18822.59
480.34	18761.73
480.52	18537.04
480.70	18771.10
480.88	18328.74
481.06	18904.51
481.24	19044.94
481.41	19300.06
481.59	19480.28
481.77	19487.30
481.95	19742.42
482.13	19978.81
482.31	19910.94
482.49	20318.19
482.67	20098.18
482.85	20458.62
483.03	20915.03
483.21	21240.36
483.39	21172.49
483.57	21118.65
483.74	21516.54
483.92	21603.14
484.10	21561.02
484.28	21968.27
484.46	22438.72
484.64	22441.06
484.82	22162.53
485.00	22857.67
485.18	23056.62
485.35	22955.97
485.53	23131.51
485.71	23655.79
485.89	24023.26
486.07	23522.38
486.25	23934.32
486.43	24205.82
486.61	24079.43
486.78	24428.17
486.96	24350.93
487.14	24685.63
487.32	24812.02
487.50	25245.02
487.68	25209.91
487.85	25673.34
488.03	25888.67
488.21	26183.57
488.39	26277.19
488.57	26670.40
488.75	26326.35
488.92	26455.08
489.10	26930.20
489.28	26658.70
489.46	27292.99
489.64	27229.79
489.81	27889.82
489.99	27878.12
490.17	27946.00
490.35	28397.72
490.53	28247.93
490.70	28460.91
490.88	28435.17
491.06	28769.86
491.24	29134.99
491.41	29577.35
491.59	29710.76
491.77	29518.84
491.95	30162.48
492.13	30022.05
492.30	30347.39
492.48	30721.87
492.66	30354.41
492.84	30780.39
493.01	30965.29
493.19	30845.92
493.37	31295.30
493.54	31316.37
493.72	32107.47
493.90	31580.85
494.08	31906.18
494.25	32453.87
494.43	32500.68
494.61	32627.07
494.79	32692.60
494.96	33020.28
495.14	33303.48
495.32	33846.49
495.49	33713.08
495.67	33509.45
495.85	33687.33
496.02	34080.54
496.20	34705.46
496.38	34270.12
496.55	34227.99
496.73	34862.28
496.91	34749.93
497.09	35180.59
497.26	35590.19
497.44	35281.24
497.62	35702.53
497.79	35728.28
497.97	35922.54
498.14	36098.08
498.32	36510.02
498.50	36727.69
498.67	36882.16
498.85	36741.73
499.03	36999.19
499.20	36919.61
499.38	37315.16
499.56	37212.18
499.73	37420.48
499.91	37315.16
500.08	37907.32
500.26	37818.38
500.44	37975.19
500.61	38258.40
500.79	38340.32
500.97	38590.75
501.14	39021.41
501.32	38770.97
501.49	38703.10
501.67	39103.33
501.84	39161.84
502.02	39072.90
502.20	39304.62
502.37	39707.19
502.55	39344.41
502.72	39924.86
502.90	39765.70
503.07	40142.53
503.25	40453.82
503.43	39927.20
503.60	40863.41
503.78	40575.53
503.95	40521.69
504.13	40945.33
504.30	40865.75
504.48	40526.38
504.65	40931.29
504.83	41560.89
505.01	41909.63
505.18	41731.75
505.36	41729.41
505.53	41741.11
505.71	41755.16
505.88	41895.59
506.06	42087.51
506.23	42361.36
506.41	42155.39
506.58	42733.50
506.76	42459.66
506.93	42836.48
507.11	42607.11
507.28	43386.51
507.46	43089.26
507.63	43292.89
507.81	43707.16
507.98	42967.55
508.16	43503.54
508.33	43372.47
508.50	44126.12
508.68	44034.84
508.85	44133.14
509.03	44381.24
509.20	44753.38
509.38	44877.43
509.55	44545.08
509.73	45036.59
509.90	44837.64
510.08	44685.51
510.25	44751.04
510.42	44966.37
510.60	45443.84
510.77	45738.75
510.95	45776.20
511.12	45478.95
511.30	45645.13
511.47	45244.90
511.64	45797.26
511.82	46155.36
511.99	46028.98
512.17	46326.22
512.34	46438.57
512.51	46560.28
512.69	47091.58
512.86	46504.10
513.04	46941.78
513.21	46822.42
513.38	46932.42
513.56	46955.83
513.73	47290.52
513.90	47622.88
514.08	47194.56
514.25	47608.84
514.43	47936.51
514.60	48381.21
514.77	47941.19
514.95	48222.06
515.12	48083.97
515.29	48030.13
515.47	48299.30
515.64	48872.73
515.81	48339.08
515.99	48430.36
516.16	48699.53
516.33	48624.63
516.51	49045.93
516.68	48800.17
516.85	48678.46
517.03	49066.99
517.20	49289.34
517.37	49254.23
517.54	49048.27
517.72	49066.99
517.89	49752.77
518.06	49631.06
518.24	49443.82
518.41	49771.49
518.58	49607.65
518.75	49727.02
518.93	49874.48
519.10	49867.45
519.27	50106.19
519.45	50064.06
519.62	50300.45
519.79	50225.56
519.96	50419.82
520.14	50398.76
520.31	50515.78
520.48	50660.90
520.65	50869.20
520.83	51014.32
521.00	50775.58
521.17	51007.29
521.34	51145.39
521.52	51058.79
521.69	50979.21
521.86	51192.20
522.03	51557.32
522.20	51849.89
522.38	51716.48
522.55	51686.05
522.72	51870.95
522.89	51704.77
523.07	51880.31
523.24	51978.62
523.41	51875.63
523.58	51379.44
523.75	52268.84
523.92	52109.69
524.10	52107.35
524.27	52275.87
524.44	52608.22
524.61	52444.38
524.78	52215.01
524.96	52545.03
525.13	52561.41
525.30	52767.38
525.47	52886.74
525.64	52790.78
525.81	52870.36
525.98	52758.02
526.16	52615.24
526.33	52971.00
526.50	53413.37
526.67	53109.10
526.84	53158.25
527.01	52825.89
527.18	53010.79
527.36	53162.93
527.53	53546.78
527.70	53745.72
527.87	53832.32
528.04	53474.22
528.21	53619.33
528.38	53727.00
528.55	53804.24
528.72	53581.88
528.89	53759.76
529.07	53794.87
529.24	54000.84
529.41	53970.41
529.58	53815.94
529.75	53607.63
529.92	54295.75
530.09	53975.09
530.26	54138.93
530.43	54335.54
530.60	53970.41
530.77	54066.38
530.94	54312.13
531.11	54323.83
531.28	54309.79
531.46	54473.63
531.63	54574.27
531.80	54658.53
531.97	54777.90
532.14	54798.96
532.31	55166.43
532.48	54986.21
532.65	54869.18
532.82	54775.56
532.99	54747.47
533.16	54925.35
533.33	55035.36
533.50	55147.70
533.67	55356.01
533.84	55220.26
534.01	55068.12
534.18	55215.58
534.35	55613.47
534.52	55430.91
534.69	55679.00
534.86	55697.73
535.03	55363.03
535.20	55554.96
535.37	55650.92
535.54	55985.61
535.71	55662.62
535.88	55767.94
536.05	55538.57
536.22	55990.30
536.38	55863.91
536.55	55812.41
536.72	55697.73
536.89	55812.41
537.06	55894.33
537.23	56041.79
537.40	55704.75
537.57	55962.21
537.74	55859.23
537.91	56339.04
538.08	56231.37
538.25	55866.25
538.42	56205.62
538.59	56437.34
538.75	56224.35
538.92	56165.84
539.09	56451.38
539.26	56484.15
539.43	56353.08
539.60	56591.81
539.77	56493.51
539.94	56769.69
540.11	56537.98
540.28	56863.32
540.44	56416.27
540.61	56835.23
540.78	56825.87
540.95	56666.71
541.12	56514.58
541.29	56760.33
541.46	56956.94
541.62	56783.74
541.79	56963.96
541.96	56486.49
542.13	56818.84
542.30	56853.95
542.47	57095.03
542.63	57036.51
542.80	57102.05
542.97	57331.42
543.14	57371.21
543.31	57488.24
543.48	57488.24
543.64	57509.30
543.81	57633.35
543.98	57483.56
544.15	57623.99
544.32	57710.59
544.48	58005.50
544.65	57689.52
544.82	57979.75
544.99	57467.17
545.16	57794.85
545.32	57726.97
545.49	57776.12
545.66	58150.61
545.83	58113.16
546.00	58152.95
546.16	57825.28
546.33	57801.87
546.50	57696.55
546.67	58108.48
546.83	57570.16
547.00	57860.38
547.17	57844.00
547.34	57993.79
547.50	58232.53
547.67	58204.44
547.84	58253.59
548.00	58351.90
548.17	58358.92
548.34	58300.40
548.51	58492.33
548.67	58410.41
548.84	58237.21
549.01	58394.03
549.18	58396.37
549.34	58724.04
549.51	58632.76
549.68	58379.98
549.84	58457.22
550.01	58777.87
550.18	58422.11
550.34	58632.76
550.51	58679.57
550.68	58424.45
550.84	58649.14
551.01	58796.60
551.18	58742.77
551.34	58588.29
551.51	59007.25
551.68	58688.93
551.84	58796.60
552.01	58754.47
552.18	58946.39
552.34	58859.79
552.51	59018.95
552.68	58824.68
552.84	58866.81
553.01	59140.66
553.18	59112.57
553.34	59068.10
553.51	59035.33
553.67	59063.42
553.84	59196.83
554.01	59150.02
554.17	59061.08
554.34	59334.92
554.51	59152.36
554.67	59334.92
554.84	59372.37
555.00	59215.55
555.17	59091.51
555.33	59330.24
555.50	59171.08
555.67	59255.34
555.83	59290.45
556.00	59192.15
556.16	59849.84
556.33	59510.46
556.50	59482.37
556.66	59676.64
556.83	59414.50
556.99	59463.65
557.16	59592.38
557.32	59821.75
557.49	59522.16
557.65	59423.86
557.82	59599.40
557.98	59517.48
558.15	59440.24
558.32	59660.26
558.48	59585.36
558.65	59590.04
558.81	59772.60
558.98	59728.13
559.14	59959.84
559.31	59854.52
559.47	60027.72
559.64	60037.08
559.80	59913.03
559.97	59866.22
560.13	59812.39
560.30	59978.57
560.46	59959.84
560.63	59985.59
560.79	59976.23
560.96	60158.79
561.12	60355.39
561.29	60011.34
561.45	60191.56
561.61	59906.01
561.78	60214.96
561.94	60060.49
562.11	60205.60
562.27	59987.93
562.44	60224.32
562.60	60313.26
562.77	60214.96
562.93	59934.10
563.10	60264.11
563.26	60151.77
563.42	60348.37
563.59	60355.39
563.75	60163.47
563.92	60212.62
564.08	60360.08
564.24	60280.50
564.41	60282.84
564.57	60418.59
564.74	60402.21
564.90	60390.50
565.07	60271.14
565.23	60296.88
565.39	60210.28
565.56	60434.97
565.72	60498.17
565.88	60348.37
566.05	60383.48
566.21	60498.17
566.38	60554.34
566.54	60406.89
566.70	60596.47
566.87	60645.62
567.03	60367.10
567.19	60563.70
567.36	60502.85
567.52	60388.16
567.68	60722.86
567.85	60617.53
568.01	60472.42
568.17	60287.52
568.34	60828.18
568.50	60631.58
568.66	60514.55
568.83	60516.89
568.99	60575.40
569.15	60484.12
569.32	60589.45
569.48	60800.10
569.64	61013.08
569.81	60645.62
569.97	60664.35
570.13	60514.55
570.30	60624.56
570.46	60629.24
570.62	60706.47
570.78	60938.19
570.95	60776.69
571.11	60996.70
571.27	60680.73
571.43	60715.84
571.60	60779.03
571.76	60837.54
571.92	60690.09
572.09	60959.25
572.25	60956.91
572.41	60905.42
572.57	60947.55
572.74	61015.43
572.90	60968.61
573.06	60912.44
573.22	60807.12
573.38	60973.30
573.55	60790.73
573.71	61104.37
573.87	60900.74
574.03	61017.77
574.20	60928.83
574.36	60886.70
574.52	60832.86
574.68	60977.98
574.84	60910.10
575.01	60994.36
575.17	60980.32
575.33	60781.37
575.49	60860.95
575.65	61172.24
575.82	61080.96
575.98	61015.43
576.14	61179.26
576.30	61073.94
576.46	60992.02
576.62	60874.99
576.79	60935.85
576.95	60947.55
577.11	61195.65
577.27	61073.94
577.43	61031.81
577.59	61003.72
577.75	60907.76
577.92	60734.56
578.08	61064.58
578.24	61010.74
578.40	61141.81
578.56	61031.81
578.72	61261.18
578.88	61104.37
579.04	61190.97
579.21	61155.86
579.37	61254.16
579.53	61179.26
579.69	60987.34
579.85	61080.96
580.01	61277.57
580.17	61179.26
580.33	61190.97
580.49	61340.76
580.65	61113.73
580.82	60912.44
580.98	61134.79
581.14	60994.36
581.30	61268.20
581.46	61146.50
581.62	61153.52
581.78	61169.90
581.94	61001.38
582.10	61169.90
582.26	61193.31
582.42	61066.92
582.58	61219.05
582.74	61148.84
582.90	61031.81
583.06	61195.65
583.22	61141.81
583.38	61024.79
583.54	61127.77
583.70	61151.18
583.86	61251.82
584.02	61179.26
584.18	61361.82
584.34	61359.48
584.50	61343.10
584.66	61050.53
584.82	61015.43
584.98	61247.14
585.14	61223.73
585.30	61158.20
585.46	61148.84
585.62	61242.46
585.78	61235.44
585.94	61172.24
586.10	61226.07
586.26	61235.44
586.42	61329.06
586.58	61495.24
586.74	61202.67
586.90	61055.21
587.06	61167.56
587.22	61279.91
587.38	61200.33
587.54	61525.66
587.70	61488.21
587.86	61097.34
588.02	61109.05
588.18	61303.31
588.34	61228.41
588.49	61352.46
