SpectraSuite Data File
++++++++++++++++++++++++++++++++++++
Date: Fri Oct 25 10:43:50 EDT 2013
User: price-jones
Dark Spectrum Present: No
Reference Spectrum Present: No
Number of Sampled Component Spectra: 1
Spectrometers: USB2+H05261
Integration Time (usec): 100000 (USB2+H05261)
Spectra Averaged: 1 (USB2+H05261)
Boxcar Smoothing: 0 (USB2+H05261)
Correct for Electrical Dark: No (USB2+H05261)
Strobe/Lamp Enabled: No (USB2+H05261)
Correct for Detector Non-linearity: No (USB2+H05261)
Correct for Stray Light: No (USB2+H05261)
Number of Pixels in Processed Spectrum: 2048
>>>>>Begin Processed Spectral Data<<<<<
365.73	105.32
365.92	105.32
366.12	105.32
366.32	28.09
366.52	18.72
366.72	100.64
366.91	72.56
367.11	32.77
367.31	18.72
367.51	95.96
367.70	32.77
367.90	21.06
368.10	51.49
368.30	58.51
368.49	42.13
368.69	42.13
368.89	0.00
369.09	2.34
369.28	21.06
369.48	98.30
369.68	86.60
369.87	163.84
370.07	30.43
370.27	140.43
370.47	227.03
370.66	348.74
370.86	425.98
371.06	421.30
371.25	456.40
371.45	524.28
371.65	454.06
371.84	449.38
372.04	395.55
372.24	465.77
372.44	465.77
372.63	491.51
372.83	498.53
373.03	407.25
373.22	512.58
373.42	524.28
373.62	557.05
373.81	599.18
374.01	613.22
374.21	587.47
374.40	601.52
374.60	545.34
374.79	589.82
374.99	596.84
375.19	617.90
375.38	573.43
375.58	638.97
375.78	578.11
375.97	709.18
376.17	613.22
376.37	624.92
376.56	575.77
376.76	608.54
376.95	606.20
377.15	643.65
377.35	613.22
377.54	645.99
377.74	627.26
377.93	681.10
378.13	641.31
378.33	697.48
378.52	690.46
378.72	725.57
378.91	734.93
379.11	674.07
379.31	643.65
379.50	615.56
379.70	629.60
379.89	667.05
380.09	617.90
380.28	674.07
380.48	772.38
380.68	685.78
380.87	765.36
381.07	671.73
381.26	746.63
381.46	737.27
381.65	648.33
381.85	657.69
382.04	734.93
382.24	706.84
382.43	709.18
382.63	748.97
382.83	744.29
383.02	725.57
383.22	706.84
383.41	678.76
383.61	720.88
383.80	772.38
384.00	760.67
384.19	830.89
384.39	819.19
384.58	833.23
384.78	830.89
384.97	903.45
385.17	809.83
385.36	751.31
385.56	739.61
385.75	760.67
385.95	849.61
386.14	877.70
386.34	833.23
386.53	870.68
386.72	840.25
386.92	880.04
387.11	866.00
387.31	875.36
387.50	833.23
387.70	826.21
387.89	880.04
388.09	870.68
388.28	847.27
388.48	858.98
388.67	917.49
388.86	814.51
389.06	952.60
389.25	976.00
389.45	816.85
389.64	964.30
389.84	938.55
390.03	1015.79
390.22	933.87
390.42	980.68
390.61	1015.79
390.81	985.37
391.00	1022.81
391.19	1125.80
391.39	952.60
391.58	1111.75
391.78	1062.60
391.97	1036.86
392.16	947.92
392.36	990.05
392.55	997.07
392.75	1067.28
392.94	917.49
393.13	917.49
393.33	966.64
393.52	1055.58
393.71	1093.03
393.91	1156.22
394.10	1043.88
394.29	1104.73
394.49	1186.65
394.68	1273.25
394.88	1249.85
395.07	1291.98
395.26	1263.89
395.46	1221.76
395.65	1219.42
395.84	1252.19
396.04	1313.04
396.23	1245.16
396.42	1212.40
396.62	1207.72
396.81	1200.69
397.00	1214.74
397.19	1231.12
397.39	1359.85
397.58	1343.47
397.77	1320.06
397.97	1383.26
398.16	1390.28
398.35	1495.60
398.55	1551.78
398.74	1458.15
398.93	1502.62
399.12	1458.15
399.32	1514.33
399.51	1446.45
399.70	1467.52
399.90	1544.75
400.09	1476.88
400.28	1563.48
400.47	1652.42
400.67	1685.19
400.86	1619.65
401.05	1682.85
401.24	1659.44
401.44	1825.62
401.63	1818.60
401.82	1685.19
402.01	1652.42
402.21	1724.97
402.40	1827.96
402.59	1858.39
402.78	1767.10
402.97	1771.79
403.17	1790.51
403.36	1825.62
403.55	1820.94
403.74	1886.47
403.93	1785.83
404.13	1816.26
404.32	1783.49
404.51	1842.00
404.70	1942.64
404.89	1886.47
405.09	1872.43
405.28	1977.75
405.47	1973.07
405.66	1963.71
405.85	2045.63
406.05	1851.36
406.24	1980.09
406.43	2062.01
406.62	2125.21
406.81	2069.03
407.00	2064.35
407.20	2033.93
407.39	2087.76
407.58	2195.42
407.77	2139.25
407.96	2097.12
408.15	2263.30
408.34	2115.84
408.54	2183.72
408.73	2260.96
408.92	2321.81
409.11	2326.49
409.30	2193.08
409.49	2307.77
409.68	2326.49
409.87	2436.50
410.07	2307.77
410.26	2284.36
410.45	2272.66
410.64	2492.67
410.83	2590.97
411.02	2497.35
411.21	2485.65
411.40	2562.89
411.59	2712.68
411.78	2677.57
411.98	2612.04
412.17	2637.78
412.36	2576.93
412.55	2731.41
412.74	2665.87
412.93	2546.50
413.12	2663.53
413.31	2935.03
413.50	2843.75
413.69	2827.37
413.88	2881.20
414.07	2998.23
414.26	2988.86
414.45	2913.97
414.64	2995.89
414.83	3038.02
415.02	3016.95
415.22	2972.48
415.41	3122.27
415.60	3094.19
415.79	3152.70
415.98	3194.83
416.17	3211.22
416.36	3279.09
416.55	3262.71
416.74	3339.94
416.93	3143.34
417.12	3412.50
417.31	3302.50
417.50	3253.34
417.69	3510.80
417.88	3433.57
418.07	3431.23
418.26	3330.58
418.45	3473.36
418.64	3527.19
418.83	3534.21
419.02	3623.15
419.21	3625.49
419.39	3550.59
419.58	3569.32
419.77	3536.55
419.96	3548.25
420.15	3660.60
420.34	3632.51
420.53	3691.02
420.72	3845.50
420.91	3716.77
421.10	3737.84
421.29	3943.80
421.48	3868.91
421.67	3815.07
421.86	3775.28
422.05	3901.67
422.24	3833.80
422.43	3801.03
422.61	3817.41
422.80	3824.44
422.99	3777.62
423.18	3859.54
423.37	3948.48
423.56	3824.44
423.75	3658.26
423.94	3962.53
424.13	3550.59
424.32	3817.41
424.50	3911.04
424.69	3918.06
424.88	4016.36
425.07	3915.72
425.26	3859.54
425.45	3808.05
425.64	3854.86
425.83	3906.35
426.01	3953.16
426.20	4016.36
426.39	4037.42
426.58	3969.55
426.77	3974.23
426.96	3899.33
427.15	4109.98
427.33	4037.42
427.52	4039.76
427.71	4049.13
427.90	4098.28
428.09	3985.93
428.28	4133.39
428.46	4107.64
428.65	4215.30
428.84	4070.19
429.03	4290.20
429.22	4126.36
429.40	4147.43
429.59	4142.75
429.78	3845.50
429.97	3950.82
430.16	4079.55
430.34	4084.23
430.53	4074.87
430.72	4273.82
430.91	4255.09
431.10	4395.53
431.28	4407.23
431.47	4578.09
431.66	4517.23
431.85	4566.39
432.03	4629.58
432.22	4690.43
432.41	4517.23
432.60	4697.46
432.79	4713.84
432.97	4816.82
433.16	4711.50
433.35	4739.58
433.54	4692.77
433.72	4690.43
433.91	4627.24
434.10	4699.80
434.28	4699.80
434.47	4821.50
434.66	4807.46
434.85	4880.02
435.03	4901.08
435.22	5032.15
435.41	5100.03
435.59	5109.39
435.78	5036.83
435.97	5191.31
436.16	5060.24
436.34	5067.26
436.53	5036.83
436.72	5303.65
436.90	5139.82
437.09	4975.98
437.28	5231.10
437.46	5188.97
437.65	5137.48
437.84	5123.43
438.02	5203.01
438.21	4994.70
438.40	5118.75
438.58	5345.78
438.77	5514.30
438.96	5331.74
439.14	5486.22
439.33	5490.90
439.52	5554.09
439.70	5692.18
439.89	5631.33
440.08	5645.37
440.26	5809.21
440.45	5746.02
440.63	5841.98
440.82	6022.20
441.01	5867.72
441.19	5961.34
441.38	6153.27
441.57	6061.99
441.75	6078.37
441.94	6193.06
442.12	6289.02
442.31	6436.47
442.50	6284.34
442.68	6239.87
442.87	6387.32
443.05	6370.94
443.24	6380.30
443.43	6406.05
443.61	6431.79
443.80	6579.25
443.98	6581.59
444.17	6265.61
444.35	6370.94
444.54	6733.72
444.73	6476.26
444.91	6356.90
445.10	6492.65
445.28	6431.79
445.47	6473.92
445.65	6338.17
445.84	6560.52
446.02	6523.07
446.21	6602.65
446.39	6502.01
446.58	6731.38
446.77	6574.56
446.95	6658.82
447.14	6672.87
447.32	6637.76
447.51	6654.14
447.69	6579.25
447.88	6841.39
448.06	6743.08
448.25	6670.53
448.43	6761.81
448.62	6679.89
448.80	6787.55
448.99	6867.13
449.17	6707.98
449.36	6733.72
449.54	6958.41
449.73	6832.02
449.91	7136.29
450.10	7166.72
450.28	7098.84
450.46	7215.87
450.65	7178.42
450.83	7089.48
451.02	7222.89
451.20	7276.73
451.39	7269.70
451.57	7187.79
451.76	7255.66
451.94	7248.64
452.13	7140.97
452.31	7199.49
452.49	6956.07
452.68	7281.41
452.86	7143.32
453.05	7396.09
453.23	7375.03
453.42	7253.32
453.60	7227.57
453.78	7290.77
453.97	7452.27
454.15	7445.24
454.34	7304.81
454.52	7428.86
454.70	7646.53
454.89	7482.69
455.07	7569.29
455.26	7653.55
455.44	7845.48
455.62	7716.75
455.81	7775.26
455.99	7730.79
456.17	7962.50
456.36	7906.33
456.54	7997.61
456.73	7941.44
456.91	8173.15
457.09	8215.28
457.28	8231.66
457.46	7826.75
457.64	8149.75
457.83	8147.40
458.01	8142.72
458.19	8102.93
458.38	8079.53
458.56	8173.15
458.74	8297.20
458.93	8315.92
459.11	8468.06
459.29	8276.13
459.48	8234.00
459.66	8238.69
459.84	8388.48
460.03	8519.55
460.21	8435.29
460.39	8526.57
460.57	8372.10
460.76	8332.31
460.94	8826.16
461.12	8507.85
461.31	8606.15
461.49	8479.76
461.67	8706.79
461.85	8901.06
462.04	8891.70
462.22	9064.89
462.40	8905.74
462.59	8868.29
462.77	8819.14
462.95	8912.76
463.13	8809.78
463.32	8798.07
463.50	9156.18
463.68	9001.70
463.86	9249.80
464.05	8978.30
464.23	8877.65
464.41	8950.21
464.59	8755.94
464.78	9191.28
464.96	9114.05
465.14	8968.93
465.32	9390.23
465.50	9308.31
465.69	9043.83
465.87	9123.41
466.05	9146.81
466.23	9001.70
466.41	9231.07
466.60	9343.42
466.78	9153.84
466.96	9090.64
467.14	9247.46
467.32	9191.28
467.51	9394.91
467.69	9177.24
467.87	9331.72
468.05	9451.08
468.23	9266.18
468.41	9329.38
468.60	9525.98
468.78	9563.43
468.96	9502.58
469.14	9593.86
469.32	9734.29
469.50	9694.50
469.69	9671.09
469.87	9898.13
470.05	9851.31
470.23	9734.29
470.41	9820.89
470.59	9905.15
470.77	9825.57
470.95	9900.47
471.14	10132.18
471.32	9996.43
471.50	10193.03
471.68	10303.04
471.86	10284.31
472.04	10448.15
472.22	10523.05
472.40	10120.48
472.58	10326.44
472.77	10209.42
472.95	10656.46
473.13	10782.85
473.31	10513.69
473.49	10682.20
473.67	10530.07
473.85	10724.33
474.03	10956.05
474.21	10871.79
474.39	11016.90
474.57	11052.01
474.75	11260.32
474.93	11094.14
475.12	11105.84
475.30	11129.25
475.48	11052.01
475.66	11288.40
475.84	11260.32
476.02	11506.07
476.20	11456.92
476.38	11632.46
476.56	11946.09
476.74	11632.46
476.92	11808.00
477.10	11868.86
477.28	12184.83
477.46	12018.65
477.64	12233.98
477.82	12276.11
478.00	12730.17
478.18	12526.55
478.36	12435.27
478.54	12748.90
478.72	12652.94
478.90	13092.96
479.08	13069.55
479.26	13081.25
479.44	13387.86
479.62	13329.35
479.80	13174.88
479.98	13476.80
480.16	13778.73
480.34	13619.58
480.52	13797.46
480.70	13823.20
480.88	13617.24
481.06	13881.72
481.24	13998.74
481.41	14312.38
481.59	14272.59
481.77	14389.61
481.95	14197.69
482.13	14272.59
482.31	14834.32
482.49	15066.03
482.67	14637.71
482.85	15115.18
483.03	15351.57
483.21	15161.99
483.39	15431.15
483.57	15307.10
483.74	15454.56
483.92	15454.56
484.10	15293.06
484.28	15917.98
484.46	16205.87
484.64	16308.85
484.82	15999.90
485.00	16191.83
485.18	16250.34
485.35	16299.49
485.53	16287.79
485.71	16196.51
485.89	16451.63
486.07	16613.12
486.25	16711.42
486.43	16774.62
486.61	16891.65
486.78	17132.72
486.96	17088.25
487.14	17671.04
487.32	17818.50
487.50	17886.37
487.68	18017.44
487.85	18246.82
488.03	18347.46
488.21	18689.18
488.39	18661.09
488.57	18740.67
488.75	18778.12
488.92	19145.58
489.10	18930.25
489.28	19316.44
489.46	19538.79
489.64	19515.39
489.81	19791.57
489.99	19946.05
490.17	20175.42
490.35	20149.67
490.53	20365.00
490.70	20610.76
490.88	20360.32
491.06	20847.15
491.24	20725.44
491.41	20472.67
491.59	20882.26
491.77	20695.02
491.95	20706.72
492.13	21261.43
492.30	21537.61
492.48	21750.60
492.66	21497.82
492.84	21809.11
493.01	22125.08
493.19	21965.93
493.37	22225.73
493.54	22506.59
493.72	22745.33
493.90	22717.24
494.08	22707.88
494.25	23178.33
494.43	22948.95
494.61	23667.50
494.79	23302.37
494.96	23543.45
495.14	23335.14
495.32	23831.33
495.49	23625.37
495.67	23953.04
495.85	24079.43
496.02	24175.39
496.20	24465.62
496.38	24467.96
496.55	24189.44
496.73	24968.84
496.91	24730.10
497.09	24875.21
497.26	25060.12
497.44	24961.81
497.62	25127.99
497.79	25010.96
497.97	24751.17
498.14	25535.24
498.32	25465.03
498.50	25495.46
498.67	25778.66
498.85	26033.78
499.03	26216.34
499.20	26396.56
499.38	26302.94
499.56	26230.38
499.73	26422.31
499.91	26478.48
500.08	26602.53
500.26	26843.60
500.44	26426.99
500.61	26696.15
500.79	26684.45
500.97	26593.17
501.14	27042.55
501.32	27075.32
501.49	27047.23
501.67	27016.80
501.84	27346.82
502.02	27438.10
502.20	27285.97
502.37	27821.95
502.55	27522.36
502.72	27740.03
502.90	27861.74
503.07	27768.12
503.25	28002.17
503.43	28088.77
503.60	28133.24
503.78	27873.44
503.95	28451.55
504.13	28615.39
504.30	28484.32
504.48	28709.01
504.65	28898.59
504.83	29219.25
505.01	29123.29
505.18	29244.99
505.36	29062.43
505.53	29432.24
505.71	29230.95
505.88	29804.38
506.06	29289.46
506.23	29867.58
506.41	29413.51
506.58	29890.98
506.76	29689.70
506.93	29956.52
507.11	29975.24
507.28	29841.83
507.46	29876.94
507.63	30003.33
507.81	30345.05
507.98	30342.70
508.16	30417.60
508.33	30436.33
508.50	30766.34
508.68	31028.48
508.85	31349.14
509.03	30913.80
509.20	30848.26
509.38	31044.87
509.55	30916.14
509.73	31089.34
509.90	31494.25
510.08	31283.60
510.25	31337.43
510.42	31424.03
510.60	31503.61
510.77	31571.49
510.95	31899.16
511.12	31749.37
511.30	32273.65
511.47	32245.56
511.64	32236.20
511.82	32823.67
511.99	32067.68
512.17	32594.30
512.34	32236.20
512.51	32355.57
512.69	32517.06
512.86	32793.25
513.04	32992.19
513.21	32713.67
513.38	32816.65
513.56	32758.14
513.73	32643.45
513.90	33237.95
514.08	32975.81
514.25	33144.33
514.43	33125.60
514.60	32926.66
514.77	33766.91
514.95	33844.15
515.12	33078.79
515.29	33596.05
515.47	33771.59
515.64	34270.12
515.81	33956.49
515.99	33752.87
516.16	33666.27
516.33	33722.44
516.51	33675.63
516.68	33078.79
516.85	32914.95
517.03	33345.61
517.20	33984.58
517.37	34127.35
517.54	34244.38
517.72	33982.24
517.89	34000.96
518.06	33944.79
518.24	34263.10
518.41	34494.82
518.58	34314.59
518.75	34607.16
518.93	34878.66
519.10	34614.18
519.27	34707.80
519.45	34981.65
519.62	35475.50
519.79	35199.32
519.96	35512.95
520.14	36205.75
520.31	35234.42
520.48	35257.83
520.65	35541.03
520.83	35524.65
521.00	35585.50
521.17	35641.68
521.34	35454.44
521.52	35992.76
521.69	36086.38
521.86	36126.17
522.03	36271.28
522.20	36238.51
522.38	36107.44
522.55	36622.36
522.72	36723.01
522.89	36517.04
523.07	36816.63
523.24	36376.61
523.41	36811.95
523.58	36577.89
523.75	36978.12
523.92	37111.53
524.10	37216.86
524.27	36989.83
524.44	37422.83
524.61	37298.78
524.78	37291.76
524.96	37317.50
525.13	37500.06
525.30	37315.16
525.47	37467.30
525.64	37577.30
525.81	38136.69
525.98	37504.74
526.16	37179.41
526.33	36971.10
526.50	37715.39
526.67	37106.85
526.84	37481.34
527.01	37565.60
527.18	38005.62
527.36	38019.66
527.53	38213.93
527.70	38447.98
527.87	38499.47
528.04	38047.75
528.21	38476.07
528.38	38576.71
528.55	38660.97
528.72	38955.88
528.89	39016.73
529.07	38621.18
529.24	38419.89
529.41	39054.18
529.58	38682.03
529.75	38918.43
529.92	38916.09
530.09	38794.38
530.26	39100.99
530.43	39126.74
530.60	38754.59
530.77	39119.71
530.94	39416.96
531.11	39234.40
531.28	39393.56
531.46	39461.43
531.63	39072.90
531.80	39463.77
531.97	39498.88
532.14	39452.07
532.31	39126.74
532.48	39597.18
532.65	40128.48
532.82	39613.57
532.99	39723.57
533.16	39625.27
533.33	39428.66
533.50	40528.72
533.67	40062.95
533.84	39988.05
534.01	39580.80
534.18	39847.62
534.35	40671.49
534.52	39611.23
534.69	40364.88
534.86	40069.97
535.03	40533.40
535.20	40678.51
535.37	40722.98
535.54	40772.13
535.71	40456.16
535.88	40727.66
536.05	40545.10
536.22	40453.82
536.38	40435.10
536.55	40832.99
536.72	40463.18
536.89	40392.97
537.06	40311.05
537.23	41270.67
537.40	40671.49
537.57	40884.48
537.74	41216.83
537.91	41060.02
538.08	41221.52
538.25	40971.08
538.42	41006.19
538.59	41324.50
538.75	41017.89
538.92	41261.30
539.09	41488.34
539.26	41507.06
539.43	41141.94
539.60	40891.50
539.77	41368.97
539.94	41258.96
540.11	41095.13
540.28	41287.05
540.44	41263.64
540.61	41872.18
540.78	41221.52
540.95	40975.76
541.12	41713.03
541.29	41776.22
541.46	41766.86
541.62	41799.63
541.79	42174.11
541.96	41535.15
542.13	42218.58
542.30	41750.48
542.47	41846.44
542.63	42005.59
542.80	41970.49
542.97	42391.78
543.14	42340.29
543.31	42370.72
543.48	42557.96
543.64	42836.48
543.81	42899.68
543.98	42834.14
544.15	42810.74
544.32	43140.75
544.48	42831.80
544.65	42686.69
544.82	42733.50
544.99	42642.22
545.16	42885.64
545.32	42869.25
545.49	43079.90
545.66	43110.33
545.83	43253.10
546.00	43601.84
546.16	43421.62
546.33	43166.50
546.50	43182.88
546.67	43084.58
546.83	42689.03
547.00	43335.02
547.17	43189.91
547.34	43110.33
547.50	42754.57
547.67	43274.16
547.84	43526.94
548.00	43632.27
548.17	43704.82
548.34	43309.27
548.51	43969.30
548.67	43999.73
548.84	43831.21
549.01	43709.50
549.18	43688.44
549.34	43749.29
549.51	43529.28
549.68	43889.73
549.84	43587.80
550.01	43957.60
550.18	43819.51
550.34	43686.10
550.51	43901.43
550.68	43686.10
550.84	43643.97
551.01	44245.49
551.18	44009.09
551.34	44037.18
551.51	44582.52
551.68	44360.17
551.84	44418.69
552.01	44205.70
552.18	44067.61
552.34	43931.86
552.51	44172.93
552.68	44332.09
552.84	44790.83
553.01	44439.75
553.18	44039.52
553.34	44383.58
553.51	44137.82
553.67	44170.59
553.84	44222.08
554.01	44837.64
554.17	45127.87
554.34	45310.43
554.51	44182.29
554.67	45092.76
554.84	44453.79
555.00	44748.70
555.17	44526.35
555.33	44741.68
555.50	44884.45
555.67	44690.19
555.83	44811.90
556.00	44617.63
556.16	45179.36
556.33	44884.45
556.50	45048.29
556.66	44673.81
556.83	44561.46
556.99	45177.02
557.16	45048.29
557.32	45022.54
557.49	45324.47
557.65	44456.14
557.82	45242.56
557.98	45074.04
558.15	44987.44
558.32	45572.57
558.48	44634.02
558.65	44809.56
558.81	44589.55
558.98	44804.88
559.14	44924.24
559.31	45275.32
559.47	45530.44
559.64	45265.96
559.80	45485.97
559.97	45464.91
560.13	45141.91
560.30	44828.28
560.46	44994.46
560.63	45359.58
560.79	45757.47
560.96	45272.98
561.12	45162.98
561.29	45167.66
561.45	45460.23
561.61	45317.45
561.78	44868.07
561.94	45373.63
562.11	45146.59
562.27	45336.18
562.44	45441.50
562.60	45488.31
562.77	45563.21
562.93	45380.65
563.10	45581.93
563.26	45144.25
563.42	45371.28
563.59	45535.12
563.75	45532.78
563.92	45703.64
564.08	45560.87
564.24	45862.80
564.41	45600.66
564.57	45446.18
564.74	45577.25
564.90	45720.02
565.07	45619.38
565.23	45708.32
565.39	45450.86
565.56	45631.08
565.72	45277.66
565.88	45485.97
566.05	45560.87
566.21	45406.39
566.38	45722.37
566.54	45713.00
566.70	45996.21
566.87	46150.68
567.03	45710.66
567.19	46106.21
567.36	46480.70
567.52	45633.42
567.68	45984.51
567.85	45488.31
568.01	45638.11
568.17	45595.98
568.34	45958.76
568.50	45750.45
568.66	46237.28
568.83	45624.06
568.99	45221.49
569.15	45918.97
569.32	45340.86
569.48	45656.83
569.64	46127.28
569.81	45947.06
569.97	45975.14
570.13	45900.25
570.30	45560.87
570.46	45743.43
570.62	45626.40
570.78	45347.88
570.95	45792.58
571.11	46043.02
571.27	45755.13
571.43	45755.13
571.60	45961.10
571.76	45869.82
571.92	46096.85
572.09	45689.60
572.25	45743.43
572.41	46213.88
572.57	45839.39
572.74	45954.08
572.90	46663.26
573.06	45942.38
573.22	46342.61
573.38	45844.07
573.55	46263.03
573.71	46382.40
573.87	46131.96
574.03	46003.23
574.20	46174.09
574.36	45715.34
574.52	46192.81
574.68	46110.89
574.84	46108.55
575.01	45392.35
575.17	46199.83
575.33	46031.32
575.49	45595.98
575.65	45940.04
575.82	46096.85
575.98	45771.52
576.14	46309.84
576.30	46265.37
576.46	45991.53
576.62	46192.81
576.79	45841.73
576.95	45837.05
577.11	46291.12
577.27	46230.26
577.43	45778.54
577.59	45949.40
577.75	45888.54
577.92	45558.53
578.08	45504.70
578.24	45563.21
578.40	45605.34
578.56	46054.72
578.72	45825.35
578.88	46178.77
579.04	46337.93
579.21	45792.58
579.37	45984.51
579.53	45815.99
579.69	45818.33
579.85	45883.86
580.01	46155.36
580.17	45778.54
580.33	46436.23
580.49	45933.01
580.65	45925.99
580.82	46340.27
580.98	46131.96
581.14	45574.91
581.30	46391.76
581.46	46129.62
581.62	46689.01
581.78	45951.74
581.94	46412.82
582.10	46206.86
582.26	46321.54
582.42	46347.29
582.58	46244.30
582.74	46419.84
582.90	46218.56
583.06	46504.10
583.22	46328.56
583.38	46499.42
583.54	46539.21
583.70	46401.12
583.86	46312.18
584.02	45872.16
584.18	46085.15
584.34	46471.34
584.50	46323.88
584.66	45684.92
584.82	45834.71
584.98	46197.49
585.14	46216.22
585.30	45701.30
585.46	45813.65
585.62	46094.51
585.78	45888.54
585.94	45790.24
586.10	45918.97
586.26	45815.99
586.42	46387.08
586.58	46506.44
586.74	46604.75
586.90	46050.04
587.06	46080.47
587.22	46621.13
587.38	46330.90
587.54	45895.56
587.70	46225.58
587.86	46731.14
588.02	46010.25
588.18	46649.22
588.34	46349.63
588.49	45811.31
588.65	45542.14
588.81	45914.29
588.97	45815.99
589.13	45633.42
589.29	45970.46
589.45	45785.56
589.61	46309.84
589.77	46387.08
589.93	46218.56
590.08	46188.13
