SpectraSuite Data File
++++++++++++++++++++++++++++++++++++
Date: Fri Oct 25 11:34:40 EDT 2013
User: price-jones
Dark Spectrum Present: No
Reference Spectrum Present: No
Number of Sampled Component Spectra: 1
Spectrometers: USB2+H05261
Integration Time (usec): 100000 (USB2+H05261)
Spectra Averaged: 1 (USB2+H05261)
Boxcar Smoothing: 0 (USB2+H05261)
Correct for Electrical Dark: No (USB2+H05261)
Strobe/Lamp Enabled: No (USB2+H05261)
Correct for Detector Non-linearity: No (USB2+H05261)
Correct for Stray Light: No (USB2+H05261)
Number of Pixels in Processed Spectrum: 2048
>>>>>Begin Processed Spectral Data<<<<<
365.73	259.80
365.92	259.80
366.12	259.80
366.32	154.48
366.52	121.71
366.72	170.86
366.91	205.97
367.11	131.07
367.31	142.77
367.51	210.65
367.70	133.41
367.90	149.79
368.10	203.63
368.30	205.97
368.49	208.31
368.69	236.39
368.89	266.82
369.09	306.61
369.28	177.88
369.48	227.03
369.68	217.67
369.87	210.65
370.07	217.67
370.27	212.99
370.47	285.55
370.66	465.77
370.86	531.30
371.06	498.53
371.25	545.34
371.45	486.83
371.65	573.43
371.84	554.71
372.04	533.64
372.24	465.77
372.44	653.01
372.63	545.34
372.83	620.24
373.03	587.47
373.22	578.11
373.42	589.82
373.62	627.26
373.81	589.82
374.01	641.31
374.21	641.31
374.40	620.24
374.60	638.97
374.79	606.20
374.99	662.37
375.19	662.37
375.38	723.23
375.58	622.58
375.78	631.94
375.97	723.23
376.17	697.48
376.37	660.03
376.56	706.84
376.76	650.67
376.95	674.07
377.15	669.39
377.35	669.39
377.54	645.99
377.74	655.35
377.93	695.14
378.13	702.16
378.33	681.10
378.52	713.86
378.72	711.52
378.91	655.35
379.11	734.93
379.31	739.61
379.50	711.52
379.70	699.82
379.89	767.70
380.09	678.76
380.28	758.33
380.48	748.97
380.68	669.39
380.87	711.52
381.07	723.23
381.26	751.31
381.46	683.44
381.65	784.08
381.85	713.86
382.04	784.08
382.24	798.12
382.43	706.84
382.63	732.59
382.83	765.36
383.02	739.61
383.22	744.29
383.41	770.04
383.61	779.40
383.80	807.48
384.00	765.36
384.19	774.72
384.39	863.66
384.58	774.72
384.78	814.51
384.97	837.91
385.17	814.51
385.36	777.06
385.56	833.23
385.75	795.78
385.95	863.66
386.14	933.87
386.34	856.64
386.53	931.53
386.72	772.38
386.92	847.27
387.11	842.59
387.31	908.13
387.50	870.68
387.70	800.46
387.89	870.68
388.09	863.66
388.28	903.45
388.48	835.57
388.67	908.13
388.86	950.26
389.06	849.61
389.25	873.02
389.45	908.13
389.64	952.60
389.84	980.68
390.03	983.02
390.22	894.08
390.42	917.49
390.61	894.08
390.81	950.26
391.00	1050.90
391.19	992.39
391.39	1008.77
391.58	905.79
391.78	1062.60
391.97	1048.56
392.16	971.32
392.36	992.39
392.55	1027.50
392.75	945.58
392.94	959.62
393.13	1046.22
393.33	1111.75
393.52	1090.69
393.71	980.68
393.91	924.51
394.10	1022.81
394.29	1095.37
394.49	1029.84
394.68	1149.20
394.88	1053.24
395.07	1067.28
395.26	1095.37
395.46	1050.90
395.65	1174.95
395.84	1053.24
396.04	1245.16
396.23	1156.22
396.42	1174.95
396.62	1196.01
396.81	1149.20
397.00	1118.78
397.19	1174.95
397.39	1228.78
397.58	1210.06
397.77	1291.98
397.97	1181.97
398.16	1284.95
398.35	1301.34
398.55	1240.48
398.74	1226.44
398.93	1334.11
399.12	1240.48
399.32	1254.53
399.51	1160.91
399.70	1329.42
399.90	1259.21
400.09	1275.59
400.28	1345.81
400.47	1376.24
400.67	1373.89
400.86	1390.28
401.05	1261.55
401.24	1334.11
401.44	1327.08
401.63	1413.68
401.82	1376.24
402.01	1406.66
402.21	1383.26
402.40	1413.68
402.59	1453.47
402.78	1472.20
402.97	1465.18
403.17	1563.48
403.36	1390.28
403.55	1533.05
403.74	1490.92
403.93	1479.22
404.13	1586.88
404.32	1460.49
404.51	1479.22
404.70	1598.59
404.89	1500.28
405.09	1586.88
405.28	1500.28
405.47	1556.46
405.66	1614.97
405.85	1586.88
406.05	1657.10
406.24	1605.61
406.43	1668.80
406.62	1732.00
406.81	1739.02
407.00	1746.04
407.20	1706.25
407.39	1767.10
407.58	1659.44
407.77	1708.59
407.96	1762.42
408.15	1844.34
408.34	1802.21
408.54	1799.87
408.73	1703.91
408.92	2003.50
409.11	1968.39
409.30	1881.79
409.49	1863.07
409.68	1989.46
409.87	1930.94
410.07	1926.26
410.26	1921.58
410.45	1930.94
410.64	1912.22
410.83	1954.35
411.02	2054.99
411.21	2040.95
411.40	2064.35
411.59	2054.99
411.78	2080.74
411.98	2094.78
412.17	2099.46
412.36	2200.10
412.55	2179.04
412.74	2214.15
412.93	2239.89
413.12	2218.83
413.31	2277.34
413.50	2284.36
413.69	2321.81
413.88	2406.07
414.07	2377.98
414.26	2380.32
414.45	2354.58
414.64	2473.95
414.83	2431.82
415.02	2469.27
415.22	2455.22
415.41	2583.95
415.60	2495.01
415.79	2462.24
415.98	2644.81
416.17	2537.14
416.36	2626.08
416.55	2630.76
416.74	2696.30
416.93	2642.46
417.12	2649.49
417.31	2789.92
417.50	2705.66
417.69	2850.77
417.88	2780.56
418.07	2750.13
418.26	2827.37
418.45	2818.00
418.64	2885.88
418.83	2944.39
419.02	2862.48
419.21	2998.23
419.39	2972.48
419.58	2897.58
419.77	2991.20
419.96	2967.80
420.15	3098.87
420.34	2963.12
420.53	2986.52
420.72	3035.67
420.91	2974.82
421.10	3110.57
421.29	3059.08
421.48	2981.84
421.67	3021.63
421.86	3131.64
422.05	3061.42
422.24	3042.70
422.43	3145.68
422.61	3208.87
422.80	3119.93
422.99	3145.68
423.18	3141.00
423.37	3159.72
423.56	3227.60
423.75	3197.17
423.94	3192.49
424.13	3096.53
424.32	3227.60
424.50	3148.02
424.69	3295.47
424.88	3463.99
425.07	3391.44
425.26	3049.72
425.45	3211.22
425.64	3211.22
425.83	3215.90
426.01	3318.88
426.20	3239.30
426.39	3351.65
426.58	3269.73
426.77	3255.69
426.96	3407.82
427.15	3384.41
427.33	3368.03
427.52	3496.76
427.71	3503.78
427.90	3396.12
428.09	3522.51
428.28	3590.38
428.46	3527.19
428.65	3569.32
428.84	3592.72
429.03	3662.94
429.22	3527.19
429.40	3487.40
429.59	3506.12
429.78	3496.76
429.97	3473.36
430.16	3618.47
430.34	3583.36
430.53	3592.72
430.72	3658.26
430.91	3632.51
431.10	3651.24
431.28	3772.94
431.47	3815.07
431.66	3878.27
431.85	3676.98
432.03	3899.33
432.22	3749.54
432.41	3960.19
432.60	3911.04
432.79	3812.73
432.97	3819.75
433.16	3695.71
433.35	3826.78
433.54	3969.55
433.72	4004.66
433.91	4018.70
434.10	3925.08
434.28	3901.67
434.47	4084.23
434.66	4093.60
434.85	4039.76
435.03	4126.36
435.22	4175.52
435.41	4215.30
435.59	4131.05
435.78	4318.29
435.97	4121.68
436.16	4241.05
436.34	4224.67
436.53	4210.62
436.72	4222.33
436.90	4266.80
437.09	4227.01
437.28	4313.61
437.46	4329.99
437.65	4339.35
437.84	4367.44
438.02	4231.69
438.21	4458.72
438.40	4381.48
438.58	4461.06
438.77	4660.01
438.96	4557.02
439.14	4662.35
439.33	4603.83
439.52	4641.28
439.70	4683.41
439.89	4711.50
440.08	4702.14
440.26	4610.86
440.45	4702.14
440.63	4980.66
440.82	4910.44
441.01	4828.53
441.19	5001.72
441.38	5067.26
441.57	4966.62
441.75	5015.77
441.94	5144.50
442.12	4999.38
442.31	5069.60
442.50	5043.85
442.68	5172.58
442.87	5214.71
443.05	5219.39
443.24	5233.44
443.43	5158.54
443.61	5177.26
443.80	5345.78
443.98	5041.51
444.17	5210.03
444.35	5322.38
444.54	5481.53
444.73	5221.74
444.91	5200.67
445.10	5270.89
445.28	5348.12
445.47	5266.21
445.65	5383.23
445.84	5556.43
446.02	5441.75
446.21	5275.57
446.39	5357.49
446.58	5369.19
446.77	5617.29
446.95	5289.61
447.14	5350.46
447.32	5371.53
447.51	5472.17
447.69	5430.04
447.88	5430.04
448.06	5680.48
448.25	5535.37
448.43	5633.67
448.62	5364.51
448.80	5526.00
448.99	5502.60
449.17	5507.28
449.36	5298.97
449.54	5614.95
449.73	5678.14
449.91	5561.11
450.10	5720.27
450.28	5778.78
450.46	5797.51
450.65	5776.44
450.83	5870.06
451.02	5816.23
451.20	5750.70
451.39	6008.16
451.57	5954.32
451.76	5717.93
451.94	6026.88
452.13	5984.75
452.31	5973.05
452.49	5933.26
452.68	5987.09
452.86	5991.77
453.05	6029.22
453.23	5991.77
453.42	5989.43
453.60	5921.56
453.78	6094.76
453.97	5994.11
454.15	6134.54
454.34	6087.73
454.52	6003.47
454.70	6286.68
454.89	6253.91
455.07	6289.02
455.26	6328.81
455.44	6305.40
455.62	6195.40
455.81	6321.79
455.99	6377.96
456.17	6345.19
456.36	6595.63
456.54	6485.62
456.73	6450.52
456.91	6665.85
457.09	6672.87
457.28	6623.72
457.46	6609.67
457.64	6520.73
457.83	6682.23
458.01	6691.59
458.19	6820.32
458.38	6832.02
458.56	6717.34
458.74	6792.23
458.93	6965.43
459.11	6946.71
459.29	6661.16
459.48	6913.94
459.66	6927.99
459.84	6988.84
460.03	7173.74
460.21	6977.14
460.39	7054.37
460.57	7176.08
460.76	7155.02
460.94	7023.95
461.12	6981.82
461.31	7199.49
461.49	7133.95
461.67	7166.72
461.85	7267.36
462.04	7283.75
462.22	7625.47
462.40	7426.52
462.59	7206.51
462.77	7283.75
462.95	7407.80
463.13	7400.77
463.32	7332.90
463.50	7417.16
463.68	7583.34
463.86	7431.20
464.05	7569.29
464.23	7368.01
464.41	7552.91
464.59	7332.90
464.78	7726.11
464.96	7639.51
465.14	7531.84
465.32	7716.75
465.50	7707.38
465.69	7810.37
465.87	7625.47
466.05	7658.23
466.23	7660.57
466.41	7822.07
466.60	7763.56
466.78	7775.26
466.96	7698.02
467.14	7754.19
467.32	7974.21
467.51	7859.52
467.69	7602.06
467.87	7964.84
468.05	7896.97
468.23	7896.97
468.41	7929.74
468.60	7899.31
468.78	8028.04
468.96	8063.15
469.14	8065.49
469.32	8152.09
469.50	8025.70
469.69	8250.39
469.87	8397.84
470.05	8234.00
470.23	8311.24
470.41	8060.80
470.59	8372.10
470.77	8372.10
470.95	8423.59
471.14	8465.72
471.32	8390.82
471.50	8369.76
471.68	8505.51
471.86	8620.19
472.04	8617.85
472.22	8800.41
472.40	8608.49
472.58	8767.65
472.77	8674.03
472.95	8887.01
473.13	9088.30
473.31	8830.84
473.49	8924.46
473.67	8837.86
473.85	8933.82
474.03	9376.19
474.21	9125.75
474.39	9254.48
474.57	9188.94
474.75	9390.23
474.93	9404.27
475.12	9446.40
475.30	9397.25
475.48	9312.99
475.66	9486.19
475.84	9469.81
476.02	9598.54
476.20	9617.26
476.38	9762.37
476.56	10073.67
476.74	9984.73
476.92	9888.76
477.10	10024.51
477.28	10139.20
477.46	10066.64
477.64	10059.62
477.82	10193.03
478.00	10256.23
478.18	10530.07
478.36	10499.64
478.54	10614.33
478.72	10796.89
478.90	10897.53
479.08	10768.80
479.26	11068.39
479.44	11126.91
479.62	11002.86
479.80	11372.66
479.98	11246.27
480.16	11506.07
480.34	11382.03
480.52	11452.24
480.70	11473.31
480.88	11674.59
481.06	11700.34
481.24	11730.76
481.41	11880.56
481.59	11676.93
481.77	12133.34
481.95	12285.47
482.13	12329.94
482.31	12149.72
482.49	12486.76
482.67	12287.81
482.85	12718.47
483.03	12772.30
483.21	12776.98
483.39	13090.62
483.57	13088.28
483.74	13102.32
483.92	13146.79
484.10	13039.12
484.28	13371.48
484.46	13720.22
484.64	14038.53
484.82	13926.19
485.00	13657.03
485.18	14129.81
485.35	14270.25
485.53	14127.47
485.71	14003.43
485.89	14623.67
486.07	14312.38
486.25	14438.76
486.43	14586.22
486.61	15070.71
486.78	14871.76
486.96	15159.65
487.14	15169.01
487.32	15358.60
487.50	15440.51
487.68	15456.90
487.85	15683.93
488.03	15840.75
488.21	16093.52
488.39	15845.43
488.57	15950.75
488.75	15976.50
488.92	16049.05
489.10	16432.90
489.28	16552.27
489.46	16807.39
489.64	16837.81
489.81	17207.62
489.99	17245.07
490.17	17315.28
490.35	17385.50
490.53	17556.36
490.70	17593.81
490.88	17561.04
491.06	17699.13
491.24	17914.46
491.41	18022.12
491.59	18523.00
491.77	18038.51
491.95	17996.38
492.13	18291.29
492.30	18721.95
492.48	18838.97
492.66	18668.11
492.84	18810.89
493.01	19243.88
493.19	18902.17
493.37	19241.54
493.54	19012.17
493.72	19417.08
493.90	19637.09
494.08	19646.46
494.25	19924.98
494.43	19836.04
494.61	19885.19
494.79	19990.52
494.96	20074.77
495.14	20460.96
495.32	20402.45
495.49	20367.34
495.67	20402.45
495.85	20545.22
496.02	20762.89
496.20	20910.35
496.38	21326.96
496.55	21181.85
496.73	21453.35
496.91	21294.19
497.09	21546.97
497.26	21558.67
497.44	21617.19
497.62	21919.12
497.79	21977.63
497.97	21872.31
498.14	21996.35
498.32	22228.07
498.50	22551.06
498.67	22597.87
498.85	22513.61
499.03	22691.49
499.20	22845.97
499.38	22560.42
499.56	22946.61
499.73	23019.17
499.91	23218.11
500.08	23494.30
500.26	23065.98
500.44	23410.04
500.61	23365.57
500.79	23543.45
500.97	23608.98
501.14	23887.51
501.32	24039.64
501.49	23974.11
501.67	23672.18
501.84	24264.33
502.02	24156.67
502.20	23941.34
502.37	24306.46
502.55	24233.91
502.72	24393.06
502.90	24470.30
503.07	24442.21
503.25	24936.07
503.43	24671.59
503.60	24830.74
503.78	25076.50
503.95	24671.59
504.13	25275.45
504.30	24919.68
504.48	25167.78
504.65	25139.69
504.83	25511.84
505.01	25509.50
505.18	25692.06
505.36	25923.77
505.53	25668.66
505.71	26019.74
505.88	25954.20
506.06	25795.04
506.23	26089.95
506.41	25977.61
506.58	26162.51
506.76	26300.60
506.93	26684.45
507.11	26157.83
507.28	26654.02
507.46	26738.28
507.63	26394.22
507.81	26977.01
507.98	26412.95
508.16	26717.22
508.33	27087.02
508.50	27227.45
508.68	27220.43
508.85	27431.08
509.03	27255.54
509.20	27274.26
509.38	27590.24
509.55	27711.94
509.73	27468.53
509.90	27630.02
510.08	27662.79
510.25	27625.34
510.42	27735.35
510.60	28098.13
510.77	28470.28
510.95	28599.01
511.12	28147.28
511.30	28229.20
511.47	28397.72
511.64	27990.47
511.82	28514.75
511.99	28753.48
512.17	29029.66
512.34	28655.18
512.51	28849.44
512.69	29153.71
512.86	29003.92
513.04	29387.77
513.21	29212.23
513.38	29284.78
513.56	29598.41
513.73	29132.65
513.90	29282.44
514.08	29366.70
514.25	29729.48
514.43	29436.92
514.60	29589.05
514.77	29687.36
514.95	29865.24
515.12	29757.57
515.29	30120.35
515.47	30178.87
515.64	30015.03
515.81	30045.46
515.99	30724.21
516.16	30778.04
516.33	30567.40
516.51	30471.43
516.68	30267.81
516.85	30459.73
517.03	30508.88
517.20	30698.47
517.37	30991.03
517.54	30906.77
517.72	30927.84
517.89	30923.16
518.06	31314.03
518.24	31204.02
518.41	30848.26
518.58	31264.88
518.75	31325.73
518.93	31218.07
519.10	30902.09
519.27	31737.66
519.45	31541.06
519.62	31768.09
519.79	31805.54
519.96	31503.61
520.14	31948.31
520.31	32006.83
520.48	31936.61
520.65	32158.96
520.83	32762.82
521.00	32084.06
521.17	32491.32
521.34	32458.55
521.52	32409.40
521.69	32566.21
521.86	32767.50
522.03	32793.25
522.20	32776.86
522.38	33141.99
522.55	33031.98
522.72	33160.71
522.89	32964.10
523.07	33413.49
523.24	33366.68
523.41	33333.91
523.58	33137.30
523.75	33993.94
523.92	33439.23
524.10	33542.22
524.27	33633.50
524.44	33869.89
524.61	34019.69
524.78	33851.17
524.96	34183.52
525.13	34094.58
525.30	34415.24
525.47	34464.39
525.64	33809.04
525.81	34230.33
525.98	34532.26
526.16	34237.36
526.33	34141.39
526.50	34522.90
526.67	34483.11
526.84	34408.22
527.01	34394.17
527.18	34831.85
527.36	34389.49
527.53	34869.30
527.70	35175.91
527.87	34923.13
528.04	34682.06
528.21	34682.06
528.38	34583.76
528.55	35370.18
528.72	35180.59
528.89	35346.77
529.07	35192.30
529.24	34635.25
529.41	35257.83
529.58	35199.32
529.75	35730.62
529.92	35625.29
530.09	35852.33
530.26	35466.14
530.43	36060.63
530.60	35550.40
530.77	35246.13
530.94	35536.35
531.11	35463.80
531.28	35817.22
531.46	35749.34
531.63	36053.61
531.80	35761.05
531.97	36182.34
532.14	36147.23
532.31	36133.19
532.48	36577.89
532.65	36385.97
532.82	36715.98
532.99	36657.47
533.16	36161.28
533.33	36500.65
533.50	36584.91
533.67	36669.17
533.84	36395.33
534.01	36711.30
534.18	36596.62
534.35	36985.15
534.52	37165.37
534.69	36652.79
534.86	37074.09
535.03	36917.27
535.20	36943.02
535.37	37064.72
535.54	37448.57
535.71	37041.32
535.88	37038.98
536.05	37563.26
536.22	37167.71
536.38	37354.95
536.55	37153.66
536.72	37474.32
536.89	37387.72
537.06	37476.66
537.23	38061.79
537.40	37488.36
537.57	37589.00
537.74	37652.20
537.91	38415.21
538.08	37724.75
538.25	37991.58
538.42	38218.61
538.59	38281.80
538.75	37677.94
538.92	38274.78
539.09	38387.13
539.26	37865.19
539.43	38197.54
539.60	37371.33
539.77	38155.41
539.94	38981.62
540.11	38476.07
540.28	38639.90
540.44	38270.10
540.61	38525.22
540.78	38267.76
540.95	38464.36
541.12	38436.28
541.29	38218.61
541.46	38649.27
541.62	38763.95
541.79	38850.55
541.96	38384.79
542.13	38878.64
542.30	38941.83
542.47	39110.35
542.63	38476.07
542.80	39009.71
542.97	39215.68
543.14	39775.06
543.31	39440.37
543.48	39309.30
543.64	40339.13
543.81	39489.52
543.98	39629.95
544.15	39948.26
544.32	39959.97
544.48	40325.09
544.65	39679.10
544.82	39814.85
544.99	39793.79
545.16	39990.39
545.32	39910.82
545.49	40334.45
545.66	39931.88
545.83	40308.71
546.00	40414.03
546.16	40133.17
546.33	40371.90
546.50	39721.23
546.67	40622.34
546.83	40055.93
547.00	40423.39
547.17	40488.93
547.34	40446.80
547.50	40224.45
547.67	40809.58
547.84	40360.20
548.00	40552.12
548.17	40889.16
548.34	40673.83
548.51	40612.98
548.67	40971.08
548.84	40694.89
549.01	40624.68
549.18	40788.52
549.34	41338.54
549.51	41090.44
549.68	41191.09
549.84	41020.23
550.01	41591.32
550.18	41207.47
550.34	41228.54
550.51	41207.47
550.68	41394.71
550.84	40519.35
551.01	41902.61
551.18	41212.15
551.34	41558.55
551.51	41191.09
551.68	41170.02
551.84	41610.04
552.01	41230.88
552.18	41532.81
552.34	40968.74
552.51	41347.90
552.68	41380.67
552.84	41516.42
553.01	42089.85
553.18	41584.30
553.34	41968.15
553.51	41457.91
553.67	42092.19
553.84	42150.71
554.01	41808.99
554.17	42227.95
554.34	42328.59
554.51	41860.48
554.67	42181.13
554.84	42068.79
555.00	42197.52
555.17	41668.56
555.33	42127.30
555.50	42033.68
555.67	42639.88
555.83	42445.62
556.00	42497.11
556.16	42932.45
556.33	42211.56
556.50	42403.49
556.66	42621.16
556.83	42066.45
556.99	42742.86
557.16	42717.12
557.32	42920.74
557.49	42731.16
557.65	42955.85
557.82	42377.74
557.98	42871.59
558.15	42557.96
558.32	42918.40
558.48	42691.37
558.65	42834.14
558.81	42794.36
558.98	42686.69
559.14	42700.73
559.31	42810.74
559.47	42799.04
559.64	42691.37
559.80	42925.42
559.97	42880.95
560.13	42759.25
560.30	42679.67
560.46	43154.80
560.63	43026.07
560.79	42969.90
560.96	42883.30
561.12	43428.64
561.29	43477.79
561.45	43105.65
561.61	42932.45
561.78	43159.48
561.94	42979.26
562.11	43295.23
562.27	43182.88
562.44	43035.43
562.60	43512.90
562.77	43363.11
562.93	43161.82
563.10	43721.21
563.26	43250.76
563.42	43721.21
563.59	43398.21
563.75	43335.02
563.92	43585.46
564.08	43896.75
564.24	43477.79
564.41	43402.89
564.57	43526.94
564.74	43615.88
564.90	43576.09
565.07	43388.85
565.23	43510.56
565.39	43222.67
565.56	43966.96
565.72	43358.42
565.88	43590.14
566.05	43578.43
566.21	43880.36
566.38	43959.94
566.54	43868.66
566.70	43856.96
566.87	43707.16
567.03	43658.01
567.19	44474.86
567.36	44109.74
567.52	43793.76
567.68	43875.68
567.85	43908.45
568.01	44346.13
568.17	43959.94
568.34	44144.84
568.50	44266.55
568.66	43847.60
568.83	43988.03
568.99	43592.48
569.15	43688.44
569.32	43803.13
569.48	44107.40
569.64	44289.96
569.81	44219.74
569.97	43988.03
570.13	44259.53
570.30	43632.27
570.46	44231.44
570.62	44409.32
570.78	43878.02
570.95	44287.62
571.11	44406.98
571.27	43765.68
571.43	44626.99
571.60	44336.77
571.76	44074.63
571.92	43969.30
572.09	43817.17
572.25	43737.59
572.41	44018.46
572.57	43920.15
572.74	44526.35
572.90	44023.14
573.06	44306.34
573.22	44257.19
573.38	44147.18
573.55	44725.30
573.71	45050.63
573.87	44325.07
574.03	44289.96
574.20	44680.83
574.36	43929.51
574.52	44208.04
574.68	44318.04
574.84	44847.00
575.01	44601.25
575.17	44886.79
575.33	44491.24
575.49	44596.57
575.65	44325.07
575.82	44573.16
575.98	44514.65
576.14	44863.39
576.30	44596.57
576.46	44509.97
576.62	44168.25
576.79	44629.34
576.95	44282.94
577.11	44395.28
577.27	44666.78
577.43	44374.22
577.59	44804.88
577.75	43934.20
577.92	44205.70
578.08	44484.22
578.24	44755.72
578.40	44999.14
578.56	44704.23
578.72	44879.77
578.88	44460.82
579.04	44428.05
579.21	44823.60
579.37	44971.05
579.53	44694.87
579.69	44648.06
579.85	44446.77
580.01	45221.49
580.17	44320.38
580.33	44722.96
580.49	44671.46
580.65	44720.62
580.82	44215.06
580.98	44357.83
581.14	44444.43
581.30	44549.76
581.46	44687.85
581.62	44308.68
581.78	44392.94
581.94	44694.87
582.10	44891.48
582.26	44655.08
582.42	44882.11
582.58	44896.16
582.74	45020.20
582.90	44449.11
583.06	44774.45
583.22	44524.01
583.38	44636.36
583.54	45226.17
583.70	44935.95
583.86	45127.87
584.02	44315.70
584.18	45247.24
584.34	44861.05
584.50	45221.49
584.66	44949.99
584.82	44767.43
584.98	45050.63
585.14	44999.14
585.30	44568.48
585.46	45043.61
585.62	44706.57
585.78	45181.70
585.94	44879.77
586.10	45057.65
586.26	44554.44
586.42	44683.17
586.58	45085.74
586.74	44617.63
586.90	44912.54
587.06	44666.78
587.22	45130.21
587.38	44713.59
587.54	44900.84
587.70	45247.24
587.86	45282.34
588.02	44830.62
588.18	45184.04
588.34	44989.78
588.49	45181.70
588.65	45090.42
588.81	45045.95
588.97	45010.84
589.13	44924.24
589.29	45233.19
589.45	45022.54
589.61	45041.27
589.77	45247.24
589.93	45427.46
590.08	45057.65
