SpectraSuite Data File
++++++++++++++++++++++++++++++++++++
Date: Fri Oct 25 11:25:26 EDT 2013
User: price-jones
Dark Spectrum Present: No
Reference Spectrum Present: No
Number of Sampled Component Spectra: 1
Spectrometers: USB2+H05261
Integration Time (usec): 100000 (USB2+H05261)
Spectra Averaged: 1 (USB2+H05261)
Boxcar Smoothing: 0 (USB2+H05261)
Correct for Electrical Dark: No (USB2+H05261)
Strobe/Lamp Enabled: No (USB2+H05261)
Correct for Detector Non-linearity: No (USB2+H05261)
Correct for Stray Light: No (USB2+H05261)
Number of Pixels in Processed Spectrum: 2048
>>>>>Begin Processed Spectral Data<<<<<
365.73	222.35
365.92	222.35
366.12	222.35
366.32	154.48
366.52	131.07
366.72	182.56
366.91	184.90
367.11	159.16
367.31	100.64
367.51	98.30
367.70	163.84
367.90	65.54
368.10	145.11
368.30	168.52
368.49	98.30
368.69	175.54
368.89	224.69
369.09	121.71
369.28	191.92
369.48	124.05
369.68	212.99
369.87	110.01
370.07	163.84
370.27	191.92
370.47	348.74
370.66	603.86
370.86	550.03
371.06	645.99
371.25	620.24
371.45	660.03
371.65	692.80
371.84	678.76
372.04	695.14
372.24	737.27
372.44	594.50
372.63	674.07
372.83	779.40
373.03	711.52
373.22	755.99
373.42	793.44
373.62	751.31
373.81	692.80
374.01	798.12
374.21	788.76
374.40	795.78
374.60	866.00
374.79	786.42
374.99	882.38
375.19	828.55
375.38	727.91
375.58	870.68
375.78	887.06
375.97	936.21
376.17	931.53
376.37	861.32
376.56	835.57
376.76	905.79
376.95	861.32
377.15	875.36
377.35	877.70
377.54	849.61
377.74	809.83
377.93	866.00
378.13	849.61
378.33	884.72
378.52	910.47
378.72	1001.75
378.91	931.53
379.11	851.96
379.31	896.43
379.50	868.34
379.70	947.92
379.89	1008.77
380.09	990.05
380.28	957.28
380.48	940.90
380.68	976.00
380.87	1011.11
381.07	898.77
381.26	1083.67
381.46	1036.86
381.65	1027.50
381.85	1006.43
382.04	1008.77
382.24	1053.24
382.43	992.39
382.63	1093.03
382.83	1177.29
383.02	1095.37
383.22	1029.84
383.41	1116.44
383.61	1034.52
383.80	1205.38
384.00	1132.82
384.19	1071.97
384.39	1163.25
384.58	1102.39
384.78	1125.80
384.97	1071.97
385.17	1123.46
385.36	1074.31
385.56	1158.57
385.75	1174.95
385.95	1128.14
386.14	1228.78
386.34	1170.27
386.53	1249.85
386.72	1224.10
386.92	1254.53
387.11	1219.42
387.31	1219.42
387.50	1214.74
387.70	1254.53
387.89	1273.25
388.09	1214.74
388.28	1306.02
388.48	1322.40
388.67	1299.00
388.86	1359.85
389.06	1350.49
389.25	1303.68
389.45	1284.95
389.64	1299.00
389.84	1331.76
390.03	1348.15
390.22	1324.74
390.42	1322.40
390.61	1343.47
390.81	1427.73
391.00	1338.79
391.19	1493.26
391.39	1411.34
391.58	1444.11
391.78	1427.73
391.97	1352.83
392.16	1495.60
392.36	1523.69
392.55	1425.39
392.75	1535.39
392.94	1444.11
393.13	1488.58
393.33	1554.12
393.52	1556.46
393.71	1675.82
393.91	1600.93
394.10	1650.08
394.29	1614.97
394.49	1495.60
394.68	1603.27
394.88	1643.06
395.07	1647.74
395.26	1650.08
395.46	1715.61
395.65	1643.06
395.84	1678.16
396.04	1830.30
396.23	1671.14
396.42	1736.68
396.62	1727.32
396.81	1813.92
397.00	1771.79
397.19	1785.83
397.39	1675.82
397.58	1699.23
397.77	1774.13
397.97	1865.41
398.16	1860.73
398.35	1858.39
398.55	1856.04
398.74	1844.34
398.93	1870.09
399.12	1895.83
399.32	1860.73
399.51	1860.73
399.70	1898.17
399.90	1905.20
400.09	2003.50
400.28	1996.48
400.47	2062.01
400.67	2066.69
400.86	2057.33
401.05	2040.95
401.24	2125.21
401.44	2108.82
401.63	2050.31
401.82	2099.46
402.01	2118.18
402.21	2120.53
402.40	2059.67
402.59	2162.66
402.78	2125.21
402.97	2246.91
403.17	2267.98
403.36	2303.09
403.55	2230.53
403.74	2326.49
403.93	2310.11
404.13	2282.02
404.32	2307.77
404.51	2436.50
404.70	2270.32
404.89	2422.45
405.09	2410.75
405.28	2361.60
405.47	2429.48
405.66	2490.33
405.85	2586.29
406.05	2466.92
406.24	2551.18
406.43	2537.14
406.62	2602.68
406.81	2586.29
407.00	2644.81
407.20	2558.21
407.39	2530.12
407.58	2654.17
407.77	2679.91
407.96	2677.57
408.15	2738.43
408.34	2719.70
408.54	2825.03
408.73	2722.04
408.92	2757.15
409.11	2930.35
409.30	2818.00
409.49	2796.94
409.68	2897.58
409.87	2909.29
410.07	2944.39
410.26	2977.16
410.45	2932.69
410.64	2913.97
410.83	3089.51
411.02	2991.20
411.21	3164.40
411.40	3126.96
411.59	3169.09
411.78	3141.00
411.98	3091.85
412.17	3192.49
412.36	3290.79
412.55	3351.65
412.74	3386.76
412.93	3281.43
413.12	3220.58
413.31	3534.21
413.50	3433.57
413.69	3456.97
413.88	3442.93
414.07	3524.85
414.26	3585.70
414.45	3669.96
414.64	3665.28
414.83	3702.73
415.02	3726.13
415.22	3822.09
415.41	3791.67
415.60	3784.65
415.79	3840.82
415.98	3995.29
416.17	3850.18
416.36	3852.52
416.55	3941.46
416.74	4112.32
416.93	4077.21
417.12	4102.96
417.31	4107.64
417.50	4095.94
417.69	4086.58
417.88	4088.92
418.07	4142.75
418.26	4198.92
418.45	4252.75
418.64	4390.84
418.83	4360.42
419.02	4463.40
419.21	4442.34
419.39	4444.68
419.58	4372.12
419.77	4571.07
419.96	4596.81
420.15	4517.23
420.34	4437.66
420.53	4568.73
420.72	4678.73
420.91	4514.89
421.10	4638.94
421.29	4587.45
421.48	4699.80
421.67	4758.31
421.86	4748.95
422.05	4767.67
422.24	4751.29
422.43	4758.31
422.61	4835.55
422.80	4840.23
422.99	4978.32
423.18	4990.02
423.37	4964.28
423.56	4896.40
423.75	4830.87
423.94	4774.69
424.13	4669.37
424.32	4737.24
424.50	4945.55
424.69	5053.22
424.88	4936.19
425.07	5036.83
425.26	5018.11
425.45	4896.40
425.64	4819.16
425.83	5071.94
426.01	5081.30
426.20	5008.75
426.39	4999.38
426.58	4957.25
426.77	4978.32
426.96	5238.12
427.15	4903.42
427.33	5018.11
427.52	5219.39
427.71	5132.79
427.90	5235.78
428.09	5322.38
428.28	5366.85
428.46	5385.57
428.65	5399.62
428.84	5469.83
429.03	5474.51
429.22	5303.65
429.40	5462.81
429.59	5350.46
429.78	5380.89
429.97	5029.81
430.16	5479.19
430.34	5390.25
430.53	5544.73
430.72	5607.92
430.91	5664.10
431.10	5600.90
431.28	5804.53
431.47	5710.91
431.66	5720.27
431.85	5610.26
432.03	5699.20
432.22	5841.98
432.41	5860.70
432.60	5881.77
432.79	5877.09
432.97	5706.23
433.16	5923.90
433.35	5837.30
433.54	5980.07
433.72	6005.81
433.91	6071.35
434.10	5926.24
434.28	5898.15
434.47	6179.01
434.66	6150.93
434.85	6162.63
435.03	6354.55
435.22	6237.53
435.41	6279.66
435.59	6244.55
435.78	6410.73
435.97	6377.96
436.16	6354.55
436.34	6373.28
436.53	6499.67
436.72	6473.92
436.90	6380.30
437.09	6544.14
437.28	6392.00
437.46	6490.31
437.65	6506.69
437.84	6438.81
438.02	6633.08
438.21	6616.69
438.40	6502.01
438.58	6768.83
438.77	6841.39
438.96	6909.26
439.14	7213.53
439.33	7136.29
439.52	7152.68
439.70	7192.47
439.89	7353.96
440.08	7171.40
440.26	7358.64
440.45	7148.00
440.63	7332.90
440.82	7555.25
441.01	7412.48
441.19	7485.03
441.38	7515.46
441.57	7669.94
441.75	7613.76
441.94	7843.14
442.12	7819.73
442.31	7990.59
442.50	7957.82
442.68	7683.98
442.87	7967.18
443.05	8070.17
443.24	8187.19
443.43	8114.64
443.61	8018.68
443.80	8348.69
443.98	8002.29
444.17	7763.56
444.35	8067.83
444.54	8266.77
444.73	8121.66
444.91	8105.28
445.10	8180.17
445.28	8121.66
445.47	8339.33
445.65	8278.47
445.84	8423.59
446.02	8624.87
446.21	8365.07
446.39	8241.03
446.58	8313.58
446.77	8276.13
446.95	8241.03
447.14	8493.80
447.32	8397.84
447.51	8327.63
447.69	8365.07
447.88	8479.76
448.06	8407.20
448.25	8191.88
448.43	8575.72
448.62	8622.53
448.80	8355.71
448.99	8596.79
449.17	8690.41
449.36	8505.51
449.54	8746.58
449.73	8858.93
449.91	8999.36
450.10	8624.87
450.28	8865.95
450.46	8961.91
450.65	9123.41
450.83	8889.35
451.02	8870.63
451.20	9116.39
451.39	9062.55
451.57	8961.91
451.76	8898.72
451.94	9004.04
452.13	9214.69
452.31	9348.10
452.49	9198.31
452.68	9165.54
452.86	9289.59
453.05	9364.48
453.23	9378.53
453.42	9408.95
453.60	9062.55
453.78	9308.31
453.97	9327.03
454.15	9432.36
454.34	9401.93
454.52	9586.83
454.70	9643.01
454.89	9589.17
455.07	9769.40
455.26	9652.37
455.44	9912.17
455.62	9755.35
455.81	9692.16
455.99	9940.26
456.17	9970.68
456.36	10022.17
456.54	9942.60
456.73	10211.76
456.91	10223.46
457.09	10246.87
457.28	10389.64
457.46	10064.30
457.64	10558.16
457.83	10469.22
458.01	10265.59
458.19	10600.29
458.38	10345.17
458.56	10551.14
458.74	10457.51
458.93	10516.03
459.11	10658.80
459.29	10663.48
459.48	10630.71
459.66	10406.02
459.84	10892.85
460.03	10703.27
460.21	10839.02
460.39	10712.63
460.57	10913.92
460.76	10888.17
460.94	11105.84
461.12	11066.05
461.31	10981.79
461.49	11075.42
461.67	10963.07
461.85	11295.43
462.04	11030.94
462.22	11726.08
462.40	11463.94
462.59	11609.06
462.77	11459.26
462.95	11452.24
463.13	11321.17
463.32	11634.80
463.50	11793.96
463.68	11641.82
463.86	11564.59
464.05	11346.92
464.23	11950.78
464.41	11990.56
464.59	11557.57
464.78	11791.62
464.96	11955.46
465.14	11627.78
465.32	11765.87
465.50	11962.48
465.69	12257.39
465.87	11683.95
466.05	11707.36
466.23	11969.50
466.41	11936.73
466.60	12210.57
466.78	11686.29
466.96	12180.15
467.14	12198.87
467.32	12107.59
467.51	12280.79
467.69	12058.44
467.87	12315.90
468.05	12503.14
468.23	12322.92
468.41	12442.29
468.60	12351.01
468.78	12753.58
468.96	12446.97
469.14	12748.90
469.32	12889.33
469.50	12425.90
469.69	12840.18
469.87	12858.90
470.05	12936.14
470.23	13053.17
470.41	13191.26
470.59	12978.27
470.77	13043.81
470.95	13099.98
471.14	13369.14
471.32	13041.46
471.50	13481.49
471.68	13308.29
471.86	13310.63
472.04	13682.77
472.22	13980.02
472.40	13490.85
472.58	13778.73
472.77	13916.83
472.95	14153.22
473.13	14665.80
473.31	13834.91
473.49	13926.19
473.67	14132.15
473.85	14010.45
474.03	14125.13
474.21	14310.04
474.39	14422.38
474.57	14256.20
474.75	14750.06
474.93	14916.23
475.12	14806.23
475.30	14944.32
475.48	14700.90
475.66	14890.49
475.84	14857.72
476.02	14956.02
476.20	15248.59
476.38	15646.48
476.56	15941.39
476.74	15709.68
476.92	15449.88
477.10	15639.46
477.28	15920.32
477.46	16037.35
477.64	16226.93
477.82	16390.77
478.00	16863.56
478.18	16542.91
478.36	16538.23
478.54	17011.01
478.72	17106.98
478.90	17357.41
479.08	17422.95
479.26	17549.34
479.44	17722.54
479.62	17542.32
479.80	17818.50
479.98	17900.42
480.16	18530.02
480.34	18068.94
480.52	18422.36
480.70	18284.26
480.88	18286.61
481.06	18548.75
481.24	18537.04
481.41	18881.10
481.59	19307.08
481.77	19190.05
481.95	19096.43
482.13	19885.19
482.31	19246.23
482.49	19824.34
482.67	20084.14
482.85	20091.16
483.03	20535.86
483.21	20194.14
483.39	20861.19
483.57	20620.12
483.74	20905.66
483.92	21254.40
484.10	21008.65
484.28	21612.51
484.46	21750.60
484.64	21788.05
484.82	21930.82
485.00	22361.48
485.18	22572.13
485.35	22558.08
485.53	22778.09
485.71	22796.82
485.89	23281.31
486.07	23140.88
486.25	23084.70
486.43	23515.36
486.61	23630.05
486.78	23992.83
486.96	23946.02
487.14	24170.71
487.32	24381.36
487.50	24477.32
487.68	24582.65
487.85	25036.71
488.03	25123.31
488.21	25383.11
488.39	25364.39
488.57	25413.54
488.75	26176.55
488.92	26183.57
489.10	26541.68
489.28	26160.17
489.46	26895.10
489.64	26773.39
489.81	27524.70
489.99	27260.22
490.17	27145.53
490.35	27901.53
490.53	27835.99
490.70	28196.43
490.88	28009.19
491.06	28549.85
491.24	28486.66
491.41	28751.14
491.59	28929.02
491.77	28947.75
491.95	29090.52
492.13	29308.19
492.30	29420.53
492.48	29675.65
492.66	29883.96
492.84	29710.76
493.01	30185.89
493.19	30316.96
493.37	30705.49
493.54	30782.73
493.72	30944.22
493.90	31243.81
494.08	31161.89
494.25	31601.91
494.43	31498.93
494.61	31800.86
494.79	32367.27
494.96	32491.32
495.14	32378.97
495.32	32692.60
495.49	32474.93
495.67	32666.86
495.85	32968.79
496.02	33720.10
496.20	33820.74
496.38	33483.70
496.55	33759.89
496.73	34422.26
496.91	34370.77
497.09	34405.88
497.26	34195.23
497.44	34497.16
497.62	34785.04
497.79	35550.40
497.97	34876.32
498.14	35793.81
498.32	35887.43
498.50	35739.98
498.67	35732.96
498.85	35964.67
499.03	36526.40
499.20	36364.90
499.38	36245.54
499.56	36495.97
499.73	36531.08
499.91	37324.52
500.08	37144.30
500.26	36847.05
500.44	37399.42
500.61	37151.32
500.79	37188.77
500.97	37736.46
501.14	38216.27
501.32	37954.13
501.49	38080.52
501.67	38188.18
501.84	38064.13
502.02	38583.73
502.20	38319.25
502.37	38682.03
502.55	38663.31
502.72	39215.68
502.90	39445.05
503.07	39290.57
503.25	39332.70
503.43	39213.34
503.60	39510.58
503.78	39826.56
503.95	39615.91
504.13	39812.51
504.30	40154.23
504.48	40037.20
504.65	40130.83
504.83	40060.61
505.01	40608.29
505.18	40491.27
505.36	41172.36
505.53	40816.60
505.71	41113.85
505.88	41558.55
506.06	41146.62
506.23	41471.95
506.41	41411.10
506.58	41710.69
506.76	41666.22
506.93	41816.01
507.11	41827.71
507.28	42141.35
507.46	42696.05
507.63	42387.10
507.81	42267.73
507.98	42770.95
508.16	43292.89
508.33	42887.98
508.50	42937.13
508.68	43136.07
508.85	43826.53
509.03	43435.66
509.20	43325.66
509.38	43971.64
509.55	43807.81
509.73	44271.23
509.90	44055.90
510.08	44161.23
510.25	44388.26
510.42	43903.77
510.60	44406.98
510.77	44879.77
510.95	44926.58
511.12	44655.08
511.30	44889.13
511.47	44634.02
511.64	45209.79
511.82	45439.16
511.99	45132.55
512.17	45350.22
512.34	45198.09
512.51	45757.47
512.69	45965.78
512.86	45794.92
513.04	46366.01
513.21	46265.37
513.38	46323.88
513.56	46932.42
513.73	46539.21
513.90	46784.97
514.08	46040.68
514.25	46873.91
514.43	46766.24
514.60	46927.74
514.77	47103.28
514.95	47590.11
515.12	46862.21
515.29	47358.40
515.47	47400.53
515.64	47667.35
515.81	47381.80
515.99	47585.43
516.16	47903.74
516.33	47990.34
516.51	48360.15
516.68	47988.00
516.85	48252.48
517.03	48069.92
517.20	48409.30
517.37	48367.17
517.54	48378.87
517.72	48481.86
517.89	48685.48
518.06	48498.24
518.24	48839.96
518.41	48949.96
518.58	49097.42
518.75	48722.93
518.93	49378.28
519.10	48992.09
519.27	48938.26
519.45	49624.04
519.62	49085.72
519.79	49448.50
519.96	49502.33
520.14	49712.98
520.31	49881.50
520.48	49640.42
520.65	49944.69
520.83	50068.74
521.00	50358.97
521.17	50265.34
521.34	50415.14
521.52	50550.89
521.69	50574.30
521.86	50642.17
522.03	50791.97
522.20	51084.53
522.38	51047.08
522.55	50880.91
522.72	50768.56
522.89	50717.07
523.07	51178.15
523.24	50932.40
523.41	51196.88
523.58	50852.82
523.75	51356.03
523.92	51489.45
524.10	51620.52
524.27	51545.62
524.44	51657.96
524.61	51831.16
524.78	51793.71
524.96	51906.06
525.13	51686.05
525.30	52093.30
525.47	51957.55
525.64	52023.09
525.81	52090.96
525.98	52397.57
526.16	52418.64
526.33	52378.85
526.50	52664.39
526.67	52308.63
526.84	52210.33
527.01	52633.97
527.18	52573.11
527.36	52516.94
527.53	52458.43
527.70	53345.49
527.87	52889.09
528.04	52865.68
528.21	53071.65
528.38	53214.42
528.55	53279.96
528.72	53401.66
528.89	53113.78
529.07	52999.09
529.24	53198.04
529.41	53343.15
529.58	53106.76
529.75	53282.30
529.92	53389.96
530.09	53345.49
530.26	53528.05
530.43	53787.85
530.60	53600.61
530.77	53759.76
530.94	53715.29
531.11	53565.50
531.28	53851.05
531.46	53921.26
531.63	54019.56
531.80	53722.32
531.97	53766.79
532.14	54241.92
532.31	54045.31
532.48	54307.45
532.65	54244.26
532.82	54199.79
532.99	54368.30
533.16	54272.34
533.33	54302.77
533.50	54504.06
533.67	54560.23
533.84	54398.73
534.01	54686.62
534.18	54536.82
534.35	54958.12
534.52	54511.08
534.69	54681.94
534.86	54845.77
535.03	54820.03
535.20	54836.41
535.37	55030.68
535.54	55341.97
535.71	55023.65
535.88	55131.32
536.05	55140.68
536.22	55316.22
536.38	55463.67
536.55	55288.13
536.72	55449.63
536.89	55236.64
537.06	55269.41
537.23	55693.05
537.40	55290.48
537.57	55348.99
537.74	55629.85
537.91	55554.96
538.08	55583.04
538.25	55543.25
538.42	55451.97
538.59	55952.85
538.75	55543.25
538.92	56018.38
539.09	56011.36
539.26	55906.04
539.43	55824.12
539.60	55884.97
539.77	55903.70
539.94	56236.05
540.11	56097.96
540.28	56137.75
540.44	56093.28
540.61	56011.36
540.78	56044.13
540.95	56224.35
541.12	56044.13
541.29	56322.65
541.46	56261.80
541.62	56257.12
541.79	56404.57
541.96	56062.85
542.13	56301.59
542.30	56332.01
542.47	56676.07
542.63	56430.32
542.80	56683.09
542.97	56694.80
543.14	57144.18
543.31	56687.78
543.48	56987.36
543.64	57373.55
543.81	56980.34
543.98	56987.36
544.15	57202.69
544.32	56900.76
544.48	57181.63
544.65	57052.90
544.82	57137.16
544.99	57027.15
545.16	57076.30
545.32	57151.20
545.49	57425.04
545.66	57607.61
545.83	57401.64
546.00	57364.19
546.16	57179.29
546.33	57216.74
546.50	57209.71
546.67	57586.54
546.83	57230.78
547.00	57602.92
547.17	57628.67
547.34	57638.03
547.50	57623.99
547.67	57701.23
547.84	57743.36
548.00	57684.84
548.17	58096.78
548.34	57869.75
548.51	57881.45
548.67	57998.48
548.84	57895.49
549.01	57717.61
549.18	57865.06
549.34	58031.24
549.51	58064.01
549.68	57932.94
549.84	58131.89
550.01	58078.05
550.18	57954.00
550.34	58195.08
550.51	57968.05
550.68	58087.42
550.84	58136.57
551.01	58162.31
551.18	58286.36
551.34	58298.06
551.51	58169.33
551.68	58134.23
551.84	58253.59
552.01	58347.21
552.18	58391.68
552.34	58108.48
552.51	58323.81
552.68	58045.29
552.84	58494.67
553.01	58681.91
553.18	58569.57
553.34	58688.93
553.51	58440.84
553.67	58506.37
553.84	58794.26
554.01	58789.58
554.17	58637.44
554.34	58684.25
554.51	58719.36
554.67	58749.79
554.84	58731.06
555.00	58770.85
555.17	58695.95
555.33	58595.31
555.50	58628.08
555.67	58810.64
555.83	58632.76
556.00	58817.66
556.16	59159.38
556.33	58955.75
556.50	59178.10
556.66	59236.62
556.83	58906.60
556.99	59140.66
557.16	59325.56
557.32	59421.52
557.49	59419.18
557.65	59070.44
557.82	59229.60
557.98	59231.94
558.15	59107.89
558.32	59323.22
558.48	59072.78
558.65	59110.23
558.81	59154.70
558.98	59182.79
559.14	59360.67
559.31	59559.61
559.47	59559.61
559.64	59552.59
559.80	59461.31
559.97	59461.31
560.13	59456.63
560.30	59304.49
560.46	59526.84
560.63	59236.62
560.79	59433.22
560.96	59730.47
561.12	59655.57
561.29	59758.56
561.45	59739.83
561.61	59522.16
561.78	59664.94
561.94	59580.68
562.11	59646.21
562.27	59585.36
562.44	59716.43
562.60	59671.96
562.77	59756.22
562.93	59524.50
563.10	59875.58
563.26	59636.85
563.42	59676.64
563.59	59770.26
563.75	59749.20
563.92	59831.11
564.08	59714.09
564.24	60067.51
564.41	59758.56
564.57	59969.21
564.74	59760.90
564.90	59859.20
565.07	60074.53
565.23	59870.90
565.39	59751.54
565.56	59889.63
565.72	59845.16
565.88	59688.34
566.05	59824.09
566.21	59931.76
566.38	59798.35
566.54	59934.10
566.70	60182.19
566.87	60025.38
567.03	59833.46
567.19	60104.96
567.36	60121.34
567.52	60048.78
567.68	60474.76
567.85	60191.56
568.01	60037.08
568.17	59999.63
568.34	60207.94
568.50	60119.00
568.66	60060.49
568.83	60219.64
568.99	60020.70
569.15	60053.47
569.32	60289.86
569.48	59997.29
569.64	60086.23
569.81	60250.07
569.97	60271.14
570.13	60116.66
570.30	59938.78
570.46	60062.83
570.62	60133.04
570.78	60168.15
570.95	60128.36
571.11	60322.63
571.27	60285.18
571.43	60381.14
571.60	60327.31
571.76	60238.37
571.92	60313.26
572.09	60388.16
572.25	60397.52
572.41	60100.28
572.57	60273.48
572.74	60381.14
572.90	60170.49
573.06	60383.48
573.22	60390.50
573.38	60168.15
573.55	60456.04
573.71	60743.92
573.87	60243.05
574.03	60339.01
574.20	60385.82
574.36	60289.86
574.52	60701.79
574.68	60484.12
574.84	60519.23
575.01	60514.55
575.17	60420.93
575.33	60463.06
575.49	60397.52
575.65	60357.74
575.82	60446.68
575.98	60748.60
576.14	60690.09
576.30	60734.56
576.46	60570.72
576.62	60491.15
576.79	60575.40
576.95	60374.12
577.11	60477.10
577.27	60610.51
577.43	60444.33
577.59	60552.00
577.75	60549.66
577.92	60381.14
578.08	60697.11
578.24	60643.28
578.40	60662.00
578.56	60790.73
578.72	60500.51
578.88	60624.56
579.04	61052.87
579.21	60676.05
579.37	60825.84
579.53	60760.31
579.69	60441.99
579.85	60573.06
580.01	60484.12
580.17	60559.02
580.33	60601.15
580.49	60654.98
580.65	60774.35
580.82	60654.98
580.98	60540.30
581.14	60568.38
581.30	60776.69
581.46	60678.39
581.62	60519.23
581.78	60563.70
581.94	60802.44
582.10	60727.54
582.26	60753.29
582.42	60521.57
582.58	60544.98
582.74	60540.30
582.90	60573.06
583.06	60706.47
583.22	60617.53
583.38	60582.43
583.54	60687.75
583.70	60708.82
583.86	60891.38
584.02	60411.57
584.18	60786.05
584.34	60846.91
584.50	60786.05
584.66	60823.50
584.82	60636.26
584.98	60727.54
585.14	60889.04
585.30	60699.45
585.46	60839.89
585.62	60596.47
585.78	60987.34
585.94	60617.53
586.10	60807.12
586.26	60727.54
586.42	60753.29
586.58	60849.25
586.74	60673.71
586.90	60767.33
587.06	60727.54
587.22	60935.85
587.38	60802.44
587.54	60828.18
587.70	61073.94
587.86	61069.26
588.02	60839.89
588.18	61006.06
588.34	60746.26
588.49	60619.88
