SpectraSuite Data File
++++++++++++++++++++++++++++++++++++
Date: Fri Oct 25 11:24:03 EDT 2013
User: price-jones
Dark Spectrum Present: No
Reference Spectrum Present: No
Number of Sampled Component Spectra: 1
Spectrometers: USB2+H05261
Integration Time (usec): 100000 (USB2+H05261)
Spectra Averaged: 1 (USB2+H05261)
Boxcar Smoothing: 0 (USB2+H05261)
Correct for Electrical Dark: No (USB2+H05261)
Strobe/Lamp Enabled: No (USB2+H05261)
Correct for Detector Non-linearity: No (USB2+H05261)
Correct for Stray Light: No (USB2+H05261)
Number of Pixels in Processed Spectrum: 2048
>>>>>Begin Processed Spectral Data<<<<<
365.73	231.71
365.92	231.71
366.12	231.71
366.32	170.86
366.52	124.05
366.72	100.64
366.91	63.19
367.11	170.86
367.31	124.05
367.51	126.39
367.70	215.33
367.90	168.52
368.10	161.50
368.30	189.58
368.49	112.35
368.69	107.66
368.89	140.43
369.09	187.24
369.28	238.73
369.48	187.24
369.68	152.13
369.87	198.95
370.07	208.31
370.27	255.12
370.47	318.31
370.66	627.26
370.86	575.77
371.06	615.56
371.25	617.90
371.45	685.78
371.65	688.12
371.84	641.31
372.04	737.27
372.24	720.88
372.44	648.33
372.63	784.08
372.83	767.70
373.03	753.65
373.22	800.46
373.42	809.83
373.62	802.80
373.81	774.72
374.01	777.06
374.21	793.44
374.40	854.30
374.60	861.32
374.79	863.66
374.99	840.25
375.19	809.83
375.38	894.08
375.58	840.25
375.78	924.51
375.97	887.06
376.17	950.26
376.37	854.30
376.56	882.38
376.76	807.48
376.95	814.51
377.15	875.36
377.35	816.85
377.54	840.25
377.74	889.40
377.93	844.93
378.13	917.49
378.33	936.21
378.52	919.83
378.72	957.28
378.91	926.85
379.11	940.90
379.31	901.11
379.50	866.00
379.70	947.92
379.89	1006.43
380.09	887.06
380.28	929.19
380.48	926.85
380.68	945.58
380.87	983.02
381.07	889.40
381.26	983.02
381.46	1050.90
381.65	1055.58
381.85	1118.78
382.04	1020.47
382.24	1034.52
382.43	1046.22
382.63	1074.31
382.83	1046.22
383.02	1191.33
383.22	1034.52
383.41	1121.12
383.61	1053.24
383.80	1114.10
384.00	1203.04
384.19	1123.46
384.39	1107.07
384.58	1153.88
384.78	1046.22
384.97	1179.63
385.17	1137.50
385.36	1193.67
385.56	1130.48
385.75	1196.01
385.95	1196.01
386.14	1139.84
386.34	1294.32
386.53	1221.76
386.72	1184.31
386.92	1231.12
387.11	1217.08
387.31	1226.44
387.50	1153.88
387.70	1214.74
387.89	1287.29
388.09	1270.91
388.28	1224.10
388.48	1261.55
388.67	1348.15
388.86	1299.00
389.06	1252.19
389.25	1341.13
389.45	1380.92
389.64	1378.58
389.84	1401.98
390.03	1401.98
390.22	1376.24
390.42	1364.53
390.61	1362.19
390.81	1380.92
391.00	1376.24
391.19	1425.39
391.39	1394.96
391.58	1385.60
391.78	1406.66
391.97	1446.45
392.16	1479.22
392.36	1591.56
392.55	1460.49
392.75	1582.20
392.94	1530.71
393.13	1530.71
393.33	1593.90
393.52	1465.18
393.71	1732.00
393.91	1516.67
394.10	1572.84
394.29	1519.01
394.49	1502.62
394.68	1666.46
394.88	1624.33
395.07	1661.78
395.26	1687.53
395.46	1624.33
395.65	1703.91
395.84	1734.34
396.04	1804.55
396.23	1757.74
396.42	1729.66
396.62	1776.47
396.81	1771.79
397.00	1795.19
397.19	1811.57
397.39	1762.42
397.58	1844.34
397.77	1746.04
397.97	1813.92
398.16	1940.30
398.35	1809.23
398.55	1879.45
398.74	1853.70
398.93	1982.43
399.12	1949.67
399.32	2022.22
399.51	1874.77
399.70	1994.14
399.90	1977.75
400.09	1968.39
400.28	2052.65
400.47	2040.95
400.67	1954.35
400.86	2160.31
401.05	2193.08
401.24	2132.23
401.44	2085.42
401.63	2122.87
401.82	2202.44
402.01	2167.34
402.21	2108.82
402.40	2200.10
402.59	2253.94
402.78	2265.64
402.97	2239.89
403.17	2324.15
403.36	2221.17
403.55	2291.38
403.74	2394.37
403.93	2214.15
404.13	2392.03
404.32	2401.39
404.51	2448.20
404.70	2518.42
404.89	2466.92
405.09	2506.71
405.28	2429.48
405.47	2471.61
405.66	2492.67
405.85	2483.31
406.05	2597.99
406.24	2523.10
406.43	2487.99
406.62	2628.42
406.81	2569.91
407.00	2583.95
407.20	2525.44
407.39	2537.14
407.58	2698.64
407.77	2799.28
407.96	2679.91
408.15	2768.85
408.34	2675.23
408.54	2789.92
408.73	2780.56
408.92	2850.77
409.11	2853.11
409.30	2878.86
409.49	2991.20
409.68	2932.69
409.87	2888.22
410.07	3054.40
410.26	2930.35
410.45	2988.86
410.64	2946.73
410.83	3094.19
411.02	3145.68
411.21	3150.36
411.40	3033.33
411.59	3199.51
411.78	3279.09
411.98	3293.13
412.17	3276.75
412.36	3297.81
412.55	3253.34
412.74	3557.61
412.93	3445.27
413.12	3265.05
413.31	3454.63
413.50	3438.25
413.69	3459.31
413.88	3559.95
414.07	3569.32
414.26	3634.85
414.45	3698.05
414.64	3684.00
414.83	3637.19
415.02	3786.99
415.22	3868.91
415.41	3925.08
415.60	3906.35
415.79	3836.14
415.98	4002.32
416.17	4030.40
416.36	4053.81
416.55	4046.79
416.74	4128.70
416.93	4212.96
417.12	4117.00
417.31	4145.09
417.50	4215.30
417.69	4163.81
417.88	4205.94
418.07	4234.03
418.26	4234.03
418.45	4397.87
418.64	4573.41
418.83	4393.19
419.02	4390.84
419.21	4542.98
419.39	4582.77
419.58	4559.36
419.77	4571.07
419.96	4564.04
420.15	4615.54
420.34	4580.43
420.53	4592.13
420.72	4699.80
420.91	4828.53
421.10	4744.27
421.29	4816.82
421.48	4720.86
421.67	4786.40
421.86	4856.61
422.05	4940.87
422.24	4784.06
422.43	4954.91
422.61	4957.25
422.80	4994.70
422.99	5004.07
423.18	4992.36
423.37	5158.54
423.56	5008.75
423.75	4917.47
423.94	4908.10
424.13	4582.77
424.32	4849.59
424.50	4994.70
424.69	5121.09
424.88	5174.92
425.07	4856.61
425.26	4985.34
425.45	4966.62
425.64	5102.37
425.83	4849.59
426.01	5128.11
426.20	4910.44
426.39	5142.16
426.58	4990.02
426.77	5128.11
426.96	5210.03
427.15	5104.71
427.33	5315.36
427.52	5165.56
427.71	5322.38
427.90	5228.76
428.09	5097.69
428.28	5266.21
428.46	5460.47
428.65	5224.08
428.84	5448.77
429.03	5488.56
429.22	5502.60
429.40	5514.30
429.59	5579.84
429.78	5280.25
429.97	5357.49
430.16	5514.30
430.34	5680.48
430.53	5858.36
430.72	5685.16
430.91	5598.56
431.10	5643.03
431.28	5783.46
431.47	5771.76
431.66	5879.43
431.85	5764.74
432.03	5841.98
432.22	6057.31
432.41	5961.34
432.60	6026.88
432.79	5914.53
432.97	6054.97
433.16	6061.99
433.35	6054.97
433.54	6069.01
433.72	6282.00
433.91	5966.03
434.10	5980.07
434.28	6076.03
434.47	6155.61
434.66	6083.05
434.85	6284.34
435.03	6284.34
435.22	6340.51
435.41	6539.46
435.59	6555.84
435.78	6504.35
435.97	6483.28
436.16	6389.66
436.34	6317.11
436.53	6422.43
436.72	6654.14
436.90	6607.33
437.09	6722.02
437.28	6408.39
437.46	6530.09
437.65	6693.93
437.84	6773.51
438.02	6663.51
438.21	6782.87
438.40	6785.21
438.58	6995.86
438.77	6860.11
438.96	7119.91
439.14	7016.93
439.33	7066.08
439.52	7143.32
439.70	7272.04
439.89	7403.11
440.08	7377.37
440.26	7536.52
440.45	7431.20
440.63	7391.41
440.82	7555.25
441.01	7510.78
441.19	7641.85
441.38	7651.21
441.57	7679.30
441.75	7882.92
441.94	8039.74
442.12	7992.93
442.31	7894.63
442.50	8070.17
442.68	8074.85
442.87	7822.07
443.05	8070.17
443.24	8102.93
443.43	8388.48
443.61	8372.10
443.80	8418.91
443.98	8114.64
444.17	7815.05
444.35	8088.89
444.54	8301.88
444.73	8423.59
444.91	8252.73
445.10	8273.79
445.28	8245.71
445.47	8290.18
445.65	8451.67
445.84	8521.89
446.02	8685.73
446.21	8372.10
446.39	8472.74
446.58	8339.33
446.77	8505.51
446.95	8482.10
447.14	8423.59
447.32	8475.08
447.51	8557.00
447.69	8587.43
447.88	8493.80
448.06	8519.55
448.25	8568.70
448.43	8585.08
448.62	8594.45
448.80	8599.13
448.99	8587.43
449.17	8800.41
449.36	8659.98
449.54	8929.14
449.73	8936.17
449.91	8982.98
450.10	8933.82
450.28	9146.81
450.46	9015.74
450.65	9018.08
450.83	9067.24
451.02	9280.22
451.20	9200.65
451.39	9238.09
451.57	9202.99
451.76	9270.86
451.94	9121.07
452.13	9289.59
452.31	9327.03
452.49	9240.44
452.68	9633.64
452.86	9495.55
453.05	9397.25
453.23	9603.22
453.42	9411.29
453.60	9359.80
453.78	9788.12
453.97	9579.81
454.15	9666.41
454.34	9486.19
454.52	9680.46
454.70	9678.12
454.89	9617.26
455.07	9722.59
455.26	9788.12
455.44	10146.22
455.62	9949.62
455.81	10015.15
455.99	9998.77
456.17	10045.58
456.36	10071.33
456.54	10307.72
456.73	10235.16
456.91	10415.38
457.09	10548.79
457.28	10780.51
457.46	10258.57
457.64	10574.54
457.83	10408.36
458.01	10473.90
458.19	10815.62
458.38	10764.12
458.56	10733.70
458.74	10693.91
458.93	10691.57
459.11	10836.68
459.29	10768.80
459.48	10773.49
459.66	10869.45
459.84	10949.03
460.03	11119.89
460.21	11007.54
460.39	11037.97
460.57	11016.90
460.76	11140.95
460.94	11262.66
461.12	11211.17
461.31	11176.06
461.49	11115.20
461.67	11349.26
461.85	11470.97
462.04	11323.51
462.22	11372.66
462.40	11501.39
462.59	11485.01
462.77	11517.78
462.95	11480.33
463.13	11686.29
463.32	11510.75
463.50	11805.66
463.68	11765.87
463.86	12042.06
464.05	11651.19
464.23	11824.39
464.41	12072.48
464.59	11714.38
464.78	12032.69
464.96	12102.91
465.14	12060.78
465.32	12032.69
465.50	11971.84
465.69	12238.66
465.87	12264.41
466.05	12325.26
466.23	12138.02
466.41	12386.12
466.60	12606.13
466.78	12273.77
466.96	12215.26
467.14	12292.49
467.32	12463.35
467.51	12540.59
467.69	12023.33
467.87	12603.78
468.05	12688.04
468.23	12418.88
468.41	12362.71
468.60	12683.36
468.78	12856.56
468.96	12692.73
469.14	12704.43
469.32	12985.29
469.50	12681.02
469.69	12992.31
469.87	13191.26
470.05	13233.39
470.23	13146.79
470.41	13104.66
470.59	13406.59
470.77	13149.13
470.95	13228.71
471.14	13582.13
471.32	13369.14
471.50	13462.76
471.68	13680.43
471.86	13738.94
472.04	13790.44
472.22	14232.80
472.40	13736.60
472.58	13811.50
472.77	14057.26
472.95	14242.16
473.13	14654.09
473.31	14300.67
473.49	14139.18
473.67	14097.05
473.85	14459.83
474.03	14782.82
474.21	14731.33
474.39	14726.65
474.57	14647.07
474.75	15110.50
474.93	15164.33
475.12	15044.96
475.30	15059.01
475.48	15229.87
475.66	15147.95
475.84	15267.31
476.02	15513.07
476.20	15573.92
476.38	15632.44
476.56	16137.99
476.74	15873.51
476.92	15730.74
477.10	16105.23
477.28	15962.45
477.46	16163.74
477.64	16102.89
477.82	16922.07
478.00	17003.99
478.18	16861.22
478.36	16919.73
478.54	17109.32
478.72	17434.65
478.90	17397.20
479.08	17750.62
479.26	17865.31
479.44	17813.82
479.62	18251.50
479.80	18333.42
479.98	18059.57
480.16	18478.53
480.34	18387.25
480.52	18862.38
480.70	18794.50
480.88	18572.15
481.06	18906.85
481.24	18827.27
481.41	19089.41
481.59	19267.29
481.77	19702.63
481.95	19573.90
482.13	19630.07
482.31	19683.91
482.49	20189.46
482.67	20093.50
482.85	20657.57
483.03	20751.19
483.21	20896.30
483.39	20947.79
483.57	20877.58
483.74	21022.69
483.92	21521.23
484.10	21240.36
484.28	21893.37
484.46	22216.36
484.64	22380.20
484.82	22263.18
485.00	22382.54
485.18	22822.56
485.35	23136.20
485.53	22827.24
485.71	22899.80
485.89	23716.65
486.07	23145.56
486.25	23646.43
486.43	23405.36
486.61	23807.93
486.78	24025.60
486.96	24442.21
487.14	24547.54
487.32	25006.28
487.50	24706.70
487.68	24805.00
487.85	25326.94
488.03	25696.74
488.21	26078.25
488.39	25659.29
488.57	25895.69
488.75	25942.50
488.92	26665.72
489.10	26567.42
489.28	26991.06
489.46	27241.50
489.64	27211.07
489.81	27901.53
489.99	27950.68
490.17	27676.83
490.35	28180.05
490.53	28287.71
490.70	28238.56
490.88	28250.27
491.06	29170.10
491.24	28907.96
491.41	29099.88
491.59	29457.98
491.77	29816.08
491.95	29874.60
492.13	29624.16
492.30	30064.18
492.48	30143.76
492.66	30546.33
492.84	30576.76
493.01	30761.66
493.19	30925.50
493.37	31187.64
493.54	31182.96
493.72	31608.93
493.90	31585.53
494.08	31812.56
494.25	31990.44
494.43	32018.53
494.61	32737.07
494.79	32439.82
494.96	32547.49
495.14	32701.96
495.32	33621.80
495.49	32924.32
495.67	33589.03
495.85	33881.60
496.02	33727.12
496.20	34213.95
496.38	34466.73
496.55	34291.19
496.73	35019.10
496.91	34246.72
497.09	34778.02
497.26	34761.64
497.44	34740.57
497.62	35339.75
497.79	36158.94
497.97	36121.49
498.14	36109.78
498.32	35847.64
498.50	36463.21
498.67	36699.60
498.85	36704.28
499.03	36800.24
499.20	37148.98
499.38	36926.63
499.56	36889.18
499.73	37455.59
499.91	37464.96
500.08	37689.65
500.26	37488.36
500.44	37645.18
500.61	38073.49
500.79	37626.45
500.97	38557.99
501.14	38792.04
501.32	38401.17
501.49	38897.36
501.67	38412.87
501.84	39061.20
502.02	39042.48
502.20	39150.14
502.37	39012.05
502.55	39461.43
502.72	39302.28
502.90	39737.62
503.07	40044.23
503.25	39789.11
503.43	39924.86
503.60	39838.26
503.78	40622.34
503.95	40322.75
504.13	40636.38
504.30	40563.82
504.48	40694.89
504.65	40517.01
504.83	41001.50
505.01	41673.24
505.18	41071.72
505.36	41874.52
505.53	41359.61
505.71	41333.86
505.88	41675.58
506.06	41696.64
506.23	42029.00
506.41	41654.51
506.58	42335.61
506.76	42564.98
506.93	42752.23
507.11	42033.68
507.28	42492.43
507.46	42787.33
507.63	43063.52
507.81	43360.76
507.98	43115.01
508.16	43140.75
508.33	43660.35
508.50	43615.88
508.68	43852.28
508.85	44048.88
509.03	43959.94
509.20	44172.93
509.38	44306.34
509.55	44083.99
509.73	44765.09
509.90	44549.76
510.08	44442.09
510.25	44762.75
510.42	45029.57
510.60	45359.58
510.77	45298.73
510.95	45556.19
511.12	45251.92
511.30	45212.13
511.47	45277.66
511.64	45783.22
511.82	46188.13
511.99	45918.97
512.17	46340.27
512.34	45956.42
512.51	46534.53
512.69	46499.42
512.86	46550.91
513.04	46909.02
513.21	46616.45
513.38	46946.47
513.56	46906.68
513.73	46997.96
513.90	47077.54
514.08	47189.88
514.25	47316.27
514.43	47672.03
514.60	47892.04
514.77	47543.30
514.95	47695.44
515.12	47571.39
515.29	47634.58
515.47	47955.24
515.64	48048.86
515.81	47810.12
515.99	48184.61
516.16	48671.44
516.33	48830.60
516.51	49008.48
516.68	48336.74
516.85	48601.22
517.03	49151.25
517.20	49010.82
517.37	49139.55
517.54	49244.87
517.72	48863.36
517.89	49090.40
518.06	49319.77
518.24	49233.17
518.41	49504.67
518.58	49577.23
518.75	49703.62
518.93	49909.58
519.10	49617.02
519.27	49759.79
519.45	49797.24
519.62	50010.23
519.79	50445.57
519.96	50106.19
520.14	50145.98
520.31	50096.83
520.48	50490.04
520.65	50260.66
520.83	50632.81
521.00	51105.60
521.17	50656.21
521.34	50859.84
521.52	51353.69
521.69	51117.30
521.86	51318.59
522.03	51423.91
522.20	51798.40
522.38	51840.53
522.55	51700.09
522.72	51461.36
522.89	51360.72
523.07	51587.75
523.24	51501.15
523.41	51903.72
523.58	51620.52
523.75	52027.77
523.92	52193.95
524.10	51952.87
524.27	52130.75
524.44	52112.03
524.61	51964.57
524.78	52191.61
524.96	52200.97
525.13	52418.64
525.30	52582.48
525.47	52514.60
525.64	52502.90
525.81	52774.40
525.98	52807.17
526.16	52640.99
526.33	52846.96
526.50	53265.91
526.67	52987.39
526.84	53251.87
527.01	52907.81
527.18	52933.56
527.36	52882.06
527.53	53329.11
527.70	53607.63
527.87	53743.38
528.04	53183.99
528.21	53347.83
528.38	53270.59
528.55	53710.61
528.72	53324.43
528.89	53710.61
529.07	53511.67
529.24	53572.52
529.41	53759.76
529.58	53818.28
529.75	53909.56
529.92	53689.55
530.09	53979.78
530.26	54010.20
530.43	54054.67
530.60	53762.11
530.77	53670.82
530.94	54197.44
531.11	54295.75
531.28	54293.41
531.46	54403.41
531.63	54209.15
531.80	54569.59
531.97	54780.24
532.14	54581.29
532.31	54438.52
532.48	54726.41
532.65	54625.76
532.82	54581.29
532.99	54829.39
533.16	54780.24
533.33	54665.55
533.50	55016.63
533.67	55011.95
533.84	54759.17
534.01	55065.78
534.18	55110.25
534.35	55288.13
534.52	55168.77
534.69	55255.37
534.86	55201.53
535.03	55274.09
535.20	55304.52
535.37	55337.29
535.54	55344.31
535.71	55047.06
535.88	55391.12
536.05	55739.86
536.22	55838.16
536.38	55484.74
536.55	55676.66
536.72	55419.20
536.89	55468.36
537.06	55643.90
537.23	55840.50
537.40	55751.56
537.57	56055.83
537.74	55840.50
537.91	56130.73
538.08	55798.37
538.25	55849.86
538.42	56044.13
538.59	56198.60
538.75	56177.54
538.92	56435.00
539.09	56596.49
539.26	55983.27
539.43	56168.18
539.60	56313.29
539.77	56392.87
539.94	56573.09
540.11	56214.99
540.28	56671.39
540.44	56624.58
540.61	56687.78
540.78	56397.55
540.95	56435.00
541.12	56411.59
541.29	56671.39
541.46	56659.69
541.62	56652.67
541.79	56519.26
541.96	56652.67
542.13	56662.03
542.30	56872.68
542.47	56772.03
542.63	57125.46
542.80	56875.02
542.97	57062.26
543.14	57301.00
543.31	57148.86
543.48	57399.30
543.64	57443.77
543.81	57296.31
543.98	57249.50
544.15	57340.78
544.32	57542.07
544.48	57682.50
544.65	57275.25
544.82	57425.04
544.99	57443.77
545.16	57776.12
545.32	57612.29
545.49	57900.17
545.66	57701.23
545.83	57560.79
546.00	57755.06
546.16	57745.70
546.33	57666.12
546.50	57528.03
546.67	57879.11
546.83	57488.24
547.00	57792.51
547.17	57900.17
547.34	57989.11
547.50	57972.73
547.67	58096.78
547.84	58159.97
548.00	58213.80
548.17	58141.25
548.34	58080.39
548.51	58171.67
548.67	58377.64
548.84	58211.46
549.01	58284.02
549.18	58209.12
549.34	58061.67
549.51	58445.52
549.68	58562.54
549.84	58419.77
550.01	58461.90
550.18	58225.51
550.34	58707.66
550.51	58405.73
550.68	58497.01
550.84	58387.00
551.01	58658.51
551.18	58646.80
551.34	58532.12
551.51	58705.32
551.68	58712.34
551.84	58724.04
552.01	58632.76
552.18	58541.48
552.34	58511.05
552.51	58794.26
552.68	58665.53
552.84	58756.81
553.01	58965.12
553.18	58927.67
553.34	58827.02
553.51	58930.01
553.67	58937.03
553.84	58983.84
554.01	59086.82
554.17	59002.56
554.34	58983.84
554.51	59054.06
554.67	59192.15
554.84	59091.51
555.00	59040.01
555.17	59051.72
555.33	59341.94
555.50	59208.53
555.67	58983.84
555.83	59393.43
556.00	59285.77
556.16	59510.46
556.33	59306.83
556.50	59278.75
556.66	59388.75
556.83	59175.76
556.99	59557.27
557.16	59735.15
557.32	59714.09
557.49	59611.10
557.65	59454.29
557.82	59419.18
557.98	59316.20
558.15	59185.13
558.32	59428.54
558.48	59470.67
558.65	59477.69
558.81	59512.80
558.98	59688.34
559.14	59487.06
559.31	59707.07
559.47	59763.24
559.64	59700.04
559.80	59950.48
559.97	59613.44
560.13	59791.33
560.30	59901.33
560.46	59779.62
560.63	59915.37
560.79	59847.50
560.96	59929.42
561.12	60107.30
561.29	59866.22
561.45	59973.89
561.61	59821.75
561.78	59999.63
561.94	59910.69
562.11	59896.65
562.27	59873.24
562.44	59964.52
562.60	60034.74
562.77	60074.53
562.93	59868.56
563.10	60016.02
563.26	59868.56
563.42	60168.15
563.59	59976.23
563.75	59800.69
563.92	60123.68
564.08	60217.30
564.24	60156.45
564.41	60016.02
564.57	60238.37
564.74	60133.04
564.90	60257.09
565.07	59994.95
565.23	60346.03
565.39	60142.41
565.56	60196.24
565.72	60161.13
565.88	60406.89
566.05	60093.25
566.21	60268.79
566.38	60390.50
566.54	60317.95
566.70	60474.76
566.87	60285.18
567.03	60217.30
567.19	60671.37
567.36	60374.12
567.52	60488.80
567.68	60580.09
567.85	60479.44
568.01	60570.72
568.17	60420.93
568.34	60664.35
568.50	60376.46
568.66	60392.84
568.83	60486.46
568.99	60339.01
569.15	60498.17
569.32	60526.25
569.48	60547.32
569.64	60540.30
569.81	60570.72
569.97	60491.15
570.13	60505.19
570.30	60385.82
570.46	60589.45
570.62	60566.04
570.78	60535.62
570.95	60652.64
571.11	60699.45
571.27	60568.38
571.43	60369.44
571.60	60701.79
571.76	60640.94
571.92	60715.84
572.09	60708.82
572.25	60664.35
572.41	60652.64
572.57	60502.85
572.74	61029.47
572.90	60631.58
573.06	60537.96
573.22	60802.44
573.38	60683.07
573.55	60493.49
573.71	60987.34
573.87	60638.60
574.03	60556.68
574.20	60673.71
574.36	60720.52
574.52	60839.89
574.68	60889.04
574.84	61001.38
575.01	60797.76
575.17	60893.72
575.33	60818.82
575.49	60736.90
575.65	60865.63
575.82	61057.56
575.98	60921.80
576.14	60961.59
576.30	60842.23
576.46	60699.45
576.62	60842.23
576.79	60739.24
576.95	60638.60
577.11	60945.21
577.27	60816.48
577.43	61020.11
577.59	60818.82
577.75	60790.73
577.92	60659.66
578.08	60732.22
578.24	60835.20
578.40	61104.37
578.56	60938.19
578.72	60844.57
578.88	61031.81
579.04	61127.77
579.21	60933.51
579.37	61006.06
579.53	61055.21
579.69	60858.61
579.85	60858.61
580.01	61027.13
580.17	60760.31
580.33	61062.24
580.49	60977.98
580.65	60867.97
580.82	60879.67
580.98	60917.12
581.14	60928.83
581.30	60931.17
581.46	60896.06
581.62	60938.19
581.78	60874.99
581.94	61132.45
582.10	61071.60
582.26	61137.13
582.42	60680.73
582.58	61057.56
582.74	61022.45
582.90	61118.41
583.06	60996.70
583.22	60781.37
583.38	60966.27
583.54	61031.81
583.70	61050.53
583.86	61106.71
584.02	60832.86
584.18	61020.11
584.34	61017.77
584.50	61083.30
584.66	61087.98
584.82	60776.69
584.98	61106.71
585.14	61265.86
585.30	61006.06
585.46	61130.11
585.62	60977.98
585.78	61336.08
585.94	60982.66
586.10	61045.85
586.26	61106.71
586.42	61038.83
586.58	61212.03
586.74	60919.46
586.90	61062.24
587.06	61207.35
587.22	61202.67
587.38	61092.66
587.54	61326.72
587.70	61345.44
587.86	61291.61
588.02	61104.37
588.18	61214.37
588.34	61036.49
588.49	61158.20
