SpectraSuite Data File
++++++++++++++++++++++++++++++++++++
Date: Fri Oct 25 11:25:55 EDT 2013
User: price-jones
Dark Spectrum Present: No
Reference Spectrum Present: No
Number of Sampled Component Spectra: 1
Spectrometers: USB2+H05261
Integration Time (usec): 100000 (USB2+H05261)
Spectra Averaged: 1 (USB2+H05261)
Boxcar Smoothing: 0 (USB2+H05261)
Correct for Electrical Dark: No (USB2+H05261)
Strobe/Lamp Enabled: No (USB2+H05261)
Correct for Detector Non-linearity: No (USB2+H05261)
Correct for Stray Light: No (USB2+H05261)
Number of Pixels in Processed Spectrum: 2048
>>>>>Begin Processed Spectral Data<<<<<
365.73	271.50
365.92	271.50
366.12	271.50
366.32	100.64
366.52	142.77
366.72	175.54
366.91	110.01
367.11	91.28
367.31	91.28
367.51	154.48
367.70	133.41
367.90	142.77
368.10	91.28
368.30	147.45
368.49	131.07
368.69	114.69
368.89	166.18
369.09	187.24
369.28	142.77
369.48	156.82
369.68	112.35
369.87	234.05
370.07	222.35
370.27	290.23
370.47	301.93
370.66	592.16
370.86	620.24
371.06	732.59
371.25	674.07
371.45	624.92
371.65	655.35
371.84	683.44
372.04	706.84
372.24	770.04
372.44	753.65
372.63	671.73
372.83	765.36
373.03	695.14
373.22	702.16
373.42	763.01
373.62	774.72
373.81	884.72
374.01	821.53
374.21	875.36
374.40	760.67
374.60	807.48
374.79	880.04
374.99	861.32
375.19	873.02
375.38	901.11
375.58	866.00
375.78	915.15
375.97	844.93
376.17	954.94
376.37	863.66
376.56	744.29
376.76	821.53
376.95	896.43
377.15	814.51
377.35	856.64
377.54	943.24
377.74	931.53
377.93	999.41
378.13	830.89
378.33	1008.77
378.52	952.60
378.72	936.21
378.91	908.13
379.11	912.81
379.31	880.04
379.50	961.96
379.70	966.64
379.89	1107.07
380.09	966.64
380.28	985.37
380.48	968.98
380.68	992.39
380.87	1011.11
381.07	1015.79
381.26	999.41
381.46	1067.28
381.65	1057.92
381.85	1137.50
382.04	1076.65
382.24	1050.90
382.43	1060.26
382.63	999.41
382.83	1158.57
383.02	1071.97
383.22	1081.33
383.41	1032.18
383.61	1097.71
383.80	1125.80
384.00	1151.54
384.19	1086.01
384.39	1137.50
384.58	1125.80
384.78	1167.93
384.97	1196.01
385.17	1165.59
385.36	1203.04
385.56	1196.01
385.75	1207.72
385.95	1219.42
386.14	1273.25
386.34	1252.19
386.53	1261.55
386.72	1256.87
386.92	1188.99
387.11	1181.97
387.31	1296.66
387.50	1198.35
387.70	1249.85
387.89	1214.74
388.09	1359.85
388.28	1231.12
388.48	1291.98
388.67	1284.95
388.86	1303.68
389.06	1296.66
389.25	1308.36
389.45	1420.71
389.64	1359.85
389.84	1411.34
390.03	1338.79
390.22	1406.66
390.42	1420.71
390.61	1308.36
390.81	1334.11
391.00	1427.73
391.19	1420.71
391.39	1486.24
391.58	1427.73
391.78	1343.47
391.97	1366.87
392.16	1502.62
392.36	1528.37
392.55	1575.18
392.75	1586.88
392.94	1507.30
393.13	1533.05
393.33	1511.99
393.52	1488.58
393.71	1589.22
393.91	1556.46
394.10	1614.97
394.29	1621.99
394.49	1607.95
394.68	1680.50
394.88	1673.48
395.07	1694.55
395.26	1673.48
395.46	1685.19
395.65	1708.59
395.84	1762.42
396.04	1753.06
396.23	1736.68
396.42	1746.04
396.62	1645.40
396.81	1778.81
397.00	1652.42
397.19	1741.36
397.39	1844.34
397.58	1900.52
397.77	1799.87
397.97	1947.33
398.16	1860.73
398.35	2003.50
398.55	1774.13
398.74	1905.20
398.93	1867.75
399.12	1916.90
399.32	1886.47
399.51	1923.92
399.70	2085.42
399.90	1961.37
400.09	2024.56
400.28	2005.84
400.47	2047.97
400.67	2040.95
400.86	2094.78
401.05	2080.74
401.24	2022.22
401.44	2153.29
401.63	2108.82
401.82	2235.21
402.01	2143.93
402.21	2188.40
402.40	2153.29
402.59	2125.21
402.78	2160.31
402.97	2092.44
403.17	2174.36
403.36	2134.57
403.55	2237.55
403.74	2291.38
403.93	2300.75
404.13	2385.01
404.32	2389.69
404.51	2375.64
404.70	2349.90
404.89	2417.77
405.09	2511.39
405.28	2452.88
405.47	2354.58
405.66	2415.43
405.85	2457.56
406.05	2487.99
406.24	2551.18
406.43	2684.59
406.62	2647.15
406.81	2715.02
407.00	2565.23
407.20	2605.02
407.39	2609.70
407.58	2705.66
407.77	2871.84
407.96	2703.32
408.15	2722.04
408.34	2590.97
408.54	2782.90
408.73	2768.85
408.92	2745.45
409.11	2871.84
409.30	2949.08
409.49	2853.11
409.68	3033.33
409.87	2963.12
410.07	2998.23
410.26	2986.52
410.45	3007.59
410.64	3052.06
410.83	3059.08
411.02	3035.67
411.21	3194.83
411.40	3150.36
411.59	3159.72
411.78	3206.53
411.98	3241.64
412.17	3150.36
412.36	3290.79
412.55	3361.01
412.74	3506.12
412.93	3398.46
413.12	3246.32
413.31	3564.64
413.50	3368.03
413.69	3393.78
413.88	3616.13
414.07	3531.87
414.26	3712.09
414.45	3623.15
414.64	3630.17
414.83	3749.54
415.02	3737.84
415.22	3801.03
415.41	3864.22
415.60	4014.02
415.79	3782.31
415.98	3990.61
416.17	3882.95
416.36	3936.78
416.55	4009.34
416.74	4058.49
416.93	4065.51
417.12	4102.96
417.31	4257.43
417.50	4133.39
417.69	4339.35
417.88	4203.60
418.07	4266.80
418.26	4395.53
418.45	4255.09
418.64	4477.44
418.83	4451.70
419.02	4454.04
419.21	4372.12
419.39	4531.28
419.58	4547.66
419.77	4496.17
419.96	4678.73
420.15	4578.09
420.34	4627.24
420.53	4531.28
420.72	4620.22
420.91	4758.31
421.10	4681.07
421.29	4809.80
421.48	4692.77
421.67	4762.99
421.86	4688.09
422.05	4676.39
422.24	4788.74
422.43	4851.93
422.61	4915.12
422.80	5032.15
422.99	4910.44
423.18	5046.20
423.37	4964.28
423.56	4994.70
423.75	4919.81
423.94	4800.44
424.13	4610.86
424.32	4833.21
424.50	4884.70
424.69	5125.77
424.88	4947.89
425.07	5008.75
425.26	4908.10
425.45	4966.62
425.64	4938.53
425.83	5013.43
426.01	5011.09
426.20	5097.69
426.39	5095.35
426.58	5053.22
426.77	4861.29
426.96	5198.33
427.15	5085.98
427.33	5238.12
427.52	5172.58
427.71	5181.95
427.90	5247.48
428.09	5343.44
428.28	5303.65
428.46	5371.53
428.65	5268.55
428.84	5451.11
429.03	5476.85
429.22	5313.02
429.40	5603.24
429.59	5338.76
429.78	5413.66
429.97	5341.10
430.16	5430.04
430.34	5425.36
430.53	5675.80
430.72	5586.86
430.91	5577.50
431.10	5624.31
431.28	5818.57
431.47	5771.76
431.66	5893.47
431.85	5734.31
432.03	5977.73
432.22	6054.97
432.41	5888.79
432.60	5947.30
432.79	5940.28
432.97	6078.37
433.16	6113.48
433.35	5944.96
433.54	6029.22
433.72	6225.82
433.91	6047.94
434.10	6200.08
434.28	6010.50
434.47	6174.33
434.66	6157.95
434.85	6410.73
435.03	6300.72
435.22	6235.19
435.41	6387.32
435.59	6310.08
435.78	6342.85
435.97	6520.73
436.16	6422.43
436.34	6422.43
436.53	6520.73
436.72	6565.20
436.90	6628.40
437.09	6710.32
437.28	6530.09
437.46	6546.48
437.65	6698.61
437.84	6857.77
438.02	6745.42
438.21	6747.76
438.40	6651.80
438.58	6864.79
438.77	6956.07
438.96	7171.40
439.14	7122.25
439.33	7206.51
439.52	7346.94
439.70	7349.28
439.89	7358.64
440.08	7185.44
440.26	7258.00
440.45	7335.24
440.63	7627.81
440.82	7599.72
441.01	7473.33
441.19	7557.59
441.38	7726.11
441.57	7845.48
441.75	7857.18
441.94	7978.89
442.12	8060.80
442.31	8184.85
442.50	7946.12
442.68	8004.63
442.87	8121.66
443.05	8187.19
443.24	8229.32
443.43	8074.85
443.61	8215.28
443.80	8341.67
443.98	8102.93
444.17	7915.69
444.35	8496.14
444.54	8454.02
444.73	8428.27
444.91	8299.54
445.10	8329.97
445.28	8444.65
445.47	8198.90
445.65	8397.84
445.84	8437.63
446.02	8397.84
446.21	8461.04
446.39	8257.41
446.58	8346.35
446.77	8388.48
446.95	8098.25
447.14	8484.44
447.32	8526.57
447.51	8472.74
447.69	8564.02
447.88	8557.00
448.06	8521.89
448.25	8519.55
448.43	8624.87
448.62	8610.83
448.80	8505.51
448.99	8683.39
449.17	8559.34
449.36	8552.32
449.54	8828.50
449.73	9034.47
449.91	8945.53
450.10	8875.31
450.28	8727.86
450.46	9132.77
450.65	9151.49
450.83	9032.13
451.02	9062.55
451.20	9018.08
451.39	9121.07
451.57	9247.46
451.76	8938.51
451.94	9153.84
452.13	9303.63
452.31	9359.80
452.49	9191.28
452.68	9338.74
452.86	9275.54
453.05	9432.36
453.23	9500.23
453.42	9310.65
453.60	9430.02
453.78	9640.67
453.97	9554.07
454.15	9687.48
454.34	9518.96
454.52	9664.07
454.70	9790.46
454.89	9841.95
455.07	9619.60
455.26	9774.08
455.44	10059.62
455.62	9856.00
455.81	9877.06
455.99	9858.34
456.17	10043.24
456.36	10064.30
456.54	10143.88
456.73	10312.40
456.91	10438.79
457.09	10448.15
457.28	10490.28
457.46	10300.70
457.64	10438.79
457.83	10604.97
458.01	10384.96
458.19	10572.20
458.38	10471.56
458.56	10834.34
458.74	10572.20
458.93	10803.91
459.11	10773.49
459.29	10801.57
459.48	10733.70
459.66	10738.38
459.84	10693.91
460.03	11082.44
460.21	10998.18
460.39	10780.51
460.57	11140.95
460.76	11133.93
460.94	11133.93
461.12	11222.87
461.31	11353.94
461.49	11159.67
461.67	11253.30
461.85	11604.38
462.04	11225.21
462.22	11882.90
462.40	11728.42
462.59	11655.87
462.77	11566.93
462.95	11641.82
463.13	11644.17
463.32	11756.51
463.50	11524.80
463.68	11735.45
463.86	11602.04
464.05	11566.93
464.23	11503.73
464.41	12074.82
464.59	11590.33
464.78	12236.32
464.96	11662.89
465.14	11850.13
465.32	11995.25
465.50	12311.22
465.69	12102.91
465.87	12264.41
466.05	11983.54
466.23	12077.16
466.41	12166.10
466.60	12418.88
466.78	12109.93
466.96	12159.08
467.14	12297.17
467.32	12512.50
467.51	12493.78
467.69	12107.59
467.87	12269.09
468.05	12608.47
468.23	12374.41
468.41	12226.96
468.60	12496.12
468.78	12594.42
468.96	12760.60
469.14	12931.46
469.32	12872.95
469.50	12767.62
469.69	12940.82
469.87	13128.06
470.05	13200.62
470.23	13160.83
470.41	13048.49
470.59	13240.41
470.77	13090.62
470.95	13366.80
471.14	13427.65
471.32	13153.81
471.50	13486.17
471.68	13650.00
471.86	13706.18
472.04	13642.98
472.22	13902.78
472.40	13525.96
472.58	13870.01
472.77	14146.20
472.95	13858.31
473.13	14438.76
473.31	14029.17
473.49	14162.58
473.67	13935.55
473.85	14464.51
474.03	14633.03
474.21	14714.95
474.39	14595.58
474.57	14817.93
474.75	14600.26
474.93	14972.41
475.12	15030.92
475.30	15201.78
475.48	14857.72
475.66	15367.96
475.84	15150.29
476.02	15374.98
476.20	15246.25
476.38	15377.32
476.56	16126.29
476.74	15999.90
476.92	15889.90
477.10	15707.34
477.28	15857.13
477.46	16397.79
477.64	16149.70
477.82	16613.12
478.00	16889.31
478.18	16706.74
478.36	16861.22
478.54	17116.34
478.72	16877.60
478.90	17486.14
479.08	17455.72
479.26	17848.93
479.44	17549.34
479.62	17977.65
479.80	17900.42
479.98	18097.02
480.16	18593.22
480.34	18265.54
480.52	18401.29
480.70	18310.01
480.88	18462.15
481.06	18794.50
481.24	18836.63
481.41	19225.16
481.59	19330.48
481.77	19276.65
481.95	19234.52
482.13	19953.07
482.31	19807.95
482.49	20425.86
482.67	20304.15
482.85	20327.55
483.03	20477.35
483.21	20837.79
483.39	20879.92
483.57	20938.43
483.74	21109.29
483.92	20989.92
484.10	21254.40
484.28	21769.32
484.46	22017.42
484.64	22204.66
484.82	21949.54
485.00	22473.82
485.18	22532.34
485.35	22768.73
485.53	22794.48
485.71	22897.46
485.89	23419.40
486.07	23360.89
486.25	23473.23
486.43	23267.27
486.61	23901.55
486.78	23964.75
486.96	23885.17
487.14	24720.74
487.32	24276.04
487.50	24783.93
487.68	24364.98
487.85	25198.21
488.03	25486.09
488.21	25909.73
488.39	25986.97
488.57	25944.84
488.75	26122.72
488.92	26211.66
489.10	26600.19
489.28	26705.51
489.46	27087.02
489.64	26691.47
489.81	27770.46
489.99	28016.21
490.17	27964.72
490.35	28205.80
490.53	27674.49
490.70	28687.95
490.88	28189.41
491.06	28793.27
491.24	28648.16
491.41	29060.09
491.59	29008.60
491.77	29350.32
491.95	29839.49
492.13	29504.79
492.30	30031.41
492.48	30019.71
492.66	30160.14
492.84	30232.70
493.01	30595.48
493.19	30607.19
493.37	30820.17
493.54	31161.89
493.72	31185.30
493.90	31297.64
494.08	31758.73
494.25	32353.23
494.43	31882.78
494.61	32528.77
494.79	32556.85
494.96	32606.00
495.14	32666.86
495.32	33127.94
495.49	33223.90
495.67	32926.66
495.85	33647.54
496.02	33984.58
496.20	34150.76
496.38	34178.84
496.55	34293.53
496.73	34803.77
496.91	34569.71
497.09	34876.32
497.26	34983.99
497.44	34859.94
497.62	34983.99
497.79	35686.15
497.97	35512.95
498.14	35995.10
498.32	36229.15
498.50	35969.35
498.67	36264.26
498.85	36238.51
499.03	36858.76
499.20	36685.56
499.38	36833.01
499.56	37207.50
499.73	36884.50
499.91	37542.19
500.08	37654.54
500.26	37429.85
500.44	37612.41
500.61	37727.10
500.79	38190.52
500.97	38141.37
501.14	38642.24
501.32	38342.66
501.49	37855.82
501.67	38789.70
501.84	38801.40
502.02	38731.18
502.20	39126.74
502.37	39318.66
502.55	38677.35
502.72	39379.51
502.90	39302.28
503.07	39405.26
503.25	39814.85
503.43	39454.41
503.60	39456.75
503.78	39959.97
503.95	40484.25
504.13	40495.95
504.30	40959.38
504.48	40161.25
504.65	40381.26
504.83	41144.28
505.01	41429.82
505.18	41530.47
505.36	41626.43
505.53	41188.75
505.71	41287.05
505.88	41312.80
506.06	41357.27
506.23	41853.46
506.41	41649.83
506.58	42281.78
506.76	41808.99
506.93	42621.16
507.11	42375.40
507.28	42642.22
507.46	42462.00
507.63	42913.72
507.81	43210.97
507.98	42866.91
508.16	43395.87
508.33	43562.05
508.50	43360.76
508.68	43538.65
508.85	43901.43
509.03	43627.59
509.20	43758.66
509.38	44481.88
509.55	44570.82
509.73	44198.68
509.90	44446.77
510.08	44430.39
510.25	44659.76
510.42	44612.95
510.60	45301.07
510.77	45268.30
510.95	45488.31
511.12	44666.78
511.30	45144.25
511.47	45399.37
511.64	45319.79
511.82	45635.77
511.99	45682.58
512.17	46031.32
512.34	45790.24
512.51	46553.26
512.69	46057.06
512.86	46021.95
513.04	46639.86
513.21	46920.72
513.38	46689.01
513.56	47028.38
513.73	46494.74
513.90	47019.02
514.08	46885.61
514.25	47168.82
514.43	47222.65
514.60	47370.10
514.77	47227.33
514.95	47686.07
515.12	47552.66
515.29	47475.43
515.47	48072.26
515.64	48296.95
515.81	47863.96
515.99	48074.60
516.16	47948.21
516.33	48233.76
516.51	48399.94
516.68	48374.19
516.85	48311.00
517.03	48802.51
517.20	48765.06
517.37	48769.74
517.54	48673.78
517.72	49020.18
517.89	49062.31
518.06	49123.16
518.24	49333.81
518.41	49045.93
518.58	49169.97
518.75	49359.56
518.93	49617.02
519.10	49254.23
519.27	50033.63
519.45	49715.32
519.62	49834.69
519.79	49944.69
519.96	49888.52
520.14	50127.25
520.31	49626.38
520.48	50138.96
520.65	50452.59
520.83	50677.28
521.00	50384.71
521.17	50464.29
521.34	50639.83
521.52	50508.76
521.69	50810.69
521.86	50951.12
522.03	51285.82
522.20	51433.27
522.38	51601.79
522.55	51070.49
522.72	50871.54
522.89	51068.15
523.07	51470.72
523.24	51697.75
523.41	52032.45
523.58	51257.73
523.75	52016.07
523.92	51821.80
524.10	51903.72
524.27	52102.67
524.44	52322.68
524.61	52137.77
524.78	51819.46
524.96	51887.34
525.13	51985.64
525.30	52484.17
525.47	52559.07
525.64	52313.31
525.81	52530.98
525.98	52797.80
526.16	52413.96
526.33	52640.99
526.50	52662.05
526.67	52610.56
526.84	52568.43
527.01	52739.29
527.18	52830.57
527.36	52835.25
527.53	53013.13
527.70	53354.85
527.87	53345.49
528.04	53139.52
528.21	53488.26
528.38	53158.25
528.55	53769.13
528.72	53654.44
528.89	53415.71
529.07	53216.76
529.24	53364.21
529.41	53743.38
529.58	53750.40
529.75	53804.24
529.92	53605.29
530.09	53666.14
530.26	53851.05
530.43	53965.73
530.60	53439.11
530.77	53773.81
530.94	54019.56
531.11	54117.87
531.28	53942.33
531.46	53757.42
531.63	54260.64
531.80	54129.57
531.97	54358.94
532.14	54712.36
532.31	54279.36
532.48	54459.58
532.65	54422.14
532.82	54265.32
532.99	54497.03
533.16	54501.71
533.33	54679.60
533.50	55159.41
533.67	54576.61
533.84	54777.90
534.01	54901.95
534.18	54913.65
534.35	55388.78
534.52	55096.21
534.69	55196.85
534.86	55365.37
535.03	55037.70
535.20	55281.11
535.37	55585.38
535.54	55309.20
535.71	55302.18
535.88	55414.52
536.05	55653.26
536.22	55786.67
536.38	55370.05
536.55	55463.67
536.72	55515.17
536.89	55456.65
537.06	55477.72
537.23	55744.54
537.40	55288.13
537.57	55742.20
537.74	55781.99
537.91	55826.46
538.08	55863.91
538.25	55611.13
538.42	55917.74
538.59	56151.79
538.75	55737.52
538.92	55913.06
539.09	56081.58
539.26	55987.95
539.43	55980.93
539.60	55950.51
539.77	56233.71
539.94	56451.38
540.11	56364.78
540.28	56287.54
540.44	56310.95
540.61	56322.65
540.78	56238.39
540.95	56254.78
541.12	56320.31
541.29	56198.60
541.46	56528.62
541.62	56650.33
541.79	56563.73
541.96	56374.14
542.13	56556.70
542.30	56561.39
542.47	56877.36
542.63	56832.89
542.80	56942.89
542.97	57073.96
543.14	57258.87
543.31	57130.14
543.48	57357.17
543.64	57476.54
543.81	57446.11
543.98	57237.80
544.15	57160.56
544.32	57102.05
544.48	57483.56
544.65	57254.18
544.82	57249.50
544.99	57291.63
545.16	57570.16
545.32	57598.24
545.49	57703.57
545.66	57975.07
545.83	57619.31
546.00	57680.16
546.16	57663.78
546.33	57574.84
546.50	57249.50
546.67	57726.97
546.83	57382.91
547.00	57801.87
547.17	57549.09
547.34	57801.87
547.50	57682.50
547.67	58106.14
547.84	58085.07
548.00	57928.26
548.17	58197.42
548.34	57991.45
548.51	58454.88
548.67	58281.68
548.84	58052.31
549.01	57956.35
549.18	58181.04
549.34	58265.30
549.51	58134.23
549.68	58396.37
549.84	58347.21
550.01	58319.13
550.18	58230.19
550.34	58302.74
550.51	58284.02
550.68	58227.85
550.84	58274.66
551.01	58501.69
551.18	58471.26
551.34	58492.33
551.51	58541.48
551.68	58672.55
551.84	58480.63
552.01	58405.73
552.18	58475.94
552.34	58370.62
552.51	58784.90
552.68	58443.18
552.84	58602.33
553.01	58883.20
553.18	58777.87
553.34	58946.39
553.51	58714.68
553.67	58695.95
553.84	58913.62
554.01	58660.85
554.17	58876.18
554.34	59145.34
554.51	58993.20
554.67	58890.22
554.84	58894.90
555.00	58871.49
555.17	58990.86
555.33	59007.25
555.50	58798.94
555.67	58850.43
555.83	58990.86
556.00	58972.14
556.16	59367.69
556.33	59173.42
556.50	59061.08
556.66	59353.65
556.83	59250.66
556.99	59400.46
557.16	59435.56
557.32	59524.50
557.49	59515.14
557.65	59388.75
557.82	59334.92
557.98	59337.26
558.15	59444.93
558.32	59522.16
558.48	59353.65
558.65	59271.73
558.81	59737.49
558.98	59601.74
559.14	59590.04
559.31	59835.80
559.47	59611.10
559.64	59636.85
559.80	59676.64
559.97	59709.41
560.13	59559.61
560.30	59681.32
560.46	59763.24
560.63	59601.74
560.79	59594.72
560.96	59959.84
561.12	59819.41
561.29	59767.92
561.45	59814.73
561.61	59784.30
561.78	59824.09
561.94	59739.83
562.11	59688.34
562.27	59800.69
562.44	59964.52
562.60	59910.69
562.77	59962.18
562.93	59901.33
563.10	60041.76
563.26	59779.62
563.42	60037.08
563.59	59948.14
563.75	60016.02
563.92	60048.78
564.08	59994.95
564.24	60037.08
564.41	59976.23
564.57	60102.62
564.74	59997.29
564.90	60048.78
565.07	60041.76
565.23	60044.10
565.39	60137.72
565.56	60266.45
565.72	60142.41
565.88	60058.15
566.05	60041.76
566.21	60231.35
566.38	60245.39
566.54	60221.98
566.70	60484.12
566.87	60144.75
567.03	60170.49
567.19	60362.42
567.36	60247.73
567.52	60446.68
567.68	60458.38
567.85	60264.11
568.01	60374.12
568.17	60423.27
568.34	60369.44
568.50	60107.30
568.66	60205.60
568.83	60317.95
568.99	60324.97
569.15	60165.81
569.32	60390.50
569.48	60409.23
569.64	60617.53
569.81	60505.19
569.97	60371.78
570.13	60500.51
570.30	60385.82
570.46	60406.89
570.62	60680.73
570.78	60310.92
570.95	60397.52
571.11	60451.36
571.27	60509.87
571.43	60432.63
571.60	60725.20
571.76	60430.29
571.92	60568.38
572.09	60575.40
572.25	60554.34
572.41	60418.59
572.57	60477.10
572.74	60764.99
572.90	60603.49
573.06	60437.31
573.22	60734.56
573.38	60704.13
573.55	60622.22
573.71	60715.84
573.87	60605.83
574.03	60289.86
574.20	60451.36
574.36	60575.40
574.52	60640.94
574.68	60643.28
574.84	60762.65
575.01	60790.73
575.17	60591.79
575.33	60652.64
575.49	60603.49
575.65	60547.32
575.82	60844.57
575.98	60666.69
576.14	60999.04
576.30	60818.82
576.46	60659.66
576.62	60570.72
576.79	60584.77
576.95	60807.12
577.11	60720.52
577.27	60729.88
577.43	60640.94
577.59	60615.19
577.75	60748.60
577.92	60678.39
578.08	60802.44
578.24	60851.59
578.40	61139.47
578.56	61113.73
578.72	60729.88
578.88	60905.42
579.04	60961.59
579.21	61006.06
579.37	61160.54
579.53	61144.16
579.69	60718.18
579.85	60713.50
580.01	60685.41
580.17	60839.89
580.33	61006.06
580.49	60992.02
580.65	60910.10
580.82	60844.57
580.98	60987.34
581.14	60959.25
581.30	61106.71
581.46	60891.38
581.62	60907.76
581.78	60748.60
581.94	60949.89
582.10	60774.35
582.26	60879.67
582.42	60800.10
582.58	60818.82
582.74	60828.18
582.90	60870.31
583.06	60980.32
583.22	60814.14
583.38	60858.61
583.54	60720.52
583.70	60928.83
583.86	60912.44
584.02	60863.29
584.18	61066.92
584.34	60870.31
584.50	60954.57
584.66	60727.54
584.82	60711.16
584.98	61080.96
585.14	61083.30
585.30	61006.06
585.46	61013.08
585.62	60842.23
585.78	61169.90
585.94	60687.75
586.10	61186.28
586.26	60952.23
586.42	60917.12
586.58	61043.51
586.74	61055.21
586.90	60898.40
587.06	60954.57
587.22	61052.87
587.38	61118.41
587.54	61123.09
587.70	61155.86
587.86	61212.03
588.02	60839.89
588.18	61183.94
588.34	61057.56
588.49	60842.23
