SpectraSuite Data File
++++++++++++++++++++++++++++++++++++
Date: Fri Oct 25 11:23:21 EDT 2013
User: price-jones
Dark Spectrum Present: No
Reference Spectrum Present: No
Number of Sampled Component Spectra: 1
Spectrometers: USB2+H05261
Integration Time (usec): 100000 (USB2+H05261)
Spectra Averaged: 1 (USB2+H05261)
Boxcar Smoothing: 0 (USB2+H05261)
Correct for Electrical Dark: No (USB2+H05261)
Strobe/Lamp Enabled: No (USB2+H05261)
Correct for Detector Non-linearity: No (USB2+H05261)
Correct for Stray Light: No (USB2+H05261)
Number of Pixels in Processed Spectrum: 2048
>>>>>Begin Processed Spectral Data<<<<<
365.73	196.60
365.92	196.60
366.12	196.60
366.32	142.77
366.52	105.32
366.72	124.05
366.91	44.47
367.11	138.09
367.31	124.05
367.51	140.43
367.70	107.66
367.90	159.16
368.10	88.94
368.30	177.88
368.49	79.58
368.69	100.64
368.89	152.13
369.09	159.16
369.28	149.79
369.48	145.11
369.68	180.22
369.87	229.37
370.07	184.90
370.27	257.46
370.47	283.20
370.66	561.73
370.86	603.86
371.06	641.31
371.25	678.76
371.45	664.71
371.65	695.14
371.84	662.37
372.04	650.67
372.24	678.76
372.44	732.59
372.63	692.80
372.83	814.51
373.03	765.36
373.22	690.46
373.42	772.38
373.62	751.31
373.81	739.61
374.01	851.96
374.21	770.04
374.40	800.46
374.60	929.19
374.79	833.23
374.99	798.12
375.19	828.55
375.38	870.68
375.58	875.36
375.78	875.36
375.97	842.59
376.17	1001.75
376.37	884.72
376.56	873.02
376.76	940.90
376.95	903.45
377.15	933.87
377.35	866.00
377.54	954.94
377.74	844.93
377.93	940.90
378.13	936.21
378.33	1008.77
378.52	903.45
378.72	1006.43
378.91	959.62
379.11	868.34
379.31	912.81
379.50	1011.11
379.70	980.68
379.89	1048.56
380.09	999.41
380.28	926.85
380.48	950.26
380.68	936.21
380.87	1008.77
381.07	990.05
381.26	1100.05
381.46	1137.50
381.65	1043.88
381.85	1109.41
382.04	1128.14
382.24	1001.75
382.43	1032.18
382.63	1039.20
382.83	1050.90
383.02	1046.22
383.22	1083.67
383.41	1142.18
383.61	1090.69
383.80	1146.86
384.00	1139.84
384.19	1153.88
384.39	1123.46
384.58	1174.95
384.78	1078.99
384.97	1196.01
385.17	1167.93
385.36	1142.18
385.56	1186.65
385.75	1123.46
385.95	1128.14
386.14	1207.72
386.34	1198.35
386.53	1266.23
386.72	1282.61
386.92	1160.91
387.11	1107.07
387.31	1296.66
387.50	1196.01
387.70	1226.44
387.89	1299.00
388.09	1233.46
388.28	1303.68
388.48	1315.38
388.67	1212.40
388.86	1322.40
389.06	1315.38
389.25	1303.68
389.45	1338.79
389.64	1313.04
389.84	1373.89
390.03	1355.17
390.22	1425.39
390.42	1390.28
390.61	1432.41
390.81	1458.15
391.00	1331.76
391.19	1439.43
391.39	1502.62
391.58	1416.02
391.78	1446.45
391.97	1516.67
392.16	1455.81
392.36	1507.30
392.55	1500.28
392.75	1465.18
392.94	1572.84
393.13	1675.82
393.33	1535.39
393.52	1495.60
393.71	1607.95
393.91	1647.74
394.10	1563.48
394.29	1631.35
394.49	1586.88
394.68	1598.59
394.88	1624.33
395.07	1699.23
395.26	1675.82
395.46	1678.16
395.65	1741.36
395.84	1739.02
396.04	1795.19
396.23	1760.08
396.42	1689.87
396.62	1785.83
396.81	1842.00
397.00	1799.87
397.19	1757.74
397.39	1816.26
397.58	1872.43
397.77	1839.66
397.97	1877.11
398.16	1834.98
398.35	1963.71
398.55	1886.47
398.74	1879.45
398.93	2071.37
399.12	2024.56
399.32	1968.39
399.51	2001.16
399.70	2050.31
399.90	1919.24
400.09	2047.97
400.28	1998.82
400.47	2066.69
400.67	2078.40
400.86	2169.68
401.05	2120.53
401.24	2097.12
401.44	2101.80
401.63	2115.84
401.82	2195.42
402.01	2167.34
402.21	2129.89
402.40	2195.42
402.59	2174.36
402.78	2305.43
402.97	2235.21
403.17	2246.91
403.36	2338.20
403.55	2326.49
403.74	2307.77
403.93	2363.94
404.13	2520.76
404.32	2349.90
404.51	2389.69
404.70	2534.80
404.89	2431.82
405.09	2462.24
405.28	2445.86
405.47	2443.52
405.66	2534.80
405.85	2672.89
406.05	2595.65
406.24	2623.74
406.43	2693.96
406.62	2675.23
406.81	2705.66
407.00	2696.30
407.20	2654.17
407.39	2621.40
407.58	2708.00
407.77	2801.62
407.96	2740.77
408.15	2792.26
408.34	2729.06
408.54	2785.24
408.73	2754.81
408.92	2853.11
409.11	3021.63
409.30	2825.03
409.49	2904.60
409.68	3012.27
409.87	3009.93
410.07	2995.89
410.26	2951.42
410.45	3049.72
410.64	2984.18
410.83	3070.78
411.02	3201.85
411.21	3208.87
411.40	3126.96
411.59	3267.39
411.78	3206.53
411.98	3288.45
412.17	3365.69
412.36	3328.24
412.55	3386.76
412.74	3375.05
412.93	3389.10
413.12	3461.65
413.31	3623.15
413.50	3468.67
413.69	3545.91
413.88	3665.28
414.07	3644.21
414.26	3765.92
414.45	3744.86
414.64	3758.90
414.83	3730.81
415.02	3789.33
415.22	3747.20
415.41	3927.42
415.60	3922.74
415.79	3925.08
415.98	4016.36
416.17	4093.60
416.36	4030.40
416.55	4088.92
416.74	4105.30
416.93	4124.02
417.12	4203.60
417.31	4138.07
417.50	4198.92
417.69	4280.84
417.88	4344.03
418.07	4311.27
418.26	4287.86
418.45	4458.72
418.64	4465.74
418.83	4334.67
419.02	4442.34
419.21	4451.70
419.39	4484.47
419.58	4447.02
419.77	4521.92
419.96	4578.09
420.15	4648.30
420.34	4641.28
420.53	4667.03
420.72	4655.33
420.91	4933.85
421.10	4601.49
421.29	4823.84
421.48	4779.37
421.67	4767.67
421.86	4716.18
422.05	4938.53
422.24	4870.65
422.43	4985.34
422.61	4971.30
422.80	4943.21
422.99	4828.53
423.18	5029.81
423.37	4968.96
423.56	4973.64
423.75	5076.62
423.94	4926.83
424.13	4748.95
424.32	4786.40
424.50	4973.64
424.69	5055.56
424.88	5027.47
425.07	5078.96
425.26	4945.55
425.45	5050.88
425.64	5055.56
425.83	4983.00
426.01	5160.88
426.20	5263.86
426.39	5008.75
426.58	5043.85
426.77	5027.47
426.96	5221.74
427.15	5217.05
427.33	5453.45
427.52	5268.55
427.71	5207.69
427.90	5263.86
428.09	5504.94
428.28	5397.28
428.46	5362.17
428.65	5493.24
428.84	5460.47
429.03	5575.16
429.22	5437.06
429.40	5507.28
429.59	5418.34
429.78	5458.13
429.97	5305.99
430.16	5474.51
430.34	5680.48
430.53	5795.17
430.72	5640.69
430.91	5666.44
431.10	5593.88
431.28	5893.47
431.47	5858.36
431.66	5951.98
431.85	5975.39
432.03	6024.54
432.22	5984.75
432.41	5968.37
432.60	6054.97
432.79	5966.03
432.97	6139.23
433.16	6141.57
433.35	5879.43
433.54	6106.46
433.72	6134.54
433.91	6167.31
434.10	6190.72
434.28	6361.58
434.47	6373.28
434.66	6384.98
434.85	6340.51
435.03	6396.68
435.22	6359.24
435.41	6565.20
435.59	6361.58
435.78	6459.88
435.97	6410.73
436.16	6497.33
436.34	6565.20
436.53	6520.73
436.72	6703.29
436.90	6497.33
437.09	6729.04
437.28	6569.88
437.46	6710.32
437.65	6757.13
437.84	6731.38
438.02	6698.61
438.21	6913.94
438.40	6853.09
438.58	7110.55
438.77	7162.04
438.96	7133.95
439.14	7178.42
439.33	7309.49
439.52	7087.14
439.70	7234.60
439.89	7363.33
440.08	7246.30
440.26	7316.51
440.45	7524.82
440.63	7637.17
440.82	7545.89
441.01	7597.38
441.19	7644.19
441.38	7700.36
441.57	7854.84
441.75	7997.61
441.94	7992.93
442.12	8109.96
442.31	8124.00
442.50	8142.72
442.68	8046.76
442.87	8196.56
443.05	8016.33
443.24	8290.18
443.43	8287.84
443.61	8105.28
443.80	8444.65
443.98	8156.77
444.17	8095.91
444.35	8259.75
444.54	8442.31
444.73	8351.03
444.91	8430.61
445.10	8496.14
445.28	8414.23
445.47	8238.69
445.65	8390.82
445.84	8489.12
446.02	8505.51
446.21	8458.70
446.39	8423.59
446.58	8514.87
446.77	8575.72
446.95	8404.86
447.14	8613.17
447.32	8697.43
447.51	8493.80
447.69	8706.79
447.88	8578.06
448.06	8826.16
448.25	8446.99
448.43	8636.58
448.62	8627.21
448.80	8631.90
448.99	8664.66
449.17	8793.39
449.36	8582.74
449.54	9027.45
449.73	9153.84
449.91	9163.20
450.10	9001.70
450.28	9226.39
450.46	9280.22
450.65	9083.62
450.83	9123.41
451.02	9135.11
451.20	9425.34
451.39	9509.60
451.57	9249.80
451.76	9263.84
451.94	9284.91
452.13	9378.53
452.31	9423.00
452.49	9191.28
452.68	9612.58
452.86	9383.21
453.05	9533.00
453.23	9689.82
453.42	9542.36
453.60	9563.43
453.78	9935.57
453.97	9341.08
454.15	9437.04
454.34	9514.28
454.52	9547.05
454.70	9675.77
454.89	9923.87
455.07	10003.45
455.26	10012.81
455.44	10033.88
455.62	9963.66
455.81	10090.05
455.99	10146.22
456.17	10115.80
456.36	10230.48
456.54	10478.58
456.73	10333.47
456.91	10843.70
457.09	10651.78
457.28	10602.63
457.46	10373.25
457.64	10663.48
457.83	10581.56
458.01	10677.52
458.19	10998.18
458.38	10661.14
458.56	10806.25
458.74	10822.64
458.93	10913.92
459.11	10600.29
459.29	10960.73
459.48	10888.17
459.66	10665.82
459.84	10937.32
460.03	11204.14
460.21	11115.20
460.39	11140.95
460.57	11157.33
460.76	11389.05
460.94	11243.93
461.12	11372.66
461.31	11267.34
461.49	11218.19
461.67	11346.92
461.85	11569.27
462.04	11620.76
462.22	11728.42
462.40	11906.31
462.59	11562.25
462.77	11529.48
462.95	11747.15
463.13	11824.39
463.32	11868.86
463.50	11791.62
463.68	11789.28
463.86	11831.41
464.05	11864.18
464.23	11866.52
464.41	12273.77
464.59	11695.66
464.78	12166.10
464.96	12121.63
465.14	11964.82
465.32	12058.44
465.50	12159.08
465.69	12311.22
465.87	12025.67
466.05	12259.73
466.23	12170.79
466.41	12437.61
466.60	12751.24
466.78	12449.31
466.96	12175.47
467.14	12437.61
467.32	12479.74
467.51	12519.53
467.69	12386.12
467.87	12631.87
468.05	12879.97
468.23	12542.93
468.41	12805.07
468.60	12854.22
468.78	12947.84
468.96	12617.83
469.14	12879.97
469.32	13111.68
469.50	12819.11
469.69	13121.04
469.87	13041.46
470.05	13329.35
470.23	13158.49
470.41	13135.09
470.59	13724.90
470.77	13291.90
470.95	13537.66
471.14	13628.94
471.32	13280.20
471.50	13741.29
471.68	13429.99
471.86	14068.96
472.04	13820.86
472.22	14026.83
472.40	13933.21
472.58	13977.68
472.77	14085.34
472.95	14422.38
473.13	15103.48
473.31	14094.71
473.49	14396.64
473.67	14401.32
473.85	14410.68
474.03	14984.11
474.21	14743.03
474.39	14972.41
474.57	14846.02
474.75	14984.11
474.93	15300.08
475.12	15241.57
475.30	15112.84
475.48	15269.66
475.66	15356.25
475.84	15241.57
476.02	15426.47
476.20	15681.59
476.38	15964.79
476.56	16154.38
476.74	16102.89
476.92	16109.91
477.10	16025.65
477.28	16428.22
477.46	16432.90
477.64	16704.40
477.82	16559.29
478.00	17326.99
478.18	16819.09
478.36	17413.59
478.54	17348.05
478.72	17439.33
478.90	17523.59
479.08	17692.11
479.26	17839.56
479.44	18047.87
479.62	18176.60
479.80	18286.61
479.98	18106.38
480.16	19009.83
480.34	18504.28
480.52	18728.97
480.70	18860.04
480.88	18473.85
481.06	18991.11
481.24	19159.63
481.41	19239.20
481.59	19719.01
481.77	19730.72
481.95	19882.85
482.13	19976.47
482.31	20163.72
482.49	20510.11
482.67	20575.65
482.85	20643.52
483.03	20989.92
483.21	21296.53
483.39	21003.97
483.57	21001.63
483.74	21177.17
483.92	21884.01
484.10	21516.54
484.28	21834.86
484.46	22279.56
484.64	22710.22
484.82	22082.95
485.00	22630.64
485.18	22782.77
485.35	23187.69
485.53	22899.80
485.71	23164.28
485.89	23608.98
486.07	23723.67
486.25	23662.82
486.43	24196.46
486.61	24009.22
486.78	24453.92
486.96	24430.51
487.14	25085.86
487.32	24807.34
487.50	25310.55
487.68	25366.73
487.85	25472.05
488.03	25921.43
488.21	25996.33
488.39	26064.21
488.57	26239.75
488.75	26384.86
488.92	26824.88
489.10	27274.26
489.28	26885.73
489.46	27623.00
489.64	27136.17
489.81	27819.61
489.99	27704.92
490.17	28051.32
490.35	28685.61
490.53	28428.15
490.70	28498.36
490.88	28716.03
491.06	29303.51
491.24	29158.39
491.41	29305.85
491.59	29909.71
491.77	29469.69
491.95	30157.80
492.13	30412.92
492.30	30649.32
492.48	30618.89
492.66	30417.60
492.84	30693.79
493.01	31213.38
493.19	30932.52
493.37	31283.60
493.54	31578.51
493.72	31756.39
493.90	32004.49
494.08	32086.40
494.25	32247.90
494.43	32336.84
494.61	33048.36
494.79	32723.03
494.96	32830.69
495.14	33539.88
495.32	33762.23
495.49	33570.30
495.67	33694.35
495.85	34052.45
496.02	33858.19
496.20	34286.51
496.38	34206.93
496.55	34717.17
496.73	35093.99
496.91	34995.69
497.09	35292.94
497.26	35157.19
497.44	35314.00
497.62	36245.54
497.79	36203.41
497.97	35660.40
498.14	36467.89
498.32	36556.83
498.50	36556.83
498.67	36758.11
498.85	36765.14
499.03	37202.82
499.20	37242.60
499.38	37078.77
499.56	37373.67
499.73	37258.99
499.91	37668.58
500.08	38354.36
500.26	37736.46
500.44	38419.89
500.61	38375.42
500.79	37935.40
500.97	38277.12
501.14	39077.58
501.32	38902.04
501.49	38848.21
501.67	39185.25
501.84	39606.55
502.02	39697.83
502.20	39393.56
502.37	39594.84
502.55	39620.59
502.72	40065.29
502.90	39868.69
503.07	40191.68
503.25	40109.76
503.43	40179.98
503.60	40130.83
503.78	40577.87
503.95	40554.46
504.13	40774.47
504.30	41102.15
504.48	40938.31
504.65	41380.67
504.83	41675.58
505.01	41748.14
505.18	41670.90
505.36	42003.25
505.53	42033.68
505.71	42344.97
505.88	42150.71
506.06	41820.69
506.23	42417.53
506.41	42270.08
506.58	42754.57
506.76	42834.14
506.93	43147.78
507.11	42817.76
507.28	43152.46
507.46	43302.25
507.63	43540.99
507.81	43718.87
507.98	43311.61
508.16	43728.23
508.33	43868.66
508.50	43606.52
508.68	43606.52
508.85	44334.43
509.03	44406.98
509.20	44842.32
509.38	44830.62
509.55	44879.77
509.73	45155.96
509.90	45399.37
510.08	45074.04
510.25	45329.16
510.42	45368.94
510.60	45652.15
510.77	46066.42
510.95	45675.55
511.12	45720.02
511.30	45514.06
511.47	45865.14
511.64	46162.39
511.82	46738.16
511.99	45865.14
512.17	46005.57
512.34	46167.07
512.51	47044.77
512.69	47019.02
512.86	46539.21
513.04	46976.89
513.21	47122.01
513.38	46850.50
513.56	47634.58
513.73	47365.42
513.90	47660.33
514.08	47068.17
514.25	47903.74
514.43	48006.73
514.60	47885.02
514.77	47847.57
514.95	48299.30
515.12	47927.15
515.29	47849.91
515.47	48264.19
515.64	48493.56
515.81	48800.17
515.99	48741.66
516.16	48706.55
516.33	49134.87
516.51	49268.28
516.68	49081.03
516.85	49062.31
517.03	49230.83
517.20	49567.87
517.37	49345.51
517.54	49275.30
517.72	49675.53
517.89	49382.96
518.06	49797.24
518.24	49567.87
518.41	49925.97
518.58	49577.23
518.75	49778.51
518.93	49771.49
519.10	49811.28
519.27	49869.79
519.45	50356.63
519.62	50209.17
519.79	50253.64
519.96	50454.93
520.14	50429.18
520.31	50534.51
520.48	50653.87
520.65	50672.60
520.83	51112.62
521.00	51346.67
521.17	50871.54
521.34	50859.84
521.52	51077.51
521.69	51627.54
521.86	51339.65
522.03	51496.47
522.20	51578.39
522.38	51917.76
522.55	51606.47
522.72	51964.57
522.89	51580.73
523.07	51955.21
523.24	51978.62
523.41	52172.88
523.58	52037.13
523.75	52238.42
523.92	52062.88
524.10	52383.53
524.27	52577.79
524.44	52545.03
524.61	52832.91
524.78	52568.43
524.96	52762.70
525.13	52884.40
525.30	52729.93
525.47	52734.61
525.64	53132.50
525.81	53008.45
525.98	53102.07
526.16	53071.65
526.33	53111.44
526.50	53404.00
526.67	53359.53
526.84	53076.33
527.01	53113.78
527.18	53296.34
527.36	53434.43
527.53	53347.83
527.70	53804.24
527.87	53717.64
528.04	53418.05
528.21	53769.13
528.38	53832.32
528.55	54073.40
528.72	53719.98
528.89	53499.97
529.07	53729.34
529.24	53799.55
529.41	54213.83
529.58	54274.68
529.75	53982.12
529.92	54108.50
530.09	54143.61
530.26	54288.73
530.43	54337.88
530.60	54160.00
530.77	54209.15
530.94	54433.84
531.11	54417.46
531.28	54564.91
531.46	54625.76
531.63	54595.34
531.80	54356.60
531.97	54934.71
532.14	55091.53
532.31	54457.24
532.48	54955.78
532.65	54791.94
532.82	54700.66
532.99	55257.71
533.16	55040.04
533.33	55054.08
533.50	55299.84
533.67	55309.20
533.84	55229.62
534.01	55217.92
534.18	55231.96
534.35	55625.17
534.52	55040.04
534.69	55458.99
534.86	55903.70
535.03	55480.06
535.20	55533.89
535.37	55559.64
535.54	55725.81
535.71	55496.44
535.88	55877.95
536.05	55936.46
536.22	55971.57
536.38	56257.12
536.55	56062.85
536.72	55934.12
536.89	55999.66
537.06	55861.57
537.23	56140.09
537.40	56058.17
537.57	55882.63
537.74	56104.98
537.91	56182.22
538.08	56413.93
538.25	55959.87
538.42	56289.88
538.59	56360.10
538.75	56088.60
538.92	56313.29
539.09	56481.81
539.26	56519.26
539.43	56381.16
539.60	56388.19
539.77	56762.67
539.94	56804.80
540.11	56615.22
540.28	56757.99
540.44	56535.64
540.61	57015.45
540.78	56638.62
540.95	56673.73
541.12	57022.47
541.29	56481.81
541.46	56846.93
541.62	57038.86
541.79	57059.92
541.96	56765.01
542.13	56931.19
542.30	57085.67
542.47	57102.05
542.63	57088.01
542.80	57359.51
542.97	57324.40
543.14	57623.99
543.31	57441.43
543.48	57544.41
543.64	57874.43
543.81	57535.05
543.98	57694.21
544.15	57844.00
544.32	57841.66
544.48	57879.11
544.65	57532.71
544.82	57673.14
544.99	57525.69
545.16	57881.45
545.32	57729.31
545.49	57925.92
545.66	58138.91
545.83	57771.44
546.00	57876.77
546.16	57954.00
546.33	58003.16
546.50	57773.78
546.67	58049.97
546.83	57783.15
547.00	58073.37
547.17	58064.01
547.34	57991.45
547.50	58241.89
547.67	58384.66
547.84	58089.76
548.00	58464.24
548.17	58520.41
548.34	58429.13
548.51	58286.36
548.67	58653.82
548.84	58630.42
549.01	58557.86
549.18	58370.62
549.34	58585.95
549.51	58410.41
549.68	59112.57
549.84	58588.29
550.01	58728.72
550.18	58684.25
550.34	58944.05
550.51	58911.28
550.68	58836.39
550.84	58564.88
551.01	58941.71
551.18	58688.93
551.34	58831.71
551.51	58885.54
551.68	58955.75
551.84	58932.35
552.01	58740.42
552.18	59215.55
552.34	58965.12
552.51	59201.51
552.68	58745.11
552.84	59035.33
553.01	59372.37
553.18	59199.17
553.34	59121.93
553.51	58883.20
553.67	59262.36
553.84	59208.53
554.01	59220.23
554.17	59121.93
554.34	59377.05
554.51	59283.43
554.67	59388.75
554.84	59250.66
555.00	59112.57
555.17	59231.94
555.33	59379.39
555.50	59248.32
555.67	59180.45
555.83	59351.30
556.00	59255.34
556.16	59753.88
556.33	59646.21
556.50	59601.74
556.66	59592.38
556.83	59278.75
556.99	59508.12
557.16	59618.13
557.32	59777.28
557.49	59751.54
557.65	59578.34
557.82	59650.89
557.98	59641.53
558.15	59667.28
558.32	59730.47
558.48	59669.62
558.65	59796.01
558.81	59763.24
558.98	59798.35
559.14	60032.40
559.31	59920.05
559.47	59948.14
559.64	60041.76
559.80	60037.08
559.97	59943.46
560.13	60044.10
560.30	60053.47
560.46	59868.56
560.63	60126.02
560.79	59999.63
560.96	60259.43
561.12	60081.55
561.29	60214.96
561.45	60072.19
561.61	60093.25
561.78	59969.21
561.94	60067.51
562.11	59941.12
562.27	59971.55
562.44	60313.26
562.60	60334.33
562.77	60217.30
562.93	60240.71
563.10	60484.12
563.26	60097.94
563.42	60278.16
563.59	60245.39
563.75	60289.86
563.92	60507.53
564.08	60346.03
564.24	60477.10
564.41	60341.35
564.57	60402.21
564.74	60608.17
564.90	60348.37
565.07	60378.80
565.23	60491.15
565.39	60385.82
565.56	60505.19
565.72	60378.80
565.88	60500.51
566.05	60346.03
566.21	60378.80
566.38	60439.65
566.54	60296.88
566.70	60706.47
566.87	60615.19
567.03	60376.46
567.19	60800.10
567.36	60580.09
567.52	60537.96
567.68	60779.03
567.85	60701.79
568.01	60575.40
568.17	60638.60
568.34	60748.60
568.50	60547.32
568.66	60587.11
568.83	60800.10
568.99	60561.36
569.15	60708.82
569.32	60896.06
569.48	60619.88
569.64	60708.82
569.81	60781.37
569.97	60741.58
570.13	60942.87
570.30	60654.98
570.46	60734.56
570.62	60977.98
570.78	60879.67
570.95	60837.54
571.11	61029.47
571.27	60839.89
571.43	60835.20
571.60	60989.68
571.76	60970.96
571.92	60970.96
572.09	60949.89
572.25	60886.70
572.41	60928.83
572.57	60905.42
572.74	61017.77
572.90	60851.59
573.06	60870.31
573.22	60912.44
573.38	60666.69
573.55	60893.72
573.71	61118.41
573.87	61132.45
574.03	60940.53
574.20	61066.92
574.36	60851.59
574.52	60912.44
574.68	61013.08
574.84	61305.65
575.01	61020.11
575.17	60779.03
575.33	60697.11
575.49	60945.21
575.65	61041.17
575.82	61078.62
575.98	61038.83
576.14	61109.05
576.30	60994.36
576.46	61235.44
576.62	60753.29
576.79	61052.87
576.95	60928.83
577.11	61113.73
577.27	60999.04
577.43	61095.00
577.59	61120.75
577.75	60938.19
577.92	61010.74
578.08	61062.24
578.24	60919.46
578.40	61310.33
578.56	61212.03
578.72	61006.06
578.88	61167.56
579.04	61319.70
579.21	61179.26
579.37	61102.03
579.53	61176.92
579.69	61134.79
579.85	61146.50
580.01	61242.46
580.17	60999.04
580.33	61209.69
580.49	61284.59
580.65	61179.26
580.82	61038.83
580.98	61141.81
581.14	61078.62
581.30	61315.01
581.46	61165.22
581.62	61207.35
581.78	61127.77
581.94	61174.58
582.10	61078.62
582.26	61275.22
582.42	61176.92
582.58	61104.37
582.74	61209.69
582.90	61195.65
583.06	61120.75
583.22	61209.69
583.38	61183.94
583.54	61212.03
583.70	61275.22
583.86	61207.35
584.02	61324.38
584.18	61387.57
584.34	61272.88
584.50	61097.34
584.66	61265.86
584.82	61062.24
584.98	61392.25
585.14	61244.80
585.30	61158.20
585.46	61228.41
585.62	61286.93
585.78	61396.93
585.94	61113.73
586.10	60977.98
586.26	61331.40
586.42	61399.27
586.58	61277.57
586.74	61340.76
586.90	61298.63
587.06	61137.13
587.22	61490.55
587.38	61420.34
587.54	61469.49
587.70	61298.63
587.86	61361.82
588.02	61244.80
588.18	61352.46
588.34	61176.92
