SpectraSuite Data File
++++++++++++++++++++++++++++++++++++
Date: Fri Oct 25 11:34:47 EDT 2013
User: price-jones
Dark Spectrum Present: No
Reference Spectrum Present: No
Number of Sampled Component Spectra: 1
Spectrometers: USB2+H05261
Integration Time (usec): 100000 (USB2+H05261)
Spectra Averaged: 1 (USB2+H05261)
Boxcar Smoothing: 0 (USB2+H05261)
Correct for Electrical Dark: No (USB2+H05261)
Strobe/Lamp Enabled: No (USB2+H05261)
Correct for Detector Non-linearity: No (USB2+H05261)
Correct for Stray Light: No (USB2+H05261)
Number of Pixels in Processed Spectrum: 2048
>>>>>Begin Processed Spectral Data<<<<<
365.73	292.57
365.92	292.57
366.12	292.57
366.32	215.33
366.52	187.24
366.72	227.03
366.91	198.95
367.11	180.22
367.31	215.33
367.51	229.37
367.70	194.26
367.90	208.31
368.10	184.90
368.30	250.44
368.49	224.69
368.69	152.13
368.89	203.63
369.09	217.67
369.28	215.33
369.48	205.97
369.68	222.35
369.87	348.74
370.07	311.29
370.27	294.91
370.47	313.63
370.66	451.72
370.86	528.96
371.06	484.49
371.25	517.26
371.45	575.77
371.65	510.24
371.84	552.37
372.04	519.60
372.24	566.41
372.44	669.39
372.63	566.41
372.83	589.82
373.03	603.86
373.22	582.79
373.42	641.31
373.62	575.77
373.81	615.56
374.01	648.33
374.21	692.80
374.40	627.26
374.60	585.13
374.79	671.73
374.99	664.71
375.19	662.37
375.38	655.35
375.58	629.60
375.78	688.12
375.97	594.50
376.17	763.01
376.37	631.94
376.56	641.31
376.76	568.75
376.95	653.01
377.15	699.82
377.35	681.10
377.54	617.90
377.74	779.40
377.93	671.73
378.13	685.78
378.33	657.69
378.52	704.50
378.72	767.70
378.91	697.48
379.11	713.86
379.31	667.05
379.50	610.88
379.70	699.82
379.89	695.14
380.09	624.92
380.28	739.61
380.48	678.76
380.68	734.93
380.87	688.12
381.07	697.48
381.26	758.33
381.46	739.61
381.65	767.70
381.85	664.71
382.04	774.72
382.24	788.76
382.43	760.67
382.63	709.18
382.83	781.74
383.02	800.46
383.22	760.67
383.41	786.42
383.61	741.95
383.80	800.46
384.00	807.48
384.19	826.21
384.39	772.38
384.58	786.42
384.78	875.36
384.97	713.86
385.17	781.74
385.36	835.57
385.56	833.23
385.75	866.00
385.95	840.25
386.14	926.85
386.34	854.30
386.53	828.55
386.72	840.25
386.92	898.77
387.11	800.46
387.31	823.87
387.50	814.51
387.70	809.83
387.89	896.43
388.09	875.36
388.28	882.38
388.48	861.32
388.67	959.62
388.86	882.38
389.06	901.11
389.25	870.68
389.45	924.51
389.64	908.13
389.84	898.77
390.03	957.28
390.22	1001.75
390.42	908.13
390.61	1008.77
390.81	1015.79
391.00	1027.50
391.19	938.55
391.39	887.06
391.58	1060.26
391.78	938.55
391.97	957.28
392.16	947.92
392.36	1062.60
392.55	954.94
392.75	1093.03
392.94	1006.43
393.13	1069.62
393.33	1057.92
393.52	1018.13
393.71	1048.56
393.91	966.64
394.10	1036.86
394.29	1060.26
394.49	1046.22
394.68	1093.03
394.88	1057.92
395.07	1034.52
395.26	1142.18
395.46	1088.35
395.65	1214.74
395.84	1109.41
396.04	1076.65
396.23	1102.39
396.42	1125.80
396.62	1156.22
396.81	1219.42
397.00	1170.27
397.19	1104.73
397.39	1088.35
397.58	1088.35
397.77	1151.54
397.97	1198.35
398.16	1270.91
398.35	1282.61
398.55	1254.53
398.74	1109.41
398.93	1261.55
399.12	1317.72
399.32	1254.53
399.51	1303.68
399.70	1341.13
399.90	1303.68
400.09	1366.87
400.28	1291.98
400.47	1357.51
400.67	1299.00
400.86	1453.47
401.05	1397.30
401.24	1416.02
401.44	1411.34
401.63	1315.38
401.82	1406.66
402.01	1434.75
402.21	1425.39
402.40	1455.81
402.59	1502.62
402.78	1315.38
402.97	1469.86
403.17	1519.01
403.36	1467.52
403.55	1469.86
403.74	1575.18
403.93	1432.41
404.13	1523.69
404.32	1544.75
404.51	1568.16
404.70	1598.59
404.89	1416.02
405.09	1572.84
405.28	1668.80
405.47	1600.93
405.66	1696.89
405.85	1605.61
406.05	1537.73
406.24	1678.16
406.43	1570.50
406.62	1746.04
406.81	1682.85
407.00	1610.29
407.20	1675.82
407.39	1797.53
407.58	1781.15
407.77	1717.95
407.96	1771.79
408.15	1886.47
408.34	1811.57
408.54	1849.02
408.73	1757.74
408.92	1853.70
409.11	1891.15
409.30	1846.68
409.49	1820.94
409.68	1959.03
409.87	1895.83
410.07	1959.03
410.26	1977.75
410.45	1919.24
410.64	1975.41
410.83	1928.60
411.02	2001.16
411.21	2090.10
411.40	2092.44
411.59	2052.65
411.78	2003.50
411.98	2085.42
412.17	2076.06
412.36	2165.00
412.55	2146.27
412.74	2209.47
412.93	2298.41
413.12	2125.21
413.31	2249.25
413.50	2260.96
413.69	2352.24
413.88	2272.66
414.07	2389.69
414.26	2338.20
414.45	2370.96
414.64	2375.64
414.83	2399.05
415.02	2445.86
415.22	2431.82
415.41	2562.89
415.60	2513.74
415.79	2567.57
415.98	2633.10
416.17	2548.84
416.36	2534.80
416.55	2637.78
416.74	2747.79
416.93	2626.08
417.12	2537.14
417.31	2698.64
417.50	2803.96
417.69	2881.20
417.88	2895.24
418.07	2803.96
418.26	2803.96
418.45	2946.73
418.64	2951.42
418.83	2890.56
419.02	2888.22
419.21	3047.38
419.39	2939.71
419.58	2944.39
419.77	2977.16
419.96	3040.36
420.15	2944.39
420.34	2913.97
420.53	2991.20
420.72	3108.23
420.91	3007.59
421.10	3007.59
421.29	3157.38
421.48	3012.27
421.67	3206.53
421.86	3131.64
422.05	3262.71
422.24	2981.84
422.43	3171.43
422.61	3131.64
422.80	3164.40
422.99	3225.26
423.18	3126.96
423.37	3286.11
423.56	3248.66
423.75	3117.59
423.94	3166.74
424.13	3005.25
424.32	3201.85
424.50	3363.35
424.69	3321.22
424.88	3283.77
425.07	3192.49
425.26	3267.39
425.45	3314.20
425.64	3208.87
425.83	3150.36
426.01	3489.74
426.20	3309.52
426.39	3272.07
426.58	3276.75
426.77	3262.71
426.96	3293.13
427.15	3370.37
427.33	3414.84
427.52	3454.63
427.71	3421.86
427.90	3480.38
428.09	3513.14
428.28	3393.78
428.46	3513.14
428.65	3435.91
428.84	3571.66
429.03	3552.93
429.22	3489.74
429.40	3517.83
429.59	3452.29
429.78	3391.44
429.97	3478.04
430.16	3592.72
430.34	3606.77
430.53	3646.55
430.72	3775.28
430.91	3616.13
431.10	3714.43
431.28	3695.71
431.47	3744.86
431.66	3728.47
431.85	3695.71
432.03	3838.48
432.22	3957.85
432.41	3904.01
432.60	3782.31
432.79	3775.28
432.97	3831.46
433.16	4021.04
433.35	3803.37
433.54	4002.32
433.72	3889.97
433.91	3957.85
434.10	4004.66
434.28	3999.98
434.47	3985.93
434.66	4098.28
434.85	4079.55
435.03	4053.81
435.22	4070.19
435.41	4210.62
435.59	4222.33
435.78	4210.62
435.97	3939.12
436.16	4180.20
436.34	4170.83
436.53	4203.60
436.72	4313.61
436.90	4308.93
437.09	4154.45
437.28	4145.09
437.46	4229.35
437.65	4402.55
437.84	4383.82
438.02	4428.29
438.21	4395.53
438.40	4187.22
438.58	4608.51
438.77	4671.71
438.96	4409.57
439.14	4484.47
439.33	4669.37
439.52	4865.97
439.70	4554.68
439.89	4823.84
440.08	4770.01
440.26	4828.53
440.45	4711.50
440.63	4753.63
440.82	4793.42
441.01	4847.25
441.19	4793.42
441.38	4905.76
441.57	4964.28
441.75	5013.43
441.94	5128.11
442.12	5177.26
442.31	5100.03
442.50	4999.38
442.68	5062.58
442.87	5191.31
443.05	5210.03
443.24	5238.12
443.43	5195.99
443.61	5380.89
443.80	5483.88
443.98	5341.10
444.17	4912.78
444.35	5352.81
444.54	5336.42
444.73	5254.50
444.91	5329.40
445.10	5287.27
445.28	5291.95
445.47	5334.08
445.65	5324.72
445.84	5451.11
446.02	5455.79
446.21	5357.49
446.39	5425.36
446.58	5423.02
446.77	5282.59
446.95	5217.05
447.14	5334.08
447.32	5518.98
447.51	5317.70
447.69	5341.10
447.88	5301.31
448.06	5385.57
448.25	5228.76
448.43	5472.17
448.62	5404.30
448.80	5497.92
448.99	5523.66
449.17	5755.38
449.36	5547.07
449.54	5659.42
449.73	5755.38
449.91	5797.51
450.10	5750.70
450.28	5851.34
450.46	5750.70
450.65	5762.40
450.83	5586.86
451.02	5830.27
451.20	5746.02
451.39	5696.86
451.57	5865.38
451.76	5769.42
451.94	5884.11
452.13	6069.01
452.31	5790.49
452.49	5947.30
452.68	5860.70
452.86	5753.04
453.05	6094.76
453.23	5884.11
453.42	6022.20
453.60	5966.03
453.78	6190.72
453.97	6094.76
454.15	6104.12
454.34	5982.41
454.52	5975.39
454.70	6340.51
454.89	6239.87
455.07	6239.87
455.26	6195.40
455.44	6328.81
455.62	6202.42
455.81	6186.04
455.99	6324.13
456.17	6406.05
456.36	6469.24
456.54	6455.20
456.73	6534.78
456.91	6682.23
457.09	6705.63
457.28	6668.19
457.46	6621.38
457.64	6644.78
457.83	6710.32
458.01	6670.53
458.19	6729.04
458.38	6691.59
458.56	6883.52
458.74	6729.04
458.93	6733.72
459.11	6677.55
459.29	6665.85
459.48	6937.35
459.66	6808.62
459.84	6883.52
460.03	7023.95
460.21	7047.35
460.39	6925.65
460.57	6904.58
460.76	7117.57
460.94	7112.89
461.12	7054.37
461.31	6946.71
461.49	7140.97
461.67	7108.21
461.85	7368.01
462.04	7035.65
462.22	7494.40
462.40	7328.22
462.59	7213.53
462.77	7234.60
462.95	7316.51
463.13	7400.77
463.32	7187.79
463.50	7501.42
463.68	7543.55
463.86	7510.78
464.05	7295.45
464.23	7536.52
464.41	7545.89
464.59	7524.82
464.78	7470.99
464.96	7424.18
465.14	7431.20
465.32	7672.28
465.50	7566.95
465.69	7712.07
465.87	7630.15
466.05	7503.76
466.23	7714.41
466.41	7730.79
466.60	7918.03
466.78	7712.07
466.96	7740.15
467.14	7740.15
467.32	7953.14
467.51	7829.09
467.69	7660.57
467.87	7676.96
468.05	7925.05
468.23	7683.98
468.41	7866.54
468.60	7777.60
468.78	7817.39
468.96	7803.35
469.14	8084.21
469.32	8173.15
469.50	8091.23
469.69	8191.88
469.87	8212.94
470.05	8336.99
470.23	8432.95
470.41	8236.35
470.59	8248.05
470.77	8184.85
470.95	8215.28
471.14	8425.93
471.32	8140.38
471.50	8388.48
471.68	8608.49
471.86	8655.30
472.04	8704.45
472.22	8765.31
472.40	8594.45
472.58	8512.53
472.77	8751.26
472.95	8882.33
473.13	9266.18
473.31	8725.52
473.49	8947.87
473.67	8809.78
473.85	9128.09
474.03	9130.43
474.21	8957.23
474.39	9125.75
474.57	9125.75
474.75	9320.01
474.93	9369.16
475.12	9242.78
475.30	9521.30
475.48	9516.62
475.66	9589.17
475.84	9591.52
476.02	9521.30
476.20	9577.47
476.38	9916.85
476.56	9961.32
476.74	9797.48
476.92	9980.04
477.10	10059.62
477.28	9937.91
477.46	10296.02
477.64	10061.96
477.82	10143.88
478.00	10504.32
478.18	10265.59
478.36	10588.58
478.54	10705.61
478.72	10558.16
478.90	10501.98
479.08	10850.72
479.26	11122.23
479.44	11033.29
479.62	11101.16
479.80	11059.03
479.98	11349.26
480.16	11396.07
480.34	11375.00
480.52	11442.88
480.70	11632.46
480.88	11431.18
481.06	11714.38
481.24	11754.17
481.41	11939.07
481.59	12070.14
481.77	11843.11
481.95	12114.61
482.13	12189.51
482.31	12051.42
482.49	12603.78
482.67	12336.96
482.85	12659.96
483.03	12858.90
483.21	12746.56
483.39	13071.89
483.57	12826.14
483.74	13151.47
483.92	13275.52
484.10	12868.27
484.28	13263.82
484.46	13680.43
484.64	14019.81
484.82	13502.55
485.00	13694.47
485.18	13884.06
485.35	14122.79
485.53	14267.91
485.71	14083.00
485.89	14537.07
486.07	14040.87
486.25	14452.81
486.43	14738.35
486.61	14565.15
486.78	14927.94
486.96	14836.66
487.14	15213.48
487.32	15070.71
487.50	15117.52
487.68	15300.08
487.85	15515.41
488.03	15957.77
488.21	15967.13
488.39	16065.44
488.57	16248.00
488.75	16051.39
488.92	16320.56
489.10	16407.16
489.28	16512.48
489.46	16573.33
489.64	16578.01
489.81	17057.82
489.99	17055.48
490.17	17018.04
490.35	17563.38
490.53	17624.23
490.70	17539.97
490.88	17289.54
491.06	17972.97
491.24	17612.53
491.41	17830.20
491.59	18085.32
491.77	18090.00
491.95	18181.28
492.13	18293.63
492.30	18293.63
492.48	18581.51
492.66	18324.05
492.84	18544.06
493.01	18948.98
493.19	18904.51
493.37	19089.41
493.54	19152.60
493.72	19426.45
493.90	19208.78
494.08	19400.70
494.25	19433.47
494.43	19655.82
494.61	19894.55
494.79	20250.32
494.96	19999.88
495.14	20044.35
495.32	20336.91
495.49	20549.90
495.67	20498.41
495.85	20711.40
496.02	20561.61
496.20	20833.11
496.38	20819.07
496.55	21205.25
496.73	21467.39
496.91	21493.14
497.09	21331.64
497.26	21465.05
497.44	21305.90
497.62	21385.47
497.79	21958.91
497.97	22052.53
498.14	22089.98
498.32	22125.08
498.50	22143.81
498.67	22525.32
498.85	22363.82
499.03	22422.33
499.20	22590.85
499.38	22810.86
499.56	22963.00
499.73	22766.39
499.91	22780.43
500.08	22927.89
500.26	23227.48
500.44	23087.04
500.61	23304.71
500.79	23379.61
500.97	23473.23
501.14	23623.03
501.32	23960.06
501.49	23693.24
501.67	23803.25
501.84	24285.40
502.02	23946.02
502.20	24257.31
502.37	24460.94
502.55	24128.58
502.72	24133.26
502.90	24390.72
503.07	24100.50
503.25	24592.01
503.43	24470.30
503.60	24725.42
503.78	24655.20
503.95	24449.24
504.13	25020.33
504.30	25071.82
504.48	24936.07
504.65	25195.87
504.83	25659.29
505.01	25455.67
505.18	25359.70
505.36	25713.13
505.53	25443.96
505.71	25682.70
505.88	26082.93
506.06	25841.85
506.23	25731.85
506.41	25811.43
506.58	26071.23
506.76	26129.74
506.93	26216.34
507.11	25937.82
507.28	26735.94
507.46	26459.76
507.63	26588.49
507.81	26862.33
507.98	26349.75
508.16	26822.54
508.33	26583.80
508.50	26967.65
508.68	27241.50
508.85	27084.68
509.03	27197.02
509.20	27194.68
509.38	27311.71
509.55	27761.09
509.73	27580.87
509.90	27594.92
510.08	27751.73
510.25	27733.01
510.42	27782.16
510.60	27630.02
510.77	28168.35
510.95	28208.14
511.12	27821.95
511.30	27796.20
511.47	28205.80
511.64	28367.29
511.82	28334.53
511.99	28727.74
512.17	28421.13
512.34	28533.47
512.51	28964.13
512.69	28933.70
512.86	29116.26
513.04	29308.19
513.21	28933.70
513.38	29003.92
513.56	29146.69
513.73	29369.04
513.90	29209.89
514.08	29247.33
514.25	29558.63
514.43	29862.90
514.60	29888.64
514.77	29612.46
514.95	29982.26
515.12	29820.77
515.29	29614.80
515.47	29750.55
515.64	30106.31
515.81	29827.79
515.99	30398.88
516.16	30459.73
516.33	30328.66
516.51	30441.01
516.68	30213.98
516.85	30595.48
517.03	30923.16
517.20	30232.70
517.37	30661.02
517.54	30878.69
517.72	30799.11
517.89	30604.84
518.06	30976.99
518.24	31016.78
518.41	30883.37
518.58	31299.98
518.75	31047.21
518.93	31037.84
519.10	31335.09
519.27	31189.98
519.45	31311.69
519.62	31349.14
519.79	31728.30
519.96	31833.63
520.14	31819.58
520.31	31578.51
520.48	32177.68
520.65	31665.11
520.83	32009.17
521.00	32114.49
521.17	31920.23
521.34	32046.62
521.52	32280.67
521.69	32039.59
521.86	32308.76
522.03	32596.64
522.20	33022.62
522.38	32910.27
522.55	32781.54
522.72	33071.77
522.89	32940.70
523.07	33251.99
523.24	33146.67
523.41	33219.22
523.58	32804.95
523.75	33371.36
523.92	33165.39
524.10	33439.23
524.27	33684.99
524.44	33369.02
524.61	33799.68
524.78	33387.74
524.96	34059.48
525.13	34183.52
525.30	34209.27
525.47	34256.08
525.64	33809.04
525.81	34314.59
525.98	34246.72
526.16	33942.45
526.33	33834.78
526.50	34660.99
526.67	33867.55
526.84	34405.88
527.01	34218.63
527.18	34644.61
527.36	34700.78
527.53	34658.65
527.70	34628.23
527.87	34841.21
528.04	35101.01
528.21	34611.84
528.38	34820.15
528.55	34431.62
528.72	34703.12
528.89	35222.72
529.07	34845.90
529.24	34878.66
529.41	35103.35
529.58	35115.06
529.75	35585.50
529.92	35274.21
530.09	35367.84
530.26	35201.66
530.43	35674.45
530.60	35475.50
530.77	35459.12
530.94	35463.80
531.11	35140.80
531.28	35644.02
531.46	35913.18
531.63	35728.28
531.80	35651.04
531.97	35847.64
532.14	36268.94
532.31	35716.58
532.48	36030.21
532.65	36383.63
532.82	36128.51
532.99	36252.56
533.16	36123.83
533.33	36350.86
533.50	36596.62
533.67	36355.54
533.84	36158.94
534.01	36292.35
534.18	36140.21
534.35	36800.24
534.52	37081.11
534.69	37067.06
534.86	36554.49
535.03	36582.57
535.20	36744.07
535.37	36657.47
535.54	37226.22
535.71	36882.16
535.88	37139.62
536.05	37083.45
536.22	37256.65
536.38	37474.32
536.55	37303.46
536.72	37371.33
536.89	37289.42
537.06	37457.93
537.23	37205.16
537.40	37446.23
537.57	37359.63
537.74	37553.90
537.91	37734.12
538.08	37635.81
538.25	37645.18
538.42	37804.33
538.59	38014.98
538.75	37865.19
538.92	37935.40
539.09	38103.92
539.26	37858.17
539.43	38176.48
539.60	38216.27
539.77	38054.77
539.94	38176.48
540.11	38480.75
540.28	38139.03
540.44	38410.53
540.61	38356.70
540.78	38260.74
540.95	38466.70
541.12	38141.37
541.29	38176.48
541.46	38452.66
541.62	38560.33
541.79	38586.07
541.96	38204.56
542.13	38447.98
542.30	38632.88
542.47	38864.60
542.63	38888.00
542.80	38951.20
542.97	39388.88
543.14	39367.81
543.31	38918.43
543.48	39416.96
543.64	39856.98
543.81	39548.03
543.98	39335.04
544.15	39714.21
544.32	39903.79
544.48	39864.00
544.65	39819.53
544.82	39791.45
544.99	39405.26
545.16	39421.64
545.32	40151.89
545.49	39786.77
545.66	39959.97
545.83	39683.78
546.00	40205.72
546.16	39772.72
546.33	39679.10
546.50	39899.11
546.67	40027.84
546.83	39639.31
547.00	40062.95
547.17	40055.93
547.34	39847.62
547.50	40327.43
547.67	40339.13
547.84	40526.38
548.00	40418.71
548.17	40671.49
548.34	40722.98
548.51	41031.93
548.67	40807.24
548.84	40655.11
549.01	40238.49
549.18	40575.53
549.34	40940.65
549.51	40973.42
549.68	40985.12
549.84	40678.51
550.01	40877.46
550.18	40849.37
550.34	41062.36
550.51	41193.43
550.68	41057.68
550.84	40811.92
551.01	41137.26
551.18	40975.76
551.34	41186.41
551.51	41612.38
551.68	41329.18
551.84	41572.60
552.01	41254.28
552.18	41144.28
552.34	41277.69
552.51	41233.22
552.68	41366.63
552.84	41359.61
553.01	41640.47
553.18	41390.03
553.34	41717.71
553.51	41682.60
553.67	41434.50
553.84	41668.56
554.01	41280.03
554.17	41855.80
554.34	41867.50
554.51	41930.70
554.67	42082.83
554.84	41858.14
555.00	41792.61
555.17	41717.71
555.33	42237.31
555.50	41942.40
555.67	41706.01
555.83	42099.22
556.00	42209.22
556.16	42569.66
556.33	42873.93
556.50	42174.11
556.66	42010.28
556.83	42101.56
556.99	42174.11
557.16	42349.65
557.32	42564.98
557.49	42382.42
557.65	42288.80
557.82	42284.12
557.98	42450.30
558.15	42347.31
558.32	42588.39
558.48	42124.96
558.65	42754.57
558.81	42859.89
558.98	42499.45
559.14	42525.19
559.31	42265.39
559.47	42347.31
559.64	42768.61
559.80	42667.97
559.97	42958.19
560.13	42644.56
560.30	42473.70
560.46	42728.82
560.63	42787.33
560.79	42934.79
560.96	43330.34
561.12	43264.80
561.29	43040.11
561.45	43026.07
561.61	43065.86
561.78	43260.12
561.94	42815.42
562.11	42782.65
562.27	42829.46
562.44	43124.37
562.60	43494.18
562.77	43328.00
562.93	43047.13
563.10	43002.66
563.26	43328.00
563.42	43859.30
563.59	43023.73
563.75	43257.78
563.92	43264.80
564.08	43239.06
564.24	43746.95
564.41	43096.28
564.57	43292.89
564.74	43519.92
564.90	42934.79
565.07	42983.94
565.23	43461.41
565.39	43173.52
565.56	43770.36
565.72	43145.44
565.88	43812.49
566.05	43253.10
566.21	43304.59
566.38	43608.86
566.54	43320.98
566.70	43562.05
566.87	43452.05
567.03	43501.20
567.19	43761.00
567.36	43789.08
567.52	43679.08
567.68	43643.97
567.85	43632.27
568.01	43803.13
568.17	43580.78
568.34	43557.37
568.50	43606.52
568.66	43936.54
568.83	43779.72
568.99	43285.87
569.15	43828.87
569.32	43550.35
569.48	43302.25
569.64	44048.88
569.81	44018.46
569.97	43856.96
570.13	43852.28
570.30	43449.70
570.46	43732.91
570.62	44116.76
570.78	43821.85
570.95	43765.68
571.11	44477.20
571.27	44315.70
571.43	43885.04
571.60	43791.42
571.76	43875.68
571.92	44020.80
572.09	43957.60
572.25	43856.96
572.41	44051.22
572.57	44034.84
572.74	44222.08
572.90	44170.59
573.06	43955.26
573.22	44224.42
573.38	44453.79
573.55	44144.84
573.71	44219.74
573.87	44266.55
574.03	44406.98
574.20	44467.84
574.36	43924.83
574.52	44163.57
574.68	44109.74
574.84	44346.13
575.01	44931.26
575.17	44224.42
575.33	44460.82
575.49	43962.28
575.65	44266.55
575.82	44872.75
575.98	43880.36
576.14	44779.13
576.30	44545.08
576.46	44507.63
576.62	44442.09
576.79	44528.69
576.95	43999.73
577.11	44023.14
577.27	44318.04
577.43	44266.55
577.59	44446.77
577.75	44055.90
577.92	43924.83
578.08	44612.95
578.24	44247.83
578.40	44587.21
578.56	44357.83
578.72	44589.55
578.88	44755.72
579.04	44240.81
579.21	44222.08
579.37	44790.83
579.53	44575.50
579.69	44526.35
579.85	44369.54
580.01	44388.26
580.17	44285.28
580.33	44540.39
580.49	44493.58
580.65	44292.30
580.82	44554.44
580.98	44088.67
581.14	43976.33
581.30	44545.08
581.46	44048.88
581.62	44296.98
581.78	44402.30
581.94	44636.36
582.10	44294.64
582.26	44748.70
582.42	44531.03
582.58	44383.58
582.74	44828.28
582.90	44935.95
583.06	44449.11
583.22	44631.68
583.38	44725.30
583.54	44711.25
583.70	44811.90
583.86	45251.92
584.02	44470.18
584.18	44994.46
584.34	44301.66
584.50	45261.28
584.66	44734.66
584.82	44442.09
584.98	44898.50
585.14	44835.30
585.30	44493.58
585.46	44697.21
585.62	44664.44
585.78	44935.95
585.94	44271.23
586.10	44589.55
586.26	44566.14
586.42	44594.23
586.58	44629.34
586.74	44109.74
586.90	44484.22
587.06	44402.30
587.22	44746.36
587.38	45123.19
587.54	44875.09
587.70	44837.64
587.86	44921.90
588.02	44718.28
588.18	44402.30
588.34	44844.66
588.49	44514.65
588.65	44491.24
588.81	44715.93
588.97	44643.38
589.13	44861.05
589.29	44896.16
589.45	45125.53
589.61	44584.86
589.77	44940.63
589.93	44849.35
590.08	45043.61
