SpectraSuite Data File
++++++++++++++++++++++++++++++++++++
Date: Fri Oct 25 11:34:08 EDT 2013
User: price-jones
Dark Spectrum Present: No
Reference Spectrum Present: No
Number of Sampled Component Spectra: 1
Spectrometers: USB2+H05261
Integration Time (usec): 100000 (USB2+H05261)
Spectra Averaged: 1 (USB2+H05261)
Boxcar Smoothing: 0 (USB2+H05261)
Correct for Electrical Dark: No (USB2+H05261)
Strobe/Lamp Enabled: No (USB2+H05261)
Correct for Detector Non-linearity: No (USB2+H05261)
Correct for Stray Light: No (USB2+H05261)
Number of Pixels in Processed Spectrum: 2048
>>>>>Begin Processed Spectral Data<<<<<
365.73	334.70
365.92	334.70
366.12	334.70
366.32	285.55
366.52	220.01
366.72	119.37
366.91	271.50
367.11	271.50
367.31	128.73
367.51	189.58
367.70	163.84
367.90	220.01
368.10	166.18
368.30	168.52
368.49	212.99
368.69	227.03
368.89	187.24
369.09	154.48
369.28	194.26
369.48	182.56
369.68	180.22
369.87	201.29
370.07	196.60
370.27	283.20
370.47	315.97
370.66	451.72
370.86	540.66
371.06	566.41
371.25	603.86
371.45	526.62
371.65	543.00
371.84	533.64
372.04	585.13
372.24	571.09
372.44	540.66
372.63	552.37
372.83	596.84
373.03	561.73
373.22	568.75
373.42	578.11
373.62	582.79
373.81	629.60
374.01	575.77
374.21	638.97
374.40	636.63
374.60	723.23
374.79	655.35
374.99	594.50
375.19	655.35
375.38	674.07
375.58	641.31
375.78	613.22
375.97	664.71
376.17	737.27
376.37	667.05
376.56	702.16
376.76	716.20
376.95	662.37
377.15	720.88
377.35	716.20
377.54	744.29
377.74	706.84
377.93	725.57
378.13	674.07
378.33	737.27
378.52	671.73
378.72	720.88
378.91	685.78
379.11	751.31
379.31	725.57
379.50	660.03
379.70	676.41
379.89	772.38
380.09	748.97
380.28	739.61
380.48	748.97
380.68	732.59
380.87	767.70
381.07	674.07
381.26	725.57
381.46	758.33
381.65	753.65
381.85	777.06
382.04	774.72
382.24	767.70
382.43	765.36
382.63	767.70
382.83	746.63
383.02	840.25
383.22	788.76
383.41	763.01
383.61	718.54
383.80	805.14
384.00	823.87
384.19	713.86
384.39	788.76
384.58	833.23
384.78	807.48
384.97	814.51
385.17	854.30
385.36	816.85
385.56	788.76
385.75	833.23
385.95	774.72
386.14	868.34
386.34	819.19
386.53	910.47
386.72	767.70
386.92	889.40
387.11	809.83
387.31	861.32
387.50	842.59
387.70	847.27
387.89	861.32
388.09	910.47
388.28	868.34
388.48	926.85
388.67	933.87
388.86	875.36
389.06	952.60
389.25	947.92
389.45	924.51
389.64	1022.81
389.84	926.85
390.03	922.17
390.22	905.79
390.42	1069.62
390.61	957.28
390.81	917.49
391.00	950.26
391.19	945.58
391.39	990.05
391.58	1050.90
391.78	1041.54
391.97	1074.31
392.16	985.37
392.36	1015.79
392.55	1048.56
392.75	1062.60
392.94	1006.43
393.13	1104.73
393.33	1053.24
393.52	1041.54
393.71	1093.03
393.91	1041.54
394.10	1006.43
394.29	1151.54
394.49	1107.07
394.68	1207.72
394.88	1128.14
395.07	1121.12
395.26	1062.60
395.46	1163.25
395.65	1135.16
395.84	1123.46
396.04	1261.55
396.23	1184.31
396.42	1088.35
396.62	1184.31
396.81	1188.99
397.00	1186.65
397.19	1254.53
397.39	1196.01
397.58	1254.53
397.77	1200.69
397.97	1158.57
398.16	1137.50
398.35	1263.89
398.55	1207.72
398.74	1186.65
398.93	1313.04
399.12	1327.08
399.32	1273.25
399.51	1259.21
399.70	1357.51
399.90	1390.28
400.09	1397.30
400.28	1327.08
400.47	1308.36
400.67	1327.08
400.86	1350.49
401.05	1423.05
401.24	1427.73
401.44	1373.89
401.63	1446.45
401.82	1493.26
402.01	1404.32
402.21	1502.62
402.40	1411.34
402.59	1455.81
402.78	1493.26
402.97	1490.92
403.17	1551.78
403.36	1577.52
403.55	1514.33
403.74	1558.80
403.93	1591.56
404.13	1533.05
404.32	1575.18
404.51	1521.35
404.70	1626.67
404.89	1603.27
405.09	1818.60
405.28	1638.38
405.47	1671.14
405.66	1568.16
405.85	1701.57
406.05	1729.66
406.24	1647.74
406.43	1722.63
406.62	1790.51
406.81	1788.17
407.00	1760.08
407.20	1715.61
407.39	1673.48
407.58	1879.45
407.77	1788.17
407.96	1832.64
408.15	1853.70
408.34	1870.09
408.54	1858.39
408.73	1888.81
408.92	1893.49
409.11	1879.45
409.30	2040.95
409.49	1914.56
409.68	1942.64
409.87	1940.30
410.07	2036.27
410.26	1956.69
410.45	1933.28
410.64	2092.44
410.83	2087.76
411.02	2101.80
411.21	2146.27
411.40	2106.48
411.59	2125.21
411.78	2069.03
411.98	2111.16
412.17	2263.30
412.36	2207.13
412.55	2225.85
412.74	2188.40
412.93	2228.19
413.12	2284.36
413.31	2328.83
413.50	2270.32
413.69	2270.32
413.88	2328.83
414.07	2420.11
414.26	2476.29
414.45	2495.01
414.64	2497.35
414.83	2473.95
415.02	2457.56
415.22	2649.49
415.41	2572.25
415.60	2574.59
415.79	2623.74
415.98	2729.06
416.17	2546.50
416.36	2693.96
416.55	2637.78
416.74	2684.59
416.93	2736.09
417.12	2731.41
417.31	2750.13
417.50	2796.94
417.69	2841.41
417.88	2827.37
418.07	2857.79
418.26	2822.69
418.45	2963.12
418.64	3016.95
418.83	3007.59
419.02	3000.57
419.21	3045.04
419.39	3087.17
419.58	2998.23
419.77	3014.61
419.96	3019.29
420.15	3002.91
420.34	3000.57
420.53	3056.74
420.72	3176.11
420.91	3136.32
421.10	3222.92
421.29	3363.35
421.48	3239.30
421.67	3141.00
421.86	3201.85
422.05	3274.41
422.24	3197.17
422.43	3262.71
422.61	3267.39
422.80	3297.81
422.99	3337.60
423.18	3314.20
423.37	3417.18
423.56	3375.05
423.75	3351.65
423.94	3173.77
424.13	3211.22
424.32	3171.43
424.50	3267.39
424.69	3342.28
424.88	3379.73
425.07	3349.31
425.26	3344.63
425.45	3433.57
425.64	3377.39
425.83	3314.20
426.01	3473.36
426.20	3396.12
426.39	3421.86
426.58	3487.40
426.77	3506.12
426.96	3456.97
427.15	3456.97
427.33	3480.38
427.52	3538.89
427.71	3494.42
427.90	3424.20
428.09	3585.70
428.28	3548.25
428.46	3456.97
428.65	3609.11
428.84	3674.64
429.03	3847.84
429.22	3548.25
429.40	3763.58
429.59	3564.64
429.78	3524.85
429.97	3632.51
430.16	3681.66
430.34	3702.73
430.53	3686.34
430.72	3705.07
430.91	3824.44
431.10	3772.94
431.28	3868.91
431.47	3815.07
431.66	3894.65
431.85	3880.61
432.03	3929.76
432.22	4011.68
432.41	3943.80
432.60	4074.87
432.79	4007.00
432.97	3999.98
433.16	4095.94
433.35	4044.45
433.54	4044.45
433.72	4166.15
433.91	4121.68
434.10	4166.15
434.28	4086.58
434.47	4184.88
434.66	4299.56
434.85	4219.99
435.03	4147.43
435.22	4187.22
435.41	4187.22
435.59	4329.99
435.78	4355.74
435.97	4212.96
436.16	4245.73
436.34	4278.50
436.53	4292.54
436.72	4329.99
436.90	4400.21
437.09	4510.21
437.28	4449.36
437.46	4435.32
437.65	4344.03
437.84	4542.98
438.02	4379.14
438.21	4505.53
438.40	4428.29
438.58	4559.36
438.77	4594.47
438.96	4667.03
439.14	4755.97
439.33	4730.22
439.52	4751.29
439.70	4755.97
439.89	4908.10
440.08	4791.08
440.26	4835.55
440.45	5013.43
440.63	4975.98
440.82	5022.79
441.01	4936.19
441.19	5062.58
441.38	5034.49
441.57	5156.20
441.75	5366.85
441.94	5348.12
442.12	5345.78
442.31	5357.49
442.50	5495.58
442.68	5177.26
442.87	5224.08
443.05	5331.74
443.24	5359.83
443.43	5591.54
443.61	5352.81
443.80	5504.94
443.98	5369.19
444.17	5121.09
444.35	5296.63
444.54	5593.88
444.73	5612.60
444.91	5467.49
445.10	5404.30
445.28	5516.64
445.47	5434.72
445.65	5544.73
445.84	5540.05
446.02	5708.57
446.21	5591.54
446.39	5497.92
446.58	5579.84
446.77	5504.94
446.95	5579.84
447.14	5612.60
447.32	5659.42
447.51	5528.35
447.69	5650.05
447.88	5593.88
448.06	5645.37
448.25	5516.64
448.43	5692.18
448.62	5720.27
448.80	5511.96
448.99	5736.65
449.17	5600.90
449.36	5736.65
449.54	5628.99
449.73	6069.01
449.91	5916.87
450.10	6026.88
450.28	5888.79
450.46	5991.77
450.65	5942.62
450.83	5977.73
451.02	5980.07
451.20	6071.35
451.39	5905.17
451.57	6083.05
451.76	5891.13
451.94	6092.41
452.13	6195.40
452.31	6087.73
452.49	6104.12
452.68	5954.32
452.86	6155.61
453.05	6218.80
453.23	6408.39
453.42	6085.39
453.60	6106.46
453.78	6429.45
453.97	6303.06
454.15	6328.81
454.34	6282.00
454.52	6424.77
454.70	6520.73
454.89	6441.15
455.07	6492.65
455.26	6520.73
455.44	6497.33
455.62	6595.63
455.81	6558.18
455.99	6590.95
456.17	6560.52
456.36	6471.58
456.54	6600.31
456.73	6761.81
456.91	6822.66
457.09	6848.41
457.28	7000.54
457.46	6808.62
457.64	6848.41
457.83	6867.13
458.01	6981.82
458.19	7243.96
458.38	6986.50
458.56	7082.46
458.74	7063.74
458.93	6965.43
459.11	7105.87
459.29	7000.54
459.48	7110.55
459.66	6998.20
459.84	7126.93
460.03	7328.22
460.21	7328.22
460.39	7232.26
460.57	7276.73
460.76	7246.30
460.94	7314.17
461.12	7456.95
461.31	7300.13
461.49	7316.51
461.67	7396.09
461.85	7478.01
462.04	7473.33
462.22	7850.16
462.40	7721.43
462.59	7653.55
462.77	7653.55
462.95	7742.49
463.13	7644.19
463.32	7524.82
463.50	7665.25
463.68	7726.11
463.86	7728.45
464.05	7536.52
464.23	7592.70
464.41	7822.07
464.59	7723.77
464.78	8025.70
464.96	7588.02
465.14	7627.81
465.32	7850.16
465.50	8156.77
465.69	7772.92
465.87	7822.07
466.05	7957.82
466.23	8105.28
466.41	8093.57
466.60	8147.40
466.78	7864.20
466.96	8016.33
467.14	8063.15
467.32	8004.63
467.51	8219.96
467.69	7941.44
467.87	7995.27
468.05	8397.84
468.23	8105.28
468.41	8173.15
468.60	8308.90
468.78	8388.48
468.96	8145.06
469.14	8257.41
469.32	8617.85
469.50	8194.22
469.69	8540.61
469.87	8498.49
470.05	8547.64
470.23	8533.59
470.41	8767.65
470.59	8622.53
470.77	8521.89
470.95	8706.79
471.14	8821.48
471.32	8559.34
471.50	8896.38
471.68	8828.50
471.86	8697.43
472.04	8828.50
472.22	8933.82
472.40	8931.48
472.58	9001.70
472.77	9020.42
472.95	8961.91
473.13	9437.04
473.31	9046.17
473.49	9156.18
473.67	9111.71
473.85	9380.87
474.03	9598.54
474.21	9523.64
474.39	9593.86
474.57	9525.98
474.75	9650.03
474.93	9678.12
475.12	9813.87
475.30	9863.02
475.48	9652.37
475.66	9738.97
475.84	9818.55
476.02	9966.00
476.20	10099.41
476.38	10122.82
476.56	10466.88
476.74	10693.91
476.92	10464.54
477.10	10120.48
477.28	10345.17
477.46	10305.38
477.64	10520.71
477.82	10766.46
478.00	10874.13
478.18	10904.56
478.36	10939.66
478.54	10918.60
478.72	11150.31
478.90	11021.58
479.08	11187.76
479.26	11346.92
479.44	11346.92
479.62	11571.61
479.80	11712.04
479.98	11742.47
480.16	11988.22
480.34	11866.52
480.52	11864.18
480.70	11936.73
480.88	11948.43
481.06	11819.71
481.24	12140.36
481.41	12128.66
481.59	12278.45
481.77	12571.02
481.95	12528.89
482.13	12493.78
482.31	12566.34
482.49	13025.08
482.67	13163.17
482.85	13170.19
483.03	13329.35
483.21	13233.39
483.39	13532.98
483.57	13277.86
483.74	13659.37
483.92	13879.38
484.10	13617.24
484.28	13998.74
484.46	14038.53
484.64	14230.46
484.82	14148.54
485.00	14373.23
485.18	14569.83
485.35	14600.26
485.53	14736.01
485.71	14743.03
485.89	15117.52
486.07	14998.15
486.25	15094.11
486.43	14970.07
486.61	15506.05
486.78	15295.40
486.96	15534.14
487.14	15747.12
487.32	15541.16
487.50	15683.93
487.68	16016.29
487.85	16231.62
488.03	16299.49
488.21	16610.78
488.39	16332.26
488.57	16620.14
488.75	16819.09
488.92	17193.58
489.10	17069.53
489.28	17015.69
489.46	17441.67
489.64	17198.26
489.81	17685.09
489.99	17678.07
490.17	17671.04
490.35	17991.70
490.53	18391.93
490.70	18434.06
490.88	18015.10
491.06	18420.02
491.24	18518.32
491.41	18403.63
491.59	18827.27
491.77	18644.71
491.95	18843.65
492.13	19278.99
492.30	19154.94
492.48	19222.82
492.66	19623.05
492.84	19374.95
493.01	19749.44
493.19	19747.10
493.37	20175.42
493.54	19662.84
493.72	20140.31
493.90	20229.25
494.08	20329.89
494.25	20444.58
494.43	20423.51
494.61	20531.18
494.79	20753.53
494.96	20645.87
495.14	21076.52
495.32	21341.00
495.49	21048.44
495.67	21039.08
495.85	21308.24
496.02	21474.42
496.20	21731.87
496.38	21912.10
496.55	21853.58
496.73	22295.94
496.91	22281.90
497.09	22370.84
497.26	22249.13
497.44	22302.96
497.62	22436.38
497.79	22899.80
497.97	22558.08
498.14	23374.93
498.32	22930.23
498.50	23016.83
498.67	23417.06
498.85	22984.06
499.03	23646.43
499.20	23463.87
499.38	23573.88
499.56	23718.99
499.73	23496.64
499.91	24063.05
500.08	24070.07
500.26	23981.13
500.44	23814.95
500.61	24170.71
500.79	24060.71
500.97	24287.74
501.14	24793.29
501.32	24577.97
501.49	24760.53
501.67	24823.72
501.84	24781.59
502.02	24826.06
502.20	24996.92
502.37	25439.28
502.55	24666.91
502.72	25563.33
502.90	25415.88
503.07	25078.84
503.25	25776.32
503.43	25326.94
503.60	25743.55
503.78	25790.36
503.95	25486.09
504.13	26153.15
504.30	26040.80
504.48	26080.59
504.65	26096.97
504.83	26253.79
505.01	26394.22
505.18	26019.74
505.36	26511.25
505.53	26532.31
505.71	26639.98
505.88	26960.63
506.06	26939.57
506.23	26934.88
506.41	26991.06
506.58	27152.55
506.76	27199.37
506.93	27115.11
507.11	27276.60
507.28	27730.67
507.46	27384.27
507.63	27992.81
507.81	27501.29
507.98	27487.25
508.16	27754.07
508.33	27611.30
508.50	28400.06
508.68	28023.23
508.85	28353.25
509.03	28336.87
509.20	28334.53
509.38	28898.59
509.55	28566.24
509.73	28741.78
509.90	28575.60
510.08	28701.99
510.25	28830.72
510.42	29291.80
510.60	29078.82
510.77	29488.41
510.95	29406.49
511.12	29415.85
511.30	29074.13
511.47	29310.53
511.64	29252.02
511.82	29755.23
511.99	29560.97
512.17	29869.92
512.34	29570.33
512.51	30148.44
512.69	30319.30
512.86	29853.53
513.04	29998.65
513.21	30221.00
513.38	30628.25
513.56	30546.33
513.73	30249.08
513.90	30366.11
514.08	30433.99
514.25	31035.50
514.43	30625.91
514.60	30998.06
514.77	31229.77
514.95	31108.06
515.12	31075.29
515.29	30700.81
515.47	31213.38
515.64	31140.83
515.81	30988.69
515.99	31550.42
516.16	31510.63
516.33	31833.63
516.51	31751.71
516.68	31257.85
516.85	31569.15
517.03	31864.05
517.20	32226.84
517.37	31674.47
517.54	31842.99
517.72	32222.16
517.89	32215.13
518.06	32348.54
518.24	32301.73
518.41	32444.51
518.58	32287.69
518.75	32119.17
518.93	32524.08
519.10	32751.12
519.27	32587.28
519.45	32849.42
519.62	32924.32
519.79	32865.80
519.96	32708.99
520.14	32622.39
520.31	32767.50
520.48	33305.82
520.65	33303.48
520.83	33771.59
521.00	33434.55
521.17	33511.79
521.34	33668.61
521.52	33553.92
521.69	33593.71
521.86	33750.52
522.03	33474.34
522.20	34408.22
522.38	34235.02
522.55	34330.98
522.72	34398.85
522.89	34103.95
523.07	34653.97
523.24	34476.09
523.41	34932.50
523.58	34448.00
523.75	34852.92
523.92	34590.78
524.10	34632.91
524.27	34864.62
524.44	34925.47
524.61	35178.25
524.78	34735.89
524.96	34988.67
525.13	35086.97
525.30	35082.29
525.47	35199.32
525.64	35262.51
525.81	35779.77
525.98	35482.52
526.16	35157.19
526.33	35204.00
526.50	35526.99
526.67	35421.67
526.84	35864.03
527.01	35803.17
527.18	35519.97
527.36	36051.27
527.53	35969.35
527.70	35725.94
527.87	36273.62
528.04	35967.01
528.21	35981.06
528.38	36376.61
528.55	36418.74
528.72	35857.01
528.89	36187.02
529.07	36236.17
529.24	36247.88
529.41	36423.42
529.58	36584.91
529.75	36603.64
529.92	36987.49
530.09	37085.79
530.26	37109.19
530.43	37048.34
530.60	36463.21
530.77	36898.55
530.94	37305.80
531.11	36711.30
531.28	37038.98
531.46	37186.43
531.63	37319.84
531.80	37031.96
531.97	37287.07
532.14	37495.38
532.31	37324.52
532.48	37315.16
532.65	37729.44
532.82	37326.86
532.99	37605.39
533.16	37846.46
533.33	38031.36
533.50	38206.90
533.67	37785.61
533.84	37811.35
534.01	37748.16
534.18	37691.99
534.35	38553.30
534.52	38286.48
534.69	38621.18
534.86	38272.44
535.03	38349.68
535.20	38220.95
535.37	38366.06
535.54	38616.50
535.71	38389.47
535.88	39215.68
536.05	39042.48
536.22	38670.33
536.38	38431.60
536.55	38586.07
536.72	38677.35
536.89	38656.29
537.06	38747.57
537.23	39283.55
537.40	38707.78
537.57	38705.44
537.74	39124.40
537.91	39239.08
538.08	39281.21
538.25	39159.50
538.42	39634.63
538.59	39660.38
538.75	39145.46
538.92	39491.86
539.09	39805.49
539.26	39583.14
539.43	39241.42
539.60	39414.62
539.77	39725.91
539.94	39585.48
540.11	39805.49
540.28	39461.43
540.44	39959.97
540.61	39704.85
540.78	39840.60
540.95	39721.23
541.12	39772.72
541.29	40156.57
541.46	39812.51
541.62	40210.40
541.79	39892.09
541.96	39981.03
542.13	39966.99
542.30	40100.40
542.47	40421.05
542.63	40584.89
542.80	40463.18
542.97	40893.84
543.14	41233.22
543.31	40996.82
543.48	40891.50
543.64	41565.57
543.81	40940.65
543.98	40947.67
544.15	41273.01
544.32	41273.01
544.48	41647.49
544.65	41167.68
544.82	41596.00
544.99	40762.77
545.16	41191.09
545.32	41518.76
545.49	41614.72
545.66	41937.72
545.83	41532.81
546.00	41558.55
546.16	41359.61
546.33	41223.86
546.50	41392.37
546.67	41916.65
546.83	41387.69
547.00	41514.08
547.17	41045.97
547.34	41588.98
547.50	41881.55
547.67	42192.84
547.84	41907.29
548.00	42129.64
548.17	42052.41
548.34	42181.13
548.51	42412.85
548.67	42312.20
548.84	42412.85
549.01	42330.93
549.18	41778.56
549.34	42408.17
549.51	42487.74
549.68	42543.92
549.84	42637.54
550.01	42326.25
550.18	42483.06
550.34	43009.68
550.51	42387.10
550.68	42333.27
550.84	42398.80
551.01	42618.81
551.18	42653.92
551.34	42506.47
551.51	42618.81
551.68	42918.40
551.84	42864.57
552.01	42761.59
552.18	43009.68
552.34	42948.83
552.51	43234.38
552.68	43330.34
552.84	42892.66
553.01	43192.25
553.18	42911.38
553.34	43393.53
553.51	43138.41
553.67	43178.20
553.84	43353.74
554.01	43522.26
554.17	43564.39
554.34	43592.48
554.51	43407.58
554.67	43517.58
554.84	43555.03
555.00	43543.33
555.17	43543.33
555.33	43749.29
555.50	43725.89
555.67	43264.80
555.83	43892.07
556.00	44165.91
556.16	44011.43
556.33	43966.96
556.50	43620.56
556.66	43786.74
556.83	43449.70
556.99	44360.17
557.16	44091.01
557.32	44292.30
557.49	44336.77
557.65	43964.62
557.82	44252.51
557.98	43849.94
558.15	44210.38
558.32	43917.81
558.48	43910.79
558.65	44292.30
558.81	44126.12
558.98	44451.45
559.14	44549.76
559.31	43676.74
559.47	44184.63
559.64	44563.80
559.80	44238.47
559.97	44589.55
560.13	44414.01
560.30	44554.44
560.46	44678.49
560.63	44404.64
560.79	44685.51
560.96	44367.20
561.12	44444.43
561.29	45045.95
561.45	44542.74
561.61	44240.81
561.78	44886.79
561.94	44786.15
562.11	44641.04
562.27	44734.66
562.44	44313.36
562.60	44577.84
562.77	44751.04
562.93	44800.19
563.10	45085.74
563.26	44708.91
563.42	44889.13
563.59	44851.69
563.75	45186.38
563.92	44671.46
564.08	44914.88
564.24	44556.78
564.41	44617.63
564.57	44800.19
564.74	45216.81
564.90	44617.63
565.07	45055.31
565.23	45322.13
565.39	44945.31
565.56	45228.51
565.72	44882.11
565.88	45387.67
566.05	45308.09
566.21	45097.44
566.38	45350.22
566.54	45226.17
566.70	45450.86
566.87	45090.42
567.03	45516.40
567.19	45621.72
567.36	45205.11
567.52	45361.92
567.68	45600.66
567.85	45401.71
568.01	45649.81
568.17	45277.66
568.34	45167.66
568.50	45296.39
568.66	45642.79
568.83	45624.06
568.99	45598.32
569.15	45434.48
569.32	45605.34
569.48	45298.73
569.64	45680.24
569.81	45654.49
569.97	45806.62
570.13	45485.97
570.30	45511.72
570.46	45127.87
570.62	45357.24
570.78	45813.65
570.95	45291.71
571.11	46050.04
571.27	45099.78
571.43	45427.46
571.60	45382.99
571.76	45436.82
571.92	45628.74
572.09	45390.01
572.25	45921.31
572.41	45776.20
572.57	46012.59
572.74	46129.62
572.90	45682.58
573.06	45993.87
573.22	45867.48
573.38	46113.23
573.55	46089.83
573.71	45942.38
573.87	46183.45
574.03	46302.82
574.20	46110.89
574.36	45820.67
574.52	46087.49
574.68	46330.90
574.84	45750.45
575.01	46014.93
575.17	46087.49
575.33	45942.38
575.49	45549.17
575.65	45862.80
575.82	46005.57
575.98	45509.38
576.14	45956.42
576.30	46099.19
576.46	45972.80
576.62	45940.04
576.79	45869.82
576.95	45626.40
577.11	45507.04
577.27	46337.93
577.43	45443.84
577.59	46321.54
577.75	46040.68
577.92	45729.39
578.08	45921.31
578.24	46382.40
578.40	46115.58
578.56	46080.47
578.72	46401.12
578.88	46337.93
579.04	45954.08
579.21	46075.79
579.37	46195.15
579.53	46059.40
579.69	46162.39
579.85	45853.44
580.01	45984.51
580.17	45991.53
580.33	46183.45
580.49	46307.50
580.65	46380.06
580.82	45450.86
580.98	46408.14
581.14	46328.56
581.30	46469.00
581.46	46227.92
581.62	45949.40
581.78	46045.36
581.94	46129.62
582.10	46265.37
582.26	46036.00
582.42	46068.76
582.58	46335.59
582.74	46054.72
582.90	46117.92
583.06	46876.25
583.22	46492.40
583.38	46302.82
583.54	46195.15
583.70	46279.41
583.86	46373.03
584.02	46244.30
584.18	46368.35
584.34	46417.50
584.50	46962.85
584.66	46595.38
584.82	46438.57
584.98	46445.59
585.14	46340.27
585.30	46330.90
585.46	46164.73
585.62	46658.58
585.78	46284.09
585.94	45787.90
586.10	46117.92
586.26	46103.87
586.42	46576.66
586.58	46326.22
586.74	46440.91
586.90	46342.61
587.06	46597.73
587.22	46314.52
587.38	46536.87
587.54	46370.69
587.70	46866.89
587.86	46700.71
588.02	46078.13
588.18	46497.08
588.34	46674.96
588.49	46534.53
588.65	46286.43
588.81	46192.81
588.97	46876.25
589.13	46473.68
589.29	46330.90
589.45	46698.37
589.61	46213.88
589.77	46141.32
589.93	46644.54
590.08	47000.30
