SpectraSuite Data File
++++++++++++++++++++++++++++++++++++
Date: Fri Oct 25 11:25:10 EDT 2013
User: price-jones
Dark Spectrum Present: No
Reference Spectrum Present: No
Number of Sampled Component Spectra: 1
Spectrometers: USB2+H05261
Integration Time (usec): 100000 (USB2+H05261)
Spectra Averaged: 1 (USB2+H05261)
Boxcar Smoothing: 0 (USB2+H05261)
Correct for Electrical Dark: No (USB2+H05261)
Strobe/Lamp Enabled: No (USB2+H05261)
Correct for Detector Non-linearity: No (USB2+H05261)
Correct for Stray Light: No (USB2+H05261)
Number of Pixels in Processed Spectrum: 2048
>>>>>Begin Processed Spectral Data<<<<<
365.73	215.33
365.92	215.33
366.12	215.33
366.32	79.58
366.52	170.86
366.72	128.73
366.91	159.16
367.11	95.96
367.31	88.94
367.51	117.03
367.70	46.81
367.90	100.64
368.10	133.41
368.30	112.35
368.49	91.28
368.69	128.73
368.89	149.79
369.09	114.69
369.28	147.45
369.48	142.77
369.68	145.11
369.87	231.71
370.07	170.86
370.27	224.69
370.47	280.86
370.66	573.43
370.86	561.73
371.06	629.60
371.25	681.10
371.45	718.54
371.65	657.69
371.84	629.60
372.04	650.67
372.24	716.20
372.44	683.44
372.63	732.59
372.83	791.10
373.03	723.23
373.22	744.29
373.42	676.41
373.62	788.76
373.81	760.67
374.01	847.27
374.21	739.61
374.40	741.95
374.60	786.42
374.79	826.21
374.99	842.59
375.19	837.91
375.38	861.32
375.58	826.21
375.78	868.34
375.97	889.40
376.17	842.59
376.37	866.00
376.56	819.19
376.76	919.83
376.95	908.13
377.15	898.77
377.35	901.11
377.54	891.74
377.74	891.74
377.93	842.59
378.13	910.47
378.33	882.38
378.52	926.85
378.72	919.83
378.91	912.81
379.11	931.53
379.31	933.87
379.50	966.64
379.70	950.26
379.89	976.00
380.09	976.00
380.28	1046.22
380.48	1139.84
380.68	994.73
380.87	980.68
381.07	1076.65
381.26	1039.20
381.46	875.36
381.65	1104.73
381.85	1086.01
382.04	1039.20
382.24	1107.07
382.43	1057.92
382.63	1107.07
382.83	1064.94
383.02	1076.65
383.22	1032.18
383.41	1067.28
383.61	1107.07
383.80	1109.41
384.00	1123.46
384.19	1158.57
384.39	1095.37
384.58	1151.54
384.78	1146.86
384.97	1067.28
385.17	1174.95
385.36	1088.35
385.56	1121.12
385.75	1184.31
385.95	1160.91
386.14	1165.59
386.34	1181.97
386.53	1165.59
386.72	1210.06
386.92	1254.53
387.11	1240.48
387.31	1315.38
387.50	1296.66
387.70	1238.14
387.89	1277.93
388.09	1299.00
388.28	1277.93
388.48	1327.08
388.67	1207.72
388.86	1320.06
389.06	1284.95
389.25	1385.60
389.45	1343.47
389.64	1303.68
389.84	1409.00
390.03	1345.81
390.22	1336.45
390.42	1357.51
390.61	1352.83
390.81	1380.92
391.00	1394.96
391.19	1416.02
391.39	1401.98
391.58	1488.58
391.78	1434.75
391.97	1511.99
392.16	1493.26
392.36	1516.67
392.55	1472.20
392.75	1465.18
392.94	1453.47
393.13	1523.69
393.33	1462.83
393.52	1533.05
393.71	1563.48
393.91	1511.99
394.10	1507.30
394.29	1570.50
394.49	1678.16
394.68	1685.19
394.88	1680.50
395.07	1584.54
395.26	1619.65
395.46	1673.48
395.65	1717.95
395.84	1743.70
396.04	1750.72
396.23	1715.61
396.42	1720.29
396.62	1671.14
396.81	1774.13
397.00	1717.95
397.19	1804.55
397.39	1699.23
397.58	1778.81
397.77	1743.70
397.97	1783.49
398.16	1820.94
398.35	1886.47
398.55	1774.13
398.74	1874.77
398.93	2012.86
399.12	1905.20
399.32	1825.62
399.51	1935.62
399.70	1921.58
399.90	1886.47
400.09	2033.93
400.28	2092.44
400.47	1975.41
400.67	2022.22
400.86	2029.24
401.05	2066.69
401.24	2136.91
401.44	2111.16
401.63	2125.21
401.82	2143.93
402.01	1991.80
402.21	2118.18
402.40	2186.06
402.59	2172.02
402.78	2197.76
402.97	2211.81
403.17	2225.85
403.36	2237.55
403.55	2169.68
403.74	2366.28
403.93	2469.27
404.13	2427.14
404.32	2361.60
404.51	2455.22
404.70	2387.35
404.89	2270.32
405.09	2581.61
405.28	2464.58
405.47	2443.52
405.66	2375.64
405.85	2572.25
406.05	2480.97
406.24	2640.12
406.43	2562.89
406.62	2710.34
406.81	2661.19
407.00	2583.95
407.20	2560.55
407.39	2600.34
407.58	2700.98
407.77	2583.95
407.96	2558.21
408.15	2745.45
408.34	2672.89
408.54	2750.13
408.73	2736.09
408.92	2771.19
409.11	2909.29
409.30	2820.35
409.49	2860.13
409.68	2892.90
409.87	2911.63
410.07	2902.26
410.26	3014.61
410.45	3038.02
410.64	3059.08
410.83	3035.67
411.02	2953.76
411.21	3066.10
411.40	3073.12
411.59	3176.11
411.78	3148.02
411.98	3211.22
412.17	3286.11
412.36	3229.94
412.55	3328.24
412.74	3344.63
412.93	3274.41
413.12	3295.47
413.31	3485.06
413.50	3496.76
413.69	3353.99
413.88	3604.42
414.07	3489.74
414.26	3510.80
414.45	3588.04
414.64	3494.42
414.83	3648.90
415.02	3707.41
415.22	3735.50
415.41	3782.31
415.60	3840.82
415.79	3878.27
415.98	3911.04
416.17	3896.99
416.36	3838.48
416.55	3927.42
416.74	3892.31
416.93	3964.87
417.12	4086.58
417.31	4117.00
417.50	4201.26
417.69	4287.86
417.88	4292.54
418.07	4201.26
418.26	4210.62
418.45	4381.48
418.64	4332.33
418.83	4404.89
419.02	4327.65
419.21	4418.93
419.39	4388.50
419.58	4320.63
419.77	4276.16
419.96	4479.79
420.15	4681.07
420.34	4493.83
420.53	4538.30
420.72	4627.24
420.91	4512.55
421.10	4739.58
421.29	4805.12
421.48	4592.13
421.67	4765.33
421.86	4809.80
422.05	4800.44
422.24	4741.93
422.43	4770.01
422.61	4947.89
422.80	4959.60
422.99	4931.51
423.18	5076.62
423.37	5093.01
423.56	4854.27
423.75	4990.02
423.94	4732.56
424.13	4585.11
424.32	4814.48
424.50	4784.06
424.69	4945.55
424.88	4975.98
425.07	4821.50
425.26	4833.21
425.45	4959.60
425.64	4919.81
425.83	5064.92
426.01	5008.75
426.20	4940.87
426.39	5107.05
426.58	5001.72
426.77	4849.59
426.96	5039.17
427.15	5111.73
427.33	5163.22
427.52	5032.15
427.71	5139.82
427.90	5313.02
428.09	5284.93
428.28	5305.99
428.46	5315.36
428.65	5167.90
428.84	5394.93
429.03	5425.36
429.22	5128.11
429.40	5252.16
429.59	5397.28
429.78	5238.12
429.97	5179.61
430.16	5476.85
430.34	5565.79
430.53	5612.60
430.72	5584.52
430.91	5490.90
431.10	5514.30
431.28	5607.92
431.47	5589.20
431.66	5746.02
431.85	5825.59
432.03	5804.53
432.22	5982.41
432.41	5858.36
432.60	5877.09
432.79	5849.00
432.97	5804.53
433.16	6017.52
433.35	5860.70
433.54	5940.28
433.72	6139.23
433.91	6024.54
434.10	6036.24
434.28	6031.56
434.47	6078.37
434.66	6258.59
434.85	6289.02
435.03	6216.46
435.22	6179.01
435.41	6307.74
435.59	6139.23
435.78	6333.49
435.97	6349.87
436.16	6377.96
436.34	6347.53
436.53	6312.42
436.72	6668.19
436.90	6408.39
437.09	6654.14
437.28	6462.22
437.46	6494.99
437.65	6572.22
437.84	6766.49
438.02	6551.16
438.21	6630.74
438.40	6663.51
438.58	6820.32
438.77	6881.18
438.96	6747.76
439.14	6927.99
439.33	6841.39
439.52	7119.91
439.70	7150.34
439.89	7140.97
440.08	7260.34
440.26	7328.22
440.45	7159.70
440.63	7569.29
440.82	7534.18
441.01	7335.24
441.19	7447.58
441.38	7637.17
441.57	7630.15
441.75	7798.66
441.94	7829.09
442.12	7864.20
442.31	7903.99
442.50	7887.61
442.68	7758.88
442.87	7920.37
443.05	8278.47
443.24	7981.23
443.43	8189.53
443.61	8245.71
443.80	8168.47
443.98	8098.25
444.17	7754.19
444.35	8121.66
444.54	8348.69
444.73	8259.75
444.91	8168.47
445.10	8203.58
445.28	8173.15
445.47	8046.76
445.65	8344.01
445.84	8255.07
446.02	8418.91
446.21	8280.82
446.39	8311.24
446.58	8547.64
446.77	8287.84
446.95	8049.10
447.14	8049.10
447.32	8491.46
447.51	8372.10
447.69	8498.49
447.88	8498.49
448.06	8311.24
448.25	8496.14
448.43	8688.07
448.62	8615.51
448.80	8589.77
448.99	8538.27
449.17	8643.60
449.36	8304.22
449.54	8681.05
449.73	8905.74
449.91	9008.72
450.10	8772.33
450.28	8896.38
450.46	8926.80
450.65	9062.55
450.83	8943.19
451.02	8798.07
451.20	9191.28
451.39	8971.27
451.57	8943.19
451.76	9097.66
451.94	9013.40
452.13	9301.29
452.31	9287.25
452.49	9041.49
452.68	9446.40
452.86	9427.68
453.05	9245.12
453.23	9404.27
453.42	9174.90
453.60	9195.96
453.78	9439.38
453.97	9572.79
454.15	9217.03
454.34	9317.67
454.52	9614.92
454.70	9493.21
454.89	9547.05
455.07	9568.11
455.26	9652.37
455.44	9675.77
455.62	9806.84
455.81	9820.89
455.99	9921.53
456.17	10085.37
456.36	9900.47
456.54	10047.92
456.73	10314.74
456.91	10204.74
457.09	10162.61
457.28	10293.68
457.46	10104.09
457.64	10429.43
457.83	10530.07
458.01	10221.12
458.19	10464.54
458.38	10256.23
458.56	10719.65
458.74	10717.31
458.93	10651.78
459.11	10633.05
459.29	10689.23
459.48	10710.29
459.66	10736.04
459.84	10607.31
460.03	10853.06
460.21	10864.77
460.39	10918.60
460.57	10796.89
460.76	10923.28
460.94	11021.58
461.12	11145.63
461.31	11096.48
461.49	11047.33
461.67	11049.67
461.85	11283.72
462.04	11276.70
462.22	11641.82
462.40	11276.70
462.59	11438.20
462.77	11529.48
462.95	11590.33
463.13	11405.43
463.32	11485.01
463.50	11606.72
463.68	11592.67
463.86	11648.85
464.05	11309.47
464.23	11616.08
464.41	11894.60
464.59	11379.68
464.78	12030.35
464.96	11819.71
465.14	11639.48
465.32	11967.16
465.50	12072.48
465.69	12170.79
465.87	12105.25
466.05	11918.01
466.23	12074.82
466.41	12191.85
466.60	12381.43
466.78	11992.90
466.96	12135.68
467.14	12070.14
467.32	12269.09
467.51	12547.61
467.69	12306.54
467.87	12266.75
468.05	12449.31
468.23	12353.35
468.41	12294.83
468.60	12369.73
468.78	12760.60
468.96	12472.71
469.14	12725.49
469.32	12730.17
469.50	12458.67
469.69	12957.21
469.87	12905.71
470.05	12915.08
470.23	13172.54
470.41	13114.02
470.59	13259.13
470.77	13268.50
470.95	13130.41
471.14	13217.01
471.32	13149.13
471.50	13329.35
471.68	13408.93
471.86	13488.51
472.04	13635.96
472.22	13844.27
472.40	13228.71
472.58	13788.10
472.77	13823.20
472.95	13987.04
473.13	14637.71
473.31	13788.10
473.49	14029.17
473.67	14071.30
473.85	14218.75
474.03	14420.04
474.21	14312.38
474.39	14565.15
474.57	14326.42
474.75	14700.90
474.93	14944.32
475.12	14567.49
475.30	14972.41
475.48	15009.86
475.66	14904.53
475.84	14883.47
476.02	15431.15
476.20	15199.44
476.38	15798.62
476.56	15793.94
476.74	15915.64
476.92	15962.45
477.10	15646.48
477.28	15831.38
477.46	16212.89
477.64	16081.82
477.82	16400.13
478.00	16884.62
478.18	16484.39
478.36	16613.12
478.54	17212.30
478.72	16989.95
478.90	17380.82
479.08	17273.15
479.26	17490.82
479.44	17591.47
479.62	18185.96
479.80	17902.76
479.98	18047.87
480.16	18307.67
480.34	18026.81
480.52	18600.24
480.70	18780.46
480.88	18153.20
481.06	18466.83
481.24	18579.17
481.41	19007.49
481.59	19168.99
481.77	19314.10
481.95	19183.03
482.13	19686.25
482.31	19335.17
482.49	20018.60
482.67	20098.18
482.85	20236.27
483.03	20683.31
483.21	20451.60
483.39	20608.42
483.57	20657.57
483.74	21219.30
483.92	21181.85
484.10	20739.49
484.28	21434.63
484.46	21724.85
484.64	21692.08
484.82	21722.51
485.00	21926.14
485.18	22548.72
485.35	22483.19
485.53	22972.36
485.71	23035.55
485.89	23234.50
486.07	22974.70
486.25	23278.97
486.43	23433.44
486.61	23576.22
486.78	23665.16
486.96	23852.40
487.14	24271.36
487.32	24545.20
487.50	24748.82
487.68	24648.18
487.85	24809.68
488.03	25230.98
488.21	25628.87
488.39	25642.91
488.57	25724.83
488.75	25656.95
488.92	26061.87
489.10	26658.70
489.28	26796.79
489.46	26553.38
489.64	26904.46
489.81	27332.78
489.99	27243.84
490.17	27009.78
490.35	27468.53
490.53	28074.73
490.70	28346.23
490.88	27737.69
491.06	28643.48
491.24	28479.64
491.41	28589.64
491.59	29088.18
491.77	28992.22
491.95	29296.49
492.13	29572.67
492.30	29752.89
492.48	29731.83
492.66	30038.44
492.84	30010.35
493.01	30403.56
493.19	29972.90
493.37	30375.47
493.54	31154.87
493.72	31145.51
493.90	31515.31
494.08	31133.81
494.25	31786.82
494.43	31744.69
494.61	31531.70
494.79	32252.58
494.96	31962.36
495.14	32622.39
495.32	32765.16
495.49	32966.45
495.67	32877.51
495.85	32741.75
496.02	33596.05
496.20	33647.54
496.38	33956.49
496.55	33975.22
496.73	34581.42
496.91	34143.74
497.09	34504.18
497.26	34579.07
497.44	34448.00
497.62	34862.28
497.79	35154.85
497.97	35108.04
498.14	35407.62
498.32	35765.73
498.50	35627.63
498.67	36425.76
498.85	36219.79
499.03	36430.44
499.20	36631.72
499.38	36383.63
499.56	36708.96
499.73	36919.61
499.91	36947.70
500.08	37500.06
500.26	36807.26
500.44	37310.48
500.61	37408.78
500.79	37443.89
500.97	37923.70
501.14	37790.29
501.32	37874.55
501.49	38132.01
501.67	38525.22
501.84	38892.68
502.02	38520.54
502.20	38976.94
502.37	38827.15
502.55	39351.43
502.72	39426.32
502.90	39239.08
503.07	38965.24
503.25	39416.96
503.43	39447.39
503.60	39805.49
503.78	39695.49
503.95	40025.50
504.13	40652.76
504.30	40392.97
504.48	40222.11
504.65	40261.90
504.83	40371.90
505.01	40727.66
505.18	40875.12
505.36	41167.68
505.53	41092.79
505.71	41364.29
505.88	41198.11
506.06	40975.76
506.23	41673.24
506.41	41546.85
506.58	41942.40
506.76	41684.94
506.93	42176.45
507.11	42171.77
507.28	41769.20
507.46	42380.08
507.63	42429.23
507.81	42761.59
507.98	42373.06
508.16	42904.36
508.33	43414.60
508.50	42995.64
508.68	42962.87
508.85	42981.60
509.03	43278.85
509.20	43669.72
509.38	43906.11
509.55	43885.04
509.73	44121.44
509.90	44247.83
510.08	44198.68
510.25	44051.22
510.42	44247.83
510.60	44634.02
510.77	44898.50
510.95	45052.97
511.12	44952.33
511.30	45347.88
511.47	45043.61
511.64	44931.26
511.82	45790.24
511.99	45181.70
512.17	45965.78
512.34	45703.64
512.51	46220.90
512.69	46223.24
512.86	45832.37
513.04	46560.28
513.21	46146.00
513.38	46337.93
513.56	46607.09
513.73	46593.04
513.90	46625.81
514.08	46693.69
514.25	47096.26
514.43	46894.97
514.60	46962.85
514.77	47124.35
514.95	47154.77
515.12	47208.61
515.29	47653.31
515.47	47435.64
515.64	47718.84
515.81	47421.59
515.99	47835.87
516.16	47775.02
516.33	47842.89
516.51	48772.08
516.68	47917.79
516.85	48186.95
517.03	48250.14
517.20	48556.75
517.37	48601.22
517.54	48577.82
517.72	48666.76
517.89	48676.12
518.06	48886.77
518.24	48940.60
518.41	48917.20
518.58	48839.96
518.75	48741.66
518.93	48872.73
519.10	49130.19
519.27	49495.31
519.45	49514.03
519.62	49771.49
519.79	49748.09
519.96	49352.54
520.14	49996.18
520.31	49923.63
520.48	49874.48
520.65	50216.19
520.83	50604.72
521.00	50160.02
521.17	50408.12
521.34	49918.95
521.52	50347.26
521.69	50525.14
521.86	50370.67
522.03	50658.56
522.20	51098.58
522.38	51295.18
522.55	50831.75
522.72	50925.38
522.89	50862.18
523.07	51068.15
523.24	51035.38
523.41	51110.28
523.58	51112.62
523.75	51611.15
523.92	51789.03
524.10	51646.26
524.27	51601.79
524.44	51847.55
524.61	51517.53
524.78	51810.10
524.96	51756.27
525.13	51889.68
525.30	52100.32
525.47	52081.60
525.64	51784.35
525.81	52442.04
525.98	52640.99
526.16	52313.31
526.33	52493.54
526.50	52687.80
526.67	52303.95
526.84	52350.76
527.01	52327.36
527.18	52465.45
527.36	52839.93
527.53	52947.60
527.70	53092.71
527.87	52814.19
528.04	52786.10
528.21	53212.08
528.38	52935.90
528.55	53324.43
528.72	53265.91
528.89	53078.67
529.07	53233.14
529.24	53134.84
529.41	53535.07
529.58	53153.57
529.75	53488.26
529.92	53338.47
530.09	53413.37
530.26	53558.48
530.43	53462.52
530.60	53572.52
530.77	53773.81
530.94	53616.99
531.11	53715.29
531.28	53609.97
531.46	53752.74
531.63	53780.83
531.80	53794.87
531.97	54384.69
532.14	54143.61
532.31	54145.95
532.48	53883.81
532.65	54394.05
532.82	54241.92
532.99	54389.37
533.16	54255.96
533.33	54387.03
533.50	54642.15
533.67	54546.18
533.84	54279.36
534.01	54848.11
534.18	54815.35
534.35	54845.77
534.52	54616.40
534.69	55124.30
534.86	55011.95
535.03	54871.52
535.20	54899.61
535.37	55264.73
535.54	55098.55
535.71	55138.34
535.88	55131.32
536.05	55009.61
536.22	55339.63
536.38	55229.62
536.55	55550.27
536.72	55381.76
536.89	55264.73
537.06	55072.81
537.23	55491.76
537.40	55337.29
537.57	55585.38
537.74	55346.65
537.91	55875.61
538.08	55559.64
538.25	55353.67
538.42	55760.92
538.59	55861.57
538.75	55482.40
538.92	55662.62
539.09	55950.51
539.26	55941.14
539.43	56088.60
539.60	56065.19
539.77	55812.41
539.94	56175.20
540.11	56158.81
540.28	56200.94
540.44	56144.77
540.61	56303.93
540.78	56128.39
540.95	56282.86
541.12	55859.23
541.29	55987.95
541.46	56147.11
541.62	56416.27
541.79	56285.20
541.96	56186.90
542.13	56367.12
542.30	56470.11
542.47	56736.93
542.63	56767.35
542.80	56512.23
542.97	56797.78
543.14	56910.13
543.31	56872.68
543.48	57062.26
543.64	57226.10
543.81	57214.40
543.98	57090.35
544.15	57113.75
544.32	57216.74
544.48	57169.93
544.65	57190.99
544.82	57162.90
544.99	57041.20
545.16	57158.22
545.32	57158.22
545.49	57230.78
545.66	57418.02
545.83	57258.87
546.00	57586.54
546.16	57586.54
546.33	57188.65
546.50	57050.56
546.67	57436.75
546.83	57228.44
547.00	57474.20
547.17	57359.51
547.34	57621.65
547.50	57834.64
547.67	57979.75
547.84	57729.31
548.00	57813.57
548.17	57762.08
548.34	57694.21
548.51	58052.31
548.67	58021.88
548.84	57916.56
549.01	57801.87
549.18	57979.75
549.34	58117.84
549.51	58164.65
549.68	58267.64
549.84	58195.08
550.01	58403.39
550.18	57942.30
550.34	58078.05
550.51	58197.42
550.68	58457.22
550.84	57867.40
551.01	58258.27
551.18	58300.40
551.34	58024.22
551.51	58351.90
551.68	58342.53
551.84	58443.18
552.01	58185.72
552.18	58408.07
552.34	58295.72
552.51	58674.89
552.68	58358.92
552.84	58260.62
553.01	58658.51
553.18	58581.27
553.34	58525.10
553.51	58548.50
553.67	58710.00
553.84	58630.42
554.01	58581.27
554.17	58740.42
554.34	58761.49
554.51	58679.57
554.67	58869.15
554.84	58625.74
555.00	58717.02
555.17	58948.73
555.33	58695.95
555.50	58628.08
555.67	58590.63
555.83	58780.21
556.00	58688.93
556.16	59173.42
556.33	59021.29
556.50	59035.33
556.66	59126.61
556.83	59021.29
556.99	59032.99
557.16	59290.45
557.32	59175.76
557.49	59377.05
557.65	59000.22
557.82	59100.87
557.98	59054.06
558.15	59196.83
558.32	59374.71
558.48	59334.92
558.65	59283.43
558.81	59178.10
558.98	59339.60
559.14	59260.02
559.31	59653.23
559.47	59571.32
559.64	59468.33
559.80	59440.24
559.97	59587.70
560.13	59274.07
560.30	59723.45
560.46	59515.14
560.63	59653.23
560.79	59388.75
560.96	59529.19
561.12	59543.23
561.29	59606.42
561.45	59835.80
561.61	59650.89
561.78	59707.07
561.94	59564.29
562.11	59723.45
562.27	59552.59
562.44	59765.58
562.60	59887.29
562.77	59686.00
562.93	59599.40
563.10	59994.95
563.26	59725.79
563.42	60001.97
563.59	59601.74
563.75	59695.36
563.92	59971.55
564.08	59800.69
564.24	59950.48
564.41	60058.15
564.57	59770.26
564.74	59957.50
564.90	59826.43
565.07	59903.67
565.23	59952.82
565.39	59894.31
565.56	59999.63
565.72	59903.67
565.88	60121.34
566.05	59952.82
566.21	59957.50
566.38	59920.05
566.54	60189.22
566.70	60161.13
566.87	60238.37
567.03	60128.36
567.19	60196.24
567.36	60097.94
567.52	60023.04
567.68	60294.54
567.85	60182.19
568.01	60203.26
568.17	60226.66
568.34	60317.95
568.50	60156.45
568.66	60130.70
568.83	60254.75
568.99	60200.92
569.15	60402.21
569.32	60090.91
569.48	60170.49
569.64	60376.46
569.81	60231.35
569.97	60130.70
570.13	60097.94
570.30	60308.58
570.46	60420.93
570.62	60458.38
570.78	60418.59
570.95	60097.94
571.11	60420.93
571.27	60324.97
571.43	60357.74
571.60	60477.10
571.76	60444.33
571.92	60441.99
572.09	60381.14
572.25	60364.76
572.41	60385.82
572.57	60509.87
572.74	60591.79
572.90	60233.69
573.06	60420.93
573.22	60371.78
573.38	60563.70
573.55	60285.18
573.71	60481.78
573.87	60322.63
574.03	60367.10
574.20	60456.04
574.36	60254.75
574.52	60774.35
574.68	60507.53
574.84	60540.30
575.01	60575.40
575.17	60336.67
575.33	60491.15
575.49	60484.12
575.65	60420.93
575.82	60540.30
575.98	60575.40
576.14	60769.67
576.30	60549.66
576.46	60479.44
576.62	60781.37
576.79	60390.50
576.95	60299.22
577.11	60456.04
577.27	60561.36
577.43	60685.41
577.59	60519.23
577.75	60477.10
577.92	60458.38
578.08	60669.03
578.24	60645.62
578.40	60753.29
578.56	60924.14
578.72	60851.59
578.88	60706.47
579.04	60743.92
579.21	60685.41
579.37	60783.71
579.53	60722.86
579.69	60673.71
579.85	60629.24
580.01	60446.68
580.17	60544.98
580.33	60736.90
580.49	60781.37
580.65	60825.84
580.82	60631.58
580.98	60617.53
581.14	60797.76
581.30	60900.74
581.46	60755.63
581.62	60762.65
581.78	60556.68
581.94	60657.32
582.10	60779.03
582.26	60573.06
582.42	60828.18
582.58	60748.60
582.74	60652.64
582.90	60589.45
583.06	60631.58
583.22	60570.72
583.38	60537.96
583.54	60786.05
583.70	60633.92
583.86	60617.53
584.02	60465.40
584.18	60928.83
584.34	60816.48
584.50	60889.04
584.66	60739.24
584.82	60575.40
584.98	60720.52
585.14	60858.61
585.30	60835.20
585.46	60790.73
585.62	60764.99
585.78	60973.30
585.94	60760.31
586.10	60788.39
586.26	60849.25
586.42	60945.21
586.58	60842.23
586.74	60811.80
586.90	60694.77
587.06	60790.73
587.22	60926.49
587.38	60877.33
587.54	60898.40
587.70	60935.85
587.86	60821.16
588.02	60884.36
588.18	60963.93
588.34	60790.73
588.49	60872.65
