SpectraSuite Data File
++++++++++++++++++++++++++++++++++++
Date: Fri Oct 25 11:26:09 EDT 2013
User: price-jones
Dark Spectrum Present: No
Reference Spectrum Present: No
Number of Sampled Component Spectra: 1
Spectrometers: USB2+H05261
Integration Time (usec): 100000 (USB2+H05261)
Spectra Averaged: 1 (USB2+H05261)
Boxcar Smoothing: 0 (USB2+H05261)
Correct for Electrical Dark: No (USB2+H05261)
Strobe/Lamp Enabled: No (USB2+H05261)
Correct for Detector Non-linearity: No (USB2+H05261)
Correct for Stray Light: No (USB2+H05261)
Number of Pixels in Processed Spectrum: 2048
>>>>>Begin Processed Spectral Data<<<<<
365.73	220.01
365.92	220.01
366.12	220.01
366.32	126.39
366.52	135.75
366.72	222.35
366.91	166.18
367.11	142.77
367.31	138.09
367.51	114.69
367.70	107.66
367.90	131.07
368.10	131.07
368.30	74.90
368.49	212.99
368.69	166.18
368.89	100.64
369.09	133.41
369.28	187.24
369.48	177.88
369.68	273.84
369.87	215.33
370.07	177.88
370.27	184.90
370.47	273.84
370.66	578.11
370.86	617.90
371.06	648.33
371.25	657.69
371.45	648.33
371.65	704.50
371.84	660.03
372.04	660.03
372.24	716.20
372.44	711.52
372.63	699.82
372.83	763.01
373.03	805.14
373.22	868.34
373.42	842.59
373.62	716.20
373.81	772.38
374.01	816.85
374.21	819.19
374.40	758.33
374.60	812.17
374.79	828.55
374.99	805.14
375.19	781.74
375.38	851.96
375.58	884.72
375.78	828.55
375.97	858.98
376.17	901.11
376.37	901.11
376.56	894.08
376.76	905.79
376.95	833.23
377.15	931.53
377.35	908.13
377.54	842.59
377.74	903.45
377.93	854.30
378.13	1004.09
378.33	978.34
378.52	875.36
378.72	990.05
378.91	964.30
379.11	992.39
379.31	994.73
379.50	922.17
379.70	931.53
379.89	952.60
380.09	980.68
380.28	933.87
380.48	945.58
380.68	926.85
380.87	938.55
381.07	1006.43
381.26	1090.69
381.46	1071.97
381.65	1039.20
381.85	1006.43
382.04	1027.50
382.24	945.58
382.43	1008.77
382.63	1062.60
382.83	1219.42
383.02	1165.59
383.22	1111.75
383.41	1121.12
383.61	1067.28
383.80	1086.01
384.00	1100.05
384.19	1043.88
384.39	1198.35
384.58	1214.74
384.78	1081.33
384.97	1217.08
385.17	1184.31
385.36	1135.16
385.56	1102.39
385.75	1153.88
385.95	1029.84
386.14	1219.42
386.34	1308.36
386.53	1259.21
386.72	1210.06
386.92	1109.41
387.11	1259.21
387.31	1266.23
387.50	1268.57
387.70	1259.21
387.89	1170.27
388.09	1249.85
388.28	1306.02
388.48	1310.70
388.67	1294.32
388.86	1380.92
389.06	1348.15
389.25	1385.60
389.45	1327.08
389.64	1299.00
389.84	1376.24
390.03	1416.02
390.22	1308.36
390.42	1345.81
390.61	1406.66
390.81	1446.45
391.00	1317.72
391.19	1427.73
391.39	1341.13
391.58	1474.54
391.78	1453.47
391.97	1404.32
392.16	1483.90
392.36	1413.68
392.55	1551.78
392.75	1533.05
392.94	1556.46
393.13	1533.05
393.33	1540.07
393.52	1645.40
393.71	1549.43
393.91	1519.01
394.10	1530.71
394.29	1664.12
394.49	1643.06
394.68	1636.03
394.88	1509.65
395.07	1675.82
395.26	1535.39
395.46	1659.44
395.65	1720.29
395.84	1671.14
396.04	1741.36
396.23	1715.61
396.42	1762.42
396.62	1846.68
396.81	1827.96
397.00	1748.38
397.19	1675.82
397.39	1792.85
397.58	1895.83
397.77	1757.74
397.97	1844.34
398.16	1827.96
398.35	1926.26
398.55	1825.62
398.74	1888.81
398.93	1942.64
399.12	1839.66
399.32	1930.94
399.51	1872.43
399.70	1949.67
399.90	1987.11
400.09	2022.22
400.28	2087.76
400.47	2026.90
400.67	2078.40
400.86	2092.44
401.05	2059.67
401.24	2118.18
401.44	2108.82
401.63	2125.21
401.82	2132.23
402.01	2155.63
402.21	2179.04
402.40	2141.59
402.59	2207.13
402.78	2249.25
402.97	2270.32
403.17	2228.19
403.36	2321.81
403.55	2305.43
403.74	2476.29
403.93	2321.81
404.13	2181.38
404.32	2279.68
404.51	2375.64
404.70	2420.11
404.89	2450.54
405.09	2487.99
405.28	2403.73
405.47	2471.61
405.66	2518.42
405.85	2605.02
406.05	2593.31
406.24	2562.89
406.43	2457.56
406.62	2668.21
406.81	2637.78
407.00	2553.52
407.20	2504.37
407.39	2677.57
407.58	2656.51
407.77	2726.72
407.96	2637.78
408.15	2722.04
408.34	2794.60
408.54	2761.83
408.73	2920.99
408.92	2923.33
409.11	2902.26
409.30	2876.52
409.49	2895.24
409.68	2918.65
409.87	2874.18
410.07	3030.99
410.26	3040.36
410.45	3040.36
410.64	3110.57
410.83	3052.06
411.02	3105.89
411.21	3068.44
411.40	3101.21
411.59	3129.30
411.78	3194.83
411.98	3131.64
412.17	3108.23
412.36	3258.03
412.55	3337.60
412.74	3534.21
412.93	3414.84
413.12	3279.09
413.31	3440.59
413.50	3496.76
413.69	3478.04
413.88	3632.51
414.07	3506.12
414.26	3623.15
414.45	3709.75
414.64	3499.10
414.83	3779.97
415.02	3733.15
415.22	3859.54
415.41	3854.86
415.60	3819.75
415.79	3887.63
415.98	3887.63
416.17	4028.06
416.36	3953.16
416.55	3885.29
416.74	4102.96
416.93	4011.68
417.12	4046.79
417.31	4025.72
417.50	4056.15
417.69	4280.84
417.88	4425.95
418.07	4278.50
418.26	4283.18
418.45	4243.39
418.64	4437.66
418.83	4372.12
419.02	4475.10
419.21	4484.47
419.39	4519.57
419.58	4571.07
419.77	4411.91
419.96	4479.79
420.15	4730.22
420.34	4463.40
420.53	4671.71
420.72	4833.21
420.91	4732.56
421.10	4748.95
421.29	4774.69
421.48	4657.67
421.67	4793.42
421.86	4751.29
422.05	4816.82
422.24	4685.75
422.43	4828.53
422.61	4980.66
422.80	4929.17
422.99	4648.30
423.18	4849.59
423.37	4961.94
423.56	4961.94
423.75	5008.75
423.94	4779.37
424.13	4582.77
424.32	4791.08
424.50	5020.45
424.69	5081.30
424.88	5172.58
425.07	5029.81
425.26	4781.71
425.45	4802.78
425.64	4791.08
425.83	4917.47
426.01	5020.45
426.20	5132.79
426.39	5093.01
426.58	5008.75
426.77	5167.90
426.96	5114.07
427.15	5095.35
427.33	5158.54
427.52	5174.92
427.71	5132.79
427.90	5350.46
428.09	5228.76
428.28	5343.44
428.46	5364.51
428.65	5336.42
428.84	5446.43
429.03	5486.22
429.22	5313.02
429.40	5460.47
429.59	5535.37
429.78	5364.51
429.97	5448.77
430.16	5373.87
430.34	5614.95
430.53	5680.48
430.72	5530.69
430.91	5516.64
431.10	5488.56
431.28	5853.68
431.47	5846.66
431.66	5755.38
431.85	5647.71
432.03	6052.63
432.22	6090.07
432.41	5783.46
432.60	5811.55
432.79	6031.56
432.97	6076.03
433.16	5797.51
433.35	5874.74
433.54	6094.76
433.72	6106.46
433.91	6097.10
434.10	6155.61
434.28	6033.90
434.47	6085.39
434.66	6209.44
434.85	6282.00
435.03	6251.57
435.22	6183.70
435.41	6413.07
435.59	6235.19
435.78	6291.36
435.97	6457.54
436.16	6494.99
436.34	6389.66
436.53	6462.22
436.72	6672.87
436.90	6485.62
437.09	6562.86
437.28	6523.07
437.46	6506.69
437.65	6588.61
437.84	6750.10
438.02	6670.53
438.21	6738.40
438.40	6642.44
438.58	6836.70
438.77	6883.52
438.96	6972.46
439.14	7052.03
439.33	7007.56
439.52	7220.55
439.70	7297.79
439.89	7335.24
440.08	7353.96
440.26	7412.48
440.45	7370.35
440.63	7510.78
440.82	7576.31
441.01	7478.01
441.19	7375.03
441.38	7688.66
441.57	7730.79
441.75	7742.49
441.94	7903.99
442.12	7955.48
442.31	7932.08
442.50	7995.27
442.68	7903.99
442.87	7964.84
443.05	8018.68
443.24	8236.35
443.43	8156.77
443.61	8060.80
443.80	8538.27
443.98	8063.15
444.17	7901.65
444.35	8060.80
444.54	8297.20
444.73	8320.60
444.91	8116.98
445.10	8266.77
445.28	8432.95
445.47	8444.65
445.65	8126.34
445.84	8320.60
446.02	8524.23
446.21	8306.56
446.39	8306.56
446.58	8477.42
446.77	8545.30
446.95	8299.54
447.14	8446.99
447.32	8409.54
447.51	8461.04
447.69	8180.17
447.88	8210.60
448.06	8526.57
448.25	8465.72
448.43	8496.14
448.62	8596.79
448.80	8454.02
448.99	8615.51
449.17	8706.79
449.36	8596.79
449.54	8683.39
449.73	8957.23
449.91	8931.48
450.10	8889.35
450.28	9064.89
450.46	9074.26
450.65	9041.49
450.83	8922.12
451.02	8903.40
451.20	9200.65
451.39	9064.89
451.57	9090.64
451.76	8987.66
451.94	9270.86
452.13	9259.16
452.31	9191.28
452.49	8964.25
452.68	9359.80
452.86	9427.68
453.05	9462.79
453.23	9348.10
453.42	9235.75
453.60	9135.11
453.78	9650.03
453.97	9547.05
454.15	9430.02
454.34	9408.95
454.52	9755.35
454.70	9406.61
454.89	9816.21
455.07	9727.27
455.26	9748.33
455.44	9753.01
455.62	9966.00
455.81	9982.38
455.99	9792.80
456.17	10256.23
456.36	10150.90
456.54	10211.76
456.73	10260.91
456.91	10523.05
457.09	10401.34
457.28	10331.12
457.46	10188.35
457.64	10413.04
457.83	10368.57
458.01	10354.53
458.19	10595.61
458.38	10427.09
458.56	10607.31
458.74	10892.85
458.93	10677.52
459.11	10696.25
459.29	10764.12
459.48	10860.09
459.66	10656.46
459.84	10890.51
460.03	11073.07
460.21	10939.66
460.39	11267.34
460.57	11204.14
460.76	11126.91
460.94	11084.78
461.12	11232.23
461.31	11307.13
461.49	11154.99
461.67	10949.03
461.85	11468.62
462.04	11143.29
462.22	11871.20
462.40	11751.83
462.59	11421.81
462.77	11384.37
462.95	11515.44
463.13	11817.36
463.32	11709.70
463.50	11454.58
463.68	11641.82
463.86	11901.62
464.05	11452.24
464.23	11449.90
464.41	11859.49
464.59	11620.76
464.78	11955.46
464.96	12058.44
465.14	11910.99
465.32	12102.91
465.50	11939.07
465.69	12262.07
465.87	12271.43
466.05	12182.49
466.23	12194.19
466.41	12208.23
466.60	12542.93
466.78	12168.45
466.96	11878.22
467.14	12318.24
467.32	12243.34
467.51	12402.50
467.69	12156.74
467.87	12294.83
468.05	12585.06
468.23	12327.60
468.41	12388.46
468.60	12592.08
468.78	12877.63
468.96	12556.97
469.14	12791.03
469.32	12931.46
469.50	12505.48
469.69	13076.57
469.87	13153.81
470.05	13284.88
470.23	13125.72
470.41	13053.17
470.59	13497.87
470.77	13181.90
470.95	13032.10
471.14	13369.14
471.32	13235.73
471.50	13425.31
471.68	13479.15
471.86	13865.33
472.04	13364.46
472.22	14043.21
472.40	13617.24
472.58	13846.61
472.77	14019.81
472.95	14003.43
473.13	14415.36
473.31	14026.83
473.49	14132.15
473.67	13951.93
473.85	14050.24
474.03	14438.76
474.21	14654.09
474.39	14796.87
474.57	14712.61
474.75	14712.61
474.93	14995.81
475.12	15087.09
475.30	15077.73
475.48	14913.89
475.66	15267.31
475.84	15169.01
476.02	15520.09
476.20	15379.66
476.38	15702.65
476.56	15854.79
476.74	16013.95
476.92	15917.98
477.10	15807.98
477.28	16032.67
477.46	16145.02
477.64	16205.87
477.82	16430.56
478.00	16837.81
478.18	16908.03
478.36	16821.43
478.54	17277.83
478.72	17041.44
478.90	17345.71
479.08	17542.32
479.26	17467.42
479.44	17692.11
479.62	17818.50
479.80	17839.56
479.98	18195.32
480.16	18345.12
480.34	18387.25
480.52	18359.16
480.70	18391.93
480.88	18436.40
481.06	18478.53
481.24	18675.13
481.41	19192.39
481.59	19199.41
481.77	19569.22
481.95	19606.67
482.13	19646.46
482.31	19669.86
482.49	20191.80
482.67	20240.95
482.85	20276.06
483.03	20655.23
483.21	20608.42
483.39	20961.84
483.57	20767.57
483.74	21207.59
483.92	21420.58
484.10	21235.68
484.28	21900.39
484.46	21759.96
484.64	22054.87
484.82	21855.92
485.00	22197.64
485.18	22558.08
485.35	22721.92
485.53	22625.96
485.71	23222.80
485.89	23648.77
486.07	22897.46
486.25	23372.59
486.43	23269.61
486.61	24081.77
486.78	23939.00
486.96	24088.79
487.14	24203.48
487.32	24776.91
487.50	24903.30
487.68	24610.73
487.85	25076.50
488.03	25551.63
488.21	25879.30
488.39	25764.62
488.57	26209.32
488.75	25841.85
488.92	26572.10
489.10	26885.73
489.28	26588.49
489.46	26984.04
489.64	26637.64
489.81	27475.55
489.99	27295.33
490.17	27688.54
490.35	27641.73
490.53	27992.81
490.70	28393.04
490.88	28009.19
491.06	28704.33
491.24	28891.57
491.41	28643.48
491.59	28980.51
491.77	29076.48
491.95	29404.15
492.13	29734.17
492.30	29855.87
492.48	29874.60
492.66	29991.62
492.84	29949.50
493.01	30579.10
493.19	30649.32
493.37	30726.55
493.54	31133.81
493.72	31299.98
493.90	31412.33
494.08	31297.64
494.25	31548.08
494.43	31611.28
494.61	32088.74
494.79	32121.51
494.96	32311.10
495.14	32470.25
495.32	33448.60
495.49	33132.62
495.67	33263.69
495.85	33106.88
496.02	33380.72
496.20	34045.43
496.38	33706.05
496.55	33991.60
496.73	34632.91
496.91	34682.06
497.09	34754.61
497.26	35091.65
497.44	34403.53
497.62	34944.20
497.79	35372.52
497.97	35461.46
498.14	35789.13
498.32	35725.94
498.50	36079.36
498.67	36041.91
498.85	36360.22
499.03	36680.88
499.20	36503.00
499.38	36605.98
499.56	37064.72
499.73	36720.66
499.91	36765.14
500.08	37113.87
500.26	37319.84
500.44	37881.57
500.61	37799.65
500.79	37614.75
500.97	37530.49
501.14	38370.74
501.32	38649.27
501.49	38412.87
501.67	38422.23
501.84	38569.69
502.02	38998.01
502.20	38822.47
502.37	39201.63
502.55	39157.16
502.72	39360.79
502.90	39541.01
503.07	39161.84
503.25	39700.17
503.43	39363.13
503.60	39868.69
503.78	40067.63
503.95	39910.82
504.13	40311.05
504.30	40395.31
504.48	40364.88
504.65	40561.48
504.83	40753.41
505.01	41167.68
505.18	40945.33
505.36	41326.84
505.53	40952.35
505.71	41460.25
505.88	41675.58
506.06	41151.30
506.23	41659.20
506.41	41467.27
506.58	41825.37
506.76	42274.76
506.93	42562.64
507.11	41965.81
507.28	42213.90
507.46	42527.53
507.63	42792.01
507.81	43372.47
507.98	42691.37
508.16	42986.28
508.33	43276.51
508.50	43082.24
508.68	43278.85
508.85	43529.28
509.03	44102.71
509.20	43906.11
509.38	44418.69
509.55	43863.98
509.73	44158.89
509.90	43821.85
510.08	44058.24
510.25	44421.03
510.42	44692.53
510.60	44678.49
510.77	45034.25
510.95	45343.20
511.12	44893.82
511.30	44479.54
511.47	45387.67
511.64	45406.39
511.82	46047.70
511.99	45654.49
512.17	45752.79
512.34	45698.96
512.51	46539.21
512.69	46244.30
512.86	46293.46
513.04	46389.42
513.21	46216.22
513.38	46721.77
513.56	46567.30
513.73	47028.38
513.90	46555.60
514.08	46321.54
514.25	47365.42
514.43	47061.15
514.60	47187.54
514.77	47150.09
514.95	47519.90
515.12	47217.97
515.29	47086.90
515.47	47833.53
515.64	47917.79
515.81	47714.16
515.99	47711.82
516.16	48154.18
516.33	48088.65
516.51	48568.46
516.68	48100.35
516.85	48193.97
517.03	48699.53
517.20	48818.89
517.37	48348.45
517.54	48552.07
517.72	48741.66
517.89	48755.70
518.06	49277.64
518.24	49148.91
518.41	48964.01
518.58	49191.04
518.75	48772.08
518.93	49841.71
519.10	49397.01
519.27	49556.16
519.45	49518.71
519.62	50052.36
519.79	49539.78
519.96	49886.18
520.14	50007.89
520.31	49975.12
520.48	50354.29
520.65	49886.18
520.83	50326.20
521.00	50403.44
521.17	50515.78
521.34	50408.12
521.52	50815.37
521.69	50904.31
521.86	50621.11
522.03	50724.09
522.20	51107.94
522.38	51346.67
522.55	50878.57
522.72	51082.19
522.89	51194.54
523.07	51746.90
523.24	51112.62
523.41	51283.48
523.58	51379.44
523.75	51892.02
523.92	51517.53
524.10	51702.43
524.27	51538.60
524.44	51760.95
524.61	51997.34
524.78	51917.76
524.96	52030.11
525.13	52217.35
525.30	52161.18
525.47	52528.64
525.64	52196.29
525.81	52105.01
525.98	52420.98
526.16	52554.39
526.33	52404.59
526.50	52662.05
526.67	52451.41
526.84	52804.83
527.01	52444.38
527.18	52409.28
527.36	52917.17
527.53	52783.76
527.70	53420.39
527.87	53169.95
528.04	53066.97
528.21	53092.71
528.38	53254.21
528.55	53251.87
528.72	53514.01
528.89	53373.58
529.07	53279.96
529.24	53261.23
529.41	53616.99
529.58	53296.34
529.75	53743.38
529.92	53698.91
530.09	53822.96
530.26	53675.51
530.43	53954.03
530.60	53624.01
530.77	53794.87
530.94	54031.27
531.11	53991.48
531.28	53914.24
531.46	54377.67
531.63	54218.51
531.80	54017.22
531.97	54080.42
532.14	54188.08
532.31	54164.68
532.48	54291.07
532.65	54649.17
532.82	54178.72
532.99	54440.86
533.16	54160.00
533.33	54543.84
533.50	54995.57
533.67	54576.61
533.84	54302.77
534.01	54632.78
534.18	54855.14
534.35	55152.38
534.52	54672.57
534.69	55082.17
534.86	55194.51
535.03	54862.16
535.20	55079.83
535.37	55199.19
535.54	55583.04
535.71	54988.55
535.88	55402.82
536.05	55243.66
536.22	55393.46
536.38	55466.02
536.55	55276.43
536.72	55433.25
536.89	55313.88
537.06	55402.82
537.23	55789.01
537.40	55550.27
537.57	55339.63
537.74	55569.00
537.91	55847.52
538.08	55920.08
538.25	55571.34
538.42	56030.08
538.59	55749.22
538.75	55725.81
538.92	55950.51
539.09	56018.38
539.26	55997.32
539.43	55866.25
539.60	55955.19
539.77	56229.03
539.94	55978.59
540.11	56371.80
540.28	56140.09
540.44	55994.98
540.61	56294.56
540.78	56250.09
540.95	56390.53
541.12	56189.24
541.29	56119.02
541.46	56575.43
541.62	56470.11
541.79	56568.41
541.96	56247.75
542.13	56470.11
542.30	56388.19
542.47	56949.92
542.63	56900.76
542.80	56545.00
542.97	56828.21
543.14	57160.56
543.31	57120.77
543.48	56844.59
543.64	57069.28
543.81	57216.74
543.98	57279.93
544.15	56994.39
544.32	57350.15
544.48	57502.28
544.65	57090.35
544.82	57467.17
544.99	57198.01
545.16	57329.08
545.32	57293.97
545.49	57420.36
545.66	57623.99
545.83	57581.86
546.00	57832.30
546.16	57406.32
546.33	57308.02
546.50	57284.61
546.67	57586.54
546.83	57322.06
547.00	57581.86
547.17	57434.41
547.34	57663.78
547.50	57914.22
547.67	58064.01
547.84	57705.91
548.00	58085.07
548.17	58101.46
548.34	57773.78
548.51	58145.93
548.67	58246.57
548.84	58031.24
549.01	57841.66
549.18	58024.22
549.34	58129.54
549.51	58054.65
549.68	58274.66
549.84	58064.01
550.01	58368.28
550.18	58248.91
550.34	58337.85
550.51	58464.24
550.68	58206.78
550.84	57860.38
551.01	58326.15
551.18	58576.59
551.34	58206.78
551.51	58501.69
551.68	58511.05
551.84	58457.22
552.01	58349.56
552.18	58358.92
552.34	58541.48
552.51	58724.04
552.68	58337.85
552.84	58768.51
553.01	58698.30
553.18	58700.64
553.34	58845.75
553.51	58700.64
553.67	58756.81
553.84	58728.72
554.01	58915.96
554.17	58717.02
554.34	59082.14
554.51	58908.94
554.67	58922.99
554.84	58749.79
555.00	58770.85
555.17	58911.28
555.33	58962.78
555.50	58890.22
555.67	59011.93
555.83	58843.41
556.00	59025.97
556.16	59161.72
556.33	59215.55
556.50	58925.33
556.66	59358.33
556.83	59056.40
556.99	59391.09
557.16	59381.73
557.32	59358.33
557.49	59449.61
557.65	59166.40
557.82	59138.32
557.98	59395.77
558.15	59199.17
558.32	59384.07
558.48	59355.99
558.65	59339.60
558.81	59573.66
558.98	59393.43
559.14	59611.10
559.31	59578.34
559.47	59594.72
559.64	59533.87
559.80	59487.06
559.97	59554.93
560.13	59398.12
560.30	59519.82
560.46	59512.80
560.63	59643.87
560.79	59714.09
560.96	59732.81
561.12	59751.54
561.29	59711.75
561.45	59732.81
561.61	59622.81
561.78	59873.24
561.94	59840.48
562.11	59749.20
562.27	59929.42
562.44	59866.22
562.60	59917.71
562.77	59962.18
562.93	59465.99
563.10	59845.16
563.26	59831.11
563.42	60317.95
563.59	59807.71
563.75	59798.35
563.92	59847.50
564.08	59812.39
564.24	60121.34
564.41	60102.62
564.57	60081.55
564.74	60156.45
564.90	60081.55
565.07	60060.49
565.23	60025.38
565.39	59894.31
565.56	60271.14
565.72	60219.64
565.88	59950.48
566.05	60191.56
566.21	59927.08
566.38	60079.21
566.54	60168.15
566.70	60254.75
566.87	60413.91
567.03	60111.98
567.19	60182.19
567.36	60137.72
567.52	60133.04
567.68	60369.44
567.85	60200.92
568.01	60254.75
568.17	60233.69
568.34	60343.69
568.50	60170.49
568.66	60193.90
568.83	60282.84
568.99	60289.86
569.15	60540.30
569.32	60411.57
569.48	60250.07
569.64	60509.87
569.81	60357.74
569.97	60009.00
570.13	60266.45
570.30	60212.62
570.46	60390.50
570.62	60348.37
570.78	60350.71
570.95	60329.65
571.11	60446.68
571.27	60292.20
571.43	60397.52
571.60	60310.92
571.76	60420.93
571.92	60294.54
572.09	60331.99
572.25	60460.72
572.41	60540.30
572.57	60381.14
572.74	60678.39
572.90	60381.14
573.06	60570.72
573.22	60411.57
573.38	60554.34
573.55	60533.28
573.71	60685.41
573.87	60636.26
574.03	60643.28
574.20	60629.24
574.36	60374.12
574.52	60647.96
574.68	60542.64
574.84	60535.62
575.01	60729.88
575.17	60500.51
575.33	60516.89
575.49	60301.56
575.65	60715.84
575.82	60636.26
575.98	60839.89
576.14	60828.18
576.30	60596.47
576.46	60582.43
576.62	60617.53
576.79	60736.90
576.95	60643.28
577.11	60786.05
577.27	60788.39
577.43	60903.08
577.59	60610.51
577.75	60669.03
577.92	60535.62
578.08	60804.78
578.24	60762.65
578.40	60816.48
578.56	60795.42
578.72	60654.98
578.88	60910.10
579.04	60959.25
579.21	60816.48
579.37	60889.04
579.53	60743.92
579.69	60542.64
579.85	60612.85
580.01	60603.49
580.17	60540.30
580.33	60683.07
580.49	60687.75
580.65	60917.12
580.82	60814.14
580.98	60683.07
581.14	60657.32
581.30	61080.96
581.46	60893.72
581.62	60626.90
581.78	60657.32
581.94	60722.86
582.10	60865.63
582.26	60769.67
582.42	60795.42
582.58	60774.35
582.74	60797.76
582.90	60750.94
583.06	60647.96
583.22	60722.86
583.38	60903.08
583.54	60893.72
583.70	60933.51
583.86	60924.14
584.02	60956.91
584.18	60889.04
584.34	60940.53
584.50	60816.48
584.66	60860.95
584.82	60797.76
584.98	61052.87
585.14	61020.11
585.30	60879.67
585.46	60975.64
585.62	60912.44
585.78	61013.08
585.94	60772.01
586.10	60954.57
586.26	60907.76
586.42	60912.44
586.58	61120.75
586.74	60903.08
586.90	61029.47
587.06	60928.83
587.22	60882.02
587.38	60821.16
587.54	61237.78
587.70	61083.30
587.86	61015.43
588.02	61020.11
588.18	61038.83
588.34	60912.44
588.49	61062.24
