SpectraSuite Data File
++++++++++++++++++++++++++++++++++++
Date: Fri Oct 25 10:47:12 EDT 2013
User: price-jones
Dark Spectrum Present: No
Reference Spectrum Present: No
Number of Sampled Component Spectra: 1
Spectrometers: USB2+H05261
Integration Time (usec): 100000 (USB2+H05261)
Spectra Averaged: 1 (USB2+H05261)
Boxcar Smoothing: 0 (USB2+H05261)
Correct for Electrical Dark: No (USB2+H05261)
Strobe/Lamp Enabled: No (USB2+H05261)
Correct for Detector Non-linearity: No (USB2+H05261)
Correct for Stray Light: No (USB2+H05261)
Number of Pixels in Processed Spectrum: 2048
>>>>>Begin Processed Spectral Data<<<<<
365.73	154.48
365.92	154.48
366.12	154.48
366.32	86.60
366.52	35.11
366.72	72.56
366.91	25.75
367.11	88.94
367.31	16.38
367.51	53.83
367.70	35.11
367.90	79.58
368.10	30.43
368.30	11.70
368.49	0.00
368.69	74.90
368.89	23.41
369.09	37.45
369.28	72.56
369.48	32.77
369.68	30.43
369.87	72.56
370.07	98.30
370.27	119.37
370.47	196.60
370.66	344.06
370.86	416.62
371.06	433.00
371.25	517.26
371.45	440.02
371.65	456.40
371.84	393.21
372.04	383.85
372.24	507.90
372.44	456.40
372.63	465.77
372.83	454.06
373.03	458.74
373.22	428.32
373.42	517.26
373.62	533.64
373.81	526.62
374.01	500.87
374.21	550.03
374.40	533.64
374.60	641.31
374.79	500.87
374.99	505.56
375.19	589.82
375.38	500.87
375.58	500.87
375.78	592.16
375.97	636.63
376.17	587.47
376.37	589.82
376.56	603.86
376.76	547.69
376.95	613.22
377.15	620.24
377.35	678.76
377.54	613.22
377.74	545.34
377.93	550.03
378.13	624.92
378.33	528.96
378.52	622.58
378.72	580.45
378.91	606.20
379.11	559.39
379.31	573.43
379.50	543.00
379.70	648.33
379.89	678.76
380.09	615.56
380.28	692.80
380.48	718.54
380.68	650.67
380.87	681.10
381.07	667.05
381.26	669.39
381.46	627.26
381.65	711.52
381.85	697.48
382.04	664.71
382.24	674.07
382.43	648.33
382.63	711.52
382.83	711.52
383.02	706.84
383.22	765.36
383.41	657.69
383.61	681.10
383.80	678.76
384.00	662.37
384.19	716.20
384.39	765.36
384.58	718.54
384.78	727.91
384.97	777.06
385.17	699.82
385.36	713.86
385.56	777.06
385.75	711.52
385.95	819.19
386.14	791.10
386.34	779.40
386.53	779.40
386.72	746.63
386.92	858.98
387.11	805.14
387.31	856.64
387.50	842.59
387.70	816.85
387.89	840.25
388.09	866.00
388.28	737.27
388.48	755.99
388.67	844.93
388.86	828.55
389.06	858.98
389.25	821.53
389.45	847.27
389.64	954.94
389.84	781.74
390.03	905.79
390.22	873.02
390.42	940.90
390.61	858.98
390.81	901.11
391.00	894.08
391.19	976.00
391.39	915.15
391.58	1043.88
391.78	950.26
391.97	1032.18
392.16	901.11
392.36	971.32
392.55	922.17
392.75	980.68
392.94	915.15
393.13	933.87
393.33	917.49
393.52	915.15
393.71	990.05
393.91	1032.18
394.10	987.71
394.29	1034.52
394.49	1011.11
394.68	1116.44
394.88	1055.58
395.07	1123.46
395.26	1114.10
395.46	1039.20
395.65	1139.84
395.84	1078.99
396.04	1193.67
396.23	1076.65
396.42	1093.03
396.62	1050.90
396.81	1090.69
397.00	1090.69
397.19	1165.59
397.39	1174.95
397.58	1219.42
397.77	1177.29
397.97	1172.61
398.16	1210.06
398.35	1240.48
398.55	1188.99
398.74	1320.06
398.93	1277.93
399.12	1348.15
399.32	1294.32
399.51	1303.68
399.70	1380.92
399.90	1235.80
400.09	1275.59
400.28	1397.30
400.47	1306.02
400.67	1259.21
400.86	1446.45
401.05	1423.05
401.24	1448.79
401.44	1430.07
401.63	1472.20
401.82	1469.86
402.01	1277.93
402.21	1526.03
402.40	1526.03
402.59	1411.34
402.78	1596.25
402.97	1551.78
403.17	1481.56
403.36	1483.90
403.55	1614.97
403.74	1481.56
403.93	1624.33
404.13	1664.12
404.32	1610.29
404.51	1577.52
404.70	1685.19
404.89	1570.50
405.09	1650.08
405.28	1713.27
405.47	1685.19
405.66	1755.40
405.85	1692.21
406.05	1610.29
406.24	1818.60
406.43	1825.62
406.62	1720.29
406.81	1788.17
407.00	1767.10
407.20	1825.62
407.39	1802.21
407.58	1849.02
407.77	1811.57
407.96	1921.58
408.15	2005.84
408.34	1816.26
408.54	1930.94
408.73	1902.86
408.92	2024.56
409.11	1984.77
409.30	1940.30
409.49	2017.54
409.68	1954.35
409.87	2031.58
410.07	1984.77
410.26	2026.90
410.45	2010.52
410.64	2031.58
410.83	2165.00
411.02	2176.70
411.21	2251.60
411.40	2195.42
411.59	2228.19
411.78	2202.44
411.98	2209.47
412.17	2172.02
412.36	2296.07
412.55	2256.28
412.74	2363.94
412.93	2394.37
413.12	2312.45
413.31	2504.37
413.50	2492.67
413.69	2436.50
413.88	2551.18
414.07	2520.76
414.26	2492.67
414.45	2574.59
414.64	2621.40
414.83	2572.25
415.02	2609.70
415.22	2607.36
415.41	2750.13
415.60	2642.46
415.79	2834.39
415.98	2775.88
416.17	2874.18
416.36	2789.92
416.55	2738.43
416.74	2892.90
416.93	2853.11
417.12	2899.92
417.31	2916.31
417.50	2913.97
417.69	2958.44
417.88	3075.46
418.07	2899.92
418.26	2951.42
418.45	3012.27
418.64	3194.83
418.83	3019.29
419.02	3068.44
419.21	3166.74
419.39	3180.79
419.58	3152.70
419.77	3091.85
419.96	3208.87
420.15	3346.97
420.34	3133.98
420.53	3199.51
420.72	3173.77
420.91	3157.38
421.10	3290.79
421.29	3300.16
421.48	3353.99
421.67	3356.33
421.86	3321.22
422.05	3279.09
422.24	3283.77
422.43	3311.86
422.61	3307.18
422.80	3386.76
422.99	3536.55
423.18	3426.54
423.37	3609.11
423.56	3501.44
423.75	3499.10
423.94	3346.97
424.13	3236.96
424.32	3372.71
424.50	3346.97
424.69	3503.78
424.88	3604.42
425.07	3410.16
425.26	3412.50
425.45	3468.67
425.64	3480.38
425.83	3391.44
426.01	3609.11
426.20	3485.06
426.39	3445.27
426.58	3531.87
426.77	3452.29
426.96	3620.81
427.15	3478.04
427.33	3590.38
427.52	3662.94
427.71	3524.85
427.90	3681.66
428.09	3630.17
428.28	3592.72
428.46	3648.90
428.65	3723.79
428.84	3758.90
429.03	3810.39
429.22	3639.53
429.40	3660.60
429.59	3786.99
429.78	3480.38
429.97	3552.93
430.16	3639.53
430.34	3681.66
430.53	3721.45
430.72	3824.44
430.91	3794.01
431.10	3913.38
431.28	3988.27
431.47	3990.61
431.66	3999.98
431.85	3983.59
432.03	4168.49
432.22	4105.30
432.41	4079.55
432.60	4112.32
432.79	4138.07
432.97	4121.68
433.16	4278.50
433.35	4114.66
433.54	4072.53
433.72	4304.25
433.91	4049.13
434.10	4187.22
434.28	4140.41
434.47	4173.18
434.66	4241.05
434.85	4374.46
435.03	4397.87
435.22	4306.59
435.41	4442.34
435.59	4320.63
435.78	4451.70
435.97	4545.32
436.16	4379.14
436.34	4355.74
436.53	4418.93
436.72	4484.47
436.90	4561.70
437.09	4554.68
437.28	4540.64
437.46	4599.15
437.65	4786.40
437.84	4648.30
438.02	4545.32
438.21	4786.40
438.40	4540.64
438.58	4835.55
438.77	4753.63
438.96	4711.50
439.14	4985.34
439.33	4945.55
439.52	4959.60
439.70	4812.14
439.89	5060.24
440.08	5217.05
440.26	5181.95
440.45	5006.41
440.63	5228.76
440.82	5254.50
441.01	5224.08
441.19	5334.08
441.38	5451.11
441.57	5369.19
441.75	5378.55
441.94	5458.13
442.12	5408.98
442.31	5746.02
442.50	5490.90
442.68	5413.66
442.87	5544.73
443.05	5509.62
443.24	5746.02
443.43	5596.22
443.61	5596.22
443.80	5886.45
443.98	5462.81
444.17	5568.13
444.35	5668.78
444.54	5696.86
444.73	5706.23
444.91	5701.54
445.10	5518.98
445.28	5699.20
445.47	5547.07
445.65	5652.39
445.84	5701.54
446.02	5781.12
446.21	5734.31
446.39	5741.33
446.58	5701.54
446.77	5736.65
446.95	5825.59
447.14	5856.02
447.32	5966.03
447.51	5809.21
447.69	5767.08
447.88	5853.68
448.06	5856.02
448.25	5844.32
448.43	5804.53
448.62	5865.38
448.80	5970.71
448.99	5748.36
449.17	5977.73
449.36	6073.69
449.54	6064.33
449.73	6361.58
449.91	6253.91
450.10	6218.80
450.28	6342.85
450.46	6310.08
450.65	6207.10
450.83	6225.82
451.02	6160.29
451.20	6354.55
451.39	6319.45
451.57	6284.34
451.76	6293.70
451.94	6363.92
452.13	6258.59
452.31	6274.98
452.49	6202.42
452.68	6296.04
452.86	6436.47
453.05	6558.18
453.23	6630.74
453.42	6464.56
453.60	6478.60
453.78	6619.04
453.97	6420.09
454.15	6509.03
454.34	6553.50
454.52	6534.78
454.70	6614.35
454.89	6520.73
455.07	6644.78
455.26	6745.42
455.44	6729.04
455.62	6607.33
455.81	6633.08
455.99	6825.00
456.17	6853.09
456.36	6918.62
456.54	7030.97
456.73	6911.60
456.91	7019.27
457.09	6951.39
457.28	7349.28
457.46	6949.05
457.64	7082.46
457.83	7155.02
458.01	6923.30
458.19	7463.97
458.38	7110.55
458.56	7258.00
458.74	7391.41
458.93	7133.95
459.11	7379.71
459.29	7307.15
459.48	7365.67
459.66	7363.33
459.84	7433.54
460.03	7412.48
460.21	7314.17
460.39	7470.99
460.57	7335.24
460.76	7513.12
460.94	7576.31
461.12	7414.82
461.31	7751.85
461.49	7742.49
461.67	7566.95
461.85	7707.38
462.04	7719.09
462.22	8320.60
462.40	7840.79
462.59	7838.45
462.77	8006.97
462.95	7810.37
463.13	7705.04
463.32	7892.29
463.50	7911.01
463.68	8025.70
463.86	7906.33
464.05	7712.07
464.23	7932.08
464.41	8030.38
464.59	7712.07
464.78	8056.12
464.96	7861.86
465.14	8021.02
465.32	8102.93
465.50	8070.17
465.69	8056.12
465.87	8035.06
466.05	8035.06
466.23	8287.84
466.41	8205.92
466.60	8217.62
466.78	8163.79
466.96	8304.22
467.14	8257.41
467.32	8362.73
467.51	8418.91
467.69	8023.36
467.87	8215.28
468.05	8339.33
468.23	8297.20
468.41	8390.82
468.60	8449.33
468.78	8601.47
468.96	8554.66
469.14	8505.51
469.32	8704.45
469.50	8409.54
469.69	8702.11
469.87	8634.24
470.05	8727.86
470.23	8858.93
470.41	8760.63
470.59	8877.65
470.77	9032.13
470.95	8877.65
471.14	8985.32
471.32	8924.46
471.50	9008.72
471.68	9013.40
471.86	8954.89
472.04	8943.19
472.22	9240.44
472.40	9001.70
472.58	9184.26
472.77	9039.15
472.95	9343.42
473.13	9720.24
473.31	9315.33
473.49	9210.01
473.67	9329.38
473.85	9479.17
474.03	9624.28
474.21	9713.22
474.39	9795.14
474.57	9694.50
474.75	9717.90
474.93	9975.36
475.12	9846.63
475.30	9977.70
475.48	9949.62
475.66	9989.41
475.84	10033.88
476.02	10068.98
476.20	10176.65
476.38	10431.77
476.56	10450.49
476.74	10354.53
476.92	10511.35
477.10	10583.90
477.28	10754.76
477.46	10614.33
477.64	10827.32
477.82	10878.81
478.00	11068.39
478.18	11077.76
478.36	11208.83
478.54	11257.98
478.72	11154.99
478.90	11293.08
479.08	11777.58
479.26	11639.48
479.44	11637.14
479.62	11721.40
479.80	11714.38
479.98	11875.88
480.16	11969.50
480.34	11726.08
480.52	12086.53
480.70	12248.02
480.88	12084.19
481.06	12203.55
481.24	12631.87
481.41	12510.16
481.59	12788.69
481.77	12826.14
481.95	12709.11
482.13	12875.29
482.31	12952.52
482.49	13181.90
482.67	13074.23
482.85	13462.76
483.03	13469.78
483.21	13626.60
483.39	13813.84
483.57	13720.22
483.74	13743.63
483.92	14017.47
484.10	13907.46
484.28	14139.18
484.46	14370.89
484.64	14377.91
484.82	14223.44
485.00	14420.04
485.18	14700.90
485.35	14839.00
485.53	14576.86
485.71	14794.53
485.89	15012.20
486.07	15426.47
486.25	14967.73
486.43	15314.13
486.61	15447.54
486.78	15655.84
486.96	15639.46
487.14	15962.45
487.32	15917.98
487.50	16095.86
487.68	16189.49
487.85	16678.66
488.03	16503.12
488.21	16599.08
488.39	16556.95
488.57	17048.46
488.75	16798.02
488.92	17139.74
489.10	17294.22
489.28	17170.17
489.46	17635.94
489.64	17596.15
489.81	18192.98
489.99	18050.21
490.17	17961.27
490.35	18085.32
490.53	18288.95
490.70	18394.27
490.88	18373.21
491.06	18820.25
491.24	18782.80
491.41	18633.00
491.59	18757.05
491.77	18862.38
491.95	19021.53
492.13	19262.61
492.30	19218.14
492.48	19494.32
492.66	19833.70
492.84	19484.96
493.01	19819.66
493.19	20044.35
493.37	20203.50
493.54	20133.29
493.72	20336.91
493.90	20350.96
494.08	20547.56
494.25	20978.22
494.43	21088.23
494.61	20964.18
494.79	20833.11
494.96	20702.04
495.14	21029.71
495.32	21584.42
495.49	21530.59
495.67	21631.23
495.85	21479.10
496.02	21748.26
496.20	22066.57
496.38	21802.09
496.55	22024.44
496.73	22436.38
496.91	22438.72
497.09	22356.80
497.26	22857.67
497.44	22597.87
497.62	22745.33
497.79	22860.01
497.97	22885.76
498.14	23173.64
498.32	23140.88
498.50	23138.54
498.67	23627.71
498.85	23447.49
499.03	23889.85
499.20	23262.58
499.38	23616.01
499.56	24053.69
499.73	23948.36
499.91	24112.20
500.08	24372.00
500.26	24091.13
500.44	24135.60
500.61	24367.32
500.79	24315.83
500.97	24549.88
501.14	24889.26
501.32	25046.07
501.49	24409.45
501.67	24812.02
501.84	25095.22
502.02	24987.56
502.20	25429.92
502.37	24966.49
502.55	25151.40
502.72	25481.41
502.90	25104.59
503.07	25626.53
503.25	25860.58
503.43	25448.64
503.60	26029.10
503.78	25942.50
503.95	25869.94
504.13	25940.16
504.30	26251.45
504.48	25970.58
504.65	26199.96
504.83	26469.12
505.01	26611.89
505.18	26649.34
505.36	26548.70
505.53	26717.22
505.71	26993.40
505.88	27206.39
506.06	26436.35
506.23	26852.97
506.41	26829.56
506.58	27096.38
506.76	27232.13
506.93	27374.91
507.11	27307.03
507.28	27243.84
507.46	27241.50
507.63	27508.32
507.81	27625.34
507.98	27391.29
508.16	27838.33
508.33	28060.68
508.50	28016.21
508.68	28205.80
508.85	28566.24
509.03	28334.53
509.20	28261.97
509.38	28460.91
509.55	29064.77
509.73	28507.72
509.90	28676.24
510.08	28723.05
510.25	28762.84
510.42	28826.04
510.60	28994.56
510.77	29039.03
510.95	29099.88
511.12	29092.86
511.30	28910.30
511.47	29432.24
511.64	29603.10
511.82	29827.79
511.99	29380.74
512.17	29411.17
512.34	29647.57
512.51	29802.04
512.69	29923.75
512.86	30113.33
513.04	30127.38
513.21	30389.52
513.38	30270.15
513.56	30300.58
513.73	29993.97
513.90	30480.80
514.08	30422.28
514.25	30546.33
514.43	30761.66
514.60	30338.02
514.77	30806.13
514.95	30845.92
515.12	30764.00
515.29	30689.10
515.47	30862.30
515.64	31309.35
515.81	31012.10
515.99	31335.09
516.16	31318.71
516.33	31442.76
516.51	31604.25
516.68	31131.47
516.85	31395.95
517.03	31470.84
517.20	31510.63
517.37	31850.01
517.54	31842.99
517.72	31831.29
517.89	31494.25
518.06	31985.76
518.24	32105.13
518.41	31728.30
518.58	31803.20
518.75	32086.40
518.93	32430.46
519.10	32397.70
519.27	32339.18
519.45	32554.51
519.62	32968.79
519.79	32877.51
519.96	32833.04
520.14	33043.68
520.31	32615.37
520.48	32910.27
520.65	32774.52
520.83	33308.16
521.00	33099.86
521.17	33357.32
521.34	33233.27
521.52	33958.83
521.69	33455.62
521.86	33544.56
522.03	33553.92
522.20	33734.14
522.38	34162.46
522.55	34132.03
522.72	33617.11
522.89	33806.70
523.07	33661.58
523.24	33579.67
523.41	33968.19
523.58	33521.15
523.75	34785.04
523.92	34195.23
524.10	34529.92
524.27	34373.11
524.44	34792.06
524.61	34422.26
524.78	34614.18
524.96	34911.43
525.13	34740.57
525.30	35150.17
525.47	35330.39
525.64	34754.61
525.81	35484.86
525.98	34567.37
526.16	35271.87
526.33	34958.24
526.50	35501.25
526.67	35147.82
526.84	35058.88
527.01	35164.21
527.18	35337.41
527.36	35363.15
527.53	35613.59
527.70	35924.88
527.87	36339.16
528.04	35503.59
528.21	35583.16
528.38	35599.55
528.55	35871.05
528.72	35990.42
528.89	35964.67
529.07	36402.35
529.24	35981.06
529.41	36327.45
529.58	36018.50
529.75	35978.72
529.92	36313.41
530.09	36360.22
530.26	36290.01
530.43	36589.59
530.60	36299.37
530.77	36329.80
530.94	36603.64
531.11	36259.58
531.28	36680.88
531.46	36818.97
531.63	36886.84
531.80	36776.84
531.97	36694.92
532.14	36701.94
532.31	36804.92
532.48	36882.16
532.65	37483.68
532.82	37085.79
532.99	37074.09
533.16	36751.09
533.33	37380.70
533.50	37139.62
533.67	37181.75
533.84	37315.16
534.01	37237.92
534.18	37368.99
534.35	37453.25
534.52	37263.67
534.69	37528.15
534.86	37581.98
535.03	37762.20
535.20	37841.78
535.37	37797.31
535.54	38040.73
535.71	38057.11
535.88	38005.62
536.05	38380.10
536.22	37907.32
536.38	37940.08
536.55	38155.41
536.72	38029.02
536.89	38220.95
537.06	37757.52
537.23	38227.97
537.40	38078.18
537.57	38094.56
537.74	37956.47
537.91	39063.54
538.08	38700.76
538.25	38277.12
538.42	38536.92
538.59	38752.25
538.75	38305.21
538.92	38976.94
539.09	38866.94
539.26	38918.43
539.43	38675.01
539.60	38644.59
539.77	38801.40
539.94	39180.57
540.11	38962.90
540.28	38775.66
540.44	38775.66
540.61	38909.07
540.78	38691.40
540.95	38998.01
541.12	39473.13
541.29	39229.72
541.46	39264.83
541.62	39496.54
541.79	39639.31
541.96	39203.97
542.13	39093.97
542.30	39236.74
542.47	39208.65
542.63	39604.20
542.80	39559.73
542.97	40161.25
543.14	40488.93
543.31	40105.08
543.48	39725.91
543.64	40294.66
543.81	40037.20
543.98	40397.65
544.15	40126.14
544.32	40313.39
544.48	40465.52
544.65	40282.96
544.82	40526.38
544.99	39992.73
545.16	40549.78
545.32	40591.91
545.49	40751.07
545.66	40601.27
545.83	40526.38
546.00	40945.33
546.16	40456.16
546.33	40645.74
546.50	40781.49
546.67	40734.68
546.83	40268.92
547.00	40421.05
547.17	40252.53
547.34	40123.80
547.50	40669.15
547.67	41017.89
547.84	41233.22
548.00	40865.75
548.17	40746.39
548.34	40882.14
548.51	41282.37
548.67	41549.19
548.84	41165.34
549.01	41193.43
549.18	41113.85
549.34	41347.90
549.51	41258.96
549.68	41670.90
549.84	41862.82
550.01	41500.04
550.18	41535.15
550.34	41577.28
550.51	41244.92
550.68	41364.29
550.84	41277.69
551.01	41701.32
551.18	41481.31
551.34	42185.82
551.51	41420.46
551.68	41591.32
551.84	41883.89
552.01	41839.42
552.18	41811.33
552.34	42075.81
552.51	42066.45
552.68	42351.99
552.84	42099.22
553.01	42604.77
553.18	42143.69
553.34	42230.29
553.51	42213.90
553.67	41610.04
553.84	42359.02
554.01	42602.43
554.17	42384.76
554.34	42253.69
554.51	42464.34
554.67	42190.50
554.84	42169.43
555.00	42462.00
555.17	42146.03
555.33	42239.65
555.50	42223.26
555.67	42518.17
555.83	42375.40
556.00	42569.66
556.16	42843.51
556.33	43044.79
556.50	42796.70
556.66	42586.05
556.83	42396.46
556.99	42717.12
557.16	42911.38
557.32	43241.40
557.49	42419.87
557.65	42546.26
557.82	42546.26
557.98	42684.35
558.15	42665.63
558.32	42466.68
558.48	43365.45
558.65	42724.14
558.81	42974.58
558.98	42852.87
559.14	42696.05
559.31	42937.13
559.47	43016.71
559.64	43328.00
559.80	43086.92
559.97	43337.36
560.13	42897.34
560.30	43283.53
560.46	43089.26
560.63	43281.19
560.79	43278.85
560.96	43562.05
561.12	42895.00
561.29	43133.73
561.45	42717.12
561.61	43482.47
561.78	43283.53
561.94	43386.51
562.11	43232.04
562.27	43339.70
562.44	43107.99
562.60	43253.10
562.77	43622.90
562.93	43536.30
563.10	43812.49
563.26	42988.62
563.42	43477.79
563.59	43421.62
563.75	43328.00
563.92	43524.60
564.08	43725.89
564.24	43564.39
564.41	43124.37
564.57	43302.25
564.74	43349.06
564.90	43812.49
565.07	43746.95
565.23	43517.58
565.39	43524.60
565.56	43735.25
565.72	43220.33
565.88	43615.88
566.05	43576.09
566.21	43491.83
566.38	43704.82
566.54	43550.35
566.70	43861.64
566.87	43976.33
567.03	43669.72
567.19	43880.36
567.36	43810.15
567.52	43798.44
567.68	43412.26
567.85	43674.40
568.01	43688.44
568.17	43407.58
568.34	43812.49
568.50	43924.83
568.66	43798.44
568.83	44074.63
568.99	43920.15
569.15	43290.55
569.32	43959.94
569.48	43650.99
569.64	44179.95
569.81	43924.83
569.97	43814.83
570.13	43945.90
570.30	43758.66
570.46	43613.54
570.62	43512.90
570.78	43484.81
570.95	43796.10
571.11	44315.70
571.27	43803.13
571.43	44002.07
571.60	43447.36
571.76	43632.27
571.92	44154.21
572.09	43917.81
572.25	43922.49
572.41	43716.53
572.57	43894.41
572.74	44793.17
572.90	44411.67
573.06	43913.13
573.22	43931.86
573.38	44222.08
573.55	43995.05
573.71	44416.35
573.87	44182.29
574.03	43906.11
574.20	44123.78
574.36	43908.45
574.52	43728.23
574.68	44161.23
574.84	44271.23
575.01	44130.80
575.17	44208.04
575.33	43849.94
575.49	44210.38
575.65	44528.69
575.82	44694.87
575.98	43922.49
576.14	44212.72
576.30	44275.91
576.46	44013.77
576.62	44135.48
576.79	43817.17
576.95	43763.34
577.11	44018.46
577.27	44311.02
577.43	44830.62
577.59	44612.95
577.75	44091.01
577.92	44062.93
578.08	44212.72
578.24	43702.48
578.40	44121.44
578.56	44079.31
578.72	44479.54
578.88	44210.38
579.04	44313.36
579.21	44053.56
579.37	44212.72
579.53	43934.20
579.69	44210.38
579.85	43943.56
580.01	44514.65
580.17	44388.26
580.33	44442.09
580.49	44334.43
580.65	44458.48
580.82	44479.54
580.98	44048.88
581.14	44067.61
581.30	43978.67
581.46	44486.56
581.62	43917.81
581.78	44327.41
581.94	44402.30
582.10	44313.36
582.26	44603.59
582.42	44542.74
582.58	44376.56
582.74	44067.61
582.90	44296.98
583.06	44980.42
583.22	44493.58
583.38	44547.42
583.54	44582.52
583.70	44016.11
583.86	44348.47
584.02	43854.62
584.18	44095.69
584.34	44112.08
584.50	44186.97
584.66	44238.47
584.82	44081.65
584.98	44561.46
585.14	44601.25
585.30	44299.32
585.46	44685.51
585.62	44449.11
585.78	44332.09
585.94	44184.63
586.10	44484.22
586.26	44254.85
586.42	44247.83
586.58	44404.64
586.74	44201.02
586.90	44133.14
587.06	44088.67
587.22	44718.28
587.38	44133.14
587.54	44285.28
587.70	44598.91
587.86	44369.54
588.02	44465.50
588.18	44516.99
588.34	44381.24
588.49	43999.73
588.65	44266.55
588.81	44081.65
588.97	44250.17
589.13	44289.96
589.29	44299.32
589.45	44626.99
589.61	44521.67
589.77	44786.15
589.93	44783.81
590.08	44854.03
590.24	44942.97
590.40	44626.99
