SpectraSuite Data File
++++++++++++++++++++++++++++++++++++
Date: Fri Oct 25 11:24:02 EDT 2013
User: price-jones
Dark Spectrum Present: No
Reference Spectrum Present: No
Number of Sampled Component Spectra: 1
Spectrometers: USB2+H05261
Integration Time (usec): 100000 (USB2+H05261)
Spectra Averaged: 1 (USB2+H05261)
Boxcar Smoothing: 0 (USB2+H05261)
Correct for Electrical Dark: No (USB2+H05261)
Strobe/Lamp Enabled: No (USB2+H05261)
Correct for Detector Non-linearity: No (USB2+H05261)
Correct for Stray Light: No (USB2+H05261)
Number of Pixels in Processed Spectrum: 2048
>>>>>Begin Processed Spectral Data<<<<<
365.73	255.12
365.92	255.12
366.12	255.12
366.32	88.94
366.52	67.88
366.72	168.52
366.91	142.77
367.11	170.86
367.31	180.22
367.51	145.11
367.70	194.26
367.90	86.60
368.10	93.62
368.30	166.18
368.49	58.51
368.69	145.11
368.89	166.18
369.09	163.84
369.28	168.52
369.48	154.48
369.68	220.01
369.87	236.39
370.07	175.54
370.27	234.05
370.47	313.63
370.66	564.07
370.86	678.76
371.06	648.33
371.25	688.12
371.45	716.20
371.65	667.05
371.84	671.73
372.04	688.12
372.24	725.57
372.44	725.57
372.63	746.63
372.83	709.18
373.03	767.70
373.22	709.18
373.42	720.88
373.62	746.63
373.81	821.53
374.01	828.55
374.21	812.17
374.40	734.93
374.60	833.23
374.79	819.19
374.99	851.96
375.19	763.01
375.38	819.19
375.58	894.08
375.78	821.53
375.97	807.48
376.17	950.26
376.37	917.49
376.56	882.38
376.76	861.32
376.95	861.32
377.15	798.12
377.35	837.91
377.54	809.83
377.74	931.53
377.93	903.45
378.13	924.51
378.33	973.66
378.52	901.11
378.72	919.83
378.91	933.87
379.11	978.34
379.31	884.72
379.50	990.05
379.70	1046.22
379.89	1013.45
380.09	952.60
380.28	924.51
380.48	1069.62
380.68	945.58
380.87	1027.50
381.07	983.02
381.26	1036.86
381.46	983.02
381.65	1076.65
381.85	999.41
382.04	978.34
382.24	1064.94
382.43	1032.18
382.63	1095.37
382.83	1104.73
383.02	1163.25
383.22	1053.24
383.41	1060.26
383.61	1123.46
383.80	1200.69
384.00	1137.50
384.19	1186.65
384.39	1121.12
384.58	1153.88
384.78	1144.52
384.97	1153.88
385.17	1132.82
385.36	1277.93
385.56	1217.08
385.75	1090.69
385.95	1193.67
386.14	1167.93
386.34	1210.06
386.53	1242.82
386.72	1130.48
386.92	1231.12
387.11	1231.12
387.31	1310.70
387.50	1242.82
387.70	1294.32
387.89	1259.21
388.09	1280.27
388.28	1261.55
388.48	1238.14
388.67	1235.80
388.86	1313.04
389.06	1306.02
389.25	1369.21
389.45	1390.28
389.64	1366.87
389.84	1327.08
390.03	1343.47
390.22	1355.17
390.42	1336.45
390.61	1334.11
390.81	1348.15
391.00	1416.02
391.19	1493.26
391.39	1481.56
391.58	1404.32
391.78	1486.24
391.97	1441.77
392.16	1350.49
392.36	1528.37
392.55	1556.46
392.75	1565.82
392.94	1474.54
393.13	1533.05
393.33	1582.20
393.52	1507.30
393.71	1554.12
393.91	1636.03
394.10	1626.67
394.29	1570.50
394.49	1568.16
394.68	1708.59
394.88	1586.88
395.07	1671.14
395.26	1767.10
395.46	1706.25
395.65	1682.85
395.84	1680.50
396.04	1839.66
396.23	1694.55
396.42	1724.97
396.62	1685.19
396.81	1870.09
397.00	1809.23
397.19	1867.75
397.39	1827.96
397.58	1764.76
397.77	1811.57
397.97	1851.36
398.16	1865.41
398.35	1994.14
398.55	1839.66
398.74	1891.15
398.93	1968.39
399.12	1914.56
399.32	1930.94
399.51	1912.22
399.70	2012.86
399.90	2031.58
400.09	1968.39
400.28	2132.23
400.47	1900.52
400.67	2080.74
400.86	2062.01
401.05	2052.65
401.24	2141.59
401.44	2153.29
401.63	2232.87
401.82	2125.21
402.01	2097.12
402.21	2207.13
402.40	2127.55
402.59	2064.35
402.78	2246.91
402.97	2289.04
403.17	2207.13
403.36	2244.57
403.55	2279.68
403.74	2380.32
403.93	2349.90
404.13	2356.92
404.32	2305.43
404.51	2382.67
404.70	2420.11
404.89	2483.31
405.09	2562.89
405.28	2445.86
405.47	2408.41
405.66	2530.12
405.85	2490.33
406.05	2527.78
406.24	2448.20
406.43	2478.63
406.62	2558.21
406.81	2682.25
407.00	2597.99
407.20	2630.76
407.39	2600.34
407.58	2710.34
407.77	2808.64
407.96	2775.88
408.15	2658.85
408.34	2757.15
408.54	2715.02
408.73	2825.03
408.92	2818.00
409.11	2862.48
409.30	2925.67
409.49	2928.01
409.68	2953.76
409.87	2895.24
410.07	3000.57
410.26	3040.36
410.45	2923.33
410.64	3103.55
410.83	3105.89
411.02	3101.21
411.21	3166.74
411.40	3204.19
411.59	3201.85
411.78	3227.60
411.98	3276.75
412.17	3318.88
412.36	3356.33
412.55	3342.28
412.74	3496.76
412.93	3440.59
413.12	3417.18
413.31	3606.77
413.50	3468.67
413.69	3463.99
413.88	3595.06
414.07	3721.45
414.26	3627.83
414.45	3524.85
414.64	3651.24
414.83	3775.28
415.02	3805.71
415.22	3779.97
415.41	3836.14
415.60	3922.74
415.79	3960.19
415.98	3866.56
416.17	3868.91
416.36	4018.70
416.55	4088.92
416.74	4046.79
416.93	3957.85
417.12	4313.61
417.31	4070.19
417.50	4224.67
417.69	4306.59
417.88	4285.52
418.07	4269.14
418.26	4322.97
418.45	4423.61
418.64	4538.30
418.83	4393.19
419.02	4376.80
419.21	4465.74
419.39	4367.44
419.58	4444.68
419.77	4423.61
419.96	4660.01
420.15	4613.20
420.34	4627.24
420.53	4582.77
420.72	4828.53
420.91	4610.86
421.10	4709.16
421.29	4760.65
421.48	4702.14
421.67	4758.31
421.86	4760.65
422.05	4816.82
422.24	4709.16
422.43	4896.40
422.61	4915.12
422.80	5001.72
422.99	4826.18
423.18	4882.36
423.37	5085.98
423.56	4971.30
423.75	4971.30
423.94	4938.53
424.13	4720.86
424.32	4833.21
424.50	5088.32
424.69	5085.98
424.88	5018.11
425.07	4835.55
425.26	4971.30
425.45	5172.58
425.64	4952.57
425.83	4978.32
426.01	4964.28
426.20	5240.46
426.39	5170.24
426.58	5064.92
426.77	5025.13
426.96	5135.14
427.15	5095.35
427.33	5146.84
427.52	5207.69
427.71	5355.15
427.90	5371.53
428.09	5238.12
428.28	5366.85
428.46	5404.30
428.65	5352.81
428.84	5535.37
429.03	5481.53
429.22	5313.02
429.40	5341.10
429.59	5666.44
429.78	5275.57
429.97	5336.42
430.16	5486.22
430.34	5685.16
430.53	5678.14
430.72	5706.23
430.91	5610.26
431.10	5729.63
431.28	5834.96
431.47	5879.43
431.66	5841.98
431.85	5769.42
432.03	5987.09
432.22	5914.53
432.41	5907.51
432.60	5767.08
432.79	6036.24
432.97	5977.73
433.16	6134.54
433.35	5893.47
433.54	6052.63
433.72	6090.07
433.91	6064.33
434.10	6190.72
434.28	6029.22
434.47	6296.04
434.66	6214.12
434.85	6267.95
435.03	6342.85
435.22	6410.73
435.41	6401.37
435.59	6396.68
435.78	6445.84
435.97	6450.52
436.16	6520.73
436.34	6459.88
436.53	6635.42
436.72	6663.51
436.90	6448.18
437.09	6621.38
437.28	6572.22
437.46	6733.72
437.65	6771.17
437.84	6855.43
438.02	6722.02
438.21	6815.64
438.40	6689.25
438.58	7028.63
438.77	7124.59
438.96	6974.80
439.14	7178.42
439.33	7225.23
439.52	7180.76
439.70	7152.68
439.89	7372.69
440.08	7407.80
440.26	7403.11
440.45	7227.57
440.63	7325.88
440.82	7698.02
441.01	7513.12
441.19	7857.18
441.38	7737.81
441.57	7562.27
441.75	7826.75
441.94	7969.52
442.12	7845.48
442.31	7948.46
442.50	8030.38
442.68	8035.06
442.87	7918.03
443.05	8006.97
443.24	8294.86
443.43	8023.36
443.61	8163.79
443.80	8554.66
443.98	8121.66
444.17	7918.03
444.35	8339.33
444.54	8393.16
444.73	8210.60
444.91	8266.77
445.10	8313.58
445.28	8344.01
445.47	8273.79
445.65	8131.02
445.84	8514.87
446.02	8561.68
446.21	8341.67
446.39	8397.84
446.58	8468.06
446.77	8517.21
446.95	8311.24
447.14	8287.84
447.32	8727.86
447.51	8594.45
447.69	8346.35
447.88	8428.27
448.06	8528.91
448.25	8388.48
448.43	8641.26
448.62	8634.24
448.80	8554.66
448.99	8601.47
449.17	8751.26
449.36	8891.70
449.54	8884.67
449.73	8917.44
449.91	9123.41
450.10	9081.28
450.28	9121.07
450.46	8936.17
450.65	9125.75
450.83	9022.77
451.02	8912.76
451.20	9233.41
451.39	9214.69
451.57	9226.39
451.76	9034.47
451.94	9277.88
452.13	9444.06
452.31	9195.96
452.49	9245.12
452.68	9338.74
452.86	9247.46
453.05	9530.66
453.23	9535.34
453.42	9430.02
453.60	9305.97
453.78	9525.98
453.97	9589.17
454.15	9551.73
454.34	9483.85
454.52	9865.36
454.70	9870.04
454.89	9984.73
455.07	9930.89
455.26	9776.42
455.44	10008.13
455.62	9921.53
455.81	9792.80
455.99	9933.23
456.17	10064.30
456.36	10066.64
456.54	10270.27
456.73	10193.03
456.91	10466.88
457.09	10530.07
457.28	10597.95
457.46	10188.35
457.64	10490.28
457.83	10640.08
458.01	10675.18
458.19	10846.04
458.38	10530.07
458.56	10696.25
458.74	10721.99
458.93	10736.04
459.11	10794.55
459.29	10759.44
459.48	11042.65
459.66	10834.34
459.84	10927.96
460.03	10984.13
460.21	11026.26
460.39	11037.97
460.57	11084.78
460.76	11070.73
460.94	11295.43
461.12	11044.99
461.31	11215.85
461.49	11452.24
461.67	11229.89
461.85	11384.37
462.04	11339.90
462.22	11662.89
462.40	11676.93
462.59	11520.12
462.77	11384.37
462.95	11861.84
463.13	11709.70
463.32	11658.21
463.50	11737.79
463.68	11754.17
463.86	11810.34
464.05	11779.92
464.23	11868.86
464.41	12020.99
464.59	11854.81
464.78	12030.35
464.96	11976.52
465.14	11929.71
465.32	12224.62
465.50	12208.23
465.69	12311.22
465.87	12189.51
466.05	12128.66
466.23	11957.80
466.41	12004.61
466.60	12449.31
466.78	12325.26
466.96	12198.87
467.14	12273.77
467.32	12538.25
467.51	12678.68
467.69	12257.39
467.87	12365.05
468.05	12578.04
468.23	12669.32
468.41	12358.03
468.60	12744.22
468.78	12793.37
468.96	12657.62
469.14	13139.77
469.32	13109.34
469.50	12849.54
469.69	12858.90
469.87	13383.18
470.05	13153.81
470.23	13226.37
470.41	13460.42
470.59	13535.32
470.77	13298.92
470.95	13252.11
471.14	13444.04
471.32	13425.31
471.50	13448.72
471.68	13556.38
471.86	13752.99
472.04	13661.71
472.22	14218.75
472.40	13977.68
472.58	13813.84
472.77	13984.70
472.95	14260.88
473.13	14607.28
473.31	14518.34
473.49	14015.13
473.67	14321.74
473.85	14300.67
474.03	14717.29
474.21	14677.50
474.39	14780.48
474.57	14750.06
474.75	14733.67
474.93	14998.15
475.12	15147.95
475.30	15190.08
475.48	15218.16
475.66	15365.62
475.84	15332.85
476.02	15442.85
476.20	15503.71
476.38	15688.61
476.56	16226.93
476.74	16058.42
476.92	15967.13
477.10	15859.47
477.28	16205.87
477.46	16493.76
477.64	16322.90
477.82	16468.01
478.00	16950.16
478.18	16851.86
478.36	17067.19
478.54	17422.95
478.72	17174.85
478.90	17418.27
479.08	17467.42
479.26	17750.62
479.44	17699.13
479.62	17797.43
479.80	18050.21
479.98	18415.34
480.16	18696.20
480.34	18408.31
480.52	18586.19
480.70	18527.68
480.88	18415.34
481.06	18930.25
481.24	18672.79
481.41	19269.63
481.59	19300.06
481.77	19307.08
481.95	19585.60
482.13	19997.54
482.31	19777.53
482.49	20463.30
482.67	20402.45
482.85	20739.49
483.03	20746.51
483.21	21015.67
483.39	20889.28
483.57	21048.44
483.74	21212.28
483.92	21366.75
484.10	21326.96
484.28	21619.53
484.46	22317.01
484.64	22235.09
484.82	22183.60
485.00	22721.92
485.18	22974.70
485.35	22803.84
485.53	23002.78
485.71	22946.61
485.89	23590.26
486.07	23583.24
486.25	23440.47
486.43	23845.38
486.61	23768.14
486.78	24245.61
486.96	23929.64
487.14	24650.52
487.32	24587.33
487.50	25001.60
487.68	25025.01
487.85	25458.01
488.03	25708.44
488.21	26146.12
488.39	26036.12
488.57	26251.45
488.75	26295.92
488.92	27082.34
489.10	26874.03
489.28	27187.66
489.46	27370.22
489.64	27115.11
489.81	27571.51
489.99	27782.16
490.17	27599.60
490.35	27978.76
490.53	28137.92
490.70	28641.14
490.88	28547.51
491.06	29046.05
491.24	28767.52
491.41	29380.74
491.59	29022.64
491.77	29516.50
491.95	29575.01
492.13	30134.40
492.30	30190.57
492.48	30436.33
492.66	30429.30
492.84	30719.53
493.01	30906.77
493.19	30534.63
493.37	31360.84
493.54	30991.03
493.72	31667.45
493.90	31625.32
494.08	32280.67
494.25	32322.80
494.43	32109.81
494.61	32645.79
494.79	32802.61
494.96	32671.54
495.14	33022.62
495.32	33259.01
495.49	33511.79
495.67	33383.06
495.85	33680.31
496.02	34080.54
496.20	34518.22
496.38	34284.17
496.55	34536.94
496.73	34962.92
496.91	34558.01
497.09	34904.41
497.26	35505.93
497.44	35213.36
497.62	35098.67
497.79	36079.36
497.97	35695.51
498.14	36446.82
498.32	36676.19
498.50	36360.22
498.67	36517.04
498.85	37095.15
499.03	36512.36
499.20	36900.89
499.38	37120.90
499.56	37406.44
499.73	36825.99
499.91	37801.99
500.08	37495.38
500.26	37734.12
500.44	38050.09
500.61	37940.08
500.79	38038.39
500.97	38284.14
501.14	38878.64
501.32	38576.71
501.49	38644.59
501.67	38754.59
501.84	39056.52
502.02	39239.08
502.20	39442.71
502.37	39374.83
502.55	39414.62
502.72	39749.32
502.90	39494.20
503.07	39924.86
503.25	40088.70
503.43	39833.58
503.60	39833.58
503.78	40114.44
503.95	40486.59
504.13	40940.65
504.30	40844.69
504.48	40786.18
504.65	40847.03
504.83	40889.16
505.01	41481.31
505.18	41385.35
505.36	41436.84
505.53	41200.45
505.71	41930.70
505.88	41944.74
506.06	41717.71
506.23	42047.72
506.41	42160.07
506.58	42473.70
506.76	42447.96
506.93	42344.97
507.11	42148.37
507.28	42286.46
507.46	43091.60
507.63	43203.95
507.81	43220.33
507.98	43365.45
508.16	43309.27
508.33	43416.94
508.50	43599.50
508.68	43398.21
508.85	44161.23
509.03	43906.11
509.20	44264.21
509.38	44048.88
509.55	44694.87
509.73	44542.74
509.90	44832.96
510.08	44896.16
510.25	44612.95
510.42	44650.40
510.60	45277.66
510.77	45324.47
510.95	45291.71
511.12	44865.73
511.30	45256.60
511.47	45382.99
511.64	45329.16
511.82	45804.28
511.99	46127.28
512.17	45956.42
512.34	45783.22
512.51	46218.56
512.69	46351.97
512.86	46265.37
513.04	47407.55
513.21	47182.86
513.38	47086.90
513.56	47068.17
513.73	46511.13
513.90	47161.79
514.08	47253.08
514.25	47412.23
514.43	47215.63
514.60	48060.56
514.77	47374.78
514.95	47964.60
515.12	47854.59
515.29	47646.29
515.47	48023.11
515.64	48296.95
515.81	48261.85
515.99	48484.20
516.16	48421.00
516.33	48727.61
516.51	48715.91
516.68	48573.14
516.85	48839.96
517.03	49202.74
517.20	49254.23
517.37	48879.75
517.54	48807.19
517.72	49066.99
517.89	49230.83
518.06	49284.66
518.24	49387.64
518.41	49219.13
518.58	49343.17
518.75	49532.76
518.93	49712.98
519.10	49577.23
519.27	49975.12
519.45	50057.04
519.62	50042.99
519.79	50148.32
519.96	50300.45
520.14	50185.77
520.31	50082.78
520.48	50361.31
520.65	50302.79
520.83	50714.73
521.00	50995.59
521.17	50553.23
521.34	50958.14
521.52	50986.23
521.69	51201.56
521.86	51224.96
522.03	51367.74
522.20	51695.41
522.38	51484.76
522.55	51395.82
522.72	51459.02
522.89	51407.53
523.07	51620.52
523.24	51664.99
523.41	51842.87
523.58	51550.30
523.75	52002.02
523.92	51955.21
524.10	51903.72
524.27	52044.15
524.44	52116.71
524.61	52268.84
524.78	52505.24
524.96	52397.57
525.13	52332.04
525.30	52793.12
525.47	52765.04
525.64	52584.82
525.81	53155.91
525.98	53118.46
526.16	52741.63
526.33	52807.17
526.50	53375.92
526.67	52907.81
526.84	53186.33
527.01	52793.12
527.18	53176.97
527.36	53078.67
527.53	53420.39
527.70	53478.90
527.87	53497.62
528.04	53207.40
528.21	53546.78
528.38	53457.84
528.55	53965.73
528.72	53635.72
528.89	53483.58
529.07	53457.84
529.24	53429.75
529.41	53787.85
529.58	53837.00
529.75	53834.66
529.92	53949.35
530.09	53900.20
530.26	54160.00
530.43	54026.59
530.60	53956.37
530.77	54101.48
530.94	54059.35
531.11	54262.98
531.28	54691.30
531.46	54075.74
531.63	54330.86
531.80	54490.01
531.97	54475.97
532.14	54866.84
532.31	54398.73
532.48	54578.95
532.65	55131.32
532.82	54546.18
532.99	54642.15
533.16	54780.24
533.33	54939.39
533.50	55114.94
533.67	55227.28
533.84	55147.70
534.01	55086.85
534.18	54948.76
534.35	55276.43
534.52	55203.88
534.69	55363.03
534.86	55246.00
535.03	55348.99
535.20	55618.15
535.37	55419.20
535.54	55468.36
535.71	55482.40
535.88	55430.91
536.05	55662.62
536.22	55580.70
536.38	55742.20
536.55	55636.87
536.72	55702.41
536.89	55800.71
537.06	55796.03
537.23	55962.21
537.40	55632.19
537.57	55657.94
537.74	55842.84
537.91	56116.68
538.08	56041.79
538.25	55980.93
538.42	56051.15
538.59	56322.65
538.75	55997.32
538.92	55952.85
539.09	56280.52
539.26	55999.66
539.43	56402.23
539.60	56348.40
539.77	56442.02
539.94	56521.60
540.11	56610.54
540.28	56601.18
540.44	56608.20
540.61	56432.66
540.78	56484.15
540.95	56657.35
541.12	56528.62
541.29	56376.48
541.46	56676.07
541.62	56729.90
541.79	56762.67
541.96	56526.28
542.13	56886.72
542.30	56832.89
542.47	56914.81
542.63	56945.23
542.80	56940.55
542.97	57045.88
543.14	57247.16
543.31	57364.19
543.48	57420.36
543.64	57476.54
543.81	57607.61
543.98	57284.61
544.15	57418.02
544.32	57415.68
544.48	57616.97
544.65	57242.48
544.82	57427.38
544.99	57623.99
545.16	57729.31
545.32	57223.76
545.49	57654.42
545.66	57698.89
545.83	57698.89
546.00	57656.76
546.16	57851.02
546.33	57455.47
546.50	57773.78
546.67	57766.76
546.83	57516.32
547.00	57879.11
547.17	57949.32
547.34	58017.20
547.50	58148.27
547.67	58122.52
547.84	58059.33
548.00	58143.59
548.17	58459.56
548.34	58344.87
548.51	58382.32
548.67	58358.92
548.84	58155.29
549.01	57989.11
549.18	58337.85
549.34	58246.57
549.51	58269.98
549.68	58520.41
549.84	58377.64
550.01	58525.10
550.18	58206.78
550.34	58487.65
550.51	58609.35
550.68	58433.81
550.84	58300.40
551.01	58581.27
551.18	58529.78
551.34	58628.08
551.51	58621.06
551.68	58761.49
551.84	58735.74
552.01	58710.00
552.18	59009.59
552.34	58646.80
552.51	58824.68
552.68	58492.33
552.84	58768.51
553.01	58927.67
553.18	58885.54
553.34	58993.20
553.51	58766.17
553.67	58702.98
553.84	59128.95
554.01	58927.67
554.17	59276.41
554.34	59049.38
554.51	59143.00
554.67	59180.45
554.84	59175.76
555.00	59201.51
555.17	59180.45
555.33	58941.71
555.50	58850.43
555.67	59105.55
555.83	59110.23
556.00	59072.78
556.16	59433.22
556.33	59489.40
556.50	59274.07
556.66	59599.40
556.83	59442.59
556.99	59494.08
557.16	59601.74
557.32	59704.73
557.49	59646.21
557.65	59468.33
557.82	59440.24
557.98	59587.70
558.15	59465.99
558.32	59568.97
558.48	59564.29
558.65	59475.35
558.81	59739.83
558.98	59678.98
559.14	59800.69
559.31	59681.32
559.47	59894.31
559.64	59772.60
559.80	59671.96
559.97	59695.36
560.13	59604.08
560.30	59718.77
560.46	59877.93
560.63	59929.42
560.79	59690.68
560.96	59901.33
561.12	59796.01
561.29	60065.17
561.45	59934.10
561.61	59962.18
561.78	59934.10
561.94	59824.09
562.11	60001.97
562.27	59973.89
562.44	59948.14
562.60	60130.70
562.77	60067.51
562.93	59950.48
563.10	60233.69
563.26	60032.40
563.42	60549.66
563.59	60301.56
563.75	60023.04
563.92	60119.00
564.08	60205.60
564.24	60399.86
564.41	60168.15
564.57	60273.48
564.74	60177.51
564.90	60268.79
565.07	60065.17
565.23	60289.86
565.39	60350.71
565.56	60378.80
565.72	60231.35
565.88	60306.24
566.05	60308.58
566.21	60299.22
566.38	60322.63
566.54	60217.30
566.70	60285.18
566.87	60369.44
567.03	60079.21
567.19	60552.00
567.36	60402.21
567.52	60322.63
567.68	60662.00
567.85	60479.44
568.01	60582.43
568.17	60467.74
568.34	60509.87
568.50	60470.08
568.66	60556.68
568.83	60516.89
568.99	60329.65
569.15	60662.00
569.32	60509.87
569.48	60498.17
569.64	60608.17
569.81	60434.97
569.97	60474.76
570.13	60500.51
570.30	60296.88
570.46	60781.37
570.62	60624.56
570.78	60631.58
570.95	60516.89
571.11	60622.22
571.27	60481.78
571.43	60528.59
571.60	60711.16
571.76	60638.60
571.92	60664.35
572.09	60755.63
572.25	60594.13
572.41	60676.05
572.57	60685.41
572.74	61043.51
572.90	60753.29
573.06	60790.73
573.22	60718.18
573.38	60683.07
573.55	60608.17
573.71	60982.66
573.87	60715.84
574.03	60764.99
574.20	60919.46
574.36	61010.74
574.52	60900.74
574.68	60989.68
574.84	60786.05
575.01	60839.89
575.17	60795.42
575.33	60690.09
575.49	60657.32
575.65	60769.67
575.82	60711.16
575.98	60917.12
576.14	61111.39
576.30	60954.57
576.46	60870.31
576.62	60727.54
576.79	60804.78
576.95	60793.07
577.11	61113.73
577.27	60835.20
577.43	61034.15
577.59	60818.82
577.75	60945.21
577.92	60706.47
578.08	61022.45
578.24	60851.59
578.40	60970.96
578.56	60940.53
578.72	60982.66
578.88	61158.20
579.04	61197.99
579.21	60980.32
579.37	60985.00
579.53	61190.97
579.69	60999.04
579.85	61013.08
580.01	61066.92
580.17	60917.12
580.33	61071.60
580.49	60989.68
580.65	61027.13
580.82	60879.67
580.98	60823.50
581.14	60973.30
581.30	61092.66
581.46	60985.00
581.62	60919.46
581.78	60872.65
581.94	61097.34
582.10	60898.40
582.26	61127.77
582.42	61155.86
582.58	61200.33
582.74	61176.92
582.90	61113.73
583.06	60999.04
583.22	60704.13
583.38	61090.32
583.54	60942.87
583.70	61071.60
583.86	61020.11
584.02	60931.17
584.18	61099.68
584.34	60942.87
584.50	61263.52
584.66	61038.83
584.82	61069.26
584.98	61387.57
585.14	61029.47
585.30	61202.67
585.46	61087.98
585.62	61109.05
585.78	61329.06
585.94	61029.47
586.10	61029.47
586.26	60891.38
586.42	60996.70
586.58	61205.01
586.74	60989.68
586.90	60889.04
587.06	61111.39
587.22	61181.60
587.38	61085.64
587.54	61345.44
587.70	61258.84
587.86	61305.65
588.02	61097.34
588.18	61165.22
588.34	61160.54
588.49	61062.24
