SpectraSuite Data File
++++++++++++++++++++++++++++++++++++
Date: Fri Oct 25 11:24:08 EDT 2013
User: price-jones
Dark Spectrum Present: No
Reference Spectrum Present: No
Number of Sampled Component Spectra: 1
Spectrometers: USB2+H05261
Integration Time (usec): 100000 (USB2+H05261)
Spectra Averaged: 1 (USB2+H05261)
Boxcar Smoothing: 0 (USB2+H05261)
Correct for Electrical Dark: No (USB2+H05261)
Strobe/Lamp Enabled: No (USB2+H05261)
Correct for Detector Non-linearity: No (USB2+H05261)
Correct for Stray Light: No (USB2+H05261)
Number of Pixels in Processed Spectrum: 2048
>>>>>Begin Processed Spectral Data<<<<<
365.73	264.48
365.92	264.48
366.12	264.48
366.32	189.58
366.52	170.86
366.72	198.95
366.91	105.32
367.11	121.71
367.31	117.03
367.51	187.24
367.70	93.62
367.90	156.82
368.10	154.48
368.30	133.41
368.49	135.75
368.69	201.29
368.89	128.73
369.09	205.97
369.28	149.79
369.48	145.11
369.68	215.33
369.87	161.50
370.07	208.31
370.27	210.65
370.47	210.65
370.66	547.69
370.86	601.52
371.06	671.73
371.25	615.56
371.45	697.48
371.65	655.35
371.84	699.82
372.04	636.63
372.24	676.41
372.44	683.44
372.63	676.41
372.83	748.97
373.03	748.97
373.22	802.80
373.42	725.57
373.62	823.87
373.81	840.25
374.01	805.14
374.21	800.46
374.40	833.23
374.60	786.42
374.79	842.59
374.99	898.77
375.19	821.53
375.38	863.66
375.58	863.66
375.78	774.72
375.97	795.78
376.17	905.79
376.37	873.02
376.56	866.00
376.76	837.91
376.95	816.85
377.15	926.85
377.35	861.32
377.54	889.40
377.74	873.02
377.93	964.30
378.13	924.51
378.33	887.06
378.52	889.40
378.72	917.49
378.91	875.36
379.11	908.13
379.31	922.17
379.50	994.73
379.70	910.47
379.89	994.73
380.09	1013.45
380.28	966.64
380.48	990.05
380.68	1022.81
380.87	959.62
381.07	1034.52
381.26	1029.84
381.46	985.37
381.65	1027.50
381.85	1027.50
382.04	1093.03
382.24	1020.47
382.43	1011.11
382.63	1139.84
382.83	1144.52
383.02	1088.35
383.22	1174.95
383.41	1100.05
383.61	1109.41
383.80	1107.07
384.00	1100.05
384.19	1104.73
384.39	1167.93
384.58	1137.50
384.78	1233.46
384.97	1109.41
385.17	1165.59
385.36	1191.33
385.56	1184.31
385.75	1249.85
385.95	1132.82
386.14	1249.85
386.34	1238.14
386.53	1240.48
386.72	1142.18
386.92	1247.51
387.11	1156.22
387.31	1231.12
387.50	1329.42
387.70	1240.48
387.89	1226.44
388.09	1242.82
388.28	1350.49
388.48	1221.76
388.67	1324.74
388.86	1228.78
389.06	1263.89
389.25	1364.53
389.45	1362.19
389.64	1320.06
389.84	1472.20
390.03	1322.40
390.22	1366.87
390.42	1434.75
390.61	1322.40
390.81	1348.15
391.00	1469.86
391.19	1380.92
391.39	1441.77
391.58	1453.47
391.78	1430.07
391.97	1462.83
392.16	1481.56
392.36	1481.56
392.55	1502.62
392.75	1542.41
392.94	1547.09
393.13	1537.73
393.33	1582.20
393.52	1612.63
393.71	1584.54
393.91	1584.54
394.10	1577.52
394.29	1657.10
394.49	1638.38
394.68	1720.29
394.88	1682.85
395.07	1610.29
395.26	1675.82
395.46	1720.29
395.65	1692.21
395.84	1750.72
396.04	1741.36
396.23	1872.43
396.42	1696.89
396.62	1713.27
396.81	1834.98
397.00	1823.28
397.19	1811.57
397.39	1820.94
397.58	1753.06
397.77	1799.87
397.97	1928.60
398.16	1849.02
398.35	1952.01
398.55	1867.75
398.74	1902.86
398.93	1916.90
399.12	1935.62
399.32	1858.39
399.51	1907.54
399.70	1977.75
399.90	1877.11
400.09	2136.91
400.28	2059.67
400.47	2022.22
400.67	2129.89
400.86	2174.36
401.05	2062.01
401.24	2113.50
401.44	2122.87
401.63	2148.61
401.82	2078.40
402.01	2101.80
402.21	2122.87
402.40	2106.48
402.59	2204.78
402.78	2132.23
402.97	2326.49
403.17	2197.76
403.36	2249.25
403.55	2282.02
403.74	2387.35
403.93	2263.30
404.13	2370.96
404.32	2251.60
404.51	2352.24
404.70	2401.39
404.89	2387.35
405.09	2457.56
405.28	2464.58
405.47	2434.16
405.66	2466.92
405.85	2530.12
406.05	2562.89
406.24	2633.10
406.43	2700.98
406.62	2651.83
406.81	2668.21
407.00	2593.31
407.20	2693.96
407.39	2661.19
407.58	2780.56
407.77	2724.38
407.96	2829.71
408.15	2846.09
408.34	2778.22
408.54	2719.70
408.73	2794.60
408.92	2890.56
409.11	2848.43
409.30	2953.76
409.49	2850.77
409.68	2885.88
409.87	2918.65
410.07	2984.18
410.26	3105.89
410.45	2988.86
410.64	2974.82
410.83	3087.17
411.02	3061.42
411.21	3199.51
411.40	3105.89
411.59	3122.27
411.78	3157.38
411.98	3131.64
412.17	3276.75
412.36	3356.33
412.55	3440.59
412.74	3267.39
412.93	3417.18
413.12	3449.95
413.31	3662.94
413.50	3487.40
413.69	3487.40
413.88	3702.73
414.07	3583.36
414.26	3634.85
414.45	3672.30
414.64	3772.94
414.83	3728.47
415.02	3794.01
415.22	3861.88
415.41	3878.27
415.60	3978.91
415.79	3882.95
415.98	4053.81
416.17	4051.47
416.36	4046.79
416.55	4112.32
416.74	4025.72
416.93	3896.99
417.12	4187.22
417.31	4184.88
417.50	4189.56
417.69	4376.80
417.88	4379.14
418.07	4421.27
418.26	4379.14
418.45	4276.16
418.64	4447.02
418.83	4432.97
419.02	4362.76
419.21	4592.13
419.39	4440.00
419.58	4355.74
419.77	4440.00
419.96	4596.81
420.15	4620.22
420.34	4643.62
420.53	4608.51
420.72	4561.70
420.91	4807.46
421.10	4732.56
421.29	4802.78
421.48	4706.82
421.67	4788.74
421.86	4751.29
422.05	4758.31
422.24	4840.23
422.43	4931.51
422.61	4933.85
422.80	4997.04
422.99	4891.72
423.18	4849.59
423.37	5001.72
423.56	5034.49
423.75	4912.78
423.94	4922.15
424.13	4692.77
424.32	4863.63
424.50	4826.18
424.69	5191.31
424.88	5205.35
425.07	4933.85
425.26	4915.12
425.45	5144.50
425.64	4954.91
425.83	4905.76
426.01	5029.81
426.20	5153.86
426.39	5043.85
426.58	5020.45
426.77	5057.90
426.96	5085.98
427.15	5039.17
427.33	5055.56
427.52	5249.82
427.71	5317.70
427.90	5221.74
428.09	5394.93
428.28	5345.78
428.46	5296.63
428.65	5284.93
428.84	5533.03
429.03	5495.58
429.22	5357.49
429.40	5296.63
429.59	5577.50
429.78	5338.76
429.97	5387.91
430.16	5551.75
430.34	5481.53
430.53	5757.72
430.72	5673.46
430.91	5647.71
431.10	5668.78
431.28	5626.65
431.47	5771.76
431.66	5799.85
431.85	5762.40
432.03	5795.17
432.22	6008.16
432.41	5863.04
432.60	6054.97
432.79	5991.77
432.97	6033.90
433.16	5963.68
433.35	6120.50
433.54	6019.86
433.72	6148.59
433.91	6232.85
434.10	6186.04
434.28	6195.40
434.47	6195.40
434.66	6401.37
434.85	6211.78
435.03	6382.64
435.22	6253.91
435.41	6471.58
435.59	6473.92
435.78	6635.42
435.97	6321.79
436.16	6476.26
436.34	6455.20
436.53	6626.06
436.72	6700.95
436.90	6635.42
437.09	6651.80
437.28	6534.78
437.46	6644.78
437.65	6862.45
437.84	6789.89
438.02	6736.06
438.21	6981.82
438.40	6691.59
438.58	6827.34
438.77	7075.44
438.96	6878.83
439.14	7201.83
439.33	7332.90
439.52	7265.02
439.70	7307.15
439.89	7365.67
440.08	7480.35
440.26	7527.16
440.45	7351.62
440.63	7454.61
440.82	7543.55
441.01	7789.30
441.19	7552.91
441.38	7735.47
441.57	7719.09
441.75	7845.48
441.94	8091.23
442.12	7946.12
442.31	8105.28
442.50	7948.46
442.68	7976.55
442.87	8011.65
443.05	8112.30
443.24	8285.50
443.43	8138.04
443.61	8334.65
443.80	8367.42
443.98	8222.30
444.17	7815.05
444.35	8025.70
444.54	8411.89
444.73	8315.92
444.91	8177.83
445.10	8435.29
445.28	8355.71
445.47	8348.69
445.65	8557.00
445.84	8531.25
446.02	8505.51
446.21	8362.73
446.39	8592.11
446.58	8454.02
446.77	8517.21
446.95	8252.73
447.14	8524.23
447.32	8765.31
447.51	8638.92
447.69	8446.99
447.88	8540.61
448.06	8425.93
448.25	8662.32
448.43	8589.77
448.62	8664.66
448.80	8589.77
448.99	8760.63
449.17	8725.52
449.36	8599.13
449.54	8664.66
449.73	9029.79
449.91	9004.04
450.10	9022.77
450.28	9249.80
450.46	9123.41
450.65	9036.81
450.83	9191.28
451.02	9322.35
451.20	9231.07
451.39	9193.62
451.57	9160.86
451.76	9034.47
451.94	9348.10
452.13	9280.22
452.31	9336.40
452.49	9121.07
452.68	9533.00
452.86	9427.68
453.05	9635.99
453.23	9687.48
453.42	9570.45
453.60	9289.59
453.78	9577.47
453.97	9474.49
454.15	9631.30
454.34	9334.06
454.52	9809.19
454.70	9841.95
454.89	9621.94
455.07	9954.30
455.26	9961.32
455.44	9989.41
455.62	9680.46
455.81	10061.96
455.99	9788.12
456.17	10143.88
456.36	10080.69
456.54	10270.27
456.73	10380.28
456.91	10651.78
457.09	10569.86
457.28	10459.85
457.46	10342.83
457.64	10654.12
457.83	10700.93
458.01	10696.25
458.19	10775.83
458.38	10270.27
458.56	10623.69
458.74	10611.99
458.93	10738.38
459.11	10946.69
459.29	10757.10
459.48	10878.81
459.66	10740.72
459.84	10911.58
460.03	11091.80
460.21	10956.05
460.39	10752.42
460.57	10902.22
460.76	11052.01
460.94	11068.39
461.12	11108.18
461.31	11449.90
461.49	11250.96
461.67	11220.53
461.85	11459.26
462.04	11206.48
462.22	11524.80
462.40	11693.32
462.59	11669.91
462.77	11482.67
462.95	11627.78
463.13	11508.41
463.32	11597.35
463.50	11648.85
463.68	11822.05
463.86	11950.78
464.05	11709.70
464.23	11676.93
464.41	11805.66
464.59	11730.76
464.78	12060.78
464.96	12004.61
465.14	11798.64
465.32	12266.75
465.50	12229.30
465.69	12248.02
465.87	12180.15
466.05	12233.98
466.23	12306.54
466.41	12318.24
466.60	12465.69
466.78	12241.00
466.96	12470.37
467.14	12294.83
467.32	12458.67
467.51	12620.17
467.69	12177.81
467.87	12484.42
468.05	12681.02
468.23	12517.18
468.41	12683.36
468.60	12535.91
468.78	12903.37
468.96	12692.73
469.14	12985.29
469.32	13015.72
469.50	12720.81
469.69	13198.28
469.87	13357.44
470.05	13240.41
470.23	13153.81
470.41	13163.17
470.59	13357.44
470.77	13184.24
470.95	13317.65
471.14	13448.72
471.32	13394.89
471.50	13507.23
471.68	13458.08
471.86	13668.73
472.04	13930.87
472.22	14066.62
472.40	13760.01
472.58	13619.58
472.77	14303.01
472.95	13944.91
473.13	14628.35
473.31	14307.69
473.49	14232.80
473.67	14279.61
473.85	14511.32
474.03	14768.78
474.21	14703.25
474.39	14892.83
474.57	15059.01
474.75	14892.83
474.93	15332.85
475.12	14927.94
475.30	15290.72
475.48	15087.09
475.66	15225.18
475.84	15220.50
476.02	15524.77
476.20	15445.20
476.38	15901.60
476.56	16287.79
476.74	16081.82
476.92	15655.84
477.10	15618.39
477.28	16137.99
477.46	16486.73
477.64	16400.13
477.82	16645.89
478.00	16868.24
478.18	16767.60
478.36	16929.09
478.54	17181.87
478.72	17326.99
478.90	17207.62
479.08	17448.69
479.26	17745.94
479.44	17642.96
479.62	17912.12
479.80	18246.82
479.98	18349.80
480.16	18595.56
480.34	18600.24
480.52	18801.52
480.70	18548.75
480.88	18600.24
481.06	18885.78
481.24	19246.23
481.41	19131.54
481.59	19304.74
481.77	19513.05
481.95	19716.67
482.13	20140.31
482.31	19857.10
482.49	20383.73
482.67	20255.00
482.85	20409.47
483.03	20657.57
483.21	20891.62
483.39	20854.17
483.57	21032.05
483.74	21097.59
483.92	21558.67
484.10	21329.30
484.28	21713.15
484.46	21914.44
484.64	22267.86
484.82	22134.45
485.00	22368.50
485.18	22740.64
485.35	23227.48
485.53	22670.43
485.71	22728.94
485.89	23435.78
486.07	22991.08
486.25	23718.99
486.43	23711.97
486.61	24198.80
486.78	24070.07
486.96	24290.08
487.14	24613.07
487.32	24641.16
487.50	24896.28
487.68	24844.79
487.85	25453.33
488.03	25678.02
488.21	26052.50
488.39	26071.23
488.57	25837.17
488.75	26176.55
488.92	26675.09
489.10	26731.26
489.28	26998.08
489.46	27218.09
489.64	27204.05
489.81	27711.94
489.99	27442.78
490.17	27889.82
490.35	28276.01
490.53	28070.04
490.70	28327.50
490.88	28350.91
491.06	28992.22
491.24	29017.96
491.41	29338.62
491.59	29198.18
491.77	29376.06
491.95	30284.19
492.13	29841.83
492.30	30139.08
492.48	30422.28
492.66	30331.00
492.84	30352.07
493.01	30672.72
493.19	30899.75
493.37	31124.44
493.54	31082.31
493.72	31515.31
493.90	31519.99
494.08	31648.72
494.25	32264.28
494.43	32325.14
494.61	32329.82
494.79	32872.82
494.96	32414.08
495.14	33057.73
495.32	33043.68
495.49	33354.97
495.67	33530.51
495.85	33855.85
496.02	33956.49
496.20	34281.83
496.38	34246.72
496.55	34656.31
496.73	35201.66
496.91	35058.88
497.09	34927.81
497.26	35196.98
497.44	35309.32
497.62	35583.16
497.79	36067.66
497.97	35590.19
498.14	35974.03
498.32	36617.68
498.50	36116.81
498.67	36566.19
498.85	36327.45
499.03	36933.65
499.20	36870.46
499.38	36912.59
499.56	37240.26
499.73	37347.93
499.91	37589.00
500.08	37734.12
500.26	37422.83
500.44	37996.26
500.61	37982.21
500.79	37846.46
500.97	38609.48
501.14	38391.81
501.32	39115.03
501.49	38689.06
501.67	38885.66
501.84	39388.88
502.02	39241.42
502.20	39306.96
502.37	39180.57
502.55	39381.85
502.72	39615.91
502.90	39735.27
503.07	39658.04
503.25	40091.04
503.43	39852.30
503.60	40552.12
503.78	40133.17
503.95	40509.99
504.13	40655.11
504.30	40556.80
504.48	40500.63
504.65	40641.06
504.83	40786.18
505.01	41738.77
505.18	41027.25
505.36	42021.98
505.53	41493.02
505.71	41731.75
505.88	41958.78
506.06	41392.37
506.23	42181.13
506.41	42127.30
506.58	42515.83
506.76	42150.71
506.93	42660.94
507.11	42424.55
507.28	43014.37
507.46	42733.50
507.63	43044.79
507.81	43578.43
507.98	43215.65
508.16	43192.25
508.33	43569.07
508.50	43826.53
508.68	44161.23
508.85	44208.04
509.03	43632.27
509.20	44353.15
509.38	44374.22
509.55	44804.88
509.73	44566.14
509.90	44879.77
510.08	45132.55
510.25	44734.66
510.42	45202.77
510.60	44996.80
510.77	45155.96
510.95	45605.34
511.12	45352.56
511.30	45375.97
511.47	45696.62
511.64	45691.94
511.82	46319.20
511.99	46010.25
512.17	46169.41
512.34	46036.00
512.51	46691.35
512.69	46478.36
512.86	46824.76
513.04	46766.24
513.21	46637.51
513.38	47173.50
513.56	47426.28
513.73	47063.49
513.90	46831.78
514.08	47267.12
514.25	47503.51
514.43	48023.11
514.60	47594.79
514.77	47452.02
514.95	48072.26
515.12	47643.94
515.29	47264.78
515.47	48280.57
515.64	48264.19
515.81	47875.66
515.99	48465.47
516.16	48779.10
516.33	48521.65
516.51	48575.48
516.68	48816.55
516.85	48547.39
517.03	49102.10
517.20	49116.14
517.37	48844.64
517.54	49130.19
517.72	48971.03
517.89	49284.66
518.06	49106.78
518.24	49698.94
518.41	49432.11
518.58	49485.95
518.75	49378.28
518.93	49523.40
519.10	49764.47
519.27	49708.30
519.45	49832.35
519.62	50115.55
519.79	50354.29
519.96	50251.30
520.14	50293.43
520.31	50508.76
520.48	50412.80
520.65	50335.56
520.83	50869.20
521.00	50726.43
521.17	50382.37
521.34	50794.31
521.52	50789.62
521.69	50822.39
521.86	51353.69
522.03	51283.48
522.20	51578.39
522.38	51482.42
522.55	51824.14
522.72	51585.41
522.89	51421.57
523.07	51732.86
523.24	51683.71
523.41	51948.19
523.58	51395.82
523.75	52093.30
523.92	51789.03
524.10	52034.79
524.27	52229.05
524.44	52275.87
524.61	52191.61
524.78	52355.44
524.96	52456.09
525.13	52498.22
525.30	52708.86
525.47	52456.09
525.64	52477.15
525.81	52725.25
525.98	52612.90
526.16	52655.03
526.33	52739.29
526.50	53130.16
526.67	52891.43
526.84	53052.92
527.01	53062.29
527.18	52912.49
527.36	53116.12
527.53	53492.94
527.70	53619.33
527.87	53600.61
528.04	53628.69
528.21	53595.93
528.38	53560.82
528.55	53743.38
528.72	53373.58
528.89	53544.44
529.07	53581.88
529.24	53661.46
529.41	53979.78
529.58	53551.46
529.75	53764.45
529.92	54080.42
530.09	54143.61
530.26	53869.77
530.43	53829.98
530.60	53743.38
530.77	54012.54
530.94	54209.15
531.11	54021.90
531.28	54183.40
531.46	54164.68
531.63	54405.75
531.80	54138.93
531.97	54478.31
532.14	54513.42
532.31	54756.83
532.48	55040.04
532.65	54562.57
532.82	54571.93
532.99	54843.43
533.16	54749.81
533.33	55248.35
533.50	54962.80
533.67	54904.29
533.84	54892.58
534.01	54976.84
534.18	55084.51
534.35	55573.68
534.52	55220.26
534.69	55377.08
534.86	55437.93
535.03	55318.56
535.20	55222.60
535.37	55358.35
535.54	55442.61
535.71	55433.25
535.88	55700.07
536.05	55618.15
536.22	55779.65
536.38	55714.11
536.55	55882.63
536.72	55742.20
536.89	55739.86
537.06	55711.77
537.23	55943.48
537.40	55941.14
537.57	55774.97
537.74	55990.30
537.91	56067.53
538.08	56055.83
538.25	55831.14
538.42	56088.60
538.59	56406.91
538.75	56097.96
538.92	56334.35
539.09	56247.75
539.26	56172.86
539.43	56170.52
539.60	56423.29
539.77	56334.35
539.94	56676.07
540.11	56547.34
540.28	56467.76
540.44	56690.12
540.61	56549.68
540.78	56657.35
540.95	56694.80
541.12	56535.64
541.29	56570.75
541.46	56657.35
541.62	56711.18
541.79	56657.35
541.96	56371.80
542.13	56676.07
542.30	56865.66
542.47	57055.24
542.63	56968.64
542.80	56940.55
542.97	57174.61
543.14	57120.77
543.31	57340.78
543.48	57214.40
543.64	57483.56
543.81	57439.09
543.98	57254.18
544.15	57513.98
544.32	57942.30
544.48	57441.43
544.65	57499.94
544.82	57521.01
544.99	57453.13
545.16	57879.11
545.32	57310.36
545.49	57717.61
545.66	57783.15
545.83	57876.77
546.00	58064.01
546.16	57476.54
546.33	57694.21
546.50	57733.99
546.67	57914.22
546.83	57743.36
547.00	57942.30
547.17	58056.99
547.34	57930.60
547.50	57890.81
547.67	58370.62
547.84	58262.96
548.00	58138.91
548.17	58363.60
548.34	58260.62
548.51	58302.74
548.67	58372.96
548.84	58436.16
549.01	58162.31
549.18	58195.08
549.34	58286.36
549.51	58377.64
549.68	58628.08
549.84	58431.47
550.01	58478.28
550.18	58272.32
550.34	58674.89
550.51	58714.68
550.68	58702.98
550.84	58539.14
551.01	58801.28
551.18	58775.53
551.34	58745.11
551.51	58642.12
551.68	58885.54
551.84	58724.04
552.01	58436.16
552.18	58850.43
552.34	58672.55
552.51	58901.92
552.68	58686.59
552.84	58766.17
553.01	58913.62
553.18	58794.26
553.34	59119.59
553.51	58710.00
553.67	58784.90
553.84	59161.72
554.01	59180.45
554.17	59086.82
554.34	59040.01
554.51	59281.09
554.67	59306.83
554.84	59173.42
555.00	59072.78
555.17	59201.51
555.33	59222.58
555.50	59166.40
555.67	59054.06
555.83	59302.15
556.00	59318.54
556.16	59536.21
556.33	59648.55
556.50	59222.58
556.66	59480.03
556.83	59262.36
556.99	59573.66
557.16	59739.83
557.32	59583.02
557.49	59690.68
557.65	59257.68
557.82	59358.33
557.98	59395.77
558.15	59526.84
558.32	59377.05
558.48	59522.16
558.65	59477.69
558.81	59299.81
558.98	59625.15
559.14	59690.68
559.31	59992.61
559.47	59842.82
559.64	59824.09
559.80	59744.51
559.97	59664.94
560.13	59786.64
560.30	59859.20
560.46	59884.95
560.63	59987.93
560.79	59873.24
560.96	60144.75
561.12	60062.83
561.29	59908.35
561.45	60044.10
561.61	59819.41
561.78	59976.23
561.94	60062.83
562.11	59962.18
562.27	60032.40
562.44	60163.47
562.60	60310.92
562.77	60170.49
562.93	60004.31
563.10	60275.82
563.26	59917.71
563.42	60238.37
563.59	60266.45
563.75	60001.97
563.92	60175.17
564.08	59938.78
564.24	60355.39
564.41	60179.85
564.57	60217.30
564.74	60156.45
564.90	60399.86
565.07	60268.79
565.23	60147.09
565.39	60449.02
565.56	60268.79
565.72	60303.90
565.88	60250.07
566.05	60128.36
566.21	60313.26
566.38	60374.12
566.54	60376.46
566.70	60329.65
566.87	60402.21
567.03	60404.55
567.19	60444.33
567.36	60439.65
567.52	60406.89
567.68	60615.19
567.85	60500.51
568.01	60598.81
568.17	60446.68
568.34	60605.83
568.50	60493.49
568.66	60346.03
568.83	60729.88
568.99	60404.55
569.15	60521.57
569.32	60612.85
569.48	60535.62
569.64	60566.04
569.81	60727.54
569.97	60570.72
570.13	60505.19
570.30	60533.28
570.46	60701.79
570.62	60898.40
570.78	60603.49
570.95	60519.23
571.11	60610.51
571.27	60575.40
571.43	60701.79
571.60	60830.52
571.76	60406.89
571.92	60853.93
572.09	60830.52
572.25	60748.60
572.41	60512.21
572.57	60757.97
572.74	61017.77
572.90	60683.07
573.06	60769.67
573.22	60591.79
573.38	60818.82
573.55	60816.48
573.71	60839.89
573.87	60907.76
574.03	60647.96
574.20	60835.20
574.36	60729.88
574.52	60788.39
574.68	60933.51
574.84	60889.04
575.01	60919.46
575.17	60889.04
575.33	60631.58
575.49	60797.76
575.65	60886.70
575.82	60924.14
575.98	60975.64
576.14	61029.47
576.30	60900.74
576.46	60657.32
576.62	60900.74
576.79	60767.33
576.95	60797.76
577.11	60844.57
577.27	60980.32
577.43	61029.47
577.59	60903.08
577.75	60846.91
577.92	60842.23
578.08	61022.45
578.24	61085.64
578.40	61181.60
578.56	60999.04
578.72	60945.21
578.88	61015.43
579.04	61190.97
579.21	60870.31
579.37	61085.64
579.53	61085.64
579.69	60793.07
579.85	60898.40
580.01	60809.46
580.17	60889.04
580.33	61031.81
580.49	61013.08
580.65	61104.37
580.82	60837.54
580.98	60853.93
581.14	60992.02
581.30	61024.79
581.46	60940.53
581.62	61003.72
581.78	61006.06
581.94	61087.98
582.10	60893.72
582.26	61153.52
582.42	61076.28
582.58	61001.38
582.74	61013.08
582.90	61015.43
583.06	61090.32
583.22	60802.44
583.38	61010.74
583.54	61071.60
583.70	60963.93
583.86	61113.73
584.02	61085.64
584.18	61364.17
584.34	61315.01
584.50	60959.25
584.66	61036.49
584.82	61031.81
584.98	61312.67
585.14	61179.26
585.30	60863.29
585.46	61155.86
585.62	61003.72
585.78	61113.73
585.94	61127.77
586.10	61109.05
586.26	61080.96
586.42	61197.99
586.58	61202.67
586.74	61183.94
586.90	61144.16
587.06	61130.11
587.22	61357.14
587.38	61223.73
587.54	61244.80
587.70	61357.14
587.86	61272.88
588.02	61057.56
588.18	61453.11
588.34	61380.55
588.49	61190.97
