SpectraSuite Data File
++++++++++++++++++++++++++++++++++++
Date: Fri Oct 25 11:33:43 EDT 2013
User: price-jones
Dark Spectrum Present: No
Reference Spectrum Present: No
Number of Sampled Component Spectra: 1
Spectrometers: USB2+H05261
Integration Time (usec): 100000 (USB2+H05261)
Spectra Averaged: 1 (USB2+H05261)
Boxcar Smoothing: 0 (USB2+H05261)
Correct for Electrical Dark: No (USB2+H05261)
Strobe/Lamp Enabled: No (USB2+H05261)
Correct for Detector Non-linearity: No (USB2+H05261)
Correct for Stray Light: No (USB2+H05261)
Number of Pixels in Processed Spectrum: 2048
>>>>>Begin Processed Spectral Data<<<<<
365.73	325.33
365.92	325.33
366.12	325.33
366.32	201.29
366.52	236.39
366.72	196.60
366.91	149.79
367.11	175.54
367.31	135.75
367.51	177.88
367.70	121.71
367.90	180.22
368.10	121.71
368.30	210.65
368.49	189.58
368.69	234.05
368.89	198.95
369.09	175.54
369.28	203.63
369.48	201.29
369.68	205.97
369.87	287.89
370.07	187.24
370.27	198.95
370.47	346.40
370.66	461.09
370.86	521.94
371.06	543.00
371.25	514.92
371.45	500.87
371.65	634.29
371.84	498.53
372.04	573.43
372.24	554.71
372.44	526.62
372.63	557.05
372.83	608.54
373.03	557.05
373.22	587.47
373.42	608.54
373.62	648.33
373.81	683.44
374.01	608.54
374.21	615.56
374.40	624.92
374.60	660.03
374.79	645.99
374.99	662.37
375.19	678.76
375.38	706.84
375.58	685.78
375.78	709.18
375.97	695.14
376.17	613.22
376.37	641.31
376.56	739.61
376.76	704.50
376.95	650.67
377.15	720.88
377.35	730.25
377.54	657.69
377.74	657.69
377.93	681.10
378.13	615.56
378.33	765.36
378.52	725.57
378.72	718.54
378.91	772.38
379.11	765.36
379.31	690.46
379.50	739.61
379.70	746.63
379.89	695.14
380.09	683.44
380.28	667.05
380.48	720.88
380.68	713.86
380.87	823.87
381.07	737.27
381.26	772.38
381.46	763.01
381.65	856.64
381.85	795.78
382.04	835.57
382.24	770.04
382.43	798.12
382.63	840.25
382.83	833.23
383.02	910.47
383.22	826.21
383.41	770.04
383.61	758.33
383.80	826.21
384.00	751.31
384.19	800.46
384.39	858.98
384.58	802.80
384.78	868.34
384.97	781.74
385.17	777.06
385.36	877.70
385.56	851.96
385.75	765.36
385.95	807.48
386.14	809.83
386.34	819.19
386.53	917.49
386.72	924.51
386.92	837.91
387.11	929.19
387.31	894.08
387.50	901.11
387.70	926.85
387.89	905.79
388.09	887.06
388.28	938.55
388.48	983.02
388.67	908.13
388.86	973.66
389.06	868.34
389.25	1008.77
389.45	945.58
389.64	910.47
389.84	1013.45
390.03	964.30
390.22	1001.75
390.42	877.70
390.61	940.90
390.81	997.07
391.00	1018.13
391.19	999.41
391.39	1043.88
391.58	987.71
391.78	917.49
391.97	1074.31
392.16	1043.88
392.36	1057.92
392.55	1034.52
392.75	1008.77
392.94	1081.33
393.13	1083.67
393.33	1071.97
393.52	1034.52
393.71	1125.80
393.91	1034.52
394.10	1060.26
394.29	1118.78
394.49	1118.78
394.68	1165.59
394.88	1144.52
395.07	1221.76
395.26	1151.54
395.46	1135.16
395.65	1179.63
395.84	1128.14
396.04	1245.16
396.23	1177.29
396.42	1181.97
396.62	1221.76
396.81	1214.74
397.00	1219.42
397.19	1135.16
397.39	1275.59
397.58	1296.66
397.77	1240.48
397.97	1275.59
398.16	1329.42
398.35	1270.91
398.55	1322.40
398.74	1306.02
398.93	1245.16
399.12	1270.91
399.32	1256.87
399.51	1308.36
399.70	1357.51
399.90	1345.81
400.09	1437.09
400.28	1341.13
400.47	1437.09
400.67	1474.54
400.86	1467.52
401.05	1373.89
401.24	1385.60
401.44	1472.20
401.63	1390.28
401.82	1523.69
402.01	1455.81
402.21	1507.30
402.40	1540.07
402.59	1448.79
402.78	1448.79
402.97	1514.33
403.17	1500.28
403.36	1488.58
403.55	1617.31
403.74	1570.50
403.93	1551.78
404.13	1572.84
404.32	1554.12
404.51	1633.69
404.70	1647.74
404.89	1519.01
405.09	1659.44
405.28	1668.80
405.47	1636.03
405.66	1776.47
405.85	1643.06
406.05	1748.38
406.24	1767.10
406.43	1753.06
406.62	1851.36
406.81	1914.56
407.00	1790.51
407.20	1692.21
407.39	1703.91
407.58	1944.99
407.77	1886.47
407.96	1898.17
408.15	2003.50
408.34	1839.66
408.54	1886.47
408.73	1844.34
408.92	1973.07
409.11	1944.99
409.30	1998.82
409.49	1909.88
409.68	2024.56
409.87	1954.35
410.07	2066.69
410.26	2092.44
410.45	1956.69
410.64	1923.92
410.83	2113.50
411.02	2090.10
411.21	2134.57
411.40	2214.15
411.59	2146.27
411.78	2099.46
411.98	2225.85
412.17	2256.28
412.36	2246.91
412.55	2303.09
412.74	2340.54
412.93	2338.20
413.12	2303.09
413.31	2525.44
413.50	2420.11
413.69	2286.70
413.88	2541.82
414.07	2497.35
414.26	2541.82
414.45	2569.91
414.64	2602.68
414.83	2560.55
415.02	2635.44
415.22	2761.83
415.41	2600.34
415.60	2656.51
415.79	2619.06
415.98	2757.15
416.17	2651.83
416.36	2754.81
416.55	2626.08
416.74	2874.18
416.93	2855.45
417.12	2855.45
417.31	2956.10
417.50	2897.58
417.69	2883.54
417.88	2888.22
418.07	2953.76
418.26	2937.37
418.45	2965.46
418.64	3192.49
418.83	2998.23
419.02	2988.86
419.21	3126.96
419.39	3087.17
419.58	3035.67
419.77	3101.21
419.96	3148.02
420.15	3248.66
420.34	3098.87
420.53	3201.85
420.72	3269.73
420.91	3220.58
421.10	3283.77
421.29	3328.24
421.48	3342.28
421.67	3262.71
421.86	3276.75
422.05	3185.47
422.24	3323.56
422.43	3396.12
422.61	3304.84
422.80	3438.25
422.99	3461.65
423.18	3344.63
423.37	3412.50
423.56	3396.12
423.75	3454.63
423.94	3487.40
424.13	3227.60
424.32	3351.65
424.50	3445.27
424.69	3485.06
424.88	3569.32
425.07	3447.61
425.26	3375.05
425.45	3353.99
425.64	3337.60
425.83	3471.01
426.01	3396.12
426.20	3494.42
426.39	3475.70
426.58	3548.25
426.77	3499.10
426.96	3550.59
427.15	3566.98
427.33	3578.68
427.52	3501.44
427.71	3627.83
427.90	3552.93
428.09	3660.60
428.28	3576.34
428.46	3534.21
428.65	3548.25
428.84	3698.05
429.03	3815.07
429.22	3534.21
429.40	3815.07
429.59	3719.11
429.78	3627.83
429.97	3705.07
430.16	3728.47
430.34	3831.46
430.53	3868.91
430.72	3957.85
430.91	3815.07
431.10	3882.95
431.28	3957.85
431.47	4072.53
431.66	4044.45
431.85	3908.69
432.03	4053.81
432.22	4191.90
432.41	4095.94
432.60	4198.92
432.79	3955.51
432.97	4077.21
433.16	4079.55
433.35	4084.23
433.54	4156.79
433.72	4292.54
433.91	4339.35
434.10	4187.22
434.28	4222.33
434.47	4227.01
434.66	4264.46
434.85	4208.28
435.03	4437.66
435.22	4320.63
435.41	4397.87
435.59	4447.02
435.78	4294.88
435.97	4444.68
436.16	4407.23
436.34	4517.23
436.53	4454.04
436.72	4631.92
436.90	4411.91
437.09	4575.75
437.28	4437.66
437.46	4545.32
437.65	4535.96
437.84	4685.75
438.02	4664.69
438.21	4613.20
438.40	4512.55
438.58	4648.30
438.77	4826.18
438.96	4751.29
439.14	4702.14
439.33	4833.21
439.52	4847.25
439.70	4861.29
439.89	4950.23
440.08	5121.09
440.26	5085.98
440.45	4990.02
440.63	5088.32
440.82	5210.03
441.01	5027.47
441.19	5060.24
441.38	5219.39
441.57	5341.10
441.75	5324.72
441.94	5399.62
442.12	5430.04
442.31	5472.17
442.50	5366.85
442.68	5544.73
442.87	5331.74
443.05	5561.11
443.24	5521.32
443.43	5362.17
443.61	5420.68
443.80	5689.84
443.98	5469.83
444.17	5277.91
444.35	5652.39
444.54	5561.11
444.73	5554.09
444.91	5741.33
445.10	5678.14
445.28	5680.48
445.47	5610.26
445.65	5582.18
445.84	5612.60
446.02	5568.13
446.21	5797.51
446.39	5734.31
446.58	5657.07
446.77	5708.57
446.95	5661.76
447.14	5717.93
447.32	5799.85
447.51	5834.96
447.69	5748.36
447.88	5769.42
448.06	5877.09
448.25	5813.89
448.43	5753.04
448.62	5827.93
448.80	5813.89
448.99	5727.29
449.17	5877.09
449.36	5879.43
449.54	5963.68
449.73	6031.56
449.91	6087.73
450.10	6099.44
450.28	5970.71
450.46	6153.27
450.65	6155.61
450.83	6036.24
451.02	6054.97
451.20	6232.85
451.39	6176.67
451.57	6059.65
451.76	6106.46
451.94	6204.76
452.13	6333.49
452.31	6431.79
452.49	6113.48
452.68	6272.64
452.86	6307.74
453.05	6469.24
453.23	6525.41
453.42	6356.90
453.60	6200.08
453.78	6537.12
453.97	6317.11
454.15	6431.79
454.34	6455.20
454.52	6544.14
454.70	6647.12
454.89	6476.26
455.07	6675.21
455.26	6558.18
455.44	6691.59
455.62	6724.36
455.81	6752.45
455.99	6778.19
456.17	6799.26
456.36	6679.89
456.54	6930.33
456.73	6757.13
456.91	6942.03
457.09	6988.84
457.28	7023.95
457.46	6897.56
457.64	7075.44
457.83	7002.88
458.01	7091.82
458.19	7265.02
458.38	6899.90
458.56	7077.78
458.74	7117.57
458.93	7169.06
459.11	7098.84
459.29	7279.07
459.48	7150.34
459.66	7201.83
459.84	7372.69
460.03	7449.93
460.21	7255.66
460.39	7398.43
460.57	7433.54
460.76	7545.89
460.94	7538.87
461.12	7461.63
461.31	7447.58
461.49	7456.95
461.67	7566.95
461.85	7791.64
462.04	7681.64
462.22	7988.25
462.40	7911.01
462.59	7726.11
462.77	7651.21
462.95	7889.95
463.13	7749.51
463.32	7744.83
463.50	7901.65
463.68	7922.71
463.86	7950.80
464.05	7850.16
464.23	7960.16
464.41	8114.64
464.59	7733.13
464.78	7957.82
464.96	8058.46
465.14	7702.70
465.32	8131.02
465.50	8053.78
465.69	8147.40
465.87	8182.51
466.05	8105.28
466.23	8119.32
466.41	8257.41
466.60	8187.19
466.78	8159.11
466.96	8046.76
467.14	8397.84
467.32	8348.69
467.51	8301.88
467.69	8194.22
467.87	8503.17
468.05	8411.89
468.23	8264.43
468.41	8154.43
468.60	8393.16
468.78	8493.80
468.96	8402.52
469.14	8421.25
469.32	8858.93
469.50	8416.57
469.69	8681.05
469.87	8610.83
470.05	8788.71
470.23	8884.67
470.41	8648.28
470.59	8833.18
470.77	8652.96
470.95	8908.08
471.14	9177.24
471.32	8746.58
471.50	8971.27
471.68	8950.21
471.86	9022.77
472.04	9184.26
472.22	9261.50
472.40	9114.05
472.58	9074.26
472.77	9284.91
472.95	9462.79
473.13	9652.37
473.31	9341.08
473.49	9296.61
473.67	9217.03
473.85	9540.02
474.03	9760.03
474.21	9797.48
474.39	9806.84
474.57	9923.87
474.75	9891.10
474.93	9970.68
475.12	9832.59
475.30	10019.83
475.48	10045.58
475.66	10181.33
475.84	10113.45
476.02	10118.14
476.20	10389.64
476.38	10289.00
476.56	10455.17
476.74	10427.09
476.92	10593.26
477.10	10438.79
477.28	10590.92
477.46	10682.20
477.64	10724.33
477.82	10902.22
478.00	11096.48
478.18	10923.28
478.36	11232.23
478.54	11253.30
478.72	11199.46
478.90	11398.41
479.08	11562.25
479.26	11655.87
479.44	11625.44
479.62	11651.19
479.80	11779.92
479.98	11857.15
480.16	12030.35
480.34	12163.76
480.52	12219.94
480.70	12252.70
480.88	12351.01
481.06	12322.92
481.24	12505.48
481.41	12652.94
481.59	12863.58
481.77	12802.73
481.95	12624.85
482.13	13123.38
482.31	12961.89
482.49	13252.11
482.67	13303.60
482.85	13458.08
483.03	13448.72
483.21	13767.03
483.39	13579.79
483.57	13661.71
483.74	13970.66
483.92	13898.10
484.10	14115.77
484.28	14345.14
484.46	14558.13
484.64	14930.28
484.82	14518.34
485.00	14602.60
485.18	14792.19
485.35	14949.00
485.53	14881.13
485.71	15044.96
485.89	15499.03
486.07	15503.71
486.25	15227.53
486.43	15524.77
486.61	15798.62
486.78	15838.41
486.96	15969.48
487.14	15950.75
487.32	16140.33
487.50	16475.03
487.68	16332.26
487.85	16500.78
488.03	16999.31
488.21	17043.78
488.39	17003.99
488.57	17184.21
488.75	17099.95
488.92	17507.21
489.10	17462.74
489.28	17703.81
489.46	17954.25
489.64	17820.84
489.81	17813.82
489.99	18183.62
490.17	18127.45
490.35	18434.06
490.53	18520.66
490.70	18759.39
490.88	18548.75
491.06	18970.04
491.24	18972.38
491.41	18960.68
491.59	19309.42
491.77	19075.37
491.95	19386.66
492.13	19477.94
492.30	19700.29
492.48	19674.54
492.66	19566.88
492.84	20011.58
493.01	20222.23
493.19	19960.09
493.37	20287.76
493.54	20582.67
493.72	20479.69
493.90	20409.47
494.08	20821.41
494.25	20760.55
494.43	21245.04
494.61	21380.79
494.79	21474.42
494.96	21130.36
495.14	21458.03
495.32	21830.18
495.49	21759.96
495.67	21715.49
495.85	21649.96
496.02	22340.41
496.20	22328.71
496.38	22469.14
496.55	22157.85
496.73	23037.89
496.91	22668.09
497.09	22834.27
497.26	22918.53
497.44	22998.10
497.62	23206.41
497.79	23569.19
497.97	23208.75
498.14	23318.76
498.32	23957.72
498.50	23646.43
498.67	23735.37
498.85	23920.28
499.03	24030.28
499.20	23875.80
499.38	24144.97
499.56	24276.04
499.73	24587.33
499.91	24542.86
500.08	24620.10
500.26	24711.38
500.44	24783.93
500.61	24694.99
500.79	24821.38
500.97	24945.43
501.14	25362.04
501.32	25448.64
501.49	25465.03
501.67	25474.39
501.84	25614.82
502.02	25589.08
502.20	25579.71
502.37	25846.54
502.55	25507.16
502.72	25883.98
502.90	25951.86
503.07	25830.15
503.25	26134.42
503.43	26033.78
503.60	26284.22
503.78	26656.36
503.95	26228.04
504.13	26359.11
504.30	26403.58
504.48	26855.31
504.65	26874.03
504.83	27002.76
505.01	26806.16
505.18	26876.37
505.36	27234.47
505.53	26986.38
505.71	27449.80
505.88	27161.92
506.06	27225.11
506.23	27585.55
506.41	27510.66
506.58	27974.08
506.76	27646.41
506.93	28004.51
507.11	27978.76
507.28	28257.29
507.46	28496.02
507.63	28243.24
507.81	28114.52
507.98	28400.06
508.16	28627.09
508.33	28257.29
508.50	28760.50
508.68	29034.35
508.85	28996.90
509.03	28786.25
509.20	28922.00
509.38	29230.95
509.55	29240.31
509.73	29158.39
509.90	29181.80
510.08	29486.07
510.25	29493.09
510.42	29062.43
510.60	29460.32
510.77	29858.21
510.95	29993.97
511.12	29916.73
511.30	30087.59
511.47	30164.82
511.64	30185.89
511.82	30295.89
511.99	30686.76
512.17	30398.88
512.34	30487.82
512.51	30974.65
512.69	30892.73
512.86	30892.73
513.04	31276.58
513.21	30862.30
513.38	31332.75
513.56	31054.23
513.73	30703.15
513.90	30941.88
514.08	31098.70
514.25	31763.41
514.43	31077.63
514.60	31618.30
514.77	31517.65
514.95	31725.96
515.12	31634.68
515.29	31683.83
515.47	31550.42
515.64	32135.56
515.81	31695.53
515.99	32416.42
516.16	32126.19
516.33	31892.14
516.51	32404.72
516.68	32023.21
516.85	32840.06
517.03	32882.19
517.20	32680.90
517.37	32416.42
517.54	32886.87
517.72	32884.53
517.89	32561.53
518.06	33060.07
518.24	32751.12
518.41	32741.75
518.58	33160.71
518.75	32926.66
518.93	33184.12
519.10	33336.25
519.27	33240.29
519.45	33649.88
519.62	33944.79
519.79	33656.90
519.96	33832.44
520.14	33958.83
520.31	34017.35
520.48	33755.21
520.65	33923.72
520.83	34300.55
521.00	34478.43
521.17	34073.52
521.34	34330.98
521.52	34485.45
521.69	34377.79
521.86	34632.91
522.03	34359.06
522.20	35370.18
522.38	34778.02
522.55	35353.79
522.72	34820.15
522.89	35227.40
523.07	35491.88
523.24	35255.49
523.41	35344.43
523.58	35206.34
523.75	35129.10
523.92	35360.81
524.10	35384.22
524.27	35775.09
524.44	35747.00
524.61	35714.23
524.78	35885.09
524.96	36180.00
525.13	35976.37
525.30	36430.44
525.47	36247.88
525.64	36030.21
525.81	36308.73
525.98	36554.49
526.16	36172.98
526.33	36137.87
526.50	36568.53
526.67	36573.21
526.84	36488.95
527.01	36517.04
527.18	36730.03
527.36	36706.62
527.53	36898.55
527.70	37123.24
527.87	37071.75
528.04	36610.66
528.21	37277.71
528.38	37027.28
528.55	37200.47
528.72	37343.25
528.89	37354.95
529.07	37186.43
529.24	37139.62
529.41	37724.75
529.58	37607.73
529.75	37706.03
529.92	37659.22
530.09	37839.44
530.26	37490.70
530.43	37675.60
530.60	37591.34
530.77	37593.68
530.94	37574.96
531.11	37771.57
531.28	38213.93
531.46	37652.20
531.63	37764.54
531.80	38171.80
531.97	38405.85
532.14	38756.93
532.31	38059.45
532.48	38780.34
532.65	38698.42
532.82	38464.36
532.99	38581.39
533.16	38234.99
533.33	38721.82
533.50	38946.51
533.67	38422.23
533.84	38501.81
534.01	38815.44
534.18	38838.85
534.35	39379.51
534.52	38866.94
534.69	39468.45
534.86	39386.54
535.03	39447.39
535.20	39381.85
535.37	39409.94
535.54	39662.72
535.71	39498.88
535.88	39360.79
536.05	39910.82
536.22	39852.30
536.38	39494.20
536.55	39704.85
536.72	39285.89
536.89	40027.84
537.06	40236.15
537.23	39868.69
537.40	39744.64
537.57	39655.70
537.74	39936.56
537.91	40184.66
538.08	40264.24
538.25	40084.01
538.42	40289.98
538.59	40191.68
538.75	40570.85
538.92	40215.08
539.09	40465.52
539.26	40280.62
539.43	40308.71
539.60	40428.07
539.77	40804.90
539.94	40577.87
540.11	40264.24
540.28	40669.15
540.44	40783.83
540.61	40545.10
540.78	40980.44
540.95	40648.08
541.12	40872.78
541.29	40870.43
541.46	41022.57
541.62	41074.06
541.79	41310.46
541.96	40809.58
542.13	40884.48
542.30	41254.28
542.47	41366.63
542.63	41137.26
542.80	41401.74
542.97	41696.64
543.14	41631.11
543.31	41537.49
543.48	42300.50
543.64	42499.45
543.81	42059.43
543.98	41893.25
544.15	42141.35
544.32	41748.14
544.48	42525.19
544.65	42295.82
544.82	42445.62
544.99	41998.57
545.16	42424.55
545.32	42312.20
545.49	42513.49
545.66	42649.24
545.83	43007.34
546.00	42621.16
546.16	42279.44
546.33	42316.89
546.50	42398.80
546.67	42710.10
546.83	42724.14
547.00	42614.13
547.17	42918.40
547.34	42419.87
547.50	42831.80
547.67	42993.30
547.84	42962.87
548.00	43037.77
548.17	43548.01
548.34	43126.71
548.51	43110.33
548.67	43056.50
548.84	43569.07
549.01	43229.69
549.18	43028.41
549.34	43519.92
549.51	43421.62
549.68	43428.64
549.84	43681.42
550.01	43938.88
550.18	43372.47
550.34	43199.27
550.51	43569.07
550.68	43564.39
550.84	43438.00
551.01	44009.09
551.18	43761.00
551.34	43683.76
551.51	43793.76
551.68	43236.72
551.84	43821.85
552.01	43828.87
552.18	43594.82
552.34	43927.17
552.51	43824.19
552.68	43885.04
552.84	43725.89
553.01	43702.48
553.18	44053.56
553.34	44301.66
553.51	43962.28
553.67	44540.39
553.84	44402.30
554.01	44158.89
554.17	44584.86
554.34	44488.90
554.51	44414.01
554.67	44336.77
554.84	44531.03
555.00	44376.56
555.17	44715.93
555.33	44957.01
555.50	44708.91
555.67	44449.11
555.83	44875.09
556.00	44631.68
556.16	44938.29
556.33	44959.35
556.50	44725.30
556.66	44994.46
556.83	44528.69
556.99	44893.82
557.16	45371.28
557.32	45027.23
557.49	45338.52
557.65	44917.22
557.82	45125.53
557.98	44931.26
558.15	45071.70
558.32	45301.07
558.48	44786.15
558.65	45315.11
558.81	45645.13
558.98	44982.76
559.14	45191.06
559.31	45249.58
559.47	45202.77
559.64	45378.31
559.80	45626.40
559.97	45429.80
560.13	45216.81
560.30	45713.00
560.46	45642.79
560.63	45815.99
560.79	45645.13
560.96	45612.36
561.12	45780.88
561.29	45670.87
561.45	45490.65
561.61	45521.08
561.78	45095.10
561.94	45680.24
562.11	45509.38
562.27	45834.71
562.44	45427.46
562.60	45968.12
562.77	45993.87
562.93	45223.83
563.10	45954.08
563.26	45860.46
563.42	46000.89
563.59	45708.32
563.75	45820.67
563.92	45890.88
564.08	45900.25
564.24	45783.22
564.41	46000.89
564.57	46131.96
564.74	45858.12
564.90	45998.55
565.07	45694.28
565.23	45979.82
565.39	46129.62
565.56	46227.92
565.72	45989.19
565.88	45853.44
566.05	45998.55
566.21	46178.77
566.38	45911.95
566.54	46440.91
566.70	46270.05
566.87	46347.29
567.03	46045.36
567.19	45808.96
567.36	46031.32
567.52	45893.22
567.68	46539.21
567.85	46157.70
568.01	46789.65
568.17	46096.85
568.34	46251.33
568.50	46628.15
568.66	45958.76
568.83	46422.19
568.99	46532.19
569.15	46459.63
569.32	46618.79
569.48	46522.83
569.64	46749.86
569.81	46490.06
569.97	46768.58
570.13	46560.28
570.30	46593.04
570.46	46906.68
570.62	46974.55
570.78	47070.51
570.95	46546.23
571.11	47023.70
571.27	46700.71
571.43	46426.87
571.60	46604.75
571.76	46431.55
571.92	46473.68
572.09	46801.35
572.25	46415.16
572.41	46469.00
572.57	46478.36
572.74	47103.28
572.90	46892.63
573.06	47199.24
573.22	46932.42
573.38	47049.45
573.55	47157.11
573.71	47082.22
573.87	46871.57
574.03	47091.58
574.20	47395.85
574.36	46894.97
574.52	46911.36
574.68	46845.82
574.84	46962.85
575.01	47044.77
575.17	46899.65
575.33	46953.49
575.49	47114.98
575.65	47306.91
575.82	47047.11
575.98	46923.06
576.14	47416.91
576.30	47096.26
576.46	47004.98
576.62	46997.96
576.79	46438.57
576.95	46817.74
577.11	46939.44
577.27	46820.08
577.43	47014.34
577.59	46780.29
577.75	46651.56
577.92	46827.10
578.08	47044.77
578.24	46960.51
578.40	47000.30
578.56	47395.85
578.72	46838.80
578.88	47248.39
579.04	46735.82
579.21	46918.38
579.37	47580.75
579.53	47232.01
579.69	46305.16
579.85	47061.15
580.01	47056.47
580.17	47187.54
580.33	47145.41
580.49	47426.28
580.65	47276.48
580.82	47009.66
580.98	46990.94
581.14	46850.50
581.30	47037.75
581.46	47117.32
581.62	47091.58
581.78	46997.96
581.94	47547.98
582.10	46934.76
582.26	47540.96
582.42	47346.70
582.58	47325.63
582.74	47215.63
582.90	47100.94
583.06	47786.72
583.22	47454.36
583.38	47379.46
583.54	47037.75
583.70	47456.70
583.86	47138.39
584.02	47475.43
584.18	47903.74
584.34	47337.33
584.50	48079.28
584.66	47166.48
584.82	47412.23
584.98	47351.38
585.14	47241.37
585.30	47234.35
585.46	47215.63
585.62	47206.26
585.78	47316.27
585.94	47243.71
586.10	47250.74
586.26	46754.54
586.42	47365.42
586.58	47767.99
586.74	47508.19
586.90	47131.37
587.06	47342.02
587.22	47838.21
587.38	47138.39
587.54	47498.83
587.70	47604.16
587.86	47349.04
588.02	47505.85
588.18	47503.51
588.34	47454.36
588.49	47578.41
588.65	47150.09
588.81	47414.57
588.97	47309.25
589.13	47159.45
589.29	47248.39
589.45	47962.26
589.61	47372.44
589.77	47475.43
589.93	47676.71
