SpectraSuite Data File
++++++++++++++++++++++++++++++++++++
Date: Fri Oct 25 10:47:54 EDT 2013
User: price-jones
Dark Spectrum Present: No
Reference Spectrum Present: No
Number of Sampled Component Spectra: 1
Spectrometers: USB2+H05261
Integration Time (usec): 100000 (USB2+H05261)
Spectra Averaged: 1 (USB2+H05261)
Boxcar Smoothing: 0 (USB2+H05261)
Correct for Electrical Dark: No (USB2+H05261)
Strobe/Lamp Enabled: No (USB2+H05261)
Correct for Detector Non-linearity: No (USB2+H05261)
Correct for Stray Light: No (USB2+H05261)
Number of Pixels in Processed Spectrum: 2048
>>>>>Begin Processed Spectral Data<<<<<
365.73	119.37
365.92	119.37
366.12	119.37
366.32	30.43
366.52	46.81
366.72	42.13
366.91	46.81
367.11	91.28
367.31	0.00
367.51	95.96
367.70	56.17
367.90	32.77
368.10	4.68
368.30	56.17
368.49	37.45
368.69	91.28
368.89	18.72
369.09	65.54
369.28	121.71
369.48	35.11
369.68	53.83
369.87	110.01
370.07	77.24
370.27	194.26
370.47	168.52
370.66	348.74
370.86	463.43
371.06	489.17
371.25	470.45
371.45	425.98
371.65	428.32
371.84	470.45
372.04	475.13
372.24	503.22
372.44	456.40
372.63	535.98
372.83	470.45
373.03	451.72
373.22	535.98
373.42	550.03
373.62	540.66
373.81	545.34
374.01	603.86
374.21	543.00
374.40	566.41
374.60	559.39
374.79	519.60
374.99	571.09
375.19	503.22
375.38	526.62
375.58	587.47
375.78	568.75
375.97	545.34
376.17	617.90
376.37	620.24
376.56	617.90
376.76	655.35
376.95	615.56
377.15	676.41
377.35	676.41
377.54	653.01
377.74	585.13
377.93	643.65
378.13	657.69
378.33	664.71
378.52	564.07
378.72	592.16
378.91	587.47
379.11	650.67
379.31	606.20
379.50	634.29
379.70	650.67
379.89	613.22
380.09	629.60
380.28	681.10
380.48	669.39
380.68	638.97
380.87	699.82
381.07	606.20
381.26	772.38
381.46	674.07
381.65	566.41
381.85	737.27
382.04	706.84
382.24	751.31
382.43	571.09
382.63	713.86
382.83	674.07
383.02	720.88
383.22	744.29
383.41	645.99
383.61	657.69
383.80	713.86
384.00	688.12
384.19	650.67
384.39	685.78
384.58	800.46
384.78	678.76
384.97	791.10
385.17	777.06
385.36	755.99
385.56	774.72
385.75	737.27
385.95	784.08
386.14	802.80
386.34	779.40
386.53	819.19
386.72	823.87
386.92	788.76
387.11	784.08
387.31	828.55
387.50	793.44
387.70	814.51
387.89	786.42
388.09	856.64
388.28	805.14
388.48	875.36
388.67	858.98
388.86	821.53
389.06	926.85
389.25	884.72
389.45	915.15
389.64	835.57
389.84	957.28
390.03	875.36
390.22	931.53
390.42	887.06
390.61	924.51
390.81	910.47
391.00	933.87
391.19	973.66
391.39	980.68
391.58	901.11
391.78	1057.92
391.97	980.68
392.16	999.41
392.36	1032.18
392.55	957.28
392.75	997.07
392.94	957.28
393.13	950.26
393.33	971.32
393.52	950.26
393.71	1006.43
393.91	1022.81
394.10	992.39
394.29	1071.97
394.49	1060.26
394.68	1207.72
394.88	1128.14
395.07	1149.20
395.26	1139.84
395.46	1142.18
395.65	1156.22
395.84	1158.57
396.04	1247.51
396.23	1111.75
396.42	1097.71
396.62	1102.39
396.81	1109.41
397.00	1088.35
397.19	1128.14
397.39	1165.59
397.58	1186.65
397.77	1294.32
397.97	1322.40
398.16	1245.16
398.35	1291.98
398.55	1306.02
398.74	1341.13
398.93	1416.02
399.12	1350.49
399.32	1259.21
399.51	1392.62
399.70	1404.32
399.90	1404.32
400.09	1420.71
400.28	1345.81
400.47	1397.30
400.67	1453.47
400.86	1420.71
401.05	1460.49
401.24	1526.03
401.44	1530.71
401.63	1462.83
401.82	1481.56
402.01	1544.75
402.21	1579.86
402.40	1605.61
402.59	1490.92
402.78	1640.72
402.97	1401.98
403.17	1481.56
403.36	1598.59
403.55	1537.73
403.74	1612.63
403.93	1659.44
404.13	1668.80
404.32	1600.93
404.51	1575.18
404.70	1685.19
404.89	1706.25
405.09	1755.40
405.28	1720.29
405.47	1708.59
405.66	1732.00
405.85	1682.85
406.05	1727.32
406.24	1877.11
406.43	1834.98
406.62	1771.79
406.81	1947.33
407.00	1818.60
407.20	1724.97
407.39	1767.10
407.58	1839.66
407.77	1860.73
407.96	1937.96
408.15	1907.54
408.34	1870.09
408.54	1998.82
408.73	1991.80
408.92	2001.16
409.11	1980.09
409.30	2003.50
409.49	2069.03
409.68	2167.34
409.87	2022.22
410.07	2134.57
410.26	2188.40
410.45	2064.35
410.64	2169.68
410.83	2165.00
411.02	2104.14
411.21	2148.61
411.40	2218.83
411.59	2218.83
411.78	2305.43
411.98	2377.98
412.17	2377.98
412.36	2321.81
412.55	2368.62
412.74	2443.52
412.93	2485.65
413.12	2300.75
413.31	2471.61
413.50	2457.56
413.69	2565.23
413.88	2637.78
414.07	2588.63
414.26	2644.81
414.45	2572.25
414.64	2682.25
414.83	2857.79
415.02	2626.08
415.22	2750.13
415.41	2775.88
415.60	2696.30
415.79	2803.96
415.98	2965.46
416.17	2888.22
416.36	2902.26
416.55	2785.24
416.74	2827.37
416.93	3045.04
417.12	2909.29
417.31	2993.55
417.50	3141.00
417.69	3073.12
417.88	3012.27
418.07	2979.50
418.26	2991.20
418.45	3129.30
418.64	3253.34
418.83	3159.72
419.02	3169.09
419.21	3166.74
419.39	3248.66
419.58	3138.66
419.77	3183.13
419.96	3208.87
420.15	3281.43
420.34	3368.03
420.53	3405.48
420.72	3456.97
420.91	3351.65
421.10	3499.10
421.29	3384.41
421.48	3236.96
421.67	3471.01
421.86	3339.94
422.05	3379.73
422.24	3370.37
422.43	3377.39
422.61	3398.46
422.80	3482.72
422.99	3452.29
423.18	3566.98
423.37	3545.91
423.56	3492.08
423.75	3581.02
423.94	3592.72
424.13	3225.26
424.32	3410.16
424.50	3513.14
424.69	3618.47
424.88	3632.51
425.07	3503.78
425.26	3557.61
425.45	3456.97
425.64	3459.31
425.83	3489.74
426.01	3595.06
426.20	3475.70
426.39	3574.00
426.58	3679.32
426.77	3541.23
426.96	3655.92
427.15	3653.58
427.33	3754.22
427.52	3714.43
427.71	3676.98
427.90	3716.77
428.09	3700.39
428.28	3723.79
428.46	3913.38
428.65	3756.56
428.84	3768.26
429.03	3896.99
429.22	3702.73
429.40	3892.31
429.59	3875.93
429.78	3747.20
429.97	3662.94
430.16	3709.75
430.34	3955.51
430.53	3967.21
430.72	3901.67
430.91	3838.48
431.10	3946.14
431.28	4070.19
431.47	4105.30
431.66	4145.09
431.85	4145.09
432.03	4234.03
432.22	4259.78
432.41	4065.51
432.60	4238.71
432.79	4231.69
432.97	4142.75
433.16	4222.33
433.35	4245.73
433.54	4170.83
433.72	4273.82
433.91	4287.86
434.10	4198.92
434.28	4365.10
434.47	4308.93
434.66	4325.31
434.85	4313.61
435.03	4437.66
435.22	4561.70
435.41	4461.06
435.59	4699.80
435.78	4650.64
435.97	4596.81
436.16	4629.58
436.34	4538.30
436.53	4634.26
436.72	4676.39
436.90	4444.68
437.09	4650.64
437.28	4557.02
437.46	4676.39
437.65	4746.61
437.84	4723.20
438.02	4592.13
438.21	4706.82
438.40	4699.80
438.58	4856.61
438.77	4718.52
438.96	4968.96
439.14	4980.66
439.33	5050.88
439.52	4971.30
439.70	5043.85
439.89	5062.58
440.08	5224.08
440.26	4978.32
440.45	5107.05
440.63	5188.97
440.82	5200.67
441.01	5303.65
441.19	5392.59
441.38	5383.23
441.57	5582.18
441.75	5565.79
441.94	5549.41
442.12	5617.29
442.31	5699.20
442.50	5617.29
442.68	5736.65
442.87	5654.73
443.05	5839.64
443.24	5748.36
443.43	5916.87
443.61	5909.85
443.80	5930.92
443.98	5640.69
444.17	5638.35
444.35	5839.64
444.54	5926.24
444.73	5944.96
444.91	5795.17
445.10	5891.13
445.28	5795.17
445.47	5872.40
445.65	5720.27
445.84	5860.70
446.02	5935.60
446.21	5973.05
446.39	5870.06
446.58	5954.32
446.77	5839.64
446.95	5809.21
447.14	5954.32
447.32	5966.03
447.51	5949.64
447.69	5860.70
447.88	6008.16
448.06	5935.60
448.25	6052.63
448.43	6003.47
448.62	6143.91
448.80	6017.52
448.99	6015.18
449.17	6136.88
449.36	6150.93
449.54	6377.96
449.73	6148.59
449.91	6258.59
450.10	6436.47
450.28	6328.81
450.46	6424.77
450.65	6434.13
450.83	6401.37
451.02	6319.45
451.20	6431.79
451.39	6466.90
451.57	6420.09
451.76	6282.00
451.94	6452.86
452.13	6644.78
452.31	6408.39
452.49	6335.83
452.68	6485.62
452.86	6476.26
453.05	6527.75
453.23	6525.41
453.42	6604.99
453.60	6590.95
453.78	6698.61
453.97	6443.49
454.15	6434.13
454.34	6520.73
454.52	6754.79
454.70	6707.98
454.89	6642.44
455.07	6668.19
455.26	6869.47
455.44	6949.05
455.62	6972.46
455.81	6939.69
455.99	7042.67
456.17	7080.12
456.36	6956.07
456.54	7159.70
456.73	7148.00
456.91	7300.13
457.09	7353.96
457.28	7372.69
457.46	7269.70
457.64	7370.35
457.83	7279.07
458.01	7304.81
458.19	7517.80
458.38	7335.24
458.56	7433.54
458.74	7232.26
458.93	7445.24
459.11	7555.25
459.29	7325.88
459.48	7548.23
459.66	7641.85
459.84	7417.16
460.03	7735.47
460.21	7559.93
460.39	7730.79
460.57	7571.63
460.76	7775.26
460.94	7758.88
461.12	7749.51
461.31	7765.90
461.49	7793.98
461.67	7819.73
461.85	7763.56
462.04	7695.68
462.22	8175.49
462.40	7981.23
462.59	7840.79
462.77	7901.65
462.95	8032.72
463.13	7962.50
463.32	8091.23
463.50	8074.85
463.68	7969.52
463.86	8149.75
464.05	8065.49
464.23	8060.80
464.41	8025.70
464.59	7974.21
464.78	8250.39
464.96	8238.69
465.14	8119.32
465.32	8156.77
465.50	8372.10
465.69	8264.43
465.87	8339.33
466.05	8194.22
466.23	8456.36
466.41	8257.41
466.60	8746.58
466.78	8374.44
466.96	8608.49
467.14	8329.97
467.32	8461.04
467.51	8313.58
467.69	8451.67
467.87	8594.45
468.05	8540.61
468.23	8498.49
468.41	8519.55
468.60	8814.46
468.78	8762.97
468.96	8730.20
469.14	8901.06
469.32	8868.29
469.50	8669.34
469.69	8837.86
469.87	8847.22
470.05	8805.10
470.23	8641.26
470.41	8997.02
470.59	9048.51
470.77	8875.31
470.95	8910.42
471.14	9247.46
471.32	9053.19
471.50	9249.80
471.68	9350.44
471.86	9252.14
472.04	9366.82
472.22	9355.12
472.40	9312.99
472.58	9380.87
472.77	9378.53
472.95	9511.94
473.13	9717.90
473.31	9624.28
473.49	9502.58
473.67	9593.86
473.85	9607.90
474.03	9949.62
474.21	9909.83
474.39	9944.94
474.57	10050.26
474.75	10059.62
474.93	10188.35
475.12	10120.48
475.30	10061.96
475.48	10204.74
475.66	10546.45
475.84	10230.48
476.02	10427.09
476.20	10249.21
476.38	10525.39
476.56	10642.42
476.74	10787.53
476.92	10602.63
477.10	10626.03
477.28	10850.72
477.46	10949.03
477.64	11080.10
477.82	11173.72
478.00	11311.81
478.18	11185.42
478.36	11480.33
478.54	11627.78
478.72	11435.86
478.90	11538.84
479.08	11566.93
479.26	11805.66
479.44	11803.32
479.62	11885.24
479.80	12063.12
479.98	11978.86
480.16	12346.33
480.34	12269.09
480.52	12273.77
480.70	12568.68
480.88	12351.01
481.06	12638.89
481.24	12791.03
481.41	12975.93
481.59	12999.34
481.77	12746.56
481.95	12982.95
482.13	13341.05
482.31	13263.82
482.49	13556.38
482.67	13579.79
482.85	13565.74
483.03	13671.07
483.21	13933.21
483.39	14279.61
483.57	13888.74
483.74	13923.85
483.92	14225.78
484.10	14003.43
484.28	14321.74
484.46	14373.23
484.64	14881.13
484.82	14497.28
485.00	14778.14
485.18	15145.61
485.35	15005.17
485.53	14759.42
485.71	14918.57
485.89	15349.23
486.07	14878.79
486.25	15676.91
486.43	15438.17
486.61	15709.68
486.78	15999.90
486.96	15873.51
487.14	16142.67
487.32	16147.36
487.50	16116.93
487.68	16629.51
487.85	16812.07
488.03	16727.81
488.21	17006.33
488.39	16992.29
488.57	17362.09
488.75	17029.74
488.92	17628.92
489.10	17657.00
489.28	17434.65
489.46	17902.76
489.64	17776.37
489.81	18291.29
489.99	18258.52
490.17	18431.72
490.35	18459.81
490.53	18391.93
490.70	18637.69
490.88	18766.42
491.06	19281.33
491.24	18799.18
491.41	19082.39
491.59	18981.74
491.77	19133.88
491.95	19154.94
492.13	19601.99
492.30	19765.82
492.48	19955.41
492.66	19974.13
492.84	19623.05
493.01	20042.01
493.19	19948.39
493.37	20353.30
493.54	20339.26
493.72	20629.48
493.90	20772.25
494.08	20964.18
494.25	21132.70
494.43	21071.84
494.61	21507.18
494.79	21443.99
494.96	21233.34
495.14	21645.27
495.32	21713.15
495.49	21745.92
495.67	22073.59
495.85	22010.40
496.02	22174.24
496.20	22176.58
496.38	22492.55
496.55	22181.26
496.73	23126.83
496.91	22888.10
497.09	22710.22
497.26	22876.40
497.44	23300.03
497.62	23133.86
497.79	23484.94
497.97	23419.40
498.14	23566.85
498.32	23351.52
498.50	23882.83
498.67	23929.64
498.85	24112.20
499.03	24416.47
499.20	24109.86
499.38	24084.11
499.56	24154.33
499.73	24292.42
499.91	24676.27
500.08	24617.75
500.26	24266.67
500.44	24533.50
500.61	24725.42
500.79	24561.58
500.97	24793.29
501.14	25170.12
501.32	25249.70
501.49	24816.70
501.67	24814.36
501.84	25315.23
502.02	25219.27
502.20	25530.56
502.37	25663.97
502.55	25666.31
502.72	25383.11
502.90	25825.47
503.07	26019.74
503.25	25764.62
503.43	25809.09
503.60	26206.98
503.78	26221.02
503.95	26001.01
504.13	26218.68
504.30	26689.13
504.48	26712.53
504.65	26766.37
504.83	26752.32
505.01	27131.49
505.18	26841.26
505.36	27152.55
505.53	27323.41
505.71	27117.45
505.88	27262.56
506.06	26752.32
506.23	27295.33
506.41	26995.74
506.58	27300.01
506.76	27580.87
506.93	27651.09
507.11	27599.60
507.28	27934.29
507.46	28037.28
507.63	27618.32
507.81	28332.18
507.98	27573.85
508.16	28346.23
508.33	28046.64
508.50	28215.16
508.68	28395.38
508.85	28577.94
509.03	28634.11
509.20	28835.40
509.38	29104.56
509.55	29109.24
509.73	28837.74
509.90	29116.26
510.08	29071.79
510.25	28961.79
510.42	29127.97
510.60	29427.56
510.77	29626.50
510.95	29832.47
511.12	29565.65
511.30	29778.64
511.47	30017.37
511.64	29659.27
511.82	30047.80
511.99	30075.88
512.17	29912.05
512.34	30113.33
512.51	30202.27
512.69	30288.87
512.86	30345.05
513.04	31047.21
513.21	30277.17
513.38	30604.84
513.56	30307.60
513.73	30869.33
513.90	31009.76
514.08	30885.71
514.25	31208.70
514.43	31065.93
514.60	31047.21
514.77	30874.01
514.95	31522.34
515.12	31302.32
515.29	31171.25
515.47	31583.19
515.64	31857.03
515.81	31473.18
515.99	31543.40
516.16	31634.68
516.33	31473.18
516.51	31674.47
516.68	31454.46
516.85	31304.67
517.03	31751.71
517.20	32002.14
517.37	31978.74
517.54	32423.44
517.72	32547.49
517.89	32065.34
518.06	32154.28
518.24	32095.77
518.41	32123.85
518.58	32217.47
518.75	32107.47
518.93	32921.98
519.10	32474.93
519.27	32938.36
519.45	32879.85
519.62	32924.32
519.79	33263.69
519.96	33516.47
520.14	33181.77
520.31	33083.47
520.48	33256.67
520.65	33366.68
520.83	33570.30
521.00	33507.11
521.17	33731.80
521.34	33558.60
521.52	34209.27
521.69	33993.94
521.86	33926.07
522.03	34244.38
522.20	34031.39
522.38	34462.05
522.55	34593.12
522.72	34260.76
522.89	34117.99
523.07	34485.45
523.24	34314.59
523.41	34335.66
523.58	34574.39
523.75	34918.45
523.92	34871.64
524.10	35007.39
524.27	34890.37
524.44	34569.71
524.61	35180.59
524.78	34881.00
524.96	34705.46
525.13	35365.49
525.30	35433.37
525.47	35693.17
525.64	35297.62
525.81	35379.54
525.98	35356.13
526.16	34988.67
526.33	35267.19
526.50	36100.42
526.67	35218.04
526.84	35498.91
527.01	35285.92
527.18	35604.23
527.36	35927.22
527.53	35922.54
527.70	36126.17
527.87	36229.15
528.04	36257.24
528.21	36128.51
528.38	36011.48
528.55	36301.71
528.72	36374.27
528.89	36652.79
529.07	36414.05
529.24	36500.65
529.41	36552.15
529.58	36629.38
529.75	36205.75
529.92	36723.01
530.09	36603.64
530.26	36840.03
530.43	37127.92
530.60	36737.05
530.77	36893.86
530.94	36999.19
531.11	36994.51
531.28	37050.68
531.46	36774.50
531.63	37598.37
531.80	37277.71
531.97	37347.93
532.14	37322.18
532.31	37038.98
532.48	37254.31
532.65	37294.10
532.82	37137.28
532.99	37734.12
533.16	37301.12
533.33	37570.28
533.50	37972.85
533.67	37930.72
533.84	37546.87
534.01	37787.95
534.18	37886.25
534.35	38443.30
534.52	37532.83
534.69	38066.47
534.86	38349.68
535.03	37769.22
535.20	38258.40
535.37	38337.98
535.54	38366.06
535.71	38440.96
535.88	38494.79
536.05	38457.34
536.22	38534.58
536.38	38490.11
536.55	38824.81
536.72	38550.96
536.89	38153.07
537.06	38520.54
537.23	38857.57
537.40	38565.01
537.57	38785.02
537.74	38958.22
537.91	38742.89
538.08	39126.74
538.25	38789.70
538.42	38827.15
538.59	39480.16
538.75	39093.97
538.92	39129.08
539.09	39082.27
539.26	39007.37
539.43	39194.61
539.60	39271.85
539.77	39409.94
539.94	39374.83
540.11	39100.99
540.28	39435.69
540.44	39290.57
540.61	39070.56
540.78	39283.55
540.95	39227.38
541.12	39332.70
541.29	39739.96
541.46	39236.74
541.62	39674.42
541.79	39693.15
541.96	39442.71
542.13	39590.16
542.30	40051.25
542.47	40084.01
542.63	39934.22
542.80	40112.10
542.97	40566.16
543.14	40512.33
543.31	40439.78
543.48	40472.54
543.64	40973.42
543.81	40465.52
543.98	40725.32
544.15	40339.13
544.32	40933.63
544.48	41069.38
544.65	40542.76
544.82	40648.08
544.99	40343.81
545.16	40971.08
545.32	40978.10
545.49	41338.54
545.66	41242.58
545.83	41060.02
546.00	41244.92
546.16	40781.49
546.33	41057.68
546.50	40620.00
546.67	41387.69
546.83	40945.33
547.00	40861.07
547.17	41022.57
547.34	40816.60
547.50	41287.05
547.67	41647.49
547.84	41303.43
548.00	41378.33
548.17	41486.00
548.34	41336.20
548.51	41680.26
548.67	41909.63
548.84	41862.82
549.01	41846.44
549.18	41530.47
549.34	41357.27
549.51	41846.44
549.68	41706.01
549.84	41886.23
550.01	42068.79
550.18	41621.75
550.34	41977.51
550.51	41830.05
550.68	41282.37
550.84	41371.31
551.01	42319.23
551.18	41816.01
551.34	41713.03
551.51	41776.22
551.68	42211.56
551.84	42373.06
552.01	42183.48
552.18	42192.84
552.34	42361.36
552.51	42590.73
552.68	42101.56
552.84	42677.33
553.01	42485.40
553.18	42225.60
553.34	42555.62
553.51	42251.35
553.67	42469.02
553.84	42705.41
554.01	42852.87
554.17	42962.87
554.34	42628.18
554.51	42822.44
554.67	42810.74
554.84	42895.00
555.00	42368.38
555.17	42820.10
555.33	43058.84
555.50	42733.50
555.67	42897.34
555.83	42724.14
556.00	42696.05
556.16	43344.38
556.33	43154.80
556.50	43154.80
556.66	43133.73
556.83	42873.93
556.99	43093.94
557.16	43756.32
557.32	43248.42
557.49	43147.78
557.65	42611.79
557.82	43323.32
557.98	43641.63
558.15	43112.67
558.32	43337.36
558.48	43526.94
558.65	43660.35
558.81	43220.33
558.98	43089.26
559.14	43225.01
559.31	43442.68
559.47	43517.58
559.64	43496.52
559.80	43051.81
559.97	43466.09
560.13	43524.60
560.30	43498.86
560.46	43643.97
560.63	43264.80
560.79	43597.16
560.96	43768.02
561.12	43487.15
561.29	43573.75
561.45	43529.28
561.61	43648.65
561.78	43908.45
561.94	43826.53
562.11	43756.32
562.27	43859.30
562.44	43393.53
562.60	44222.08
562.77	43498.86
562.93	43859.30
563.10	43899.09
563.26	43697.80
563.42	43742.27
563.59	43845.26
563.75	43672.06
563.92	44119.10
564.08	43863.98
564.24	43964.62
564.41	44219.74
564.57	43302.25
564.74	43779.72
564.90	43512.90
565.07	43707.16
565.23	43409.92
565.39	43828.87
565.56	44069.95
565.72	43777.38
565.88	44102.71
566.05	44299.32
566.21	43821.85
566.38	43828.87
566.54	44133.14
566.70	43861.64
566.87	44299.32
567.03	44130.80
567.19	44163.57
567.36	44016.11
567.52	44041.86
567.68	44500.61
567.85	43768.02
568.01	43749.29
568.17	44062.93
568.34	44385.92
568.50	44119.10
568.66	44208.04
568.83	44570.82
568.99	44156.55
569.15	43849.94
569.32	44343.79
569.48	44069.95
569.64	44100.37
569.81	44641.04
569.97	44322.72
570.13	44648.06
570.30	43597.16
570.46	44112.08
570.62	44046.54
570.78	44023.14
570.95	44034.84
571.11	44371.88
571.27	44039.52
571.43	44121.44
571.60	44355.49
571.76	44179.95
571.92	44304.00
572.09	44130.80
572.25	44107.40
572.41	44364.85
572.57	44589.55
572.74	45223.83
572.90	44783.81
573.06	44296.98
573.22	44271.23
573.38	44491.24
573.55	44259.53
573.71	44580.18
573.87	44753.38
574.03	44203.36
574.20	44271.23
574.36	44285.28
574.52	44350.81
574.68	44718.28
574.84	44341.45
575.01	44109.74
575.17	44465.50
575.33	44355.49
575.49	44336.77
575.65	44737.00
575.82	44779.13
575.98	44622.31
576.14	44481.88
576.30	44594.23
576.46	44371.88
576.62	44435.07
576.79	44465.50
576.95	43777.38
577.11	44299.32
577.27	44680.83
577.43	44664.44
577.59	44414.01
577.75	44636.36
577.92	44467.84
578.08	44603.59
578.24	43957.60
578.40	44306.34
578.56	44432.73
578.72	44191.65
578.88	44561.46
579.04	44678.49
579.21	44259.53
579.37	44156.55
579.53	44584.86
579.69	43971.64
579.85	44460.82
580.01	44257.19
580.17	44891.48
580.33	44982.76
580.49	44889.13
580.65	44596.57
580.82	44694.87
580.98	44123.78
581.14	44397.62
581.30	44673.81
581.46	44486.56
581.62	44531.03
581.78	44942.97
581.94	44715.93
582.10	44500.61
582.26	44952.33
582.42	44533.37
582.58	44421.03
582.74	44435.07
582.90	44872.75
583.06	44987.44
583.22	45067.02
583.38	44821.26
583.54	44797.85
583.70	44772.11
583.86	44582.52
584.02	44442.09
584.18	44493.58
584.34	44900.84
584.50	44598.91
584.66	44779.13
584.82	44460.82
584.98	44746.36
585.14	44645.72
585.30	45167.66
585.46	44811.90
585.62	44680.83
585.78	44355.49
585.94	44147.18
586.10	44552.10
586.26	44598.91
586.42	45102.12
586.58	44854.03
586.74	44687.85
586.90	44367.20
587.06	44755.72
587.22	44713.59
587.38	44435.07
587.54	44935.95
587.70	44626.99
587.86	45064.67
588.02	44753.38
588.18	45013.18
588.34	44336.77
588.49	44170.59
588.65	44275.91
588.81	44795.51
588.97	44739.34
589.13	44367.20
589.29	44870.41
589.45	44669.12
589.61	44465.50
589.77	44889.13
589.93	44949.99
590.08	45001.48
590.24	44748.70
