SpectraSuite Data File
++++++++++++++++++++++++++++++++++++
Date: Fri Oct 25 11:23:53 EDT 2013
User: price-jones
Dark Spectrum Present: No
Reference Spectrum Present: No
Number of Sampled Component Spectra: 1
Spectrometers: USB2+H05261
Integration Time (usec): 100000 (USB2+H05261)
Spectra Averaged: 1 (USB2+H05261)
Boxcar Smoothing: 0 (USB2+H05261)
Correct for Electrical Dark: No (USB2+H05261)
Strobe/Lamp Enabled: No (USB2+H05261)
Correct for Detector Non-linearity: No (USB2+H05261)
Correct for Stray Light: No (USB2+H05261)
Number of Pixels in Processed Spectrum: 2048
>>>>>Begin Processed Spectral Data<<<<<
365.73	224.69
365.92	224.69
366.12	224.69
366.32	152.13
366.52	124.05
366.72	159.16
366.91	161.50
367.11	110.01
367.31	180.22
367.51	161.50
367.70	124.05
367.90	187.24
368.10	114.69
368.30	154.48
368.49	140.43
368.69	119.37
368.89	79.58
369.09	145.11
369.28	220.01
369.48	140.43
369.68	147.45
369.87	182.56
370.07	138.09
370.27	210.65
370.47	318.31
370.66	510.24
370.86	660.03
371.06	653.01
371.25	688.12
371.45	662.37
371.65	636.63
371.84	716.20
372.04	716.20
372.24	662.37
372.44	713.86
372.63	713.86
372.83	725.57
373.03	676.41
373.22	741.95
373.42	760.67
373.62	800.46
373.81	774.72
374.01	807.48
374.21	767.70
374.40	774.72
374.60	821.53
374.79	861.32
374.99	774.72
375.19	828.55
375.38	812.17
375.58	873.02
375.78	835.57
375.97	887.06
376.17	945.58
376.37	908.13
376.56	889.40
376.76	851.96
376.95	961.96
377.15	877.70
377.35	849.61
377.54	866.00
377.74	891.74
377.93	826.21
378.13	837.91
378.33	1001.75
378.52	983.02
378.72	947.92
378.91	945.58
379.11	926.85
379.31	961.96
379.50	999.41
379.70	919.83
379.89	978.34
380.09	964.30
380.28	954.94
380.48	1055.58
380.68	1076.65
380.87	1025.15
381.07	929.19
381.26	1074.31
381.46	1032.18
381.65	1055.58
381.85	1062.60
382.04	997.07
382.24	1032.18
382.43	1093.03
382.63	1123.46
382.83	1025.15
383.02	1153.88
383.22	1081.33
383.41	1156.22
383.61	1163.25
383.80	1165.59
384.00	1095.37
384.19	1107.07
384.39	1184.31
384.58	1086.01
384.78	1158.57
384.97	1174.95
385.17	1142.18
385.36	1160.91
385.56	1301.34
385.75	1210.06
385.95	1153.88
386.14	1174.95
386.34	1179.63
386.53	1200.69
386.72	1205.38
386.92	1233.46
387.11	1186.65
387.31	1238.14
387.50	1301.34
387.70	1329.42
387.89	1362.19
388.09	1205.38
388.28	1324.74
388.48	1277.93
388.67	1280.27
388.86	1336.45
389.06	1256.87
389.25	1364.53
389.45	1233.46
389.64	1303.68
389.84	1397.30
390.03	1371.55
390.22	1430.07
390.42	1376.24
390.61	1324.74
390.81	1331.76
391.00	1322.40
391.19	1385.60
391.39	1420.71
391.58	1385.60
391.78	1432.41
391.97	1441.77
392.16	1399.64
392.36	1544.75
392.55	1500.28
392.75	1617.31
392.94	1591.56
393.13	1514.33
393.33	1554.12
393.52	1528.37
393.71	1633.69
393.91	1652.42
394.10	1593.90
394.29	1696.89
394.49	1603.27
394.68	1607.95
394.88	1556.46
395.07	1631.35
395.26	1764.76
395.46	1666.46
395.65	1680.50
395.84	1870.09
396.04	1701.57
396.23	1832.64
396.42	1767.10
396.62	1746.04
396.81	1832.64
397.00	1813.92
397.19	1797.53
397.39	1755.40
397.58	1788.17
397.77	1802.21
397.97	1888.81
398.16	1923.92
398.35	1891.15
398.55	1832.64
398.74	1898.17
398.93	1909.88
399.12	1888.81
399.32	1926.26
399.51	1961.37
399.70	2015.20
399.90	1944.99
400.09	2132.23
400.28	2127.55
400.47	2031.58
400.67	2108.82
400.86	2120.53
401.05	2045.63
401.24	2115.84
401.44	2134.57
401.63	2195.42
401.82	2113.50
402.01	2113.50
402.21	2256.28
402.40	2303.09
402.59	2172.02
402.78	2246.91
402.97	2312.45
403.17	2310.11
403.36	2265.64
403.55	2361.60
403.74	2450.54
403.93	2260.96
404.13	2387.35
404.32	2417.77
404.51	2352.24
404.70	2380.32
404.89	2366.28
405.09	2495.01
405.28	2469.27
405.47	2539.48
405.66	2490.33
405.85	2548.84
406.05	2546.50
406.24	2593.31
406.43	2558.21
406.62	2558.21
406.81	2757.15
407.00	2628.42
407.20	2677.57
407.39	2637.78
407.58	2700.98
407.77	2796.94
407.96	2724.38
408.15	2689.28
408.34	2785.24
408.54	2808.64
408.73	2815.66
408.92	2846.09
409.11	2911.63
409.30	2993.55
409.49	2918.65
409.68	2864.82
409.87	2939.71
410.07	3028.65
410.26	2913.97
410.45	3040.36
410.64	3117.59
410.83	3117.59
411.02	3033.33
411.21	3075.46
411.40	3087.17
411.59	3185.47
411.78	3185.47
411.98	3187.81
412.17	3220.58
412.36	3295.47
412.55	3449.95
412.74	3372.71
412.93	3344.63
413.12	3344.63
413.31	3543.57
413.50	3599.74
413.69	3485.06
413.88	3583.36
414.07	3641.87
414.26	3634.85
414.45	3686.34
414.64	3618.47
414.83	3765.92
415.02	3831.46
415.22	3861.88
415.41	3824.44
415.60	3822.09
415.79	3859.54
415.98	4004.66
416.17	3981.25
416.36	4044.45
416.55	3913.38
416.74	4107.64
416.93	4079.55
417.12	3995.29
417.31	4196.58
417.50	4177.86
417.69	4269.14
417.88	4358.08
418.07	4409.57
418.26	4322.97
418.45	4381.48
418.64	4447.02
418.83	4475.10
419.02	4468.08
419.21	4652.98
419.39	4622.56
419.58	4404.89
419.77	4603.83
419.96	4514.89
420.15	4622.56
420.34	4631.92
420.53	4559.36
420.72	4674.05
420.91	4772.35
421.10	4835.55
421.29	4884.70
421.48	4732.56
421.67	4812.14
421.86	4798.10
422.05	4861.29
422.24	4868.31
422.43	4737.24
422.61	4947.89
422.80	5032.15
422.99	4905.76
423.18	4954.91
423.37	5015.77
423.56	4905.76
423.75	5027.47
423.94	4807.46
424.13	4671.71
424.32	4826.18
424.50	4894.06
424.69	5165.56
424.88	5252.16
425.07	4992.36
425.26	5013.43
425.45	4910.44
425.64	4999.38
425.83	5006.41
426.01	5135.14
426.20	5088.32
426.39	4997.04
426.58	5034.49
426.77	5114.07
426.96	5193.65
427.15	5139.82
427.33	5231.10
427.52	5317.70
427.71	5249.82
427.90	5228.76
428.09	5313.02
428.28	5172.58
428.46	5418.34
428.65	5296.63
428.84	5654.73
429.03	5460.47
429.22	5575.16
429.40	5502.60
429.59	5556.43
429.78	5284.93
429.97	5338.76
430.16	5479.19
430.34	5535.37
430.53	5661.76
430.72	5621.97
430.91	5591.54
431.10	5600.90
431.28	5797.51
431.47	5856.02
431.66	5820.91
431.85	5827.93
432.03	5895.81
432.22	5954.32
432.41	5987.09
432.60	6003.47
432.79	6036.24
432.97	5898.15
433.16	6221.14
433.35	6087.73
433.54	6122.84
433.72	6136.88
433.91	6136.88
434.10	6134.54
434.28	6207.10
434.47	6202.42
434.66	6413.07
434.85	6342.85
435.03	6370.94
435.22	6200.08
435.41	6480.94
435.59	6466.90
435.78	6588.61
435.97	6441.15
436.16	6600.31
436.34	6399.02
436.53	6574.56
436.72	6665.85
436.90	6434.13
437.09	6719.68
437.28	6473.92
437.46	6654.14
437.65	6707.98
437.84	6726.70
438.02	6841.39
438.21	6850.75
438.40	6867.13
438.58	6883.52
438.77	7075.44
438.96	6974.80
439.14	7307.15
439.33	7323.54
439.52	7269.70
439.70	7211.19
439.89	7351.62
440.08	7386.73
440.26	7356.30
440.45	7480.35
440.63	7438.22
440.82	7747.17
441.01	7459.29
441.19	7597.38
441.38	7857.18
441.57	7808.03
441.75	7985.91
441.94	7918.03
442.12	8147.40
442.31	8088.89
442.50	8107.62
442.68	8011.65
442.87	8121.66
443.05	8173.15
443.24	8348.69
443.43	8262.09
443.61	8215.28
443.80	8383.80
443.98	8212.94
444.17	8060.80
444.35	8341.67
444.54	8549.98
444.73	8372.10
444.91	8409.54
445.10	8432.95
445.28	8404.86
445.47	8266.77
445.65	8379.12
445.84	8458.70
446.02	8528.91
446.21	8468.06
446.39	8454.02
446.58	8503.17
446.77	8659.98
446.95	8379.12
447.14	8610.83
447.32	8505.51
447.51	8716.16
447.69	8718.50
447.88	8751.26
448.06	8606.15
448.25	8512.53
448.43	8575.72
448.62	8678.71
448.80	8594.45
448.99	8826.16
449.17	8585.08
449.36	8725.52
449.54	8847.22
449.73	8992.34
449.91	9081.28
450.10	8978.30
450.28	8959.57
450.46	9071.92
450.65	9160.86
450.83	9397.25
451.02	9088.30
451.20	9142.13
451.39	9413.63
451.57	9142.13
451.76	9146.81
451.94	9067.24
452.13	9612.58
452.31	9202.99
452.49	9320.01
452.68	9460.45
452.86	9301.29
453.05	9540.02
453.23	9385.55
453.42	9432.36
453.60	9327.03
453.78	9598.54
453.97	9472.15
454.15	9462.79
454.34	9647.69
454.52	9928.55
454.70	9870.04
454.89	9884.08
455.07	9958.98
455.26	9898.13
455.44	10099.41
455.62	10059.62
455.81	9973.02
455.99	10068.98
456.17	10101.75
456.36	10038.56
456.54	10136.86
456.73	10335.81
456.91	10506.66
457.09	10366.23
457.28	10649.44
457.46	10286.65
457.64	10509.01
457.83	10462.19
458.01	10527.73
458.19	10745.40
458.38	10738.38
458.56	11066.05
458.74	10785.19
458.93	10665.82
459.11	10834.34
459.29	10679.86
459.48	10829.66
459.66	10960.73
459.84	11028.60
460.03	11028.60
460.21	11087.12
460.39	11028.60
460.57	11152.65
460.76	11133.93
460.94	11035.63
461.12	11372.66
461.31	11377.34
461.49	11225.21
461.67	11372.66
461.85	11349.26
462.04	11311.81
462.22	11580.97
462.40	11655.87
462.59	11438.20
462.77	11405.43
462.95	11665.23
463.13	11583.31
463.32	11805.66
463.50	11850.13
463.68	11808.00
463.86	11896.94
464.05	11733.11
464.23	11936.73
464.41	11681.61
464.59	11524.80
464.78	12100.57
464.96	12011.63
465.14	12030.35
465.32	11840.77
465.50	12049.08
465.69	12315.90
465.87	12121.63
466.05	12081.85
466.23	12241.00
466.41	12210.57
466.60	12482.08
466.78	12285.47
466.96	12194.19
467.14	12416.54
467.32	12435.27
467.51	12727.83
467.69	12138.02
467.87	12561.66
468.05	12606.13
468.23	12526.55
468.41	12575.70
468.60	12720.81
468.78	13015.72
468.96	12596.76
469.14	12767.62
469.32	12697.41
469.50	12615.49
469.69	12894.01
469.87	13212.32
470.05	13497.87
470.23	13018.06
470.41	13146.79
470.59	13364.46
470.77	13259.13
470.95	13287.22
471.14	13462.76
471.32	12968.91
471.50	13561.06
471.68	13598.51
471.86	13797.46
472.04	13888.74
472.22	14193.01
472.40	13778.73
472.58	13940.23
472.77	13942.57
472.95	14384.93
473.13	14670.48
473.31	14064.28
473.49	14160.24
473.67	14211.73
473.85	14370.89
474.03	14679.84
474.21	14569.83
474.39	15082.41
474.57	14506.64
474.75	14789.85
474.93	15229.87
475.12	15014.54
475.30	15250.93
475.48	15075.39
475.66	15314.13
475.84	15393.70
476.02	15454.56
476.20	15414.77
476.38	15704.99
476.56	16070.12
476.74	16006.92
476.92	16025.65
477.10	15859.47
477.28	16245.66
477.46	16145.02
477.64	16659.93
477.82	17008.67
478.00	17003.99
478.18	16678.66
478.36	17170.17
478.54	17322.30
478.72	17254.43
478.90	17549.34
479.08	17640.62
479.26	17802.11
479.44	17951.91
479.62	17776.37
479.80	18169.58
479.98	18230.43
480.16	18352.14
480.34	18600.24
480.52	18635.35
480.70	18780.46
480.88	18670.45
481.06	18906.85
481.24	19075.37
481.41	19147.92
481.59	19201.76
481.77	19513.05
481.95	19538.79
482.13	19875.83
482.31	19885.19
482.49	20154.35
482.67	20121.59
482.85	20559.27
483.03	20842.47
483.21	20812.04
483.39	20985.24
483.57	21118.65
483.74	21170.15
483.92	21720.17
484.10	21390.16
484.28	22071.25
484.46	22001.04
484.64	22335.73
484.82	22239.77
485.00	22448.08
485.18	22794.48
485.35	22810.86
485.53	22808.52
485.71	23360.89
485.89	23564.51
486.07	23517.70
486.25	23660.48
486.43	23447.49
486.61	24151.99
486.78	24339.23
486.96	24301.78
487.14	24730.10
487.32	24772.23
487.50	25097.56
487.68	25352.68
487.85	25418.22
488.03	25741.21
488.21	26010.37
488.39	25947.18
488.57	26300.60
488.75	26401.24
488.92	26820.20
489.10	26918.50
489.28	26955.95
489.46	27360.86
489.64	27042.55
489.81	27468.53
489.99	27927.27
490.17	27843.01
490.35	28114.52
490.53	28404.74
490.70	28570.92
490.88	28233.88
491.06	28753.48
491.24	28837.74
491.41	29397.13
491.59	29488.41
491.77	29362.02
491.95	29872.26
492.13	29989.28
492.30	29951.84
492.48	30272.49
492.66	30429.30
492.84	30522.93
493.01	31138.49
493.19	30918.48
493.37	31360.84
493.54	31353.82
493.72	31548.08
493.90	31704.90
494.08	31957.67
494.25	31936.61
494.43	32081.72
494.61	32568.55
494.79	32849.42
494.96	32802.61
495.14	33109.22
495.32	33542.22
495.49	33497.75
495.67	33563.28
495.85	34141.39
496.02	34061.82
496.20	34223.31
496.38	34410.56
496.55	34356.72
496.73	35309.32
496.91	34452.69
497.09	35213.36
497.26	35346.77
497.44	35040.16
497.62	35789.13
497.79	36175.32
497.97	36151.91
498.14	36488.95
498.32	36376.61
498.50	36245.54
498.67	36985.15
498.85	36486.61
499.03	36444.48
499.20	36999.19
499.38	36961.74
499.56	37137.28
499.73	37586.66
499.91	37273.03
500.08	37467.30
500.26	37036.64
500.44	38078.18
500.61	38038.39
500.79	37912.00
500.97	38375.42
501.14	39065.88
501.32	38733.53
501.49	38822.47
501.67	39037.80
501.84	39201.63
502.02	39014.39
502.20	39512.92
502.37	39405.26
502.55	39393.56
502.72	39580.80
502.90	39901.45
503.07	39510.58
503.25	40252.53
503.43	40287.64
503.60	40287.64
503.78	40292.32
503.95	40610.64
504.13	40744.05
504.30	40889.16
504.48	40919.59
504.65	41186.41
504.83	41462.59
505.01	41090.44
505.18	41116.19
505.36	41961.12
505.53	41755.16
505.71	41675.58
505.88	42288.80
506.06	41790.27
506.23	41734.09
506.41	42064.11
506.58	42412.85
506.76	42422.21
506.93	42586.05
507.11	42754.57
507.28	42787.33
507.46	42895.00
507.63	42813.08
507.81	43213.31
507.98	43133.73
508.16	43571.41
508.33	43803.13
508.50	43414.60
508.68	43550.35
508.85	44245.49
509.03	43952.92
509.20	43945.90
509.38	44481.88
509.55	44395.28
509.73	44545.08
509.90	44961.69
510.08	44708.91
510.25	44659.76
510.42	44992.12
510.60	45102.12
510.77	45443.84
510.95	45565.55
511.12	45600.66
511.30	45476.61
511.47	45982.16
511.64	45605.34
511.82	45783.22
511.99	45841.73
512.17	46398.78
512.34	46160.05
512.51	46487.72
512.69	46920.72
512.86	46478.36
513.04	46747.52
513.21	46471.34
513.38	46930.08
513.56	46995.62
513.73	47075.19
513.90	47517.56
514.08	47475.43
514.25	47618.20
514.43	47697.78
514.60	47763.31
514.77	47536.28
514.95	48081.63
515.12	47620.54
515.29	47978.64
515.47	48339.08
515.64	48313.34
515.81	48133.12
515.99	48456.11
516.16	48547.39
516.33	48446.75
516.51	49036.56
516.68	48708.89
516.85	48519.31
517.03	49050.61
517.20	49132.53
517.37	49134.87
517.54	48711.23
517.72	49186.36
517.89	49177.00
518.06	49682.55
518.24	49502.33
518.41	49408.71
518.58	49528.08
518.75	49766.81
518.93	49830.01
519.10	50033.63
519.27	50012.57
519.45	49928.31
519.62	50000.86
519.79	50288.75
519.96	49977.46
520.14	50148.32
520.31	50499.40
520.48	50696.00
520.65	50761.54
520.83	50450.25
521.00	50696.00
521.17	50738.13
521.34	50798.99
521.52	50752.18
521.69	51178.15
521.86	51297.52
522.03	51271.78
522.20	51260.07
522.38	51599.45
522.55	51318.59
522.72	51426.25
522.89	51559.66
523.07	51777.33
523.24	51756.27
523.41	51892.02
523.58	51702.43
523.75	52381.19
523.92	51985.64
524.10	51952.87
524.27	52205.65
524.44	52107.35
524.61	52547.37
524.78	52502.90
524.96	52528.64
525.13	52577.79
525.30	52657.37
525.47	52739.29
525.64	52662.05
525.81	52725.25
525.98	53003.77
526.16	52573.11
526.33	52814.19
526.50	53202.72
526.67	53223.78
526.84	53127.82
527.01	53073.99
527.18	53256.55
527.36	52982.71
527.53	53104.41
527.70	53294.00
527.87	53483.58
528.04	53542.10
528.21	53738.70
528.38	53769.13
528.55	53677.85
528.72	53605.29
528.89	53446.13
529.07	53766.79
529.24	53478.90
529.41	53734.02
529.58	53642.74
529.75	53701.25
529.92	54270.00
530.09	53881.47
530.26	53895.52
530.43	54143.61
530.60	54164.68
530.77	53986.80
530.94	54176.38
531.11	54258.30
531.28	54408.09
531.46	54272.34
531.63	54745.13
531.80	54396.39
531.97	54445.54
532.14	54461.93
532.31	54693.64
532.48	54827.05
532.65	54932.37
532.82	54518.10
532.99	54913.65
533.16	54798.96
533.33	54920.67
533.50	54990.89
533.67	54698.32
533.84	54869.18
534.01	54967.48
534.18	54829.39
534.35	55405.16
534.52	55253.03
534.69	55210.90
534.86	55653.26
535.03	55180.47
535.20	55332.60
535.37	55271.75
535.54	55732.84
535.71	55421.55
535.88	55657.94
536.05	55547.93
536.22	55664.96
536.38	55749.22
536.55	55781.99
536.72	55557.30
536.89	55789.01
537.06	55814.76
537.23	55950.51
537.40	55751.56
537.57	55793.69
537.74	55901.36
537.91	56292.22
538.08	56060.51
538.25	56023.06
538.42	56053.49
538.59	56383.51
538.75	56093.28
538.92	56182.22
539.09	56362.44
539.26	56301.59
539.43	56299.25
539.60	56526.28
539.77	56299.25
539.94	56622.24
540.11	56285.20
540.28	56650.33
540.44	56467.76
540.61	56704.16
540.78	56647.99
540.95	56294.56
541.12	56463.08
541.29	56486.49
541.46	56891.40
541.62	56753.31
541.79	56928.85
541.96	56594.15
542.13	56664.37
542.30	56647.99
542.47	57038.86
542.63	56989.70
542.80	57286.95
542.97	57193.33
543.14	57277.59
543.31	57190.99
543.48	57258.87
543.64	57551.43
543.81	57467.17
543.98	57570.16
544.15	57469.51
544.32	57408.66
544.48	57581.86
544.65	57539.73
544.82	57450.79
544.99	57504.62
545.16	57612.29
545.32	57567.82
545.49	57918.90
545.66	58035.92
545.83	57879.11
546.00	57939.96
546.16	57804.21
546.33	57701.23
546.50	57853.36
546.67	57979.75
546.83	57537.39
547.00	57984.43
547.17	57820.59
547.34	57886.13
547.50	58234.87
547.67	58178.70
547.84	58082.73
548.00	58447.86
548.17	58124.86
548.34	58307.43
548.51	58181.04
548.67	58473.60
548.84	58260.62
549.01	58087.42
549.18	58253.59
549.34	58298.06
549.51	58410.41
549.68	58541.48
549.84	58412.75
550.01	58686.59
550.18	58262.96
550.34	58674.89
550.51	58623.40
550.68	58604.67
550.84	58576.59
551.01	58827.02
551.18	58798.94
551.34	58646.80
551.51	58873.84
551.68	58747.45
551.84	58464.24
552.01	58787.24
552.18	58838.73
552.34	58475.94
552.51	59058.74
552.68	58761.49
552.84	58852.77
553.01	59016.61
553.18	58986.18
553.34	58967.46
553.51	58955.75
553.67	58834.05
553.84	59070.44
554.01	58887.88
554.17	59297.47
554.34	59051.72
554.51	59248.32
554.67	59213.21
554.84	59000.22
555.00	59175.76
555.17	59210.87
555.33	59248.32
555.50	59049.38
555.67	59241.30
555.83	59220.23
556.00	59255.34
556.16	59491.74
556.33	59278.75
556.50	59278.75
556.66	59491.74
556.83	59309.18
556.99	59550.25
557.16	59606.42
557.32	59599.40
557.49	59510.46
557.65	59564.29
557.82	59489.40
557.98	59618.13
558.15	59400.46
558.32	59639.19
558.48	59421.52
558.65	59742.17
558.81	59606.42
558.98	59723.45
559.14	59852.18
559.31	59955.16
559.47	59994.95
559.64	59728.13
559.80	59906.01
559.97	60030.06
560.13	59751.54
560.30	59760.90
560.46	59952.82
560.63	59803.03
560.79	59913.03
560.96	59891.97
561.12	60018.36
561.29	60114.32
561.45	60191.56
561.61	60186.88
561.78	60088.57
561.94	60051.12
562.11	60051.12
562.27	60200.92
562.44	60224.32
562.60	60163.47
562.77	60280.50
562.93	59877.93
563.10	60154.11
563.26	59812.39
563.42	60308.58
563.59	59997.29
563.75	60224.32
563.92	59978.57
564.08	60093.25
564.24	60451.36
564.41	60060.49
564.57	60226.66
564.74	60245.39
564.90	60406.89
565.07	60221.98
565.23	60221.98
565.39	60214.96
565.56	60126.02
565.72	60198.58
565.88	60544.98
566.05	60360.08
566.21	60357.74
566.38	60273.48
566.54	60472.42
566.70	60488.80
566.87	60500.51
567.03	60301.56
567.19	60622.22
567.36	60470.08
567.52	60460.72
567.68	60678.39
567.85	60589.45
568.01	60722.86
568.17	60317.95
568.34	60769.67
568.50	60402.21
568.66	60631.58
568.83	60680.73
568.99	60465.40
569.15	60481.78
569.32	60294.54
569.48	60542.64
569.64	60727.54
569.81	60589.45
569.97	60434.97
570.13	60563.70
570.30	60374.12
570.46	60589.45
570.62	60767.33
570.78	60835.20
570.95	60495.83
571.11	60804.78
571.27	60622.22
571.43	60790.73
571.60	60732.22
571.76	60594.13
571.92	60781.37
572.09	60802.44
572.25	60687.75
572.41	60746.26
572.57	60587.11
572.74	61057.56
572.90	60657.32
573.06	60837.54
573.22	60760.31
573.38	60713.50
573.55	60956.91
573.71	61013.08
573.87	60907.76
574.03	60769.67
574.20	60999.04
574.36	60767.33
574.52	60900.74
574.68	60977.98
574.84	60914.78
575.01	61064.58
575.17	60900.74
575.33	60828.18
575.49	61010.74
575.65	60966.27
575.82	60809.46
575.98	60856.27
576.14	61265.86
576.30	60882.02
576.46	60839.89
576.62	60729.88
576.79	60945.21
576.95	60739.24
577.11	60849.25
577.27	60882.02
577.43	60999.04
577.59	60797.76
577.75	60776.69
577.92	60720.52
578.08	60926.49
578.24	60879.67
578.40	61001.38
578.56	61034.15
578.72	60853.93
578.88	61027.13
579.04	61174.58
579.21	61076.28
579.37	61228.41
579.53	61165.22
579.69	60970.96
579.85	61132.45
580.01	61116.07
580.17	60741.58
580.33	61216.71
580.49	61176.92
580.65	61109.05
580.82	60860.95
580.98	60877.33
581.14	61179.26
581.30	61272.88
581.46	61134.79
581.62	61073.94
581.78	61022.45
581.94	60938.19
582.10	60900.74
582.26	60931.17
582.42	61083.30
582.58	61027.13
582.74	60907.76
582.90	61045.85
583.06	61095.00
583.22	60919.46
583.38	61176.92
583.54	61193.31
583.70	61109.05
583.86	61298.63
584.02	60907.76
584.18	61233.10
584.34	61291.61
584.50	61272.88
584.66	61024.79
584.82	60907.76
584.98	61179.26
585.14	61120.75
585.30	61069.26
585.46	61223.73
585.62	61174.58
585.78	61378.21
585.94	60853.93
586.10	61008.40
586.26	61221.39
586.42	61219.05
586.58	61216.71
586.74	61361.82
586.90	61104.37
587.06	61041.17
587.22	61352.46
587.38	61214.37
587.54	61343.10
587.70	61268.20
587.86	61202.67
588.02	61186.28
588.18	61478.85
588.34	61338.42
