SpectraSuite Data File
++++++++++++++++++++++++++++++++++++
Date: Fri Oct 25 11:26:02 EDT 2013
User: price-jones
Dark Spectrum Present: No
Reference Spectrum Present: No
Number of Sampled Component Spectra: 1
Spectrometers: USB2+H05261
Integration Time (usec): 100000 (USB2+H05261)
Spectra Averaged: 1 (USB2+H05261)
Boxcar Smoothing: 0 (USB2+H05261)
Correct for Electrical Dark: No (USB2+H05261)
Strobe/Lamp Enabled: No (USB2+H05261)
Correct for Detector Non-linearity: No (USB2+H05261)
Correct for Stray Light: No (USB2+H05261)
Number of Pixels in Processed Spectrum: 2048
>>>>>Begin Processed Spectral Data<<<<<
365.73	241.08
365.92	241.08
366.12	241.08
366.32	154.48
366.52	166.18
366.72	175.54
366.91	191.92
367.11	63.19
367.31	124.05
367.51	145.11
367.70	156.82
367.90	152.13
368.10	208.31
368.30	131.07
368.49	117.03
368.69	51.49
368.89	107.66
369.09	126.39
369.28	135.75
369.48	198.95
369.68	262.14
369.87	121.71
370.07	234.05
370.27	264.48
370.47	299.59
370.66	507.90
370.86	681.10
371.06	592.16
371.25	645.99
371.45	587.47
371.65	716.20
371.84	702.16
372.04	685.78
372.24	667.05
372.44	744.29
372.63	704.50
372.83	760.67
373.03	748.97
373.22	727.91
373.42	716.20
373.62	681.10
373.81	725.57
374.01	821.53
374.21	830.89
374.40	770.04
374.60	898.77
374.79	770.04
374.99	765.36
375.19	772.38
375.38	868.34
375.58	922.17
375.78	856.64
375.97	870.68
376.17	884.72
376.37	842.59
376.56	873.02
376.76	826.21
376.95	851.96
377.15	931.53
377.35	931.53
377.54	912.81
377.74	891.74
377.93	856.64
378.13	954.94
378.33	968.98
378.52	943.24
378.72	1011.11
378.91	1004.09
379.11	978.34
379.31	910.47
379.50	980.68
379.70	1050.90
379.89	961.96
380.09	959.62
380.28	983.02
380.48	994.73
380.68	971.32
380.87	968.98
381.07	997.07
381.26	1022.81
381.46	1015.79
381.65	1034.52
381.85	1048.56
382.04	1029.84
382.24	1081.33
382.43	1008.77
382.63	1055.58
382.83	1036.86
383.02	1071.97
383.22	1064.94
383.41	1100.05
383.61	1163.25
383.80	1135.16
384.00	1123.46
384.19	1057.92
384.39	1118.78
384.58	1104.73
384.78	1130.48
384.97	1125.80
385.17	1121.12
385.36	1235.80
385.56	1219.42
385.75	1193.67
385.95	1191.33
386.14	1198.35
386.34	1153.88
386.53	1266.23
386.72	1109.41
386.92	1233.46
387.11	1343.47
387.31	1291.98
387.50	1210.06
387.70	1235.80
387.89	1242.82
388.09	1261.55
388.28	1301.34
388.48	1352.83
388.67	1320.06
388.86	1357.51
389.06	1331.76
389.25	1394.96
389.45	1359.85
389.64	1453.47
389.84	1399.64
390.03	1390.28
390.22	1437.09
390.42	1401.98
390.61	1362.19
390.81	1331.76
391.00	1437.09
391.19	1406.66
391.39	1359.85
391.58	1497.94
391.78	1460.49
391.97	1488.58
392.16	1523.69
392.36	1479.22
392.55	1537.73
392.75	1549.43
392.94	1528.37
393.13	1502.62
393.33	1488.58
393.52	1511.99
393.71	1556.46
393.91	1736.68
394.10	1584.54
394.29	1528.37
394.49	1575.18
394.68	1530.71
394.88	1685.19
395.07	1666.46
395.26	1706.25
395.46	1652.42
395.65	1750.72
395.84	1729.66
396.04	1715.61
396.23	1682.85
396.42	1680.50
396.62	1774.13
396.81	1774.13
397.00	1701.57
397.19	1720.29
397.39	1834.98
397.58	1863.07
397.77	1832.64
397.97	1888.81
398.16	1914.56
398.35	1900.52
398.55	1884.13
398.74	1923.92
398.93	2029.24
399.12	1914.56
399.32	1912.22
399.51	1982.43
399.70	1949.67
399.90	1905.20
400.09	2078.40
400.28	1973.07
400.47	2047.97
400.67	2099.46
400.86	2054.99
401.05	2010.52
401.24	2064.35
401.44	2125.21
401.63	2054.99
401.82	2143.93
402.01	2132.23
402.21	2188.40
402.40	2069.03
402.59	2263.30
402.78	2239.89
402.97	2214.15
403.17	2195.42
403.36	2296.07
403.55	2270.32
403.74	2401.39
403.93	2422.45
404.13	2279.68
404.32	2312.45
404.51	2314.79
404.70	2347.56
404.89	2319.47
405.09	2441.18
405.28	2541.82
405.47	2392.03
405.66	2513.74
405.85	2504.37
406.05	2480.97
406.24	2637.78
406.43	2551.18
406.62	2553.52
406.81	2663.53
407.00	2581.61
407.20	2567.57
407.39	2546.50
407.58	2757.15
407.77	2724.38
407.96	2761.83
408.15	2799.28
408.34	2670.55
408.54	2782.90
408.73	2736.09
408.92	2822.69
409.11	2752.47
409.30	2888.22
409.49	2836.73
409.68	3019.29
409.87	2878.86
410.07	2899.92
410.26	3045.04
410.45	3019.29
410.64	3026.31
410.83	2998.23
411.02	3105.89
411.21	3054.40
411.40	3066.10
411.59	3215.90
411.78	3243.98
411.98	3220.58
412.17	3173.77
412.36	3372.71
412.55	3323.56
412.74	3485.06
412.93	3417.18
413.12	3356.33
413.31	3604.42
413.50	3414.84
413.69	3480.38
413.88	3574.00
414.07	3550.59
414.26	3578.68
414.45	3555.27
414.64	3637.19
414.83	3611.45
415.02	3737.84
415.22	3838.48
415.41	3929.76
415.60	3768.26
415.79	3824.44
415.98	4067.85
416.17	4032.74
416.36	3906.35
416.55	4023.38
416.74	4032.74
416.93	4037.42
417.12	4133.39
417.31	4117.00
417.50	4114.66
417.69	4234.03
417.88	4421.27
418.07	4250.41
418.26	4372.12
418.45	4250.41
418.64	4486.81
418.83	4362.76
419.02	4468.08
419.21	4575.75
419.39	4510.21
419.58	4472.76
419.77	4486.81
419.96	4528.94
420.15	4592.13
420.34	4456.38
420.53	4519.57
420.72	4706.82
420.91	4620.22
421.10	4779.37
421.29	4779.37
421.48	4592.13
421.67	4704.48
421.86	4770.01
422.05	4697.46
422.24	4819.16
422.43	4873.00
422.61	4851.93
422.80	4964.28
422.99	4957.25
423.18	4823.84
423.37	4875.34
423.56	4987.68
423.75	4830.87
423.94	4908.10
424.13	4643.62
424.32	4748.95
424.50	4952.57
424.69	4999.38
424.88	4980.66
425.07	4905.76
425.26	4968.96
425.45	4931.51
425.64	4882.36
425.83	4997.04
426.01	5156.20
426.20	4873.00
426.39	4980.66
426.58	4922.15
426.77	4950.23
426.96	5146.84
427.15	5081.30
427.33	5289.61
427.52	5217.05
427.71	5252.16
427.90	5242.80
428.09	5315.36
428.28	5350.46
428.46	5420.68
428.65	5238.12
428.84	5563.45
429.03	5425.36
429.22	5235.78
429.40	5427.70
429.59	5511.96
429.78	5378.55
429.97	5296.63
430.16	5472.17
430.34	5540.05
430.53	5418.34
430.72	5607.92
430.91	5551.75
431.10	5607.92
431.28	5664.10
431.47	5746.02
431.66	5750.70
431.85	5760.06
432.03	5797.51
432.22	5998.79
432.41	5980.07
432.60	5942.62
432.79	6054.97
432.97	5947.30
433.16	6218.80
433.35	6033.90
433.54	5959.00
433.72	6076.03
433.91	6054.97
434.10	6197.74
434.28	5959.00
434.47	6218.80
434.66	6246.89
434.85	6415.41
435.03	6176.67
435.22	6279.66
435.41	6506.69
435.59	6274.98
435.78	6450.52
435.97	6455.20
436.16	6326.47
436.34	6516.05
436.53	6572.22
436.72	6511.37
436.90	6399.02
437.09	6619.04
437.28	6366.26
437.46	6626.06
437.65	6623.72
437.84	6698.61
438.02	6663.51
438.21	6736.06
438.40	6757.13
438.58	6850.75
438.77	6860.11
438.96	6960.75
439.14	7192.47
439.33	7084.80
439.52	7288.43
439.70	7105.87
439.89	7199.49
440.08	7485.03
440.26	7314.17
440.45	7461.63
440.63	7281.41
440.82	7595.04
441.01	7606.74
441.19	7658.23
441.38	7662.91
441.57	7630.15
441.75	7763.56
441.94	7782.28
442.12	7901.65
442.31	7992.93
442.50	7997.61
442.68	8002.29
442.87	7896.97
443.05	7967.18
443.24	8032.72
443.43	8098.25
443.61	8205.92
443.80	8498.49
443.98	7889.95
444.17	7901.65
444.35	8184.85
444.54	8339.33
444.73	8287.84
444.91	8271.45
445.10	8241.03
445.28	8290.18
445.47	8318.26
445.65	8212.94
445.84	8376.78
446.02	8418.91
446.21	8341.67
446.39	8428.27
446.58	8484.44
446.77	8348.69
446.95	8255.07
447.14	8449.33
447.32	8531.25
447.51	8564.02
447.69	8273.79
447.88	8407.20
448.06	8503.17
448.25	8234.00
448.43	8615.51
448.62	8613.17
448.80	8519.55
448.99	8587.43
449.17	8634.24
449.36	8702.11
449.54	8779.35
449.73	8954.89
449.91	8922.12
450.10	9085.96
450.28	8954.89
450.46	9116.39
450.65	9210.01
450.83	9043.83
451.02	9015.74
451.20	9165.54
451.39	9394.91
451.57	9153.84
451.76	8931.48
451.94	8950.21
452.13	9226.39
452.31	9181.92
452.49	9343.42
452.68	9224.05
452.86	9392.57
453.05	9345.76
453.23	9399.59
453.42	9341.08
453.60	9315.33
453.78	9418.32
453.97	9350.44
454.15	9427.68
454.34	9413.63
454.52	9745.99
454.70	9769.40
454.89	9724.93
455.07	9633.64
455.26	9912.17
455.44	9867.70
455.62	9839.61
455.81	9858.34
455.99	10118.14
456.17	10003.45
456.36	10061.96
456.54	10164.95
456.73	10068.98
456.91	10249.21
457.09	10267.93
457.28	10375.59
457.46	10235.16
457.64	10658.80
457.83	10209.42
458.01	10289.00
458.19	10672.84
458.38	10537.09
458.56	10710.29
458.74	10853.06
458.93	10670.50
459.11	10785.19
459.29	10710.29
459.48	10897.53
459.66	10661.14
459.84	11066.05
460.03	11014.56
460.21	11061.37
460.39	10934.98
460.57	10705.61
460.76	11232.23
460.94	11255.64
461.12	11199.46
461.31	11096.48
461.49	11110.52
461.67	11023.92
461.85	11459.26
462.04	11176.06
462.22	11679.27
462.40	11555.22
462.59	11480.33
462.77	11257.98
462.95	11674.59
463.13	11602.04
463.32	11616.08
463.50	11779.92
463.68	11723.74
463.86	11810.34
464.05	11604.38
464.23	11761.19
464.41	11868.86
464.59	11735.45
464.78	12170.79
464.96	12002.27
465.14	11861.84
465.32	11873.54
465.50	12301.86
465.69	12266.75
465.87	12175.47
466.05	12166.10
466.23	12236.32
466.41	12311.22
466.60	12409.52
466.78	11962.48
466.96	12063.12
467.14	12058.44
467.32	12414.20
467.51	12360.37
467.69	12102.91
467.87	12264.41
468.05	12596.76
468.23	12212.92
468.41	12348.67
468.60	12727.83
468.78	12685.70
468.96	12367.39
469.14	12748.90
469.32	12884.65
469.50	12760.60
469.69	12978.27
469.87	13102.32
470.05	12987.63
470.23	13301.26
470.41	13245.09
470.59	13425.31
470.77	13324.67
470.95	13188.92
471.14	13235.73
471.32	13259.13
471.50	13439.36
471.68	13752.99
471.86	13455.74
472.04	13668.73
472.22	14026.83
472.40	13612.56
472.58	14015.13
472.77	13975.34
472.95	14209.39
473.13	14490.26
473.31	13944.91
473.49	14047.90
473.67	14132.15
473.85	14321.74
474.03	14658.78
474.21	14466.85
474.39	14874.10
474.57	14759.42
474.75	14920.92
474.93	14909.21
475.12	15007.52
475.30	15169.01
475.48	14871.76
475.66	15051.99
475.84	14899.85
476.02	15358.60
476.20	15276.68
476.38	15494.35
476.56	16102.89
476.74	15875.85
476.92	15845.43
477.10	15655.84
477.28	16255.02
477.46	16051.39
477.64	16343.96
477.82	16369.71
478.00	16559.29
478.18	16568.65
478.36	16807.39
478.54	17083.57
478.72	17193.58
478.90	17387.84
479.08	17685.09
479.26	17282.52
479.44	17678.07
479.62	18106.38
479.80	17919.14
479.98	18211.71
480.16	18473.85
480.34	18106.38
480.52	18696.20
480.70	18593.22
480.88	18038.51
481.06	18768.76
481.24	18848.33
481.41	18939.62
481.59	19042.60
481.77	19400.70
481.95	19606.67
482.13	19405.38
482.31	19363.25
482.49	20278.40
482.67	20107.54
482.85	19999.88
483.03	20306.49
483.21	20882.26
483.39	20793.32
483.57	20793.32
483.74	20856.51
483.92	21556.33
484.10	21027.37
484.28	21530.59
484.46	21790.39
484.64	22471.48
484.82	21865.28
485.00	22267.86
485.18	22717.24
485.35	22677.45
485.53	22766.39
485.71	23049.60
485.89	23630.05
486.07	23000.44
486.25	23421.74
486.43	23442.81
486.61	23508.34
486.78	23578.56
486.96	24116.88
487.14	24486.68
487.32	24208.16
487.50	24713.72
487.68	25095.22
487.85	25275.45
488.03	25584.40
488.21	25441.62
488.39	25560.99
488.57	26036.12
488.75	26078.25
488.92	25947.18
489.10	26518.27
489.28	26712.53
489.46	27075.32
489.64	26993.40
489.81	27524.70
489.99	27620.66
490.17	27573.85
490.35	28002.17
490.53	27899.19
490.70	28056.00
490.88	28290.06
491.06	28556.88
491.24	28804.97
491.41	29275.42
491.59	29041.37
491.77	29383.09
491.95	29596.07
492.13	29457.98
492.30	29876.94
492.48	29989.28
492.66	30008.01
492.84	30059.50
493.01	30551.01
493.19	30609.53
493.37	30710.17
493.54	30974.65
493.72	31330.41
493.90	31040.18
494.08	31704.90
494.25	32100.45
494.43	32041.93
494.61	32191.73
494.79	32591.96
494.96	32367.27
495.14	32641.11
495.32	32849.42
495.49	33308.16
495.67	33015.60
495.85	33439.23
496.02	33696.69
496.20	33582.01
496.38	34146.08
496.55	34033.73
496.73	34534.60
496.91	34424.60
497.09	34473.75
497.26	34480.77
497.44	34665.67
497.62	35147.82
497.79	35910.84
497.97	35559.76
498.14	35526.99
498.32	35653.38
498.50	36013.82
498.67	36392.99
498.85	36172.98
499.03	36708.96
499.20	36561.51
499.38	36503.00
499.56	37148.98
499.73	37067.06
499.91	37242.60
500.08	37502.40
500.26	37170.05
500.44	37921.36
500.61	37708.37
500.79	37935.40
500.97	37881.57
501.14	38473.73
501.32	38473.73
501.49	38230.31
501.67	38157.75
501.84	39037.80
502.02	38628.20
502.20	38653.95
502.37	39042.48
502.55	39075.24
502.72	39543.35
502.90	39138.44
503.07	39704.85
503.25	39658.04
503.43	39646.33
503.60	40346.15
503.78	40151.89
503.95	40257.21
504.13	40390.62
504.30	40266.58
504.48	40191.68
504.65	40538.08
504.83	40790.86
505.01	41462.59
505.18	41153.64
505.36	41727.07
505.53	41031.93
505.71	41291.73
505.88	41626.43
506.06	41347.90
506.23	41886.23
506.41	41469.61
506.58	41706.01
506.76	42415.19
506.93	42359.02
507.11	42342.63
507.28	42253.69
507.46	42742.86
507.63	42630.52
507.81	43393.53
507.98	42735.84
508.16	42754.57
508.33	43555.03
508.50	43489.49
508.68	43316.29
508.85	43571.41
509.03	43540.99
509.20	43943.56
509.38	44219.74
509.55	44315.70
509.73	44278.25
509.90	44421.03
510.08	44612.95
510.25	44414.01
510.42	44446.77
510.60	44535.71
510.77	44968.71
510.95	45635.77
511.12	44428.05
511.30	45256.60
511.47	45179.36
511.64	45296.39
511.82	45752.79
511.99	45794.92
512.17	46017.27
512.34	45916.63
512.51	46478.36
512.69	46361.33
512.86	46387.08
513.04	46527.51
513.21	46382.40
513.38	46775.61
513.56	46897.31
513.73	46487.72
513.90	46960.51
514.08	46450.27
514.25	47072.85
514.43	46756.88
514.60	47374.78
514.77	47154.77
514.95	47576.07
515.12	47599.47
515.29	47491.81
515.47	47447.34
515.64	48016.09
515.81	47798.42
515.99	48002.05
516.16	48280.57
516.33	48198.65
516.51	48322.70
516.68	48299.30
516.85	48299.30
517.03	48570.80
517.20	49029.54
517.37	48348.45
517.54	48856.34
517.72	48732.29
517.89	48985.07
518.06	49024.86
518.24	49092.74
518.41	48907.83
518.58	49214.44
518.75	49228.49
518.93	49279.98
519.10	49055.29
519.27	49621.70
519.45	49481.27
519.62	49509.35
519.79	49993.84
519.96	49977.46
520.14	50396.42
520.31	49801.92
520.48	50014.91
520.65	50068.74
520.83	50461.95
521.00	50450.25
521.17	50618.77
521.34	50480.67
521.52	51014.32
521.69	50775.58
521.86	50791.97
522.03	51068.15
522.20	51349.01
522.38	51271.78
522.55	51299.86
522.72	51217.94
522.89	51351.35
523.07	51231.99
523.24	51664.99
523.41	51550.30
523.58	51246.03
523.75	51648.60
523.92	51810.10
524.10	51847.55
524.27	51906.06
524.44	51812.44
524.61	51807.76
524.78	51966.91
524.96	52156.50
525.13	52020.75
525.30	52287.57
525.47	52458.43
525.64	52329.70
525.81	52542.69
525.98	52755.68
526.16	52669.08
526.33	52589.50
526.50	52631.63
526.67	52692.48
526.84	52776.74
527.01	52467.79
527.18	53022.50
527.36	53048.24
527.53	53242.51
527.70	53277.61
527.87	53106.76
528.04	52807.17
528.21	53497.62
528.38	53324.43
528.55	53118.46
528.72	53085.69
528.89	53333.79
529.07	53209.74
529.24	53263.57
529.41	53499.97
529.58	53612.31
529.75	53439.11
529.92	53628.69
530.09	53881.47
530.26	54040.63
530.43	53752.74
530.60	53792.53
530.77	53832.32
530.94	53979.78
531.11	53841.68
531.28	53968.07
531.46	54181.06
531.63	54340.22
531.80	54206.81
531.97	54419.80
532.14	54347.24
532.31	54279.36
532.48	54368.30
532.65	54695.98
532.82	54405.75
532.99	54614.06
533.16	54384.69
533.33	54539.16
533.50	54834.07
533.67	54691.30
533.84	54546.18
534.01	54887.90
534.18	54714.70
534.35	55098.55
534.52	54976.84
534.69	55159.41
534.86	55100.89
535.03	54871.52
535.20	55353.67
535.37	55220.26
535.54	55037.70
535.71	55229.62
535.88	55356.01
536.05	55196.85
536.22	55466.02
536.38	55723.47
536.55	55405.16
536.72	55538.57
536.89	55484.74
537.06	55412.18
537.23	55594.74
537.40	55482.40
537.57	55407.50
537.74	55636.87
537.91	56009.02
538.08	55774.97
538.25	55561.98
538.42	55903.70
538.59	56030.08
538.75	55798.37
538.92	55936.46
539.09	56037.11
539.26	56224.35
539.43	56074.55
539.60	56004.34
539.77	56119.02
539.94	56301.59
540.11	56287.54
540.28	56222.01
540.44	56427.98
540.61	56310.95
540.78	56364.78
540.95	56392.87
541.12	56137.75
541.29	56479.47
541.46	56306.27
541.62	56423.29
541.79	56542.66
541.96	56310.95
542.13	56437.34
542.30	56488.83
542.47	56601.18
542.63	56591.81
542.80	56931.19
542.97	56877.36
543.14	57249.50
543.31	56973.32
543.48	57020.13
543.64	57237.80
543.81	57284.61
543.98	57127.80
544.15	57221.42
544.32	56987.36
544.48	57525.69
544.65	57392.28
544.82	57303.34
544.99	57319.72
545.16	57303.34
545.32	57286.95
545.49	57570.16
545.66	57570.16
545.83	57729.31
546.00	57518.67
546.16	57558.45
546.33	57446.11
546.50	57315.04
546.67	57970.39
546.83	57567.82
547.00	57577.18
547.17	57509.30
547.34	57600.58
547.50	57804.21
547.67	57729.31
547.84	57916.56
548.00	58054.65
548.17	57867.40
548.34	57958.69
548.51	58017.20
548.67	58223.17
548.84	58014.86
549.01	57904.85
549.18	58003.16
549.34	58134.23
549.51	58204.44
549.68	58164.65
549.84	58351.90
550.01	58358.92
550.18	58042.95
550.34	58291.04
550.51	58450.20
550.68	58351.90
550.84	58197.42
551.01	58258.27
551.18	58489.99
551.34	58340.19
551.51	58450.20
551.68	58602.33
551.84	58342.53
552.01	58298.06
552.18	58738.08
552.34	58539.14
552.51	58588.29
552.68	58473.60
552.84	58628.08
553.01	58623.40
553.18	58747.45
553.34	58850.43
553.51	58728.72
553.67	58894.90
553.84	58805.96
554.01	58876.18
554.17	58789.58
554.34	58981.50
554.51	58852.77
554.67	59072.78
554.84	58974.48
555.00	58901.92
555.17	58962.78
555.33	58962.78
555.50	58609.35
555.67	58887.88
555.83	58990.86
556.00	59112.57
556.16	59175.76
556.33	59124.27
556.50	58969.80
556.66	59257.68
556.83	59100.87
556.99	59339.60
557.16	59245.98
557.32	59461.31
557.49	59498.76
557.65	58976.82
557.82	59288.11
557.98	59058.74
558.15	59414.50
558.32	59351.30
558.48	59306.83
558.65	59503.44
558.81	59245.98
558.98	59426.20
559.14	59547.91
559.31	59587.70
559.47	59660.26
559.64	59440.24
559.80	59615.79
559.97	59618.13
560.13	59587.70
560.30	59627.49
560.46	59573.66
560.63	59449.61
560.79	59674.30
560.96	59856.86
561.12	59711.75
561.29	59554.93
561.45	59648.55
561.61	59678.98
561.78	59760.90
561.94	59732.81
562.11	59744.51
562.27	59686.00
562.44	59863.88
562.60	60018.36
562.77	60027.72
562.93	59758.56
563.10	59983.25
563.26	59880.27
563.42	60044.10
563.59	59831.11
563.75	60025.38
563.92	59859.20
564.08	59636.85
564.24	60004.31
564.41	59863.88
564.57	60177.51
564.74	60025.38
564.90	60027.72
565.07	59950.48
565.23	60156.45
565.39	60196.24
565.56	60147.09
565.72	60069.85
565.88	60247.73
566.05	59985.59
566.21	59840.48
566.38	60051.12
566.54	60177.51
566.70	60301.56
566.87	60233.69
567.03	60069.85
567.19	60219.64
567.36	60193.90
567.52	60097.94
567.68	60434.97
567.85	60177.51
568.01	60413.91
568.17	60254.75
568.34	60474.76
568.50	60207.94
568.66	60367.10
568.83	60301.56
568.99	60114.32
569.15	60163.47
569.32	60299.22
569.48	60308.58
569.64	60430.29
569.81	60355.39
569.97	60425.61
570.13	60238.37
570.30	60236.03
570.46	60346.03
570.62	60402.21
570.78	60444.33
570.95	60413.91
571.11	60376.46
571.27	60399.86
571.43	60456.04
571.60	60259.43
571.76	60432.63
571.92	60411.57
572.09	60612.85
572.25	60575.40
572.41	60360.08
572.57	60353.05
572.74	60622.22
572.90	60357.74
573.06	60498.17
573.22	60544.98
573.38	60406.89
573.55	60360.08
573.71	60493.49
573.87	60589.45
574.03	60587.11
574.20	60664.35
574.36	60449.02
574.52	60544.98
574.68	60669.03
574.84	60596.47
575.01	60762.65
575.17	60596.47
575.33	60582.43
575.49	60535.62
575.65	60676.05
575.82	60615.19
575.98	60725.20
576.14	60697.11
576.30	60814.14
576.46	60650.30
576.62	60589.45
576.79	60797.76
576.95	60390.50
577.11	60729.88
577.27	60814.14
577.43	60884.36
577.59	60720.52
577.75	60638.60
577.92	60582.43
578.08	60767.33
578.24	60853.93
578.40	60952.23
578.56	60823.50
578.72	60598.81
578.88	60856.27
579.04	60807.12
579.21	60718.18
579.37	61176.92
579.53	61003.72
579.69	60729.88
579.85	60711.16
580.01	60654.98
580.17	60652.64
580.33	60767.33
580.49	60942.87
580.65	60776.69
580.82	60701.79
580.98	60720.52
581.14	60764.99
581.30	60851.59
581.46	60872.65
581.62	60816.48
581.78	60774.35
581.94	60860.95
582.10	60713.50
582.26	60879.67
582.42	60685.41
582.58	60942.87
582.74	60851.59
582.90	60793.07
583.06	60842.23
583.22	60638.60
583.38	60774.35
583.54	60886.70
583.70	61048.19
583.86	61010.74
584.02	60905.42
584.18	60856.27
584.34	60814.14
584.50	60917.12
584.66	60842.23
584.82	60718.18
584.98	60870.31
585.14	61099.68
585.30	60914.78
585.46	61003.72
585.62	60928.83
585.78	61102.03
585.94	60900.74
586.10	60889.04
586.26	61022.45
586.42	60968.61
586.58	60882.02
586.74	61109.05
586.90	60821.16
587.06	60736.90
587.22	61162.88
587.38	60994.36
587.54	61043.51
587.70	61123.09
587.86	61029.47
588.02	61052.87
588.18	61209.69
588.34	60987.34
588.49	60891.38
