SpectraSuite Data File
++++++++++++++++++++++++++++++++++++
Date: Fri Oct 25 11:34:49 EDT 2013
User: price-jones
Dark Spectrum Present: No
Reference Spectrum Present: No
Number of Sampled Component Spectra: 1
Spectrometers: USB2+H05261
Integration Time (usec): 100000 (USB2+H05261)
Spectra Averaged: 1 (USB2+H05261)
Boxcar Smoothing: 0 (USB2+H05261)
Correct for Electrical Dark: No (USB2+H05261)
Strobe/Lamp Enabled: No (USB2+H05261)
Correct for Detector Non-linearity: No (USB2+H05261)
Correct for Stray Light: No (USB2+H05261)
Number of Pixels in Processed Spectrum: 2048
>>>>>Begin Processed Spectral Data<<<<<
365.73	301.93
365.92	301.93
366.12	301.93
366.32	175.54
366.52	208.31
366.72	250.44
366.91	124.05
367.11	208.31
367.31	177.88
367.51	145.11
367.70	163.84
367.90	189.58
368.10	205.97
368.30	159.16
368.49	205.97
368.69	135.75
368.89	194.26
369.09	217.67
369.28	175.54
369.48	217.67
369.68	238.73
369.87	245.76
370.07	304.27
370.27	315.97
370.47	301.93
370.66	456.40
370.86	472.79
371.06	557.05
371.25	512.58
371.45	547.69
371.65	566.41
371.84	514.92
372.04	587.47
372.24	517.26
372.44	540.66
372.63	638.97
372.83	531.30
373.03	566.41
373.22	528.96
373.42	596.84
373.62	601.52
373.81	575.77
374.01	608.54
374.21	622.58
374.40	582.79
374.60	634.29
374.79	685.78
374.99	582.79
375.19	627.26
375.38	547.69
375.58	594.50
375.78	697.48
375.97	622.58
376.17	711.52
376.37	615.56
376.56	599.18
376.76	662.37
376.95	660.03
377.15	767.70
377.35	716.20
377.54	699.82
377.74	725.57
377.93	671.73
378.13	603.86
378.33	645.99
378.52	702.16
378.72	720.88
378.91	755.99
379.11	664.71
379.31	678.76
379.50	702.16
379.70	704.50
379.89	753.65
380.09	739.61
380.28	702.16
380.48	739.61
380.68	711.52
380.87	713.86
381.07	784.08
381.26	746.63
381.46	772.38
381.65	807.48
381.85	638.97
382.04	753.65
382.24	889.40
382.43	851.96
382.63	732.59
382.83	765.36
383.02	791.10
383.22	805.14
383.41	746.63
383.61	819.19
383.80	875.36
384.00	816.85
384.19	765.36
384.39	798.12
384.58	851.96
384.78	772.38
384.97	795.78
385.17	812.17
385.36	823.87
385.56	744.29
385.75	744.29
385.95	877.70
386.14	905.79
386.34	767.70
386.53	840.25
386.72	837.91
386.92	894.08
387.11	903.45
387.31	868.34
387.50	844.93
387.70	814.51
387.89	938.55
388.09	896.43
388.28	873.02
388.48	875.36
388.67	1013.45
388.86	856.64
389.06	863.66
389.25	840.25
389.45	976.00
389.64	912.81
389.84	926.85
390.03	968.98
390.22	873.02
390.42	945.58
390.61	990.05
390.81	947.92
391.00	903.45
391.19	952.60
391.39	1008.77
391.58	1011.11
391.78	947.92
391.97	1013.45
392.16	1006.43
392.36	1036.86
392.55	950.26
392.75	1022.81
392.94	1078.99
393.13	1135.16
393.33	1018.13
393.52	1004.09
393.71	1050.90
393.91	978.34
394.10	1074.31
394.29	1114.10
394.49	1043.88
394.68	1139.84
394.88	1111.75
395.07	1146.86
395.26	1039.20
395.46	1071.97
395.65	1078.99
395.84	1088.35
396.04	1174.95
396.23	1071.97
396.42	1179.63
396.62	1210.06
396.81	1132.82
397.00	1135.16
397.19	1210.06
397.39	1053.24
397.58	1203.04
397.77	1135.16
397.97	1221.76
398.16	1245.16
398.35	1266.23
398.55	1306.02
398.74	1280.27
398.93	1238.14
399.12	1263.89
399.32	1224.10
399.51	1238.14
399.70	1409.00
399.90	1282.61
400.09	1322.40
400.28	1336.45
400.47	1282.61
400.67	1341.13
400.86	1287.29
401.05	1357.51
401.24	1376.24
401.44	1383.26
401.63	1362.19
401.82	1334.11
402.01	1364.53
402.21	1352.83
402.40	1373.89
402.59	1446.45
402.78	1310.70
402.97	1465.18
403.17	1589.22
403.36	1486.24
403.55	1444.11
403.74	1476.88
403.93	1469.86
404.13	1537.73
404.32	1589.22
404.51	1598.59
404.70	1607.95
404.89	1589.22
405.09	1535.39
405.28	1703.91
405.47	1638.38
405.66	1650.08
405.85	1689.87
406.05	1554.12
406.24	1638.38
406.43	1685.19
406.62	1633.69
406.81	1713.27
407.00	1741.36
407.20	1633.69
407.39	1741.36
407.58	1717.95
407.77	1682.85
407.96	1785.83
408.15	1865.41
408.34	1837.32
408.54	1858.39
408.73	1722.63
408.92	1825.62
409.11	1888.81
409.30	1867.75
409.49	1905.20
409.68	1987.11
409.87	1865.41
410.07	2038.61
410.26	1944.99
410.45	1954.35
410.64	1996.48
410.83	2026.90
411.02	1994.14
411.21	2015.20
411.40	1989.46
411.59	2076.06
411.78	2057.33
411.98	2010.52
412.17	2104.14
412.36	2146.27
412.55	2246.91
412.74	2197.76
412.93	2207.13
413.12	2186.06
413.31	2335.85
413.50	2244.57
413.69	2340.54
413.88	2424.80
414.07	2263.30
414.26	2415.43
414.45	2307.77
414.64	2366.28
414.83	2443.52
415.02	2497.35
415.22	2492.67
415.41	2605.02
415.60	2450.54
415.79	2506.71
415.98	2572.25
416.17	2548.84
416.36	2523.10
416.55	2651.83
416.74	2452.88
416.93	2649.49
417.12	2724.38
417.31	2766.51
417.50	2672.89
417.69	2766.51
417.88	2808.64
418.07	2703.32
418.26	2757.15
418.45	2801.62
418.64	2869.50
418.83	2913.97
419.02	2932.69
419.21	2972.48
419.39	2909.29
419.58	3021.63
419.77	3108.23
419.96	3047.38
420.15	3054.40
420.34	2963.12
420.53	2991.20
420.72	3052.06
420.91	2970.14
421.10	3208.87
421.29	3162.06
421.48	3178.45
421.67	3094.19
421.86	3133.98
422.05	3178.45
422.24	3073.12
422.43	3162.06
422.61	3171.43
422.80	3155.04
422.99	3176.11
423.18	3185.47
423.37	3241.64
423.56	3227.60
423.75	3241.64
423.94	3056.74
424.13	3059.08
424.32	3117.59
424.50	3316.54
424.69	3351.65
424.88	3297.81
425.07	3276.75
425.26	3283.77
425.45	3220.58
425.64	3262.71
425.83	3220.58
426.01	3349.31
426.20	3316.54
426.39	3304.84
426.58	3321.22
426.77	3283.77
426.96	3412.50
427.15	3372.71
427.33	3281.43
427.52	3379.73
427.71	3391.44
427.90	3454.63
428.09	3475.70
428.28	3459.31
428.46	3475.70
428.65	3375.05
428.84	3623.15
429.03	3552.93
429.22	3393.78
429.40	3536.55
429.59	3616.13
429.78	3487.40
429.97	3400.80
430.16	3695.71
430.34	3726.13
430.53	3658.26
430.72	3641.87
430.91	3599.74
431.10	3770.60
431.28	3770.60
431.47	3843.16
431.66	3674.64
431.85	3707.41
432.03	3913.38
432.22	3915.72
432.41	3873.59
432.60	3751.88
432.79	3892.31
432.97	3892.31
433.16	3922.74
433.35	3894.65
433.54	3894.65
433.72	3908.69
433.91	4023.38
434.10	3836.14
434.28	3920.40
434.47	3887.63
434.66	4023.38
434.85	3995.29
435.03	4152.11
435.22	4067.85
435.41	4138.07
435.59	4236.37
435.78	4182.54
435.97	4142.75
436.16	4292.54
436.34	4182.54
436.53	4287.86
436.72	4196.58
436.90	4262.12
437.09	4212.96
437.28	4271.48
437.46	4374.46
437.65	4205.94
437.84	4344.03
438.02	4400.21
438.21	4348.72
438.40	4348.72
438.58	4477.44
438.77	4479.79
438.96	4369.78
439.14	4554.68
439.33	4578.09
439.52	4737.24
439.70	4521.92
439.89	4688.09
440.08	4737.24
440.26	4753.63
440.45	4671.71
440.63	4807.46
440.82	4896.40
441.01	4795.76
441.19	4882.36
441.38	4851.93
441.57	4903.42
441.75	5158.54
441.94	5184.29
442.12	5069.60
442.31	5207.69
442.50	5036.83
442.68	5135.14
442.87	5114.07
443.05	5245.14
443.24	5247.48
443.43	5270.89
443.61	5195.99
443.80	5296.63
443.98	5242.80
444.17	5198.33
444.35	5195.99
444.54	5509.62
444.73	5315.36
444.91	5252.16
445.10	5273.23
445.28	5273.23
445.47	5282.59
445.65	5343.44
445.84	5322.38
446.02	5373.87
446.21	5481.53
446.39	5308.34
446.58	5434.72
446.77	5516.64
446.95	5160.88
447.14	5547.07
447.32	5495.58
447.51	5488.56
447.69	5453.45
447.88	5462.81
448.06	5488.56
448.25	5423.02
448.43	5481.53
448.62	5446.43
448.80	5261.52
448.99	5533.03
449.17	5624.31
449.36	5537.71
449.54	5746.02
449.73	5743.67
449.91	5799.85
450.10	5776.44
450.28	5771.76
450.46	5696.86
450.65	5696.86
450.83	5715.59
451.02	5771.76
451.20	5940.28
451.39	5797.51
451.57	5776.44
451.76	5849.00
451.94	5797.51
452.13	5928.58
452.31	5968.37
452.49	5959.00
452.68	6005.81
452.86	5940.28
453.05	5996.45
453.23	5998.79
453.42	6155.61
453.60	5937.94
453.78	6108.80
453.97	5982.41
454.15	5982.41
454.34	5963.68
454.52	6265.61
454.70	6214.12
454.89	6118.16
455.07	6450.52
455.26	6174.33
455.44	6363.92
455.62	6155.61
455.81	6298.38
455.99	6478.60
456.17	6356.90
456.36	6352.21
456.54	6413.07
456.73	6736.06
456.91	6703.29
457.09	6719.68
457.28	6731.38
457.46	6668.19
457.64	6623.72
457.83	6665.85
458.01	6541.80
458.19	6827.34
458.38	6698.61
458.56	6773.51
458.74	6944.37
458.93	6897.56
459.11	6738.40
459.29	6876.49
459.48	6670.53
459.66	6883.52
459.84	6979.48
460.03	6986.50
460.21	6981.82
460.39	6963.09
460.57	7035.65
460.76	7075.44
460.94	7183.10
461.12	7108.21
461.31	7000.54
461.49	7066.08
461.67	7059.06
461.85	7140.97
462.04	7126.93
462.22	7377.37
462.40	7368.01
462.59	7194.81
462.77	7056.72
462.95	7440.56
463.13	7321.20
463.32	7323.54
463.50	7445.24
463.68	7403.11
463.86	7538.87
464.05	7426.52
464.23	7595.04
464.41	7529.50
464.59	7295.45
464.78	7707.38
464.96	7660.57
465.14	7382.05
465.32	7548.23
465.50	7742.49
465.69	7606.74
465.87	7583.34
466.05	7606.74
466.23	7815.05
466.41	7847.82
466.60	7866.54
466.78	7740.15
466.96	7793.98
467.14	7812.71
467.32	7681.64
467.51	7953.14
467.69	7644.19
467.87	7634.83
468.05	7875.90
468.23	7829.09
468.41	7796.32
468.60	7857.18
468.78	7999.95
468.96	7925.05
469.14	8159.11
469.32	8142.72
469.50	7925.05
469.69	8224.64
469.87	8348.69
470.05	8222.30
470.23	8049.10
470.41	8238.69
470.59	8353.37
470.77	8339.33
470.95	8444.65
471.14	8482.10
471.32	8308.90
471.50	8547.64
471.68	8559.34
471.86	8489.12
472.04	8592.11
472.22	8865.95
472.40	8564.02
472.58	8641.26
472.77	8784.03
472.95	8805.10
473.13	9210.01
473.31	8887.01
473.49	8812.12
473.67	8882.33
473.85	9088.30
474.03	9142.13
474.21	9018.08
474.39	9097.66
474.57	9226.39
474.75	9207.67
474.93	9516.62
475.12	9064.89
475.30	9308.31
475.48	9263.84
475.66	9753.01
475.84	9423.00
476.02	9434.70
476.20	9598.54
476.38	9703.86
476.56	9909.83
476.74	9823.23
476.92	9797.48
477.10	9659.39
477.28	9977.70
477.46	10125.16
477.64	10024.51
477.82	10101.75
478.00	10747.74
478.18	10497.30
478.36	10466.88
478.54	10445.81
478.72	10668.16
478.90	11009.88
479.08	10918.60
479.26	11049.67
479.44	11112.86
479.62	10939.66
479.80	11176.06
479.98	11234.57
480.16	11658.21
480.34	11293.08
480.52	11475.65
480.70	11693.32
480.88	11529.48
481.06	11613.74
481.24	11749.49
481.41	12051.42
481.59	11985.88
481.77	11997.59
481.95	12166.10
482.13	12114.61
482.31	12245.68
482.49	12489.10
482.67	12496.12
482.85	12966.57
483.03	12755.92
483.21	12894.01
483.39	12816.77
483.57	12781.67
483.74	13125.72
483.92	13273.18
484.10	13135.09
484.28	13434.68
484.46	13839.59
484.64	13870.01
484.82	13525.96
485.00	13666.39
485.18	14043.21
485.35	14136.84
485.53	13823.20
485.71	14052.58
485.89	14569.83
486.07	14277.27
486.25	14429.40
486.43	14682.18
486.61	14892.83
486.78	14986.45
486.96	15035.60
487.14	15084.75
487.32	15243.91
487.50	15328.17
487.68	15417.11
487.85	15704.99
488.03	16077.14
488.21	15815.00
488.39	16137.99
488.57	15964.79
488.75	16269.06
488.92	16056.08
489.10	16762.92
489.28	16683.34
489.46	16861.22
489.64	16830.79
489.81	17095.27
489.99	16886.97
490.17	17039.10
490.35	17373.80
490.53	17287.20
490.70	17640.62
490.88	17511.89
491.06	17916.80
491.24	17879.35
491.41	17750.62
491.59	18094.68
491.77	18139.15
491.95	18239.79
492.13	18281.92
492.30	18401.29
492.48	18422.36
492.66	18483.21
492.84	18890.46
493.01	19063.66
493.19	19222.82
493.37	19077.71
493.54	19140.90
493.72	19473.26
493.90	19176.01
494.08	19634.75
494.25	19885.19
494.43	19960.09
494.61	19896.89
494.79	19697.95
494.96	19782.21
495.14	19990.52
495.32	20350.96
495.49	20184.78
495.67	20336.91
495.85	20772.25
496.02	21050.78
496.20	20861.19
496.38	21006.31
496.55	20910.35
496.73	21549.31
496.91	21301.22
497.09	21434.63
497.26	21380.79
497.44	21401.86
497.62	21757.62
497.79	21984.65
497.97	22073.59
498.14	22040.82
498.32	22377.86
498.50	22448.08
498.67	22522.98
498.85	22218.71
499.03	22640.00
499.20	22466.80
499.38	22740.64
499.56	22899.80
499.73	23138.54
499.91	23253.22
500.08	23285.99
500.26	23002.78
500.44	23108.11
500.61	23307.05
500.79	23370.25
500.97	22918.53
501.14	23777.50
501.32	23845.38
501.49	23702.61
501.67	23868.78
501.84	24203.48
502.02	24285.40
502.20	24081.77
502.37	24077.09
502.55	24205.82
502.72	24439.87
502.90	24269.01
503.07	24411.79
503.25	24559.24
503.43	24107.52
503.60	24774.57
503.78	24936.07
503.95	24781.59
504.13	25226.29
504.30	24884.58
504.48	24943.09
504.65	25221.61
504.83	25153.74
505.01	25408.86
505.18	25486.09
505.36	25446.30
505.53	25783.34
505.71	25701.42
505.88	25624.18
506.06	25390.13
506.23	26003.35
506.41	25886.32
506.58	26029.10
506.76	26176.55
506.93	26328.69
507.11	26471.46
507.28	26359.11
507.46	26426.99
507.63	26270.17
507.81	26787.43
507.98	26309.96
508.16	26672.74
508.33	26824.88
508.50	27028.51
508.68	26558.06
508.85	27150.21
509.03	27573.85
509.20	27246.18
509.38	27686.20
509.55	27529.38
509.73	27468.53
509.90	27337.46
510.08	27325.75
510.25	27920.25
510.42	28013.87
510.60	28086.43
510.77	28158.99
510.95	28287.71
511.12	28205.80
511.30	28259.63
511.47	28285.37
511.64	27854.72
511.82	28786.25
511.99	28790.93
512.17	28835.40
512.34	28615.39
512.51	29013.28
512.69	28737.10
512.86	28910.30
513.04	28842.42
513.21	28931.36
513.38	29326.91
513.56	28961.79
513.73	29078.82
513.90	29153.71
514.08	29312.87
514.25	29385.43
514.43	29371.38
514.60	29907.37
514.77	29649.91
514.95	29795.02
515.12	29626.50
515.29	29926.09
515.47	30160.14
515.64	30480.80
515.81	30080.56
515.99	30291.21
516.16	30316.96
516.33	30518.25
516.51	30328.66
516.68	30403.56
516.85	30457.39
517.03	30326.32
517.20	31063.59
517.37	30710.17
517.54	30661.02
517.72	30857.62
517.89	30670.38
518.06	30794.43
518.24	30670.38
518.41	31070.61
518.58	30866.98
518.75	31208.70
518.93	31250.83
519.10	31314.03
519.27	31335.09
519.45	31578.51
519.62	31433.39
519.79	31821.92
519.96	31676.81
520.14	32060.66
520.31	31496.59
520.48	31761.07
520.65	32266.63
520.83	32589.62
521.00	32362.59
521.17	32151.94
521.34	32718.35
521.52	32219.81
521.69	32278.33
521.86	32835.38
522.03	32304.07
522.20	32369.61
522.38	33046.02
522.55	33050.70
522.72	32439.82
522.89	32725.37
523.07	33280.08
523.24	33144.33
523.41	33181.77
523.58	33188.80
523.75	33422.85
523.92	33191.14
524.10	33294.12
524.27	33266.03
524.44	33436.89
524.61	33942.45
524.78	33490.73
524.96	33907.34
525.13	33418.17
525.30	33942.45
525.47	34066.50
525.64	33560.94
525.81	33996.28
525.98	34567.37
526.16	34059.48
526.33	33879.25
526.50	34106.29
526.67	34068.84
526.84	34181.18
527.01	33949.47
527.18	34522.90
527.36	34141.39
527.53	34511.20
527.70	34745.25
527.87	34796.74
528.04	34373.11
528.21	34834.19
528.38	34717.17
528.55	35021.44
528.72	35037.82
528.89	35072.93
529.07	34890.37
529.24	34925.47
529.41	35220.38
529.58	34967.60
529.75	35122.08
529.92	35278.89
530.09	35613.59
530.26	35536.35
530.43	35526.99
530.60	35419.33
530.77	35552.74
530.94	35758.70
531.11	35817.22
531.28	35126.76
531.46	35524.65
531.63	35819.56
531.80	35826.58
531.97	35901.48
532.14	35920.20
532.31	35952.97
532.48	36074.68
532.65	36301.71
532.82	36102.76
532.99	36290.01
533.16	35805.52
533.33	36341.50
533.50	36584.91
533.67	36023.19
533.84	36070.00
534.01	36411.71
534.18	36617.68
534.35	37170.05
534.52	36545.12
534.69	37280.05
534.86	37357.29
535.03	36601.30
535.20	36650.45
535.37	37085.79
535.54	37123.24
535.71	37041.32
535.88	36973.44
536.05	36989.83
536.22	37036.64
536.38	37017.91
536.55	37228.56
536.72	37553.90
536.89	37450.91
537.06	37544.53
537.23	37729.44
537.40	37240.26
537.57	37090.47
537.74	37514.11
537.91	37748.16
538.08	37413.46
538.25	37607.73
538.42	37844.12
538.59	38031.36
538.75	38146.05
538.92	37979.87
539.09	38572.03
539.26	37809.01
539.43	38167.12
539.60	38284.14
539.77	37801.99
539.94	38206.90
540.11	38181.16
540.28	38110.94
540.44	38567.35
540.61	38178.82
540.78	37792.63
540.95	38155.41
541.12	38405.85
541.29	38206.90
541.46	38691.40
541.62	38382.45
541.79	38824.81
541.96	38293.50
542.13	38328.61
542.30	38522.88
542.47	38902.04
542.63	38770.97
542.80	39028.43
542.97	39068.22
543.14	39468.45
543.31	39138.44
543.48	39157.16
543.64	39487.18
543.81	39791.45
543.98	39189.93
544.15	39203.97
544.32	39473.13
544.48	39945.92
544.65	39585.48
544.82	39768.04
544.99	39761.02
545.16	39856.98
545.32	39463.77
545.49	39976.35
545.66	40252.53
545.83	39421.64
546.00	39533.99
546.16	39997.41
546.33	40142.53
546.50	40041.88
546.67	40722.98
546.83	39531.65
547.00	40189.34
547.17	40018.48
547.34	40278.28
547.50	40449.14
547.67	40992.14
547.84	40215.08
548.00	40287.64
548.17	40301.68
548.34	40423.39
548.51	41045.97
548.67	40732.34
548.84	40224.45
549.01	40615.32
549.18	40952.35
549.34	40725.32
549.51	40615.32
549.68	40741.71
549.84	40498.29
550.01	40554.46
550.18	40914.90
550.34	41305.77
550.51	41354.93
550.68	41083.42
550.84	40524.04
551.01	41338.54
551.18	41125.55
551.34	41427.48
551.51	41132.57
551.68	41319.82
551.84	40811.92
552.01	41015.55
552.18	41069.38
552.34	41284.71
552.51	41450.89
552.68	41132.57
552.84	41483.66
553.01	41539.83
553.18	41511.74
553.34	41600.68
553.51	41111.51
553.67	41839.42
553.84	41804.31
554.01	41755.16
554.17	41846.44
554.34	42115.60
554.51	41476.63
554.67	42302.84
554.84	41841.76
555.00	41914.31
555.17	41886.23
555.33	42342.63
555.50	42085.17
555.67	42108.58
555.83	41736.43
556.00	42195.18
556.16	42686.69
556.33	42050.06
556.50	42148.37
556.66	42412.85
556.83	42169.43
556.99	42693.71
557.16	42700.73
557.32	42543.92
557.49	42983.94
557.65	42230.29
557.82	42644.56
557.98	42618.81
558.15	42511.15
558.32	42513.49
558.48	42609.45
558.65	42735.84
558.81	42604.77
558.98	42576.69
559.14	42408.17
559.31	42564.98
559.47	42689.03
559.64	42810.74
559.80	42316.89
559.97	43353.74
560.13	42871.59
560.30	42443.27
560.46	43056.50
560.63	42895.00
560.79	43103.31
560.96	43068.20
561.12	43225.01
561.29	43075.22
561.45	43040.11
561.61	42923.08
561.78	42607.11
561.94	42899.68
562.11	42862.23
562.27	42866.91
562.44	43070.54
562.60	43489.49
562.77	43243.74
562.93	42913.72
563.10	43325.66
563.26	42747.54
563.42	43709.50
563.59	42934.79
563.75	43002.66
563.92	43239.06
564.08	43201.61
564.24	43377.15
564.41	43447.36
564.57	43262.46
564.74	43159.48
564.90	43147.78
565.07	43173.52
565.23	43349.06
565.39	43189.91
565.56	43332.68
565.72	43505.88
565.88	43075.22
566.05	43679.08
566.21	43686.10
566.38	43234.38
566.54	43477.79
566.70	43658.01
566.87	43643.97
567.03	43185.22
567.19	43667.37
567.36	43641.63
567.52	43711.84
567.68	43636.95
567.85	44100.37
568.01	43966.96
568.17	43742.27
568.34	43615.88
568.50	44069.95
568.66	43622.90
568.83	44137.82
568.99	43845.26
569.15	43672.06
569.32	43709.50
569.48	43533.96
569.64	44217.40
569.81	43793.76
569.97	43765.68
570.13	44102.71
570.30	43812.49
570.46	44306.34
570.62	44048.88
570.78	44116.76
570.95	44149.53
571.11	44140.16
571.27	43732.91
571.43	43676.74
571.60	44201.02
571.76	43695.46
571.92	43952.92
572.09	43880.36
572.25	43892.07
572.41	44210.38
572.57	44189.31
572.74	43959.94
572.90	43948.24
573.06	44547.42
573.22	43985.69
573.38	44376.56
573.55	44051.22
573.71	44847.00
573.87	44299.32
574.03	43915.47
574.20	44294.64
574.36	43992.71
574.52	44098.03
574.68	44048.88
574.84	44034.84
575.01	44392.94
575.17	44212.72
575.33	44109.74
575.49	44311.02
575.65	44126.12
575.82	44519.33
575.98	44278.25
576.14	44222.08
576.30	44516.99
576.46	44395.28
576.62	44252.51
576.79	44184.63
576.95	44203.36
577.11	44189.31
577.27	44083.99
577.43	44364.85
577.59	44360.17
577.75	44154.21
577.92	44268.89
578.08	44151.87
578.24	44273.57
578.40	44491.24
578.56	44385.92
578.72	44215.06
578.88	44456.14
579.04	44643.38
579.21	44842.32
579.37	44299.32
579.53	44659.76
579.69	43985.69
579.85	44381.24
580.01	44444.43
580.17	44479.54
580.33	44304.00
580.49	44865.73
580.65	44538.05
580.82	44135.48
580.98	44013.77
581.14	44435.07
581.30	44643.38
581.46	44524.01
581.62	44376.56
581.78	44378.90
581.94	44584.86
582.10	44554.44
582.26	44804.88
582.42	44971.05
582.58	44954.67
582.74	44622.31
582.90	44453.79
583.06	45102.12
583.22	44294.64
583.38	44741.68
583.54	44725.30
583.70	44591.89
583.86	44802.53
584.02	44222.08
584.18	44779.13
584.34	44378.90
584.50	44446.77
584.66	44615.29
584.82	44992.12
584.98	44842.32
585.14	44612.95
585.30	44978.07
585.46	44837.64
585.62	44296.98
585.78	44598.91
585.94	44634.02
586.10	44718.28
586.26	44217.40
586.42	44751.04
586.58	44898.50
586.74	44739.34
586.90	44460.82
587.06	44884.45
587.22	45076.38
587.38	44617.63
587.54	44837.64
587.70	44975.73
587.86	44758.06
588.02	45074.04
588.18	44531.03
588.34	44449.11
588.49	44772.11
588.65	44577.84
588.81	44521.67
588.97	44877.43
589.13	44428.05
589.29	44598.91
589.45	45083.40
589.61	44746.36
589.77	45155.96
589.93	44830.62
590.08	45312.77
