SpectraSuite Data File
++++++++++++++++++++++++++++++++++++
Date: Fri Oct 25 10:47:48 EDT 2013
User: price-jones
Dark Spectrum Present: No
Reference Spectrum Present: No
Number of Sampled Component Spectra: 1
Spectrometers: USB2+H05261
Integration Time (usec): 100000 (USB2+H05261)
Spectra Averaged: 1 (USB2+H05261)
Boxcar Smoothing: 0 (USB2+H05261)
Correct for Electrical Dark: No (USB2+H05261)
Strobe/Lamp Enabled: No (USB2+H05261)
Correct for Detector Non-linearity: No (USB2+H05261)
Correct for Stray Light: No (USB2+H05261)
Number of Pixels in Processed Spectrum: 2048
>>>>>Begin Processed Spectral Data<<<<<
365.73	112.35
365.92	112.35
366.12	112.35
366.32	88.94
366.52	18.72
366.72	105.32
366.91	74.90
367.11	88.94
367.31	86.60
367.51	16.38
367.70	63.19
367.90	35.11
368.10	37.45
368.30	39.79
368.49	53.83
368.69	28.09
368.89	49.15
369.09	65.54
369.28	53.83
369.48	105.32
369.68	128.73
369.87	166.18
370.07	95.96
370.27	124.05
370.47	189.58
370.66	411.93
370.86	433.00
371.06	379.17
371.25	440.02
371.45	468.11
371.65	461.09
371.84	475.13
372.04	500.87
372.24	465.77
372.44	484.49
372.63	456.40
372.83	402.57
373.03	568.75
373.22	543.00
373.42	526.62
373.62	510.24
373.81	486.83
374.01	533.64
374.21	535.98
374.40	533.64
374.60	564.07
374.79	561.73
374.99	505.56
375.19	638.97
375.38	606.20
375.58	477.47
375.78	631.94
375.97	601.52
376.17	643.65
376.37	606.20
376.56	620.24
376.76	592.16
376.95	552.37
377.15	606.20
377.35	564.07
377.54	575.77
377.74	561.73
377.93	500.87
378.13	608.54
378.33	650.67
378.52	671.73
378.72	608.54
378.91	620.24
379.11	566.41
379.31	704.50
379.50	608.54
379.70	608.54
379.89	676.41
380.09	657.69
380.28	648.33
380.48	650.67
380.68	638.97
380.87	690.46
381.07	641.31
381.26	674.07
381.46	620.24
381.65	678.76
381.85	671.73
382.04	699.82
382.24	709.18
382.43	655.35
382.63	653.01
382.83	667.05
383.02	713.86
383.22	713.86
383.41	631.94
383.61	744.29
383.80	774.72
384.00	732.59
384.19	720.88
384.39	737.27
384.58	753.65
384.78	741.95
384.97	767.70
385.17	723.23
385.36	718.54
385.56	798.12
385.75	739.61
385.95	737.27
386.14	809.83
386.34	737.27
386.53	856.64
386.72	784.08
386.92	798.12
387.11	863.66
387.31	863.66
387.50	765.36
387.70	833.23
387.89	821.53
388.09	840.25
388.28	849.61
388.48	842.59
388.67	774.72
388.86	816.85
389.06	915.15
389.25	863.66
389.45	826.21
389.64	802.80
389.84	896.43
390.03	926.85
390.22	983.02
390.42	936.21
390.61	922.17
390.81	884.72
391.00	959.62
391.19	933.87
391.39	971.32
391.58	917.49
391.78	1034.52
391.97	947.92
392.16	978.34
392.36	938.55
392.55	947.92
392.75	905.79
392.94	931.53
393.13	964.30
393.33	912.81
393.52	1025.15
393.71	1043.88
393.91	1060.26
394.10	980.68
394.29	1095.37
394.49	997.07
394.68	1048.56
394.88	1104.73
395.07	1144.52
395.26	1083.67
395.46	1090.69
395.65	1123.46
395.84	1200.69
396.04	1057.92
396.23	1069.62
396.42	1132.82
396.62	1088.35
396.81	1163.25
397.00	1277.93
397.19	1205.38
397.39	1144.52
397.58	1308.36
397.77	1242.82
397.97	1327.08
398.16	1217.08
398.35	1263.89
398.55	1249.85
398.74	1334.11
398.93	1348.15
399.12	1362.19
399.32	1380.92
399.51	1359.85
399.70	1369.21
399.90	1500.28
400.09	1399.64
400.28	1437.09
400.47	1427.73
400.67	1483.90
400.86	1530.71
401.05	1387.94
401.24	1469.86
401.44	1565.82
401.63	1540.07
401.82	1444.11
402.01	1502.62
402.21	1533.05
402.40	1547.09
402.59	1533.05
402.78	1514.33
402.97	1509.65
403.17	1598.59
403.36	1570.50
403.55	1657.10
403.74	1568.16
403.93	1675.82
404.13	1671.14
404.32	1675.82
404.51	1614.97
404.70	1661.78
404.89	1614.97
405.09	1687.53
405.28	1778.81
405.47	1825.62
405.66	1715.61
405.85	1795.19
406.05	1713.27
406.24	1748.38
406.43	1750.72
406.62	1912.22
406.81	1961.37
407.00	1818.60
407.20	1813.92
407.39	1900.52
407.58	1919.24
407.77	1977.75
407.96	1893.49
408.15	1881.79
408.34	1956.69
408.54	2092.44
408.73	2045.63
408.92	1970.73
409.11	2104.14
409.30	2150.95
409.49	2062.01
409.68	2052.65
409.87	2078.40
410.07	2064.35
410.26	2106.48
410.45	2193.08
410.64	2179.04
410.83	2148.61
411.02	2120.53
411.21	2228.19
411.40	2223.51
411.59	2321.81
411.78	2272.66
411.98	2244.57
412.17	2363.94
412.36	2319.47
412.55	2429.48
412.74	2415.43
412.93	2389.69
413.12	2429.48
413.31	2518.42
413.50	2436.50
413.69	2485.65
413.88	2619.06
414.07	2551.18
414.26	2525.44
414.45	2663.53
414.64	2621.40
414.83	2738.43
415.02	2722.04
415.22	2754.81
415.41	2803.96
415.60	2792.26
415.79	2778.22
415.98	2979.50
416.17	2853.11
416.36	2731.41
416.55	2764.17
416.74	2949.08
416.93	2944.39
417.12	2981.84
417.31	3019.29
417.50	2949.08
417.69	3052.06
417.88	3040.36
418.07	3021.63
418.26	3155.04
418.45	3096.53
418.64	3197.17
418.83	3274.41
419.02	3232.28
419.21	3260.37
419.39	3211.22
419.58	3157.38
419.77	3159.72
419.96	3330.58
420.15	3260.37
420.34	3314.20
420.53	3365.69
420.72	3365.69
420.91	3365.69
421.10	3318.88
421.29	3480.38
421.48	3286.11
421.67	3417.18
421.86	3478.04
422.05	3265.05
422.24	3431.23
422.43	3382.07
422.61	3419.52
422.80	3550.59
422.99	3571.66
423.18	3496.76
423.37	3620.81
423.56	3597.40
423.75	3562.30
423.94	3513.14
424.13	3258.03
424.32	3424.20
424.50	3545.91
424.69	3576.34
424.88	3698.05
425.07	3337.60
425.26	3517.83
425.45	3604.42
425.64	3592.72
425.83	3559.95
426.01	3566.98
426.20	3646.55
426.39	3604.42
426.58	3550.59
426.77	3658.26
426.96	3597.40
427.15	3602.08
427.33	3585.70
427.52	3658.26
427.71	3669.96
427.90	3782.31
428.09	3845.50
428.28	3740.18
428.46	3850.18
428.65	3824.44
428.84	3840.82
429.03	3969.55
429.22	3812.73
429.40	3901.67
429.59	3784.65
429.78	3623.15
429.97	3674.64
430.16	3669.96
430.34	3812.73
430.53	3934.44
430.72	3906.35
430.91	3892.31
431.10	3845.50
431.28	4102.96
431.47	4095.94
431.66	4152.11
431.85	3985.93
432.03	4037.42
432.22	4093.60
432.41	4098.28
432.60	4271.48
432.79	4119.34
432.97	4245.73
433.16	4170.83
433.35	4276.16
433.54	4231.69
433.72	4271.48
433.91	4135.73
434.10	4257.43
434.28	4304.25
434.47	4386.16
434.66	4400.21
434.85	4351.06
435.03	4383.82
435.22	4437.66
435.41	4519.57
435.59	4451.70
435.78	4559.36
435.97	4645.96
436.16	4538.30
436.34	4559.36
436.53	4578.09
436.72	4674.05
436.90	4531.28
437.09	4603.83
437.28	4545.32
437.46	4723.20
437.65	4739.58
437.84	4641.28
438.02	4580.43
438.21	4758.31
438.40	4716.18
438.58	4887.04
438.77	4919.81
438.96	4833.21
439.14	4983.00
439.33	5064.92
439.52	4891.72
439.70	4947.89
439.89	5270.89
440.08	5067.26
440.26	5193.65
440.45	5186.63
440.63	5345.78
440.82	5441.75
441.01	5275.57
441.19	5291.95
441.38	5535.37
441.57	5448.77
441.75	5537.71
441.94	5741.33
442.12	5640.69
442.31	5680.48
442.50	5757.72
442.68	5643.03
442.87	5760.06
443.05	5671.12
443.24	5767.08
443.43	5767.08
443.61	5753.04
443.80	5930.92
443.98	5713.25
444.17	5509.62
444.35	5879.43
444.54	5987.09
444.73	5837.30
444.91	5788.14
445.10	5877.09
445.28	5886.45
445.47	5708.57
445.65	5806.87
445.84	5893.47
446.02	5937.94
446.21	5973.05
446.39	5956.66
446.58	6150.93
446.77	5980.07
446.95	5916.87
447.14	5926.24
447.32	6033.90
447.51	5984.75
447.69	5853.68
447.88	5825.59
448.06	6031.56
448.25	6148.59
448.43	6108.80
448.62	5991.77
448.80	6026.88
448.99	6057.31
449.17	6174.33
449.36	6029.22
449.54	6167.31
449.73	6298.38
449.91	6392.00
450.10	6111.14
450.28	6408.39
450.46	6267.95
450.65	6525.41
450.83	6377.96
451.02	6602.65
451.20	6534.78
451.39	6441.15
451.57	6492.65
451.76	6396.68
451.94	6656.48
452.13	6829.68
452.31	6551.16
452.49	6408.39
452.68	6581.59
452.86	6583.93
453.05	6462.22
453.23	6534.78
453.42	6595.63
453.60	6614.35
453.78	6693.93
453.97	6574.56
454.15	6719.68
454.34	6555.84
454.52	6640.10
454.70	6773.51
454.89	6913.94
455.07	6825.00
455.26	6832.02
455.44	6862.45
455.62	7052.03
455.81	7016.93
455.99	6909.26
456.17	7169.06
456.36	6979.48
456.54	7084.80
456.73	6988.84
456.91	7192.47
457.09	7260.34
457.28	7248.64
457.46	7262.68
457.64	7321.20
457.83	7272.04
458.01	7421.84
458.19	7358.64
458.38	7449.93
458.56	7222.89
458.74	7527.16
458.93	7470.99
459.11	7421.84
459.29	7447.58
459.48	7496.74
459.66	7494.40
459.84	7569.29
460.03	7646.53
460.21	7602.06
460.39	7602.06
460.57	7655.89
460.76	7658.23
460.94	7906.33
461.12	7768.24
461.31	7793.98
461.49	7749.51
461.67	7616.10
461.85	8016.33
462.04	7906.33
462.22	8339.33
462.40	8044.42
462.59	7913.35
462.77	8025.70
462.95	8142.72
463.13	7861.86
463.32	7967.18
463.50	8156.77
463.68	8002.29
463.86	8245.71
464.05	7950.80
464.23	8046.76
464.41	8276.13
464.59	8006.97
464.78	8098.25
464.96	8145.06
465.14	8322.94
465.32	8351.03
465.50	8383.80
465.69	8423.59
465.87	8287.84
466.05	8439.97
466.23	8362.73
466.41	8290.18
466.60	8512.53
466.78	8243.37
466.96	8339.33
467.14	8339.33
467.32	8477.42
467.51	8631.90
467.69	8264.43
467.87	8624.87
468.05	8688.07
468.23	8493.80
468.41	8315.92
468.60	8470.40
468.78	8777.01
468.96	8779.35
469.14	8650.62
469.32	8891.70
469.50	8732.54
469.69	8746.58
469.87	8957.23
470.05	8870.63
470.23	8840.20
470.41	8833.18
470.59	9114.05
470.77	8936.17
470.95	8943.19
471.14	9163.20
471.32	8903.40
471.50	9298.95
471.68	9359.80
471.86	9324.69
472.04	9418.32
472.22	9221.71
472.40	9334.06
472.58	9619.60
472.77	9490.87
472.95	9619.60
473.13	10047.92
473.31	9621.94
473.49	9544.70
473.67	9614.92
473.85	9692.16
474.03	9867.70
474.21	9951.96
474.39	9994.09
474.57	10031.54
474.75	10106.43
474.93	10272.61
475.12	10139.20
475.30	10345.17
475.48	10085.37
475.66	10171.97
475.84	10190.69
476.02	10366.23
476.20	10377.94
476.38	10726.68
476.56	10768.80
476.74	10918.60
476.92	10647.10
477.10	10665.82
477.28	10794.55
477.46	10836.68
477.64	11082.44
477.82	11227.55
478.00	11672.25
478.18	11227.55
478.36	11489.69
478.54	11489.69
478.72	11342.24
478.90	11847.79
479.08	11847.79
479.26	12023.33
479.44	11796.30
479.62	11936.73
479.80	12189.51
479.98	12226.96
480.16	12390.80
480.34	12453.99
480.52	12498.46
480.70	12542.93
480.88	12571.02
481.06	12500.80
481.24	12659.96
481.41	12917.42
481.59	13025.08
481.77	12966.57
481.95	13247.43
482.13	13158.49
482.31	13060.19
482.49	13589.15
482.67	13654.69
482.85	13678.09
483.03	13699.16
483.21	13870.01
483.39	13970.66
483.57	13923.85
483.74	14232.80
483.92	14211.73
484.10	14101.73
484.28	14642.39
484.46	14501.96
484.64	14890.49
484.82	14808.57
485.00	14869.42
485.18	14991.13
485.35	15154.97
485.53	15126.88
485.71	15194.76
485.89	15590.31
486.07	15232.21
486.25	15543.50
486.43	15508.39
486.61	15566.90
486.78	15803.30
486.96	15950.75
487.14	16201.19
487.32	16390.77
487.50	16449.28
487.68	16734.83
487.85	16732.49
488.03	16774.62
488.21	17158.47
488.39	17008.67
488.57	17390.18
488.75	17188.89
488.92	17701.47
489.10	17539.97
489.28	17699.13
489.46	18033.83
489.64	17926.16
489.81	18595.56
489.99	18338.10
490.17	18590.88
490.35	18717.26
490.53	18523.00
490.70	18726.63
490.88	18785.14
491.06	18991.11
491.24	19377.30
491.41	19161.97
491.59	19171.33
491.77	19337.51
491.95	19538.79
492.13	19669.86
492.30	19590.28
492.48	20058.39
492.66	19976.47
492.84	19859.45
493.01	20226.91
493.19	20432.88
493.37	20397.77
493.54	20638.84
493.72	20999.29
493.90	20959.50
494.08	20814.38
494.25	21242.70
494.43	21336.32
494.61	21411.22
494.79	21256.75
494.96	21284.83
495.14	21624.21
495.32	22080.61
495.49	21785.71
495.67	21748.26
495.85	22111.04
496.02	22359.14
496.20	22682.13
496.38	22380.20
496.55	22448.08
496.73	23220.45
496.91	22586.17
497.09	22801.50
497.26	22869.37
497.44	23124.49
497.62	23140.88
497.79	23468.55
497.97	23288.33
498.14	23384.29
498.32	23679.20
498.50	23728.35
498.67	23779.84
498.85	23957.72
499.03	23873.46
499.20	24130.92
499.38	24194.12
499.56	24489.03
499.73	24470.30
499.91	24662.22
500.08	24699.67
500.26	24474.98
500.44	24697.33
500.61	24840.11
500.79	24907.98
500.97	25008.62
501.14	25387.79
501.32	25212.25
501.49	24980.54
501.67	24952.45
501.84	25479.07
502.02	25542.27
502.20	25881.64
502.37	25708.44
502.55	25682.70
502.72	25874.62
502.90	25788.02
503.07	26115.70
503.25	26005.69
503.43	25919.09
503.60	25951.86
503.78	26307.62
503.95	26609.55
504.13	26501.89
504.30	26782.75
504.48	26588.49
504.65	26609.55
504.83	26815.52
505.01	27089.36
505.18	27110.43
505.36	27658.11
505.53	27040.21
505.71	27466.19
505.88	27480.23
506.06	27285.97
506.23	27262.56
506.41	27269.58
506.58	27779.82
506.76	27838.33
506.93	27835.99
507.11	28048.98
507.28	27934.29
507.46	27707.26
507.63	28123.88
507.81	28187.07
507.98	27800.88
508.16	28325.16
508.33	28383.68
508.50	28170.69
508.68	28664.54
508.85	28503.04
509.03	28531.13
509.20	28851.78
509.38	29137.33
509.55	29319.89
509.73	29003.92
509.90	29380.74
510.08	28746.46
510.25	29277.76
510.42	29436.92
510.60	29689.70
510.77	29654.59
510.95	30073.54
511.12	29703.74
511.30	29853.53
511.47	29998.65
511.64	30253.76
511.82	30333.34
511.99	29675.65
512.17	30099.29
512.34	29895.66
512.51	30206.95
512.69	30373.13
512.86	30937.20
513.04	30726.55
513.21	30857.62
513.38	30768.68
513.56	30497.18
513.73	30590.80
513.90	30822.51
514.08	30920.82
514.25	31299.98
514.43	30899.75
514.60	31412.33
514.77	31283.60
514.95	31428.71
515.12	31393.61
515.29	31456.80
515.47	31601.91
515.64	31873.42
515.81	31456.80
515.99	31789.16
516.16	31608.93
516.33	31833.63
516.51	32149.60
516.68	31611.28
516.85	31597.23
517.03	31496.59
517.20	31997.46
517.37	31817.24
517.54	32369.61
517.72	32484.30
517.89	32006.83
518.06	32170.66
518.24	32147.26
518.41	32074.70
518.58	32320.46
518.75	32439.82
518.93	32727.71
519.10	32631.75
519.27	32833.04
519.45	32711.33
519.62	33202.84
519.79	33137.30
519.96	33436.89
520.14	33411.15
520.31	33369.02
520.48	33326.89
520.65	33127.94
520.83	33809.04
521.00	33832.44
521.17	33757.55
521.34	33766.91
521.52	34272.46
521.69	34040.75
521.86	34103.95
522.03	34085.22
522.20	34040.75
522.38	34169.48
522.55	34370.77
522.72	34071.18
522.89	34038.41
523.07	34452.69
523.24	34345.02
523.41	34440.98
523.58	34380.13
523.75	35108.04
523.92	34539.29
524.10	34733.55
524.27	35117.40
524.44	35143.14
524.61	34920.79
524.78	35311.66
524.96	35026.12
525.13	35622.95
525.30	35473.16
525.47	35538.69
525.64	35501.25
525.81	35328.05
525.98	35400.60
526.16	35580.82
526.33	35206.34
526.50	35344.43
526.67	35831.26
526.84	35187.61
527.01	35424.01
527.18	35526.99
527.36	36095.74
527.53	36013.82
527.70	36306.39
527.87	36327.45
528.04	35842.96
528.21	36694.92
528.38	36088.72
528.55	36823.65
528.72	36699.60
528.89	36835.35
529.07	36542.78
529.24	36299.37
529.41	36428.10
529.58	36650.45
529.75	36814.29
529.92	36823.65
530.09	36720.66
530.26	36697.26
530.43	37024.93
530.60	36748.75
530.77	37277.71
530.94	37017.91
531.11	36987.49
531.28	37418.14
531.46	37191.11
531.63	37258.99
531.80	36903.23
531.97	37113.87
532.14	37074.09
532.31	37418.14
532.48	37930.72
532.65	37560.92
532.82	37783.27
532.99	37535.17
533.16	37422.83
533.33	37783.27
533.50	37972.85
533.67	37804.33
533.84	37666.24
534.01	38026.68
534.18	38209.25
534.35	38309.89
534.52	38010.30
534.69	37865.19
534.86	37977.53
535.03	37912.00
535.20	38410.53
535.37	38843.53
535.54	38541.60
535.71	38550.96
535.88	38473.73
536.05	38258.40
536.22	38848.21
536.38	38295.85
536.55	38506.49
536.72	38946.51
536.89	38426.92
537.06	38363.72
537.23	38724.16
537.40	38927.79
537.57	38780.34
537.74	38539.26
537.91	39131.42
538.08	39175.89
538.25	38775.66
538.42	39210.99
538.59	39227.38
538.75	38897.36
538.92	39262.49
539.09	39761.02
539.26	39765.70
539.43	39475.48
539.60	39519.95
539.77	39218.02
539.94	39342.06
540.11	39374.83
540.28	39445.05
540.44	39325.68
540.61	39496.54
540.78	39475.48
540.95	39590.16
541.12	39309.30
541.29	39082.27
541.46	39688.46
541.62	39501.22
541.79	39849.96
541.96	39398.24
542.13	39805.49
542.30	40313.39
542.47	39564.42
542.63	39786.77
542.80	40030.18
542.97	40360.20
543.14	40823.62
543.31	40549.78
543.48	40711.28
543.64	40634.04
543.81	41036.61
543.98	40474.88
544.15	40545.10
544.32	41022.57
544.48	41172.36
544.65	41083.42
544.82	40521.69
544.99	40662.13
545.16	40774.47
545.32	40877.46
545.49	41184.07
545.66	41722.39
545.83	41219.17
546.00	41373.65
546.16	41177.04
546.33	40526.38
546.50	40907.88
546.67	41462.59
546.83	40971.08
547.00	41090.44
547.17	41184.07
547.34	41511.74
547.50	41502.38
547.67	41635.79
547.84	41366.63
548.00	41909.63
548.17	41752.82
548.34	41053.00
548.51	41677.92
548.67	41914.31
548.84	41989.21
549.01	41841.76
549.18	41493.02
549.34	41586.64
549.51	41961.12
549.68	41596.00
549.84	42361.36
550.01	42033.68
550.18	41937.72
550.34	42366.04
550.51	41745.80
550.68	41911.97
550.84	41862.82
551.01	42326.25
551.18	41787.92
551.34	41759.84
551.51	42092.19
551.68	42043.04
551.84	42642.22
552.01	42143.69
552.18	42253.69
552.34	42103.90
552.51	42141.35
552.68	42581.37
552.84	42843.51
553.01	42845.85
553.18	42483.06
553.34	42047.72
553.51	42377.74
553.67	42637.54
553.84	42333.27
554.01	42904.36
554.17	42911.38
554.34	42976.92
554.51	42883.30
554.67	42541.58
554.84	42705.41
555.00	42462.00
555.17	43061.18
555.33	43173.52
555.50	42845.85
555.67	43154.80
555.83	42745.20
556.00	42735.84
556.16	43524.60
556.33	43491.83
556.50	42934.79
556.66	42937.13
556.83	42749.88
556.99	43143.09
557.16	43482.47
557.32	43342.04
557.49	43182.88
557.65	43220.33
557.82	42670.31
557.98	43056.50
558.15	43367.79
558.32	43498.86
558.48	43505.88
558.65	43452.05
558.81	43199.27
558.98	43480.13
559.14	43573.75
559.31	42972.24
559.47	43278.85
559.64	43735.25
559.80	43943.56
559.97	43723.55
560.13	43360.76
560.30	43463.75
560.46	43732.91
560.63	43517.58
560.79	43531.62
560.96	43709.50
561.12	43758.66
561.29	44247.83
561.45	43426.30
561.61	43583.12
561.78	43606.52
561.94	43440.34
562.11	43580.78
562.27	43768.02
562.44	43203.95
562.60	43962.28
562.77	44144.84
562.93	44247.83
563.10	44013.77
563.26	43295.23
563.42	44322.72
563.59	43782.06
563.75	43388.85
563.92	43826.53
564.08	43929.51
564.24	44418.69
564.41	44280.60
564.57	44313.36
564.74	44074.63
564.90	43957.60
565.07	44287.62
565.23	44247.83
565.39	44083.99
565.56	43966.96
565.72	43761.00
565.88	44231.44
566.05	44069.95
566.21	43835.89
566.38	43849.94
566.54	43679.08
566.70	44362.51
566.87	44304.00
567.03	44224.42
567.19	44470.18
567.36	44147.18
567.52	43863.98
567.68	44367.20
567.85	44210.38
568.01	44638.70
568.17	44395.28
568.34	44500.61
568.50	44350.81
568.66	44378.90
568.83	44369.54
568.99	44573.16
569.15	44238.47
569.32	43976.33
569.48	44044.20
569.64	44697.21
569.81	44697.21
569.97	44278.25
570.13	44165.91
570.30	43592.48
570.46	43810.15
570.62	44062.93
570.78	44226.76
570.95	44437.41
571.11	44414.01
571.27	44552.10
571.43	43765.68
571.60	44332.09
571.76	44767.43
571.92	44699.55
572.09	44409.32
572.25	44814.24
572.41	44388.26
572.57	44423.37
572.74	44800.19
572.90	44067.61
573.06	44830.62
573.22	44542.74
573.38	44509.97
573.55	44615.29
573.71	44528.69
573.87	44086.33
574.03	44083.99
574.20	44278.25
574.36	44495.92
574.52	44254.85
574.68	44376.56
574.84	44563.80
575.01	44421.03
575.17	44605.93
575.33	44882.11
575.49	44360.17
575.65	44500.61
575.82	44891.48
575.98	44591.89
576.14	45031.91
576.30	44842.32
576.46	44100.37
576.62	44524.01
576.79	44524.01
576.95	44477.20
577.11	44484.22
577.27	44292.30
577.43	44456.14
577.59	44779.13
577.75	44648.06
577.92	44428.05
578.08	44746.36
578.24	44524.01
578.40	44470.18
578.56	44479.54
578.72	44414.01
578.88	44751.04
579.04	44687.85
579.21	44526.35
579.37	44325.07
579.53	44463.16
579.69	44549.76
579.85	44493.58
580.01	44732.32
580.17	44966.37
580.33	44598.91
580.49	44737.00
580.65	44458.48
580.82	44802.53
580.98	44715.93
581.14	44446.77
581.30	44704.23
581.46	44769.77
581.62	45261.28
581.78	44460.82
581.94	44818.92
582.10	44418.69
582.26	44964.03
582.42	44793.17
582.58	44877.43
582.74	44971.05
582.90	45020.20
583.06	45177.02
583.22	44954.67
583.38	44744.02
583.54	45069.36
583.70	44566.14
583.86	44940.63
584.02	44463.16
584.18	44704.23
584.34	45228.51
584.50	45132.55
584.66	44847.00
584.82	44732.32
584.98	45144.25
585.14	44755.72
585.30	44790.83
585.46	44460.82
585.62	44463.16
585.78	44708.91
585.94	44444.43
586.10	44570.82
586.26	44879.77
586.42	44505.29
586.58	45017.86
586.74	44626.99
586.90	44966.37
587.06	44898.50
587.22	44823.60
587.38	44343.79
587.54	45280.00
587.70	44762.75
587.86	44999.14
588.02	45184.04
588.18	45109.14
588.34	44648.06
588.49	44493.58
588.65	44687.85
588.81	44322.72
588.97	44655.08
589.13	44591.89
589.29	44626.99
589.45	44987.44
589.61	44704.23
589.77	44985.10
589.93	45439.16
590.08	45074.04
590.24	45233.19
