SpectraSuite Data File
++++++++++++++++++++++++++++++++++++
Date: Fri Oct 25 11:34:01 EDT 2013
User: price-jones
Dark Spectrum Present: No
Reference Spectrum Present: No
Number of Sampled Component Spectra: 1
Spectrometers: USB2+H05261
Integration Time (usec): 100000 (USB2+H05261)
Spectra Averaged: 1 (USB2+H05261)
Boxcar Smoothing: 0 (USB2+H05261)
Correct for Electrical Dark: No (USB2+H05261)
Strobe/Lamp Enabled: No (USB2+H05261)
Correct for Detector Non-linearity: No (USB2+H05261)
Correct for Stray Light: No (USB2+H05261)
Number of Pixels in Processed Spectrum: 2048
>>>>>Begin Processed Spectral Data<<<<<
365.73	248.10
365.92	248.10
366.12	248.10
366.32	173.20
366.52	173.20
366.72	217.67
366.91	149.79
367.11	114.69
367.31	175.54
367.51	222.35
367.70	145.11
367.90	177.88
368.10	161.50
368.30	191.92
368.49	189.58
368.69	220.01
368.89	203.63
369.09	215.33
369.28	184.90
369.48	201.29
369.68	180.22
369.87	252.78
370.07	269.16
370.27	250.44
370.47	346.40
370.66	456.40
370.86	526.62
371.06	528.96
371.25	517.26
371.45	463.43
371.65	498.53
371.84	512.58
372.04	543.00
372.24	554.71
372.44	568.75
372.63	667.05
372.83	594.50
373.03	631.94
373.22	585.13
373.42	587.47
373.62	573.43
373.81	638.97
374.01	606.20
374.21	592.16
374.40	629.60
374.60	664.71
374.79	664.71
374.99	695.14
375.19	655.35
375.38	631.94
375.58	734.93
375.78	624.92
375.97	685.78
376.17	676.41
376.37	641.31
376.56	725.57
376.76	650.67
376.95	674.07
377.15	678.76
377.35	645.99
377.54	657.69
377.74	704.50
377.93	648.33
378.13	683.44
378.33	737.27
378.52	681.10
378.72	711.52
378.91	744.29
379.11	681.10
379.31	664.71
379.50	667.05
379.70	777.06
379.89	662.37
380.09	725.57
380.28	699.82
380.48	678.76
380.68	711.52
380.87	709.18
381.07	692.80
381.26	777.06
381.46	784.08
381.65	723.23
381.85	730.25
382.04	784.08
382.24	760.67
382.43	760.67
382.63	772.38
382.83	814.51
383.02	751.31
383.22	741.95
383.41	802.80
383.61	751.31
383.80	748.97
384.00	741.95
384.19	770.04
384.39	798.12
384.58	851.96
384.78	795.78
384.97	847.27
385.17	828.55
385.36	873.02
385.56	786.42
385.75	816.85
385.95	805.14
386.14	910.47
386.34	875.36
386.53	912.81
386.72	816.85
386.92	950.26
387.11	945.58
387.31	896.43
387.50	877.70
387.70	837.91
387.89	915.15
388.09	924.51
388.28	835.57
388.48	833.23
388.67	861.32
388.86	858.98
389.06	922.17
389.25	929.19
389.45	931.53
389.64	940.90
389.84	976.00
390.03	1006.43
390.22	1011.11
390.42	926.85
390.61	910.47
390.81	903.45
391.00	987.71
391.19	997.07
391.39	1022.81
391.58	1027.50
391.78	992.39
391.97	947.92
392.16	1018.13
392.36	1053.24
392.55	1001.75
392.75	997.07
392.94	1069.62
393.13	1177.29
393.33	1032.18
393.52	1093.03
393.71	1076.65
393.91	971.32
394.10	1076.65
394.29	1137.50
394.49	1015.79
394.68	1104.73
394.88	1156.22
395.07	1196.01
395.26	1151.54
395.46	1097.71
395.65	1139.84
395.84	1165.59
396.04	1184.31
396.23	1224.10
396.42	1181.97
396.62	1177.29
396.81	1221.76
397.00	1275.59
397.19	1088.35
397.39	1144.52
397.58	1242.82
397.77	1205.38
397.97	1228.78
398.16	1289.64
398.35	1238.14
398.55	1376.24
398.74	1270.91
398.93	1364.53
399.12	1200.69
399.32	1210.06
399.51	1315.38
399.70	1420.71
399.90	1205.38
400.09	1320.06
400.28	1401.98
400.47	1495.60
400.67	1441.77
400.86	1390.28
401.05	1399.64
401.24	1425.39
401.44	1423.05
401.63	1476.88
401.82	1458.15
402.01	1493.26
402.21	1420.71
402.40	1490.92
402.59	1488.58
402.78	1423.05
402.97	1563.48
403.17	1547.09
403.36	1488.58
403.55	1575.18
403.74	1619.65
403.93	1537.73
404.13	1699.23
404.32	1614.97
404.51	1584.54
404.70	1664.12
404.89	1544.75
405.09	1760.08
405.28	1701.57
405.47	1643.06
405.66	1666.46
405.85	1668.80
406.05	1708.59
406.24	1703.91
406.43	1741.36
406.62	1785.83
406.81	1837.32
407.00	1764.76
407.20	1732.00
407.39	1802.21
407.58	1816.26
407.77	1865.41
407.96	1797.53
408.15	1877.11
408.34	1837.32
408.54	1891.15
408.73	1907.54
408.92	1795.19
409.11	1977.75
409.30	1968.39
409.49	1982.43
409.68	1966.05
409.87	1853.70
410.07	1961.37
410.26	2062.01
410.45	2045.63
410.64	1956.69
410.83	2094.78
411.02	2108.82
411.21	2150.95
411.40	2136.91
411.59	2085.42
411.78	2132.23
411.98	2101.80
412.17	2190.74
412.36	2162.66
412.55	2286.70
412.74	2270.32
412.93	2403.73
413.12	2349.90
413.31	2476.29
413.50	2239.89
413.69	2413.09
413.88	2459.90
414.07	2368.62
414.26	2399.05
414.45	2462.24
414.64	2436.50
414.83	2487.99
415.02	2633.10
415.22	2745.45
415.41	2539.48
415.60	2644.81
415.79	2553.52
415.98	2708.00
416.17	2581.61
416.36	2780.56
416.55	2759.49
416.74	2715.02
416.93	2759.49
417.12	2768.85
417.31	2801.62
417.50	2787.58
417.69	2888.22
417.88	2803.96
418.07	2855.45
418.26	2888.22
418.45	3119.93
418.64	2984.18
418.83	2902.26
419.02	2965.46
419.21	3098.87
419.39	3098.87
419.58	3061.42
419.77	3042.70
419.96	3180.79
420.15	3122.27
420.34	3080.14
420.53	3159.72
420.72	3225.26
420.91	3098.87
421.10	3218.24
421.29	3318.88
421.48	3241.64
421.67	3382.07
421.86	3288.45
422.05	3204.19
422.24	3276.75
422.43	3473.36
422.61	3318.88
422.80	3393.78
422.99	3272.07
423.18	3342.28
423.37	3379.73
423.56	3361.01
423.75	3255.69
423.94	3281.43
424.13	3236.96
424.32	3302.50
424.50	3288.45
424.69	3452.29
424.88	3496.76
425.07	3463.99
425.26	3269.73
425.45	3337.60
425.64	3412.50
425.83	3295.47
426.01	3370.37
426.20	3419.52
426.39	3475.70
426.58	3368.03
426.77	3440.59
426.96	3494.42
427.15	3503.78
427.33	3529.53
427.52	3471.01
427.71	3665.28
427.90	3581.02
428.09	3672.30
428.28	3552.93
428.46	3700.39
428.65	3557.61
428.84	3847.84
429.03	3719.11
429.22	3606.77
429.40	3730.81
429.59	3784.65
429.78	3653.58
429.97	3531.87
430.16	3581.02
430.34	3819.75
430.53	3805.71
430.72	3894.65
430.91	3847.84
431.10	3878.27
431.28	3990.61
431.47	3957.85
431.66	3981.25
431.85	3976.57
432.03	3976.57
432.22	3889.97
432.41	4004.66
432.60	3990.61
432.79	3922.74
432.97	4030.40
433.16	4016.36
433.35	4009.34
433.54	4177.86
433.72	4121.68
433.91	4117.00
434.10	4236.37
434.28	4091.26
434.47	4119.34
434.66	4264.46
434.85	4187.22
435.03	4346.37
435.22	4280.84
435.41	4397.87
435.59	4341.69
435.78	4285.52
435.97	4418.93
436.16	4395.53
436.34	4301.90
436.53	4414.25
436.72	4367.44
436.90	4437.66
437.09	4592.13
437.28	4367.44
437.46	4400.21
437.65	4484.47
437.84	4493.83
438.02	4547.66
438.21	4601.49
438.40	4470.42
438.58	4678.73
438.77	4777.03
438.96	4575.75
439.14	4711.50
439.33	4737.24
439.52	4983.00
439.70	4898.74
439.89	4835.55
440.08	5104.71
440.26	4891.72
440.45	4861.29
440.63	4919.81
440.82	5085.98
441.01	4968.96
441.19	5200.67
441.38	5060.24
441.57	5177.26
441.75	5186.63
441.94	5322.38
442.12	5406.64
442.31	5521.32
442.50	5472.17
442.68	5291.95
442.87	5336.42
443.05	5397.28
443.24	5474.51
443.43	5420.68
443.61	5540.05
443.80	5631.33
443.98	5542.39
444.17	5476.85
444.35	5668.78
444.54	5692.18
444.73	5591.54
444.91	5584.52
445.10	5533.03
445.28	5502.60
445.47	5640.69
445.65	5563.45
445.84	5762.40
446.02	5699.20
446.21	5682.82
446.39	5785.80
446.58	5570.48
446.77	5605.58
446.95	5612.60
447.14	5619.63
447.32	5706.23
447.51	5783.46
447.69	5549.41
447.88	5743.67
448.06	5636.01
448.25	5607.92
448.43	5717.93
448.62	5856.02
448.80	5708.57
448.99	5884.11
449.17	5827.93
449.36	5753.04
449.54	5907.51
449.73	6036.24
449.91	5867.72
450.10	6015.18
450.28	6134.54
450.46	6139.23
450.65	6087.73
450.83	6015.18
451.02	6104.12
451.20	6099.44
451.39	6148.59
451.57	6057.31
451.76	5994.11
451.94	6066.67
452.13	6321.79
452.31	6190.72
452.49	6270.30
452.68	6263.27
452.86	6244.55
453.05	6174.33
453.23	6347.53
453.42	6263.27
453.60	6274.98
453.78	6298.38
453.97	6251.57
454.15	6377.96
454.34	6483.28
454.52	6272.64
454.70	6553.50
454.89	6366.26
455.07	6572.22
455.26	6586.27
455.44	6647.12
455.62	6731.38
455.81	6579.25
455.99	6740.74
456.17	6593.29
456.36	6771.17
456.54	6888.20
456.73	6796.92
456.91	6869.47
457.09	7040.33
457.28	6993.52
457.46	6883.52
457.64	6937.35
457.83	6862.45
458.01	6930.33
458.19	7119.91
458.38	6843.73
458.56	6953.73
458.74	7110.55
458.93	7215.87
459.11	6970.12
459.29	7272.04
459.48	6998.20
459.66	7265.02
459.84	7145.66
460.03	7405.46
460.21	7276.73
460.39	7255.66
460.57	7215.87
460.76	7438.22
460.94	7389.07
461.12	7417.16
461.31	7318.86
461.49	7143.32
461.67	7456.95
461.85	7506.10
462.04	7543.55
462.22	8067.83
462.40	7676.96
462.59	7627.81
462.77	7634.83
462.95	7770.58
463.13	7515.46
463.32	7702.70
463.50	7660.57
463.68	7707.38
463.86	7885.26
464.05	7852.50
464.23	7896.97
464.41	7803.35
464.59	7868.88
464.78	8152.09
464.96	7868.88
465.14	7882.92
465.32	7995.27
465.50	7833.77
465.69	8016.33
465.87	8091.23
466.05	8116.98
466.23	7953.14
466.41	8168.47
466.60	8446.99
466.78	7983.57
466.96	8072.51
467.14	8105.28
467.32	8170.81
467.51	8255.07
467.69	8091.23
467.87	8182.51
468.05	8336.99
468.23	8161.45
468.41	8222.30
468.60	8325.29
468.78	8322.94
468.96	8344.01
469.14	8393.16
469.32	8608.49
469.50	8418.91
469.69	8535.93
469.87	8674.03
470.05	8667.00
470.23	8620.19
470.41	8744.24
470.59	8777.01
470.77	8681.05
470.95	8727.86
471.14	8922.12
471.32	8791.05
471.50	9043.83
471.68	8982.98
471.86	8884.67
472.04	9062.55
472.22	9322.35
472.40	8933.82
472.58	9107.02
472.77	9352.78
472.95	9385.55
473.13	9430.02
473.31	9144.47
473.49	9511.94
473.67	9415.98
473.85	9411.29
474.03	9453.42
474.21	9516.62
474.39	9671.09
474.57	9565.77
474.75	9544.70
474.93	9886.42
475.12	9748.33
475.30	9973.02
475.48	9816.21
475.66	9921.53
475.84	9888.76
476.02	10087.71
476.20	10167.29
476.38	10237.50
476.56	10551.14
476.74	10263.25
476.92	10497.30
477.10	10209.42
477.28	10665.82
477.46	10551.14
477.64	10822.64
477.82	10733.70
478.00	11124.57
478.18	11019.24
478.36	11206.48
478.54	11187.76
478.72	11304.79
478.90	11480.33
479.08	11243.93
479.26	11503.73
479.44	11454.58
479.62	11747.15
479.80	11646.51
479.98	11866.52
480.16	12161.42
480.34	11925.03
480.52	12245.68
480.70	11929.71
480.88	11964.82
481.06	12278.45
481.24	12212.92
481.41	12255.04
481.59	12561.66
481.77	12542.93
481.95	12884.65
482.13	12950.18
482.31	12776.98
482.49	13305.95
482.67	13167.85
482.85	13177.22
483.03	13383.18
483.21	13551.70
483.39	13584.47
483.57	13577.45
483.74	14001.08
483.92	13942.57
484.10	13977.68
484.28	13968.32
484.46	14120.45
484.64	14448.13
484.82	14197.69
485.00	14647.07
485.18	14736.01
485.35	14951.34
485.53	14792.19
485.71	14864.74
485.89	15255.61
486.07	15178.37
486.25	15178.37
486.43	15374.98
486.61	15594.99
486.78	15896.92
486.96	15660.52
487.14	15985.86
487.32	16173.10
487.50	15971.82
487.68	16255.02
487.85	15992.88
488.03	16432.90
488.21	16783.98
488.39	16465.67
488.57	16954.84
488.75	16842.50
488.92	17132.72
489.10	17317.62
489.28	17406.56
489.46	17579.76
489.64	17579.76
489.81	17795.09
489.99	17862.97
490.17	17699.13
490.35	18157.88
490.53	18036.17
490.70	18515.98
490.88	18335.76
491.06	18579.17
491.24	18663.43
491.41	18916.21
491.59	18988.77
491.77	18860.04
491.95	19187.71
492.13	19176.01
492.30	19255.59
492.48	19396.02
492.66	19644.12
492.84	19442.83
493.01	20095.84
493.19	20098.18
493.37	19953.07
493.54	20231.59
493.72	20250.32
493.90	20416.49
494.08	20376.70
494.25	20538.20
494.43	20776.94
494.61	20723.10
494.79	20945.45
494.96	21085.89
495.14	21074.18
495.32	21481.44
495.49	21345.69
495.67	21186.53
495.85	21722.51
496.02	21769.32
496.20	22008.06
496.38	22300.62
496.55	22075.93
496.73	22263.18
496.91	22427.01
497.09	22581.49
497.26	22382.54
497.44	22625.96
497.62	22948.95
497.79	23288.33
497.97	22958.31
498.14	23447.49
498.32	23309.40
498.50	23658.14
498.67	23737.71
498.85	23398.34
499.03	24077.09
499.20	23779.84
499.38	23770.48
499.56	24280.72
499.73	24173.05
499.91	24105.18
500.08	24526.47
500.26	24102.84
500.44	24599.03
500.61	24737.12
500.79	24280.72
500.97	24769.89
501.14	25064.80
501.32	24917.34
501.49	24718.40
501.67	25027.35
501.84	25343.32
502.02	25069.48
502.20	25624.18
502.37	25095.22
502.55	25296.51
502.72	25706.10
502.90	25706.10
503.07	25895.69
503.25	25626.53
503.43	25680.36
503.60	25865.26
503.78	26235.06
503.95	26092.29
504.13	26295.92
504.30	26281.88
504.48	26387.20
504.65	26668.06
504.83	26689.13
505.01	26703.17
505.18	26895.10
505.36	26878.71
505.53	26724.24
505.71	27115.11
505.88	26993.40
506.06	27061.27
506.23	27208.73
506.41	27182.98
506.58	27040.21
506.76	27747.05
506.93	27281.28
507.11	27784.50
507.28	27948.34
507.46	27847.69
507.63	28041.96
507.81	28077.07
507.98	27728.33
508.16	27929.61
508.33	28591.98
508.50	28414.10
508.68	28208.14
508.85	28428.15
509.03	28376.66
509.20	28664.54
509.38	28613.05
509.55	28891.57
509.73	28748.80
509.90	28940.72
510.08	29144.35
510.25	28889.23
510.42	29362.02
510.60	29376.06
510.77	29460.32
510.95	29476.71
511.12	29638.20
511.30	29549.26
511.47	29776.30
511.64	29479.05
511.82	30024.39
511.99	29689.70
512.17	29998.65
512.34	30127.38
512.51	30272.49
512.69	30199.93
512.86	30426.96
513.04	30632.93
513.21	29956.52
513.38	30588.46
513.56	30707.83
513.73	30609.53
513.90	31101.04
514.08	30892.73
514.25	31051.89
514.43	30953.58
514.60	31297.64
514.77	30859.96
514.95	31435.74
515.12	31391.26
515.29	31154.87
515.47	31557.44
515.64	31363.18
515.81	31302.32
515.99	31709.58
516.16	32041.93
516.33	31571.49
516.51	31920.23
516.68	31718.94
516.85	32224.50
517.03	32238.54
517.20	31889.80
517.37	32645.79
517.54	32606.00
517.72	32584.94
517.89	32493.66
518.06	32746.44
518.24	33081.13
518.41	32474.93
518.58	33001.55
518.75	32606.00
518.93	32973.47
519.10	32828.35
519.27	33017.94
519.45	33076.45
519.62	33067.09
519.79	33095.18
519.96	33188.80
520.14	33254.33
520.31	33156.03
520.48	33371.36
520.65	33710.74
520.83	34019.69
521.00	34122.67
521.17	34272.46
521.34	33935.43
521.52	33839.47
521.69	34335.66
521.86	34260.76
522.03	34153.10
522.20	34572.05
522.38	34660.99
522.55	34532.26
522.72	34866.96
522.89	34684.40
523.07	34738.23
523.24	34960.58
523.41	34925.47
523.58	34717.17
523.75	35400.60
523.92	34616.52
524.10	35028.46
524.27	35253.15
524.44	34759.30
524.61	35363.15
524.78	35482.52
524.96	35339.75
525.13	35416.99
525.30	35754.02
525.47	35409.96
525.64	35721.26
525.81	36268.94
525.98	36079.36
526.16	35885.09
526.33	35765.73
526.50	36011.48
526.67	35772.75
526.84	36313.41
527.01	36147.23
527.18	36065.31
527.36	35957.65
527.53	35992.76
527.70	36697.26
527.87	36570.87
528.04	36685.56
528.21	36767.48
528.38	36549.81
528.55	36535.76
528.72	36804.92
528.89	36444.48
529.07	36797.90
529.24	36423.42
529.41	36797.90
529.58	37209.84
529.75	36603.64
529.92	37062.38
530.09	37385.38
530.26	37170.05
530.43	36975.78
530.60	37076.43
530.77	36989.83
530.94	37280.05
531.11	37261.33
531.28	37471.98
531.46	37867.53
531.63	37553.90
531.80	37219.20
531.97	37724.75
532.14	37944.76
532.31	37813.70
532.48	37961.15
532.65	37687.31
532.82	38031.36
532.99	38256.06
533.16	38029.02
533.33	37989.24
533.50	38178.82
533.67	38333.29
533.84	38082.86
534.01	38209.25
534.18	38349.68
534.35	38787.36
534.52	38609.48
534.69	38499.47
534.86	38628.20
535.03	38410.53
535.20	39047.16
535.37	39108.01
535.54	38939.49
535.71	38937.15
535.88	39157.16
536.05	38862.26
536.22	39402.92
536.38	38710.12
536.55	39007.37
536.72	39697.83
536.89	39058.86
537.06	39166.52
537.23	39173.55
537.40	39093.97
537.57	38876.30
537.74	39260.15
537.91	39634.63
538.08	39545.69
538.25	39140.78
538.42	39365.47
538.59	39679.10
538.75	39636.97
538.92	40062.95
539.09	40219.77
539.26	39920.18
539.43	39798.47
539.60	40308.71
539.77	39981.03
539.94	39777.40
540.11	40105.08
540.28	40362.54
540.44	40041.88
540.61	40257.21
540.78	40257.21
540.95	40388.28
541.12	39903.79
541.29	40318.07
541.46	40442.12
541.62	40552.12
541.79	41088.10
541.96	40299.34
542.13	40514.67
542.30	40526.38
542.47	40950.01
542.63	40854.05
542.80	41277.69
542.97	41352.58
543.14	41186.41
543.31	41099.81
543.48	41043.63
543.64	41741.11
543.81	41347.90
543.98	41436.84
544.15	41179.39
544.32	41481.31
544.48	41872.18
544.65	41399.40
544.82	41942.40
544.99	41612.38
545.16	41483.66
545.32	41418.12
545.49	41989.21
545.66	42314.55
545.83	41869.84
546.00	42583.71
546.16	41900.27
546.33	41862.82
546.50	41904.95
546.67	42405.83
546.83	41797.29
547.00	41741.11
547.17	41841.76
547.34	42293.48
547.50	42768.61
547.67	42635.20
547.84	42291.14
548.00	42445.62
548.17	42497.11
548.34	42443.27
548.51	42787.33
548.67	42522.85
548.84	42873.93
549.01	42721.80
549.18	42803.72
549.34	42529.87
549.51	42988.62
549.68	42784.99
549.84	42370.72
550.01	43068.20
550.18	42789.67
550.34	43227.35
550.51	43360.76
550.68	43555.03
550.84	42796.70
551.01	43091.60
551.18	43007.34
551.34	43105.65
551.51	43107.99
551.68	43194.59
551.84	43316.29
552.01	43009.68
552.18	43217.99
552.34	43082.24
552.51	43452.05
552.68	43379.49
552.84	43419.28
553.01	43732.91
553.18	43510.56
553.34	43906.11
553.51	43615.88
553.67	43454.39
553.84	43550.35
554.01	43826.53
554.17	43536.30
554.34	43620.56
554.51	43838.23
554.67	43920.15
554.84	44334.43
555.00	43985.69
555.17	44112.08
555.33	44172.93
555.50	43915.47
555.67	43859.30
555.83	43742.27
556.00	44135.48
556.16	44797.85
556.33	44261.87
556.50	44114.42
556.66	44559.12
556.83	44421.03
556.99	44783.81
557.16	44594.23
557.32	44708.91
557.49	44549.76
557.65	44023.14
557.82	44519.33
557.98	44203.36
558.15	44516.99
558.32	44554.44
558.48	44296.98
558.65	44601.25
558.81	44395.28
558.98	44725.30
559.14	44701.89
559.31	44587.21
559.47	44575.50
559.64	45116.17
559.80	44898.50
559.97	44863.39
560.13	44751.04
560.30	44584.86
560.46	44884.45
560.63	44949.99
560.79	45191.06
560.96	45146.59
561.12	45186.38
561.29	44818.92
561.45	45151.27
561.61	44516.99
561.78	44825.94
561.94	44304.00
562.11	44928.92
562.27	44964.03
562.44	45069.36
562.60	45064.67
562.77	45375.97
562.93	44985.10
563.10	45418.10
563.26	44877.43
563.42	45429.80
563.59	45158.30
563.75	45544.48
563.92	45352.56
564.08	45244.90
564.24	45530.44
564.41	45392.35
564.57	45645.13
564.74	45207.45
564.90	45399.37
565.07	45605.34
565.23	45455.54
565.39	45488.31
565.56	45647.47
565.72	45450.86
565.88	45242.56
566.05	45776.20
566.21	45661.51
566.38	45717.68
566.54	45322.13
566.70	45925.99
566.87	45933.01
567.03	45834.71
567.19	45890.88
567.36	45970.46
567.52	45687.26
567.68	45713.00
567.85	45900.25
568.01	46040.68
568.17	45329.16
568.34	45801.94
568.50	45705.98
568.66	45668.53
568.83	45914.29
568.99	45815.99
569.15	45823.01
569.32	45705.98
569.48	45853.44
569.64	46071.10
569.81	46038.34
569.97	46052.38
570.13	46614.11
570.30	46150.68
570.46	46230.26
570.62	45916.63
570.78	46227.92
570.95	46190.47
571.11	46089.83
571.27	45457.88
571.43	46326.22
571.60	46021.95
571.76	45815.99
571.92	46043.02
572.09	46366.01
572.25	46026.63
572.41	45933.01
572.57	46054.72
572.74	46092.17
572.90	46202.18
573.06	46199.83
573.22	46153.02
573.38	46628.15
573.55	46394.10
573.71	46649.22
573.87	46670.28
574.03	46424.53
574.20	46576.66
574.36	46010.25
574.52	46204.52
574.68	46302.82
574.84	46672.62
575.01	46492.40
575.17	46405.80
575.33	46410.48
575.49	45940.04
575.65	46745.18
575.82	46419.84
575.98	46471.34
576.14	47012.00
576.30	46340.27
576.46	46366.01
576.62	46534.53
576.79	46192.81
576.95	45808.96
577.11	46007.91
577.27	46101.53
577.43	46394.10
577.59	46291.12
577.75	46424.53
577.92	46017.27
578.08	46223.24
578.24	46667.94
578.40	46536.87
578.56	46635.17
578.72	46291.12
578.88	46602.41
579.04	46752.20
579.21	46305.16
579.37	46356.65
579.53	46754.54
579.69	46363.67
579.85	46691.35
580.01	46555.60
580.17	46581.34
580.33	46930.08
580.49	46511.13
580.65	46529.85
580.82	46574.32
580.98	46548.57
581.14	46082.81
581.30	46714.75
581.46	46707.73
581.62	46593.04
581.78	46340.27
581.94	46522.83
582.10	46288.77
582.26	46813.05
582.42	46663.26
582.58	46660.92
582.74	46590.70
582.90	46288.77
583.06	46972.21
583.22	46244.30
583.38	46925.40
583.54	47047.11
583.70	46873.91
583.86	46955.83
584.02	46571.98
584.18	46932.42
584.34	46923.06
584.50	46955.83
584.66	46932.42
584.82	46810.71
584.98	46981.57
585.14	46735.82
585.30	46590.70
585.46	46855.18
585.62	46745.18
585.78	46831.78
585.94	46492.40
586.10	46436.23
586.26	46546.23
586.42	46923.06
586.58	47021.36
586.74	47063.49
586.90	46614.11
587.06	46806.03
587.22	47103.28
587.38	46031.32
587.54	46616.45
587.70	47143.07
587.86	46698.37
588.02	46548.57
588.18	46440.91
588.34	46571.98
588.49	46791.99
588.65	46656.24
588.81	46548.57
588.97	46777.95
589.13	46583.68
589.29	46972.21
589.45	46974.55
589.61	46902.00
589.77	47140.73
589.93	46766.24
590.08	47519.90
