SpectraSuite Data File
++++++++++++++++++++++++++++++++++++
Date: Fri Oct 25 11:23:34 EDT 2013
User: price-jones
Dark Spectrum Present: No
Reference Spectrum Present: No
Number of Sampled Component Spectra: 1
Spectrometers: USB2+H05261
Integration Time (usec): 100000 (USB2+H05261)
Spectra Averaged: 1 (USB2+H05261)
Boxcar Smoothing: 0 (USB2+H05261)
Correct for Electrical Dark: No (USB2+H05261)
Strobe/Lamp Enabled: No (USB2+H05261)
Correct for Detector Non-linearity: No (USB2+H05261)
Correct for Stray Light: No (USB2+H05261)
Number of Pixels in Processed Spectrum: 2048
>>>>>Begin Processed Spectral Data<<<<<
365.73	255.12
365.92	255.12
366.12	255.12
366.32	152.13
366.52	135.75
366.72	93.62
366.91	65.54
367.11	124.05
367.31	110.01
367.51	152.13
367.70	124.05
367.90	166.18
368.10	142.77
368.30	135.75
368.49	121.71
368.69	177.88
368.89	145.11
369.09	175.54
369.28	187.24
369.48	198.95
369.68	198.95
369.87	198.95
370.07	173.20
370.27	210.65
370.47	283.20
370.66	613.22
370.86	692.80
371.06	601.52
371.25	671.73
371.45	678.76
371.65	676.41
371.84	683.44
372.04	631.94
372.24	704.50
372.44	709.18
372.63	751.31
372.83	727.91
373.03	713.86
373.22	748.97
373.42	823.87
373.62	866.00
373.81	847.27
374.01	851.96
374.21	748.97
374.40	830.89
374.60	849.61
374.79	880.04
374.99	826.21
375.19	821.53
375.38	898.77
375.58	842.59
375.78	877.70
375.97	887.06
376.17	940.90
376.37	884.72
376.56	936.21
376.76	858.98
376.95	866.00
377.15	908.13
377.35	950.26
377.54	919.83
377.74	931.53
377.93	915.15
378.13	915.15
378.33	931.53
378.52	971.32
378.72	903.45
378.91	880.04
379.11	945.58
379.31	926.85
379.50	950.26
379.70	968.98
379.89	990.05
380.09	1029.84
380.28	954.94
380.48	901.11
380.68	1008.77
380.87	1032.18
381.07	1125.80
381.26	1060.26
381.46	980.68
381.65	1001.75
381.85	961.96
382.04	1090.69
382.24	1036.86
382.43	1034.52
382.63	1095.37
382.83	1071.97
383.02	1149.20
383.22	990.05
383.41	1053.24
383.61	1090.69
383.80	1210.06
384.00	1132.82
384.19	1086.01
384.39	1151.54
384.58	1165.59
384.78	1104.73
384.97	1139.84
385.17	1151.54
385.36	1111.75
385.56	1179.63
385.75	1158.57
385.95	1205.38
386.14	1184.31
386.34	1224.10
386.53	1317.72
386.72	1139.84
386.92	1198.35
387.11	1296.66
387.31	1231.12
387.50	1233.46
387.70	1186.65
387.89	1214.74
388.09	1277.93
388.28	1247.51
388.48	1212.40
388.67	1277.93
388.86	1380.92
389.06	1327.08
389.25	1338.79
389.45	1385.60
389.64	1462.83
389.84	1352.83
390.03	1413.68
390.22	1364.53
390.42	1430.07
390.61	1401.98
390.81	1401.98
391.00	1500.28
391.19	1409.00
391.39	1479.22
391.58	1437.09
391.78	1507.30
391.97	1472.20
392.16	1462.83
392.36	1486.24
392.55	1572.84
392.75	1586.88
392.94	1540.07
393.13	1511.99
393.33	1504.96
393.52	1701.57
393.71	1547.09
393.91	1652.42
394.10	1584.54
394.29	1689.87
394.49	1624.33
394.68	1610.29
394.88	1645.40
395.07	1572.84
395.26	1675.82
395.46	1732.00
395.65	1621.99
395.84	1612.63
396.04	1753.06
396.23	1818.60
396.42	1694.55
396.62	1832.64
396.81	1732.00
397.00	1771.79
397.19	1823.28
397.39	1776.47
397.58	1797.53
397.77	1783.49
397.97	1921.58
398.16	1902.86
398.35	1884.13
398.55	1963.71
398.74	1900.52
398.93	1998.82
399.12	1947.33
399.32	1898.17
399.51	1930.94
399.70	1984.77
399.90	1944.99
400.09	1898.17
400.28	2066.69
400.47	1921.58
400.67	2092.44
400.86	2064.35
401.05	2054.99
401.24	2033.93
401.44	2019.88
401.63	2193.08
401.82	1998.82
402.01	2120.53
402.21	2221.17
402.40	2169.68
402.59	2211.81
402.78	2377.98
402.97	2242.23
403.17	2146.27
403.36	2317.13
403.55	2333.51
403.74	2422.45
403.93	2338.20
404.13	2335.85
404.32	2389.69
404.51	2380.32
404.70	2389.69
404.89	2345.22
405.09	2406.07
405.28	2452.88
405.47	2548.84
405.66	2490.33
405.85	2523.10
406.05	2593.31
406.24	2518.42
406.43	2616.72
406.62	2689.28
406.81	2705.66
407.00	2684.59
407.20	2588.63
407.39	2600.34
407.58	2642.46
407.77	2677.57
407.96	2663.53
408.15	2637.78
408.34	2668.21
408.54	2792.26
408.73	2829.71
408.92	2906.95
409.11	2878.86
409.30	2803.96
409.49	2904.60
409.68	2862.48
409.87	2920.99
410.07	3059.08
410.26	2995.89
410.45	3026.31
410.64	2839.07
410.83	3012.27
411.02	3054.40
411.21	3197.17
411.40	3112.91
411.59	3309.52
411.78	3211.22
411.98	3190.15
412.17	3243.98
412.36	3218.24
412.55	3208.87
412.74	3335.26
412.93	3393.78
413.12	3496.76
413.31	3583.36
413.50	3478.04
413.69	3482.72
413.88	3618.47
414.07	3686.34
414.26	3705.07
414.45	3630.17
414.64	3730.81
414.83	3740.18
415.02	3747.20
415.22	3925.08
415.41	3976.57
415.60	3782.31
415.79	3911.04
415.98	3906.35
416.17	3971.89
416.36	3997.64
416.55	4109.98
416.74	4117.00
416.93	4065.51
417.12	4152.11
417.31	4194.24
417.50	4266.80
417.69	4283.18
417.88	4365.10
418.07	4311.27
418.26	4400.21
418.45	4135.73
418.64	4486.81
418.83	4367.44
419.02	4496.17
419.21	4491.49
419.39	4463.40
419.58	4610.86
419.77	4470.42
419.96	4582.77
420.15	4683.41
420.34	4587.45
420.53	4758.31
420.72	4641.28
420.91	4779.37
421.10	4746.61
421.29	4821.50
421.48	4699.80
421.67	4695.11
421.86	4891.72
422.05	4915.12
422.24	4765.33
422.43	4732.56
422.61	4781.71
422.80	4837.89
422.99	4931.51
423.18	4983.00
423.37	5034.49
423.56	5135.14
423.75	4887.04
423.94	4931.51
424.13	4697.46
424.32	4819.16
424.50	4987.68
424.69	5195.99
424.88	5167.90
425.07	5013.43
425.26	5032.15
425.45	5186.63
425.64	5018.11
425.83	4936.19
426.01	5261.52
426.20	5090.67
426.39	5165.56
426.58	5151.52
426.77	5109.39
426.96	5266.21
427.15	5291.95
427.33	5284.93
427.52	5104.71
427.71	5238.12
427.90	5268.55
428.09	5181.95
428.28	5378.55
428.46	5298.97
428.65	5397.28
428.84	5586.86
429.03	5680.48
429.22	5275.57
429.40	5432.38
429.59	5479.19
429.78	5359.83
429.97	5242.80
430.16	5631.33
430.34	5659.42
430.53	5514.30
430.72	5832.62
430.91	5598.56
431.10	5584.52
431.28	5734.31
431.47	5846.66
431.66	5947.30
431.85	5837.30
432.03	6052.63
432.22	6104.12
432.41	5923.90
432.60	5886.45
432.79	5949.64
432.97	6083.05
433.16	5984.75
433.35	6120.50
433.54	6047.94
433.72	6094.76
433.91	6104.12
434.10	6162.63
434.28	5930.92
434.47	6083.05
434.66	6200.08
434.85	6380.30
435.03	6448.18
435.22	6284.34
435.41	6562.86
435.59	6349.87
435.78	6581.59
435.97	6452.86
436.16	6619.04
436.34	6487.96
436.53	6565.20
436.72	6745.42
436.90	6356.90
437.09	6576.91
437.28	6443.49
437.46	6553.50
437.65	6810.96
437.84	6890.54
438.02	6700.95
438.21	6801.60
438.40	6768.83
438.58	6984.16
438.77	6822.66
438.96	7052.03
439.14	7033.31
439.33	7279.07
439.52	7103.53
439.70	7173.74
439.89	7506.10
440.08	7438.22
440.26	7421.84
440.45	7377.37
440.63	7557.59
440.82	7623.12
441.01	7581.00
441.19	7698.02
441.38	7693.34
441.57	7903.99
441.75	7763.56
441.94	7974.21
442.12	8018.68
442.31	8107.62
442.50	7939.10
442.68	8070.17
442.87	8116.98
443.05	8161.45
443.24	8187.19
443.43	8231.66
443.61	8255.07
443.80	8578.06
443.98	8063.15
444.17	7878.24
444.35	8283.16
444.54	8454.02
444.73	8266.77
444.91	8278.47
445.10	8358.05
445.28	8243.37
445.47	8355.71
445.65	8496.14
445.84	8421.25
446.02	8489.12
446.21	8627.21
446.39	8493.80
446.58	8236.35
446.77	8564.02
446.95	8208.26
447.14	8549.98
447.32	8601.47
447.51	8601.47
447.69	8585.08
447.88	8430.61
448.06	8613.17
448.25	8489.12
448.43	8514.87
448.62	8741.90
448.80	8624.87
448.99	8631.90
449.17	8784.03
449.36	8746.58
449.54	8870.63
449.73	9116.39
449.91	9104.68
450.10	9102.34
450.28	8877.65
450.46	8889.35
450.65	8954.89
450.83	8959.57
451.02	9156.18
451.20	9043.83
451.39	9261.50
451.57	9249.80
451.76	9268.52
451.94	9212.35
452.13	9535.34
452.31	9582.15
452.49	9181.92
452.68	9301.29
452.86	9364.48
453.05	9633.64
453.23	9348.10
453.42	9647.69
453.60	9481.51
453.78	9460.45
453.97	9483.85
454.15	9540.02
454.34	9678.12
454.52	9764.72
454.70	9582.15
454.89	9858.34
455.07	9795.14
455.26	9762.37
455.44	9846.63
455.62	9902.81
455.81	9977.70
455.99	10054.94
456.17	10218.78
456.36	10111.11
456.54	10209.42
456.73	10286.65
456.91	10326.44
457.09	10403.68
457.28	10527.73
457.46	10324.10
457.64	10696.25
457.83	10544.11
458.01	10218.78
458.19	10642.42
458.38	10731.36
458.56	10853.06
458.74	10846.04
458.93	10743.06
459.11	10761.78
459.29	10729.02
459.48	10729.02
459.66	11023.92
459.84	10963.07
460.03	10981.79
460.21	10848.38
460.39	11131.59
460.57	11162.01
460.76	11110.52
460.94	11213.51
461.12	11330.53
461.31	11124.57
461.49	11260.32
461.67	11075.42
461.85	11328.19
462.04	11414.79
462.22	11662.89
462.40	11637.14
462.59	11243.93
462.77	11716.72
462.95	11653.53
463.13	11492.03
463.32	11515.44
463.50	11840.77
463.68	11967.16
463.86	11758.85
464.05	11611.40
464.23	11880.56
464.41	11803.32
464.59	11789.28
464.78	12358.03
464.96	11899.28
465.14	11817.36
465.32	12084.19
465.50	12271.43
465.69	12304.20
465.87	12432.93
466.05	12205.89
466.23	12217.60
466.41	12470.37
466.60	12533.57
466.78	12332.28
466.96	12311.22
467.14	12095.89
467.32	12439.95
467.51	12657.62
467.69	12212.92
467.87	12482.08
468.05	12699.75
468.23	12374.41
468.41	12418.88
468.60	12631.87
468.78	12807.41
468.96	12606.13
469.14	12861.24
469.32	12802.73
469.50	12697.41
469.69	13282.54
469.87	13385.52
470.05	13076.57
470.23	13289.56
470.41	12999.34
470.59	13130.41
470.77	13345.73
470.95	13263.82
471.14	13439.36
471.32	13259.13
471.50	13678.09
471.68	13518.93
471.86	13811.50
472.04	13949.59
472.22	14157.90
472.40	13788.10
472.58	13956.61
472.77	14024.49
472.95	14134.50
473.13	14562.81
473.31	14118.11
473.49	14104.07
473.67	14167.26
473.85	14548.77
474.03	14904.53
474.21	14417.70
474.39	14902.19
474.57	14848.36
474.75	14890.49
474.93	15283.70
475.12	15044.96
475.30	15316.47
475.48	15208.80
475.66	15382.00
475.84	15133.90
476.02	15510.73
476.20	15562.22
476.38	15845.43
476.56	16137.99
476.74	16051.39
476.92	15896.92
477.10	15866.49
477.28	16519.50
477.46	16107.57
477.64	16594.40
477.82	16496.10
478.00	16952.50
478.18	16816.75
478.36	16903.35
478.54	17364.43
478.72	17261.45
478.90	17685.09
479.08	17584.44
479.26	17682.75
479.44	17694.45
479.62	17820.84
479.80	18015.10
479.98	18466.83
480.16	18871.74
480.34	18445.76
480.52	18771.10
480.70	18761.73
480.88	18328.74
481.06	18993.45
481.24	18920.89
481.41	19365.59
481.59	19150.26
481.77	19297.72
481.95	19585.60
482.13	19447.51
482.31	19482.62
482.49	20500.75
482.67	20325.21
482.85	20531.18
483.03	20563.95
483.21	20910.35
483.39	21074.18
483.57	21050.78
483.74	21289.51
483.92	21511.86
484.10	21277.81
484.28	21649.96
484.46	22169.55
484.64	22279.56
484.82	22293.60
485.00	22082.95
485.18	23042.57
485.35	22995.76
485.53	22885.76
485.71	23061.30
485.89	23608.98
486.07	23508.34
486.25	23599.62
486.43	24044.32
486.61	24084.11
486.78	24376.68
486.96	24559.24
487.14	24755.85
487.32	24781.59
487.50	24973.52
487.68	24847.13
487.85	25303.53
488.03	25441.62
488.21	26129.74
488.39	26148.46
488.57	25926.11
488.75	26452.73
488.92	26607.21
489.10	26864.67
489.28	26969.99
489.46	27145.53
489.64	26932.54
489.81	27718.96
489.99	27969.40
490.17	28123.88
490.35	28294.74
490.53	28318.14
490.70	28765.18
490.88	28339.21
491.06	29195.84
491.24	28987.53
491.41	29390.11
491.59	29472.03
491.77	29572.67
491.95	29479.05
492.13	30075.88
492.30	30511.22
492.48	30190.57
492.66	30113.33
492.84	30899.75
493.01	30661.02
493.19	31026.14
493.37	31079.97
493.54	31182.96
493.72	31730.64
493.90	31866.39
494.08	31782.13
494.25	32292.37
494.43	31604.25
494.61	32442.17
494.79	32526.42
494.96	32837.72
495.14	33064.75
495.32	32989.85
495.49	33560.94
495.67	33202.84
495.85	33516.47
496.02	33649.88
496.20	34096.92
496.38	34543.97
496.55	34043.09
496.73	35082.29
496.91	34904.41
497.09	34761.64
497.26	34979.31
497.44	34525.24
497.62	35374.86
497.79	36172.98
497.97	35381.88
498.14	36098.08
498.32	36432.78
498.50	36093.40
498.67	36985.15
498.85	36638.75
499.03	36732.37
499.20	36680.88
499.38	37031.96
499.56	37413.46
499.73	37397.08
499.91	37359.63
500.08	38075.84
500.26	37556.24
500.44	37914.34
500.61	37888.59
500.79	38148.39
500.97	38335.63
501.14	38934.81
501.32	38703.10
501.49	38705.44
501.67	39030.77
501.84	39035.45
502.02	38909.07
502.20	39061.20
502.37	39915.50
502.55	39466.11
502.72	39679.10
502.90	40044.23
503.07	39423.98
503.25	39812.51
503.43	40194.02
503.60	40423.39
503.78	40587.23
503.95	40671.49
504.13	40687.87
504.30	41071.72
504.48	40456.16
504.65	40891.50
504.83	41270.67
505.01	40971.08
505.18	41493.02
505.36	41624.09
505.53	41230.88
505.71	41841.76
505.88	42012.62
506.06	41806.65
506.23	42691.37
506.41	42017.30
506.58	41968.15
506.76	42602.43
506.93	42689.03
507.11	42529.87
507.28	42864.57
507.46	42920.74
507.63	43318.64
507.81	43335.02
507.98	42979.26
508.16	43042.45
508.33	43978.67
508.50	43676.74
508.68	44177.61
508.85	44383.58
509.03	44294.64
509.20	44406.98
509.38	44903.18
509.55	44631.68
509.73	44081.65
509.90	44844.66
510.08	44949.99
510.25	44877.43
510.42	45179.36
510.60	45287.03
510.77	45380.65
510.95	45408.73
511.12	45460.23
511.30	45361.92
511.47	45902.59
511.64	45799.60
511.82	46347.29
511.99	46103.87
512.17	45949.40
512.34	46176.43
512.51	46506.44
512.69	46918.38
512.86	46658.58
513.04	46684.33
513.21	46422.19
513.38	46829.44
513.56	47330.31
513.73	47189.88
513.90	47393.51
514.08	46916.04
514.25	47529.26
514.43	47686.07
514.60	47503.51
514.77	47545.64
514.95	48142.48
515.12	47704.80
515.29	47756.29
515.47	47903.74
515.64	48240.78
515.81	48268.87
515.99	48266.53
516.16	48664.42
516.33	48547.39
516.51	48844.64
516.68	48626.97
516.85	48917.20
517.03	49233.17
517.20	49090.40
517.37	48973.37
517.54	49064.65
517.72	49045.93
517.89	49631.06
518.06	49504.67
518.24	49350.20
518.41	49408.71
518.58	49614.68
518.75	49558.50
518.93	49937.67
519.10	49404.03
519.27	50284.07
519.45	49668.51
519.62	50223.22
519.79	50365.99
519.96	50349.60
520.14	50099.17
520.31	50258.32
520.48	50557.91
520.65	50375.35
520.83	50794.31
521.00	50712.39
521.17	50513.44
521.34	50815.37
521.52	51035.38
521.69	51173.47
521.86	51393.48
522.03	51381.78
522.20	51653.28
522.38	51683.71
522.55	51632.22
522.72	51409.87
522.89	51770.31
523.07	51906.06
523.24	51608.81
523.41	51863.93
523.58	51428.59
523.75	52151.82
523.92	51758.61
524.10	51849.89
524.27	51987.98
524.44	52081.60
524.61	52378.85
524.78	52034.79
524.96	52172.88
525.13	52652.69
525.30	52645.67
525.47	52643.33
525.64	52802.49
525.81	52776.74
525.98	52640.99
526.16	52861.00
526.33	52952.28
526.50	53104.41
526.67	52912.49
526.84	53081.01
527.01	52865.68
527.18	53155.91
527.36	53226.12
527.53	53151.23
527.70	53546.78
527.87	53609.97
528.04	53499.97
528.21	53939.99
528.38	53645.08
528.55	53792.53
528.72	53708.27
528.89	53668.48
529.07	53446.13
529.24	53595.93
529.41	53647.42
529.58	53539.75
529.75	53907.22
529.92	53724.66
530.09	54045.31
530.26	53958.71
530.43	54358.94
530.60	53939.99
530.77	54080.42
530.94	54019.56
531.11	54103.82
531.28	54464.27
531.46	54564.91
531.63	54262.98
531.80	54396.39
531.97	54555.55
532.14	54457.24
532.31	54567.25
532.48	54695.98
532.65	54710.02
532.82	54724.07
532.99	54422.14
533.16	54789.60
533.33	55147.70
533.50	55107.91
533.67	54892.58
533.84	54712.36
534.01	54918.33
534.18	55178.13
534.35	55309.20
534.52	55430.91
534.69	55440.27
534.86	55187.49
535.03	55353.67
535.20	55470.70
535.37	55405.16
535.54	55414.52
535.71	55421.55
535.88	55580.70
536.05	55585.38
536.22	55772.63
536.38	55943.48
536.55	55873.27
536.72	55833.48
536.89	55739.86
537.06	55789.01
537.23	55847.52
537.40	55859.23
537.57	55707.09
537.74	56048.81
537.91	56250.09
538.08	56086.26
538.25	56046.47
538.42	56224.35
538.59	56449.04
538.75	55952.85
538.92	56137.75
539.09	56367.12
539.26	56355.42
539.43	56247.75
539.60	56453.72
539.77	56147.11
539.94	56580.11
540.11	56413.93
540.28	56528.62
540.44	56591.81
540.61	56420.95
540.78	56449.04
540.95	56697.14
541.12	56495.85
541.29	56732.25
541.46	56722.88
541.62	56814.16
541.79	56765.01
541.96	56755.65
542.13	56680.75
542.30	56523.94
542.47	57057.58
542.63	57064.60
542.80	57059.92
542.97	56870.34
543.14	57296.31
543.31	57223.76
543.48	57303.34
543.64	57586.54
543.81	57563.14
543.98	57860.38
544.15	57420.36
544.32	57513.98
544.48	57567.82
544.65	57558.45
544.82	57502.28
544.99	57375.89
545.16	57719.95
545.32	57457.81
545.49	57818.25
545.66	57872.09
545.83	57897.83
546.00	57872.09
546.16	57888.47
546.33	57666.12
546.50	57640.37
546.67	57939.96
546.83	57682.50
547.00	57696.55
547.17	57623.99
547.34	57893.15
547.50	58211.46
547.67	58094.44
547.84	58269.98
548.00	58136.57
548.17	58319.13
548.34	58071.03
548.51	58277.00
548.67	58576.59
548.84	58445.52
549.01	58396.37
549.18	58333.17
549.34	58412.75
549.51	58534.46
549.68	58609.35
549.84	58384.66
550.01	58653.82
550.18	58394.03
550.34	58590.63
550.51	58752.13
550.68	58702.98
550.84	58206.78
551.01	58698.30
551.18	58710.00
551.34	58717.02
551.51	58497.01
551.68	58721.70
551.84	58777.87
552.01	58777.87
552.18	58707.66
552.34	58834.05
552.51	58829.37
552.68	58733.40
552.84	58777.87
553.01	59164.06
553.18	58850.43
553.34	58937.03
553.51	59182.79
553.67	58724.04
553.84	58913.62
554.01	59182.79
554.17	59128.95
554.34	59089.16
554.51	59082.14
554.67	59245.98
554.84	59147.68
555.00	59304.49
555.17	59133.63
555.33	59283.43
555.50	59072.78
555.67	59171.08
555.83	59227.26
556.00	59241.30
556.16	59526.84
556.33	59414.50
556.50	59283.43
556.66	59629.83
556.83	59210.87
556.99	59583.02
557.16	59678.98
557.32	59428.54
557.49	59788.98
557.65	59477.69
557.82	59524.50
557.98	59468.33
558.15	59686.00
558.32	59845.16
558.48	59419.18
558.65	59540.89
558.81	59587.70
558.98	59700.04
559.14	59625.15
559.31	60030.06
559.47	59660.26
559.64	59695.36
559.80	59819.41
559.97	59784.30
560.13	59800.69
560.30	59831.11
560.46	59793.67
560.63	59842.82
560.79	59803.03
560.96	60189.22
561.12	59847.50
561.29	60074.53
561.45	60086.23
561.61	59756.22
561.78	59948.14
561.94	60076.87
562.11	59831.11
562.27	60100.28
562.44	60039.42
562.60	60231.35
562.77	60011.34
562.93	60095.60
563.10	60224.32
563.26	60097.94
563.42	60240.71
563.59	60168.15
563.75	60205.60
563.92	60119.00
564.08	60301.56
564.24	60327.31
564.41	60287.52
564.57	60198.58
564.74	60439.65
564.90	60086.23
565.07	60236.03
565.23	60289.86
565.39	60252.41
565.56	60245.39
565.72	60315.61
565.88	60371.78
566.05	60282.84
566.21	60322.63
566.38	60399.86
566.54	60566.04
566.70	60418.59
566.87	60376.46
567.03	60095.60
567.19	60697.11
567.36	60355.39
567.52	60441.99
567.68	60509.87
567.85	60615.19
568.01	60680.73
568.17	60561.36
568.34	60477.10
568.50	60353.05
568.66	60676.05
568.83	60470.08
568.99	60465.40
569.15	60516.89
569.32	60491.15
569.48	60261.77
569.64	60802.44
569.81	60488.80
569.97	60638.60
570.13	60610.51
570.30	60521.57
570.46	60732.22
570.62	60573.06
570.78	60643.28
570.95	60713.50
571.11	60842.23
571.27	60350.71
571.43	60615.19
571.60	60835.20
571.76	60678.39
571.92	60849.25
572.09	60762.65
572.25	60697.11
572.41	60629.24
572.57	60781.37
572.74	60846.91
572.90	60477.10
573.06	60966.27
573.22	60769.67
573.38	60858.61
573.55	60825.84
573.71	60970.96
573.87	60725.20
574.03	60729.88
574.20	60769.67
574.36	60715.84
574.52	60910.10
574.68	60804.78
574.84	61034.15
575.01	60940.53
575.17	61109.05
575.33	60636.26
575.49	60732.22
575.65	60896.06
575.82	60877.33
575.98	60980.32
576.14	60987.34
576.30	61003.72
576.46	60893.72
576.62	60746.26
576.79	60718.18
576.95	60718.18
577.11	60938.19
577.27	61003.72
577.43	61104.37
577.59	60776.69
577.75	60921.80
577.92	60708.82
578.08	60896.06
578.24	60968.61
578.40	61361.82
578.56	61155.86
578.72	60999.04
578.88	61109.05
579.04	61083.30
579.21	60903.08
579.37	61109.05
579.53	61102.03
579.69	60732.22
579.85	61020.11
580.01	60963.93
580.17	60781.37
580.33	60849.25
580.49	61109.05
580.65	61076.28
580.82	60891.38
580.98	60931.17
581.14	61003.72
581.30	61197.99
581.46	61092.66
581.62	61183.94
581.78	61015.43
581.94	61080.96
582.10	60910.10
582.26	61045.85
582.42	60963.93
582.58	61024.79
582.74	61038.83
582.90	61045.85
583.06	61186.28
583.22	60884.36
583.38	61024.79
583.54	60992.02
583.70	61109.05
583.86	61137.13
584.02	60992.02
584.18	61078.62
584.34	60966.27
584.50	61317.35
584.66	61071.60
584.82	61022.45
584.98	61305.65
585.14	61120.75
585.30	61209.69
585.46	61141.81
585.62	61050.53
585.78	61279.91
585.94	61052.87
586.10	61200.33
586.26	61034.15
586.42	61139.47
586.58	61179.26
586.74	61160.54
586.90	61176.92
587.06	61078.62
587.22	61174.58
587.38	61155.86
587.54	61326.72
587.70	61336.08
587.86	61085.64
588.02	61263.52
588.18	61436.72
588.34	61059.90
588.49	61087.98
