SpectraSuite Data File
++++++++++++++++++++++++++++++++++++
Date: Fri Oct 25 10:43:36 EDT 2013
User: price-jones
Dark Spectrum Present: No
Reference Spectrum Present: No
Number of Sampled Component Spectra: 1
Spectrometers: USB2+H05261
Integration Time (usec): 100000 (USB2+H05261)
Spectra Averaged: 1 (USB2+H05261)
Boxcar Smoothing: 0 (USB2+H05261)
Correct for Electrical Dark: No (USB2+H05261)
Strobe/Lamp Enabled: No (USB2+H05261)
Correct for Detector Non-linearity: No (USB2+H05261)
Correct for Stray Light: No (USB2+H05261)
Number of Pixels in Processed Spectrum: 2048
>>>>>Begin Processed Spectral Data<<<<<
365.73	138.09
365.92	138.09
366.12	138.09
366.32	46.81
366.52	0.00
366.72	42.13
366.91	0.00
367.11	7.02
367.31	2.34
367.51	39.79
367.70	21.06
367.90	0.00
368.10	0.00
368.30	0.00
368.49	0.00
368.69	46.81
368.89	14.04
369.09	23.41
369.28	39.79
369.48	16.38
369.68	35.11
369.87	58.51
370.07	138.09
370.27	91.28
370.47	154.48
370.66	327.68
370.86	447.04
371.06	456.40
371.25	472.79
371.45	463.43
371.65	470.45
371.84	416.62
372.04	435.34
372.24	470.45
372.44	486.83
372.63	634.29
372.83	514.92
373.03	458.74
373.22	554.71
373.42	533.64
373.62	561.73
373.81	524.28
374.01	512.58
374.21	596.84
374.40	540.66
374.60	603.86
374.79	550.03
374.99	610.88
375.19	585.13
375.38	657.69
375.58	603.86
375.78	617.90
375.97	594.50
376.17	624.92
376.37	648.33
376.56	603.86
376.76	638.97
376.95	561.73
377.15	636.63
377.35	688.12
377.54	671.73
377.74	678.76
377.93	624.92
378.13	706.84
378.33	606.20
378.52	657.69
378.72	641.31
378.91	725.57
379.11	601.52
379.31	667.05
379.50	603.86
379.70	662.37
379.89	676.41
380.09	606.20
380.28	641.31
380.48	645.99
380.68	592.16
380.87	718.54
381.07	702.16
381.26	720.88
381.46	704.50
381.65	643.65
381.85	692.80
382.04	676.41
382.24	734.93
382.43	727.91
382.63	718.54
382.83	688.12
383.02	791.10
383.22	823.87
383.41	816.85
383.61	704.50
383.80	671.73
384.00	748.97
384.19	760.67
384.39	814.51
384.58	716.20
384.78	816.85
384.97	880.04
385.17	805.14
385.36	844.93
385.56	784.08
385.75	683.44
385.95	819.19
386.14	891.74
386.34	861.32
386.53	873.02
386.72	849.61
386.92	875.36
387.11	903.45
387.31	870.68
387.50	798.12
387.70	870.68
387.89	882.38
388.09	894.08
388.28	837.91
388.48	896.43
388.67	954.94
388.86	971.32
389.06	1043.88
389.25	1011.11
389.45	922.17
389.64	936.21
389.84	990.05
390.03	950.26
390.22	994.73
390.42	971.32
390.61	1043.88
390.81	1008.77
391.00	1022.81
391.19	1083.67
391.39	999.41
391.58	1123.46
391.78	992.39
391.97	1041.54
392.16	1020.47
392.36	1125.80
392.55	964.30
392.75	976.00
392.94	983.02
393.13	1029.84
393.33	1034.52
393.52	950.26
393.71	1046.22
393.91	1163.25
394.10	1071.97
394.29	1179.63
394.49	1109.41
394.68	1249.85
394.88	1228.78
395.07	1329.42
395.26	1200.69
395.46	1235.80
395.65	1270.91
395.84	1266.23
396.04	1280.27
396.23	1109.41
396.42	1177.29
396.62	1170.27
396.81	1184.31
397.00	1266.23
397.19	1310.70
397.39	1301.34
397.58	1320.06
397.77	1418.36
397.97	1430.07
398.16	1451.13
398.35	1511.99
398.55	1495.60
398.74	1572.84
398.93	1582.20
399.12	1554.12
399.32	1486.24
399.51	1584.54
399.70	1565.82
399.90	1542.41
400.09	1715.61
400.28	1645.40
400.47	1631.35
400.67	1746.04
400.86	1673.48
401.05	1720.29
401.24	1806.89
401.44	1797.53
401.63	1673.48
401.82	1748.38
402.01	1788.17
402.21	1802.21
402.40	1771.79
402.59	1717.95
402.78	1734.34
402.97	1717.95
403.17	1806.89
403.36	1820.94
403.55	1853.70
403.74	1907.54
403.93	1820.94
404.13	1966.05
404.32	1823.28
404.51	1851.36
404.70	1954.35
404.89	1970.73
405.09	1956.69
405.28	2036.27
405.47	2033.93
405.66	2073.71
405.85	1980.09
406.05	1912.22
406.24	2008.18
406.43	2132.23
406.62	2092.44
406.81	2195.42
407.00	2092.44
407.20	2118.18
407.39	2069.03
407.58	2139.25
407.77	2214.15
407.96	2300.75
408.15	2312.45
408.34	2174.36
408.54	2289.04
408.73	2373.30
408.92	2277.34
409.11	2249.25
409.30	2319.47
409.49	2286.70
409.68	2340.54
409.87	2459.90
410.07	2403.73
410.26	2422.45
410.45	2464.58
410.64	2476.29
410.83	2490.33
411.02	2626.08
411.21	2581.61
411.40	2731.41
411.59	2796.94
411.78	2705.66
411.98	2590.97
412.17	2682.25
412.36	2789.92
412.55	2778.22
412.74	2705.66
412.93	2785.24
413.12	2895.24
413.31	3014.61
413.50	2916.31
413.69	2794.60
413.88	2988.86
414.07	2878.86
414.26	2867.16
414.45	3016.95
414.64	2949.08
414.83	3063.76
415.02	3061.42
415.22	3098.87
415.41	3255.69
415.60	3124.62
415.79	3295.47
415.98	3375.05
416.17	3318.88
416.36	3251.00
416.55	3290.79
416.74	3428.88
416.93	3346.97
417.12	3426.54
417.31	3447.61
417.50	3323.56
417.69	3531.87
417.88	3452.29
418.07	3508.46
418.26	3543.57
418.45	3550.59
418.64	3740.18
418.83	3698.05
419.02	3648.90
419.21	3660.60
419.39	3641.87
419.58	3684.00
419.77	3623.15
419.96	3768.26
420.15	3716.77
420.34	3756.56
420.53	3824.44
420.72	4058.49
420.91	3822.09
421.10	4014.02
421.29	3861.88
421.48	3824.44
421.67	3833.80
421.86	3770.60
422.05	3939.12
422.24	3775.28
422.43	3941.46
422.61	4067.85
422.80	4009.34
422.99	3906.35
423.18	4032.74
423.37	4191.90
423.56	4149.77
423.75	3950.82
423.94	3896.99
424.13	3758.90
424.32	3747.20
424.50	4077.21
424.69	4135.73
424.88	4161.47
425.07	4028.06
425.26	4058.49
425.45	3976.57
425.64	3957.85
425.83	3941.46
426.01	4177.86
426.20	4147.43
426.39	3974.23
426.58	3939.12
426.77	4046.79
426.96	3960.19
427.15	4187.22
427.33	4170.83
427.52	4102.96
427.71	4278.50
427.90	4107.64
428.09	4301.90
428.28	4243.39
428.46	4278.50
428.65	4243.39
428.84	4400.21
429.03	4313.61
429.22	4198.92
429.40	4227.01
429.59	4205.94
429.78	4032.74
429.97	3941.46
430.16	4109.98
430.34	4119.34
430.53	4215.30
430.72	4292.54
430.91	4250.41
431.10	4388.50
431.28	4599.15
431.47	4758.31
431.66	4657.67
431.85	4713.84
432.03	4678.73
432.22	4741.93
432.41	4734.90
432.60	4826.18
432.79	4681.07
432.97	4802.78
433.16	4877.68
433.35	4709.16
433.54	4753.63
433.72	4720.86
433.91	4713.84
434.10	4795.76
434.28	4873.00
434.47	4887.04
434.66	5085.98
434.85	4933.85
435.03	4950.23
435.22	4975.98
435.41	5210.03
435.59	5123.43
435.78	5270.89
435.97	5217.05
436.16	5153.86
436.34	5163.22
436.53	5341.10
436.72	5446.43
436.90	5181.95
437.09	5266.21
437.28	5254.50
437.46	5219.39
437.65	5266.21
437.84	5158.54
438.02	5317.70
438.21	5165.56
438.40	5228.76
438.58	5364.51
438.77	5245.14
438.96	5392.59
439.14	5671.12
439.33	5715.59
439.52	5738.99
439.70	5853.68
439.89	5877.09
440.08	5802.19
440.26	5647.71
440.45	5809.21
440.63	6256.25
440.82	6005.81
441.01	6122.84
441.19	6010.50
441.38	6164.97
441.57	6375.62
441.75	6291.36
441.94	6436.47
442.12	6384.98
442.31	6438.81
442.50	6487.96
442.68	6331.15
442.87	6513.71
443.05	6335.83
443.24	6537.12
443.43	6541.80
443.61	6647.12
443.80	6738.40
443.98	6520.73
444.17	6382.64
444.35	6537.12
444.54	6817.98
444.73	6593.29
444.91	6644.78
445.10	6614.35
445.28	6579.25
445.47	6576.91
445.65	6455.20
445.84	6782.87
446.02	6729.04
446.21	6743.08
446.39	6738.40
446.58	6906.92
446.77	6738.40
446.95	6668.19
447.14	6717.34
447.32	7087.14
447.51	6761.81
447.69	6778.19
447.88	6649.46
448.06	6846.07
448.25	6722.02
448.43	6956.07
448.62	6719.68
448.80	6810.96
448.99	6930.33
449.17	7119.91
449.36	6843.73
449.54	7131.61
449.73	7234.60
449.91	7377.37
450.10	7389.07
450.28	7389.07
450.46	7487.37
450.65	7356.30
450.83	7389.07
451.02	7393.75
451.20	7360.98
451.39	7157.36
451.57	7304.81
451.76	7506.10
451.94	7492.05
452.13	7499.08
452.31	7267.36
452.49	7243.96
452.68	7492.05
452.86	7215.87
453.05	7466.31
453.23	7489.71
453.42	7470.99
453.60	7435.88
453.78	7562.27
453.97	7597.38
454.15	7527.16
454.34	7478.01
454.52	7489.71
454.70	7538.87
454.89	7758.88
455.07	7646.53
455.26	7838.45
455.44	7793.98
455.62	7868.88
455.81	7805.69
455.99	8135.70
456.17	7950.80
456.36	8145.06
456.54	8219.96
456.73	8194.22
456.91	8250.39
457.09	8351.03
457.28	8372.10
457.46	8205.92
457.64	8271.45
457.83	8336.99
458.01	8201.24
458.19	8451.67
458.38	8318.26
458.56	8339.33
458.74	8365.07
458.93	8442.31
459.11	8435.29
459.29	8561.68
459.48	8545.30
459.66	8411.89
459.84	8542.96
460.03	8720.84
460.21	8521.89
460.39	8711.47
460.57	8613.17
460.76	8699.77
460.94	8819.14
461.12	8786.37
461.31	8872.97
461.49	8751.26
461.67	8769.99
461.85	8922.12
462.04	8971.27
462.22	9446.40
462.40	8952.55
462.59	9137.45
462.77	9085.96
462.95	9081.28
463.13	8992.34
463.32	8872.97
463.50	9092.98
463.68	9064.89
463.86	9050.85
464.05	8985.32
464.23	8945.53
464.41	9151.49
464.59	9153.84
464.78	9249.80
464.96	9118.73
465.14	9048.51
465.32	9275.54
465.50	9406.61
465.69	9483.85
465.87	9228.73
466.05	9287.25
466.23	9247.46
466.41	9305.97
466.60	9355.12
466.78	9441.72
466.96	9453.42
467.14	9525.98
467.32	9551.73
467.51	9767.06
467.69	9373.85
467.87	9399.59
468.05	9657.05
468.23	9710.88
468.41	9612.58
468.60	9853.66
468.78	9853.66
468.96	9731.95
469.14	9895.78
469.32	9923.87
469.50	9582.15
469.69	9926.21
469.87	9856.00
470.05	9909.83
470.23	9750.67
470.41	10333.47
470.59	10115.80
470.77	9914.51
470.95	10195.37
471.14	10228.14
471.32	10342.83
471.50	10424.75
471.68	10230.48
471.86	10509.01
472.04	10513.69
472.22	10696.25
472.40	10361.55
472.58	10464.54
472.77	10576.88
472.95	10626.03
473.13	11077.76
473.31	10443.47
473.49	10782.85
473.67	10768.80
473.85	10839.02
474.03	11040.31
474.21	11040.31
474.39	11253.30
474.57	11337.56
474.75	11391.39
474.93	11375.00
475.12	11391.39
475.30	11597.35
475.48	11239.25
475.66	11520.12
475.84	11218.19
476.02	11634.80
476.20	11819.71
476.38	12131.00
476.56	11845.45
476.74	12159.08
476.92	11910.99
477.10	11782.26
477.28	12379.09
477.46	12266.75
477.64	12491.44
477.82	12753.58
478.00	12784.01
478.18	12802.73
478.36	12861.24
478.54	12952.52
478.72	13062.53
478.90	13249.77
479.08	13451.06
479.26	13242.75
479.44	13509.57
479.62	13446.38
479.80	13640.64
479.98	13940.23
480.16	13954.27
480.34	13621.92
480.52	14059.60
480.70	14005.77
480.88	13734.26
481.06	14005.77
481.24	14387.27
481.41	14480.89
481.59	14352.16
481.77	14647.07
481.95	14888.15
482.13	14757.08
482.31	14696.22
482.49	15206.46
482.67	15016.88
482.85	15379.66
483.03	15356.25
483.21	15466.26
483.39	15609.03
483.57	15758.83
483.74	15810.32
483.92	15672.23
484.10	15833.72
484.28	16388.43
484.46	16070.12
484.64	16470.35
484.82	16325.24
485.00	16404.81
485.18	16671.64
485.35	16629.51
485.53	16393.11
485.71	16414.18
485.89	16720.79
486.07	16402.47
486.25	17111.66
486.43	16966.54
486.61	17252.09
486.78	17680.41
486.96	17207.62
487.14	18244.48
487.32	18005.74
487.50	18244.48
487.68	18644.71
487.85	18867.06
488.03	18768.76
488.21	18897.49
488.39	18988.77
488.57	18595.56
488.75	19044.94
488.92	19353.89
489.10	19325.80
489.28	19852.42
489.46	20100.52
489.64	19910.94
489.81	20577.99
489.99	20348.62
490.17	20365.00
490.35	20664.59
490.53	20683.31
490.70	20746.51
490.88	20828.43
491.06	20973.54
491.24	21113.97
491.41	21003.97
491.59	21092.91
491.77	20889.28
491.95	21514.20
492.13	21841.88
492.30	21872.31
492.48	22101.68
492.66	22302.96
492.84	22480.85
493.01	22625.96
493.19	22338.07
493.37	22375.52
493.54	22567.45
493.72	23049.60
493.90	23122.15
494.08	23309.40
494.25	23316.42
494.43	23508.34
494.61	23601.96
494.79	24107.52
494.96	23798.57
495.14	23910.91
495.32	24128.58
495.49	24133.26
495.67	24180.07
495.85	24570.94
496.02	24697.33
496.20	24514.77
496.38	24830.74
496.55	24812.02
496.73	25425.24
496.91	25034.37
497.09	25514.18
497.26	25443.96
497.44	25462.69
497.62	25493.12
497.79	25898.03
497.97	25635.89
498.14	25584.40
498.32	25710.78
498.50	26101.65
498.67	26256.13
498.85	26429.33
499.03	26476.14
499.20	26721.90
499.38	26567.42
499.56	27058.93
499.73	26841.26
499.91	26621.25
500.08	26998.08
500.26	26499.55
500.44	26981.70
500.61	26885.73
500.79	27044.89
500.97	27014.46
501.14	27756.41
501.32	27475.55
501.49	27889.82
501.67	27665.13
501.84	27964.72
502.02	27938.97
502.20	28046.64
502.37	28271.33
502.55	28407.08
502.72	28720.71
502.90	28318.14
503.07	28175.37
503.25	28409.42
503.43	28334.53
503.60	28390.70
503.78	28577.94
503.95	28666.88
504.13	28395.38
504.30	28765.18
504.48	29247.33
504.65	29315.21
504.83	29116.26
505.01	29567.99
505.18	29294.14
505.36	30249.08
505.53	29556.28
505.71	29708.42
505.88	30164.82
506.06	29940.13
506.23	30082.91
506.41	29818.42
506.58	30232.70
506.76	30513.56
506.93	30333.34
507.11	30232.70
507.28	30600.16
507.46	30370.79
507.63	30335.68
507.81	30654.00
507.98	30218.66
508.16	30611.87
508.33	31002.74
508.50	30817.83
508.68	31534.04
508.85	31669.79
509.03	31417.01
509.20	31292.96
509.38	31199.34
509.55	31814.90
509.73	31536.38
509.90	31728.30
510.08	31721.28
510.25	31885.12
510.42	31885.12
510.60	32067.68
510.77	32079.38
510.95	32395.35
511.12	32098.11
511.30	32519.40
511.47	32952.40
511.64	33043.68
511.82	33144.33
511.99	32336.84
512.17	32786.22
512.34	32369.61
512.51	32716.01
512.69	33123.26
512.86	33305.82
513.04	33647.54
513.21	32727.71
513.38	33530.51
513.56	33298.80
513.73	33160.71
513.90	33942.45
514.08	33434.55
514.25	33635.84
514.43	33385.40
514.60	33521.15
514.77	33865.21
514.95	34005.64
515.12	33675.63
515.29	34054.79
515.47	34178.84
515.64	34532.26
515.81	33937.77
515.99	34522.90
516.16	33787.97
516.33	34073.52
516.51	34171.82
516.68	33713.08
516.85	33640.52
517.03	34033.73
517.20	34513.54
517.37	34749.93
517.54	34548.65
517.72	34649.29
517.89	34277.15
518.06	34333.32
518.24	34464.39
518.41	34923.13
518.58	34857.60
518.75	34946.54
518.93	35033.14
519.10	35154.85
519.27	35412.31
519.45	35660.40
519.62	35232.08
519.79	35622.95
519.96	35936.59
520.14	35814.88
520.31	35882.75
520.48	35779.77
520.65	35695.51
520.83	36053.61
521.00	36601.30
521.17	36086.38
521.34	36147.23
521.52	36605.98
521.69	36425.76
521.86	36678.54
522.03	37167.71
522.20	36715.98
522.38	36837.69
522.55	36985.15
522.72	36620.02
522.89	36788.54
523.07	37067.06
523.24	37221.54
523.41	37361.97
523.58	37254.31
523.75	37432.19
523.92	37373.67
524.10	37612.41
524.27	37392.40
524.44	37696.67
524.61	37584.32
524.78	37741.14
524.96	37776.25
525.13	38054.77
525.30	38450.32
525.47	38211.59
525.64	37944.76
525.81	38216.27
525.98	38124.99
526.16	37797.31
526.33	37380.70
526.50	38033.71
526.67	37979.87
526.84	37783.27
527.01	37855.82
527.18	38068.81
527.36	38667.99
527.53	38714.80
527.70	38426.92
527.87	38965.24
528.04	38586.07
528.21	38759.27
528.38	38888.00
528.55	38955.88
528.72	38831.83
528.89	39363.13
529.07	39136.10
529.24	39140.78
529.41	39213.34
529.58	39028.43
529.75	39199.29
529.92	39337.38
530.09	39559.73
530.26	39459.09
530.43	39908.47
530.60	39325.68
530.77	39686.12
530.94	40062.95
531.11	39583.14
531.28	39995.07
531.46	40261.90
531.63	39976.35
531.80	39697.83
531.97	40095.72
532.14	39814.85
532.31	39442.71
532.48	39454.41
532.65	39924.86
532.82	39704.85
532.99	39899.11
533.16	39892.09
533.33	40325.09
533.50	40610.64
533.67	40020.82
533.84	40053.59
534.01	40404.67
534.18	40322.75
534.35	40720.64
534.52	40147.21
534.69	40339.13
534.86	40931.29
535.03	41006.19
535.20	40971.08
535.37	41125.55
535.54	41532.81
535.71	40835.33
535.88	41048.32
536.05	41053.00
536.22	41205.13
536.38	41090.44
536.55	41081.08
536.72	40748.73
536.89	40786.18
537.06	41177.04
537.23	41352.58
537.40	41544.51
537.57	41434.50
537.74	41476.63
537.91	41338.54
538.08	41846.44
538.25	41525.78
538.42	41706.01
538.59	42241.99
538.75	41666.22
538.92	41895.59
539.09	41897.93
539.26	41736.43
539.43	42031.34
539.60	41883.89
539.77	41486.00
539.94	41617.07
540.11	41460.25
540.28	41947.08
540.44	41827.71
540.61	42162.41
540.78	42106.24
540.95	41453.23
541.12	41883.89
541.29	42176.45
541.46	42052.41
541.62	42597.75
541.79	42904.36
541.96	42057.09
542.13	42068.79
542.30	42396.46
542.47	42164.75
542.63	42457.32
542.80	42361.36
542.97	42618.81
543.14	42719.46
543.31	43086.92
543.48	42838.83
543.64	43445.02
543.81	43107.99
543.98	43196.93
544.15	43281.19
544.32	43157.14
544.48	43704.82
544.65	43215.65
544.82	43239.06
544.99	43028.41
545.16	43044.79
545.32	43103.31
545.49	44109.74
545.66	43447.36
545.83	43517.58
546.00	43833.55
546.16	43351.40
546.33	43533.96
546.50	43185.22
546.67	43756.32
546.83	43559.71
547.00	43835.89
547.17	43428.64
547.34	43709.50
547.50	43288.21
547.67	43997.39
547.84	43959.94
548.00	44453.79
548.17	44020.80
548.34	43969.30
548.51	44470.18
548.67	44212.72
548.84	44280.60
549.01	43491.83
549.18	43700.14
549.34	44528.69
549.51	44311.02
549.68	44388.26
549.84	44095.69
550.01	44168.25
550.18	44229.10
550.34	44100.37
550.51	44165.91
550.68	43732.91
550.84	43681.42
551.01	44076.97
551.18	44369.54
551.34	44399.96
551.51	44694.87
551.68	44676.15
551.84	44488.90
552.01	44669.12
552.18	44669.12
552.34	44245.49
552.51	44509.97
552.68	44790.83
552.84	44671.46
553.01	44774.45
553.18	44444.43
553.34	44566.14
553.51	44891.48
553.67	44760.40
553.84	45200.43
554.01	45017.86
554.17	45390.01
554.34	45202.77
554.51	45158.30
554.67	45352.56
554.84	45359.58
555.00	45116.17
555.17	45055.31
555.33	45013.18
555.50	45102.12
555.67	45593.64
555.83	44949.99
556.00	44734.66
556.16	45408.73
556.33	44783.81
556.50	45170.00
556.66	45067.02
556.83	44875.09
556.99	45394.69
557.16	45467.25
557.32	45027.23
557.49	45240.21
557.65	45006.16
557.82	45118.51
557.98	45518.74
558.15	45312.77
558.32	45455.54
558.48	45277.66
558.65	45411.07
558.81	45375.97
558.98	45387.67
559.14	45078.72
559.31	45268.30
559.47	45535.12
559.64	45251.92
559.80	45787.90
559.97	45588.95
560.13	45081.06
560.30	45413.41
560.46	45815.99
560.63	45727.05
560.79	45764.49
560.96	45977.48
561.12	45806.62
561.29	45755.13
561.45	45968.12
561.61	45975.14
561.78	45993.87
561.94	44816.58
562.11	45591.30
562.27	45748.11
562.44	45823.01
562.60	46143.66
562.77	45860.46
562.93	45893.22
563.10	45972.80
563.26	45813.65
563.42	46045.36
563.59	45521.08
563.75	45736.41
563.92	46181.11
564.08	45848.75
564.24	46036.00
564.41	46171.75
564.57	46021.95
564.74	46115.58
564.90	45925.99
565.07	46057.06
565.23	46178.77
565.39	45773.86
565.56	46183.45
565.72	45347.88
565.88	45701.30
566.05	45858.12
566.21	46405.80
566.38	45979.82
566.54	45900.25
566.70	45858.12
566.87	46110.89
567.03	46298.14
567.19	46630.49
567.36	46033.66
567.52	46239.62
567.68	46342.61
567.85	46391.76
568.01	46071.10
568.17	46124.94
568.34	46146.00
568.50	45900.25
568.66	45923.65
568.83	46082.81
568.99	46017.27
569.15	46075.79
569.32	46094.51
569.48	46127.28
569.64	46028.98
569.81	46408.14
569.97	45949.40
570.13	46057.06
570.30	45720.02
570.46	45900.25
570.62	46033.66
570.78	45666.19
570.95	45734.07
571.11	45846.41
571.27	46108.55
571.43	46160.05
571.60	46021.95
571.76	46546.23
571.92	46773.27
572.09	46190.47
572.25	46410.48
572.41	46202.18
572.57	46396.44
572.74	46256.01
572.90	46157.70
573.06	46536.87
573.22	46494.74
573.38	46082.81
573.55	46263.03
573.71	46337.93
573.87	46330.90
574.03	46026.63
574.20	46440.91
574.36	46007.91
574.52	46260.69
574.68	46277.07
574.84	46316.86
575.01	46396.44
575.17	46052.38
575.33	45984.51
575.49	46190.47
575.65	46251.33
575.82	46230.26
575.98	46209.20
576.14	46539.21
576.30	46054.72
576.46	46747.52
576.62	46394.10
576.79	46438.57
576.95	46160.05
577.11	46087.49
577.27	46183.45
577.43	45949.40
577.59	46024.29
577.75	46014.93
577.92	46099.19
578.08	46183.45
578.24	46014.93
578.40	46052.38
578.56	46162.39
578.72	46000.89
578.88	46459.63
579.04	46167.07
579.21	46225.58
579.37	46841.14
579.53	46473.68
579.69	46206.86
579.85	46672.62
580.01	46347.29
580.17	46366.01
580.33	45846.41
580.49	46691.35
580.65	46256.01
580.82	46195.15
580.98	46286.43
581.14	45790.24
581.30	46405.80
581.46	46485.38
581.62	46878.59
581.78	46461.97
581.94	46602.41
582.10	46588.36
582.26	46728.80
582.42	46536.87
582.58	46649.22
582.74	46660.92
582.90	46520.49
583.06	46635.17
583.22	46829.44
583.38	46656.24
583.54	46761.56
583.70	46588.36
583.86	46286.43
584.02	46241.96
584.18	46712.41
584.34	46431.55
584.50	46335.59
584.66	46309.84
584.82	46607.09
584.98	46312.18
585.14	46248.99
585.30	46419.84
585.46	46256.01
585.62	46101.53
585.78	46513.47
585.94	46220.90
586.10	46403.46
586.26	46288.77
586.42	46370.69
586.58	46670.28
586.74	46529.85
586.90	46300.48
587.06	46366.01
587.22	46756.88
587.38	46457.29
587.54	46649.22
587.70	46791.99
587.86	46377.72
588.02	46349.63
588.18	46340.27
588.34	46160.05
588.49	46284.09
588.65	45638.11
588.81	46167.07
588.97	45925.99
589.13	45874.50
589.29	46036.00
589.45	46040.68
589.61	46174.09
589.77	46614.11
589.93	46967.53
590.08	46450.27
