SpectraSuite Data File
++++++++++++++++++++++++++++++++++++
Date: Fri Oct 25 11:25:15 EDT 2013
User: price-jones
Dark Spectrum Present: No
Reference Spectrum Present: No
Number of Sampled Component Spectra: 1
Spectrometers: USB2+H05261
Integration Time (usec): 100000 (USB2+H05261)
Spectra Averaged: 1 (USB2+H05261)
Boxcar Smoothing: 0 (USB2+H05261)
Correct for Electrical Dark: No (USB2+H05261)
Strobe/Lamp Enabled: No (USB2+H05261)
Correct for Detector Non-linearity: No (USB2+H05261)
Correct for Stray Light: No (USB2+H05261)
Number of Pixels in Processed Spectrum: 2048
>>>>>Begin Processed Spectral Data<<<<<
365.73	220.01
365.92	220.01
366.12	220.01
366.32	152.13
366.52	170.86
366.72	217.67
366.91	117.03
367.11	227.03
367.31	121.71
367.51	191.92
367.70	224.69
367.90	227.03
368.10	156.82
368.30	107.66
368.49	156.82
368.69	222.35
368.89	149.79
369.09	138.09
369.28	105.32
369.48	140.43
369.68	145.11
369.87	210.65
370.07	210.65
370.27	257.46
370.47	299.59
370.66	566.41
370.86	671.73
371.06	671.73
371.25	657.69
371.45	660.03
371.65	645.99
371.84	702.16
372.04	704.50
372.24	690.46
372.44	704.50
372.63	770.04
372.83	737.27
373.03	737.27
373.22	688.12
373.42	725.57
373.62	685.78
373.81	788.76
374.01	798.12
374.21	802.80
374.40	781.74
374.60	870.68
374.79	837.91
374.99	849.61
375.19	823.87
375.38	807.48
375.58	863.66
375.78	929.19
375.97	809.83
376.17	877.70
376.37	800.46
376.56	791.10
376.76	877.70
376.95	826.21
377.15	812.17
377.35	840.25
377.54	819.19
377.74	889.40
377.93	912.81
378.13	929.19
378.33	938.55
378.52	894.08
378.72	938.55
378.91	945.58
379.11	1015.79
379.31	990.05
379.50	966.64
379.70	964.30
379.89	997.07
380.09	898.77
380.28	990.05
380.48	976.00
380.68	919.83
380.87	917.49
381.07	992.39
381.26	1039.20
381.46	959.62
381.65	1083.67
381.85	929.19
382.04	1013.45
382.24	1057.92
382.43	1067.28
382.63	994.73
382.83	1090.69
383.02	1029.84
383.22	1060.26
383.41	1142.18
383.61	1174.95
383.80	1111.75
384.00	1177.29
384.19	1158.57
384.39	1167.93
384.58	1125.80
384.78	1116.44
384.97	1132.82
385.17	1203.04
385.36	1078.99
385.56	1238.14
385.75	1160.91
385.95	1179.63
386.14	1224.10
386.34	1219.42
386.53	1296.66
386.72	1184.31
386.92	1156.22
387.11	1238.14
387.31	1191.33
387.50	1207.72
387.70	1252.19
387.89	1238.14
388.09	1224.10
388.28	1228.78
388.48	1196.01
388.67	1348.15
388.86	1334.11
389.06	1392.62
389.25	1334.11
389.45	1277.93
389.64	1387.94
389.84	1313.04
390.03	1369.21
390.22	1261.55
390.42	1287.29
390.61	1366.87
390.81	1343.47
391.00	1357.51
391.19	1352.83
391.39	1469.86
391.58	1460.49
391.78	1409.00
391.97	1439.43
392.16	1348.15
392.36	1486.24
392.55	1509.65
392.75	1577.52
392.94	1387.94
393.13	1474.54
393.33	1472.20
393.52	1542.41
393.71	1570.50
393.91	1521.35
394.10	1575.18
394.29	1638.38
394.49	1575.18
394.68	1638.38
394.88	1593.90
395.07	1675.82
395.26	1643.06
395.46	1579.86
395.65	1689.87
395.84	1753.06
396.04	1865.41
396.23	1760.08
396.42	1792.85
396.62	1778.81
396.81	1724.97
397.00	1727.32
397.19	1678.16
397.39	1764.76
397.58	1767.10
397.77	1671.14
397.97	1755.40
398.16	1830.30
398.35	1825.62
398.55	1837.32
398.74	1888.81
398.93	1902.86
399.12	1809.23
399.32	1942.64
399.51	1909.88
399.70	1940.30
399.90	1973.07
400.09	1914.56
400.28	2008.18
400.47	2071.37
400.67	2057.33
400.86	2062.01
401.05	2043.29
401.24	2078.40
401.44	1989.46
401.63	2031.58
401.82	2057.33
402.01	2150.95
402.21	2132.23
402.40	2139.25
402.59	2207.13
402.78	2176.70
402.97	2167.34
403.17	2239.89
403.36	2251.60
403.55	2204.78
403.74	2272.66
403.93	2338.20
404.13	2385.01
404.32	2342.88
404.51	2380.32
404.70	2462.24
404.89	2289.04
405.09	2380.32
405.28	2415.43
405.47	2462.24
405.66	2574.59
405.85	2513.74
406.05	2420.11
406.24	2509.05
406.43	2455.22
406.62	2747.79
406.81	2661.19
407.00	2576.93
407.20	2597.99
407.39	2619.06
407.58	2668.21
407.77	2644.81
407.96	2794.60
408.15	2773.53
408.34	2724.38
408.54	2787.58
408.73	2745.45
408.92	2750.13
409.11	2846.09
409.30	2885.88
409.49	2906.95
409.68	2850.77
409.87	2796.94
410.07	2944.39
410.26	2958.44
410.45	2984.18
410.64	2974.82
410.83	2979.50
411.02	3066.10
411.21	3077.80
411.40	3105.89
411.59	3197.17
411.78	3115.25
411.98	3183.13
412.17	3251.00
412.36	3314.20
412.55	3246.32
412.74	3419.52
412.93	3274.41
413.12	3248.66
413.31	3452.29
413.50	3508.46
413.69	3480.38
413.88	3557.61
414.07	3543.57
414.26	3562.30
414.45	3639.53
414.64	3611.45
414.83	3733.15
415.02	3733.15
415.22	3819.75
415.41	3742.52
415.60	3742.52
415.79	3742.52
415.98	3957.85
416.17	3981.25
416.36	4004.66
416.55	3896.99
416.74	4004.66
416.93	3939.12
417.12	4079.55
417.31	4072.53
417.50	4070.19
417.69	4351.06
417.88	4231.69
418.07	4194.24
418.26	4255.09
418.45	4311.27
418.64	4444.68
418.83	4411.91
419.02	4390.84
419.21	4557.02
419.39	4465.74
419.58	4311.27
419.77	4547.66
419.96	4437.66
420.15	4514.89
420.34	4697.46
420.53	4524.26
420.72	4826.18
420.91	4730.22
421.10	4711.50
421.29	4706.82
421.48	4601.49
421.67	4833.21
421.86	4737.24
422.05	4751.29
422.24	4840.23
422.43	4912.78
422.61	4798.10
422.80	4910.44
422.99	4849.59
423.18	4891.72
423.37	4891.72
423.56	4882.36
423.75	4648.30
423.94	4823.84
424.13	4521.92
424.32	4781.71
424.50	4870.65
424.69	5064.92
424.88	5050.88
425.07	4889.38
425.26	4830.87
425.45	4833.21
425.64	4774.69
425.83	4964.28
426.01	4987.68
426.20	5008.75
426.39	5032.15
426.58	4968.96
426.77	5046.20
426.96	5055.56
427.15	5174.92
427.33	5327.06
427.52	5184.29
427.71	5235.78
427.90	5160.88
428.09	5212.37
428.28	5128.11
428.46	5294.29
428.65	5214.71
428.84	5570.48
429.03	5406.64
429.22	5359.83
429.40	5509.62
429.59	5502.60
429.78	5291.95
429.97	5298.97
430.16	5507.28
430.34	5561.11
430.53	5589.20
430.72	5579.84
430.91	5497.92
431.10	5547.07
431.28	5664.10
431.47	5865.38
431.66	5738.99
431.85	5806.87
432.03	5771.76
432.22	5879.43
432.41	5820.91
432.60	5935.60
432.79	5928.58
432.97	6019.86
433.16	5994.11
433.35	5893.47
433.54	6005.81
433.72	6038.58
433.91	5982.41
434.10	6286.68
434.28	5916.87
434.47	6113.48
434.66	6246.89
434.85	6108.80
435.03	6232.85
435.22	6272.64
435.41	6417.75
435.59	6319.45
435.78	6359.24
435.97	6450.52
436.16	6523.07
436.34	6401.37
436.53	6424.77
436.72	6532.44
436.90	6469.24
437.09	6722.02
437.28	6480.94
437.46	6588.61
437.65	6633.08
437.84	6693.93
438.02	6787.55
438.21	6792.23
438.40	6581.59
438.58	6995.86
438.77	7007.56
438.96	7014.59
439.14	7133.95
439.33	7070.76
439.52	7155.02
439.70	7026.29
439.89	7321.20
440.08	7421.84
440.26	7283.75
440.45	7297.79
440.63	7304.81
440.82	7548.23
441.01	7543.55
441.19	7611.42
441.38	7569.29
441.57	7503.76
441.75	7693.34
441.94	7735.47
442.12	7925.05
442.31	7882.92
442.50	7852.50
442.68	7981.23
442.87	7889.95
443.05	8105.28
443.24	8201.24
443.43	7939.10
443.61	7981.23
443.80	8294.86
443.98	8079.53
444.17	7840.79
444.35	8304.22
444.54	8299.54
444.73	8173.15
444.91	8386.14
445.10	8128.68
445.28	8383.80
445.47	8208.26
445.65	8234.00
445.84	8388.48
446.02	8255.07
446.21	8311.24
446.39	8521.89
446.58	8578.06
446.77	8329.97
446.95	8173.15
447.14	8430.61
447.32	8524.23
447.51	8564.02
447.69	8318.26
447.88	8503.17
448.06	8421.25
448.25	8519.55
448.43	8479.76
448.62	8606.15
448.80	8411.89
448.99	8542.96
449.17	8582.74
449.36	8610.83
449.54	8781.69
449.73	8774.67
449.91	9013.40
450.10	8809.78
450.28	8919.78
450.46	9041.49
450.65	8858.93
450.83	9160.86
451.02	9029.79
451.20	9025.11
451.39	9041.49
451.57	9385.55
451.76	9006.38
451.94	9062.55
452.13	9212.35
452.31	9186.60
452.49	9224.05
452.68	9200.65
452.86	9305.97
453.05	9371.50
453.23	9327.03
453.42	9156.18
453.60	9390.23
453.78	9544.70
453.97	9121.07
454.15	9320.01
454.34	9434.70
454.52	9701.52
454.70	9722.59
454.89	9652.37
455.07	9666.41
455.26	9701.52
455.44	9727.27
455.62	9781.10
455.81	9884.08
455.99	10024.51
456.17	10251.55
456.36	9933.23
456.54	10178.99
456.73	10186.01
456.91	10265.59
457.09	10354.53
457.28	10485.60
457.46	10237.50
457.64	10406.02
457.83	10274.95
458.01	10338.15
458.19	10626.03
458.38	10480.92
458.56	10473.90
458.74	10485.60
458.93	10534.75
459.11	10696.25
459.29	10750.08
459.48	10691.57
459.66	10595.61
459.84	10757.10
460.03	10911.58
460.21	10974.77
460.39	10867.11
460.57	11054.35
460.76	10977.11
460.94	11014.56
461.12	11274.36
461.31	11049.67
461.49	11117.54
461.67	11066.05
461.85	11438.20
462.04	11419.47
462.22	11712.04
462.40	11356.28
462.59	11353.94
462.77	11225.21
462.95	11424.15
463.13	11396.07
463.32	11527.14
463.50	11590.33
463.68	11529.48
463.86	11688.64
464.05	11646.51
464.23	11524.80
464.41	11698.00
464.59	11513.10
464.78	12121.63
464.96	11918.01
465.14	11815.02
465.32	11889.92
465.50	12039.72
465.69	11819.71
465.87	11892.26
466.05	12002.27
466.23	11892.26
466.41	12009.29
466.60	12208.23
466.78	12081.85
466.96	12086.53
467.14	12278.45
467.32	12395.48
467.51	12446.97
467.69	12126.32
467.87	12187.17
468.05	12430.59
468.23	12187.17
468.41	12547.61
468.60	12367.39
468.78	12634.21
468.96	12627.19
469.14	12624.85
469.32	12828.48
469.50	12741.88
469.69	12980.61
469.87	13018.06
470.05	12968.91
470.23	13090.62
470.41	13090.62
470.59	13207.64
470.77	12952.52
470.95	13261.48
471.14	13294.24
471.32	13097.64
471.50	13301.26
471.68	13277.86
471.86	13682.77
472.04	13652.34
472.22	13884.06
472.40	13535.32
472.58	13727.24
472.77	13844.27
472.95	14122.79
473.13	14504.30
473.31	14183.65
473.49	13987.04
473.67	14087.68
473.85	14141.52
474.03	14724.31
474.21	14403.66
474.39	14499.62
474.57	14530.05
474.75	14607.28
474.93	14642.39
475.12	14743.03
475.30	14970.07
475.48	14766.44
475.66	15267.31
475.84	15012.20
476.02	15349.23
476.20	15222.84
476.38	15700.31
476.56	15829.04
476.74	15807.98
476.92	15983.52
477.10	15578.61
477.28	15859.47
477.46	16229.27
477.64	16100.55
477.82	16400.13
478.00	16711.42
478.18	16566.31
478.36	16746.53
478.54	16936.12
478.72	17102.29
478.90	17097.61
479.08	17724.88
479.26	17441.67
479.44	17647.64
479.62	17694.45
479.80	18005.74
479.98	18146.17
480.16	18405.97
480.34	18031.49
480.52	18420.02
480.70	18721.95
480.88	18066.60
481.06	18775.78
481.24	18691.52
481.41	18871.74
481.59	19234.52
481.77	18986.43
481.95	19283.67
482.13	19372.61
482.31	19620.71
482.49	20051.37
482.67	20121.59
482.85	20271.38
483.03	20421.17
483.21	20505.43
483.39	21046.10
483.57	20737.15
483.74	20961.84
483.92	21130.36
484.10	20716.08
484.28	21275.47
484.46	21656.98
484.64	21888.69
484.82	21912.10
485.00	22054.87
485.18	22677.45
485.35	22904.48
485.53	22424.67
485.71	22822.56
485.89	23040.23
486.07	23110.45
486.25	23063.64
486.43	23398.34
486.61	23836.02
486.78	23639.41
486.96	23756.44
487.14	24479.66
487.32	24379.02
487.50	24648.18
487.68	24926.71
487.85	25153.74
488.03	25429.92
488.21	25109.27
488.39	25708.44
488.57	25663.97
488.75	25874.62
488.92	26434.01
489.10	26525.29
489.28	26630.62
489.46	26864.67
489.64	26455.08
489.81	27346.82
489.99	27159.58
490.17	27676.83
490.35	27637.05
490.53	27873.44
490.70	28077.07
490.88	28058.34
491.06	28175.37
491.24	28362.61
491.41	28760.50
491.59	29029.66
491.77	29074.13
491.95	29284.78
492.13	29352.66
492.30	29518.84
492.48	29589.05
492.66	29968.22
492.84	30459.73
493.01	30637.61
493.19	30246.74
493.37	30747.62
493.54	31084.65
493.72	31267.22
493.90	31108.06
494.08	31426.37
494.25	31503.61
494.43	31716.60
494.61	32095.77
494.79	31929.59
494.96	32360.25
495.14	32491.32
495.32	32708.99
495.49	32367.27
495.67	33139.65
495.85	33315.19
496.02	33284.76
496.20	33921.38
496.38	33579.67
496.55	34265.44
496.73	34543.97
496.91	33895.64
497.09	34270.12
497.26	34668.02
497.44	34583.76
497.62	35112.72
497.79	35683.81
497.97	35168.89
498.14	35723.60
498.32	35585.50
498.50	35730.62
498.67	36191.70
498.85	35999.78
499.03	36084.04
499.20	36037.23
499.38	36638.75
499.56	36833.01
499.73	36577.89
499.91	36926.63
500.08	36980.46
500.26	37397.08
500.44	37626.45
500.61	37352.61
500.79	37434.53
500.97	37750.50
501.14	38293.50
501.32	38272.44
501.49	38080.52
501.67	38330.95
501.84	38834.17
502.02	38920.77
502.20	38721.82
502.37	39040.14
502.55	39110.35
502.72	39213.34
502.90	39297.59
503.07	39400.58
503.25	39381.85
503.43	39297.59
503.60	39700.17
503.78	39756.34
503.95	39721.23
504.13	40023.16
504.30	40465.52
504.48	40088.70
504.65	40289.98
504.83	40711.28
505.01	41055.34
505.18	40947.67
505.36	41448.55
505.53	40591.91
505.71	41427.48
505.88	41120.87
506.06	41010.87
506.23	41778.56
506.41	41184.07
506.58	41593.66
506.76	41696.64
506.93	42340.29
507.11	42103.90
507.28	42773.29
507.46	42504.13
507.63	42122.62
507.81	42799.04
507.98	42450.30
508.16	42824.78
508.33	42993.30
508.50	43262.46
508.68	43585.46
508.85	43419.28
509.03	43344.38
509.20	43751.63
509.38	44137.82
509.55	44095.69
509.73	44144.84
509.90	44397.62
510.08	44130.80
510.25	44488.90
510.42	44156.55
510.60	44378.90
510.77	44566.14
510.95	45205.11
511.12	44729.98
511.30	45160.64
511.47	45146.59
511.64	44961.69
511.82	45661.51
511.99	44994.46
512.17	45738.75
512.34	45345.54
512.51	46227.92
512.69	45815.99
512.86	46038.34
513.04	46244.30
513.21	46256.01
513.38	46644.54
513.56	46768.58
513.73	46043.02
513.90	46363.67
514.08	46508.79
514.25	46817.74
514.43	46997.96
514.60	47056.47
514.77	46962.85
514.95	47503.51
515.12	47360.74
515.29	46979.23
515.47	47819.49
515.64	47700.12
515.81	47517.56
515.99	48011.41
516.16	47784.38
516.33	47826.51
516.51	48289.93
516.68	47859.27
516.85	48219.72
517.03	48751.02
517.20	48217.38
517.37	48795.49
517.54	48769.74
517.72	48935.92
517.89	48619.95
518.06	49104.44
518.24	48699.53
518.41	48629.31
518.58	48744.00
518.75	49027.20
518.93	49378.28
519.10	48690.16
519.27	49216.78
519.45	49413.39
519.62	49359.56
519.79	49698.94
519.96	49780.85
520.14	49993.84
520.31	49834.69
520.48	50593.02
520.65	50099.17
520.83	50417.48
521.00	50265.34
521.17	50258.32
521.34	50377.69
521.52	50092.15
521.69	50454.93
521.86	50974.53
522.03	50906.65
522.20	51033.04
522.38	51288.16
522.55	50838.78
522.72	51257.73
522.89	50831.75
523.07	51604.13
523.24	51292.84
523.41	51484.76
523.58	51126.66
523.75	51833.50
523.92	51496.47
524.10	51526.89
524.27	51496.47
524.44	51723.50
524.61	51969.26
524.78	51601.79
524.96	51798.40
525.13	52013.73
525.30	51938.83
525.47	52250.12
525.64	52200.97
525.81	52418.64
525.98	52493.54
526.16	52470.13
526.33	52215.01
526.50	52573.11
526.67	52296.93
526.84	52804.83
527.01	52830.57
527.18	52655.03
527.36	52479.49
527.53	53027.18
527.70	53340.81
527.87	52980.37
528.04	53125.48
528.21	53045.90
528.38	52987.39
528.55	53202.72
528.72	53001.43
528.89	53373.58
529.07	53202.72
529.24	52987.39
529.41	53247.19
529.58	53446.13
529.75	53680.19
529.92	53488.26
530.09	53670.82
530.26	53851.05
530.43	53560.82
530.60	53495.28
530.77	53792.53
530.94	53719.98
531.11	53563.16
531.28	53736.36
531.46	53890.83
531.63	53911.90
531.80	53844.02
531.97	54106.16
532.14	54398.73
532.31	54585.97
532.48	54155.32
532.65	54237.23
532.82	53993.82
532.99	54302.77
533.16	54445.54
533.33	54604.70
533.50	54745.13
533.67	54459.58
533.84	54789.60
534.01	54724.07
534.18	54569.59
534.35	54988.55
534.52	54852.80
534.69	54993.23
534.86	54958.12
535.03	54911.31
535.20	55082.17
535.37	55180.47
535.54	55246.00
535.71	55166.43
535.88	55372.39
536.05	55173.45
536.22	55379.42
536.38	55557.30
536.55	55166.43
536.72	55466.02
536.89	55257.71
537.06	55213.24
537.23	55681.34
537.40	55395.80
537.57	55533.89
537.74	55552.62
537.91	55749.22
538.08	55690.71
538.25	55351.33
538.42	55693.05
538.59	55700.07
538.75	55608.79
538.92	55721.13
539.09	55817.10
539.26	56149.45
539.43	55835.82
539.60	55950.51
539.77	56065.19
539.94	56219.67
540.11	56177.54
540.28	56350.74
540.44	56219.67
540.61	56158.81
540.78	56266.48
540.95	56308.61
541.12	56247.75
541.29	56378.82
541.46	56236.05
541.62	56528.62
541.79	56486.49
541.96	56154.13
542.13	56512.23
542.30	56397.55
542.47	56870.34
542.63	56734.59
542.80	56699.48
542.97	56706.50
543.14	57092.69
543.31	57174.61
543.48	57041.20
543.64	57214.40
543.81	57134.82
543.98	57289.29
544.15	57181.63
544.32	56973.32
544.48	57408.66
544.65	57270.57
544.82	57235.46
544.99	57270.57
545.16	57155.88
545.32	57144.18
545.49	57446.11
545.66	57319.72
545.83	57607.61
546.00	57581.86
546.16	57544.41
546.33	57336.10
546.50	57380.57
546.67	57439.09
546.83	57357.17
547.00	57647.39
547.17	57343.12
547.34	57518.67
547.50	57687.18
547.67	57717.61
547.84	57790.17
548.00	57766.76
548.17	58302.74
548.34	57958.69
548.51	58014.86
548.67	57848.68
548.84	57804.21
549.01	57925.92
549.18	58031.24
549.34	57928.26
549.51	58103.80
549.68	58363.60
549.84	58241.89
550.01	58171.67
550.18	57932.94
550.34	58113.16
550.51	58342.53
550.68	58335.51
550.84	57841.66
551.01	58195.08
551.18	58286.36
551.34	58178.70
551.51	58314.45
551.68	58220.83
551.84	58365.94
552.01	58424.45
552.18	58585.95
552.34	58370.62
552.51	58607.01
552.68	58424.45
552.84	58571.91
553.01	58604.67
553.18	58461.90
553.34	58571.91
553.51	58637.44
553.67	58644.46
553.84	58623.40
554.01	58937.03
554.17	58953.41
554.34	58798.94
554.51	58829.37
554.67	58810.64
554.84	58780.21
555.00	58735.74
555.17	58681.91
555.33	58801.28
555.50	58754.47
555.67	58822.34
555.83	58883.20
556.00	58965.12
556.16	59058.74
556.33	59213.21
556.50	59018.95
556.66	59217.89
556.83	58848.09
556.99	59318.54
557.16	59185.13
557.32	59309.18
557.49	59405.14
557.65	59255.34
557.82	59250.66
557.98	59166.40
558.15	59238.96
558.32	59262.36
558.48	58894.90
558.65	59285.77
558.81	59327.90
558.98	59283.43
559.14	59374.71
559.31	59533.87
559.47	59508.12
559.64	59449.61
559.80	59290.45
559.97	59398.12
560.13	59150.02
560.30	59627.49
560.46	59489.40
560.63	59723.45
560.79	59482.37
560.96	59695.36
561.12	59583.02
561.29	59440.24
561.45	59599.40
561.61	59667.28
561.78	59517.48
561.94	59475.35
562.11	59639.19
562.27	59707.07
562.44	59910.69
562.60	59969.21
562.77	59641.53
562.93	59501.10
563.10	59906.01
563.26	59732.81
563.42	60034.74
563.59	59765.58
563.75	59950.48
563.92	59716.43
564.08	59866.22
564.24	59983.25
564.41	59845.16
564.57	59856.86
564.74	59943.46
564.90	59891.97
565.07	59877.93
565.23	60039.42
565.39	59833.46
565.56	60032.40
565.72	59920.05
565.88	59894.31
566.05	59667.28
566.21	59938.78
566.38	59877.93
566.54	59980.91
566.70	60100.28
566.87	60060.49
567.03	59721.11
567.19	60254.75
567.36	60231.35
567.52	60184.54
567.68	60420.93
567.85	60133.04
568.01	60198.58
568.17	60058.15
568.34	60009.00
568.50	60327.31
568.66	60156.45
568.83	60198.58
568.99	60041.76
569.15	60341.35
569.32	60245.39
569.48	60348.37
569.64	60233.69
569.81	60310.92
569.97	60090.91
570.13	60339.01
570.30	60226.66
570.46	60329.65
570.62	60481.78
570.78	60264.11
570.95	60245.39
571.11	60306.24
571.27	60289.86
571.43	60219.64
571.60	60331.99
571.76	60198.58
571.92	60418.59
572.09	60144.75
572.25	60350.71
572.41	60233.69
572.57	60493.49
572.74	60544.98
572.90	60495.83
573.06	60165.81
573.22	60474.76
573.38	60399.86
573.55	60367.10
573.71	60662.00
573.87	60406.89
574.03	60287.52
574.20	60624.56
574.36	60411.57
574.52	60617.53
574.68	60666.69
574.84	60662.00
575.01	60657.32
575.17	60463.06
575.33	60467.74
575.49	60301.56
575.65	60753.29
575.82	60664.35
575.98	60577.75
576.14	60961.59
576.30	60638.60
576.46	60467.74
576.62	60598.81
576.79	60395.18
576.95	60460.72
577.11	60439.65
577.27	60795.42
577.43	60537.96
577.59	60528.59
577.75	60505.19
577.92	60498.17
578.08	60636.26
578.24	60711.16
578.40	60505.19
578.56	60828.18
578.72	60617.53
578.88	61071.60
579.04	60617.53
579.21	60692.43
579.37	60858.61
579.53	60774.35
579.69	60556.68
579.85	60591.79
580.01	60521.57
580.17	60521.57
580.33	60718.18
580.49	60912.44
580.65	60809.46
580.82	60622.22
580.98	60732.22
581.14	60645.62
581.30	60736.90
581.46	60605.83
581.62	60830.52
581.78	60671.37
581.94	60722.86
582.10	60715.84
582.26	60846.91
582.42	60736.90
582.58	60924.14
582.74	60671.37
582.90	60912.44
583.06	60772.01
583.22	60528.59
583.38	60823.50
583.54	60640.94
583.70	60568.38
583.86	60905.42
584.02	60687.75
584.18	60776.69
584.34	60640.94
584.50	60996.70
584.66	60774.35
584.82	60460.72
584.98	60982.66
585.14	60704.13
585.30	60846.91
585.46	60942.87
585.62	60877.33
585.78	60877.33
585.94	60608.17
586.10	60842.23
586.26	60891.38
586.42	60872.65
586.58	60757.97
586.74	60989.68
586.90	60837.54
587.06	60945.21
587.22	60816.48
587.38	60762.65
587.54	61118.41
587.70	61078.62
587.86	60896.06
588.02	60746.26
588.18	60917.12
588.34	60842.23
588.49	60783.71
