SpectraSuite Data File
++++++++++++++++++++++++++++++++++++
Date: Fri Oct 25 11:33:56 EDT 2013
User: price-jones
Dark Spectrum Present: No
Reference Spectrum Present: No
Number of Sampled Component Spectra: 1
Spectrometers: USB2+H05261
Integration Time (usec): 100000 (USB2+H05261)
Spectra Averaged: 1 (USB2+H05261)
Boxcar Smoothing: 0 (USB2+H05261)
Correct for Electrical Dark: No (USB2+H05261)
Strobe/Lamp Enabled: No (USB2+H05261)
Correct for Detector Non-linearity: No (USB2+H05261)
Correct for Stray Light: No (USB2+H05261)
Number of Pixels in Processed Spectrum: 2048
>>>>>Begin Processed Spectral Data<<<<<
365.73	315.97
365.92	315.97
366.12	315.97
366.32	180.22
366.52	177.88
366.72	212.99
366.91	170.86
367.11	180.22
367.31	198.95
367.51	105.32
367.70	133.41
367.90	168.52
368.10	220.01
368.30	224.69
368.49	131.07
368.69	227.03
368.89	238.73
369.09	145.11
369.28	250.44
369.48	205.97
369.68	262.14
369.87	222.35
370.07	238.73
370.27	215.33
370.47	269.16
370.66	514.92
370.86	428.32
371.06	540.66
371.25	514.92
371.45	545.34
371.65	543.00
371.84	475.13
372.04	507.90
372.24	533.64
372.44	528.96
372.63	599.18
372.83	573.43
373.03	685.78
373.22	582.79
373.42	564.07
373.62	596.84
373.81	674.07
374.01	674.07
374.21	638.97
374.40	631.94
374.60	655.35
374.79	603.86
374.99	638.97
375.19	653.01
375.38	748.97
375.58	697.48
375.78	650.67
375.97	571.09
376.17	706.84
376.37	667.05
376.56	732.59
376.76	669.39
376.95	699.82
377.15	634.29
377.35	718.54
377.54	688.12
377.74	645.99
377.93	681.10
378.13	734.93
378.33	709.18
378.52	685.78
378.72	802.80
378.91	685.78
379.11	716.20
379.31	713.86
379.50	772.38
379.70	741.95
379.89	704.50
380.09	723.23
380.28	655.35
380.48	753.65
380.68	660.03
380.87	709.18
381.07	819.19
381.26	835.57
381.46	830.89
381.65	788.76
381.85	753.65
382.04	786.42
382.24	763.01
382.43	678.76
382.63	875.36
382.83	786.42
383.02	816.85
383.22	844.93
383.41	767.70
383.61	786.42
383.80	692.80
384.00	767.70
384.19	751.31
384.39	819.19
384.58	814.51
384.78	819.19
384.97	819.19
385.17	866.00
385.36	805.14
385.56	821.53
385.75	802.80
385.95	877.70
386.14	938.55
386.34	882.38
386.53	830.89
386.72	828.55
386.92	863.66
387.11	847.27
387.31	894.08
387.50	961.96
387.70	910.47
387.89	896.43
388.09	877.70
388.28	957.28
388.48	917.49
388.67	903.45
388.86	940.90
389.06	884.72
389.25	1048.56
389.45	908.13
389.64	976.00
389.84	1001.75
390.03	1032.18
390.22	987.71
390.42	954.94
390.61	966.64
390.81	950.26
391.00	980.68
391.19	1074.31
391.39	980.68
391.58	994.73
391.78	980.68
391.97	980.68
392.16	978.34
392.36	1006.43
392.55	1069.62
392.75	1067.28
392.94	964.30
393.13	1055.58
393.33	1097.71
393.52	1083.67
393.71	1097.71
393.91	1069.62
394.10	1060.26
394.29	1128.14
394.49	1064.94
394.68	1160.91
394.88	1081.33
395.07	1093.03
395.26	1109.41
395.46	1118.78
395.65	1184.31
395.84	1198.35
396.04	1254.53
396.23	1240.48
396.42	1142.18
396.62	1151.54
396.81	1179.63
397.00	1184.31
397.19	1231.12
397.39	1296.66
397.58	1317.72
397.77	1193.67
397.97	1224.10
398.16	1308.36
398.35	1238.14
398.55	1277.93
398.74	1240.48
398.93	1310.70
399.12	1261.55
399.32	1198.35
399.51	1275.59
399.70	1282.61
399.90	1378.58
400.09	1329.42
400.28	1345.81
400.47	1373.89
400.67	1451.13
400.86	1404.32
401.05	1345.81
401.24	1401.98
401.44	1563.48
401.63	1486.24
401.82	1418.36
402.01	1416.02
402.21	1392.62
402.40	1596.25
402.59	1404.32
402.78	1453.47
402.97	1476.88
403.17	1542.41
403.36	1575.18
403.55	1514.33
403.74	1586.88
403.93	1474.54
404.13	1619.65
404.32	1617.31
404.51	1586.88
404.70	1575.18
404.89	1619.65
405.09	1743.70
405.28	1621.99
405.47	1687.53
405.66	1657.10
405.85	1633.69
406.05	1671.14
406.24	1708.59
406.43	1727.32
406.62	1792.85
406.81	1760.08
407.00	1764.76
407.20	1816.26
407.39	1640.72
407.58	1816.26
407.77	1853.70
407.96	1858.39
408.15	1942.64
408.34	1844.34
408.54	1877.11
408.73	1966.05
408.92	1982.43
409.11	1895.83
409.30	1933.28
409.49	2003.50
409.68	2050.31
409.87	1919.24
410.07	2010.52
410.26	2108.82
410.45	2029.24
410.64	2108.82
410.83	2162.66
411.02	2050.31
411.21	2211.81
411.40	2160.31
411.59	2148.61
411.78	2172.02
411.98	2202.44
412.17	2174.36
412.36	2345.22
412.55	2368.62
412.74	2373.30
412.93	2363.94
413.12	2370.96
413.31	2476.29
413.50	2340.54
413.69	2317.13
413.88	2410.75
414.07	2434.16
414.26	2466.92
414.45	2516.08
414.64	2471.61
414.83	2525.44
415.02	2672.89
415.22	2672.89
415.41	2588.63
415.60	2576.93
415.79	2736.09
415.98	2686.94
416.17	2670.55
416.36	2679.91
416.55	2738.43
416.74	2722.04
416.93	2745.45
417.12	2876.52
417.31	2850.77
417.50	2883.54
417.69	3042.70
417.88	2895.24
418.07	2984.18
418.26	3059.08
418.45	3066.10
418.64	3119.93
418.83	3066.10
419.02	3089.51
419.21	3112.91
419.39	3157.38
419.58	3038.02
419.77	2958.44
419.96	3162.06
420.15	3138.66
420.34	3117.59
420.53	3157.38
420.72	3145.68
420.91	3157.38
421.10	3208.87
421.29	3295.47
421.48	3229.94
421.67	3225.26
421.86	3309.52
422.05	3222.92
422.24	3297.81
422.43	3300.16
422.61	3335.26
422.80	3503.78
422.99	3435.91
423.18	3403.14
423.37	3499.10
423.56	3468.67
423.75	3337.60
423.94	3382.07
424.13	3229.94
424.32	3248.66
424.50	3316.54
424.69	3428.88
424.88	3506.12
425.07	3379.73
425.26	3297.81
425.45	3346.97
425.64	3337.60
425.83	3330.58
426.01	3585.70
426.20	3466.33
426.39	3421.86
426.58	3475.70
426.77	3536.55
426.96	3405.48
427.15	3524.85
427.33	3499.10
427.52	3669.96
427.71	3590.38
427.90	3651.24
428.09	3604.42
428.28	3552.93
428.46	3721.45
428.65	3618.47
428.84	3803.37
429.03	3782.31
429.22	3667.62
429.40	3604.42
429.59	3803.37
429.78	3648.90
429.97	3632.51
430.16	3602.08
430.34	3735.50
430.53	3765.92
430.72	3852.52
430.91	3861.88
431.10	3864.22
431.28	3822.09
431.47	3967.21
431.66	4002.32
431.85	3887.63
432.03	3950.82
432.22	4070.19
432.41	4102.96
432.60	4147.43
432.79	4112.32
432.97	4102.96
433.16	4095.94
433.35	4014.02
433.54	4301.90
433.72	4245.73
433.91	4100.62
434.10	4351.06
434.28	4166.15
434.47	4147.43
434.66	4241.05
434.85	4222.33
435.03	4231.69
435.22	4252.75
435.41	4430.63
435.59	4442.34
435.78	4393.19
435.97	4456.38
436.16	4435.32
436.34	4400.21
436.53	4550.00
436.72	4557.02
436.90	4411.91
437.09	4571.07
437.28	4531.28
437.46	4451.70
437.65	4461.06
437.84	4573.41
438.02	4489.15
438.21	4582.77
438.40	4561.70
438.58	4718.52
438.77	4849.59
438.96	4741.93
439.14	4652.98
439.33	4894.06
439.52	4854.27
439.70	4985.34
439.89	5001.72
440.08	4894.06
440.26	5034.49
440.45	4922.15
440.63	5043.85
440.82	5181.95
441.01	4877.68
441.19	5165.56
441.38	5210.03
441.57	5268.55
441.75	5320.04
441.94	5509.62
442.12	5338.76
442.31	5322.38
442.50	5315.36
442.68	5359.83
442.87	5355.15
443.05	5364.51
443.24	5446.43
443.43	5460.47
443.61	5654.73
443.80	5724.95
443.98	5507.28
444.17	5123.43
444.35	5408.98
444.54	5563.45
444.73	5584.52
444.91	5467.49
445.10	5612.60
445.28	5680.48
445.47	5671.12
445.65	5518.98
445.84	5645.37
446.02	5628.99
446.21	5497.92
446.39	5673.46
446.58	5643.03
446.77	5654.73
446.95	5570.48
447.14	5816.23
447.32	5715.59
447.51	5771.76
447.69	5654.73
447.88	5678.14
448.06	5844.32
448.25	5813.89
448.43	5858.36
448.62	5806.87
448.80	5682.82
448.99	5916.87
449.17	5935.60
449.36	5809.21
449.54	5989.43
449.73	6005.81
449.91	5970.71
450.10	5921.56
450.28	5954.32
450.46	6038.58
450.65	5975.39
450.83	5951.98
451.02	6043.26
451.20	6237.53
451.39	6127.52
451.57	6179.01
451.76	6108.80
451.94	5984.75
452.13	6193.06
452.31	6246.89
452.49	6256.25
452.68	6225.82
452.86	6338.17
453.05	6408.39
453.23	6314.77
453.42	6284.34
453.60	6216.46
453.78	6319.45
453.97	6370.94
454.15	6420.09
454.34	6225.82
454.52	6548.82
454.70	6504.35
454.89	6464.56
455.07	6483.28
455.26	6778.19
455.44	6677.55
455.62	6588.61
455.81	6771.17
455.99	6782.87
456.17	6803.94
456.36	6703.29
456.54	6815.64
456.73	6963.09
456.91	6766.49
457.09	6991.18
457.28	7077.78
457.46	6876.49
457.64	6998.20
457.83	7246.30
458.01	6829.68
458.19	7265.02
458.38	6923.30
458.56	6906.92
458.74	6995.86
458.93	7143.32
459.11	7162.04
459.29	7222.89
459.48	7307.15
459.66	7131.61
459.84	7286.09
460.03	7274.38
460.21	7295.45
460.39	7339.92
460.57	7236.94
460.76	7454.61
460.94	7403.11
461.12	7623.12
461.31	7332.90
461.49	7470.99
461.67	7449.93
461.85	7674.62
462.04	7648.87
462.22	7960.16
462.40	7740.15
462.59	7712.07
462.77	7775.26
462.95	7648.87
463.13	7721.43
463.32	7845.48
463.50	7810.37
463.68	7552.91
463.86	8077.19
464.05	7775.26
464.23	7737.81
464.41	7929.74
464.59	7709.72
464.78	7969.52
464.96	7950.80
465.14	7915.69
465.32	7983.57
465.50	8037.40
465.69	7981.23
465.87	8058.46
466.05	8102.93
466.23	8236.35
466.41	8341.67
466.60	8318.26
466.78	7960.16
466.96	8028.04
467.14	8149.75
467.32	8250.39
467.51	8306.56
467.69	8088.89
467.87	8311.24
468.05	8252.73
468.23	8409.54
468.41	8243.37
468.60	8355.71
468.78	8456.36
468.96	8243.37
469.14	8463.38
469.32	8727.86
469.50	8269.11
469.69	8741.90
469.87	8706.79
470.05	8758.28
470.23	8830.84
470.41	8727.86
470.59	8901.06
470.77	8952.55
470.95	8926.80
471.14	8887.01
471.32	8784.03
471.50	9004.04
471.68	8959.57
471.86	9027.45
472.04	9076.60
472.22	9226.39
472.40	9198.31
472.58	9107.02
472.77	9200.65
472.95	9408.95
473.13	9748.33
473.31	9320.01
473.49	9352.78
473.67	9439.38
473.85	9561.09
474.03	9516.62
474.21	9713.22
474.39	9738.97
474.57	9769.40
474.75	9989.41
474.93	9893.44
475.12	9837.27
475.30	9745.99
475.48	9881.74
475.66	9980.04
475.84	9921.53
476.02	9928.55
476.20	10101.75
476.38	10298.36
476.56	10560.50
476.74	10595.61
476.92	10359.21
477.10	10410.70
477.28	10707.95
477.46	10752.42
477.64	10670.50
477.82	10895.19
478.00	11115.20
478.18	10974.77
478.36	11108.18
478.54	11082.44
478.72	10977.11
478.90	11309.47
479.08	11440.54
479.26	11653.53
479.44	11459.26
479.62	11669.91
479.80	11796.30
479.98	11796.30
480.16	11988.22
480.34	12098.23
480.52	12233.98
480.70	12166.10
480.88	12100.57
481.06	12156.74
481.24	12294.83
481.41	12442.29
481.59	12697.41
481.77	12596.76
481.95	12678.68
482.13	13006.36
482.31	12781.67
482.49	12989.97
482.67	13156.15
482.85	13125.72
483.03	13497.87
483.21	13404.25
483.39	13724.90
483.57	13631.28
483.74	13642.98
483.92	13977.68
484.10	14008.11
484.28	14080.66
484.46	14384.93
484.64	14806.23
484.82	14338.12
485.00	14801.55
485.18	14574.52
485.35	15094.11
485.53	14925.60
485.71	15091.77
485.89	15410.09
486.07	15185.40
486.25	15346.89
486.43	15499.03
486.61	15412.43
486.78	15913.30
486.96	15822.02
487.14	16016.29
487.32	16037.35
487.50	16278.43
487.68	16177.78
487.85	16446.94
488.03	16613.12
488.21	16608.44
488.39	16704.40
488.57	16936.12
488.75	16793.34
488.92	17357.41
489.10	17326.99
489.28	17252.09
489.46	17502.53
489.64	17848.93
489.81	18146.17
489.99	18253.84
490.17	18380.23
490.35	18558.11
490.53	18218.73
490.70	18324.05
490.88	18410.65
491.06	18801.52
491.24	18820.25
491.41	18897.49
491.59	19023.87
491.77	18867.06
491.95	19288.35
492.13	19208.78
492.30	19489.64
492.48	19480.28
492.66	19637.09
492.84	19784.55
493.01	19850.08
493.19	20107.54
493.37	20088.82
493.54	20381.38
493.72	20697.36
493.90	20631.82
494.08	20271.38
494.25	20725.44
494.43	20688.00
494.61	20879.92
494.79	20842.47
494.96	21076.52
495.14	21322.28
495.32	21188.87
495.49	21666.34
495.67	21701.45
495.85	21561.02
496.02	21675.70
496.20	22122.74
496.38	22443.40
496.55	22394.25
496.73	22913.84
496.91	22434.03
497.09	22663.41
497.26	22789.80
497.44	22677.45
497.62	22916.19
497.79	23033.21
497.97	22902.14
498.14	23503.66
498.32	23253.22
498.50	23601.96
498.67	23562.17
498.85	23630.05
499.03	23459.19
499.20	23857.08
499.38	24236.25
499.56	24477.32
499.73	24154.33
499.91	24245.61
500.08	24357.96
500.26	24489.03
500.44	24439.87
500.61	24540.52
500.79	24491.37
500.97	24533.50
501.14	24933.73
501.32	25104.59
501.49	25284.81
501.67	25160.76
501.84	25397.15
502.02	25226.29
502.20	25488.43
502.37	25525.88
502.55	25844.20
502.72	25811.43
502.90	25685.04
503.07	25467.37
503.25	25811.43
503.43	25556.31
503.60	26244.43
503.78	26326.35
503.95	26298.26
504.13	26331.03
504.30	26553.38
504.48	26441.03
504.65	26801.47
504.83	26890.41
505.01	27424.06
505.18	26792.11
505.36	27014.46
505.53	27168.94
505.71	27065.96
505.88	27229.79
506.06	27152.55
506.23	27349.16
506.41	27283.62
506.58	27608.96
506.76	27613.64
506.93	27838.33
507.11	27531.72
507.28	27969.40
507.46	27882.80
507.63	27721.30
507.81	28020.89
507.98	27990.47
508.16	28208.14
508.33	28400.06
508.50	28481.98
508.68	28587.30
508.85	28739.44
509.03	28388.36
509.20	28961.79
509.38	28999.24
509.55	29090.52
509.73	28940.72
509.90	29359.68
510.08	29198.18
510.25	29268.40
510.42	29654.59
510.60	29518.84
510.77	29270.74
510.95	29944.81
511.12	29357.34
511.30	29434.58
511.47	29659.27
511.64	29741.19
511.82	30036.09
511.99	30228.02
512.17	30125.04
512.34	30300.58
512.51	30693.79
512.69	30281.85
512.86	30492.50
513.04	30506.54
513.21	30581.44
513.38	30576.76
513.56	31110.40
513.73	30838.90
513.90	30810.81
514.08	30955.93
514.25	30981.67
514.43	31325.73
514.60	31358.50
514.77	31630.00
514.95	31758.73
515.12	31299.98
515.29	31335.09
515.47	31477.86
515.64	31793.84
515.81	31222.75
515.99	32013.85
516.16	31828.95
516.33	31936.61
516.51	32020.87
516.68	31985.76
516.85	31995.12
517.03	32196.41
517.20	32439.82
517.37	32194.07
517.54	32231.52
517.72	32409.40
517.89	32514.72
518.06	32737.07
518.24	32664.52
518.41	32694.94
518.58	32889.21
518.75	32921.98
518.93	32886.87
519.10	33074.11
519.27	33237.95
519.45	32943.04
519.62	33493.07
519.79	33689.67
519.96	33137.30
520.14	33179.43
520.31	33537.54
520.48	33610.09
520.65	33888.62
520.83	34146.08
521.00	34052.45
521.17	34033.73
521.34	33986.92
521.52	34316.93
521.69	34349.70
521.86	34225.65
522.03	34487.79
522.20	34459.71
522.38	34742.91
522.55	34752.27
522.72	34506.52
522.89	34625.89
523.07	34745.25
523.24	35145.48
523.41	35000.37
523.58	34850.58
523.75	35431.03
523.92	35276.55
524.10	35391.24
524.27	35695.51
524.44	35747.00
524.61	35732.96
524.78	35445.07
524.96	35892.12
525.13	35672.10
525.30	36039.57
525.47	35920.20
525.64	35934.24
525.81	36088.72
525.98	35716.58
526.16	36250.22
526.33	35735.30
526.50	36460.87
526.67	36180.00
526.84	36025.53
527.01	36147.23
527.18	36240.86
527.36	36542.78
527.53	36627.04
527.70	37078.77
527.87	36751.09
528.04	36435.12
528.21	36346.18
528.38	36622.36
528.55	37160.69
528.72	36947.70
528.89	36556.83
529.07	37294.10
529.24	36753.43
529.41	37127.92
529.58	37172.39
529.75	37432.19
529.92	37436.87
530.09	37043.66
530.26	37806.67
530.43	37675.60
530.60	37385.38
530.77	37563.26
530.94	37860.51
531.11	37315.16
531.28	37722.41
531.46	37759.86
531.63	38209.25
531.80	37654.54
531.97	38082.86
532.14	37710.71
532.31	38190.52
532.48	37930.72
532.65	38174.14
532.82	37813.70
532.99	37935.40
533.16	37811.35
533.33	38335.63
533.50	38651.61
533.67	38763.95
533.84	38225.63
534.01	38789.70
534.18	38698.42
534.35	39103.33
534.52	38628.20
534.69	39643.99
534.86	38773.31
535.03	38773.31
535.20	38918.43
535.37	39143.12
535.54	39009.71
535.71	38946.51
535.88	39194.61
536.05	39250.78
536.22	39611.23
536.38	39494.20
536.55	39620.59
536.72	39381.85
536.89	39108.01
537.06	39398.24
537.23	39541.01
537.40	39168.87
537.57	39246.10
537.74	39360.79
537.91	39662.72
538.08	40119.12
538.25	39672.08
538.42	39821.87
538.59	39814.85
538.75	39875.71
538.92	40449.14
539.09	40137.85
539.26	39739.96
539.43	40451.48
539.60	40498.29
539.77	40032.52
539.94	40292.32
540.11	40561.48
540.28	40978.10
540.44	40205.72
540.61	40371.90
540.78	40320.41
540.95	40580.21
541.12	40954.69
541.29	40350.84
541.46	40669.15
541.62	40570.85
541.79	40851.71
541.96	40701.92
542.13	40671.49
542.30	40767.45
542.47	40816.60
542.63	41069.38
542.80	41200.45
542.97	41273.01
543.14	42089.85
543.31	41331.52
543.48	40886.82
543.64	41617.07
543.81	42183.48
543.98	41497.70
544.15	41698.98
544.32	41958.78
544.48	41680.26
544.65	41698.98
544.82	41717.71
544.99	41759.84
545.16	42019.64
545.32	41830.05
545.49	42291.14
545.66	42546.26
545.83	41991.55
546.00	42237.31
546.16	42319.23
546.33	42054.75
546.50	42277.10
546.67	42316.89
546.83	41682.60
547.00	42284.12
547.17	42483.06
547.34	42401.14
547.50	42553.28
547.67	42899.68
547.84	42770.95
548.00	42642.22
548.17	43051.81
548.34	42902.02
548.51	43028.41
548.67	43096.28
548.84	42855.21
549.01	42796.70
549.18	43016.71
549.34	43367.79
549.51	43339.70
549.68	43084.58
549.84	42794.36
550.01	43040.11
550.18	42960.53
550.34	43643.97
550.51	43349.06
550.68	43119.69
550.84	43309.27
551.01	43234.38
551.18	42976.92
551.34	43370.13
551.51	43290.55
551.68	43475.45
551.84	43615.88
552.01	43260.12
552.18	43667.37
552.34	43377.15
552.51	43746.95
552.68	43489.49
552.84	43213.31
553.01	43686.10
553.18	43957.60
553.34	43878.02
553.51	43725.89
553.67	43875.68
553.84	43845.26
554.01	44027.82
554.17	43824.19
554.34	44016.11
554.51	43875.68
554.67	44308.68
554.84	44399.96
555.00	44247.83
555.17	44282.94
555.33	44399.96
555.50	44392.94
555.67	44039.52
555.83	44233.78
556.00	44575.50
556.16	44863.39
556.33	44631.68
556.50	44395.28
556.66	44800.19
556.83	43894.41
556.99	44718.28
557.16	44751.04
557.32	45305.75
557.49	44910.20
557.65	44788.49
557.82	44437.41
557.98	44694.87
558.15	44666.78
558.32	45109.14
558.48	44472.52
558.65	45120.85
558.81	44442.09
558.98	44933.60
559.14	44521.67
559.31	44919.56
559.47	44741.68
559.64	44816.58
559.80	44786.15
559.97	45542.14
560.13	44350.81
560.30	45310.43
560.46	45549.17
560.63	45668.53
560.79	45097.44
560.96	45308.09
561.12	45205.11
561.29	45380.65
561.45	45411.07
561.61	45272.98
561.78	45158.30
561.94	45361.92
562.11	45710.66
562.27	45940.04
562.44	45338.52
562.60	45509.38
562.77	45287.03
562.93	45551.51
563.10	45282.34
563.26	45240.21
563.42	45542.14
563.59	45347.88
563.75	45998.55
563.92	45720.02
564.08	45048.29
564.24	45682.58
564.41	45411.07
564.57	45918.97
564.74	45851.09
564.90	45682.58
565.07	45535.12
565.23	45460.23
565.39	45270.64
565.56	45783.22
565.72	45923.65
565.88	45757.47
566.05	45612.36
566.21	45633.42
566.38	46096.85
566.54	46019.61
566.70	46394.10
566.87	46106.21
567.03	45830.03
567.19	46047.70
567.36	45872.16
567.52	45879.18
567.68	46234.94
567.85	46202.18
568.01	45937.69
568.17	45755.13
568.34	46160.05
568.50	45874.50
568.66	45951.74
568.83	46024.29
568.99	46019.61
569.15	46209.20
569.32	46124.94
569.48	45968.12
569.64	46651.56
569.81	46234.94
569.97	46349.63
570.13	46403.46
570.30	46010.25
570.46	46274.73
570.62	46354.31
570.78	46583.68
570.95	46419.84
571.11	46087.49
571.27	46150.68
571.43	45675.55
571.60	46335.59
571.76	46328.56
571.92	46389.42
572.09	46405.80
572.25	46408.14
572.41	46209.20
572.57	46326.22
572.74	46546.23
572.90	46438.57
573.06	46389.42
573.22	46490.06
573.38	46567.30
573.55	46588.36
573.71	46733.48
573.87	46576.66
574.03	46667.94
574.20	46581.34
574.36	46447.93
574.52	46557.94
574.68	46265.37
574.84	46408.14
575.01	46761.56
575.17	46845.82
575.33	46583.68
575.49	46330.90
575.65	46576.66
575.82	46735.82
575.98	46543.89
576.14	46756.88
576.30	46550.91
576.46	46532.19
576.62	46307.50
576.79	46415.16
576.95	46185.79
577.11	46351.97
577.27	46490.06
577.43	46733.48
577.59	46625.81
577.75	46492.40
577.92	46251.33
578.08	46768.58
578.24	46637.51
578.40	46597.73
578.56	46944.12
578.72	46660.92
578.88	46838.80
579.04	47004.98
579.21	46494.74
579.37	46768.58
579.53	46754.54
579.69	46754.54
579.85	46679.64
580.01	46979.23
580.17	46560.28
580.33	46927.74
580.49	47026.04
580.65	46822.42
580.82	46887.95
580.98	46761.56
581.14	46422.19
581.30	46920.72
581.46	46653.90
581.62	46913.70
581.78	46787.31
581.94	46878.59
582.10	46810.71
582.26	46773.27
582.42	46808.37
582.58	46639.86
582.74	46784.97
582.90	47014.34
583.06	46642.20
583.22	46845.82
583.38	46965.19
583.54	46480.70
583.70	46923.06
583.86	46784.97
584.02	46857.52
584.18	46822.42
584.34	47210.95
584.50	47372.44
584.66	47587.77
584.82	46878.59
584.98	46946.47
585.14	47140.73
585.30	46880.93
585.46	46885.61
585.62	47007.32
585.78	46834.12
585.94	46721.77
586.10	47327.97
586.26	46721.77
586.42	46724.11
586.58	47129.03
586.74	47112.64
586.90	46925.40
587.06	47019.02
587.22	47283.50
587.38	46845.82
587.54	47363.08
587.70	47491.81
587.86	46831.78
588.02	46810.71
588.18	46990.94
588.34	47072.85
588.49	47040.09
588.65	46768.58
588.81	47047.11
588.97	47470.75
589.13	47136.05
589.29	47232.01
589.45	47346.70
589.61	47173.50
589.77	47337.33
589.93	47250.74
590.08	47255.42
