SpectraSuite Data File
++++++++++++++++++++++++++++++++++++
Date: Fri Oct 25 11:26:09 EDT 2013
User: price-jones
Dark Spectrum Present: No
Reference Spectrum Present: No
Number of Sampled Component Spectra: 1
Spectrometers: USB2+H05261
Integration Time (usec): 100000 (USB2+H05261)
Spectra Averaged: 1 (USB2+H05261)
Boxcar Smoothing: 0 (USB2+H05261)
Correct for Electrical Dark: No (USB2+H05261)
Strobe/Lamp Enabled: No (USB2+H05261)
Correct for Detector Non-linearity: No (USB2+H05261)
Correct for Stray Light: No (USB2+H05261)
Number of Pixels in Processed Spectrum: 2048
>>>>>Begin Processed Spectral Data<<<<<
365.73	278.52
365.92	278.52
366.12	278.52
366.32	215.33
366.52	98.30
366.72	140.43
366.91	152.13
367.11	60.85
367.31	203.63
367.51	140.43
367.70	119.37
367.90	98.30
368.10	126.39
368.30	128.73
368.49	100.64
368.69	135.75
368.89	154.48
369.09	196.60
369.28	44.47
369.48	175.54
369.68	142.77
369.87	238.73
370.07	250.44
370.27	210.65
370.47	388.53
370.66	557.05
370.86	671.73
371.06	667.05
371.25	676.41
371.45	716.20
371.65	683.44
371.84	620.24
372.04	753.65
372.24	688.12
372.44	727.91
372.63	788.76
372.83	777.06
373.03	767.70
373.22	723.23
373.42	748.97
373.62	777.06
373.81	844.93
374.01	903.45
374.21	828.55
374.40	828.55
374.60	866.00
374.79	814.51
374.99	828.55
375.19	828.55
375.38	905.79
375.58	919.83
375.78	861.32
375.97	861.32
376.17	931.53
376.37	924.51
376.56	957.28
376.76	851.96
376.95	912.81
377.15	947.92
377.35	873.02
377.54	931.53
377.74	844.93
377.93	896.43
378.13	945.58
378.33	849.61
378.52	966.64
378.72	858.98
378.91	929.19
379.11	980.68
379.31	933.87
379.50	912.81
379.70	926.85
379.89	1020.47
380.09	924.51
380.28	924.51
380.48	999.41
380.68	959.62
380.87	980.68
381.07	994.73
381.26	1050.90
381.46	964.30
381.65	1043.88
381.85	1116.44
382.04	1191.33
382.24	1071.97
382.43	1022.81
382.63	1104.73
382.83	1050.90
383.02	1128.14
383.22	1062.60
383.41	1081.33
383.61	1214.74
383.80	1132.82
384.00	1086.01
384.19	1160.91
384.39	1095.37
384.58	1114.10
384.78	1196.01
384.97	1196.01
385.17	1165.59
385.36	1121.12
385.56	1287.29
385.75	1242.82
385.95	1179.63
386.14	1153.88
386.34	1235.80
386.53	1184.31
386.72	1294.32
386.92	1219.42
387.11	1306.02
387.31	1245.16
387.50	1228.78
387.70	1282.61
387.89	1259.21
388.09	1289.64
388.28	1289.64
388.48	1345.81
388.67	1270.91
388.86	1355.17
389.06	1259.21
389.25	1338.79
389.45	1338.79
389.64	1308.36
389.84	1409.00
390.03	1315.38
390.22	1409.00
390.42	1320.06
390.61	1427.73
390.81	1493.26
391.00	1453.47
391.19	1472.20
391.39	1481.56
391.58	1469.86
391.78	1348.15
391.97	1453.47
392.16	1500.28
392.36	1596.25
392.55	1540.07
392.75	1556.46
392.94	1472.20
393.13	1542.41
393.33	1603.27
393.52	1535.39
393.71	1570.50
393.91	1547.09
394.10	1579.86
394.29	1724.97
394.49	1540.07
394.68	1652.42
394.88	1668.80
395.07	1631.35
395.26	1612.63
395.46	1675.82
395.65	1748.38
395.84	1767.10
396.04	1720.29
396.23	1736.68
396.42	1781.15
396.62	1706.25
396.81	1762.42
397.00	1781.15
397.19	1895.83
397.39	1781.15
397.58	1851.36
397.77	1830.30
397.97	1722.63
398.16	1842.00
398.35	1888.81
398.55	1774.13
398.74	1930.94
398.93	1982.43
399.12	1975.41
399.32	1867.75
399.51	1977.75
399.70	1956.69
399.90	1947.33
400.09	1795.19
400.28	2031.58
400.47	2010.52
400.67	2038.61
400.86	2062.01
401.05	2087.76
401.24	2054.99
401.44	2071.37
401.63	2157.97
401.82	2188.40
402.01	2099.46
402.21	2183.72
402.40	2230.53
402.59	2218.83
402.78	2202.44
402.97	2267.98
403.17	2218.83
403.36	2253.94
403.55	2204.78
403.74	2406.07
403.93	2408.41
404.13	2359.26
404.32	2349.90
404.51	2499.69
404.70	2321.81
404.89	2396.71
405.09	2483.31
405.28	2469.27
405.47	2457.56
405.66	2525.44
405.85	2560.55
406.05	2448.20
406.24	2527.78
406.43	2595.65
406.62	2619.06
406.81	2658.85
407.00	2682.25
407.20	2506.71
407.39	2546.50
407.58	2693.96
407.77	2616.72
407.96	2722.04
408.15	2670.55
408.34	2782.90
408.54	2729.06
408.73	2738.43
408.92	2834.39
409.11	2726.72
409.30	2850.77
409.49	2918.65
409.68	2984.18
409.87	2939.71
410.07	2974.82
410.26	3059.08
410.45	3012.27
410.64	2972.48
410.83	3101.21
411.02	3019.29
411.21	3166.74
411.40	3176.11
411.59	3206.53
411.78	3152.70
411.98	3229.94
412.17	3361.01
412.36	3236.96
412.55	3304.84
412.74	3417.18
412.93	3337.60
413.12	3304.84
413.31	3646.55
413.50	3475.70
413.69	3447.61
413.88	3583.36
414.07	3611.45
414.26	3726.13
414.45	3646.55
414.64	3630.17
414.83	3667.62
415.02	3728.47
415.22	3791.67
415.41	3775.28
415.60	3733.15
415.79	3782.31
415.98	3866.56
416.17	3864.22
416.36	3915.72
416.55	3920.40
416.74	4044.45
416.93	4091.26
417.12	4011.68
417.31	4210.62
417.50	4234.03
417.69	4255.09
417.88	4231.69
418.07	4273.82
418.26	4402.55
418.45	4250.41
418.64	4526.60
418.83	4381.48
419.02	4301.90
419.21	4454.04
419.39	4582.77
419.58	4456.38
419.77	4435.32
419.96	4622.56
420.15	4519.57
420.34	4435.32
420.53	4535.96
420.72	4634.26
420.91	4615.54
421.10	4685.75
421.29	4734.90
421.48	4697.46
421.67	4938.53
421.86	4837.89
422.05	4791.08
422.24	4791.08
422.43	4873.00
422.61	4868.31
422.80	4821.50
422.99	4854.27
423.18	4940.87
423.37	4990.02
423.56	4952.57
423.75	4863.63
423.94	4847.25
424.13	4603.83
424.32	4781.71
424.50	4917.47
424.69	5114.07
424.88	5013.43
425.07	5013.43
425.26	4809.80
425.45	4873.00
425.64	4919.81
425.83	4971.30
426.01	5111.73
426.20	4985.34
426.39	4945.55
426.58	4954.91
426.77	5172.58
426.96	5078.96
427.15	5036.83
427.33	5181.95
427.52	5177.26
427.71	5144.50
427.90	5188.97
428.09	5423.02
428.28	5226.42
428.46	5334.08
428.65	5275.57
428.84	5511.96
429.03	5455.79
429.22	5350.46
429.40	5504.94
429.59	5275.57
429.78	5135.14
429.97	5254.50
430.16	5556.43
430.34	5596.22
430.53	5706.23
430.72	5643.03
430.91	5624.31
431.10	5511.96
431.28	5481.53
431.47	5748.36
431.66	5832.62
431.85	5764.74
432.03	5982.41
432.22	5818.57
432.41	5802.19
432.60	6036.24
432.79	5912.19
432.97	6200.08
433.16	5837.30
433.35	5937.94
433.54	6024.54
433.72	6071.35
433.91	6160.29
434.10	6078.37
434.28	5980.07
434.47	6164.97
434.66	6291.36
434.85	6251.57
435.03	6183.70
435.22	6122.84
435.41	6324.13
435.59	6420.09
435.78	6438.81
435.97	6551.16
436.16	6324.13
436.34	6340.51
436.53	6434.13
436.72	6684.57
436.90	6396.68
437.09	6516.05
437.28	6462.22
437.46	6595.63
437.65	6590.95
437.84	6670.53
438.02	6712.66
438.21	6789.89
438.40	6663.51
438.58	6991.18
438.77	6890.54
438.96	7054.37
439.14	7143.32
439.33	7187.79
439.52	7166.72
439.70	7162.04
439.89	7421.84
440.08	7384.39
440.26	7435.88
440.45	7379.71
440.63	7314.17
440.82	7482.69
441.01	7506.10
441.19	7492.05
441.38	7686.32
441.57	7770.58
441.75	7782.28
441.94	7981.23
442.12	7981.23
442.31	7887.61
442.50	8074.85
442.68	7850.16
442.87	7702.70
443.05	8016.33
443.24	8116.98
443.43	8215.28
443.61	8187.19
443.80	8294.86
443.98	7941.44
444.17	7786.96
444.35	8236.35
444.54	8301.88
444.73	8252.73
444.91	8112.30
445.10	8219.96
445.28	8325.29
445.47	8100.59
445.65	8393.16
445.84	8259.75
446.02	8493.80
446.21	8355.71
446.39	8191.88
446.58	8315.92
446.77	8329.97
446.95	8320.60
447.14	8500.83
447.32	8468.06
447.51	8475.08
447.69	8379.12
447.88	8512.53
448.06	8617.85
448.25	8353.37
448.43	8608.49
448.62	8444.65
448.80	8650.62
448.99	8650.62
449.17	8744.24
449.36	8571.04
449.54	8870.63
449.73	9142.13
449.91	8968.93
450.10	8835.52
450.28	8903.40
450.46	9025.11
450.65	8814.46
450.83	8821.48
451.02	8931.48
451.20	9027.45
451.39	9116.39
451.57	9078.94
451.76	9057.87
451.94	9193.62
452.13	9167.88
452.31	9275.54
452.49	9329.38
452.68	9390.23
452.86	9144.47
453.05	9240.44
453.23	9308.31
453.42	9193.62
453.60	9291.93
453.78	9427.68
453.97	9516.62
454.15	9444.06
454.34	9418.32
454.52	9696.84
454.70	9776.42
454.89	9799.82
455.07	9640.67
455.26	9722.59
455.44	9841.95
455.62	9781.10
455.81	9975.36
455.99	9980.04
456.17	10054.94
456.36	9823.23
456.54	10150.90
456.73	10134.52
456.91	10511.35
457.09	10399.00
457.28	10347.51
457.46	10204.74
457.64	10651.78
457.83	10494.96
458.01	10363.89
458.19	10541.77
458.38	10501.98
458.56	10621.35
458.74	10607.31
458.93	10579.22
459.11	10560.50
459.29	10654.12
459.48	10743.06
459.66	10736.04
459.84	11007.54
460.03	10904.56
460.21	10862.43
460.39	10923.28
460.57	10906.90
460.76	10960.73
460.94	10979.45
461.12	11180.74
461.31	11122.23
461.49	11052.01
461.67	10862.43
461.85	11377.34
462.04	11157.33
462.22	11754.17
462.40	11660.55
462.59	11435.86
462.77	11367.98
462.95	11620.76
463.13	11386.71
463.32	11634.80
463.50	11658.21
463.68	11637.14
463.86	11854.81
464.05	11468.62
464.23	11735.45
464.41	11910.99
464.59	11686.29
464.78	11971.84
464.96	11808.00
465.14	11889.92
465.32	11990.56
465.50	12105.25
465.69	11920.35
465.87	12245.68
466.05	12072.48
466.23	12028.01
466.41	12074.82
466.60	12449.31
466.78	12177.81
466.96	12479.74
467.14	12107.59
467.32	12343.99
467.51	12573.36
467.69	12170.79
467.87	12587.40
468.05	12381.43
468.23	12346.33
468.41	12470.37
468.60	12510.16
468.78	12664.64
468.96	12468.03
469.14	12634.21
469.32	12854.22
469.50	12734.85
469.69	12629.53
469.87	13071.89
470.05	12844.86
470.23	13193.60
470.41	13174.88
470.59	13504.89
470.77	13420.63
470.95	13057.85
471.14	13497.87
471.32	12858.90
471.50	13680.43
471.68	13556.38
471.86	13500.21
472.04	13486.17
472.22	13802.14
472.40	13848.95
472.58	13825.54
472.77	13937.89
472.95	14197.69
473.13	14743.03
473.31	14057.26
473.49	14209.39
473.67	14216.41
473.85	14218.75
474.03	14651.75
474.21	14305.35
474.39	14600.26
474.57	14518.34
474.75	14628.35
474.93	14640.05
475.12	15051.99
475.30	14995.81
475.48	14796.87
475.66	14977.09
475.84	14995.81
476.02	15435.83
476.20	15454.56
476.38	15646.48
476.56	15751.81
476.74	15665.21
476.92	15693.29
477.10	15683.93
477.28	16140.33
477.46	16027.99
477.64	16072.46
477.82	16484.39
478.00	16702.06
478.18	16746.53
478.36	16893.99
478.54	17350.39
478.72	17020.38
478.90	17266.13
479.08	17249.75
479.26	17502.53
479.44	17502.53
479.62	18043.19
479.80	17886.37
479.98	18134.47
480.16	18471.51
480.34	18073.62
480.52	18525.34
480.70	18642.37
480.88	18515.98
481.06	18546.40
481.24	18860.04
481.41	19124.52
481.59	19157.28
481.77	19379.64
481.95	19393.68
482.13	19690.93
482.31	19646.46
482.49	20013.92
482.67	19988.18
482.85	19976.47
483.03	20552.24
483.21	20671.61
483.39	20737.15
483.57	21219.30
483.74	21102.27
483.92	21191.21
484.10	21099.93
484.28	21549.31
484.46	21965.93
484.64	22380.20
484.82	21799.75
485.00	22398.93
485.18	22965.34
485.35	22752.35
485.53	22539.36
485.71	23012.15
485.89	23463.87
486.07	23040.23
486.25	23260.24
486.43	23632.39
486.61	23990.49
486.78	23931.98
486.96	24004.53
487.14	24224.54
487.32	24224.54
487.50	24666.91
487.68	25057.78
487.85	24922.02
488.03	25458.01
488.21	25418.22
488.39	25720.15
488.57	25743.55
488.75	25841.85
488.92	26665.72
489.10	26682.11
489.28	26663.38
489.46	26719.56
489.64	26794.45
489.81	27482.57
489.99	27466.19
490.17	27725.99
490.35	28079.41
490.53	28065.36
490.70	28446.87
490.88	28334.53
491.06	28498.36
491.24	28348.57
491.41	28587.30
491.59	29359.68
491.77	29170.10
491.95	29294.14
492.13	29539.90
492.30	29551.60
492.48	29898.00
492.66	30204.61
492.84	30167.16
493.01	30747.62
493.19	30403.56
493.37	30810.81
493.54	31208.70
493.72	31470.84
493.90	31435.74
494.08	31702.56
494.25	31943.63
494.43	31990.44
494.61	31985.76
494.79	32058.32
494.96	32339.18
495.14	32346.20
495.32	33078.79
495.49	32961.76
495.67	32910.27
495.85	33127.94
496.02	33464.98
496.20	34110.97
496.38	34335.66
496.55	33991.60
496.73	34139.05
496.91	34588.44
497.09	34651.63
497.26	34782.70
497.44	34534.60
497.62	34995.69
497.79	35409.96
497.97	35515.29
498.14	36144.89
498.32	36254.90
498.50	36336.82
498.67	36224.47
498.85	36294.69
499.03	36587.25
499.20	36680.88
499.38	36893.86
499.56	36879.82
499.73	36966.42
499.91	37083.45
500.08	37411.12
500.26	37654.54
500.44	37483.68
500.61	37801.99
500.79	37392.40
500.97	37792.63
501.14	38422.23
501.32	38141.37
501.49	38429.26
501.67	38562.67
501.84	38562.67
502.02	38677.35
502.20	38902.04
502.37	39360.79
502.55	39552.71
502.72	39447.39
502.90	39274.19
503.07	39398.24
503.25	39805.49
503.43	39697.83
503.60	39578.46
503.78	40163.59
503.95	40147.21
504.13	39992.73
504.30	40362.54
504.48	40189.34
504.65	41003.85
504.83	40645.74
505.01	41015.55
505.18	40727.66
505.36	41174.70
505.53	40818.94
505.71	41455.57
505.88	41483.66
506.06	41282.37
506.23	42026.66
506.41	41684.94
506.58	41502.38
506.76	42148.37
506.93	42485.40
507.11	42033.68
507.28	42714.78
507.46	42546.26
507.63	42672.65
507.81	43262.46
507.98	42632.86
508.16	42859.89
508.33	43021.39
508.50	42855.21
508.68	43983.35
508.85	43910.79
509.03	43606.52
509.20	44231.44
509.38	44144.84
509.55	43952.92
509.73	44194.00
509.90	44542.74
510.08	43922.49
510.25	44140.16
510.42	44552.10
510.60	44947.65
510.77	44598.91
510.95	44601.25
511.12	45160.64
511.30	44907.86
511.47	45219.15
511.64	45263.62
511.82	45301.07
511.99	45340.86
512.17	45600.66
512.34	45823.01
512.51	45806.62
512.69	46143.66
512.86	46284.09
513.04	46808.37
513.21	46560.28
513.38	46195.15
513.56	46787.31
513.73	46471.34
513.90	46974.55
514.08	46368.35
514.25	47168.82
514.43	47161.79
514.60	47915.45
514.77	47316.27
514.95	47665.01
515.12	47157.11
515.29	47306.91
515.47	47894.38
515.64	47538.62
515.81	47653.31
515.99	48266.53
516.16	47957.58
516.33	48130.78
516.51	48254.82
516.68	48266.53
516.85	48428.02
517.03	48495.90
517.20	48643.35
517.37	48610.59
517.54	48811.87
517.72	48964.01
517.89	49074.01
518.06	48924.22
518.24	48659.74
518.41	49244.87
518.58	48816.55
518.75	49017.84
518.93	49240.19
519.10	49127.84
519.27	49471.90
519.45	49553.82
519.62	49663.83
519.79	49745.75
519.96	49366.58
520.14	50382.37
520.31	49663.83
520.48	50075.76
520.65	50248.96
520.83	50553.23
521.00	50506.42
521.17	50375.35
521.34	50609.40
521.52	50637.49
521.69	50660.90
521.86	50948.78
522.03	51070.49
522.20	51110.28
522.38	51049.42
522.55	51054.11
522.72	51243.69
522.89	51234.33
523.07	51440.29
523.24	51330.29
523.41	51716.48
523.58	51309.22
523.75	51847.55
523.92	51826.48
524.10	51798.40
524.27	51845.21
524.44	51922.44
524.61	51945.85
524.78	51966.91
524.96	51978.62
525.13	52067.56
525.30	52388.21
525.47	52362.46
525.64	52182.24
525.81	52512.26
525.98	52399.91
526.16	52451.41
526.33	52640.99
526.50	52786.10
526.67	52736.95
526.84	53071.65
527.01	52748.65
527.18	52486.51
527.36	52743.97
527.53	52931.22
527.70	53160.59
527.87	53378.26
528.04	53195.70
528.21	53010.79
528.38	53289.32
528.55	53200.38
528.72	53375.92
528.89	53439.11
529.07	53167.61
529.24	53167.61
529.41	53715.29
529.58	53609.97
529.75	53401.66
529.92	53703.59
530.09	53822.96
530.26	53825.30
530.43	53619.33
530.60	53886.15
530.77	53675.51
530.94	53895.52
531.11	54089.78
531.28	53958.71
531.46	54145.95
531.63	53806.58
531.80	54195.10
531.97	54096.80
532.14	54267.66
532.31	54258.30
532.48	54408.09
532.65	54321.49
532.82	54368.30
532.99	54564.91
533.16	54190.42
533.33	54714.70
533.50	54642.15
533.67	54794.28
533.84	54396.39
534.01	54628.10
534.18	54754.49
534.35	55306.86
534.52	54653.85
534.69	55124.30
534.86	54918.33
535.03	54791.94
535.20	54941.74
535.37	55150.04
535.54	55236.64
535.71	55180.47
535.88	55304.52
536.05	55278.77
536.22	55384.10
536.38	55484.74
536.55	55435.59
536.72	55454.31
536.89	55374.73
537.06	55473.04
537.23	55573.68
537.40	55412.18
537.57	55487.08
537.74	55597.09
537.91	55880.29
538.08	55805.39
538.25	55894.33
538.42	55716.45
538.59	55955.19
538.75	55842.84
538.92	55952.85
539.09	56039.45
539.26	56025.40
539.43	56030.08
539.60	56048.81
539.77	55992.64
539.94	56252.44
540.11	56200.94
540.28	56142.43
540.44	56296.91
540.61	56458.40
540.78	56236.05
540.95	56324.99
541.12	56229.03
541.29	56353.08
541.46	56465.42
541.62	56226.69
541.79	56598.83
541.96	56254.78
542.13	56626.92
542.30	56467.76
542.47	56657.35
542.63	56580.11
542.80	56685.43
542.97	56788.42
543.14	56980.34
543.31	57092.69
543.48	57195.67
543.64	57223.76
543.81	57396.96
543.98	57322.06
544.15	57298.65
544.32	57343.12
544.48	57418.02
544.65	57104.39
544.82	57188.65
544.99	57099.71
545.16	57429.72
545.32	57134.82
545.49	57750.38
545.66	57659.10
545.83	57457.81
546.00	57666.12
546.16	57354.83
546.33	57343.12
546.50	57387.60
546.67	57570.16
546.83	57308.02
547.00	57600.58
547.17	57411.00
547.34	57755.06
547.50	57806.55
547.67	57876.77
547.84	57855.70
548.00	57825.28
548.17	58061.67
548.34	57771.44
548.51	58089.76
548.67	58302.74
548.84	57958.69
549.01	57883.79
549.18	58157.63
549.34	58223.17
549.51	58255.93
549.68	58426.79
549.84	58281.68
550.01	58396.37
550.18	58136.57
550.34	58305.09
550.51	58347.21
550.68	58382.32
550.84	58279.34
551.01	58529.78
551.18	58562.54
551.34	58279.34
551.51	58457.22
551.68	58452.54
551.84	58609.35
552.01	58391.68
552.18	58569.57
552.34	58548.50
552.51	58567.23
552.68	58644.46
552.84	58646.80
553.01	58695.95
553.18	58639.78
553.34	58775.53
553.51	58607.01
553.67	58595.31
553.84	58801.28
554.01	58883.20
554.17	58911.28
554.34	58934.69
554.51	58901.92
554.67	59061.08
554.84	58913.62
555.00	58789.58
555.17	58922.99
555.33	58684.25
555.50	58754.47
555.67	58759.15
555.83	58780.21
556.00	59084.48
556.16	59199.17
556.33	59119.59
556.50	58962.78
556.66	59241.30
556.83	59000.22
556.99	59185.13
557.16	59564.29
557.32	59505.78
557.49	59451.95
557.65	59175.76
557.82	59245.98
557.98	59161.72
558.15	59454.29
558.32	59262.36
558.48	59121.93
558.65	59304.49
558.81	59323.22
558.98	59381.73
559.14	59372.37
559.31	59367.69
559.47	59458.97
559.64	59386.41
559.80	59671.96
559.97	59702.38
560.13	59536.21
560.30	59505.78
560.46	59639.19
560.63	59709.41
560.79	59536.21
560.96	59737.49
561.12	59634.51
561.29	59667.28
561.45	59749.20
561.61	59618.13
561.78	59784.30
561.94	59725.79
562.11	59772.60
562.27	59821.75
562.44	59767.92
562.60	59882.61
562.77	59819.41
562.93	59767.92
563.10	59877.93
563.26	59884.95
563.42	60111.98
563.59	59873.24
563.75	59882.61
563.92	59913.03
564.08	60027.72
564.24	60069.85
564.41	59971.55
564.57	59962.18
564.74	60137.72
564.90	59985.59
565.07	60067.51
565.23	60114.32
565.39	59917.71
565.56	60076.87
565.72	60039.42
565.88	60135.38
566.05	59920.05
566.21	59901.33
566.38	60037.08
566.54	60163.47
566.70	60189.22
566.87	60191.56
567.03	60088.57
567.19	60149.43
567.36	60041.76
567.52	60217.30
567.68	60392.84
567.85	60163.47
568.01	60121.34
568.17	60360.08
568.34	60229.01
568.50	60175.17
568.66	60149.43
568.83	60360.08
568.99	60231.35
569.15	60374.12
569.32	60341.35
569.48	60236.03
569.64	60580.09
569.81	60360.08
569.97	60273.48
570.13	60512.21
570.30	60376.46
570.46	60406.89
570.62	60357.74
570.78	60369.44
570.95	60294.54
571.11	60552.00
571.27	60540.30
571.43	60236.03
571.60	60357.74
571.76	60463.06
571.92	60196.24
572.09	60521.57
572.25	60411.57
572.41	60308.58
572.57	60549.66
572.74	60659.66
572.90	60331.99
573.06	60434.97
573.22	60369.44
573.38	60636.26
573.55	60533.28
573.71	60645.62
573.87	60706.47
574.03	60397.52
574.20	60732.22
574.36	60488.80
574.52	60762.65
574.68	60673.71
574.84	60563.70
575.01	60767.33
575.17	60601.15
575.33	60268.79
575.49	60647.96
575.65	60587.11
575.82	60898.40
575.98	60603.49
576.14	60928.83
576.30	60662.00
576.46	60622.22
576.62	60662.00
576.79	60638.60
576.95	60449.02
577.11	60521.57
577.27	60528.59
577.43	60687.75
577.59	60662.00
577.75	60664.35
577.92	60598.81
578.08	60676.05
578.24	60741.58
578.40	60842.23
578.56	60874.99
578.72	60626.90
578.88	60800.10
579.04	60853.93
579.21	60573.06
579.37	60966.27
579.53	60856.27
579.69	60640.94
579.85	60851.59
580.01	60549.66
580.17	60582.43
580.33	60877.33
580.49	60823.50
580.65	60650.30
580.82	60896.06
580.98	60631.58
581.14	60750.94
581.30	61071.60
581.46	60755.63
581.62	60830.52
581.78	60589.45
581.94	60690.09
582.10	60694.77
582.26	60687.75
582.42	60746.26
582.58	60846.91
582.74	60844.57
582.90	60994.36
583.06	60814.14
583.22	60867.97
583.38	60755.63
583.54	60940.53
583.70	60938.19
583.86	61017.77
584.02	60912.44
584.18	60891.38
584.34	60938.19
584.50	60860.95
584.66	60715.84
584.82	60849.25
584.98	61057.56
585.14	61050.53
585.30	60718.18
585.46	60959.25
585.62	61080.96
585.78	60764.99
585.94	60566.04
586.10	60928.83
586.26	60846.91
586.42	60928.83
586.58	61158.20
586.74	61015.43
586.90	60753.29
587.06	60882.02
587.22	61134.79
587.38	60970.96
587.54	61022.45
587.70	60933.51
587.86	61017.77
588.02	60966.27
588.18	61022.45
588.34	60886.70
588.49	60769.67
