SpectraSuite Data File
++++++++++++++++++++++++++++++++++++
Date: Fri Oct 25 10:44:44 EDT 2013
User: price-jones
Dark Spectrum Present: No
Reference Spectrum Present: No
Number of Sampled Component Spectra: 1
Spectrometers: USB2+H05261
Integration Time (usec): 100000 (USB2+H05261)
Spectra Averaged: 1 (USB2+H05261)
Boxcar Smoothing: 0 (USB2+H05261)
Correct for Electrical Dark: No (USB2+H05261)
Strobe/Lamp Enabled: No (USB2+H05261)
Correct for Detector Non-linearity: No (USB2+H05261)
Correct for Stray Light: No (USB2+H05261)
Number of Pixels in Processed Spectrum: 2048
>>>>>Begin Processed Spectral Data<<<<<
365.73	126.39
365.92	126.39
366.12	126.39
366.32	44.47
366.52	0.00
366.72	0.00
366.91	53.83
367.11	18.72
367.31	0.00
367.51	0.00
367.70	56.17
367.90	70.22
368.10	0.00
368.30	25.75
368.49	4.68
368.69	117.03
368.89	0.00
369.09	2.34
369.28	28.09
369.48	9.36
369.68	63.19
369.87	53.83
370.07	56.17
370.27	133.41
370.47	191.92
370.66	351.08
370.86	379.17
371.06	402.57
371.25	477.47
371.45	416.62
371.65	421.30
371.84	421.30
372.04	428.32
372.24	416.62
372.44	458.74
372.63	470.45
372.83	465.77
373.03	514.92
373.22	496.19
373.42	535.98
373.62	458.74
373.81	557.05
374.01	620.24
374.21	566.41
374.40	491.51
374.60	505.56
374.79	592.16
374.99	510.24
375.19	535.98
375.38	650.67
375.58	641.31
375.78	599.18
375.97	636.63
376.17	592.16
376.37	512.58
376.56	620.24
376.76	505.56
376.95	561.73
377.15	631.94
377.35	648.33
377.54	596.84
377.74	643.65
377.93	564.07
378.13	650.67
378.33	580.45
378.52	575.77
378.72	620.24
378.91	615.56
379.11	587.47
379.31	603.86
379.50	587.47
379.70	594.50
379.89	678.76
380.09	706.84
380.28	592.16
380.48	671.73
380.68	695.14
380.87	678.76
381.07	697.48
381.26	594.50
381.46	681.10
381.65	676.41
381.85	657.69
382.04	575.77
382.24	650.67
382.43	664.71
382.63	645.99
382.83	638.97
383.02	641.31
383.22	746.63
383.41	685.78
383.61	690.46
383.80	741.95
384.00	751.31
384.19	835.57
384.39	692.80
384.58	671.73
384.78	844.93
384.97	751.31
385.17	683.44
385.36	723.23
385.56	653.01
385.75	734.93
385.95	716.20
386.14	814.51
386.34	720.88
386.53	763.01
386.72	753.65
386.92	781.74
387.11	758.33
387.31	791.10
387.50	863.66
387.70	744.29
387.89	866.00
388.09	828.55
388.28	835.57
388.48	851.96
388.67	971.32
388.86	760.67
389.06	840.25
389.25	880.04
389.45	875.36
389.64	870.68
389.84	905.79
390.03	1022.81
390.22	905.79
390.42	915.15
390.61	870.68
390.81	894.08
391.00	985.37
391.19	997.07
391.39	901.11
391.58	961.96
391.78	1032.18
391.97	1011.11
392.16	861.32
392.36	875.36
392.55	873.02
392.75	976.00
392.94	912.81
393.13	915.15
393.33	997.07
393.52	1004.09
393.71	1081.33
393.91	1062.60
394.10	1043.88
394.29	1128.14
394.49	1074.31
394.68	1142.18
394.88	1167.93
395.07	1163.25
395.26	1179.63
395.46	1104.73
395.65	1142.18
395.84	1149.20
396.04	1104.73
396.23	1128.14
396.42	1142.18
396.62	1114.10
396.81	1160.91
397.00	1118.78
397.19	1177.29
397.39	1163.25
397.58	1252.19
397.77	1186.65
397.97	1282.61
398.16	1259.21
398.35	1362.19
398.55	1284.95
398.74	1320.06
398.93	1357.51
399.12	1313.04
399.32	1259.21
399.51	1327.08
399.70	1409.00
399.90	1385.60
400.09	1432.41
400.28	1371.55
400.47	1425.39
400.67	1497.94
400.86	1420.71
401.05	1488.58
401.24	1558.80
401.44	1540.07
401.63	1556.46
401.82	1523.69
402.01	1605.61
402.21	1549.43
402.40	1582.20
402.59	1493.26
402.78	1533.05
402.97	1589.22
403.17	1614.97
403.36	1523.69
403.55	1624.33
403.74	1563.48
403.93	1610.29
404.13	1694.55
404.32	1659.44
404.51	1720.29
404.70	1804.55
404.89	1689.87
405.09	1680.50
405.28	1827.96
405.47	1804.55
405.66	1832.64
405.85	1790.51
406.05	1795.19
406.24	1799.87
406.43	1823.28
406.62	1877.11
406.81	1902.86
407.00	1832.64
407.20	1811.57
407.39	1783.49
407.58	1895.83
407.77	1973.07
407.96	1966.05
408.15	2050.31
408.34	1989.46
408.54	2054.99
408.73	2017.54
408.92	2029.24
409.11	2204.78
409.30	2134.57
409.49	2033.93
409.68	2031.58
409.87	2038.61
410.07	2150.95
410.26	2172.02
410.45	2200.10
410.64	2113.50
410.83	2230.53
411.02	2246.91
411.21	2387.35
411.40	2317.13
411.59	2352.24
411.78	2300.75
411.98	2251.60
412.17	2321.81
412.36	2314.79
412.55	2420.11
412.74	2422.45
412.93	2300.75
413.12	2492.67
413.31	2534.80
413.50	2466.92
413.69	2715.02
413.88	2630.76
414.07	2621.40
414.26	2623.74
414.45	2630.76
414.64	2637.78
414.83	2729.06
415.02	2740.77
415.22	2796.94
415.41	2874.18
415.60	2836.73
415.79	2904.60
415.98	2881.20
416.17	2883.54
416.36	2909.29
416.55	2918.65
416.74	2965.46
416.93	2904.60
417.12	2906.95
417.31	2991.20
417.50	2993.55
417.69	3178.45
417.88	3185.47
418.07	3169.09
418.26	3061.42
418.45	3246.32
418.64	3194.83
418.83	3171.43
419.02	3300.16
419.21	3148.02
419.39	3281.43
419.58	3361.01
419.77	3199.51
419.96	3243.98
420.15	3276.75
420.34	3290.79
420.53	3330.58
420.72	3456.97
420.91	3478.04
421.10	3557.61
421.29	3606.77
421.48	3428.88
421.67	3534.21
421.86	3499.10
422.05	3478.04
422.24	3452.29
422.43	3372.71
422.61	3492.08
422.80	3536.55
422.99	3508.46
423.18	3566.98
423.37	3632.51
423.56	3609.11
423.75	3611.45
423.94	3709.75
424.13	3499.10
424.32	3454.63
424.50	3623.15
424.69	3672.30
424.88	3609.11
425.07	3555.27
425.26	3520.17
425.45	3592.72
425.64	3616.13
425.83	3529.53
426.01	3613.79
426.20	3688.68
426.39	3653.58
426.58	3597.40
426.77	3569.32
426.96	3754.22
427.15	3623.15
427.33	3772.94
427.52	3721.45
427.71	3829.12
427.90	3761.24
428.09	3866.56
428.28	3829.12
428.46	3805.71
428.65	3784.65
428.84	3810.39
429.03	4004.66
429.22	3838.48
429.40	3651.24
429.59	3798.69
429.78	3723.79
429.97	3566.98
430.16	3758.90
430.34	3866.56
430.53	3927.42
430.72	3875.93
430.91	3838.48
431.10	4025.72
431.28	4203.60
431.47	4241.05
431.66	4241.05
431.85	4074.87
432.03	4245.73
432.22	4308.93
432.41	4243.39
432.60	4297.22
432.79	4329.99
432.97	4360.42
433.16	4313.61
433.35	4264.46
433.54	4161.47
433.72	4278.50
433.91	4374.46
434.10	4362.76
434.28	4397.87
434.47	4454.04
434.66	4456.38
434.85	4545.32
435.03	4571.07
435.22	4648.30
435.41	4683.41
435.59	4713.84
435.78	4622.56
435.97	4718.52
436.16	4547.66
436.34	4510.21
436.53	4667.03
436.72	4737.24
436.90	4741.93
437.09	4744.27
437.28	4755.97
437.46	4760.65
437.65	4720.86
437.84	4877.68
438.02	4751.29
438.21	4730.22
438.40	4842.57
438.58	4924.49
438.77	4877.68
438.96	4961.94
439.14	5146.84
439.33	5067.26
439.52	5313.02
439.70	5254.50
439.89	5252.16
440.08	5114.07
440.26	5245.14
440.45	5097.69
440.63	5453.45
440.82	5474.51
441.01	5305.99
441.19	5540.05
441.38	5593.88
441.57	5572.82
441.75	5771.76
441.94	5617.29
442.12	5682.82
442.31	5743.67
442.50	5764.74
442.68	5734.31
442.87	5696.86
443.05	5731.97
443.24	5905.17
443.43	5846.66
443.61	5968.37
443.80	6029.22
443.98	5762.40
444.17	5769.42
444.35	6033.90
444.54	6129.86
444.73	5905.17
444.91	5905.17
445.10	6017.52
445.28	5872.40
445.47	5888.79
445.65	5781.12
445.84	5937.94
446.02	5930.92
446.21	5940.28
446.39	6026.88
446.58	5968.37
446.77	6221.14
446.95	5881.77
447.14	6134.54
447.32	6120.50
447.51	6225.82
447.69	5984.75
447.88	6132.20
448.06	6106.46
448.25	6085.39
448.43	6202.42
448.62	6132.20
448.80	6099.44
448.99	6279.66
449.17	6193.06
449.36	6164.97
449.54	6361.58
449.73	6452.86
449.91	6396.68
450.10	6637.76
450.28	6558.18
450.46	6539.46
450.65	6326.47
450.83	6595.63
451.02	6586.27
451.20	6626.06
451.39	6637.76
451.57	6602.65
451.76	6466.90
451.94	6675.21
452.13	6757.13
452.31	6483.28
452.49	6466.90
452.68	6698.61
452.86	6569.88
453.05	6778.19
453.23	6637.76
453.42	6619.04
453.60	6855.43
453.78	6796.92
453.97	6668.19
454.15	6597.97
454.34	6684.57
454.52	6738.40
454.70	6909.26
454.89	6729.04
455.07	6963.09
455.26	7140.97
455.44	6972.46
455.62	7047.35
455.81	7016.93
455.99	7138.63
456.17	7164.38
456.36	7213.53
456.54	7091.82
456.73	7258.00
456.91	7258.00
457.09	7363.33
457.28	7433.54
457.46	7321.20
457.64	7304.81
457.83	7452.27
458.01	7236.94
458.19	7431.20
458.38	7548.23
458.56	7506.10
458.74	7524.82
458.93	7494.40
459.11	7592.70
459.29	7686.32
459.48	7531.84
459.66	7667.60
459.84	7611.42
460.03	7936.76
460.21	7941.44
460.39	7782.28
460.57	7695.68
460.76	7686.32
460.94	7852.50
461.12	7859.52
461.31	7782.28
461.49	7763.56
461.67	8002.29
461.85	8025.70
462.04	7925.05
462.22	8065.49
462.40	8093.57
462.59	7985.91
462.77	7974.21
462.95	8201.24
463.13	8109.96
463.32	8191.88
463.50	8095.91
463.68	8128.68
463.86	8105.28
464.05	8170.81
464.23	8147.40
464.41	8358.05
464.59	8095.91
464.78	8470.40
464.96	8177.83
465.14	8152.09
465.32	8372.10
465.50	8418.91
465.69	8407.20
465.87	8414.23
466.05	8468.06
466.23	8470.40
466.41	8603.81
466.60	8585.08
466.78	8475.08
466.96	8549.98
467.14	8531.25
467.32	8711.47
467.51	8678.71
467.69	8521.89
467.87	8561.68
468.05	8500.83
468.23	8585.08
468.41	8702.11
468.60	8755.94
468.78	9053.19
468.96	8938.51
469.14	8877.65
469.32	9144.47
469.50	8681.05
469.69	8882.33
469.87	8807.44
470.05	8985.32
470.23	8894.04
470.41	9078.94
470.59	9238.09
470.77	9149.15
470.95	9130.43
471.14	9383.21
471.32	9048.51
471.50	9394.91
471.68	9338.74
471.86	9568.11
472.04	9549.39
472.22	9586.83
472.40	9495.55
472.58	9687.48
472.77	9418.32
472.95	9647.69
473.13	10071.33
473.31	9586.83
473.49	9785.78
473.67	9708.54
473.85	9795.14
474.03	10090.05
474.21	10143.88
474.39	10085.37
474.57	10022.17
474.75	10022.17
474.93	10394.32
475.12	10347.51
475.30	10438.79
475.48	10452.83
475.66	10300.70
475.84	10476.24
476.02	10619.01
476.20	10464.54
476.38	10803.91
476.56	10860.09
476.74	10775.83
476.92	10792.21
477.10	10867.11
477.28	11190.10
477.46	11070.73
477.64	11281.38
477.82	11445.22
478.00	11789.28
478.18	11520.12
478.36	11433.52
478.54	11861.84
478.72	11789.28
478.90	11896.94
479.08	11927.37
479.26	12123.98
479.44	12327.60
479.62	12187.17
479.80	12023.33
479.98	12163.76
480.16	12753.58
480.34	12524.21
480.52	12678.68
480.70	12788.69
480.88	12697.41
481.06	12652.94
481.24	13252.11
481.41	13064.87
481.59	13287.22
481.77	13462.76
481.95	13254.45
482.13	13607.87
482.31	13219.35
482.49	13724.90
482.67	13532.98
482.85	13968.32
483.03	14026.83
483.21	13989.38
483.39	14036.19
483.57	14026.83
483.74	14230.46
483.92	14291.31
484.10	14207.05
484.28	14534.73
484.46	14941.98
484.64	15105.82
484.82	14810.91
485.00	14946.66
485.18	15180.71
485.35	15555.20
485.53	15323.49
485.71	15143.27
485.89	15484.98
486.07	15499.03
486.25	15398.38
486.43	15564.56
486.61	15836.06
486.78	16203.53
486.96	16329.92
487.14	16521.84
487.32	16418.86
487.50	16760.58
487.68	16947.82
487.85	17104.64
488.03	17530.61
488.21	17273.15
488.39	17057.82
488.57	17294.22
488.75	17813.82
488.92	17933.18
489.10	17923.82
489.28	17926.16
489.46	18040.85
489.64	18092.34
489.81	18228.09
489.99	18721.95
490.17	18480.87
490.35	18963.02
490.53	19009.83
490.70	19042.60
490.88	19058.98
491.06	19435.81
491.24	19309.42
491.41	19150.26
491.59	19534.11
491.77	19271.97
491.95	19976.47
492.13	19807.95
492.30	20074.77
492.48	20262.02
492.66	20283.08
492.84	20343.94
493.01	20510.11
493.19	20360.32
493.37	20739.49
493.54	20540.54
493.72	20910.35
493.90	21074.18
494.08	21261.43
494.25	21376.11
494.43	21495.48
494.61	21855.92
494.79	21734.21
494.96	21294.19
495.14	21855.92
495.32	21888.69
495.49	22075.93
495.67	22590.85
495.85	22265.52
496.02	22773.41
496.20	22927.89
496.38	22810.86
496.55	22993.42
496.73	23295.35
496.91	22890.44
497.09	23082.36
497.26	23318.76
497.44	23339.82
497.62	23613.66
497.79	23861.76
497.97	23784.52
498.14	23758.78
498.32	24095.82
498.50	24084.11
498.67	24093.47
498.85	24308.80
499.03	24175.39
499.20	24575.62
499.38	24755.85
499.56	24444.56
499.73	24795.64
499.91	24584.99
500.08	24905.64
500.26	24886.92
500.44	24922.02
500.61	24907.98
500.79	25085.86
500.97	25209.91
501.14	25408.86
501.32	25479.07
501.49	25472.05
501.67	25249.70
501.84	25624.18
502.02	25474.39
502.20	25701.42
502.37	26038.46
502.55	25771.64
502.72	25991.65
502.90	26326.35
503.07	26171.87
503.25	26274.85
503.43	26120.38
503.60	26237.41
503.78	26331.03
503.95	26546.36
504.13	26993.40
504.30	27035.53
504.48	26909.14
504.65	27035.53
504.83	27412.35
505.01	27182.98
505.18	27367.88
505.36	27716.62
505.53	27452.14
505.71	27714.28
505.88	28060.68
506.06	27307.03
506.23	27885.14
506.41	27623.00
506.58	27550.45
506.76	27878.12
506.93	28364.95
507.11	28449.21
507.28	28002.17
507.46	27983.44
507.63	28437.51
507.81	28257.29
507.98	28301.76
508.16	28414.10
508.33	28898.59
508.50	28723.05
508.68	29013.28
508.85	29041.37
509.03	29252.02
509.20	29291.80
509.38	29535.22
509.55	29074.13
509.73	29340.96
509.90	29406.49
510.08	29146.69
510.25	29350.32
510.42	29324.57
510.60	30085.25
510.77	30033.75
510.95	29834.81
511.12	30019.71
511.30	30015.03
511.47	30529.95
511.64	30415.26
511.82	30541.65
511.99	30466.75
512.17	30569.74
512.34	30274.83
512.51	30803.79
512.69	30759.32
512.86	30897.41
513.04	31243.81
513.21	31267.22
513.38	30911.46
513.56	30918.48
513.73	31070.61
513.90	31215.72
514.08	31187.64
514.25	31267.22
514.43	31232.11
514.60	31419.35
514.77	31070.61
514.95	31697.88
515.12	31674.47
515.29	31735.32
515.47	32411.74
515.64	32240.88
515.81	31864.05
515.99	31754.05
516.16	31817.24
516.33	31854.69
516.51	31978.74
516.68	32077.04
516.85	31847.67
517.03	31819.58
517.20	31974.06
517.37	32283.01
517.54	32683.24
517.72	32460.89
517.89	32318.12
518.06	32554.51
518.24	32191.73
518.41	32627.07
518.58	32751.12
518.75	32985.17
518.93	32975.81
519.10	33027.30
519.27	32821.33
519.45	33422.85
519.62	33413.49
519.79	33099.86
519.96	33464.98
520.14	34033.73
520.31	33411.15
520.48	33308.16
520.65	33717.76
520.83	33806.70
521.00	34183.52
521.17	33933.09
521.34	34181.18
521.52	34040.75
521.69	34302.89
521.86	34316.93
522.03	34242.04
522.20	34136.71
522.38	34590.78
522.55	34153.10
522.72	34333.32
522.89	34316.93
523.07	34864.62
523.24	34649.29
523.41	34677.38
523.58	34881.00
523.75	35559.76
523.92	35297.62
524.10	34813.13
524.27	34958.24
524.44	34998.03
524.61	35651.04
524.78	35487.20
524.96	35299.96
525.13	35534.01
525.30	35592.53
525.47	35981.06
525.64	35962.33
525.81	35697.85
525.98	35538.69
526.16	35990.42
526.33	35831.26
526.50	36325.11
526.67	35662.74
526.84	35995.10
527.01	35859.35
527.18	35592.53
527.36	36198.73
527.53	36423.42
527.70	36465.55
527.87	36442.14
528.04	36395.33
528.21	36196.38
528.38	36584.91
528.55	36708.96
528.72	36966.42
528.89	36889.18
529.07	36767.48
529.24	36491.29
529.41	36690.24
529.58	37031.96
529.75	36769.82
529.92	36945.36
530.09	37181.75
530.26	37113.87
530.43	37277.71
530.60	37113.87
530.77	37368.99
530.94	37404.10
531.11	37560.92
531.28	37345.59
531.46	37897.95
531.63	37268.35
531.80	37504.74
531.97	37579.64
532.14	37680.28
532.31	37127.92
532.48	37221.54
532.65	37720.07
532.82	37617.09
532.99	37972.85
533.16	37965.83
533.33	38033.71
533.50	38249.03
533.67	38780.34
533.84	38087.54
534.01	38436.28
534.18	38469.04
534.35	38174.14
534.52	38541.60
534.69	38260.74
534.86	38396.49
535.03	38506.49
535.20	39122.05
535.37	38574.37
535.54	38911.41
535.71	38873.96
535.88	38855.23
536.05	37979.87
536.22	38934.81
536.38	38836.51
536.55	39058.86
536.72	38504.15
536.89	38431.60
537.06	38789.70
537.23	38808.42
537.40	38670.33
537.57	39269.51
537.74	39416.96
537.91	39739.96
538.08	39257.81
538.25	39117.37
538.42	39201.63
538.59	39599.52
538.75	39103.33
538.92	39161.84
539.09	39564.42
539.26	39494.20
539.43	39840.60
539.60	39941.24
539.77	39676.76
539.94	39739.96
540.11	39124.40
540.28	39910.82
540.44	39550.37
540.61	39330.36
540.78	39517.60
540.95	39627.61
541.12	39751.66
541.29	40095.72
541.46	39613.57
541.62	40069.97
541.79	40126.14
541.96	39821.87
542.13	40182.32
542.30	40201.04
542.47	40423.39
542.63	40603.61
542.80	40418.71
542.97	40748.73
543.14	41174.70
543.31	40821.28
543.48	40685.53
543.64	41298.75
543.81	41010.87
543.98	41141.94
544.15	40840.01
544.32	40765.11
544.48	41205.13
544.65	41198.11
544.82	41010.87
544.99	40669.15
545.16	41137.26
545.32	41303.43
545.49	41584.30
545.66	41598.34
545.83	41357.27
546.00	41179.39
546.16	41074.06
546.33	41179.39
546.50	41202.79
546.67	41155.98
546.83	40921.93
547.00	41357.27
547.17	41375.99
547.34	41530.47
547.50	41539.83
547.67	41855.80
547.84	41727.07
548.00	41916.65
548.17	42237.31
548.34	41886.23
548.51	42014.96
548.67	41897.93
548.84	41792.61
549.01	42075.81
549.18	41860.48
549.34	41729.41
549.51	42403.49
549.68	42036.02
549.84	42239.65
550.01	42375.40
550.18	41911.97
550.34	42220.92
550.51	42398.80
550.68	42660.94
550.84	41996.23
551.01	42447.96
551.18	41666.22
551.34	42602.43
551.51	42302.84
551.68	42581.37
551.84	42492.43
552.01	42405.83
552.18	42445.62
552.34	42249.01
552.51	42792.01
552.68	42719.46
552.84	42436.25
553.01	43035.43
553.18	42464.34
553.34	42843.51
553.51	42651.58
553.67	42927.77
553.84	43005.00
554.01	42941.81
554.17	43016.71
554.34	43318.64
554.51	42864.57
554.67	43037.77
554.84	43178.20
555.00	42883.30
555.17	42710.10
555.33	43274.16
555.50	43122.03
555.67	43297.57
555.83	43133.73
556.00	43178.20
556.16	43117.35
556.33	42862.23
556.50	43098.62
556.66	43529.28
556.83	43023.73
556.99	43487.15
557.16	43742.27
557.32	43402.89
557.49	43435.66
557.65	43194.59
557.82	43297.57
557.98	43335.02
558.15	43194.59
558.32	43463.75
558.48	43323.32
558.65	43688.44
558.81	43262.46
558.98	43688.44
559.14	43215.65
559.31	43723.55
559.47	43716.53
559.64	43618.22
559.80	44378.90
559.97	43419.28
560.13	43473.11
560.30	43328.00
560.46	43742.27
560.63	43718.87
560.79	44009.09
560.96	43805.47
561.12	43753.97
561.29	43494.18
561.45	43650.99
561.61	44259.53
561.78	44046.54
561.94	43714.19
562.11	43618.22
562.27	44041.86
562.44	44081.65
562.60	43798.44
562.77	44156.55
562.93	43817.17
563.10	44100.37
563.26	43721.21
563.42	43971.64
563.59	43786.74
563.75	43665.03
563.92	44182.29
564.08	44247.83
564.24	44046.54
564.41	44184.63
564.57	44240.81
564.74	44163.57
564.90	44051.22
565.07	44226.76
565.23	44034.84
565.39	43758.66
565.56	44198.68
565.72	43718.87
565.88	44158.89
566.05	44011.43
566.21	43976.33
566.38	44343.79
566.54	44282.94
566.70	44219.74
566.87	44210.38
567.03	44259.53
567.19	44481.88
567.36	44170.59
567.52	44376.56
567.68	44395.28
567.85	44177.61
568.01	43803.13
568.17	43786.74
568.34	44299.32
568.50	44294.64
568.66	43807.81
568.83	44563.80
568.99	44041.86
569.15	43873.34
569.32	44240.81
569.48	44060.58
569.64	44439.75
569.81	43934.20
569.97	44067.61
570.13	44479.54
570.30	44126.12
570.46	44360.17
570.62	43812.49
570.78	44299.32
570.95	44339.11
571.11	44516.99
571.27	44458.48
571.43	44304.00
571.60	44069.95
571.76	44622.31
571.92	44039.52
572.09	44376.56
572.25	44423.37
572.41	44341.45
572.57	44715.93
572.74	44437.41
572.90	44669.12
573.06	44729.98
573.22	44224.42
573.38	44355.49
573.55	44772.11
573.71	44598.91
573.87	44421.03
574.03	44341.45
574.20	44498.26
574.36	44928.92
574.52	44458.48
574.68	44779.13
574.84	44591.89
575.01	44605.93
575.17	44535.71
575.33	44605.93
575.49	44119.10
575.65	44285.28
575.82	44954.67
575.98	44502.95
576.14	44769.77
576.30	44919.56
576.46	44842.32
576.62	44552.10
576.79	44261.87
576.95	44744.02
577.11	44526.35
577.27	44598.91
577.43	44622.31
577.59	44498.26
577.75	44442.09
577.92	44233.78
578.08	44428.05
578.24	44119.10
578.40	44304.00
578.56	44804.88
578.72	44516.99
578.88	44861.05
579.04	44556.78
579.21	44847.00
579.37	44519.33
579.53	44989.78
579.69	44406.98
579.85	44804.88
580.01	44835.30
580.17	44428.05
580.33	45081.06
580.49	45193.40
580.65	45097.44
580.82	44629.34
580.98	44762.75
581.14	44942.97
581.30	44610.61
581.46	44467.84
581.62	44594.23
581.78	44648.06
581.94	45067.02
582.10	44683.17
582.26	45134.89
582.42	44844.66
582.58	44584.86
582.74	44612.95
582.90	45200.43
583.06	45022.54
583.22	44760.40
583.38	45565.55
583.54	45177.02
583.70	45010.84
583.86	44807.22
584.02	44683.17
584.18	45057.65
584.34	44741.68
584.50	44708.91
584.66	44570.82
584.82	44910.20
584.98	44987.44
585.14	44701.89
585.30	44879.77
585.46	44898.50
585.62	44680.83
585.78	45221.49
585.94	44669.12
586.10	44622.31
586.26	44734.66
586.42	45017.86
586.58	45413.41
586.74	45162.98
586.90	44509.97
587.06	44655.08
587.22	44580.18
587.38	44392.94
587.54	44849.35
587.70	44788.49
587.86	44732.32
588.02	45226.17
588.18	44851.69
588.34	44603.59
588.49	44882.11
588.65	44533.37
588.81	44458.48
588.97	44414.01
589.13	44772.11
589.29	44877.43
589.45	44619.97
589.61	44891.48
589.77	44821.26
589.93	45160.64
590.08	44622.31
590.24	44898.50
