SpectraSuite Data File
++++++++++++++++++++++++++++++++++++
Date: Fri Oct 25 10:47:37 EDT 2013
User: price-jones
Dark Spectrum Present: No
Reference Spectrum Present: No
Number of Sampled Component Spectra: 1
Spectrometers: USB2+H05261
Integration Time (usec): 100000 (USB2+H05261)
Spectra Averaged: 1 (USB2+H05261)
Boxcar Smoothing: 0 (USB2+H05261)
Correct for Electrical Dark: No (USB2+H05261)
Strobe/Lamp Enabled: No (USB2+H05261)
Correct for Detector Non-linearity: No (USB2+H05261)
Correct for Stray Light: No (USB2+H05261)
Number of Pixels in Processed Spectrum: 2048
>>>>>Begin Processed Spectral Data<<<<<
365.73	187.24
365.92	187.24
366.12	187.24
366.32	46.81
366.52	14.04
366.72	124.05
366.91	110.01
367.11	37.45
367.31	0.00
367.51	21.06
367.70	23.41
367.90	37.45
368.10	70.22
368.30	67.88
368.49	37.45
368.69	7.02
368.89	14.04
369.09	51.49
369.28	23.41
369.48	51.49
369.68	72.56
369.87	98.30
370.07	131.07
370.27	119.37
370.47	262.14
370.66	374.49
370.86	362.78
371.06	425.98
371.25	430.66
371.45	493.85
371.65	486.83
371.84	470.45
372.04	423.64
372.24	519.60
372.44	465.77
372.63	503.22
372.83	493.85
373.03	444.70
373.22	444.70
373.42	578.11
373.62	514.92
373.81	550.03
374.01	543.00
374.21	608.54
374.40	578.11
374.60	571.09
374.79	571.09
374.99	566.41
375.19	573.43
375.38	543.00
375.58	580.45
375.78	624.92
375.97	573.43
376.17	603.86
376.37	564.07
376.56	582.79
376.76	627.26
376.95	587.47
377.15	554.71
377.35	524.28
377.54	641.31
377.74	608.54
377.93	580.45
378.13	678.76
378.33	631.94
378.52	660.03
378.72	655.35
378.91	650.67
379.11	629.60
379.31	662.37
379.50	571.09
379.70	674.07
379.89	727.91
380.09	692.80
380.28	690.46
380.48	650.67
380.68	653.01
380.87	692.80
381.07	678.76
381.26	671.73
381.46	648.33
381.65	653.01
381.85	645.99
382.04	667.05
382.24	711.52
382.43	669.39
382.63	697.48
382.83	636.63
383.02	725.57
383.22	690.46
383.41	695.14
383.61	678.76
383.80	711.52
384.00	739.61
384.19	748.97
384.39	854.30
384.58	755.99
384.78	770.04
384.97	741.95
385.17	805.14
385.36	720.88
385.56	748.97
385.75	711.52
385.95	755.99
386.14	819.19
386.34	868.34
386.53	786.42
386.72	723.23
386.92	849.61
387.11	837.91
387.31	835.57
387.50	847.27
387.70	842.59
387.89	809.83
388.09	812.17
388.28	875.36
388.48	884.72
388.67	854.30
388.86	863.66
389.06	901.11
389.25	1001.75
389.45	940.90
389.64	1015.79
389.84	924.51
390.03	957.28
390.22	898.77
390.42	912.81
390.61	994.73
390.81	1022.81
391.00	1036.86
391.19	957.28
391.39	1015.79
391.58	936.21
391.78	971.32
391.97	898.77
392.16	926.85
392.36	1086.01
392.55	1018.13
392.75	943.24
392.94	933.87
393.13	985.37
393.33	1055.58
393.52	931.53
393.71	978.34
393.91	1093.03
394.10	1081.33
394.29	1100.05
394.49	931.53
394.68	1090.69
394.88	1172.61
395.07	1125.80
395.26	1109.41
395.46	1226.44
395.65	1172.61
395.84	1083.67
396.04	1146.86
396.23	1109.41
396.42	1102.39
396.62	1163.25
396.81	1188.99
397.00	1144.52
397.19	1165.59
397.39	1170.27
397.58	1273.25
397.77	1181.97
397.97	1289.64
398.16	1366.87
398.35	1348.15
398.55	1362.19
398.74	1371.55
398.93	1371.55
399.12	1320.06
399.32	1303.68
399.51	1357.51
399.70	1509.65
399.90	1413.68
400.09	1390.28
400.28	1427.73
400.47	1376.24
400.67	1423.05
400.86	1399.64
401.05	1399.64
401.24	1465.18
401.44	1540.07
401.63	1549.43
401.82	1570.50
402.01	1516.67
402.21	1603.27
402.40	1577.52
402.59	1640.72
402.78	1657.10
402.97	1579.86
403.17	1607.95
403.36	1551.78
403.55	1647.74
403.74	1689.87
403.93	1671.14
404.13	1722.63
404.32	1673.48
404.51	1736.68
404.70	1858.39
404.89	1729.66
405.09	1654.76
405.28	1703.91
405.47	1804.55
405.66	1741.36
405.85	1696.89
406.05	1877.11
406.24	1809.23
406.43	1849.02
406.62	1846.68
406.81	1849.02
407.00	1844.34
407.20	1842.00
407.39	1930.94
407.58	1900.52
407.77	1914.56
407.96	1961.37
408.15	1984.77
408.34	1994.14
408.54	2104.14
408.73	2045.63
408.92	2167.34
409.11	2104.14
409.30	2073.71
409.49	2087.76
409.68	2188.40
409.87	1949.67
410.07	2186.06
410.26	2155.63
410.45	2256.28
410.64	2228.19
410.83	2277.34
411.02	2139.25
411.21	2452.88
411.40	2242.23
411.59	2394.37
411.78	2349.90
411.98	2324.15
412.17	2293.72
412.36	2429.48
412.55	2422.45
412.74	2593.31
412.93	2499.69
413.12	2389.69
413.31	2511.39
413.50	2530.12
413.69	2520.76
413.88	2684.59
414.07	2553.52
414.26	2597.99
414.45	2736.09
414.64	2633.10
414.83	2778.22
415.02	2799.28
415.22	2743.11
415.41	2813.32
415.60	2815.66
415.79	2771.19
415.98	2972.48
416.17	3019.29
416.36	3063.76
416.55	2878.86
416.74	2993.55
416.93	3028.65
417.12	3042.70
417.31	2939.71
417.50	2925.67
417.69	3148.02
417.88	3112.91
418.07	3045.04
418.26	3129.30
418.45	3117.59
418.64	3171.43
418.83	3213.56
419.02	3159.72
419.21	3070.78
419.39	3232.28
419.58	3260.37
419.77	3215.90
419.96	3267.39
420.15	3365.69
420.34	3370.37
420.53	3412.50
420.72	3393.78
420.91	3543.57
421.10	3569.32
421.29	3531.87
421.48	3405.48
421.67	3468.67
421.86	3332.92
422.05	3442.93
422.24	3452.29
422.43	3543.57
422.61	3433.57
422.80	3627.83
422.99	3536.55
423.18	3506.12
423.37	3691.02
423.56	3597.40
423.75	3520.17
423.94	3449.95
424.13	3328.24
424.32	3281.43
424.50	3588.04
424.69	3524.85
424.88	3662.94
425.07	3618.47
425.26	3513.14
425.45	3581.02
425.64	3723.79
425.83	3702.73
426.01	3660.60
426.20	3707.41
426.39	3791.67
426.58	3515.48
426.77	3651.24
426.96	3768.26
427.15	3653.58
427.33	3756.56
427.52	3850.18
427.71	3770.60
427.90	3779.97
428.09	3693.37
428.28	3789.33
428.46	3859.54
428.65	3889.97
428.84	3950.82
429.03	3953.16
429.22	3712.09
429.40	3866.56
429.59	3747.20
429.78	3829.12
429.97	3730.81
430.16	3796.35
430.34	3826.78
430.53	4009.34
430.72	4070.19
430.91	3932.10
431.10	3962.53
431.28	4030.40
431.47	4128.70
431.66	4297.22
431.85	4105.30
432.03	4168.49
432.22	4318.29
432.41	4264.46
432.60	4205.94
432.79	4252.75
432.97	4320.63
433.16	4360.42
433.35	4194.24
433.54	4369.78
433.72	4227.01
433.91	4311.27
434.10	4400.21
434.28	4468.08
434.47	4517.23
434.66	4456.38
434.85	4454.04
435.03	4610.86
435.22	4524.26
435.41	4620.22
435.59	4610.86
435.78	4629.58
435.97	4755.97
436.16	4596.81
436.34	4589.79
436.53	4723.20
436.72	4858.95
436.90	4667.03
437.09	4685.75
437.28	4706.82
437.46	4760.65
437.65	4772.35
437.84	4919.81
438.02	4652.98
438.21	4849.59
438.40	4692.77
438.58	4823.84
438.77	4910.44
438.96	4966.62
439.14	5132.79
439.33	5181.95
439.52	5207.69
439.70	5085.98
439.89	5153.86
440.08	5320.04
440.26	5200.67
440.45	5263.86
440.63	5301.31
440.82	5338.76
441.01	5397.28
441.19	5472.17
441.38	5504.94
441.57	5556.43
441.75	5715.59
441.94	5692.18
442.12	5874.74
442.31	5799.85
442.50	5563.45
442.68	5708.57
442.87	5682.82
443.05	5813.89
443.24	5998.79
443.43	5891.13
443.61	5959.00
443.80	5846.66
443.98	5853.68
444.17	5575.16
444.35	5792.83
444.54	6204.76
444.73	5996.45
444.91	5874.74
445.10	5891.13
445.28	6017.52
445.47	5760.06
445.65	5926.24
445.84	5989.43
446.02	5996.45
446.21	6136.88
446.39	6104.12
446.58	6125.18
446.77	6104.12
446.95	5935.60
447.14	6092.41
447.32	6073.69
447.51	6031.56
447.69	5996.45
447.88	5980.07
448.06	6118.16
448.25	6040.92
448.43	6139.23
448.62	6251.57
448.80	6221.14
448.99	6195.40
449.17	6399.02
449.36	6157.95
449.54	6286.68
449.73	6427.11
449.91	6487.96
450.10	6455.20
450.28	6436.47
450.46	6492.65
450.65	6504.35
450.83	6588.61
451.02	6740.74
451.20	6541.80
451.39	6588.61
451.57	6476.26
451.76	6443.49
451.94	6633.08
452.13	6443.49
452.31	6565.20
452.49	6469.24
452.68	6523.07
452.86	6431.79
453.05	6860.11
453.23	6909.26
453.42	6703.29
453.60	6675.21
453.78	6876.49
453.97	6612.01
454.15	6773.51
454.34	6806.28
454.52	7005.22
454.70	6862.45
454.89	6813.30
455.07	6918.62
455.26	7045.01
455.44	7009.90
455.62	6981.82
455.81	7052.03
455.99	7180.76
456.17	7068.42
456.36	7178.42
456.54	7110.55
456.73	7545.89
456.91	7438.22
457.09	7389.07
457.28	7478.01
457.46	7365.67
457.64	7391.41
457.83	7440.56
458.01	7468.65
458.19	7522.48
458.38	7342.26
458.56	7613.76
458.74	7452.27
458.93	7571.63
459.11	7630.15
459.29	7555.25
459.48	7569.29
459.66	7543.55
459.84	7777.60
460.03	7730.79
460.21	7712.07
460.39	7751.85
460.57	7789.30
460.76	7871.22
460.94	7843.14
461.12	7801.01
461.31	7882.92
461.49	7873.56
461.67	7784.62
461.85	8102.93
462.04	8124.00
462.22	8402.52
462.40	8152.09
462.59	8168.47
462.77	8133.36
462.95	8168.47
463.13	8102.93
463.32	7922.71
463.50	8100.59
463.68	8334.65
463.86	8315.92
464.05	8107.62
464.23	8128.68
464.41	8428.27
464.59	8116.98
464.78	8278.47
464.96	8315.92
465.14	8365.07
465.32	8517.21
465.50	8446.99
465.69	8475.08
465.87	8367.42
466.05	8578.06
466.23	8388.48
466.41	8435.29
466.60	8711.47
466.78	8308.90
466.96	8402.52
467.14	8573.38
467.32	8863.61
467.51	8681.05
467.69	8353.37
467.87	8706.79
468.05	8849.57
468.23	8692.75
468.41	8678.71
468.60	8521.89
468.78	8919.78
468.96	8798.07
469.14	8762.97
469.32	9048.51
469.50	8758.28
469.69	9006.38
469.87	8917.44
470.05	9205.33
470.23	9245.12
470.41	9135.11
470.59	9170.22
470.77	9046.17
470.95	9263.84
471.14	9394.91
471.32	9366.82
471.50	9584.49
471.68	9305.97
471.86	9551.73
472.04	9643.01
472.22	9830.25
472.40	9514.28
472.58	9582.15
472.77	9476.83
472.95	9650.03
473.13	9963.66
473.31	9816.21
473.49	9516.62
473.67	9696.84
473.85	9600.88
474.03	9970.68
474.21	9874.72
474.39	10169.63
474.57	10155.58
474.75	10064.30
474.93	10244.52
475.12	10356.87
475.30	10359.21
475.48	10487.94
475.66	10565.18
475.84	10260.91
476.02	10471.56
476.20	10546.45
476.38	10705.61
476.56	10782.85
476.74	10792.21
476.92	10981.79
477.10	10977.11
477.28	11213.51
477.46	11087.12
477.64	11040.31
477.82	11236.91
478.00	11730.76
478.18	11468.62
478.36	11524.80
478.54	11695.66
478.72	11646.51
478.90	11887.58
479.08	11939.07
479.26	12154.40
479.44	12301.86
479.62	12180.15
479.80	12294.83
479.98	12451.65
480.16	12402.50
480.34	12386.12
480.52	12624.85
480.70	12627.19
480.88	12582.72
481.06	12872.95
481.24	12655.28
481.41	13036.78
481.59	13209.98
481.77	13458.08
481.95	13490.85
482.13	13343.39
482.31	13516.59
482.49	13507.23
482.67	13628.94
482.85	13832.57
483.03	14134.50
483.21	13926.19
483.39	14270.25
483.57	14401.32
483.74	14534.73
483.92	14562.81
484.10	14328.76
484.28	14679.84
484.46	14979.43
484.64	15185.40
484.82	14647.07
485.00	14918.57
485.18	15279.02
485.35	15351.57
485.53	15124.54
485.71	15124.54
485.89	15527.11
486.07	15496.69
486.25	15623.08
486.43	15693.29
486.61	15925.00
486.78	16248.00
486.96	15995.22
487.14	16264.38
487.32	16552.27
487.50	16306.51
487.68	16872.92
487.85	17280.18
488.03	17233.36
488.21	17326.99
488.39	17369.12
488.57	17362.09
488.75	17291.88
488.92	17776.37
489.10	18036.17
489.28	18005.74
489.46	18192.98
489.64	18136.81
489.81	18743.01
489.99	18806.20
490.17	18890.46
490.35	18883.44
490.53	18672.79
490.70	19159.63
490.88	19218.14
491.06	19445.17
491.24	19384.32
491.41	19400.70
491.59	19618.37
491.77	19456.87
491.95	19655.82
492.13	19576.24
492.30	20109.88
492.48	20203.50
492.66	19906.26
492.84	20084.14
493.01	20262.02
493.19	20521.82
493.37	20563.95
493.54	20706.72
493.72	21261.43
493.90	20884.60
494.08	21359.73
494.25	21312.92
494.43	21579.74
494.61	21757.62
494.79	21741.24
494.96	21884.01
495.14	21895.71
495.32	22146.15
495.49	22319.35
495.67	22239.77
495.85	22391.91
496.02	22553.40
496.20	22520.63
496.38	22764.05
496.55	22953.63
496.73	23080.02
496.91	23026.19
497.09	23285.99
497.26	23358.55
497.44	23183.01
497.62	23613.66
497.79	23910.91
497.97	23419.40
498.14	23803.25
498.32	24332.21
498.50	23999.85
498.67	24177.73
498.85	24489.03
499.03	24627.12
499.20	24582.65
499.38	24744.14
499.56	24599.03
499.73	24489.03
499.91	24835.42
500.08	25008.62
500.26	24514.77
500.44	25055.43
500.61	25017.99
500.79	24807.34
500.97	25062.46
501.14	25507.16
501.32	25619.50
501.49	25584.40
501.67	25151.40
501.84	25603.12
502.02	25598.44
502.20	26190.59
502.37	26139.10
502.55	25954.20
502.72	25839.51
502.90	26178.89
503.07	26319.32
503.25	25965.90
503.43	26485.50
503.60	26529.97
503.78	26429.33
503.95	26731.26
504.13	26754.66
504.30	26850.63
504.48	26824.88
504.65	27161.92
504.83	26883.39
505.01	27452.14
505.18	27101.06
505.36	27435.76
505.53	27637.05
505.71	27840.67
505.88	27669.81
506.06	27637.05
506.23	27953.02
506.41	27543.42
506.58	27887.48
506.76	27524.70
506.93	28306.44
507.11	28156.64
507.28	28320.48
507.46	28077.07
507.63	28294.74
507.81	28339.21
507.98	28463.25
508.16	28687.95
508.33	28891.57
508.50	28437.51
508.68	29125.63
508.85	29722.46
509.03	28762.84
509.20	29109.24
509.38	29722.46
509.55	29579.69
509.73	29289.46
509.90	29457.98
510.08	29277.76
510.25	29514.16
510.42	29823.11
510.60	29771.61
510.77	30115.67
510.95	30206.95
511.12	29689.70
511.30	30022.05
511.47	30672.72
511.64	30691.44
511.82	30071.20
511.99	30281.85
512.17	30431.65
512.34	30595.48
512.51	30356.75
512.69	30787.41
512.86	30756.98
513.04	31028.48
513.21	31087.00
513.38	30827.20
513.56	31292.96
513.73	30960.61
513.90	31398.29
514.08	31166.57
514.25	31466.16
514.43	31442.76
514.60	31365.52
514.77	31454.46
514.95	31770.43
515.12	31529.36
515.29	31498.93
515.47	31934.27
515.64	32173.00
515.81	31833.63
515.99	32025.55
516.16	32168.32
516.33	31585.53
516.51	32559.19
516.68	32360.25
516.85	31985.76
517.03	32371.95
517.20	31878.10
517.37	32039.59
517.54	32130.87
517.72	32526.42
517.89	32563.87
518.06	31927.25
518.24	32402.38
518.41	32549.83
518.58	32369.61
518.75	32385.99
518.93	33221.56
519.10	32926.66
519.27	33163.05
519.45	33502.43
519.62	33401.79
519.79	33560.94
519.96	33743.50
520.14	34043.09
520.31	33514.13
520.48	33841.81
520.65	33727.12
520.83	34050.11
521.00	34352.04
521.17	33930.75
521.34	34005.64
521.52	34113.31
521.69	33949.47
521.86	34340.34
522.03	34550.99
522.20	34476.09
522.38	34658.65
522.55	34848.24
522.72	34429.28
522.89	34611.84
523.07	34506.52
523.24	34382.47
523.41	35040.16
523.58	34677.38
523.75	35133.78
523.92	34981.65
524.10	35398.26
524.27	35332.73
524.44	35105.70
524.61	35639.34
524.78	35583.16
524.96	35477.84
525.13	35810.20
525.30	36140.21
525.47	35945.95
525.64	35674.45
525.81	35775.09
525.98	35988.08
526.16	36250.22
526.33	35838.28
526.50	35922.54
526.67	35611.25
526.84	35948.29
527.01	35910.84
527.18	35985.74
527.36	36505.34
527.53	36430.44
527.70	36727.69
527.87	36364.90
528.04	36385.97
528.21	36505.34
528.38	36495.97
528.55	36528.74
528.72	36849.39
528.89	37495.38
529.07	37013.23
529.24	36818.97
529.41	36961.74
529.58	36959.40
529.75	36610.66
529.92	37102.17
530.09	37116.22
530.26	37230.90
530.43	37626.45
530.60	36896.20
530.77	37495.38
530.94	37383.04
531.11	37542.19
531.28	37610.07
531.46	37832.42
531.63	37699.01
531.80	37546.87
531.97	37593.68
532.14	37209.84
532.31	37691.99
532.48	37855.82
532.65	38054.77
532.82	38052.43
532.99	38300.53
533.16	37773.91
533.33	38024.34
533.50	37979.87
533.67	38174.14
533.84	37816.04
534.01	38195.20
534.18	38382.45
534.35	38607.14
534.52	37790.29
534.69	38223.29
534.86	38368.40
535.03	38284.14
535.20	38703.10
535.37	39267.17
535.54	38770.97
535.71	38686.71
535.88	38967.58
536.05	38646.93
536.22	39089.29
536.38	38768.63
536.55	39042.48
536.72	38895.02
536.89	38827.15
537.06	38845.87
537.23	39299.94
537.40	39068.22
537.57	39524.63
537.74	39278.87
537.91	39393.56
538.08	39620.59
538.25	39461.43
538.42	39412.28
538.59	39672.08
538.75	39213.34
538.92	39346.75
539.09	39873.37
539.26	40156.57
539.43	39744.64
539.60	39519.95
539.77	39817.19
539.94	39505.90
540.11	39693.15
540.28	39405.26
540.44	39793.79
540.61	39447.39
540.78	39810.17
540.95	39641.65
541.12	39482.50
541.29	39840.60
541.46	39782.09
541.62	40013.80
541.79	40175.30
541.96	39313.98
542.13	40282.96
542.30	40135.51
542.47	40739.36
542.63	39746.98
542.80	40271.26
542.97	40774.47
543.14	41177.04
543.31	40495.95
543.48	41179.39
543.64	41308.11
543.81	40884.48
543.98	41165.34
544.15	40790.86
544.32	41020.23
544.48	41352.58
544.65	41104.49
544.82	41439.18
544.99	40622.34
545.16	40868.09
545.32	40924.27
545.49	41577.28
545.66	41717.71
545.83	41762.18
546.00	41514.08
546.16	41450.89
546.33	41373.65
546.50	40914.90
546.67	41532.81
546.83	41202.79
547.00	41366.63
547.17	41170.02
547.34	41394.71
547.50	41642.81
547.67	41710.69
547.84	41518.76
548.00	41731.75
548.17	42389.44
548.34	41567.91
548.51	41708.35
548.67	42429.23
548.84	42087.51
549.01	41872.18
549.18	42139.00
549.34	42087.51
549.51	42302.84
549.68	42291.14
549.84	42038.36
550.01	42057.09
550.18	41998.57
550.34	42024.32
550.51	42246.67
550.68	42377.74
550.84	42131.98
551.01	42576.69
551.18	42356.67
551.34	42518.17
551.51	42359.02
551.68	42763.93
551.84	42946.49
552.01	42742.86
552.18	42120.28
552.34	42281.78
552.51	42630.52
552.68	42806.06
552.84	43065.86
553.01	43421.62
553.18	42986.28
553.34	42677.33
553.51	42602.43
553.67	42913.72
553.84	43075.22
554.01	43126.71
554.17	43157.14
554.34	43311.61
554.51	43379.49
554.67	43367.79
554.84	42920.74
555.00	43072.88
555.17	43150.12
555.33	43306.93
555.50	42801.38
555.67	43264.80
555.83	42855.21
556.00	43339.70
556.16	43749.29
556.33	43281.19
556.50	43536.30
556.66	43882.70
556.83	42909.04
556.99	43629.93
557.16	43203.95
557.32	43522.26
557.49	43543.33
557.65	43035.43
557.82	43351.40
557.98	43391.19
558.15	43555.03
558.32	43838.23
558.48	43377.15
558.65	43627.59
558.81	43187.56
558.98	43615.88
559.14	43690.78
559.31	43178.20
559.47	43522.26
559.64	44102.71
559.80	43653.33
559.97	43543.33
560.13	43480.13
560.30	44011.43
560.46	43599.50
560.63	43803.13
560.79	44100.37
560.96	44170.59
561.12	44250.17
561.29	43948.24
561.45	43749.29
561.61	44100.37
561.78	43885.04
561.94	43971.64
562.11	43842.92
562.27	44048.88
562.44	43395.87
562.60	44268.89
562.77	44053.56
562.93	43924.83
563.10	44418.69
563.26	44292.30
563.42	43835.89
563.59	44189.31
563.75	44116.76
563.92	44076.97
564.08	44074.63
564.24	44465.50
564.41	44573.16
564.57	44587.21
564.74	44147.18
564.90	44467.84
565.07	44521.67
565.23	44186.97
565.39	43854.62
565.56	44624.65
565.72	44296.98
565.88	44236.12
566.05	43983.35
566.21	44353.15
566.38	44149.53
566.54	44411.67
566.70	44128.46
566.87	44942.97
567.03	44779.13
567.19	44729.98
567.36	44671.46
567.52	44404.64
567.68	44865.73
567.85	44832.96
568.01	44392.94
568.17	44252.51
568.34	44645.72
568.50	44802.53
568.66	44353.15
568.83	44769.77
568.99	44509.97
569.15	44329.75
569.32	44360.17
569.48	44371.88
569.64	44673.81
569.81	44446.77
569.97	44505.29
570.13	44992.12
570.30	44655.08
570.46	44664.44
570.62	44362.51
570.78	44011.43
570.95	44341.45
571.11	44844.66
571.27	44512.31
571.43	44540.39
571.60	44889.13
571.76	44992.12
571.92	44765.09
572.09	44591.89
572.25	44556.78
572.41	44643.38
572.57	44406.98
572.74	44839.98
572.90	44830.62
573.06	45144.25
573.22	45041.27
573.38	44708.91
573.55	44231.44
573.71	44928.92
573.87	44648.06
574.03	44528.69
574.20	44547.42
574.36	44687.85
574.52	45074.04
574.68	45301.07
574.84	45329.16
575.01	45106.80
575.17	44631.68
575.33	44706.57
575.49	44591.89
575.65	45127.87
575.82	45052.97
575.98	44591.89
576.14	45287.03
576.30	44584.86
576.46	44587.21
576.62	44514.65
576.79	44781.47
576.95	44715.93
577.11	44809.56
577.27	44788.49
577.43	45071.70
577.59	44690.19
577.75	44507.63
577.92	44720.62
578.08	44662.10
578.24	44201.02
578.40	44797.85
578.56	45010.84
578.72	45181.70
578.88	45123.19
579.04	44858.71
579.21	44921.90
579.37	44535.71
579.53	44980.42
579.69	44580.18
579.85	45338.52
580.01	44971.05
580.17	44896.16
580.33	44926.58
580.49	44912.54
580.65	44837.64
580.82	45308.09
580.98	44582.52
581.14	45029.57
581.30	44734.66
581.46	44821.26
581.62	44739.34
581.78	44769.77
581.94	45565.55
582.10	45230.85
582.26	45216.81
582.42	44746.36
582.58	44945.31
582.74	44587.21
582.90	44964.03
583.06	44975.73
583.22	44928.92
583.38	44662.10
583.54	45368.94
583.70	44973.39
583.86	44414.01
584.02	44758.06
584.18	44931.26
584.34	45375.97
584.50	44926.58
584.66	45198.09
584.82	44809.56
584.98	45043.61
585.14	45193.40
585.30	44442.09
585.46	45097.44
585.62	44699.55
585.78	44912.54
585.94	44741.68
586.10	44701.89
586.26	44814.24
586.42	45104.46
586.58	44865.73
586.74	45427.46
586.90	44856.37
587.06	44306.34
587.22	45045.95
587.38	44865.73
587.54	45397.03
587.70	45031.91
587.86	45350.22
588.02	45249.58
588.18	45244.90
588.34	45242.56
588.49	44783.81
588.65	44435.07
588.81	44790.83
588.97	44406.98
589.13	44739.34
589.29	44619.97
589.45	44751.04
589.61	44903.18
589.77	45282.34
589.93	45294.05
590.08	45460.23
590.24	45116.17
