SpectraSuite Data File
++++++++++++++++++++++++++++++++++++
Date: Fri Oct 25 11:25:50 EDT 2013
User: price-jones
Dark Spectrum Present: No
Reference Spectrum Present: No
Number of Sampled Component Spectra: 1
Spectrometers: USB2+H05261
Integration Time (usec): 100000 (USB2+H05261)
Spectra Averaged: 1 (USB2+H05261)
Boxcar Smoothing: 0 (USB2+H05261)
Correct for Electrical Dark: No (USB2+H05261)
Strobe/Lamp Enabled: No (USB2+H05261)
Correct for Detector Non-linearity: No (USB2+H05261)
Correct for Stray Light: No (USB2+H05261)
Number of Pixels in Processed Spectrum: 2048
>>>>>Begin Processed Spectral Data<<<<<
365.73	234.05
365.92	234.05
366.12	234.05
366.32	194.26
366.52	131.07
366.72	128.73
366.91	121.71
367.11	84.26
367.31	107.66
367.51	182.56
367.70	37.45
367.90	56.17
368.10	182.56
368.30	175.54
368.49	117.03
368.69	180.22
368.89	156.82
369.09	117.03
369.28	250.44
369.48	215.33
369.68	138.09
369.87	182.56
370.07	170.86
370.27	313.63
370.47	386.19
370.66	645.99
370.86	571.09
371.06	631.94
371.25	685.78
371.45	643.65
371.65	634.29
371.84	601.52
372.04	699.82
372.24	683.44
372.44	688.12
372.63	678.76
372.83	774.72
373.03	690.46
373.22	641.31
373.42	734.93
373.62	807.48
373.81	816.85
374.01	854.30
374.21	821.53
374.40	807.48
374.60	805.14
374.79	765.36
374.99	777.06
375.19	737.27
375.38	889.40
375.58	847.27
375.78	880.04
375.97	858.98
376.17	945.58
376.37	936.21
376.56	898.77
376.76	901.11
376.95	807.48
377.15	819.19
377.35	915.15
377.54	858.98
377.74	835.57
377.93	851.96
378.13	819.19
378.33	908.13
378.52	896.43
378.72	966.64
378.91	931.53
379.11	931.53
379.31	964.30
379.50	1011.11
379.70	994.73
379.89	943.24
380.09	990.05
380.28	994.73
380.48	1022.81
380.68	1015.79
380.87	997.07
381.07	950.26
381.26	1034.52
381.46	1020.47
381.65	1027.50
381.85	1008.77
382.04	1020.47
382.24	1062.60
382.43	1011.11
382.63	1057.92
382.83	1111.75
383.02	1013.45
383.22	1128.14
383.41	1074.31
383.61	1053.24
383.80	1104.73
384.00	1048.56
384.19	1064.94
384.39	1219.42
384.58	1128.14
384.78	1167.93
384.97	1100.05
385.17	1142.18
385.36	1088.35
385.56	1104.73
385.75	1181.97
385.95	1104.73
386.14	1254.53
386.34	1149.20
386.53	1280.27
386.72	1123.46
386.92	1270.91
387.11	1224.10
387.31	1352.83
387.50	1210.06
387.70	1294.32
387.89	1301.34
388.09	1228.78
388.28	1263.89
388.48	1249.85
388.67	1282.61
388.86	1313.04
389.06	1275.59
389.25	1334.11
389.45	1390.28
389.64	1329.42
389.84	1409.00
390.03	1352.83
390.22	1376.24
390.42	1413.68
390.61	1317.72
390.81	1322.40
391.00	1406.66
391.19	1495.60
391.39	1406.66
391.58	1432.41
391.78	1500.28
391.97	1427.73
392.16	1404.32
392.36	1558.80
392.55	1507.30
392.75	1511.99
392.94	1544.75
393.13	1465.18
393.33	1519.01
393.52	1598.59
393.71	1619.65
393.91	1465.18
394.10	1600.93
394.29	1701.57
394.49	1643.06
394.68	1621.99
394.88	1603.27
395.07	1657.10
395.26	1748.38
395.46	1675.82
395.65	1626.67
395.84	1619.65
396.04	1701.57
396.23	1792.85
396.42	1739.02
396.62	1769.44
396.81	1720.29
397.00	1722.63
397.19	1769.44
397.39	1762.42
397.58	1799.87
397.77	1776.47
397.97	1701.57
398.16	1771.79
398.35	1856.04
398.55	1881.79
398.74	1893.49
398.93	1877.11
399.12	1839.66
399.32	1961.37
399.51	1996.48
399.70	1973.07
399.90	1975.41
400.09	2062.01
400.28	1991.80
400.47	1914.56
400.67	2080.74
400.86	2008.18
401.05	1989.46
401.24	2153.29
401.44	2111.16
401.63	2195.42
401.82	2085.42
402.01	2099.46
402.21	2162.66
402.40	2235.21
402.59	2200.10
402.78	2125.21
402.97	2291.38
403.17	2207.13
403.36	2277.34
403.55	2284.36
403.74	2312.45
403.93	2349.90
404.13	2331.17
404.32	2410.75
404.51	2448.20
404.70	2361.60
404.89	2359.26
405.09	2551.18
405.28	2410.75
405.47	2399.05
405.66	2537.14
405.85	2581.61
406.05	2349.90
406.24	2553.52
406.43	2619.06
406.62	2595.65
406.81	2689.28
407.00	2708.00
407.20	2649.49
407.39	2651.83
407.58	2729.06
407.77	2651.83
407.96	2818.00
408.15	2740.77
408.34	2724.38
408.54	2775.88
408.73	2843.75
408.92	2775.88
409.11	2717.36
409.30	2839.07
409.49	2939.71
409.68	2871.84
409.87	2902.26
410.07	2991.20
410.26	3016.95
410.45	2998.23
410.64	3016.95
410.83	3133.98
411.02	3150.36
411.21	3094.19
411.40	3126.96
411.59	3047.38
411.78	3229.94
411.98	3194.83
412.17	3232.28
412.36	3286.11
412.55	3421.86
412.74	3449.95
412.93	3456.97
413.12	3335.26
413.31	3501.44
413.50	3503.78
413.69	3489.74
413.88	3489.74
414.07	3651.24
414.26	3655.92
414.45	3609.11
414.64	3691.02
414.83	3796.35
415.02	3899.33
415.22	3770.60
415.41	3772.94
415.60	3861.88
415.79	3932.10
415.98	3948.48
416.17	3976.57
416.36	3962.53
416.55	4067.85
416.74	4095.94
416.93	4058.49
417.12	4074.87
417.31	4070.19
417.50	4189.56
417.69	4416.59
417.88	4187.22
418.07	4117.00
418.26	4271.48
418.45	4306.59
418.64	4411.91
418.83	4456.38
419.02	4482.13
419.21	4573.41
419.39	4566.39
419.58	4491.49
419.77	4428.29
419.96	4638.94
420.15	4573.41
420.34	4610.86
420.53	4557.02
420.72	4599.15
420.91	4568.73
421.10	4744.27
421.29	4814.48
421.48	4777.03
421.67	4681.07
421.86	4683.41
422.05	4854.27
422.24	4755.97
422.43	4844.91
422.61	4880.02
422.80	4980.66
422.99	4746.61
423.18	4985.34
423.37	5093.01
423.56	4779.37
423.75	4938.53
423.94	4741.93
424.13	4704.48
424.32	4706.82
424.50	4954.91
424.69	5029.81
424.88	4961.94
425.07	4880.02
425.26	5060.24
425.45	5036.83
425.64	4971.30
425.83	4975.98
426.01	5146.84
426.20	5130.45
426.39	4990.02
426.58	5022.79
426.77	5018.11
426.96	5210.03
427.15	5025.13
427.33	5132.79
427.52	5249.82
427.71	5153.86
427.90	5181.95
428.09	5348.12
428.28	5287.27
428.46	5217.05
428.65	5240.46
428.84	5411.32
429.03	5458.13
429.22	5357.49
429.40	5444.09
429.59	5542.39
429.78	5317.70
429.97	5249.82
430.16	5357.49
430.34	5481.53
430.53	5572.82
430.72	5598.56
430.91	5795.17
431.10	5638.35
431.28	5717.93
431.47	5736.65
431.66	5998.79
431.85	5748.36
432.03	6010.50
432.22	6071.35
432.41	5970.71
432.60	5907.51
432.79	5949.64
432.97	5989.43
433.16	5947.30
433.35	6057.31
433.54	6136.88
433.72	6085.39
433.91	5877.09
434.10	6239.87
434.28	5856.02
434.47	6073.69
434.66	6197.74
434.85	6291.36
435.03	6504.35
435.22	6270.30
435.41	6328.81
435.59	6403.71
435.78	6352.21
435.97	6478.60
436.16	6509.03
436.34	6356.90
436.53	6457.54
436.72	6626.06
436.90	6345.19
437.09	6597.97
437.28	6417.75
437.46	6558.18
437.65	6485.62
437.84	6722.02
438.02	6633.08
438.21	6609.67
438.40	6644.78
438.58	6951.39
438.77	7073.10
438.96	6967.77
439.14	7007.56
439.33	7143.32
439.52	7279.07
439.70	7110.55
439.89	7393.75
440.08	7297.79
440.26	7389.07
440.45	7215.87
440.63	7557.59
440.82	7585.68
441.01	7377.37
441.19	7606.74
441.38	7585.68
441.57	7719.09
441.75	7861.86
441.94	7885.26
442.12	7936.76
442.31	8280.82
442.50	7978.89
442.68	7943.78
442.87	8084.21
443.05	8056.12
443.24	8112.30
443.43	8060.80
443.61	8044.42
443.80	8327.63
443.98	7960.16
444.17	7801.01
444.35	8116.98
444.54	8482.10
444.73	8238.69
444.91	8397.84
445.10	8259.75
445.28	8439.97
445.47	8407.20
445.65	8173.15
445.84	8348.69
446.02	8741.90
446.21	8311.24
446.39	8294.86
446.58	8617.85
446.77	8411.89
446.95	8196.56
447.14	8439.97
447.32	8446.99
447.51	8437.63
447.69	8538.27
447.88	8402.52
448.06	8503.17
448.25	8505.51
448.43	8388.48
448.62	8552.32
448.80	8564.02
448.99	8664.66
449.17	8725.52
449.36	8641.26
449.54	8919.78
449.73	8997.02
449.91	8990.00
450.10	8943.19
450.28	8879.99
450.46	9060.21
450.65	9067.24
450.83	8863.61
451.02	9233.41
451.20	9334.06
451.39	9226.39
451.57	9207.67
451.76	9111.71
451.94	9324.69
452.13	9387.89
452.31	9142.13
452.49	9270.86
452.68	9362.14
452.86	9282.56
453.05	9507.26
453.23	9537.68
453.42	9404.27
453.60	9139.79
453.78	9469.81
453.97	9383.21
454.15	9394.91
454.34	9502.58
454.52	9708.54
454.70	9511.94
454.89	9790.46
455.07	9954.30
455.26	9769.40
455.44	9926.21
455.62	9937.91
455.81	9764.72
455.99	10127.50
456.17	10171.97
456.36	9998.77
456.54	10281.97
456.73	10373.25
456.91	10384.96
457.09	10200.05
457.28	10504.32
457.46	10118.14
457.64	10375.59
457.83	10588.58
458.01	10553.48
458.19	10696.25
458.38	10586.24
458.56	10703.27
458.74	10649.44
458.93	10424.75
459.11	10817.96
459.29	10497.30
459.48	10719.65
459.66	10714.97
459.84	10991.16
460.03	10939.66
460.21	10963.07
460.39	10724.33
460.57	10932.64
460.76	11000.52
460.94	11356.28
461.12	11187.76
461.31	11044.99
461.49	11367.98
461.67	11068.39
461.85	11398.41
462.04	11360.96
462.22	11833.75
462.40	11344.58
462.59	11431.18
462.77	11618.42
462.95	11440.54
463.13	11679.27
463.32	11634.80
463.50	11772.89
463.68	11885.24
463.86	11824.39
464.05	11580.97
464.23	11754.17
464.41	11824.39
464.59	11506.07
464.78	12304.20
464.96	12332.28
465.14	11728.42
465.32	11808.00
465.50	11946.09
465.69	12386.12
465.87	12095.89
466.05	12095.89
466.23	12245.68
466.41	11920.35
466.60	12463.35
466.78	12238.66
466.96	12079.50
467.14	12079.50
467.32	12505.48
467.51	12620.17
467.69	12128.66
467.87	12428.24
468.05	12592.08
468.23	12379.09
468.41	12437.61
468.60	12608.47
468.78	12800.39
468.96	12613.15
469.14	12631.87
469.32	12896.35
469.50	12772.30
469.69	13074.23
469.87	13027.42
470.05	13156.15
470.23	13186.58
470.41	13179.56
470.59	13238.07
470.77	13177.22
470.95	13397.23
471.14	13635.96
471.32	13170.19
471.50	13551.70
471.68	13579.79
471.86	13504.89
472.04	13694.47
472.22	13886.40
472.40	13474.46
472.58	13757.67
472.77	13858.31
472.95	14132.15
473.13	14602.60
473.31	13933.21
473.49	14200.03
473.67	13975.34
473.85	14097.05
474.03	14782.82
474.21	14518.34
474.39	14628.35
474.57	14679.84
474.75	15044.96
474.93	15019.22
475.12	14885.81
475.30	15056.67
475.48	15035.60
475.66	15255.61
475.84	14925.60
476.02	15398.38
476.20	15232.21
476.38	15704.99
476.56	15873.51
476.74	15831.38
476.92	15777.55
477.10	15826.70
477.28	16095.86
477.46	16257.36
477.64	16187.14
477.82	16409.50
478.00	16826.11
478.18	16655.25
478.36	16854.20
478.54	17231.02
478.72	17128.04
478.90	17434.65
479.08	17331.67
479.26	17556.36
479.44	17771.69
479.62	17738.92
479.80	18003.40
479.98	18291.29
480.16	18501.93
480.34	18125.11
480.52	18480.87
480.70	18677.48
480.88	18258.52
481.06	18778.12
481.24	18773.44
481.41	19063.66
481.59	19124.52
481.77	19339.85
481.95	19524.75
482.13	19520.07
482.31	19580.92
482.49	20503.09
482.67	20306.49
482.85	20306.49
483.03	20376.70
483.21	20938.43
483.39	20748.85
483.57	21003.97
483.74	21135.04
483.92	21130.36
484.10	21296.53
484.28	21521.23
484.46	22176.58
484.64	22499.57
484.82	21823.16
485.00	22324.03
485.18	22712.56
485.35	23108.11
485.53	22616.60
485.71	23138.54
485.89	23393.65
486.07	23468.55
486.25	23421.74
486.43	23857.08
486.61	23756.44
486.78	23992.83
486.96	24053.69
487.14	24231.57
487.32	24751.17
487.50	24915.00
487.68	24854.15
487.85	25195.87
488.03	25788.02
488.21	25663.97
488.39	25797.38
488.57	26118.04
488.75	25907.39
488.92	26314.64
489.10	26309.96
489.28	26525.29
489.46	27199.37
489.64	26890.41
489.81	27648.75
489.99	27634.71
490.17	27623.00
490.35	27950.68
490.53	28350.91
490.70	28474.96
490.88	28018.55
491.06	28793.27
491.24	28730.08
491.41	29008.60
491.59	29191.16
491.77	29041.37
491.95	29617.14
492.13	29216.91
492.30	29752.89
492.48	29895.66
492.66	29933.11
492.84	30277.17
493.01	30441.01
493.19	30338.02
493.37	31255.51
493.54	31049.55
493.72	31431.05
493.90	31534.04
494.08	31927.25
494.25	31608.93
494.43	32121.51
494.61	31924.91
494.79	32547.49
494.96	32496.00
495.14	33050.70
495.32	33151.35
495.49	32587.28
495.67	32957.08
495.85	33338.59
496.02	33539.88
496.20	33811.38
496.38	33659.24
496.55	33982.24
496.73	34714.83
496.91	34555.67
497.09	34586.10
497.26	35005.05
497.44	34614.18
497.62	35189.95
497.79	35732.96
497.97	35140.80
498.14	36240.86
498.32	36074.68
498.50	36175.32
498.67	36318.09
498.85	36437.46
499.03	36732.37
499.20	36739.39
499.38	36608.32
499.56	36816.63
499.73	37160.69
499.91	37006.21
500.08	37455.59
500.26	37266.01
500.44	37708.37
500.61	37865.19
500.79	37298.78
500.97	38000.94
501.14	38408.19
501.32	38567.35
501.49	38520.54
501.67	38134.35
501.84	38663.31
502.02	38637.56
502.20	38995.67
502.37	39098.65
502.55	39615.91
502.72	38857.57
502.90	39655.70
503.07	39316.32
503.25	39763.36
503.43	39779.74
503.60	39976.35
503.78	40147.21
503.95	40168.27
504.13	40163.59
504.30	40563.82
504.48	40767.45
504.65	40727.66
504.83	41043.63
505.01	40966.40
505.18	41317.48
505.36	41687.28
505.53	41144.28
505.71	41521.10
505.88	41368.97
506.06	41319.82
506.23	42007.94
506.41	41277.69
506.58	41799.63
506.76	42099.22
506.93	42286.46
507.11	42141.35
507.28	42277.10
507.46	42384.76
507.63	42735.84
507.81	43019.05
507.98	42593.07
508.16	43070.54
508.33	43454.39
508.50	43248.42
508.68	43583.12
508.85	43653.33
509.03	43789.08
509.20	43945.90
509.38	44179.95
509.55	44327.41
509.73	44755.72
509.90	44875.09
510.08	44451.45
510.25	44486.56
510.42	44369.54
510.60	45287.03
510.77	45071.70
510.95	45191.06
511.12	45364.26
511.30	44954.67
511.47	45432.14
511.64	45411.07
511.82	45860.46
511.99	45797.26
512.17	45797.26
512.34	45490.65
512.51	46548.57
512.69	46195.15
512.86	46120.26
513.04	46740.50
513.21	46007.91
513.38	46499.42
513.56	46829.44
513.73	46768.58
513.90	46770.93
514.08	46628.15
514.25	47129.03
514.43	47332.65
514.60	47297.55
514.77	47454.36
514.95	47929.49
515.12	47634.58
515.29	47564.37
515.47	47639.26
515.64	47899.06
515.81	48002.05
515.99	48051.20
516.16	48252.48
516.33	48512.28
516.51	48619.95
516.68	48397.60
516.85	48385.89
517.03	48687.82
517.20	48949.96
517.37	48353.13
517.54	48832.94
517.72	49008.48
517.89	48814.21
518.06	48921.88
518.24	49179.34
518.41	49059.97
518.58	49312.75
518.75	49488.29
518.93	49268.28
519.10	49186.36
519.27	49837.03
519.45	49551.48
519.62	49972.78
519.79	49790.22
519.96	49684.89
520.14	49928.31
520.31	49654.47
520.48	50405.78
520.65	50028.95
520.83	50337.90
521.00	50770.90
521.17	50227.90
521.34	50614.08
521.52	50731.11
521.69	50401.10
521.86	50983.89
522.03	50590.68
522.20	51154.75
522.38	51222.62
522.55	51269.43
522.72	51138.36
522.89	51349.01
523.07	51590.09
523.24	51578.39
523.41	51758.61
523.58	51351.35
523.75	51824.14
523.92	51920.10
524.10	51674.35
524.27	51931.81
524.44	52065.22
524.61	52095.64
524.78	52207.99
524.96	51861.59
525.13	52247.78
525.30	52605.88
525.47	52329.70
525.64	52535.66
525.81	52715.89
525.98	52587.16
526.16	52788.44
526.33	52601.20
526.50	52893.77
526.67	52645.67
526.84	52748.65
527.01	53109.10
527.18	52631.63
527.36	52963.98
527.53	53038.88
527.70	53090.37
527.87	53265.91
528.04	52870.36
528.21	53373.58
528.38	53420.39
528.55	53308.04
528.72	53249.53
528.89	53544.44
529.07	53439.11
529.24	53303.36
529.41	53722.32
529.58	53434.43
529.75	53595.93
529.92	53574.86
530.09	53600.61
530.26	53923.60
530.43	53722.32
530.60	53858.07
530.77	54047.65
530.94	54075.74
531.11	53975.09
531.28	54197.44
531.46	54035.95
531.63	54164.68
531.80	54010.20
531.97	54368.30
532.14	54309.79
532.31	54286.39
532.48	54602.36
532.65	54724.07
532.82	54593.00
532.99	54752.15
533.16	54511.08
533.33	54560.23
533.50	55014.29
533.67	54885.56
533.84	54581.29
534.01	54911.31
534.18	54754.49
534.35	55070.46
534.52	54670.23
534.69	55276.43
534.86	55121.96
535.03	54967.48
535.20	54805.98
535.37	55597.09
535.54	55458.99
535.71	55143.02
535.88	55234.30
536.05	55564.32
536.22	55480.06
536.38	55440.27
536.55	55543.25
536.72	55480.06
536.89	55182.81
537.06	55561.98
537.23	55484.74
537.40	55423.89
537.57	55875.61
537.74	55531.55
537.91	56062.85
538.08	55847.52
538.25	55561.98
538.42	55962.21
538.59	56039.45
538.75	55861.57
538.92	55814.76
539.09	56006.68
539.26	55992.64
539.43	56039.45
539.60	56100.30
539.77	56191.58
539.94	56559.05
540.11	56500.53
540.28	56442.02
540.44	56402.23
540.61	56367.12
540.78	56193.92
540.95	56301.59
541.12	56233.71
541.29	56357.76
541.46	56465.42
541.62	56435.00
541.79	56549.68
541.96	56456.06
542.13	56643.30
542.30	56676.07
542.47	56748.63
542.63	56774.37
542.80	56900.76
542.97	56954.60
543.14	57045.88
543.31	57022.47
543.48	57013.11
543.64	57457.81
543.81	57296.31
543.98	57441.43
544.15	57080.98
544.32	57272.91
544.48	57628.67
544.65	57312.70
544.82	57301.00
544.99	57301.00
545.16	57298.65
545.32	57481.22
545.49	57474.20
545.66	57593.56
545.83	57668.46
546.00	57722.29
546.16	57539.73
546.33	57616.97
546.50	57528.03
546.67	57801.87
546.83	57483.56
547.00	57748.04
547.17	57490.58
547.34	57869.75
547.50	58094.44
547.67	58071.03
547.84	58047.63
548.00	58066.35
548.17	58330.83
548.34	57883.79
548.51	58073.37
548.67	58064.01
548.84	58122.52
549.01	58066.35
549.18	58003.16
549.34	58295.72
549.51	58302.74
549.68	58389.34
549.84	58192.74
550.01	58262.96
550.18	58206.78
550.34	58560.20
550.51	58361.26
550.68	58150.61
550.84	58171.67
551.01	58429.13
551.18	58581.27
551.34	58274.66
551.51	58438.50
551.68	58543.82
551.84	58707.66
552.01	58415.09
552.18	58672.55
552.34	58382.32
552.51	58482.97
552.68	58599.99
552.84	58560.20
553.01	58941.71
553.18	58768.51
553.34	58735.74
553.51	58497.01
553.67	58824.68
553.84	58780.21
554.01	58787.24
554.17	58983.84
554.34	59000.22
554.51	58997.88
554.67	58997.88
554.84	58937.03
555.00	58862.13
555.17	59224.92
555.33	59023.63
555.50	58951.07
555.67	58955.75
555.83	58773.19
556.00	59086.82
556.16	59292.79
556.33	59133.63
556.50	59049.38
556.66	59098.53
556.83	59135.98
556.99	59304.49
557.16	59283.43
557.32	59468.33
557.49	59646.21
557.65	59157.04
557.82	59304.49
557.98	59283.43
558.15	59313.86
558.32	59491.74
558.48	59461.31
558.65	59524.50
558.81	59325.56
558.98	59501.10
559.14	59573.66
559.31	59707.07
559.47	59678.98
559.64	59487.06
559.80	59781.96
559.97	59613.44
560.13	59480.03
560.30	59583.02
560.46	59646.21
560.63	59664.94
560.79	59601.74
560.96	59770.26
561.12	59700.04
561.29	59709.41
561.45	59842.82
561.61	59751.54
561.78	59779.62
561.94	59573.66
562.11	59753.88
562.27	59767.92
562.44	59955.16
562.60	59875.58
562.77	59903.67
562.93	59798.35
563.10	60065.17
563.26	59714.09
563.42	60226.66
563.59	60083.89
563.75	60016.02
563.92	60156.45
564.08	60126.02
564.24	60140.07
564.41	60041.76
564.57	60048.78
564.74	59877.93
564.90	60051.12
565.07	60083.89
565.23	59987.93
565.39	60046.44
565.56	60037.08
565.72	59971.55
565.88	60144.75
566.05	60076.87
566.21	60121.34
566.38	60067.51
566.54	60243.05
566.70	60413.91
566.87	60189.22
567.03	59901.33
567.19	60383.48
567.36	60278.16
567.52	60144.75
567.68	60505.19
567.85	60175.17
568.01	60404.55
568.17	60261.77
568.34	60364.76
568.50	60385.82
568.66	60465.40
568.83	60369.44
568.99	60179.85
569.15	60371.78
569.32	60465.40
569.48	60376.46
569.64	60491.15
569.81	60282.84
569.97	60509.87
570.13	60320.29
570.30	60334.33
570.46	60493.49
570.62	60427.95
570.78	60390.50
570.95	60369.44
571.11	60383.48
571.27	60364.76
571.43	60498.17
571.60	60552.00
571.76	60507.53
571.92	60594.13
572.09	60666.69
572.25	60542.64
572.41	60406.89
572.57	60788.39
572.74	60741.58
572.90	60549.66
573.06	60601.15
573.22	60528.59
573.38	60622.22
573.55	60514.55
573.71	60701.79
573.87	60657.32
574.03	60598.81
574.20	60734.56
574.36	60580.09
574.52	60671.37
574.68	60680.73
574.84	60767.33
575.01	60821.16
575.17	60640.94
575.33	60678.39
575.49	60547.32
575.65	60718.18
575.82	60605.83
575.98	60624.56
576.14	60968.61
576.30	60767.33
576.46	60706.47
576.62	60587.11
576.79	60561.36
576.95	60821.16
577.11	60718.18
577.27	60779.03
577.43	60680.73
577.59	60662.00
577.75	60692.43
577.92	60533.28
578.08	60687.75
578.24	60713.50
578.40	60961.59
578.56	60809.46
578.72	60774.35
578.88	60835.20
579.04	60917.12
579.21	60896.06
579.37	60865.63
579.53	61059.90
579.69	60676.05
579.85	60846.91
580.01	60856.27
580.17	60797.76
580.33	60788.39
580.49	60956.91
580.65	60729.88
580.82	60793.07
580.98	60764.99
581.14	60877.33
581.30	60989.68
581.46	60722.86
581.62	61050.53
581.78	60692.43
581.94	60851.59
582.10	60692.43
582.26	60982.66
582.42	60893.72
582.58	60830.52
582.74	60786.05
582.90	60722.86
583.06	60954.57
583.22	60692.43
583.38	60821.16
583.54	60774.35
583.70	60954.57
583.86	60994.36
584.02	60764.99
584.18	60863.29
584.34	60821.16
584.50	60910.10
584.66	60713.50
584.82	60715.84
584.98	61085.64
585.14	61080.96
585.30	60828.18
585.46	60898.40
585.62	60903.08
585.78	61066.92
585.94	60535.62
586.10	60968.61
586.26	61172.24
586.42	61066.92
586.58	61160.54
586.74	61141.81
586.90	60729.88
587.06	61120.75
587.22	61237.78
587.38	61022.45
587.54	61038.83
587.70	61139.47
587.86	60996.70
588.02	61090.32
588.18	61057.56
588.34	61008.40
588.49	61130.11
