SpectraSuite Data File
++++++++++++++++++++++++++++++++++++
Date: Fri Oct 25 10:44:47 EDT 2013
User: price-jones
Dark Spectrum Present: No
Reference Spectrum Present: No
Number of Sampled Component Spectra: 1
Spectrometers: USB2+H05261
Integration Time (usec): 100000 (USB2+H05261)
Spectra Averaged: 1 (USB2+H05261)
Boxcar Smoothing: 0 (USB2+H05261)
Correct for Electrical Dark: No (USB2+H05261)
Strobe/Lamp Enabled: No (USB2+H05261)
Correct for Detector Non-linearity: No (USB2+H05261)
Correct for Stray Light: No (USB2+H05261)
Number of Pixels in Processed Spectrum: 2048
>>>>>Begin Processed Spectral Data<<<<<
365.73	112.35
365.92	112.35
366.12	112.35
366.32	35.11
366.52	35.11
366.72	37.45
366.91	84.26
367.11	60.85
367.31	16.38
367.51	74.90
367.70	0.00
367.90	70.22
368.10	49.15
368.30	0.00
368.49	9.36
368.69	98.30
368.89	60.85
369.09	0.00
369.28	37.45
369.48	11.70
369.68	102.98
369.87	53.83
370.07	72.56
370.27	152.13
370.47	196.60
370.66	341.72
370.86	386.19
371.06	428.32
371.25	451.72
371.45	362.78
371.65	500.87
371.84	435.34
372.04	386.19
372.24	442.36
372.44	526.62
372.63	404.91
372.83	421.30
373.03	440.02
373.22	491.51
373.42	409.59
373.62	468.11
373.81	449.38
374.01	528.96
374.21	521.94
374.40	550.03
374.60	552.37
374.79	566.41
374.99	561.73
375.19	517.26
375.38	627.26
375.58	582.79
375.78	535.98
375.97	531.30
376.17	573.43
376.37	667.05
376.56	514.92
376.76	552.37
376.95	498.53
377.15	540.66
377.35	608.54
377.54	650.67
377.74	571.09
377.93	564.07
378.13	627.26
378.33	631.94
378.52	638.97
378.72	615.56
378.91	601.52
379.11	627.26
379.31	589.82
379.50	608.54
379.70	678.76
379.89	641.31
380.09	674.07
380.28	641.31
380.48	573.43
380.68	608.54
380.87	645.99
381.07	674.07
381.26	631.94
381.46	627.26
381.65	634.29
381.85	744.29
382.04	713.86
382.24	671.73
382.43	716.20
382.63	636.63
382.83	711.52
383.02	617.90
383.22	725.57
383.41	802.80
383.61	627.26
383.80	695.14
384.00	638.97
384.19	767.70
384.39	713.86
384.58	737.27
384.78	758.33
384.97	774.72
385.17	772.38
385.36	746.63
385.56	812.17
385.75	772.38
385.95	847.27
386.14	819.19
386.34	690.46
386.53	819.19
386.72	758.33
386.92	826.21
387.11	786.42
387.31	807.48
387.50	819.19
387.70	940.90
387.89	837.91
388.09	760.67
388.28	819.19
388.48	858.98
388.67	802.80
388.86	854.30
389.06	837.91
389.25	915.15
389.45	945.58
389.64	851.96
389.84	945.58
390.03	938.55
390.22	877.70
390.42	922.17
390.61	978.34
390.81	884.72
391.00	971.32
391.19	1062.60
391.39	973.66
391.58	884.72
391.78	954.94
391.97	997.07
392.16	882.38
392.36	964.30
392.55	1078.99
392.75	938.55
392.94	968.98
393.13	908.13
393.33	973.66
393.52	861.32
393.71	952.60
393.91	1076.65
394.10	1015.79
394.29	1006.43
394.49	1121.12
394.68	1100.05
394.88	1130.48
395.07	1100.05
395.26	1151.54
395.46	1093.03
395.65	1104.73
395.84	1109.41
396.04	1233.46
396.23	1116.44
396.42	1048.56
396.62	1095.37
396.81	1078.99
397.00	1111.75
397.19	1196.01
397.39	1156.22
397.58	1221.76
397.77	1193.67
397.97	1233.46
398.16	1212.40
398.35	1315.38
398.55	1336.45
398.74	1383.26
398.93	1273.25
399.12	1411.34
399.32	1294.32
399.51	1345.81
399.70	1383.26
399.90	1462.83
400.09	1299.00
400.28	1448.79
400.47	1467.52
400.67	1458.15
400.86	1483.90
401.05	1469.86
401.24	1406.66
401.44	1472.20
401.63	1530.71
401.82	1509.65
402.01	1521.35
402.21	1495.60
402.40	1411.34
402.59	1659.44
402.78	1502.62
402.97	1526.03
403.17	1430.07
403.36	1600.93
403.55	1544.75
403.74	1657.10
403.93	1633.69
404.13	1699.23
404.32	1682.85
404.51	1682.85
404.70	1689.87
404.89	1631.35
405.09	1706.25
405.28	1678.16
405.47	1722.63
405.66	1722.63
405.85	1748.38
406.05	1734.34
406.24	1842.00
406.43	1792.85
406.62	1834.98
406.81	1912.22
407.00	1853.70
407.20	1839.66
407.39	1858.39
407.58	1933.28
407.77	1998.82
407.96	2022.22
408.15	1912.22
408.34	1919.24
408.54	1984.77
408.73	2001.16
408.92	1980.09
409.11	1998.82
409.30	2094.78
409.49	2015.20
409.68	2118.18
409.87	1952.01
410.07	2134.57
410.26	2188.40
410.45	2108.82
410.64	2139.25
410.83	2263.30
411.02	2092.44
411.21	2345.22
411.40	2260.96
411.59	2307.77
411.78	2172.02
411.98	2225.85
412.17	2359.26
412.36	2466.92
412.55	2457.56
412.74	2490.33
412.93	2523.10
413.12	2314.79
413.31	2609.70
413.50	2691.62
413.69	2523.10
413.88	2644.81
414.07	2623.74
414.26	2679.91
414.45	2633.10
414.64	2644.81
414.83	2717.36
415.02	2745.45
415.22	2640.12
415.41	2733.75
415.60	2691.62
415.79	2848.43
415.98	2848.43
416.17	2867.16
416.36	2846.09
416.55	2925.67
416.74	2906.95
416.93	2920.99
417.12	2977.16
417.31	2928.01
417.50	2942.05
417.69	3112.91
417.88	2993.55
418.07	3054.40
418.26	2988.86
418.45	3030.99
418.64	3274.41
418.83	3316.54
419.02	3368.03
419.21	3260.37
419.39	3110.57
419.58	3126.96
419.77	2998.23
419.96	3269.73
420.15	3323.56
420.34	3304.84
420.53	3265.05
420.72	3375.05
420.91	3438.25
421.10	3494.42
421.29	3503.78
421.48	3414.84
421.67	3398.46
421.86	3386.76
422.05	3461.65
422.24	3351.65
422.43	3424.20
422.61	3365.69
422.80	3543.57
422.99	3569.32
423.18	3494.42
423.37	3403.14
423.56	3482.72
423.75	3440.59
423.94	3510.80
424.13	3288.45
424.32	3480.38
424.50	3590.38
424.69	3531.87
424.88	3777.62
425.07	3634.85
425.26	3538.89
425.45	3620.81
425.64	3564.64
425.83	3482.72
426.01	3599.74
426.20	3730.81
426.39	3552.93
426.58	3550.59
426.77	3613.79
426.96	3550.59
427.15	3688.68
427.33	3737.84
427.52	3726.13
427.71	3838.48
427.90	3728.47
428.09	3681.66
428.28	3932.10
428.46	3702.73
428.65	3700.39
428.84	3754.22
429.03	3878.27
429.22	3665.28
429.40	3882.95
429.59	3758.90
429.78	3611.45
429.97	3597.40
430.16	3623.15
430.34	3847.84
430.53	3955.51
430.72	3971.89
430.91	3953.16
431.10	3934.44
431.28	4016.36
431.47	4201.26
431.66	4060.83
431.85	4163.81
432.03	4205.94
432.22	4238.71
432.41	4166.15
432.60	4215.30
432.79	4294.88
432.97	4229.35
433.16	4250.41
433.35	4276.16
433.54	4257.43
433.72	4358.08
433.91	4306.59
434.10	4306.59
434.28	4442.34
434.47	4355.74
434.66	4514.89
434.85	4461.06
435.03	4468.08
435.22	4395.53
435.41	4585.11
435.59	4540.64
435.78	4510.21
435.97	4655.33
436.16	4692.77
436.34	4620.22
436.53	4702.14
436.72	4716.18
436.90	4603.83
437.09	4795.76
437.28	4561.70
437.46	4716.18
437.65	4620.22
437.84	4535.96
438.02	4615.54
438.21	4821.50
438.40	4741.93
438.58	4781.71
438.77	4971.30
438.96	4847.25
439.14	4947.89
439.33	4971.30
439.52	5160.88
439.70	5132.79
439.89	5093.01
440.08	5144.50
440.26	5069.60
440.45	5107.05
440.63	5111.73
440.82	5350.46
441.01	5416.00
441.19	5385.57
441.38	5533.03
441.57	5252.16
441.75	5542.39
441.94	5568.13
442.12	5537.71
442.31	5844.32
442.50	5846.66
442.68	5671.12
442.87	5638.35
443.05	5729.63
443.24	5870.06
443.43	5696.86
443.61	5841.98
443.80	5937.94
443.98	5846.66
444.17	5605.58
444.35	5748.36
444.54	5907.51
444.73	5914.53
444.91	5792.83
445.10	5881.77
445.28	5645.37
445.47	5771.76
445.65	5844.32
445.84	5933.26
446.02	6033.90
446.21	5959.00
446.39	5884.11
446.58	5937.94
446.77	5919.21
446.95	5898.15
447.14	5991.77
447.32	5984.75
447.51	5951.98
447.69	5996.45
447.88	6015.18
448.06	5874.74
448.25	5970.71
448.43	6064.33
448.62	6132.20
448.80	6090.07
448.99	6319.45
449.17	6230.51
449.36	6094.76
449.54	6237.53
449.73	6349.87
449.91	6319.45
450.10	6345.19
450.28	6438.81
450.46	6370.94
450.65	6408.39
450.83	6499.67
451.02	6300.72
451.20	6487.96
451.39	6408.39
451.57	6455.20
451.76	6509.03
451.94	6649.46
452.13	6593.29
452.31	6597.97
452.49	6483.28
452.68	6600.31
452.86	6621.38
453.05	6654.14
453.23	6832.02
453.42	6593.29
453.60	6661.16
453.78	6829.68
453.97	6600.31
454.15	6724.36
454.34	6612.01
454.52	6857.77
454.70	6649.46
454.89	6848.41
455.07	6724.36
455.26	6860.11
455.44	6958.41
455.62	6773.51
455.81	6825.00
455.99	7009.90
456.17	7213.53
456.36	7045.01
456.54	7091.82
456.73	7169.06
456.91	7360.98
457.09	7328.22
457.28	7332.90
457.46	7187.79
457.64	7265.02
457.83	7375.03
458.01	7307.15
458.19	7353.96
458.38	7440.56
458.56	7566.95
458.74	7454.61
458.93	7468.65
459.11	7520.14
459.29	7538.87
459.48	7714.41
459.66	7419.50
459.84	7499.08
460.03	7616.10
460.21	7698.02
460.39	7765.90
460.57	7681.64
460.76	7796.32
460.94	7740.15
461.12	7602.06
461.31	7707.38
461.49	7779.94
461.67	7461.63
461.85	8046.76
462.04	7974.21
462.22	7948.46
462.40	8004.63
462.59	8004.63
462.77	8023.36
462.95	8049.10
463.13	8049.10
463.32	8056.12
463.50	8196.56
463.68	8294.86
463.86	8241.03
464.05	8013.99
464.23	7995.27
464.41	8215.28
464.59	8116.98
464.78	8362.73
464.96	8217.62
465.14	8379.12
465.32	8379.12
465.50	8329.97
465.69	8327.63
465.87	8156.77
466.05	8411.89
466.23	8468.06
466.41	8339.33
466.60	8376.78
466.78	8446.99
466.96	8301.88
467.14	8587.43
467.32	8594.45
467.51	8557.00
467.69	8348.69
467.87	8589.77
468.05	8652.96
468.23	8423.59
468.41	8475.08
468.60	8559.34
468.78	8704.45
468.96	8718.50
469.14	8699.77
469.32	8947.87
469.50	8725.52
469.69	8919.78
469.87	9008.72
470.05	9064.89
470.23	8954.89
470.41	8952.55
470.59	9001.70
470.77	9043.83
470.95	8982.98
471.14	9184.26
471.32	8842.54
471.50	9350.44
471.68	9245.12
471.86	9437.04
472.04	9327.03
472.22	9657.05
472.40	9128.09
472.58	9378.53
472.77	9427.68
472.95	9699.18
473.13	9813.87
473.31	9448.74
473.49	9495.55
473.67	9933.23
473.85	9858.34
474.03	9998.77
474.21	10015.15
474.39	10160.27
474.57	10068.98
474.75	10286.65
474.93	10396.66
475.12	10246.87
475.30	10193.03
475.48	10143.88
475.66	10284.31
475.84	10462.19
476.02	10354.53
476.20	10401.34
476.38	10377.94
476.56	10729.02
476.74	10787.53
476.92	10860.09
477.10	10705.61
477.28	10972.43
477.46	10878.81
477.64	11232.23
477.82	11140.95
478.00	11452.24
478.18	11529.48
478.36	11459.26
478.54	11496.71
478.72	11723.74
478.90	11770.55
479.08	11889.92
479.26	11939.07
479.44	12013.97
479.62	12236.32
479.80	12114.61
479.98	12210.57
480.16	12327.60
480.34	12468.03
480.52	12367.39
480.70	12498.46
480.88	12451.65
481.06	12634.21
481.24	12732.51
481.41	12886.99
481.59	13186.58
481.77	13025.08
481.95	13385.52
482.13	13336.37
482.31	13334.03
482.49	13860.65
482.67	13598.51
482.85	13642.98
483.03	13909.80
483.21	14050.24
483.39	14040.87
483.57	13888.74
483.74	14403.66
483.92	14473.87
484.10	14317.06
484.28	14497.28
484.46	14906.87
484.64	14874.10
484.82	14520.68
485.00	14995.81
485.18	14909.21
485.35	15309.44
485.53	14967.73
485.71	14988.79
485.89	15419.45
486.07	15417.11
486.25	15466.26
486.43	15459.24
486.61	15777.55
486.78	15838.41
486.96	16098.20
487.14	16278.43
487.32	16559.29
487.50	16578.01
487.68	16510.14
487.85	16844.84
488.03	17085.91
488.21	16952.50
488.39	17039.10
488.57	17076.55
488.75	17418.27
488.92	17434.65
489.10	17788.07
489.28	17884.03
489.46	18082.98
489.64	18108.72
489.81	18342.78
489.99	18520.66
490.17	18602.58
490.35	18853.02
490.53	18890.46
490.70	18792.16
490.88	18951.32
491.06	19358.57
491.24	19054.30
491.41	19122.18
491.59	19068.34
491.77	19012.17
491.95	19503.68
492.13	19456.87
492.30	19641.78
492.48	19702.63
492.66	19634.75
492.84	19971.79
493.01	20077.12
493.19	20243.29
493.37	20601.40
493.54	20498.41
493.72	20594.37
493.90	20973.54
494.08	21109.29
494.25	21099.93
494.43	21177.17
494.61	21303.56
494.79	21415.90
494.96	21724.85
495.14	21916.78
495.32	21806.77
495.49	21647.61
495.67	22054.87
495.85	22293.60
496.02	22539.36
496.20	22417.65
496.38	22450.42
496.55	22520.63
496.73	23026.19
496.91	22459.78
497.09	23126.83
497.26	23129.17
497.44	23014.49
497.62	23243.86
497.79	23513.02
497.97	23316.42
498.14	23316.42
498.32	23393.65
498.50	23608.98
498.67	24203.48
498.85	23782.18
499.03	24044.32
499.20	24362.64
499.38	24112.20
499.56	24589.67
499.73	24329.87
499.91	24517.11
500.08	24566.26
500.26	24315.83
500.44	24769.89
500.61	24840.11
500.79	24545.20
500.97	25020.33
501.14	25104.59
501.32	25294.17
501.49	25301.19
501.67	25149.06
501.84	25373.75
502.02	25336.30
502.20	25563.33
502.37	25577.37
502.55	25804.41
502.72	26171.87
502.90	26017.40
503.07	26038.46
503.25	26441.03
503.43	25757.60
503.60	26127.40
503.78	25895.69
503.95	26551.04
504.13	26309.96
504.30	26515.93
504.48	26686.79
504.65	26635.30
504.83	26544.02
505.01	27089.36
505.18	27023.83
505.36	27344.48
505.53	26998.08
505.71	27517.68
505.88	27552.79
506.06	26993.40
506.23	27761.09
506.41	27461.51
506.58	27683.86
506.76	27641.73
506.93	27707.26
507.11	27789.18
507.28	28077.07
507.46	27840.67
507.63	28079.41
507.81	28147.28
507.98	28086.43
508.16	28524.11
508.33	28072.39
508.50	28526.45
508.68	28903.28
508.85	29048.39
509.03	28678.58
509.20	28713.69
509.38	28994.56
509.55	29186.48
509.73	29324.57
509.90	29277.76
510.08	29017.96
510.25	29539.90
510.42	28987.53
510.60	29301.17
510.77	29659.27
510.95	29673.31
511.12	29769.27
511.30	29956.52
511.47	30113.33
511.64	29914.39
511.82	29979.92
511.99	29771.61
512.17	30202.27
512.34	29940.13
512.51	30419.94
512.69	30506.54
512.86	30562.72
513.04	30277.17
513.21	30991.03
513.38	30803.79
513.56	30611.87
513.73	30611.87
513.90	31143.17
514.08	31122.10
514.25	31206.36
514.43	30991.03
514.60	31007.42
514.77	30824.86
514.95	31417.01
515.12	31597.23
515.29	31372.54
515.47	31768.09
515.64	32116.83
515.81	31672.13
515.99	31571.49
516.16	31821.92
516.33	31974.06
516.51	31744.69
516.68	31688.51
516.85	31615.96
517.03	32116.83
517.20	31702.56
517.37	32067.68
517.54	32430.46
517.72	31960.02
517.89	32474.93
518.06	32063.00
518.24	32456.21
518.41	32259.60
518.58	32409.40
518.75	32503.02
518.93	32765.16
519.10	32210.45
519.27	32730.05
519.45	32811.97
519.62	33195.82
519.79	33127.94
519.96	33537.54
520.14	33275.40
520.31	33102.20
520.48	33036.66
520.65	33305.82
520.83	33855.85
521.00	33930.75
521.17	33989.26
521.34	34022.03
521.52	33766.91
521.69	34029.05
521.86	34368.43
522.03	34227.99
522.20	34412.90
522.38	34251.40
522.55	34370.77
522.72	34326.30
522.89	34394.17
523.07	34155.44
523.24	34366.09
523.41	34403.53
523.58	34422.26
523.75	34955.90
523.92	35201.66
524.10	34934.84
524.27	34831.85
524.44	35222.72
524.61	34969.94
524.78	35405.28
524.96	35204.00
525.13	35501.25
525.30	35625.29
525.47	35615.93
525.64	35346.77
525.81	35531.67
525.98	35295.28
526.16	35569.12
526.33	35150.17
526.50	35395.92
526.67	35374.86
526.84	35405.28
527.01	35386.56
527.18	35639.34
527.36	35597.21
527.53	36191.70
527.70	36442.14
527.87	36135.53
528.04	36236.17
528.21	36390.65
528.38	36037.23
528.55	36119.15
528.72	36669.17
528.89	36540.44
529.07	36294.69
529.24	36388.31
529.41	36430.44
529.58	36477.25
529.75	36655.13
529.92	36636.41
530.09	37223.88
530.26	36943.02
530.43	36828.33
530.60	36636.41
530.77	36854.08
530.94	37090.47
531.11	37261.33
531.28	36823.65
531.46	37125.58
531.63	37354.95
531.80	37071.75
531.97	37289.42
532.14	37277.71
532.31	37184.09
532.48	37380.70
532.65	37296.44
532.82	37322.18
532.99	37539.85
533.16	37801.99
533.33	37745.82
533.50	37642.84
533.67	37811.35
533.84	37680.28
534.01	37703.69
534.18	37968.17
534.35	38176.48
534.52	37598.37
534.69	38443.30
534.86	38183.50
535.03	37755.18
535.20	38305.21
535.37	38466.70
535.54	38749.91
535.71	38431.60
535.88	38412.87
536.05	38689.06
536.22	38801.40
536.38	38576.71
536.55	38548.62
536.72	38635.22
536.89	38766.29
537.06	38646.93
537.23	38691.40
537.40	38780.34
537.57	38656.29
537.74	38857.57
537.91	39313.98
538.08	39082.27
538.25	38927.79
538.42	39030.77
538.59	39138.44
538.75	38754.59
538.92	39070.56
539.09	39269.51
539.26	39330.36
539.43	39241.42
539.60	39218.02
539.77	38869.28
539.94	39278.87
540.11	39292.91
540.28	39426.32
540.44	39325.68
540.61	39611.23
540.78	39159.50
540.95	39299.94
541.12	39896.77
541.29	39672.08
541.46	39597.18
541.62	39864.00
541.79	39974.01
541.96	39882.73
542.13	39578.46
542.30	39519.95
542.47	39545.69
542.63	40051.25
542.80	40364.88
542.97	40573.19
543.14	40964.06
543.31	40177.64
543.48	40367.22
543.64	40900.86
543.81	40605.95
543.98	40926.61
544.15	40364.88
544.32	40517.01
544.48	40823.62
544.65	40605.95
544.82	40589.57
544.99	40622.34
545.16	41244.92
545.32	40531.06
545.49	41167.68
545.66	41385.35
545.83	40669.15
546.00	40992.14
546.16	41158.32
546.33	40973.42
546.50	40907.88
546.67	40942.99
546.83	41076.40
547.00	41085.76
547.17	41495.36
547.34	41160.66
547.50	41371.31
547.67	41303.43
547.84	41212.15
548.00	41493.02
548.17	41979.85
548.34	42024.32
548.51	41432.16
548.67	41804.31
548.84	41790.27
549.01	41567.91
549.18	41722.39
549.34	41654.51
549.51	41729.41
549.68	41883.89
549.84	41902.61
550.01	42045.38
550.18	41708.35
550.34	42143.69
550.51	41673.24
550.68	41670.90
550.84	41848.78
551.01	42150.71
551.18	42094.53
551.34	42293.48
551.51	42469.02
551.68	41808.99
551.84	42171.77
552.01	41823.03
552.18	42401.14
552.34	41600.68
552.51	42340.29
552.68	42234.97
552.84	42651.58
553.01	42731.16
553.18	42494.77
553.34	42506.47
553.51	42543.92
553.67	42382.42
553.84	42784.99
554.01	42593.07
554.17	43236.72
554.34	42518.17
554.51	42848.19
554.67	42660.94
554.84	42506.47
555.00	42602.43
555.17	42267.73
555.33	42550.94
555.50	42450.30
555.67	42602.43
555.83	42799.04
556.00	42686.69
556.16	43026.07
556.33	43016.71
556.50	42756.91
556.66	42696.05
556.83	43260.12
556.99	42955.85
557.16	43320.98
557.32	43283.53
557.49	43351.40
557.65	42698.39
557.82	42838.83
557.98	43269.48
558.15	43332.68
558.32	43199.27
558.48	43143.09
558.65	43068.20
558.81	42979.26
558.98	43091.60
559.14	43512.90
559.31	43091.60
559.47	43316.29
559.64	43414.60
559.80	43613.54
559.97	43220.33
560.13	43367.79
560.30	42986.28
560.46	43110.33
560.63	43234.38
560.79	43428.64
560.96	43672.06
561.12	43707.16
561.29	43763.34
561.45	43718.87
561.61	43484.81
561.78	43730.57
561.94	43306.93
562.11	43248.42
562.27	43522.26
562.44	43346.72
562.60	43627.59
562.77	43880.36
562.93	43503.54
563.10	43531.62
563.26	43606.52
563.42	43950.58
563.59	43529.28
563.75	43533.96
563.92	43948.24
564.08	44105.06
564.24	43695.46
564.41	43585.46
564.57	43688.44
564.74	44119.10
564.90	43672.06
565.07	43866.32
565.23	43632.27
565.39	44168.25
565.56	43761.00
565.72	43873.34
565.88	44362.51
566.05	43988.03
566.21	44105.06
566.38	44348.47
566.54	43999.73
566.70	44194.00
566.87	44126.12
567.03	44257.19
567.19	44816.58
567.36	44533.37
567.52	43981.01
567.68	44179.95
567.85	44083.99
568.01	44013.77
568.17	43641.63
568.34	44280.60
568.50	44062.93
568.66	44292.30
568.83	43903.77
568.99	43648.65
569.15	43992.71
569.32	44182.29
569.48	43917.81
569.64	44460.82
569.81	44266.55
569.97	44285.28
570.13	44102.71
570.30	44168.25
570.46	43777.38
570.62	44219.74
570.78	44219.74
570.95	44353.15
571.11	43896.75
571.27	44261.87
571.43	44046.54
571.60	44201.02
571.76	44002.07
571.92	44282.94
572.09	44147.18
572.25	44463.16
572.41	43695.46
572.57	44776.79
572.74	44650.40
572.90	44226.76
573.06	44486.56
573.22	44306.34
573.38	44512.31
573.55	43786.74
573.71	44219.74
573.87	44416.35
574.03	44100.37
574.20	44051.22
574.36	44105.06
574.52	44430.39
574.68	44203.36
574.84	44383.58
575.01	44465.50
575.17	44425.71
575.33	43807.81
575.49	43948.24
575.65	44594.23
575.82	44311.02
575.98	44172.93
576.14	44629.34
576.30	44311.02
576.46	44568.48
576.62	44318.04
576.79	44414.01
576.95	44098.03
577.11	44444.43
577.27	44889.13
577.43	44224.42
577.59	44411.67
577.75	44304.00
577.92	44069.95
578.08	44346.13
578.24	44353.15
578.40	44257.19
578.56	44226.76
578.72	44865.73
578.88	44587.21
579.04	44320.38
579.21	44549.76
579.37	44154.21
579.53	44226.76
579.69	44247.83
579.85	44311.02
580.01	44638.70
580.17	44268.89
580.33	44814.24
580.49	44519.33
580.65	44418.69
580.82	44142.50
580.98	44678.49
581.14	44374.22
581.30	45090.42
581.46	44697.21
581.62	44767.43
581.78	44715.93
581.94	44608.27
582.10	44348.47
582.26	44725.30
582.42	44484.22
582.58	44893.82
582.74	44098.03
582.90	45200.43
583.06	45010.84
583.22	44463.16
583.38	44856.37
583.54	45017.86
583.70	44722.96
583.86	44715.93
584.02	44336.77
584.18	44376.56
584.34	44474.86
584.50	44493.58
584.66	44617.63
584.82	44320.38
584.98	44942.97
585.14	45184.04
585.30	44332.09
585.46	44718.28
585.62	44800.19
585.78	44378.90
585.94	44325.07
586.10	44985.10
586.26	44341.45
586.42	44746.36
586.58	44940.63
586.74	44928.92
586.90	44479.54
587.06	44718.28
587.22	44907.86
587.38	44615.29
587.54	44421.03
587.70	44865.73
587.86	44872.75
588.02	44800.19
588.18	45284.68
588.34	44554.44
588.49	44570.82
588.65	44177.61
588.81	44650.40
588.97	44638.70
589.13	44203.36
589.29	44622.31
589.45	44142.50
589.61	44968.71
589.77	44924.24
589.93	45034.25
590.08	45207.45
590.24	44945.31
