SpectraSuite Data File
++++++++++++++++++++++++++++++++++++
Date: Fri Oct 25 11:33:26 EDT 2013
User: price-jones
Dark Spectrum Present: No
Reference Spectrum Present: No
Number of Sampled Component Spectra: 1
Spectrometers: USB2+H05261
Integration Time (usec): 100000 (USB2+H05261)
Spectra Averaged: 1 (USB2+H05261)
Boxcar Smoothing: 0 (USB2+H05261)
Correct for Electrical Dark: No (USB2+H05261)
Strobe/Lamp Enabled: No (USB2+H05261)
Correct for Detector Non-linearity: No (USB2+H05261)
Correct for Stray Light: No (USB2+H05261)
Number of Pixels in Processed Spectrum: 2048
>>>>>Begin Processed Spectral Data<<<<<
365.73	299.59
365.92	299.59
366.12	299.59
366.32	110.01
366.52	166.18
366.72	114.69
366.91	182.56
367.11	163.84
367.31	149.79
367.51	168.52
367.70	250.44
367.90	215.33
368.10	152.13
368.30	124.05
368.49	140.43
368.69	243.42
368.89	154.48
369.09	198.95
369.28	175.54
369.48	269.16
369.68	220.01
369.87	208.31
370.07	222.35
370.27	250.44
370.47	318.31
370.66	557.05
370.86	437.68
371.06	540.66
371.25	596.84
371.45	547.69
371.65	528.96
371.84	538.32
372.04	519.60
372.24	578.11
372.44	554.71
372.63	535.98
372.83	610.88
373.03	554.71
373.22	592.16
373.42	681.10
373.62	582.79
373.81	671.73
374.01	629.60
374.21	608.54
374.40	603.86
374.60	678.76
374.79	697.48
374.99	678.76
375.19	613.22
375.38	613.22
375.58	634.29
375.78	657.69
375.97	690.46
376.17	718.54
376.37	627.26
376.56	631.94
376.76	664.71
376.95	683.44
377.15	709.18
377.35	702.16
377.54	678.76
377.74	676.41
377.93	770.04
378.13	718.54
378.33	720.88
378.52	730.25
378.72	741.95
378.91	713.86
379.11	681.10
379.31	720.88
379.50	692.80
379.70	774.72
379.89	751.31
380.09	730.25
380.28	819.19
380.48	786.42
380.68	791.10
380.87	662.37
381.07	821.53
381.26	793.44
381.46	716.20
381.65	840.25
381.85	828.55
382.04	816.85
382.24	812.17
382.43	753.65
382.63	781.74
382.83	772.38
383.02	793.44
383.22	767.70
383.41	770.04
383.61	770.04
383.80	884.72
384.00	807.48
384.19	821.53
384.39	723.23
384.58	739.61
384.78	851.96
384.97	807.48
385.17	842.59
385.36	751.31
385.56	866.00
385.75	814.51
385.95	861.32
386.14	882.38
386.34	835.57
386.53	889.40
386.72	863.66
386.92	882.38
387.11	816.85
387.31	882.38
387.50	908.13
387.70	992.39
387.89	924.51
388.09	870.68
388.28	851.96
388.48	945.58
388.67	908.13
388.86	919.83
389.06	959.62
389.25	1025.15
389.45	994.73
389.64	952.60
389.84	950.26
390.03	997.07
390.22	964.30
390.42	959.62
390.61	966.64
390.81	945.58
391.00	950.26
391.19	1055.58
391.39	1053.24
391.58	976.00
391.78	987.71
391.97	1015.79
392.16	961.96
392.36	1022.81
392.55	1191.33
392.75	1095.37
392.94	1018.13
393.13	1029.84
393.33	1036.86
393.52	1083.67
393.71	1046.22
393.91	1123.46
394.10	1102.39
394.29	1114.10
394.49	1067.28
394.68	1050.90
394.88	1093.03
395.07	1142.18
395.26	1184.31
395.46	1200.69
395.65	1200.69
395.84	1207.72
396.04	1277.93
396.23	1128.14
396.42	1207.72
396.62	1226.44
396.81	1299.00
397.00	1219.42
397.19	1226.44
397.39	1097.71
397.58	1228.78
397.77	1245.16
397.97	1207.72
398.16	1299.00
398.35	1315.38
398.55	1191.33
398.74	1203.04
398.93	1256.87
399.12	1299.00
399.32	1345.81
399.51	1291.98
399.70	1409.00
399.90	1294.32
400.09	1411.34
400.28	1373.89
400.47	1359.85
400.67	1476.88
400.86	1369.21
401.05	1467.52
401.24	1437.09
401.44	1460.49
401.63	1458.15
401.82	1359.85
402.01	1509.65
402.21	1448.79
402.40	1495.60
402.59	1460.49
402.78	1540.07
402.97	1526.03
403.17	1544.75
403.36	1516.67
403.55	1575.18
403.74	1596.25
403.93	1605.61
404.13	1626.67
404.32	1638.38
404.51	1626.67
404.70	1647.74
404.89	1598.59
405.09	1685.19
405.28	1661.78
405.47	1636.03
405.66	1675.82
405.85	1631.35
406.05	1696.89
406.24	1675.82
406.43	1771.79
406.62	1881.79
406.81	1877.11
407.00	1755.40
407.20	1778.81
407.39	1891.15
407.58	1881.79
407.77	1797.53
407.96	1748.38
408.15	1795.19
408.34	1907.54
408.54	1949.67
408.73	1970.73
408.92	1954.35
409.11	1970.73
409.30	2033.93
409.49	1935.62
409.68	1912.22
409.87	1933.28
410.07	1966.05
410.26	1998.82
410.45	2022.22
410.64	2069.03
410.83	2033.93
411.02	2153.29
411.21	2249.25
411.40	2162.66
411.59	2249.25
411.78	2333.51
411.98	2169.68
412.17	2239.89
412.36	2289.04
412.55	2230.53
412.74	2277.34
412.93	2340.54
413.12	2370.96
413.31	2417.77
413.50	2399.05
413.69	2450.54
413.88	2600.34
414.07	2551.18
414.26	2523.10
414.45	2572.25
414.64	2495.01
414.83	2616.72
415.02	2593.31
415.22	2593.31
415.41	2640.12
415.60	2684.59
415.79	2612.04
415.98	2808.64
416.17	2672.89
416.36	2724.38
416.55	2670.55
416.74	2785.24
416.93	2857.79
417.12	2897.58
417.31	2829.71
417.50	2918.65
417.69	3019.29
417.88	3063.76
418.07	2815.66
418.26	2904.60
418.45	2960.78
418.64	3124.62
418.83	3028.65
419.02	3019.29
419.21	3126.96
419.39	3112.91
419.58	3138.66
419.77	3061.42
419.96	3173.77
420.15	3162.06
420.34	3045.04
420.53	3103.55
420.72	3222.92
420.91	3286.11
421.10	3253.34
421.29	3243.98
421.48	3251.00
421.67	3248.66
421.86	3386.76
422.05	3407.82
422.24	3377.39
422.43	3346.97
422.61	3478.04
422.80	3349.31
422.99	3300.16
423.18	3475.70
423.37	3433.57
423.56	3412.50
423.75	3473.36
423.94	3225.26
424.13	3178.45
424.32	3222.92
424.50	3487.40
424.69	3419.52
424.88	3578.68
425.07	3251.00
425.26	3508.46
425.45	3473.36
425.64	3382.07
425.83	3398.46
426.01	3571.66
426.20	3517.83
426.39	3473.36
426.58	3536.55
426.77	3555.27
426.96	3602.08
427.15	3574.00
427.33	3588.04
427.52	3569.32
427.71	3513.14
427.90	3482.72
428.09	3719.11
428.28	3768.26
428.46	3794.01
428.65	3583.36
428.84	3878.27
429.03	3845.50
429.22	3676.98
429.40	3686.34
429.59	3829.12
429.78	3604.42
429.97	3653.58
430.16	3904.01
430.34	3824.44
430.53	3824.44
430.72	3765.92
430.91	3810.39
431.10	3889.97
431.28	3927.42
431.47	3955.51
431.66	4093.60
431.85	3929.76
432.03	4098.28
432.22	4100.62
432.41	4095.94
432.60	4049.13
432.79	4086.58
432.97	4152.11
433.16	3997.64
433.35	4093.60
433.54	4224.67
433.72	4236.37
433.91	4290.20
434.10	4205.94
434.28	4177.86
434.47	4177.86
434.66	4358.08
434.85	4285.52
435.03	4229.35
435.22	4388.50
435.41	4528.94
435.59	4493.83
435.78	4461.06
435.97	4402.55
436.16	4374.46
436.34	4341.69
436.53	4540.64
436.72	4500.85
436.90	4297.22
437.09	4440.00
437.28	4454.04
437.46	4491.49
437.65	4571.07
437.84	4631.92
438.02	4601.49
438.21	4573.41
438.40	4662.35
438.58	4851.93
438.77	4875.34
438.96	4795.76
439.14	4795.76
439.33	5057.90
439.52	4957.25
439.70	4957.25
439.89	5011.09
440.08	5130.45
440.26	5203.01
440.45	5123.43
440.63	5125.77
440.82	5350.46
441.01	5294.29
441.19	5050.88
441.38	5277.91
441.57	5219.39
441.75	5313.02
441.94	5376.21
442.12	5418.34
442.31	5554.09
442.50	5628.99
442.68	5561.11
442.87	5521.32
443.05	5652.39
443.24	5507.28
443.43	5638.35
443.61	5694.52
443.80	5856.02
443.98	5397.28
444.17	5425.36
444.35	5654.73
444.54	5865.38
444.73	5568.13
444.91	5549.41
445.10	5720.27
445.28	5687.50
445.47	5598.56
445.65	5589.20
445.84	5703.89
446.02	5696.86
446.21	5722.61
446.39	5781.12
446.58	5746.02
446.77	5619.63
446.95	5636.01
447.14	5706.23
447.32	5944.96
447.51	5769.42
447.69	5680.48
447.88	5933.26
448.06	5977.73
448.25	5919.21
448.43	5844.32
448.62	5856.02
448.80	5743.67
448.99	5968.37
449.17	5895.81
449.36	5980.07
449.54	5923.90
449.73	6143.91
449.91	6270.30
450.10	6078.37
450.28	6118.16
450.46	6171.99
450.65	6148.59
450.83	6111.14
451.02	6209.44
451.20	6258.59
451.39	6310.08
451.57	6204.76
451.76	6256.25
451.94	6204.76
452.13	6279.66
452.31	6307.74
452.49	6141.57
452.68	6307.74
452.86	6356.90
453.05	6296.04
453.23	6392.00
453.42	6382.64
453.60	6361.58
453.78	6490.31
453.97	6576.91
454.15	6420.09
454.34	6525.41
454.52	6717.34
454.70	6656.48
454.89	6546.48
455.07	6567.54
455.26	6698.61
455.44	6675.21
455.62	6693.93
455.81	6839.05
455.99	6724.36
456.17	6827.34
456.36	6862.45
456.54	6738.40
456.73	6869.47
456.91	7028.63
457.09	7028.63
457.28	7218.21
457.46	7059.06
457.64	7037.99
457.83	7164.38
458.01	6895.22
458.19	7283.75
458.38	7250.98
458.56	7258.00
458.74	7110.55
458.93	7321.20
459.11	7227.57
459.29	7241.62
459.48	7335.24
459.66	7295.45
459.84	7496.74
460.03	7599.72
460.21	7559.93
460.39	7283.75
460.57	7590.36
460.76	7487.37
460.94	7571.63
461.12	7494.40
461.31	7728.45
461.49	7442.90
461.67	7543.55
461.85	7562.27
462.04	7543.55
462.22	8133.36
462.40	7775.26
462.59	7868.88
462.77	7889.95
462.95	7812.71
463.13	7939.10
463.32	7903.99
463.50	7861.86
463.68	7936.76
463.86	8332.31
464.05	8093.57
464.23	7885.26
464.41	8004.63
464.59	7878.24
464.78	8187.19
464.96	8163.79
465.14	7815.05
465.32	8243.37
465.50	8109.96
465.69	7943.78
465.87	8095.91
466.05	8079.53
466.23	8156.77
466.41	8187.19
466.60	8409.54
466.78	8212.94
466.96	8430.61
467.14	8276.13
467.32	8320.60
467.51	8667.00
467.69	8018.68
467.87	8084.21
468.05	8697.43
468.23	8341.67
468.41	8655.30
468.60	8465.72
468.78	8596.79
468.96	8531.25
469.14	8582.74
469.32	8662.32
469.50	8346.35
469.69	8657.64
469.87	8798.07
470.05	8826.16
470.23	8868.29
470.41	8786.37
470.59	8926.80
470.77	8842.54
470.95	8844.88
471.14	8901.06
471.32	8802.75
471.50	9385.55
471.68	9041.49
471.86	8936.17
472.04	9071.92
472.22	9233.41
472.40	9107.02
472.58	9530.66
472.77	9453.42
472.95	9469.81
473.13	9764.72
473.31	9455.76
473.49	9411.29
473.67	9490.87
473.85	9628.96
474.03	9902.81
474.21	9734.29
474.39	9820.89
474.57	9893.44
474.75	10019.83
474.93	10146.22
475.12	10043.24
475.30	10162.61
475.48	9944.94
475.66	9968.34
475.84	10190.69
476.02	10420.06
476.20	10115.80
476.38	10527.73
476.56	10574.54
476.74	10684.55
476.92	10462.19
477.10	10595.61
477.28	10796.89
477.46	10775.83
477.64	10843.70
477.82	10918.60
478.00	11119.89
478.18	11133.93
478.36	11248.61
478.54	11658.21
478.72	11482.67
478.90	11407.77
479.08	11737.79
479.26	11768.21
479.44	11852.47
479.62	11606.72
479.80	11763.53
479.98	11962.48
480.16	12542.93
480.34	12414.20
480.52	12332.28
480.70	12470.37
480.88	12266.75
481.06	12589.74
481.24	12451.65
481.41	12936.14
481.59	12812.09
481.77	13095.30
481.95	12947.84
482.13	13221.69
482.31	13165.51
482.49	13418.29
482.67	13584.47
482.85	13472.12
483.03	13570.43
483.21	13778.73
483.39	14120.45
483.57	13825.54
483.74	13914.48
483.92	14090.02
484.10	14108.75
484.28	14633.03
484.46	14839.00
484.64	14888.15
484.82	14738.35
485.00	14661.12
485.18	15077.73
485.35	15424.13
485.53	15222.84
485.71	15454.56
485.89	15716.70
486.07	15473.28
486.25	15288.38
486.43	15815.00
486.61	15812.66
486.78	15786.91
486.96	16046.71
487.14	16189.49
487.32	16472.69
487.50	16304.17
487.68	16498.44
487.85	16620.14
488.03	16648.23
488.21	17282.52
488.39	16805.05
488.57	17123.36
488.75	17092.93
488.92	17439.33
489.10	17671.04
489.28	17472.10
489.46	18017.44
489.64	17539.97
489.81	18462.15
489.99	18195.32
490.17	17926.16
490.35	18455.12
490.53	18869.40
490.70	18824.93
490.88	18368.52
491.06	18932.59
491.24	18853.02
491.41	19112.81
491.59	19353.89
491.77	19566.88
491.95	19463.90
492.13	19648.80
492.30	19590.28
492.48	19868.81
492.66	20088.82
492.84	19924.98
493.01	20376.70
493.19	20128.61
493.37	20582.67
493.54	20545.22
493.72	20905.66
493.90	20786.30
494.08	20933.75
494.25	21146.74
494.43	20924.39
494.61	21376.11
494.79	21713.15
494.96	21443.99
495.14	21783.37
495.32	22012.74
495.49	21542.29
495.67	21886.35
495.85	22171.89
496.02	22274.88
496.20	22422.33
496.38	22326.37
496.55	22717.24
496.73	23173.64
496.91	22850.65
497.09	22829.59
497.26	22862.35
497.44	23285.99
497.62	23187.69
497.79	23784.52
497.97	23620.69
498.14	23772.82
498.32	23580.90
498.50	23939.00
498.67	23894.53
498.85	24056.03
499.03	24287.74
499.20	24245.61
499.38	24521.79
499.56	24613.07
499.73	24835.42
499.91	24533.50
500.08	24957.13
500.26	24982.88
500.44	24844.79
500.61	24954.79
500.79	24812.02
500.97	25532.90
501.14	25603.12
501.32	25720.15
501.49	25638.23
501.67	25825.47
501.84	25649.93
502.02	25539.93
502.20	26015.05
502.37	26190.59
502.55	25846.54
502.72	26029.10
502.90	25986.97
503.07	26054.84
503.25	26462.10
503.43	26342.73
503.60	26581.46
503.78	26684.45
503.95	26778.07
504.13	26799.13
504.30	26766.37
504.48	26670.40
504.65	27323.41
504.83	27325.75
505.01	26998.08
505.18	27351.50
505.36	27648.75
505.53	27555.13
505.71	27543.42
505.88	27728.33
506.06	27541.08
506.23	27796.20
506.41	28212.82
506.58	27990.47
506.76	28030.26
506.93	28156.64
507.11	28409.42
507.28	28170.69
507.46	28617.73
507.63	28683.27
507.81	28767.52
507.98	28556.88
508.16	28723.05
508.33	28947.75
508.50	28844.76
508.68	28854.12
508.85	29244.99
509.03	29027.32
509.20	29067.11
509.38	29586.71
509.55	29509.47
509.73	29273.08
509.90	29626.50
510.08	29584.37
510.25	29715.44
510.42	29876.94
510.60	30157.80
510.77	30305.26
510.95	30181.21
511.12	29734.17
511.30	30082.91
511.47	30167.16
511.64	30501.86
511.82	30843.58
511.99	30630.59
512.17	30785.07
512.34	30597.82
512.51	30831.88
512.69	31079.97
512.86	31292.96
513.04	31276.58
513.21	31140.83
513.38	31211.04
513.56	31503.61
513.73	31307.01
513.90	31417.01
514.08	31002.74
514.25	31702.56
514.43	32060.66
514.60	31772.77
514.77	31786.82
514.95	32306.41
515.12	31747.03
515.29	31981.08
515.47	31622.98
515.64	32088.74
515.81	32149.60
515.99	32460.89
516.16	32746.44
516.33	32313.44
516.51	32830.69
516.68	32737.07
516.85	32957.08
517.03	32854.10
517.20	33017.94
517.37	33034.32
517.54	33371.36
517.72	33039.00
517.89	33247.31
518.06	33530.51
518.24	33193.48
518.41	33439.23
518.58	33591.37
518.75	33181.77
518.93	33970.54
519.10	33521.15
519.27	33722.44
519.45	33787.97
519.62	34024.37
519.79	33790.31
519.96	33544.56
520.14	34370.77
520.31	34146.08
520.48	34309.91
520.65	34579.07
520.83	35161.87
521.00	34450.35
521.17	34459.71
521.34	34656.31
521.52	34969.94
521.69	34775.68
521.86	35112.72
522.03	35042.50
522.20	35285.92
522.38	35241.45
522.55	35150.17
522.72	34883.34
522.89	35491.88
523.07	35498.91
523.24	35508.27
523.41	35683.81
523.58	35274.21
523.75	35613.59
523.92	35807.86
524.10	35992.76
524.27	35693.17
524.44	36301.71
524.61	36254.90
524.78	36016.16
524.96	36545.12
525.13	35704.87
525.30	36463.21
525.47	36191.70
525.64	36531.08
525.81	36671.51
525.98	36559.17
526.16	36723.01
526.33	36528.74
526.50	36577.89
526.67	36641.09
526.84	36928.97
527.01	37177.07
527.18	37198.13
527.36	37284.73
527.53	37287.07
527.70	37202.82
527.87	37944.76
528.04	37170.05
528.21	37074.09
528.38	37336.23
528.55	37656.88
528.72	37343.25
528.89	37581.98
529.07	37823.06
529.24	37443.89
529.41	37912.00
529.58	37504.74
529.75	37867.53
529.92	38043.07
530.09	37928.38
530.26	38110.94
530.43	37776.25
530.60	37736.46
530.77	37933.06
530.94	38202.22
531.11	38188.18
531.28	37928.38
531.46	38253.72
531.63	38574.37
531.80	38377.76
531.97	38607.14
532.14	38597.77
532.31	38401.17
532.48	38726.50
532.65	38600.12
532.82	38604.80
532.99	38651.61
533.16	38768.63
533.33	38794.38
533.50	39075.24
533.67	38864.60
533.84	38801.40
534.01	39412.28
534.18	38993.32
534.35	39402.92
534.52	39498.88
534.69	39655.70
534.86	39555.05
535.03	39875.71
535.20	40067.63
535.37	39672.08
535.54	39903.79
535.71	39503.56
535.88	39709.53
536.05	39938.90
536.22	40264.24
536.38	40215.08
536.55	39887.41
536.72	40013.80
536.89	39826.56
537.06	40130.83
537.23	40371.90
537.40	39643.99
537.57	40217.43
537.74	39952.94
537.91	40645.74
538.08	40315.73
538.25	40250.19
538.42	40741.71
538.59	40821.28
538.75	40512.33
538.92	40992.14
539.09	41074.06
539.26	40699.58
539.43	40760.43
539.60	40816.60
539.77	40797.88
539.94	41069.38
540.11	40966.40
540.28	41076.40
540.44	41060.02
540.61	41207.47
540.78	40886.82
540.95	41043.63
541.12	41177.04
541.29	40935.97
541.46	41418.12
541.62	41551.53
541.79	41801.97
541.96	41095.13
542.13	40893.84
542.30	41265.99
542.47	41790.27
542.63	41918.99
542.80	41673.24
542.97	42206.88
543.14	41904.95
543.31	41972.83
543.48	41947.08
543.64	42499.45
543.81	42515.83
543.98	42305.18
544.15	42309.86
544.32	42494.77
544.48	42721.80
544.65	42059.43
544.82	42539.24
544.99	42108.58
545.16	42485.40
545.32	42396.46
545.49	42932.45
545.66	43012.02
545.83	42904.36
546.00	43086.92
546.16	43365.45
546.33	42658.60
546.50	42820.10
546.67	43044.79
546.83	42749.88
547.00	42660.94
547.17	42295.82
547.34	42836.48
547.50	43253.10
547.67	43990.37
547.84	43262.46
548.00	43353.74
548.17	43650.99
548.34	43320.98
548.51	43213.31
548.67	43985.69
548.84	43524.60
549.01	43353.74
549.18	43346.72
549.34	43543.33
549.51	43622.90
549.68	43732.91
549.84	43812.49
550.01	43709.50
550.18	43791.42
550.34	43807.81
550.51	44016.11
550.68	43995.05
550.84	43756.32
551.01	43962.28
551.18	44060.58
551.34	43945.90
551.51	43999.73
551.68	43983.35
551.84	44156.55
552.01	44016.11
552.18	44435.07
552.34	43943.56
552.51	44498.26
552.68	44416.35
552.84	44409.32
553.01	44299.32
553.18	44203.36
553.34	44264.21
553.51	44481.88
553.67	44657.42
553.84	44519.33
554.01	44774.45
554.17	44545.08
554.34	44959.35
554.51	44362.51
554.67	45067.02
554.84	45085.74
555.00	44907.86
555.17	45043.61
555.33	45240.21
555.50	44839.98
555.67	45223.83
555.83	45008.50
556.00	45118.51
556.16	45502.35
556.33	45277.66
556.50	45324.47
556.66	45324.47
556.83	44947.65
556.99	44889.13
557.16	45518.74
557.32	45249.58
557.49	45478.95
557.65	45148.93
557.82	44928.92
557.98	45380.65
558.15	45249.58
558.32	45483.63
558.48	45535.12
558.65	45542.14
558.81	45570.23
558.98	45610.02
559.14	45476.61
559.31	45258.94
559.47	45462.57
559.64	45563.21
559.80	45429.80
559.97	45830.03
560.13	45698.96
560.30	45441.50
560.46	46021.95
560.63	46036.00
560.79	45610.02
560.96	46307.50
561.12	46408.14
561.29	45984.51
561.45	45972.80
561.61	45457.88
561.78	45970.46
561.94	45785.56
562.11	45937.69
562.27	45876.84
562.44	45488.31
562.60	46454.95
562.77	46136.64
562.93	45972.80
563.10	46349.63
563.26	46263.03
563.42	46543.89
563.59	46485.38
563.75	46366.01
563.92	45785.56
564.08	46309.84
564.24	46377.72
564.41	46054.72
564.57	46272.39
564.74	46270.05
564.90	46525.17
565.07	46263.03
565.23	46279.41
565.39	46600.07
565.56	46492.40
565.72	46653.90
565.88	46436.23
566.05	46597.73
566.21	46534.53
566.38	46270.05
566.54	46983.91
566.70	46646.88
566.87	46555.60
567.03	46562.62
567.19	46373.03
567.36	46684.33
567.52	46539.21
567.68	46920.72
567.85	47004.98
568.01	46960.51
568.17	46459.63
568.34	46677.30
568.50	46508.79
568.66	46333.24
568.83	46976.89
568.99	47117.32
569.15	46796.67
569.32	46375.37
569.48	46916.04
569.64	47126.69
569.81	47058.81
569.97	46827.10
570.13	47096.26
570.30	46579.00
570.46	47042.43
570.62	47271.80
570.78	46735.82
570.95	47173.50
571.11	47009.66
571.27	46686.67
571.43	46990.94
571.60	46962.85
571.76	46817.74
571.92	46955.83
572.09	46909.02
572.25	46974.55
572.41	46674.96
572.57	46852.84
572.74	47398.19
572.90	46902.00
573.06	46995.62
573.22	47278.82
573.38	47653.31
573.55	47206.26
573.71	47821.83
573.87	47356.06
574.03	47227.33
574.20	47196.90
574.36	47573.73
574.52	47159.45
574.68	47269.46
574.84	47351.38
575.01	47372.44
575.17	47304.57
575.33	47786.72
575.49	47311.59
575.65	47363.08
575.82	47089.24
575.98	46841.14
576.14	47136.05
576.30	47386.49
576.46	47440.32
576.62	47000.30
576.79	47143.07
576.95	47047.11
577.11	46955.83
577.27	47264.78
577.43	47147.75
577.59	47377.12
577.75	47100.94
577.92	47327.97
578.08	47767.99
578.24	47035.41
578.40	47391.17
578.56	47384.15
578.72	47388.83
578.88	47501.17
579.04	47285.84
579.21	47372.44
579.37	47496.49
579.53	47388.83
579.69	47428.62
579.85	47271.80
580.01	47674.37
580.17	47650.97
580.33	47533.94
580.49	47213.29
580.65	47243.71
580.82	47402.87
580.98	46986.25
581.14	47140.73
581.30	47370.10
581.46	47320.95
581.62	47353.72
581.78	47332.65
581.94	47824.17
582.10	47358.40
582.26	47510.53
582.42	47466.06
582.58	47318.61
582.74	47625.22
582.90	47576.07
583.06	47739.91
583.22	47437.98
583.38	47526.92
583.54	47489.47
583.70	47831.19
583.86	47547.98
584.02	47847.57
584.18	47995.03
584.34	47639.26
584.50	48215.04
584.66	47929.49
584.82	47688.42
584.98	48289.93
585.14	47880.34
585.30	47449.68
585.46	47833.53
585.62	47674.37
585.78	47718.84
585.94	47192.22
586.10	47405.21
586.26	47454.36
586.42	47484.79
586.58	47882.68
586.74	47604.16
586.90	47124.35
587.06	47505.85
587.22	47796.08
587.38	47468.40
587.54	47643.94
587.70	48126.10
587.86	47812.46
588.02	47346.70
588.18	47501.17
588.34	47683.73
588.49	47997.37
588.65	47739.91
588.81	47812.46
588.97	47812.46
589.13	48030.13
589.29	47868.64
589.45	48353.13
589.61	48032.47
589.77	48186.95
589.93	48016.09
590.08	48259.51
