SpectraSuite Data File
++++++++++++++++++++++++++++++++++++
Date: Fri Oct 25 10:47:06 EDT 2013
User: price-jones
Dark Spectrum Present: No
Reference Spectrum Present: No
Number of Sampled Component Spectra: 1
Spectrometers: USB2+H05261
Integration Time (usec): 100000 (USB2+H05261)
Spectra Averaged: 1 (USB2+H05261)
Boxcar Smoothing: 0 (USB2+H05261)
Correct for Electrical Dark: No (USB2+H05261)
Strobe/Lamp Enabled: No (USB2+H05261)
Correct for Detector Non-linearity: No (USB2+H05261)
Correct for Stray Light: No (USB2+H05261)
Number of Pixels in Processed Spectrum: 2048
>>>>>Begin Processed Spectral Data<<<<<
365.73	154.48
365.92	154.48
366.12	154.48
366.32	0.00
366.52	58.51
366.72	53.83
366.91	0.00
367.11	95.96
367.31	44.47
367.51	44.47
367.70	28.09
367.90	39.79
368.10	11.70
368.30	60.85
368.49	11.70
368.69	0.00
368.89	9.36
369.09	37.45
369.28	32.77
369.48	28.09
369.68	67.88
369.87	154.48
370.07	149.79
370.27	173.20
370.47	184.90
370.66	322.99
370.86	430.66
371.06	430.66
371.25	482.15
371.45	437.68
371.65	404.91
371.84	409.59
372.04	456.40
372.24	552.37
372.44	531.30
372.63	500.87
372.83	463.43
373.03	510.24
373.22	475.13
373.42	486.83
373.62	465.77
373.81	498.53
374.01	571.09
374.21	564.07
374.40	550.03
374.60	571.09
374.79	550.03
374.99	587.47
375.19	603.86
375.38	552.37
375.58	524.28
375.78	699.82
375.97	557.05
376.17	692.80
376.37	613.22
376.56	638.97
376.76	617.90
376.95	699.82
377.15	535.98
377.35	645.99
377.54	585.13
377.74	641.31
377.93	627.26
378.13	657.69
378.33	620.24
378.52	627.26
378.72	606.20
378.91	662.37
379.11	561.73
379.31	603.86
379.50	589.82
379.70	711.52
379.89	634.29
380.09	596.84
380.28	554.71
380.48	636.63
380.68	599.18
380.87	699.82
381.07	573.43
381.26	664.71
381.46	622.58
381.65	671.73
381.85	674.07
382.04	660.03
382.24	603.86
382.43	678.76
382.63	732.59
382.83	657.69
383.02	685.78
383.22	669.39
383.41	655.35
383.61	718.54
383.80	737.27
384.00	727.91
384.19	739.61
384.39	730.25
384.58	730.25
384.78	758.33
384.97	774.72
385.17	713.86
385.36	706.84
385.56	741.95
385.75	725.57
385.95	767.70
386.14	732.59
386.34	833.23
386.53	767.70
386.72	734.93
386.92	807.48
387.11	784.08
387.31	819.19
387.50	826.21
387.70	840.25
387.89	873.02
388.09	826.21
388.28	830.89
388.48	894.08
388.67	868.34
388.86	809.83
389.06	837.91
389.25	908.13
389.45	929.19
389.64	861.32
389.84	938.55
390.03	868.34
390.22	917.49
390.42	786.42
390.61	779.40
390.81	987.71
391.00	903.45
391.19	997.07
391.39	940.90
391.58	940.90
391.78	922.17
391.97	1025.15
392.16	1025.15
392.36	973.66
392.55	968.98
392.75	968.98
392.94	1001.75
393.13	915.15
393.33	1053.24
393.52	1008.77
393.71	1060.26
393.91	973.66
394.10	1036.86
394.29	1060.26
394.49	1057.92
394.68	1057.92
394.88	1121.12
395.07	1100.05
395.26	1083.67
395.46	1048.56
395.65	1151.54
395.84	1027.50
396.04	1130.48
396.23	1053.24
396.42	1060.26
396.62	1100.05
396.81	1203.04
397.00	1116.44
397.19	1181.97
397.39	1275.59
397.58	1144.52
397.77	1212.40
397.97	1186.65
398.16	1273.25
398.35	1331.76
398.55	1226.44
398.74	1331.76
398.93	1294.32
399.12	1261.55
399.32	1242.82
399.51	1299.00
399.70	1348.15
399.90	1437.09
400.09	1359.85
400.28	1458.15
400.47	1425.39
400.67	1479.22
400.86	1394.96
401.05	1453.47
401.24	1406.66
401.44	1439.43
401.63	1474.54
401.82	1406.66
402.01	1472.20
402.21	1462.83
402.40	1526.03
402.59	1448.79
402.78	1526.03
402.97	1521.35
403.17	1600.93
403.36	1572.84
403.55	1680.50
403.74	1486.24
403.93	1589.22
404.13	1657.10
404.32	1729.66
404.51	1657.10
404.70	1710.93
404.89	1631.35
405.09	1675.82
405.28	1708.59
405.47	1643.06
405.66	1727.32
405.85	1799.87
406.05	1715.61
406.24	1696.89
406.43	1870.09
406.62	1837.32
406.81	1891.15
407.00	1816.26
407.20	1722.63
407.39	1832.64
407.58	1851.36
407.77	1996.48
407.96	1888.81
408.15	2026.90
408.34	1963.71
408.54	1980.09
408.73	1996.48
408.92	1933.28
409.11	2087.76
409.30	2115.84
409.49	1919.24
409.68	1947.33
409.87	2043.29
410.07	2059.67
410.26	2054.99
410.45	2031.58
410.64	2080.74
410.83	2153.29
411.02	2230.53
411.21	2296.07
411.40	2303.09
411.59	2338.20
411.78	2251.60
411.98	2207.13
412.17	2300.75
412.36	2312.45
412.55	2377.98
412.74	2401.39
412.93	2321.81
413.12	2422.45
413.31	2607.36
413.50	2541.82
413.69	2471.61
413.88	2616.72
414.07	2462.24
414.26	2597.99
414.45	2562.89
414.64	2523.10
414.83	2633.10
415.02	2736.09
415.22	2698.64
415.41	2647.15
415.60	2766.51
415.79	2787.58
415.98	2885.88
416.17	2920.99
416.36	2785.24
416.55	2757.15
416.74	2951.42
416.93	2878.86
417.12	2967.80
417.31	2958.44
417.50	2897.58
417.69	3087.17
417.88	3101.21
418.07	2937.37
418.26	3094.19
418.45	3138.66
418.64	3178.45
418.83	3063.76
419.02	3124.62
419.21	3183.13
419.39	3091.85
419.58	3157.38
419.77	3040.36
419.96	3222.92
420.15	3204.19
420.34	3073.12
420.53	3307.18
420.72	3361.01
420.91	3281.43
421.10	3400.80
421.29	3431.23
421.48	3295.47
421.67	3349.31
421.86	3262.71
422.05	3440.59
422.24	3459.31
422.43	3368.03
422.61	3386.76
422.80	3449.95
422.99	3475.70
423.18	3566.98
423.37	3548.25
423.56	3538.89
423.75	3562.30
423.94	3468.67
424.13	3290.79
424.32	3262.71
424.50	3588.04
424.69	3480.38
424.88	3597.40
425.07	3496.76
425.26	3428.88
425.45	3463.99
425.64	3660.60
425.83	3543.57
426.01	3501.44
426.20	3595.06
426.39	3595.06
426.58	3662.94
426.77	3595.06
426.96	3667.62
427.15	3651.24
427.33	3562.30
427.52	3531.87
427.71	3691.02
427.90	3674.64
428.09	3751.88
428.28	3726.13
428.46	3756.56
428.65	3847.84
428.84	3754.22
429.03	3826.78
429.22	3740.18
429.40	3801.03
429.59	3791.67
429.78	3613.79
429.97	3435.91
430.16	3719.11
430.34	3674.64
430.53	3808.05
430.72	3784.65
430.91	3854.86
431.10	3925.08
431.28	3988.27
431.47	4217.65
431.66	4138.07
431.85	4011.68
432.03	4084.23
432.22	4128.70
432.41	4194.24
432.60	4219.99
432.79	4009.34
432.97	4208.28
433.16	4304.25
433.35	4196.58
433.54	4070.19
433.72	4224.67
433.91	4306.59
434.10	4227.01
434.28	4255.09
434.47	4421.27
434.66	4252.75
434.85	4369.78
435.03	4437.66
435.22	4430.63
435.41	4369.78
435.59	4575.75
435.78	4538.30
435.97	4542.98
436.16	4575.75
436.34	4678.73
436.53	4629.58
436.72	4660.01
436.90	4390.84
437.09	4620.22
437.28	4557.02
437.46	4643.62
437.65	4641.28
437.84	4692.77
438.02	4641.28
438.21	4557.02
438.40	4667.03
438.58	4739.58
438.77	4851.93
438.96	4917.47
439.14	5149.18
439.33	4964.28
439.52	4868.31
439.70	4983.00
439.89	5107.05
440.08	5095.35
440.26	5123.43
440.45	5261.52
440.63	5095.35
440.82	5263.86
441.01	5364.51
441.19	5301.31
441.38	5305.99
441.57	5298.97
441.75	5549.41
441.94	5619.63
442.12	5619.63
442.31	5523.66
442.50	5495.58
442.68	5680.48
442.87	5593.88
443.05	5657.07
443.24	5802.19
443.43	5755.38
443.61	5734.31
443.80	5916.87
443.98	5706.23
444.17	5451.11
444.35	5636.01
444.54	5790.49
444.73	5743.67
444.91	5858.36
445.10	5827.93
445.28	5724.95
445.47	5687.50
445.65	5699.20
445.84	5987.09
446.02	5867.72
446.21	5771.76
446.39	5839.64
446.58	5937.94
446.77	5893.47
446.95	5722.61
447.14	5874.74
447.32	6017.52
447.51	5937.94
447.69	5905.17
447.88	5834.96
448.06	5872.40
448.25	5937.94
448.43	5944.96
448.62	5940.28
448.80	6022.20
448.99	6118.16
449.17	6019.86
449.36	5926.24
449.54	6125.18
449.73	6305.40
449.91	6136.88
450.10	6328.81
450.28	6335.83
450.46	6328.81
450.65	6333.49
450.83	6333.49
451.02	6427.11
451.20	6527.75
451.39	6319.45
451.57	6497.33
451.76	6415.41
451.94	6359.24
452.13	6291.36
452.31	6485.62
452.49	6516.05
452.68	6373.28
452.86	6431.79
453.05	6487.96
453.23	6663.51
453.42	6326.47
453.60	6586.27
453.78	6703.29
453.97	6480.94
454.15	6565.20
454.34	6637.76
454.52	6672.87
454.70	6853.09
454.89	6778.19
455.07	6771.17
455.26	6810.96
455.44	6956.07
455.62	6951.39
455.81	6885.86
455.99	6942.03
456.17	6993.52
456.36	6815.64
456.54	7002.88
456.73	7005.22
456.91	7197.15
457.09	7185.44
457.28	7211.19
457.46	7272.04
457.64	7169.06
457.83	7131.61
458.01	7185.44
458.19	7311.83
458.38	7396.09
458.56	7459.29
458.74	7379.71
458.93	7208.85
459.11	7328.22
459.29	7377.37
459.48	7461.63
459.66	7536.52
459.84	7595.04
460.03	7655.89
460.21	7473.33
460.39	7583.34
460.57	7754.19
460.76	7513.12
460.94	7566.95
461.12	7709.72
461.31	7637.17
461.49	7665.25
461.67	7758.88
461.85	7864.20
462.04	7751.85
462.22	8336.99
462.40	8006.97
462.59	8016.33
462.77	7978.89
462.95	7901.65
463.13	7985.91
463.32	8128.68
463.50	7955.48
463.68	8173.15
463.86	8086.55
464.05	8002.29
464.23	7934.42
464.41	8285.50
464.59	7880.58
464.78	8290.18
464.96	8100.59
465.14	8114.64
465.32	8238.69
465.50	8360.39
465.69	8306.56
465.87	8334.65
466.05	8362.73
466.23	8266.77
466.41	8311.24
466.60	8360.39
466.78	8409.54
466.96	8299.54
467.14	8201.24
467.32	8381.46
467.51	8521.89
467.69	8395.50
467.87	8266.77
468.05	8503.17
468.23	8545.30
468.41	8512.53
468.60	8617.85
468.78	8652.96
468.96	8603.81
469.14	8645.94
469.32	8760.63
469.50	8549.98
469.69	8910.42
469.87	8741.90
470.05	8711.47
470.23	8936.17
470.41	8772.33
470.59	8954.89
470.77	8882.33
470.95	8945.53
471.14	9139.79
471.32	8879.99
471.50	9097.66
471.68	8971.27
471.86	9352.78
472.04	9165.54
472.22	9455.76
472.40	9137.45
472.58	9371.50
472.77	9504.92
472.95	9437.04
473.13	9867.70
473.31	9282.56
473.49	9455.76
473.67	9635.99
473.85	9628.96
474.03	9767.06
474.21	9998.77
474.39	10092.39
474.57	10066.64
474.75	10059.62
474.93	10001.11
475.12	10029.20
475.30	9830.25
475.48	10183.67
475.66	10061.96
475.84	10129.84
476.02	10441.13
476.20	10132.18
476.38	10497.30
476.56	10792.21
476.74	10602.63
476.92	10576.88
477.10	10509.01
477.28	10988.82
477.46	10857.75
477.64	10946.69
477.82	11147.97
478.00	11548.20
478.18	11047.33
478.36	11625.44
478.54	11566.93
478.72	11295.43
478.90	11564.59
479.08	11669.91
479.26	11901.62
479.44	11894.60
479.62	11918.01
479.80	11943.75
479.98	11899.28
480.16	12430.59
480.34	12203.55
480.52	12465.69
480.70	12243.34
480.88	12205.89
481.06	12449.31
481.24	12498.46
481.41	12840.18
481.59	12746.56
481.77	12879.97
481.95	13022.74
482.13	12814.43
482.31	13062.53
482.49	13575.11
482.67	13415.95
482.85	13612.56
483.03	13785.76
483.21	13745.97
483.39	13912.14
483.57	13851.29
483.74	13984.70
483.92	14155.56
484.10	13933.21
484.28	14345.14
484.46	14523.02
484.64	14932.62
484.82	14398.98
485.00	14759.42
485.18	14956.02
485.35	15101.14
485.53	14843.68
485.71	14979.43
485.89	15255.61
486.07	15400.72
486.25	15035.60
486.43	15695.63
486.61	15723.72
486.78	15644.14
486.96	15742.44
487.14	16098.20
487.32	16180.12
487.50	16262.04
487.68	16664.61
487.85	16664.61
488.03	16912.71
488.21	16893.99
488.39	16959.52
488.57	17233.36
488.75	17324.65
488.92	17422.95
489.10	17483.80
489.28	17507.21
489.46	17804.46
489.64	17949.57
489.81	18097.02
489.99	18066.60
490.17	18129.79
490.35	18567.47
490.53	18480.87
490.70	18562.79
490.88	18630.66
491.06	18897.49
491.24	18792.16
491.41	18932.59
491.59	18967.70
491.77	18897.49
491.95	19246.23
492.13	19381.98
492.30	19583.26
492.48	19683.91
492.66	19726.04
492.84	19641.78
493.01	20271.38
493.19	20327.55
493.37	20332.23
493.54	20442.24
493.72	20596.71
493.90	20393.09
494.08	21153.76
494.25	21062.48
494.43	21247.38
494.61	21151.42
494.79	21390.16
494.96	21319.94
495.14	21514.20
495.32	21514.20
495.49	21710.81
495.67	22003.38
495.85	21891.03
496.02	22314.67
496.20	22141.47
496.38	22104.02
496.55	22551.06
496.73	23070.66
496.91	22703.20
497.09	22852.99
497.26	22862.35
497.44	22848.31
497.62	23384.29
497.79	23391.31
497.97	22902.14
498.14	23384.29
498.32	23323.44
498.50	23723.67
498.67	23791.55
498.85	23777.50
499.03	23843.04
499.20	24187.10
499.38	24135.60
499.56	24067.73
499.73	24353.27
499.91	24716.06
500.08	24376.68
500.26	24292.42
500.44	24608.39
500.61	24397.74
500.79	24460.94
500.97	24610.73
501.14	24889.26
501.32	24910.32
501.49	25228.63
501.67	25130.33
501.84	25170.12
502.02	25149.06
502.20	25401.83
502.37	25488.43
502.55	25270.76
502.72	25539.93
502.90	25778.66
503.07	25743.55
503.25	25858.24
503.43	25692.06
503.60	26031.44
503.78	26157.83
503.95	26106.34
504.13	26279.54
504.30	26342.73
504.48	26342.73
504.65	26469.12
504.83	26710.19
505.01	26972.33
505.18	26909.14
505.36	27384.27
505.53	27047.23
505.71	27023.83
505.88	27283.62
506.06	26883.39
506.23	27218.09
506.41	26988.72
506.58	27386.61
506.76	27707.26
506.93	27742.37
507.11	27510.66
507.28	27826.63
507.46	27531.72
507.63	27971.74
507.81	28067.70
507.98	28018.55
508.16	28137.92
508.33	28077.07
508.50	27964.72
508.68	28456.23
508.85	28666.88
509.03	28451.55
509.20	28898.59
509.38	28570.92
509.55	28933.70
509.73	28615.39
509.90	29043.71
510.08	28910.30
510.25	28964.13
510.42	29013.28
510.60	29317.55
510.77	29457.98
510.95	29324.57
511.12	29411.17
511.30	29708.42
511.47	30000.99
511.64	29694.38
511.82	29942.47
511.99	29788.00
512.17	29984.60
512.34	29968.22
512.51	29972.90
512.69	30373.13
512.86	30445.69
513.04	30426.96
513.21	30602.50
513.38	30639.95
513.56	30548.67
513.73	30146.10
513.90	30574.42
514.08	30705.49
514.25	30658.68
514.43	30721.87
514.60	30988.69
514.77	31101.04
514.95	31384.24
515.12	31241.47
515.29	31508.29
515.47	31388.92
515.64	31424.03
515.81	31482.55
515.99	31644.04
516.16	31737.66
516.33	31934.27
516.51	31730.64
516.68	31414.67
516.85	31637.02
517.03	31475.52
517.20	32020.87
517.37	32011.51
517.54	31901.50
517.72	32016.19
517.89	31908.52
518.06	31960.02
518.24	32116.83
518.41	31920.23
518.58	32020.87
518.75	32318.12
518.93	32456.21
519.10	32671.54
519.27	32968.79
519.45	32746.44
519.62	32664.52
519.79	33312.84
519.96	32999.21
520.14	33151.35
520.31	32905.59
520.48	33144.33
520.65	33296.46
520.83	33649.88
521.00	33596.05
521.17	33092.83
521.34	33715.42
521.52	33600.73
521.69	33895.64
521.86	34380.13
522.03	34089.90
522.20	34115.65
522.38	34148.42
522.55	34387.15
522.72	34005.64
522.89	33778.61
523.07	34347.36
523.24	34066.50
523.41	34569.71
523.58	34988.67
523.75	34712.49
523.92	34494.82
524.10	34778.02
524.27	34714.83
524.44	34871.64
524.61	34637.59
524.78	35014.41
524.96	35285.92
525.13	35000.37
525.30	35517.63
525.47	35133.78
525.64	35407.62
525.81	35211.02
525.98	35594.87
526.16	34794.40
526.33	35049.52
526.50	35522.31
526.67	35482.52
526.84	35196.98
527.01	35201.66
527.18	35140.80
527.36	36126.17
527.53	35695.51
527.70	36140.21
527.87	35847.64
528.04	35924.88
528.21	35957.65
528.38	36275.96
528.55	36369.58
528.72	36268.94
528.89	36210.43
529.07	36624.70
529.24	36170.64
529.41	36257.24
529.58	36051.27
529.75	36273.62
529.92	36306.39
530.09	36685.56
530.26	36643.43
530.43	37050.68
530.60	36634.06
530.77	36952.38
530.94	37104.51
531.11	36739.39
531.28	36804.92
531.46	37479.00
531.63	37083.45
531.80	36786.20
531.97	36980.46
532.14	37394.74
532.31	37165.37
532.48	37191.11
532.65	37184.09
532.82	37631.13
532.99	37228.56
533.16	37310.48
533.33	37317.50
533.50	37839.44
533.67	38148.39
533.84	37542.19
534.01	37640.50
534.18	37968.17
534.35	38134.35
534.52	37780.93
534.69	37947.11
534.86	38412.87
535.03	38005.62
535.20	37785.61
535.37	38185.84
535.54	38480.75
535.71	38132.01
535.88	38192.86
536.05	38092.22
536.22	38127.33
536.38	38394.15
536.55	38218.61
536.72	38363.72
536.89	38108.60
537.06	38560.33
537.23	38560.33
537.40	38359.04
537.57	38590.75
537.74	38759.27
537.91	38927.79
538.08	38511.17
538.25	38710.12
538.42	38775.66
538.59	39086.95
538.75	38501.81
538.92	38710.12
539.09	38981.62
539.26	39068.22
539.43	38941.83
539.60	38789.70
539.77	39065.88
539.94	39328.02
540.11	38974.60
540.28	39285.89
540.44	39321.00
540.61	39625.27
540.78	39393.56
540.95	39206.31
541.12	39508.24
541.29	39218.02
541.46	39421.64
541.62	39365.47
541.79	39868.69
541.96	39239.08
542.13	39751.66
542.30	39452.07
542.47	39660.38
542.63	39709.53
542.80	39695.49
542.97	40493.61
543.14	40341.47
543.31	39730.59
543.48	40137.85
543.64	40657.45
543.81	40896.18
543.98	40390.62
544.15	40112.10
544.32	40554.46
544.48	40804.90
544.65	40671.49
544.82	40634.04
544.99	40355.52
545.16	40622.34
545.32	40519.35
545.49	41165.34
545.66	41242.58
545.83	40418.71
546.00	41078.74
546.16	40327.43
546.33	41137.26
546.50	40734.68
546.67	40825.96
546.83	40362.54
547.00	41027.25
547.17	40945.33
547.34	41289.39
547.50	41013.21
547.67	41205.13
547.84	40652.76
548.00	41373.65
548.17	41425.14
548.34	41565.57
548.51	41467.27
548.67	41422.80
548.84	41724.73
549.01	41495.36
549.18	41291.73
549.34	41734.09
549.51	42082.83
549.68	41429.82
549.84	41752.82
550.01	41635.79
550.18	41331.52
550.34	41619.41
550.51	41961.12
550.68	41872.18
550.84	41298.75
551.01	42131.98
551.18	41832.39
551.34	41956.44
551.51	41984.53
551.68	42337.95
551.84	42136.66
552.01	42103.90
552.18	42143.69
552.34	41593.66
552.51	42373.06
552.68	42080.49
552.84	42241.99
553.01	42532.22
553.18	42120.28
553.34	42117.94
553.51	41752.82
553.67	42473.70
553.84	42476.04
554.01	42642.22
554.17	42761.59
554.34	43213.31
554.51	42609.45
554.67	43079.90
554.84	42520.51
555.00	42333.27
555.17	42548.60
555.33	42682.01
555.50	42611.79
555.67	42487.74
555.83	42866.91
556.00	42649.24
556.16	42897.34
556.33	42782.65
556.50	43086.92
556.66	43236.72
556.83	42857.55
556.99	43016.71
557.16	42873.93
557.32	42944.15
557.49	43381.83
557.65	42700.73
557.82	42663.28
557.98	43096.28
558.15	42906.70
558.32	43370.13
558.48	42997.98
558.65	43042.45
558.81	43007.34
558.98	43070.54
559.14	42927.77
559.31	43459.07
559.47	43400.55
559.64	44053.56
559.80	43697.80
559.97	43351.40
560.13	43482.47
560.30	43119.69
560.46	43157.14
560.63	43339.70
560.79	43599.50
560.96	44039.52
561.12	43306.93
561.29	43433.32
561.45	43585.46
561.61	42988.62
561.78	43213.31
561.94	43384.17
562.11	43182.88
562.27	43189.91
562.44	43871.00
562.60	43856.96
562.77	43922.49
562.93	43590.14
563.10	43604.18
563.26	43084.58
563.42	43721.21
563.59	43428.64
563.75	43533.96
563.92	44107.40
564.08	43702.48
564.24	44065.27
564.41	43573.75
564.57	43917.81
564.74	43868.66
564.90	43791.42
565.07	43985.69
565.23	43646.31
565.39	43873.34
565.56	43798.44
565.72	43922.49
565.88	43707.16
566.05	43407.58
566.21	43821.85
566.38	43597.16
566.54	43503.54
566.70	44144.84
566.87	44292.30
567.03	43985.69
567.19	44201.02
567.36	44121.44
567.52	43491.83
567.68	43880.36
567.85	43798.44
568.01	43920.15
568.17	43931.86
568.34	43791.42
568.50	44243.15
568.66	43835.89
568.83	44252.51
568.99	43786.74
569.15	43866.32
569.32	44055.90
569.48	43810.15
569.64	43971.64
569.81	44285.28
569.97	43863.98
570.13	44133.14
570.30	43810.15
570.46	44201.02
570.62	43990.37
570.78	43679.08
570.95	44367.20
571.11	44404.64
571.27	44107.40
571.43	44285.28
571.60	44395.28
571.76	43856.96
571.92	43985.69
572.09	43831.21
572.25	43922.49
572.41	44219.74
572.57	44163.57
572.74	44554.44
572.90	44472.52
573.06	44135.48
573.22	44339.11
573.38	44725.30
573.55	44046.54
573.71	44521.67
573.87	43995.05
574.03	44102.71
574.20	44130.80
574.36	44556.78
574.52	44189.31
574.68	44252.51
574.84	44921.90
575.01	44495.92
575.17	44619.97
575.33	44619.97
575.49	44219.74
575.65	45081.06
575.82	44575.50
575.98	44245.49
576.14	44514.65
576.30	44091.01
576.46	44493.58
576.62	44175.27
576.79	44608.27
576.95	44304.00
577.11	44158.89
577.27	44657.42
577.43	44444.43
577.59	44294.64
577.75	44456.14
577.92	43995.05
578.08	43868.66
578.24	44184.63
578.40	44289.96
578.56	44388.26
578.72	44474.86
578.88	44552.10
579.04	44521.67
579.21	44233.78
579.37	44170.59
579.53	44032.50
579.69	44219.74
579.85	44631.68
580.01	44252.51
580.17	44411.67
580.33	44648.06
580.49	44704.23
580.65	44449.11
580.82	44442.09
580.98	44685.51
581.14	43751.63
581.30	44772.11
581.46	44446.77
581.62	44446.77
581.78	44690.19
581.94	44631.68
582.10	44727.64
582.26	44638.70
582.42	44669.12
582.58	44615.29
582.74	44650.40
582.90	44847.00
583.06	44781.47
583.22	44746.36
583.38	44854.03
583.54	44589.55
583.70	44165.91
583.86	44561.46
584.02	44119.10
584.18	44296.98
584.34	44435.07
584.50	44509.97
584.66	44821.26
584.82	44421.03
584.98	44655.08
585.14	44701.89
585.30	44516.99
585.46	44156.55
585.62	44222.08
585.78	44626.99
585.94	43990.37
586.10	44406.98
586.26	44636.36
586.42	44786.15
586.58	44966.37
586.74	44797.85
586.90	44559.12
587.06	44432.73
587.22	44500.61
587.38	44535.71
587.54	45055.31
587.70	45095.10
587.86	44842.32
588.02	44692.53
588.18	44821.26
588.34	45092.76
588.49	44186.97
588.65	44091.01
588.81	44350.81
588.97	44519.33
589.13	44301.66
589.29	44641.04
589.45	44612.95
589.61	44889.13
589.77	44809.56
589.93	44603.59
590.08	45111.49
590.24	44856.37
