SpectraSuite Data File
++++++++++++++++++++++++++++++++++++
Date: Fri Oct 25 11:22:38 EDT 2013
User: price-jones
Dark Spectrum Present: No
Reference Spectrum Present: No
Number of Sampled Component Spectra: 1
Spectrometers: USB2+H05261
Integration Time (usec): 100000 (USB2+H05261)
Spectra Averaged: 1 (USB2+H05261)
Boxcar Smoothing: 0 (USB2+H05261)
Correct for Electrical Dark: No (USB2+H05261)
Strobe/Lamp Enabled: No (USB2+H05261)
Correct for Detector Non-linearity: No (USB2+H05261)
Correct for Stray Light: No (USB2+H05261)
Number of Pixels in Processed Spectrum: 2048
>>>>>Begin Processed Spectral Data<<<<<
365.73	210.65
365.92	210.65
366.12	210.65
366.32	95.96
366.52	121.71
366.72	184.90
366.91	166.18
367.11	102.98
367.31	114.69
367.51	131.07
367.70	149.79
367.90	135.75
368.10	124.05
368.30	67.88
368.49	112.35
368.69	107.66
368.89	145.11
369.09	184.90
369.28	133.41
369.48	110.01
369.68	119.37
369.87	114.69
370.07	140.43
370.27	220.01
370.47	234.05
370.66	594.50
370.86	564.07
371.06	664.71
371.25	674.07
371.45	734.93
371.65	678.76
371.84	631.94
372.04	678.76
372.24	667.05
372.44	674.07
372.63	702.16
372.83	627.26
373.03	716.20
373.22	669.39
373.42	737.27
373.62	770.04
373.81	830.89
374.01	767.70
374.21	875.36
374.40	791.10
374.60	823.87
374.79	844.93
374.99	791.10
375.19	739.61
375.38	784.08
375.58	868.34
375.78	807.48
375.97	847.27
376.17	896.43
376.37	800.46
376.56	870.68
376.76	866.00
376.95	884.72
377.15	870.68
377.35	896.43
377.54	968.98
377.74	894.08
377.93	966.64
378.13	880.04
378.33	938.55
378.52	1008.77
378.72	968.98
378.91	880.04
379.11	901.11
379.31	877.70
379.50	945.58
379.70	957.28
379.89	1060.26
380.09	1020.47
380.28	922.17
380.48	973.66
380.68	987.71
380.87	952.60
381.07	929.19
381.26	1041.54
381.46	1001.75
381.65	1034.52
381.85	959.62
382.04	1008.77
382.24	1083.67
382.43	1043.88
382.63	1067.28
382.83	1053.24
383.02	1116.44
383.22	1146.86
383.41	1149.20
383.61	1128.14
383.80	1121.12
384.00	1186.65
384.19	1090.69
384.39	1071.97
384.58	1130.48
384.78	1200.69
384.97	1081.33
385.17	1125.80
385.36	1205.38
385.56	1210.06
385.75	1193.67
385.95	1193.67
386.14	1179.63
386.34	1214.74
386.53	1275.59
386.72	1156.22
386.92	1261.55
387.11	1200.69
387.31	1207.72
387.50	1214.74
387.70	1256.87
387.89	1308.36
388.09	1294.32
388.28	1313.04
388.48	1261.55
388.67	1275.59
388.86	1254.53
389.06	1348.15
389.25	1355.17
389.45	1416.02
389.64	1268.57
389.84	1423.05
390.03	1404.32
390.22	1401.98
390.42	1404.32
390.61	1355.17
390.81	1394.96
391.00	1439.43
391.19	1507.30
391.39	1474.54
391.58	1390.28
391.78	1411.34
391.97	1411.34
392.16	1490.92
392.36	1502.62
392.55	1483.90
392.75	1458.15
392.94	1472.20
393.13	1495.60
393.33	1472.20
393.52	1570.50
393.71	1544.75
393.91	1633.69
394.10	1582.20
394.29	1593.90
394.49	1654.76
394.68	1591.56
394.88	1610.29
395.07	1666.46
395.26	1675.82
395.46	1582.20
395.65	1696.89
395.84	1767.10
396.04	1736.68
396.23	1727.32
396.42	1706.25
396.62	1853.70
396.81	1853.70
397.00	1717.95
397.19	1844.34
397.39	1767.10
397.58	1790.51
397.77	1823.28
397.97	1750.72
398.16	1844.34
398.35	1884.13
398.55	1834.98
398.74	1844.34
398.93	1973.07
399.12	1970.73
399.32	1984.77
399.51	1907.54
399.70	2054.99
399.90	1954.35
400.09	2125.21
400.28	2050.31
400.47	1933.28
400.67	2127.55
400.86	2099.46
401.05	2099.46
401.24	2024.56
401.44	2221.17
401.63	2190.74
401.82	2136.91
402.01	2127.55
402.21	2146.27
402.40	2183.72
402.59	2150.95
402.78	2169.68
402.97	2230.53
403.17	2277.34
403.36	2237.55
403.55	2239.89
403.74	2279.68
403.93	2296.07
404.13	2338.20
404.32	2319.47
404.51	2377.98
404.70	2434.16
404.89	2267.98
405.09	2471.61
405.28	2518.42
405.47	2504.37
405.66	2546.50
405.85	2506.71
406.05	2534.80
406.24	2633.10
406.43	2539.48
406.62	2689.28
406.81	2619.06
407.00	2649.49
407.20	2698.64
407.39	2698.64
407.58	2656.51
407.77	2722.04
407.96	2710.34
408.15	2778.22
408.34	2731.41
408.54	2829.71
408.73	2806.30
408.92	2810.98
409.11	2801.62
409.30	2801.62
409.49	2871.84
409.68	2953.76
409.87	2822.69
410.07	2935.03
410.26	3028.65
410.45	2951.42
410.64	3096.53
410.83	3087.17
411.02	3122.27
411.21	3136.32
411.40	3220.58
411.59	3227.60
411.78	3208.87
411.98	3260.37
412.17	3356.33
412.36	3215.90
412.55	3405.48
412.74	3426.54
412.93	3398.46
413.12	3318.88
413.31	3592.72
413.50	3531.87
413.69	3501.44
413.88	3794.01
414.07	3660.60
414.26	3709.75
414.45	3695.71
414.64	3707.41
414.83	3651.24
415.02	3810.39
415.22	3829.12
415.41	3861.88
415.60	3941.46
415.79	3915.72
415.98	4079.55
416.17	3885.29
416.36	3950.82
416.55	3948.48
416.74	4205.94
416.93	4194.24
417.12	4042.11
417.31	4105.30
417.50	4084.23
417.69	4292.54
417.88	4393.19
418.07	4287.86
418.26	4315.95
418.45	4407.23
418.64	4432.97
418.83	4540.64
419.02	4461.06
419.21	4411.91
419.39	4500.85
419.58	4292.54
419.77	4519.57
419.96	4645.96
420.15	4594.47
420.34	4606.17
420.53	4674.05
420.72	4709.16
420.91	4641.28
421.10	4798.10
421.29	4821.50
421.48	4692.77
421.67	4765.33
421.86	4926.83
422.05	4802.78
422.24	4835.55
422.43	4826.18
422.61	5032.15
422.80	4898.74
422.99	4961.94
423.18	4880.02
423.37	5170.24
423.56	4877.68
423.75	5057.90
423.94	4858.95
424.13	4704.48
424.32	4741.93
424.50	5013.43
424.69	5125.77
424.88	5055.56
425.07	4997.04
425.26	4945.55
425.45	5004.07
425.64	4936.19
425.83	5029.81
426.01	5167.90
426.20	5097.69
426.39	4896.40
426.58	5090.67
426.77	5172.58
426.96	5259.18
427.15	5097.69
427.33	5167.90
427.52	5200.67
427.71	5270.89
427.90	5233.44
428.09	5401.96
428.28	5392.59
428.46	5338.76
428.65	5350.46
428.84	5565.79
429.03	5628.99
429.22	5376.21
429.40	5511.96
429.59	5490.90
429.78	5355.15
429.97	5263.86
430.16	5451.11
430.34	5664.10
430.53	5645.37
430.72	5795.17
430.91	5678.14
431.10	5654.73
431.28	5827.93
431.47	5799.85
431.66	5891.13
431.85	5783.46
432.03	5977.73
432.22	6087.73
432.41	6003.47
432.60	5907.51
432.79	5874.74
432.97	6001.13
433.16	6008.16
433.35	6005.81
433.54	6150.93
433.72	6101.78
433.91	6139.23
434.10	6289.02
434.28	6054.97
434.47	6258.59
434.66	6321.79
434.85	6331.15
435.03	6438.81
435.22	6300.72
435.41	6551.16
435.59	6490.31
435.78	6527.75
435.97	6483.28
436.16	6527.75
436.34	6359.24
436.53	6520.73
436.72	6628.40
436.90	6612.01
437.09	6665.85
437.28	6469.24
437.46	6560.52
437.65	6672.87
437.84	6846.07
438.02	6691.59
438.21	6881.18
438.40	6757.13
438.58	6827.34
438.77	7180.76
438.96	7110.55
439.14	7112.89
439.33	7148.00
439.52	7403.11
439.70	7297.79
439.89	7372.69
440.08	7445.24
440.26	7335.24
440.45	7456.95
440.63	7405.46
440.82	7627.81
441.01	7730.79
441.19	7702.70
441.38	7768.24
441.57	7850.16
441.75	7927.39
441.94	7831.43
442.12	8060.80
442.31	8081.87
442.50	8112.30
442.68	8152.09
442.87	8098.25
443.05	8152.09
443.24	8301.88
443.43	8229.32
443.61	8217.62
443.80	8381.46
443.98	8063.15
444.17	7941.44
444.35	8437.63
444.54	8313.58
444.73	8376.78
444.91	8568.70
445.10	8397.84
445.28	8332.31
445.47	8269.11
445.65	8348.69
445.84	8657.64
446.02	8575.72
446.21	8704.45
446.39	8538.27
446.58	8542.96
446.77	8493.80
446.95	8442.31
447.14	8559.34
447.32	8629.56
447.51	8519.55
447.69	8610.83
447.88	8669.34
448.06	8376.78
448.25	8587.43
448.43	8643.60
448.62	8692.75
448.80	8603.81
448.99	8723.18
449.17	8737.22
449.36	8655.30
449.54	8889.35
449.73	9018.08
449.91	9039.15
450.10	9053.19
450.28	9130.43
450.46	9275.54
450.65	8908.08
450.83	9259.16
451.02	9205.33
451.20	9259.16
451.39	9188.94
451.57	9282.56
451.76	9158.52
451.94	9200.65
452.13	9179.58
452.31	9273.20
452.49	9170.22
452.68	9366.82
452.86	9413.63
453.05	9568.11
453.23	9750.67
453.42	9387.89
453.60	9511.94
453.78	9577.47
453.97	9547.05
454.15	9612.58
454.34	9586.83
454.52	9942.60
454.70	9841.95
454.89	9645.35
455.07	9626.62
455.26	9820.89
455.44	10228.14
455.62	9919.19
455.81	9755.35
455.99	10143.88
456.17	10225.80
456.36	10244.52
456.54	10317.08
456.73	10146.22
456.91	10431.77
457.09	10759.44
457.28	10576.88
457.46	10289.00
457.64	10516.03
457.83	10654.12
458.01	10391.98
458.19	10789.87
458.38	10729.02
458.56	10642.42
458.74	10736.04
458.93	10677.52
459.11	10712.63
459.29	10878.81
459.48	10930.30
459.66	11019.24
459.84	11105.84
460.03	11335.21
460.21	11068.39
460.39	11150.31
460.57	11225.21
460.76	11318.83
460.94	11021.58
461.12	11328.19
461.31	11318.83
461.49	11066.05
461.67	11087.12
461.85	11360.96
462.04	11433.52
462.22	12161.42
462.40	11531.82
462.59	11403.09
462.77	11688.64
462.95	11644.17
463.13	11599.70
463.32	11552.88
463.50	11845.45
463.68	11920.35
463.86	11903.96
464.05	11836.09
464.23	11782.26
464.41	12006.95
464.59	11749.49
464.78	12498.46
464.96	12046.74
465.14	12215.26
465.32	11908.65
465.50	12397.82
465.69	12301.86
465.87	12315.90
466.05	12358.03
466.23	12332.28
466.41	12510.16
466.60	12542.93
466.78	12119.29
466.96	12430.59
467.14	12194.19
467.32	12601.44
467.51	12535.91
467.69	12264.41
467.87	12479.74
468.05	12716.13
468.23	12659.96
468.41	12585.06
468.60	12739.54
468.78	12737.20
468.96	12657.62
469.14	12931.46
469.32	13130.41
469.50	12776.98
469.69	13226.37
469.87	13282.54
470.05	13160.83
470.23	13102.32
470.41	13097.64
470.59	13308.29
470.77	13249.77
470.95	13198.28
471.14	13645.32
471.32	13011.04
471.50	13727.24
471.68	13607.87
471.86	13774.05
472.04	13785.76
472.22	14200.03
472.40	13769.37
472.58	14078.32
472.77	14127.47
472.95	14197.69
473.13	14464.51
473.31	14281.95
473.49	14551.11
473.67	14010.45
473.85	14249.18
474.03	14684.52
474.21	14703.25
474.39	14890.49
474.57	14810.91
474.75	14953.68
474.93	15208.80
475.12	15164.33
475.30	15248.59
475.48	15211.14
475.66	15176.03
475.84	15367.96
476.02	15351.57
476.20	15487.32
476.38	15749.46
476.56	15957.77
476.74	16308.85
476.92	16196.51
477.10	15822.02
477.28	16278.43
477.46	16194.17
477.64	16435.24
477.82	16503.12
478.00	16872.92
478.18	16739.51
478.36	17036.76
478.54	17207.62
478.72	17383.16
478.90	17427.63
479.08	17497.84
479.26	17612.53
479.44	17699.13
479.62	18064.25
479.80	18188.30
479.98	18211.71
480.16	18539.38
480.34	18501.93
480.52	18913.87
480.70	18932.59
480.88	18609.60
481.06	18773.44
481.24	19070.68
481.41	19318.78
481.59	19515.39
481.77	19538.79
481.95	19754.12
482.13	20187.12
482.31	19775.19
482.49	20484.37
482.67	20093.50
482.85	20727.78
483.03	20683.31
483.21	20868.22
483.39	20966.52
483.57	21027.37
483.74	21308.24
483.92	21493.14
484.10	21366.75
484.28	21982.31
484.46	22483.19
484.64	22253.81
484.82	22256.15
485.00	22398.93
485.18	23009.81
485.35	23049.60
485.53	22937.25
485.71	23538.77
485.89	23571.54
486.07	23229.82
486.25	23676.86
486.43	23601.96
486.61	24210.50
486.78	24482.00
486.96	24177.73
487.14	24800.32
487.32	24945.43
487.50	24795.64
487.68	25144.38
487.85	25708.44
488.03	25935.48
488.21	26094.63
488.39	26073.57
488.57	26492.52
488.75	26361.45
488.92	26691.47
489.10	26902.12
489.28	26820.20
489.46	27337.46
489.64	27461.51
489.81	27644.07
489.99	27709.60
490.17	27791.52
490.35	28393.04
490.53	28261.97
490.70	28765.18
490.88	28566.24
491.06	29413.51
491.24	28783.91
491.41	29055.41
491.59	29752.89
491.77	29680.33
491.95	30054.82
492.13	29914.39
492.30	30410.58
492.48	30342.70
492.66	30513.56
492.84	30115.67
493.01	30953.58
493.19	31082.31
493.37	30808.47
493.54	31042.53
493.72	31688.51
493.90	31756.39
494.08	31835.97
494.25	31929.59
494.43	32006.83
494.61	32823.67
494.79	32943.04
494.96	32561.53
495.14	33027.30
495.32	33352.63
495.49	33701.37
495.67	33460.30
495.85	34007.98
496.02	33930.75
496.20	34242.04
496.38	34347.36
496.55	34270.12
496.73	34611.84
496.91	35016.75
497.09	34937.18
497.26	35136.12
497.44	34998.03
497.62	35419.33
497.79	35976.37
497.97	35803.17
498.14	36451.50
498.32	36528.74
498.50	36503.00
498.67	36921.95
498.85	36493.63
499.03	37092.81
499.20	37177.07
499.38	37277.71
499.56	37715.39
499.73	37825.40
499.91	37642.84
500.08	37888.59
500.26	37996.26
500.44	38066.47
500.61	37921.36
500.79	38155.41
500.97	38398.83
501.14	38609.48
501.32	38873.96
501.49	38831.83
501.67	38873.96
501.84	39288.23
502.02	39140.78
502.20	39292.91
502.37	39604.20
502.55	39358.45
502.72	39739.96
502.90	39777.40
503.07	39885.07
503.25	39859.32
503.43	40226.79
503.60	40273.60
503.78	40364.88
503.95	40226.79
504.13	40889.16
504.30	40818.94
504.48	40875.12
504.65	41092.79
504.83	41401.74
505.01	41853.46
505.18	40938.31
505.36	42080.49
505.53	41469.61
505.71	42106.24
505.88	41422.80
506.06	41848.78
506.23	42511.15
506.41	42211.56
506.58	42628.18
506.76	42515.83
506.93	42887.98
507.11	42927.77
507.28	42876.27
507.46	42852.87
507.63	43349.06
507.81	43777.38
507.98	43068.20
508.16	43229.69
508.33	43636.95
508.50	43957.60
508.68	43903.77
508.85	44332.09
509.03	44060.58
509.20	44629.34
509.38	44524.01
509.55	44825.94
509.73	45191.06
509.90	44865.73
510.08	44933.60
510.25	44816.58
510.42	45038.93
510.60	45392.35
510.77	45359.58
510.95	45694.28
511.12	45715.34
511.30	45488.31
511.47	45846.41
511.64	46232.60
511.82	46045.36
511.99	45965.78
512.17	46754.54
512.34	46110.89
512.51	46799.01
512.69	47019.02
512.86	46974.55
513.04	46927.74
513.21	47122.01
513.38	47164.14
513.56	47021.36
513.73	46897.31
513.90	47393.51
514.08	47442.66
514.25	47693.10
514.43	47882.68
514.60	47859.27
514.77	47910.77
514.95	47983.32
515.12	47842.89
515.29	47861.61
515.47	48034.81
515.64	48680.80
515.81	48062.90
515.99	48369.51
516.16	48711.23
516.33	48641.01
516.51	49097.42
516.68	48961.67
516.85	48940.60
517.03	49013.16
517.20	49361.90
517.37	49116.14
517.54	49195.72
517.72	49460.20
517.89	49399.35
518.06	49401.69
518.24	49462.54
518.41	49521.05
518.58	49822.98
518.75	49645.10
518.93	49837.03
519.10	49956.39
519.27	49916.61
519.45	50197.47
519.62	50267.69
519.79	50064.06
519.96	50351.94
520.14	50571.96
520.31	49951.71
520.48	50501.74
520.65	50623.45
520.83	51140.71
521.00	51110.28
521.17	50539.19
521.34	51124.32
521.52	51372.42
521.69	50899.63
521.86	51386.46
522.03	51468.38
522.20	51327.95
522.38	51597.11
522.55	51751.59
522.72	51714.14
522.89	51632.22
523.07	51863.93
523.24	51800.74
523.41	52161.18
523.58	51973.94
523.75	52268.84
523.92	52058.20
524.10	51948.19
524.27	52456.09
524.44	52385.87
524.61	52161.18
524.78	52467.79
524.96	52442.04
525.13	52360.12
525.30	52498.22
525.47	52608.22
525.64	52683.12
525.81	52605.88
525.98	52912.49
526.16	52795.46
526.33	52694.82
526.50	53268.25
526.67	53169.95
526.84	53298.68
527.01	53183.99
527.18	52868.02
527.36	53116.12
527.53	53123.14
527.70	53750.40
527.87	53396.98
528.04	53251.87
528.21	53694.23
528.38	53612.31
528.55	53750.40
528.72	53846.36
528.89	53806.58
529.07	53521.03
529.24	53642.74
529.41	53837.00
529.58	53844.02
529.75	54038.29
529.92	53909.56
530.09	54019.56
530.26	54167.02
530.43	54464.27
530.60	54059.35
530.77	54068.72
530.94	54630.44
531.11	54211.49
531.28	54494.69
531.46	54473.63
531.63	54440.86
531.80	54578.95
531.97	54429.16
532.14	54611.72
532.31	54703.00
532.48	54951.10
532.65	55051.74
532.82	54731.09
532.99	55007.27
533.16	54803.64
533.33	55206.22
533.50	55271.75
533.67	55075.15
533.84	55084.51
534.01	55040.04
534.18	55288.13
534.35	55576.02
534.52	55154.72
534.69	55529.21
534.86	55484.74
535.03	55262.39
535.20	55358.35
535.37	55622.83
535.54	55948.17
535.71	55269.41
535.88	55522.19
536.05	55753.90
536.22	55908.38
536.38	55838.16
536.55	56069.87
536.72	55899.01
536.89	55810.07
537.06	55798.37
537.23	56250.09
537.40	55601.77
537.57	55936.46
537.74	56165.84
537.91	56299.25
538.08	56252.44
538.25	55861.57
538.42	56156.47
538.59	56474.79
538.75	56268.82
538.92	56364.78
539.09	56432.66
539.26	56271.16
539.43	56252.44
539.60	56626.92
539.77	56549.68
539.94	56474.79
540.11	56406.91
540.28	56692.46
540.44	56502.87
540.61	56851.61
540.78	56729.90
540.95	56842.25
541.12	56645.65
541.29	56612.88
541.46	56690.12
541.62	56832.89
541.79	56858.63
541.96	56591.81
542.13	56676.07
542.30	56987.36
542.47	57137.16
542.63	57027.15
542.80	57130.14
542.97	57513.98
543.14	57249.50
543.31	57305.68
543.48	57539.73
543.64	57726.97
543.81	57418.02
543.98	57502.28
544.15	57673.14
544.32	57546.75
544.48	57764.42
544.65	57623.99
544.82	57593.56
544.99	57628.67
545.16	57818.25
545.32	57322.06
545.49	57595.90
545.66	58038.26
545.83	57923.58
546.00	57708.25
546.16	57776.12
546.33	57785.49
546.50	57584.20
546.67	58010.18
546.83	57869.75
547.00	57853.36
547.17	58010.18
547.34	58042.95
547.50	58225.51
547.67	58354.24
547.84	58092.10
548.00	58239.55
548.17	58522.76
548.34	58038.26
548.51	58389.34
548.67	58415.09
548.84	58464.24
549.01	58288.70
549.18	58344.87
549.34	58529.78
549.51	58354.24
549.68	58403.39
549.84	58408.07
550.01	58658.51
550.18	58415.09
550.34	58660.85
550.51	58602.33
550.68	58674.89
550.84	58471.26
551.01	58873.84
551.18	58632.76
551.34	58735.74
551.51	58941.71
551.68	58862.13
551.84	58803.62
552.01	58646.80
552.18	58915.96
552.34	58810.64
552.51	58967.46
552.68	58710.00
552.84	58801.28
553.01	59110.23
553.18	59161.72
553.34	58913.62
553.51	58913.62
553.67	58946.39
553.84	59089.16
554.01	59147.68
554.17	59171.08
554.34	59025.97
554.51	59114.91
554.67	59306.83
554.84	59178.10
555.00	59274.07
555.17	59089.16
555.33	59283.43
555.50	58965.12
555.67	59276.41
555.83	59255.34
556.00	59128.95
556.16	59693.02
556.33	59412.16
556.50	59295.13
556.66	59625.15
556.83	59283.43
556.99	59735.15
557.16	59554.93
557.32	59704.73
557.49	59578.34
557.65	59599.40
557.82	59384.07
557.98	59700.04
558.15	59606.42
558.32	59772.60
558.48	59805.37
558.65	59634.51
558.81	59517.48
558.98	59678.98
559.14	59805.37
559.31	59700.04
559.47	59957.50
559.64	59824.09
559.80	59976.23
559.97	60090.91
560.13	59650.89
560.30	59877.93
560.46	60060.49
560.63	60212.62
560.79	60044.10
560.96	59955.16
561.12	60137.72
561.29	59959.84
561.45	60266.45
561.61	60023.04
561.78	60027.72
561.94	59873.24
562.11	59821.75
562.27	60121.34
562.44	60250.07
562.60	60287.52
562.77	60126.02
562.93	59898.99
563.10	60184.54
563.26	60142.41
563.42	60268.79
563.59	60231.35
563.75	60123.68
563.92	60254.75
564.08	60170.49
564.24	60313.26
564.41	60385.82
564.57	60161.13
564.74	60339.01
564.90	60364.76
565.07	60210.28
565.23	60355.39
565.39	60102.62
565.56	60331.99
565.72	60320.29
565.88	60254.75
566.05	60205.60
566.21	60467.74
566.38	60509.87
566.54	60397.52
566.70	60528.59
566.87	60594.13
567.03	60355.39
567.19	60594.13
567.36	60652.64
567.52	60432.63
567.68	60779.03
567.85	60479.44
568.01	60708.82
568.17	60608.17
568.34	60561.36
568.50	60418.59
568.66	60563.70
568.83	60636.26
568.99	60559.02
569.15	60575.40
569.32	60645.62
569.48	60552.00
569.64	60877.33
569.81	60837.54
569.97	60559.02
570.13	60767.33
570.30	60556.68
570.46	60676.05
570.62	60772.01
570.78	60907.76
570.95	60736.90
571.11	60839.89
571.27	60594.13
571.43	60905.42
571.60	60898.40
571.76	60823.50
571.92	60872.65
572.09	60673.71
572.25	60844.57
572.41	60725.20
572.57	60776.69
572.74	60935.85
572.90	60910.10
573.06	60818.82
573.22	60872.65
573.38	60903.08
573.55	60807.12
573.71	61045.85
573.87	60818.82
574.03	60622.22
574.20	60856.27
574.36	60996.70
574.52	60903.08
574.68	60846.91
574.84	60900.74
575.01	60963.93
575.17	60959.25
575.33	60954.57
575.49	60669.03
575.65	60985.00
575.82	61006.06
575.98	61123.09
576.14	61151.18
576.30	61118.41
576.46	60966.27
576.62	60926.49
576.79	60989.68
576.95	60886.70
577.11	60961.59
577.27	60889.04
577.43	61024.79
577.59	60851.59
577.75	60858.61
577.92	60889.04
578.08	61001.38
578.24	61085.64
578.40	61197.99
578.56	61378.21
578.72	60970.96
578.88	61209.69
579.04	61317.35
579.21	61085.64
579.37	61200.33
579.53	61275.22
579.69	61118.41
579.85	60954.57
580.01	61102.03
580.17	60966.27
580.33	61333.74
580.49	61132.45
580.65	61015.43
580.82	61132.45
580.98	60945.21
581.14	60942.87
581.30	61240.12
581.46	61127.77
581.62	60970.96
581.78	60949.89
581.94	61403.95
582.10	61230.75
582.26	61160.54
582.42	61106.71
582.58	60980.32
582.74	61066.92
582.90	61303.31
583.06	61127.77
583.22	61066.92
583.38	61165.22
583.54	61413.32
583.70	61102.03
583.86	61240.12
584.02	61080.96
584.18	61338.42
584.34	61394.59
584.50	61176.92
584.66	61073.94
584.82	61127.77
584.98	61310.33
585.14	61153.52
585.30	60935.85
585.46	61099.68
585.62	61087.98
585.78	61429.70
585.94	61172.24
586.10	61268.20
586.26	61080.96
586.42	61315.01
586.58	61265.86
586.74	61244.80
586.90	61183.94
587.06	61132.45
587.22	61471.83
587.38	61307.99
587.54	61474.17
587.70	61408.64
587.86	61226.07
588.02	61277.57
588.18	61277.57
588.34	61291.61
588.49	61286.93
