SpectraSuite Data File
++++++++++++++++++++++++++++++++++++
Date: Fri Oct 25 11:25:33 EDT 2013
User: price-jones
Dark Spectrum Present: No
Reference Spectrum Present: No
Number of Sampled Component Spectra: 1
Spectrometers: USB2+H05261
Integration Time (usec): 100000 (USB2+H05261)
Spectra Averaged: 1 (USB2+H05261)
Boxcar Smoothing: 0 (USB2+H05261)
Correct for Electrical Dark: No (USB2+H05261)
Strobe/Lamp Enabled: No (USB2+H05261)
Correct for Detector Non-linearity: No (USB2+H05261)
Correct for Stray Light: No (USB2+H05261)
Number of Pixels in Processed Spectrum: 2048
>>>>>Begin Processed Spectral Data<<<<<
365.73	259.80
365.92	259.80
366.12	259.80
366.32	138.09
366.52	173.20
366.72	159.16
366.91	173.20
367.11	98.30
367.31	74.90
367.51	117.03
367.70	147.45
367.90	142.77
368.10	86.60
368.30	159.16
368.49	149.79
368.69	175.54
368.89	220.01
369.09	156.82
369.28	215.33
369.48	147.45
369.68	187.24
369.87	238.73
370.07	205.97
370.27	264.48
370.47	273.84
370.66	484.49
370.86	648.33
371.06	657.69
371.25	730.25
371.45	681.10
371.65	667.05
371.84	683.44
372.04	671.73
372.24	770.04
372.44	744.29
372.63	716.20
372.83	777.06
373.03	748.97
373.22	725.57
373.42	793.44
373.62	779.40
373.81	772.38
374.01	781.74
374.21	793.44
374.40	774.72
374.60	894.08
374.79	870.68
374.99	922.17
375.19	842.59
375.38	758.33
375.58	851.96
375.78	870.68
375.97	905.79
376.17	894.08
376.37	837.91
376.56	868.34
376.76	854.30
376.95	807.48
377.15	866.00
377.35	929.19
377.54	847.27
377.74	856.64
377.93	781.74
378.13	950.26
378.33	985.37
378.52	915.15
378.72	945.58
378.91	1015.79
379.11	880.04
379.31	896.43
379.50	931.53
379.70	978.34
379.89	1006.43
380.09	966.64
380.28	1008.77
380.48	1039.20
380.68	994.73
380.87	1041.54
381.07	968.98
381.26	964.30
381.46	1097.71
381.65	990.05
381.85	1064.94
382.04	1076.65
382.24	1006.43
382.43	1069.62
382.63	1062.60
382.83	1018.13
383.02	1034.52
383.22	1221.76
383.41	1071.97
383.61	1135.16
383.80	987.71
384.00	1074.31
384.19	1095.37
384.39	1163.25
384.58	1181.97
384.78	1130.48
384.97	1123.46
385.17	1207.72
385.36	1179.63
385.56	1151.54
385.75	1165.59
385.95	1231.12
386.14	1238.14
386.34	1132.82
386.53	1256.87
386.72	1242.82
386.92	1327.08
387.11	1327.08
387.31	1254.53
387.50	1238.14
387.70	1151.54
387.89	1245.16
388.09	1238.14
388.28	1252.19
388.48	1270.91
388.67	1310.70
388.86	1301.34
389.06	1280.27
389.25	1383.26
389.45	1294.32
389.64	1245.16
389.84	1348.15
390.03	1371.55
390.22	1404.32
390.42	1327.08
390.61	1373.89
390.81	1343.47
391.00	1446.45
391.19	1544.75
391.39	1420.71
391.58	1493.26
391.78	1507.30
391.97	1490.92
392.16	1343.47
392.36	1432.41
392.55	1500.28
392.75	1523.69
392.94	1554.12
393.13	1582.20
393.33	1647.74
393.52	1490.92
393.71	1586.88
393.91	1607.95
394.10	1579.86
394.29	1526.03
394.49	1514.33
394.68	1582.20
394.88	1612.63
395.07	1739.02
395.26	1523.69
395.46	1614.97
395.65	1708.59
395.84	1701.57
396.04	1717.95
396.23	1832.64
396.42	1743.70
396.62	1849.02
396.81	1788.17
397.00	1818.60
397.19	1813.92
397.39	1799.87
397.58	1743.70
397.77	1729.66
397.97	1832.64
398.16	1956.69
398.35	1750.72
398.55	1863.07
398.74	1856.04
398.93	1954.35
399.12	1865.41
399.32	1865.41
399.51	2005.84
399.70	2031.58
399.90	1959.03
400.09	1987.11
400.28	2101.80
400.47	1980.09
400.67	2050.31
400.86	2190.74
401.05	2113.50
401.24	1998.82
401.44	2148.61
401.63	2148.61
401.82	2125.21
402.01	2054.99
402.21	2033.93
402.40	2134.57
402.59	2239.89
402.78	2165.00
402.97	2286.70
403.17	2352.24
403.36	2197.76
403.55	2317.13
403.74	2307.77
403.93	2333.51
404.13	2359.26
404.32	2270.32
404.51	2399.05
404.70	2429.48
404.89	2333.51
405.09	2459.90
405.28	2459.90
405.47	2417.77
405.66	2408.41
405.85	2518.42
406.05	2401.39
406.24	2609.70
406.43	2759.49
406.62	2656.51
406.81	2623.74
407.00	2600.34
407.20	2607.36
407.39	2511.39
407.58	2710.34
407.77	2719.70
407.96	2705.66
408.15	2705.66
408.34	2726.72
408.54	2796.94
408.73	2794.60
408.92	2899.92
409.11	2855.45
409.30	2944.39
409.49	2878.86
409.68	2808.64
409.87	2928.01
410.07	2949.08
410.26	3007.59
410.45	3028.65
410.64	3033.33
410.83	2965.46
411.02	3002.91
411.21	3112.91
411.40	3019.29
411.59	3166.74
411.78	3185.47
411.98	3105.89
412.17	3166.74
412.36	3304.84
412.55	3351.65
412.74	3461.65
412.93	3459.31
413.12	3204.19
413.31	3478.04
413.50	3499.10
413.69	3431.23
413.88	3534.21
414.07	3489.74
414.26	3606.77
414.45	3637.19
414.64	3630.17
414.83	3730.81
415.02	3822.09
415.22	3726.13
415.41	3901.67
415.60	3735.50
415.79	3911.04
415.98	3988.27
416.17	3822.09
416.36	3985.93
416.55	4135.73
416.74	3995.29
416.93	4081.89
417.12	4112.32
417.31	4100.62
417.50	4081.89
417.69	4210.62
417.88	4278.50
418.07	4273.82
418.26	4294.88
418.45	4329.99
418.64	4301.90
418.83	4390.84
419.02	4383.82
419.21	4306.59
419.39	4601.49
419.58	4411.91
419.77	4243.39
419.96	4505.53
420.15	4538.30
420.34	4568.73
420.53	4517.23
420.72	4655.33
420.91	4777.03
421.10	4587.45
421.29	4744.27
421.48	4634.26
421.67	4564.04
421.86	4805.12
422.05	4819.16
422.24	4643.62
422.43	4912.78
422.61	4950.23
422.80	5074.28
422.99	4791.08
423.18	4877.68
423.37	5011.09
423.56	4833.21
423.75	4791.08
423.94	4849.59
424.13	4671.71
424.32	4793.42
424.50	4896.40
424.69	5146.84
424.88	5004.07
425.07	4851.93
425.26	4908.10
425.45	4903.42
425.64	4877.68
425.83	4847.25
426.01	5004.07
426.20	5118.75
426.39	5123.43
426.58	4992.36
426.77	5144.50
426.96	5064.92
427.15	4959.60
427.33	5245.14
427.52	4952.57
427.71	5179.61
427.90	5174.92
428.09	5350.46
428.28	5320.04
428.46	5233.44
428.65	5219.39
428.84	5310.68
429.03	5509.62
429.22	5195.99
429.40	5488.56
429.59	5479.19
429.78	5219.39
429.97	5303.65
430.16	5376.21
430.34	5549.41
430.53	5582.18
430.72	5610.26
430.91	5668.78
431.10	5437.06
431.28	5628.99
431.47	5647.71
431.66	5680.48
431.85	5640.69
432.03	5785.80
432.22	5982.41
432.41	5968.37
432.60	5802.19
432.79	5994.11
432.97	6033.90
433.16	5959.00
433.35	6045.60
433.54	6083.05
433.72	5996.45
433.91	6052.63
434.10	6099.44
434.28	6071.35
434.47	6244.55
434.66	6307.74
434.85	6267.95
435.03	6279.66
435.22	6122.84
435.41	6469.24
435.59	6256.25
435.78	6466.90
435.97	6319.45
436.16	6345.19
436.34	6464.56
436.53	6429.45
436.72	6406.05
436.90	6321.79
437.09	6499.67
437.28	6480.94
437.46	6427.11
437.65	6574.56
437.84	6773.51
438.02	6712.66
438.21	6689.25
438.40	6696.27
438.58	6857.77
438.77	6895.22
438.96	6895.22
439.14	7075.44
439.33	7082.46
439.52	7140.97
439.70	7155.02
439.89	7190.13
440.08	7414.82
440.26	7157.36
440.45	7300.13
440.63	7520.14
440.82	7571.63
441.01	7508.44
441.19	7719.09
441.38	7599.72
441.57	7728.45
441.75	7674.62
441.94	7903.99
442.12	7875.90
442.31	7920.37
442.50	7960.16
442.68	7948.46
442.87	8065.49
443.05	8231.66
443.24	8184.85
443.43	8009.31
443.61	8355.71
443.80	8479.76
443.98	8032.72
444.17	8006.97
444.35	8147.40
444.54	8145.06
444.73	8346.35
444.91	8189.53
445.10	8482.10
445.28	8273.79
445.47	8215.28
445.65	8280.82
445.84	8318.26
446.02	8362.73
446.21	8266.77
446.39	8201.24
446.58	8475.08
446.77	8468.06
446.95	8191.88
447.14	8388.48
447.32	8582.74
447.51	8285.50
447.69	8521.89
447.88	8624.87
448.06	8594.45
448.25	8601.47
448.43	8503.17
448.62	8655.30
448.80	8617.85
448.99	8524.23
449.17	8793.39
449.36	8545.30
449.54	8791.05
449.73	8961.91
449.91	8851.91
450.10	8954.89
450.28	9095.32
450.46	9109.36
450.65	8968.93
450.83	8912.76
451.02	9329.38
451.20	9193.62
451.39	9205.33
451.57	9097.66
451.76	9076.60
451.94	9268.52
452.13	9373.85
452.31	9167.88
452.49	9015.74
452.68	9432.36
452.86	9275.54
453.05	9348.10
453.23	9359.80
453.42	9277.88
453.60	9404.27
453.78	9511.94
453.97	9348.10
454.15	9369.16
454.34	9357.46
454.52	9591.52
454.70	9593.86
454.89	9823.23
455.07	9696.84
455.26	9806.84
455.44	9853.66
455.62	9694.50
455.81	9694.50
455.99	9884.08
456.17	10134.52
456.36	9806.84
456.54	10071.33
456.73	10169.63
456.91	10417.72
457.09	10384.96
457.28	10438.79
457.46	10363.89
457.64	10443.47
457.83	10328.78
458.01	10178.99
458.19	10679.86
458.38	10359.21
458.56	10703.27
458.74	10693.91
458.93	10597.95
459.11	10628.37
459.29	10747.74
459.48	10925.62
459.66	10726.68
459.84	10949.03
460.03	11087.12
460.21	10885.83
460.39	11066.05
460.57	10803.91
460.76	10904.56
460.94	10956.05
461.12	11108.18
461.31	11281.38
461.49	10995.84
461.67	11241.59
461.85	11367.98
462.04	11197.12
462.22	11679.27
462.40	11492.03
462.59	11265.00
462.77	11379.68
462.95	11698.00
463.13	11513.10
463.32	11485.01
463.50	11667.57
463.68	11637.14
463.86	11833.75
464.05	11524.80
464.23	11721.40
464.41	11779.92
464.59	11683.95
464.78	12046.74
464.96	12023.33
465.14	11721.40
465.32	12142.70
465.50	11866.52
465.69	11941.41
465.87	11932.05
466.05	12219.94
466.23	11985.88
466.41	12138.02
466.60	12351.01
466.78	12133.34
466.96	12205.89
467.14	12243.34
467.32	12622.51
467.51	12283.13
467.69	12189.51
467.87	12257.39
468.05	12596.76
468.23	12500.80
468.41	12414.20
468.60	12650.60
468.78	12587.40
468.96	12512.50
469.14	12641.23
469.32	12875.29
469.50	12772.30
469.69	13074.23
469.87	12879.97
470.05	13008.70
470.23	12865.92
470.41	13209.98
470.59	13261.48
470.77	13181.90
470.95	13221.69
471.14	13554.04
471.32	13186.58
471.50	13406.59
471.68	13399.57
471.86	13621.92
472.04	13537.66
472.22	13951.93
472.40	13404.25
472.58	13902.78
472.77	14122.79
472.95	14104.07
473.13	14410.68
473.31	13919.17
473.49	14176.62
473.67	13923.85
473.85	14359.19
474.03	14609.62
474.21	14623.67
474.39	14794.53
474.57	14759.42
474.75	15016.88
474.93	14792.19
475.12	14618.99
475.30	15124.54
475.48	15103.48
475.66	14953.68
475.84	15012.20
476.02	15449.88
476.20	15323.49
476.38	15573.92
476.56	16030.33
476.74	15747.12
476.92	15894.58
477.10	15875.85
477.28	16198.85
477.46	15864.15
477.64	16329.92
477.82	16479.71
478.00	16872.92
478.18	16769.94
478.36	16889.31
478.54	16954.84
478.72	17057.82
478.90	17121.02
479.08	17334.01
479.26	17483.80
479.44	17275.49
479.62	17914.46
479.80	18270.22
479.98	18221.07
480.16	18497.25
480.34	18209.37
480.52	18274.90
480.70	18679.82
480.88	18333.42
481.06	18883.44
481.24	18569.81
481.41	19080.05
481.59	19276.65
481.77	19400.70
481.95	19403.04
482.13	19824.34
482.31	19597.31
482.49	20161.37
482.67	20421.17
482.85	20603.74
483.03	20395.43
483.21	20280.74
483.39	20882.26
483.57	20847.15
483.74	20938.43
483.92	21193.55
484.10	21015.67
484.28	21654.64
484.46	21846.56
484.64	22384.88
484.82	21823.16
485.00	21958.91
485.18	22317.01
485.35	22698.52
485.53	22525.32
485.71	23094.07
485.89	23655.79
486.07	23089.38
486.25	23484.94
486.43	23293.01
486.61	23627.71
486.78	23873.46
486.96	24074.75
487.14	24634.14
487.32	24678.61
487.50	24456.26
487.68	24776.91
487.85	25132.67
488.03	25535.24
488.21	25551.63
488.39	25982.29
488.57	26005.69
488.75	26050.16
488.92	26565.08
489.10	26485.50
489.28	26424.65
489.46	26967.65
489.64	26724.24
489.81	27304.69
489.99	27185.32
490.17	27250.86
490.35	28217.50
490.53	28100.47
490.70	28278.35
490.88	28236.22
491.06	28418.78
491.24	28425.81
491.41	28947.75
491.59	29181.80
491.77	29516.50
491.95	29214.57
492.13	29205.20
492.30	29500.11
492.48	30017.37
492.66	30213.98
492.84	30031.41
493.01	30326.32
493.19	30651.66
493.37	30560.37
493.54	31152.53
493.72	31171.25
493.90	31358.50
494.08	31515.31
494.25	31648.72
494.43	31901.50
494.61	32091.09
494.79	32247.90
494.96	32390.67
495.14	32568.55
495.32	33041.34
495.49	32833.04
495.67	32921.98
495.85	33312.84
496.02	33755.21
496.20	33457.96
496.38	34007.98
496.55	34022.03
496.73	34560.35
496.91	34146.08
497.09	34834.19
497.26	34836.53
497.44	35042.50
497.62	34827.17
497.79	35735.30
497.97	34965.26
498.14	35681.47
498.32	35632.32
498.50	35990.42
498.67	36163.62
498.85	36149.57
499.03	36364.90
499.20	36503.00
499.38	36493.63
499.56	36636.41
499.73	37125.58
499.91	37230.90
500.08	37773.91
500.26	37425.17
500.44	37619.43
500.61	37420.48
500.79	37738.80
500.97	37841.78
501.14	38852.89
501.32	38539.26
501.49	38644.59
501.67	38817.78
501.84	38810.76
502.02	38883.32
502.20	39159.50
502.37	39054.18
502.55	39075.24
502.72	39388.88
502.90	39704.85
503.07	39335.04
503.25	39335.04
503.43	39283.55
503.60	40018.48
503.78	40313.39
503.95	40027.84
504.13	40861.07
504.30	40512.33
504.48	39819.53
504.65	40378.92
504.83	40746.39
505.01	41036.61
505.18	41202.79
505.36	41432.16
505.53	41123.21
505.71	41633.45
505.88	41375.99
506.06	41446.21
506.23	41663.88
506.41	41413.44
506.58	41851.12
506.76	42478.38
506.93	42478.38
507.11	42188.16
507.28	42501.79
507.46	42513.49
507.63	42953.51
507.81	42637.54
507.98	43084.58
508.16	43082.24
508.33	43152.46
508.50	43447.36
508.68	43744.61
508.85	43880.36
509.03	43468.43
509.20	43545.67
509.38	44308.68
509.55	44161.23
509.73	44514.65
509.90	44545.08
510.08	44243.15
510.25	44318.04
510.42	44699.55
510.60	44886.79
510.77	44957.01
510.95	44889.13
511.12	44861.05
511.30	44903.18
511.47	45392.35
511.64	45469.59
511.82	45710.66
511.99	45649.81
512.17	45720.02
512.34	45584.27
512.51	46150.68
512.69	46064.08
512.86	45928.33
513.04	46497.08
513.21	46452.61
513.38	46787.31
513.56	46822.42
513.73	46560.28
513.90	46646.88
514.08	46773.27
514.25	46607.09
514.43	47232.01
514.60	47250.74
514.77	47320.95
514.95	47686.07
515.12	47374.78
515.29	47105.62
515.47	47716.50
515.64	48266.53
515.81	47777.36
515.99	48027.79
516.16	48135.46
516.33	48168.22
516.51	48638.67
516.68	48308.66
516.85	48540.37
517.03	48751.02
517.20	49010.82
517.37	48598.88
517.54	48917.20
517.72	48772.08
517.89	48725.27
518.06	49083.37
518.24	49017.84
518.41	49177.00
518.58	49275.30
518.75	49205.08
518.93	49593.61
519.10	48919.54
519.27	49567.87
519.45	49352.54
519.62	49982.14
519.79	49511.69
519.96	49956.39
520.14	49827.66
520.31	49986.82
520.48	50291.09
520.65	50110.87
520.83	50721.75
521.00	50468.97
521.17	50272.37
521.34	50312.16
521.52	50782.60
521.69	50595.36
521.86	50513.44
522.03	50646.85
522.20	51243.69
522.38	51278.80
522.55	51192.20
522.72	51550.30
522.89	51203.90
523.07	51505.83
523.24	51309.22
523.41	51426.25
523.58	51288.16
523.75	51620.52
523.92	51744.56
524.10	51885.00
524.27	51789.03
524.44	51798.40
524.61	51948.19
524.78	51849.89
524.96	52016.07
525.13	51889.68
525.30	51927.13
525.47	52109.69
525.64	52273.52
525.81	52484.17
525.98	52706.52
526.16	52346.08
526.33	52409.28
526.50	52755.68
526.67	52664.39
526.84	52905.47
527.01	52760.36
527.18	52652.69
527.36	52800.15
527.53	52889.09
527.70	53151.23
527.87	53347.83
528.04	53022.50
528.21	53127.82
528.38	53490.60
528.55	53558.48
528.72	53277.61
528.89	53354.85
529.07	53448.47
529.24	53085.69
529.41	53497.62
529.58	53581.88
529.75	53396.98
529.92	53834.66
530.09	53872.11
530.26	53595.93
530.43	53633.38
530.60	53502.31
530.77	53928.28
530.94	53888.49
531.11	53752.74
531.28	53745.72
531.46	53881.47
531.63	54176.38
531.80	54054.67
531.97	54171.70
532.14	54220.85
532.31	54272.34
532.48	54298.09
532.65	54614.06
532.82	53822.96
532.99	54356.60
533.16	54396.39
533.33	54686.62
533.50	54768.54
533.67	54642.15
533.84	54602.36
534.01	54843.43
534.18	54728.75
534.35	54997.91
534.52	54831.73
534.69	55065.78
534.86	55215.58
535.03	54834.07
535.20	55168.77
535.37	55011.95
535.54	55346.65
535.71	55133.66
535.88	55430.91
536.05	55339.63
536.22	55384.10
536.38	55346.65
536.55	55552.62
536.72	55519.85
536.89	55318.56
537.06	55367.71
537.23	55597.09
537.40	55442.61
537.57	55576.02
537.74	55653.26
537.91	55709.43
538.08	55786.67
538.25	55543.25
538.42	55901.36
538.59	55931.78
538.75	55653.26
538.92	55870.93
539.09	55945.83
539.26	56060.51
539.43	55906.04
539.60	56100.30
539.77	55875.61
539.94	56130.73
540.11	56296.91
540.28	56247.75
540.44	56212.65
540.61	56121.37
540.78	56177.54
540.95	56481.81
541.12	56217.33
541.29	56612.88
541.46	56240.73
541.62	56540.32
541.79	56589.47
541.96	56282.86
542.13	56411.59
542.30	56765.01
542.47	56863.32
542.63	56631.60
542.80	56664.37
542.97	56935.87
543.14	57111.41
543.31	57029.49
543.48	57109.07
543.64	57446.11
543.81	57219.08
543.98	57228.44
544.15	57249.50
544.32	57453.13
544.48	57308.02
544.65	57471.85
544.82	57312.70
544.99	57392.28
545.16	57614.63
545.32	57254.18
545.49	57525.69
545.66	57649.74
545.83	57518.67
546.00	57598.24
546.16	57661.44
546.33	57492.92
546.50	57392.28
546.67	57628.67
546.83	57310.36
547.00	57689.52
547.17	57654.42
547.34	57609.95
547.50	57675.48
547.67	58005.50
547.84	57848.68
548.00	58028.90
548.17	58085.07
548.34	58021.88
548.51	58073.37
548.67	58122.52
548.84	57956.35
549.01	57799.53
549.18	58078.05
549.34	58014.86
549.51	58197.42
549.68	58157.63
549.84	58239.55
550.01	58309.77
550.18	58246.57
550.34	58422.11
550.51	58183.38
550.68	58424.45
550.84	57895.49
551.01	58504.03
551.18	58515.73
551.34	58674.89
551.51	58436.16
551.68	58494.67
551.84	58473.60
552.01	58452.54
552.18	58534.46
552.34	58464.24
552.51	58438.50
552.68	58571.91
552.84	58770.85
553.01	58805.96
553.18	58585.95
553.34	58815.32
553.51	58492.33
553.67	58887.88
553.84	58731.06
554.01	58726.38
554.17	58878.52
554.34	58901.92
554.51	58871.49
554.67	58901.92
554.84	58944.05
555.00	58941.71
555.17	58656.17
555.33	58955.75
555.50	58941.71
555.67	58993.20
555.83	58735.74
556.00	58883.20
556.16	59271.73
556.33	59117.25
556.50	59161.72
556.66	59072.78
556.83	59030.65
556.99	59224.92
557.16	59487.06
557.32	59440.24
557.49	59400.46
557.65	59463.65
557.82	59187.47
557.98	59267.05
558.15	59302.15
558.32	59208.53
558.48	59299.81
558.65	59405.14
558.81	59271.73
558.98	59194.49
559.14	59456.63
559.31	59384.07
559.47	59583.02
559.64	59646.21
559.80	59531.53
559.97	59671.96
560.13	59358.33
560.30	59433.22
560.46	59779.62
560.63	59594.72
560.79	59643.87
560.96	59657.91
561.12	59662.60
561.29	59578.34
561.45	59627.49
561.61	59671.96
561.78	59643.87
561.94	59732.81
562.11	59554.93
562.27	59728.13
562.44	59962.18
562.60	60013.68
562.77	59852.18
562.93	59817.07
563.10	59700.04
563.26	59735.15
563.42	59859.20
563.59	59941.12
563.75	59955.16
563.92	59990.27
564.08	59800.69
564.24	59927.08
564.41	60072.19
564.57	60100.28
564.74	60046.44
564.90	59969.21
565.07	60093.25
565.23	60116.66
565.39	59987.93
565.56	60177.51
565.72	60100.28
565.88	60058.15
566.05	59934.10
566.21	60097.94
566.38	60212.62
566.54	60062.83
566.70	60346.03
566.87	60200.92
567.03	60163.47
567.19	60411.57
567.36	60093.25
567.52	60058.15
567.68	60423.27
567.85	60186.88
568.01	60231.35
568.17	60285.18
568.34	60243.05
568.50	60303.90
568.66	60385.82
568.83	60385.82
568.99	60151.77
569.15	60116.66
569.32	60362.42
569.48	60121.34
569.64	60420.93
569.81	60369.44
569.97	60191.56
570.13	60329.65
570.30	60062.83
570.46	60329.65
570.62	60406.89
570.78	60509.87
570.95	60479.44
571.11	60584.77
571.27	60493.49
571.43	60343.69
571.60	60577.75
571.76	60023.04
571.92	60561.36
572.09	60498.17
572.25	60575.40
572.41	60411.57
572.57	60399.86
572.74	60725.20
572.90	60449.02
573.06	60561.36
573.22	60441.99
573.38	60556.68
573.55	60334.33
573.71	60552.00
573.87	60659.66
574.03	60521.57
574.20	60835.20
574.36	60568.38
574.52	60636.26
574.68	60601.15
574.84	60755.63
575.01	60528.59
575.17	60570.72
575.33	60659.66
575.49	60523.91
575.65	60552.00
575.82	60669.03
575.98	60809.46
576.14	60846.91
576.30	60720.52
576.46	60486.46
576.62	60568.38
576.79	60795.42
576.95	60530.93
577.11	60640.94
577.27	60643.28
577.43	60914.78
577.59	60687.75
577.75	60441.99
577.92	60774.35
578.08	60715.84
578.24	60704.13
578.40	60882.02
578.56	60800.10
578.72	60718.18
578.88	60896.06
579.04	60966.27
579.21	60809.46
579.37	60870.31
579.53	60982.66
579.69	60584.77
579.85	60842.23
580.01	60608.17
580.17	60449.02
580.33	60968.61
580.49	60713.50
580.65	60919.46
580.82	60706.47
580.98	60685.41
581.14	60748.60
581.30	60790.73
581.46	60664.35
581.62	60657.32
581.78	60685.41
581.94	60919.46
582.10	60568.38
582.26	60622.22
582.42	60706.47
582.58	60748.60
582.74	60711.16
582.90	60800.10
583.06	60736.90
583.22	60643.28
583.38	60788.39
583.54	60874.99
583.70	60921.80
583.86	60886.70
584.02	60828.18
584.18	60996.70
584.34	60755.63
584.50	60832.86
584.66	60788.39
584.82	60764.99
584.98	60910.10
585.14	60912.44
585.30	60687.75
585.46	61003.72
585.62	60811.80
585.78	61277.57
585.94	60788.39
586.10	60931.17
586.26	60832.86
586.42	60961.59
586.58	61106.71
586.74	61106.71
586.90	60612.85
587.06	60764.99
587.22	60931.17
587.38	61027.13
587.54	61069.26
587.70	61233.10
587.86	60795.42
588.02	61043.51
588.18	61001.38
588.34	60849.25
588.49	61102.03
