SpectraSuite Data File
++++++++++++++++++++++++++++++++++++
Date: Fri Oct 25 11:22:35 EDT 2013
User: price-jones
Dark Spectrum Present: No
Reference Spectrum Present: No
Number of Sampled Component Spectra: 1
Spectrometers: USB2+H05261
Integration Time (usec): 100000 (USB2+H05261)
Spectra Averaged: 1 (USB2+H05261)
Boxcar Smoothing: 0 (USB2+H05261)
Correct for Electrical Dark: No (USB2+H05261)
Strobe/Lamp Enabled: No (USB2+H05261)
Correct for Detector Non-linearity: No (USB2+H05261)
Correct for Stray Light: No (USB2+H05261)
Number of Pixels in Processed Spectrum: 2048
>>>>>Begin Processed Spectral Data<<<<<
365.73	229.37
365.92	229.37
366.12	229.37
366.32	154.48
366.52	175.54
366.72	107.66
366.91	117.03
367.11	124.05
367.31	74.90
367.51	95.96
367.70	58.51
367.90	121.71
368.10	105.32
368.30	102.98
368.49	121.71
368.69	156.82
368.89	175.54
369.09	147.45
369.28	145.11
369.48	194.26
369.68	121.71
369.87	201.29
370.07	222.35
370.27	182.56
370.47	339.38
370.66	571.09
370.86	592.16
371.06	566.41
371.25	702.16
371.45	667.05
371.65	685.78
371.84	641.31
372.04	638.97
372.24	702.16
372.44	723.23
372.63	629.60
372.83	774.72
373.03	767.70
373.22	791.10
373.42	777.06
373.62	779.40
373.81	821.53
374.01	854.30
374.21	851.96
374.40	861.32
374.60	821.53
374.79	779.40
374.99	798.12
375.19	863.66
375.38	873.02
375.58	894.08
375.78	945.58
375.97	826.21
376.17	868.34
376.37	849.61
376.56	828.55
376.76	880.04
376.95	844.93
377.15	873.02
377.35	842.59
377.54	894.08
377.74	931.53
377.93	924.51
378.13	940.90
378.33	936.21
378.52	926.85
378.72	954.94
378.91	849.61
379.11	922.17
379.31	1046.22
379.50	950.26
379.70	1001.75
379.89	999.41
380.09	997.07
380.28	950.26
380.48	997.07
380.68	1064.94
380.87	1032.18
381.07	971.32
381.26	1029.84
381.46	1074.31
381.65	1004.09
381.85	1036.86
382.04	1046.22
382.24	1116.44
382.43	1053.24
382.63	1100.05
382.83	1104.73
383.02	1057.92
383.22	1142.18
383.41	1146.86
383.61	1055.58
383.80	1090.69
384.00	1102.39
384.19	1041.54
384.39	1128.14
384.58	1107.07
384.78	1090.69
384.97	1137.50
385.17	1055.58
385.36	1172.61
385.56	1214.74
385.75	1181.97
385.95	1158.57
386.14	1137.50
386.34	1174.95
386.53	1231.12
386.72	1240.48
386.92	1240.48
387.11	1217.08
387.31	1287.29
387.50	1238.14
387.70	1256.87
387.89	1306.02
388.09	1245.16
388.28	1369.21
388.48	1266.23
388.67	1324.74
388.86	1343.47
389.06	1336.45
389.25	1313.04
389.45	1287.29
389.64	1350.49
389.84	1355.17
390.03	1481.56
390.22	1413.68
390.42	1380.92
390.61	1441.77
390.81	1322.40
391.00	1327.08
391.19	1427.73
391.39	1359.85
391.58	1411.34
391.78	1589.22
391.97	1556.46
392.16	1490.92
392.36	1591.56
392.55	1528.37
392.75	1521.35
392.94	1540.07
393.13	1519.01
393.33	1493.26
393.52	1591.56
393.71	1502.62
393.91	1619.65
394.10	1598.59
394.29	1638.38
394.49	1638.38
394.68	1645.40
394.88	1645.40
395.07	1694.55
395.26	1636.03
395.46	1708.59
395.65	1722.63
395.84	1769.44
396.04	1736.68
396.23	1811.57
396.42	1748.38
396.62	1727.32
396.81	1806.89
397.00	1788.17
397.19	1764.76
397.39	1872.43
397.58	1724.97
397.77	1722.63
397.97	1853.70
398.16	1898.17
398.35	1877.11
398.55	1834.98
398.74	1881.79
398.93	1968.39
399.12	1867.75
399.32	1834.98
399.51	1905.20
399.70	2064.35
399.90	1996.48
400.09	2001.16
400.28	2148.61
400.47	2040.95
400.67	2059.67
400.86	2097.12
401.05	2176.70
401.24	2150.95
401.44	2176.70
401.63	2062.01
401.82	2176.70
402.01	2172.02
402.21	2197.76
402.40	2169.68
402.59	2157.97
402.78	2176.70
402.97	2303.09
403.17	2298.41
403.36	2237.55
403.55	2305.43
403.74	2377.98
403.93	2441.18
404.13	2347.56
404.32	2485.65
404.51	2284.36
404.70	2410.75
404.89	2445.86
405.09	2509.05
405.28	2502.03
405.47	2399.05
405.66	2574.59
405.85	2527.78
406.05	2513.74
406.24	2597.99
406.43	2602.68
406.62	2715.02
406.81	2684.59
407.00	2612.04
407.20	2560.55
407.39	2616.72
407.58	2703.32
407.77	2775.88
407.96	2803.96
408.15	2850.77
408.34	2853.11
408.54	2832.05
408.73	2710.34
408.92	2796.94
409.11	2871.84
409.30	2951.42
409.49	2937.37
409.68	2995.89
409.87	3033.33
410.07	3091.85
410.26	2988.86
410.45	3089.51
410.64	3159.72
410.83	3213.56
411.02	3124.62
411.21	3155.04
411.40	3199.51
411.59	3164.40
411.78	3176.11
411.98	3267.39
412.17	3234.62
412.36	3407.82
412.55	3536.55
412.74	3419.52
412.93	3384.41
413.12	3398.46
413.31	3599.74
413.50	3510.80
413.69	3566.98
413.88	3655.92
414.07	3588.04
414.26	3646.55
414.45	3726.13
414.64	3693.37
414.83	3655.92
415.02	3789.33
415.22	3810.39
415.41	3934.44
415.60	3882.95
415.79	3953.16
415.98	4072.53
416.17	3955.51
416.36	3906.35
416.55	4203.60
416.74	4074.87
416.93	4102.96
417.12	4229.35
417.31	4187.22
417.50	4299.56
417.69	4311.27
417.88	4241.05
418.07	4264.46
418.26	4390.84
418.45	4418.93
418.64	4477.44
418.83	4360.42
419.02	4566.39
419.21	4531.28
419.39	4437.66
419.58	4526.60
419.77	4458.72
419.96	4631.92
420.15	4624.90
420.34	4615.54
420.53	4695.11
420.72	4791.08
420.91	4671.71
421.10	4786.40
421.29	4793.42
421.48	4880.02
421.67	4762.99
421.86	4617.88
422.05	4786.40
422.24	4898.74
422.43	4863.63
422.61	4957.25
422.80	5046.20
422.99	4952.57
423.18	5055.56
423.37	5081.30
423.56	4919.81
423.75	5006.41
423.94	4938.53
424.13	4854.27
424.32	4713.84
424.50	4917.47
424.69	5151.52
424.88	5226.42
425.07	5132.79
425.26	4882.36
425.45	5097.69
425.64	5032.15
425.83	4973.64
426.01	5137.48
426.20	5149.18
426.39	5076.62
426.58	5095.35
426.77	5004.07
426.96	5135.14
427.15	5205.35
427.33	5188.97
427.52	5069.60
427.71	5408.98
427.90	5294.29
428.09	5247.48
428.28	5455.79
428.46	5348.12
428.65	5359.83
428.84	5530.69
429.03	5568.13
429.22	5509.62
429.40	5439.40
429.59	5401.96
429.78	5334.08
429.97	5404.30
430.16	5621.97
430.34	5607.92
430.53	5647.71
430.72	5689.84
430.91	5710.91
431.10	5561.11
431.28	5769.42
431.47	5811.55
431.66	5900.49
431.85	5954.32
432.03	5907.51
432.22	6171.99
432.41	5923.90
432.60	6057.31
432.79	6073.69
432.97	6366.26
433.16	6012.84
433.35	5839.64
433.54	6157.95
433.72	6150.93
433.91	6216.46
434.10	6246.89
434.28	6171.99
434.47	6277.32
434.66	6499.67
434.85	6293.70
435.03	6513.71
435.22	6354.55
435.41	6642.44
435.59	6469.24
435.78	6569.88
435.97	6677.55
436.16	6473.92
436.34	6583.93
436.53	6532.44
436.72	6745.42
436.90	6466.90
437.09	6698.61
437.28	6506.69
437.46	6689.25
437.65	6642.44
437.84	6696.27
438.02	6869.47
438.21	6757.13
438.40	6892.88
438.58	6836.70
438.77	7014.59
438.96	7117.57
439.14	7178.42
439.33	7239.28
439.52	7225.23
439.70	7288.43
439.89	7510.78
440.08	7517.80
440.26	7501.42
440.45	7510.78
440.63	7583.34
440.82	7737.81
441.01	7531.84
441.19	7534.18
441.38	7838.45
441.57	7756.54
441.75	7836.11
441.94	7901.65
442.12	8037.40
442.31	8238.69
442.50	8105.28
442.68	8196.56
442.87	8053.78
443.05	8222.30
443.24	8423.59
443.43	8320.60
443.61	8175.49
443.80	8489.12
443.98	8163.79
444.17	7810.37
444.35	8362.73
444.54	8252.73
444.73	8379.12
444.91	8353.37
445.10	8458.70
445.28	8524.23
445.47	8187.19
445.65	8266.77
445.84	8458.70
446.02	8585.08
446.21	8482.10
446.39	8475.08
446.58	8659.98
446.77	8615.51
446.95	8358.05
447.14	8491.46
447.32	8648.28
447.51	8393.16
447.69	8428.27
447.88	8517.21
448.06	8725.52
448.25	8613.17
448.43	8549.98
448.62	8627.21
448.80	8723.18
448.99	8884.67
449.17	8964.25
449.36	8784.03
449.54	9050.85
449.73	8950.21
449.91	9107.02
450.10	9011.06
450.28	9174.90
450.46	9048.51
450.65	9116.39
450.83	9193.62
451.02	9397.25
451.20	9212.35
451.39	9245.12
451.57	9102.34
451.76	9224.05
451.94	9425.34
452.13	9287.25
452.31	9439.38
452.49	9469.81
452.68	9476.83
452.86	9359.80
453.05	9352.78
453.23	9518.96
453.42	9383.21
453.60	9268.52
453.78	9591.52
453.97	9598.54
454.15	9542.36
454.34	9621.94
454.52	10024.51
454.70	9937.91
454.89	9699.18
455.07	9982.38
455.26	9856.00
455.44	10031.54
455.62	9963.66
455.81	9797.48
455.99	10134.52
456.17	9958.98
456.36	10132.18
456.54	10139.20
456.73	10188.35
456.91	10473.90
457.09	10476.24
457.28	10799.23
457.46	10471.56
457.64	10633.05
457.83	10668.16
458.01	10286.65
458.19	10848.38
458.38	10696.25
458.56	10832.00
458.74	10710.29
458.93	10712.63
459.11	10981.79
459.29	10843.70
459.48	10824.98
459.66	10944.34
459.84	10998.18
460.03	11143.29
460.21	11117.54
460.39	11075.42
460.57	11428.84
460.76	11138.61
460.94	11199.46
461.12	11328.19
461.31	11295.43
461.49	11377.34
461.67	11253.30
461.85	11325.85
462.04	11400.75
462.22	11929.71
462.40	11908.65
462.59	11646.51
462.77	11555.22
462.95	11742.47
463.13	11634.80
463.32	11866.52
463.50	11878.22
463.68	11854.81
463.86	11611.40
464.05	11896.94
464.23	11789.28
464.41	11913.33
464.59	11690.98
464.78	12315.90
464.96	11941.41
465.14	12166.10
465.32	12107.59
465.50	12215.26
465.69	12091.21
465.87	12030.35
466.05	12208.23
466.23	12365.05
466.41	12437.61
466.60	12409.52
466.78	12215.26
466.96	12203.55
467.14	12425.90
467.32	12472.71
467.51	12659.96
467.69	12318.24
467.87	12620.17
468.05	12645.91
468.23	12606.13
468.41	12580.38
468.60	12650.60
468.78	12814.43
468.96	12652.94
469.14	13006.36
469.32	13107.00
469.50	12734.85
469.69	13231.05
469.87	12910.40
470.05	13268.50
470.23	13198.28
470.41	13334.03
470.59	13418.29
470.77	13083.59
470.95	13345.73
471.14	13621.92
471.32	13097.64
471.50	13699.16
471.68	13785.76
471.86	13788.10
472.04	14010.45
472.22	14176.62
472.40	13914.48
472.58	14209.39
472.77	14211.73
472.95	14284.29
473.13	14843.68
473.31	14413.02
473.49	14279.61
473.67	14113.43
473.85	14675.16
474.03	14895.17
474.21	14963.04
474.39	15105.82
474.57	14984.11
474.75	15140.93
474.93	15082.41
475.12	15307.10
475.30	15529.45
475.48	15215.82
475.66	15536.48
475.84	15222.84
476.02	15536.48
476.20	15454.56
476.38	15964.79
476.56	16180.12
476.74	15960.11
476.92	15941.39
477.10	16404.81
477.28	16346.30
477.46	16456.31
477.64	16816.75
477.82	16870.58
478.00	17200.60
478.18	16957.18
478.36	17116.34
478.54	17345.71
478.72	17303.58
478.90	17734.24
479.08	17710.83
479.26	17628.92
479.44	17888.71
479.62	17907.44
479.80	18031.49
479.98	18209.37
480.16	18710.24
480.34	18768.76
480.52	18663.43
480.70	19012.17
480.88	18450.44
481.06	18878.76
481.24	19173.67
481.41	19030.90
481.59	19707.31
481.77	19779.87
481.95	19665.18
482.13	19906.26
482.31	20002.22
482.49	20177.76
482.67	20570.97
482.85	20872.90
483.03	20837.79
483.21	21053.12
483.39	21186.53
483.57	21013.33
483.74	21336.32
483.92	21467.39
484.10	21502.50
484.28	22174.24
484.46	22286.58
484.64	22487.87
484.82	22019.76
485.00	22672.77
485.18	22862.35
485.35	22930.23
485.53	23208.75
485.71	23372.59
485.89	23681.54
486.07	23948.36
486.25	23470.89
486.43	23927.30
486.61	23983.47
486.78	24285.40
486.96	24404.77
487.14	25015.65
487.32	25013.31
487.50	25120.97
487.68	25397.15
487.85	25523.54
488.03	25785.68
488.21	26242.09
488.39	25886.32
488.57	26302.94
488.75	26614.23
488.92	26656.36
489.10	26831.90
489.28	27297.67
489.46	27271.92
489.64	27257.88
489.81	28058.34
489.99	27908.55
490.17	27789.18
490.35	28189.41
490.53	28517.09
490.70	28599.01
490.88	28652.84
491.06	29273.08
491.24	28947.75
491.41	29186.48
491.59	29542.24
491.77	29820.77
491.95	30281.85
492.13	29956.52
492.30	30246.74
492.48	30590.80
492.66	30536.97
492.84	30719.53
493.01	31110.40
493.19	31012.10
493.37	31704.90
493.54	31381.90
493.72	31887.46
493.90	32079.38
494.08	32039.59
494.25	32453.87
494.43	32158.96
494.61	32545.15
494.79	32538.13
494.96	32954.74
495.14	33050.70
495.32	33460.30
495.49	33383.06
495.67	33656.90
495.85	34141.39
496.02	33914.36
496.20	34693.76
496.38	34497.16
496.55	34384.81
496.73	35129.10
496.91	35030.80
497.09	35306.98
497.26	35143.14
497.44	35180.59
497.62	35424.01
497.79	36170.64
497.97	35849.99
498.14	36486.61
498.32	36465.55
498.50	36694.92
498.67	36437.46
498.85	36943.02
499.03	37160.69
499.20	36924.29
499.38	37095.15
499.56	37378.36
499.73	37677.94
499.91	37691.99
500.08	37708.37
500.26	37949.45
500.44	38122.65
500.61	38543.94
500.79	38188.18
500.97	38644.59
501.14	39323.34
501.32	39168.87
501.49	38677.35
501.67	39515.26
501.84	39335.04
502.02	39276.53
502.20	39452.07
502.37	39388.88
502.55	39470.79
502.72	40032.52
502.90	40390.62
503.07	40027.84
503.25	40016.14
503.43	40053.59
503.60	40840.01
503.78	40442.12
503.95	40802.56
504.13	40762.77
504.30	41085.76
504.48	40603.61
504.65	41106.83
504.83	41347.90
505.01	41734.09
505.18	41839.42
505.36	41883.89
505.53	41827.71
505.71	42012.62
505.88	42398.80
506.06	41558.55
506.23	42244.33
506.41	42209.22
506.58	42717.12
506.76	42775.63
506.93	42759.25
507.11	43000.32
507.28	42644.56
507.46	43222.67
507.63	43271.82
507.81	43990.37
507.98	43477.79
508.16	43466.09
508.33	43927.17
508.50	43931.86
508.68	44250.17
508.85	44442.09
509.03	44252.51
509.20	44428.05
509.38	45048.29
509.55	44758.06
509.73	44664.44
509.90	44907.86
510.08	44769.77
510.25	45268.30
510.42	45373.63
510.60	45317.45
510.77	45612.36
510.95	45949.40
511.12	45408.73
511.30	45310.43
511.47	45879.18
511.64	46302.82
511.82	46333.24
511.99	45904.93
512.17	46579.00
512.34	45797.26
512.51	46850.50
512.69	46735.82
512.86	46457.29
513.04	47349.04
513.21	46841.14
513.38	47313.93
513.56	47498.83
513.73	47311.59
513.90	47206.26
514.08	47433.30
514.25	47358.40
514.43	47739.91
514.60	48098.01
514.77	48112.05
514.95	48552.07
515.12	48044.18
515.29	48119.07
515.47	48591.86
515.64	48552.07
515.81	48320.36
515.99	48751.02
516.16	49083.37
516.33	48392.92
516.51	49188.70
516.68	49345.51
516.85	48767.40
517.03	49207.42
517.20	49249.55
517.37	49357.22
517.54	49411.05
517.72	49563.18
517.89	49544.46
518.06	49556.16
518.24	49357.22
518.41	49359.56
518.58	49453.18
518.75	49624.04
518.93	49979.80
519.10	49687.23
519.27	50492.38
519.45	50307.47
519.62	50405.78
519.79	50218.53
519.96	50550.89
520.14	50110.87
520.31	50644.51
520.48	50815.37
520.65	50817.71
520.83	51356.03
521.00	51180.49
521.17	51044.74
521.34	50880.91
521.52	51386.46
521.69	50946.44
521.86	51646.26
522.03	51426.25
522.20	51751.59
522.38	51660.30
522.55	51938.83
522.72	51744.56
522.89	51250.71
523.07	52137.77
523.24	52133.09
523.41	52093.30
523.58	51749.24
523.75	52186.92
523.92	51971.60
524.10	52479.49
524.27	52240.76
524.44	52439.70
524.61	52638.65
524.78	52460.77
524.96	52523.96
525.13	52750.99
525.30	52664.39
525.47	52765.04
525.64	52732.27
525.81	53095.05
525.98	53078.67
526.16	53071.65
526.33	52926.53
526.50	53202.72
526.67	53183.99
526.84	53183.99
527.01	53350.17
527.18	53528.05
527.36	53565.50
527.53	53560.82
527.70	53780.83
527.87	53635.72
528.04	53521.03
528.21	53633.38
528.38	53588.91
528.55	53923.60
528.72	53722.32
528.89	53806.58
529.07	54000.84
529.24	53612.31
529.41	54052.33
529.58	54024.25
529.75	53670.82
529.92	54185.74
530.09	54230.21
530.26	54190.42
530.43	54401.07
530.60	53982.12
530.77	54372.99
530.94	54316.81
531.11	54115.53
531.28	54450.22
531.46	54548.53
531.63	54293.41
531.80	54447.88
531.97	54981.52
532.14	54642.15
532.31	55126.64
532.48	54838.75
532.65	55325.58
532.82	54915.99
532.99	54925.35
533.16	54944.08
533.33	55140.68
533.50	55257.71
533.67	54939.39
533.84	55025.99
534.01	55309.20
534.18	55302.18
534.35	55566.66
534.52	55494.10
534.69	55501.12
534.86	55426.23
535.03	55065.78
535.20	55784.33
535.37	55641.56
535.54	55908.38
535.71	55323.24
535.88	55913.06
536.05	55781.99
536.22	55810.07
536.38	55772.63
536.55	55913.06
536.72	55770.28
536.89	56013.70
537.06	55941.14
537.23	55999.66
537.40	55943.48
537.57	56048.81
537.74	56191.58
537.91	56392.87
538.08	56175.20
538.25	56027.74
538.42	56238.39
538.59	56479.47
538.75	56477.13
538.92	56435.00
539.09	56449.04
539.26	56584.79
539.43	56453.72
539.60	56371.80
539.77	56442.02
539.94	56636.28
540.11	56608.20
540.28	56783.74
540.44	56575.43
540.61	56652.67
540.78	56580.11
540.95	56907.79
541.12	56729.90
541.29	56743.95
541.46	56821.19
541.62	56694.80
541.79	57013.11
541.96	56802.46
542.13	56928.85
542.30	57116.09
542.47	57127.80
542.63	57099.71
542.80	57088.01
542.97	57354.83
543.14	57593.56
543.31	57382.91
543.48	57537.39
543.64	57633.35
543.81	57607.61
543.98	57668.46
544.15	57418.02
544.32	57698.89
544.48	57963.37
544.65	57586.54
544.82	57652.08
544.99	57546.75
545.16	57925.92
545.32	57712.93
545.49	57829.96
545.66	58195.08
545.83	58134.23
546.00	57867.40
546.16	57975.07
546.33	57909.53
546.50	57851.02
546.67	57921.24
546.83	57832.30
547.00	58056.99
547.17	57888.47
547.34	57893.15
547.50	58178.70
547.67	58326.15
547.84	58288.70
548.00	58314.45
548.17	58590.63
548.34	58351.90
548.51	58436.16
548.67	58745.11
548.84	58555.52
549.01	58309.77
549.18	58410.41
549.34	58611.70
549.51	58394.03
549.68	58473.60
549.84	58869.15
550.01	58719.36
550.18	58609.35
550.34	58728.72
550.51	58754.47
550.68	58702.98
550.84	58415.09
551.01	58841.07
551.18	58908.94
551.34	58674.89
551.51	58815.32
551.68	59077.46
551.84	58981.50
552.01	58955.75
552.18	59007.25
552.34	58724.04
552.51	58951.07
552.68	58782.55
552.84	58981.50
553.01	59222.58
553.18	59107.89
553.34	59093.85
553.51	59180.45
553.67	58990.86
553.84	59194.49
554.01	59327.90
554.17	59042.35
554.34	59393.43
554.51	59131.29
554.67	59379.39
554.84	59306.83
555.00	59271.73
555.17	59267.05
555.33	58976.82
555.50	59152.36
555.67	59180.45
555.83	59260.02
556.00	59482.37
556.16	59964.52
556.33	59615.79
556.50	59552.59
556.66	59451.95
556.83	59407.48
556.99	59468.33
557.16	59735.15
557.32	59732.81
557.49	60023.04
557.65	59704.73
557.82	59714.09
557.98	59749.20
558.15	59458.97
558.32	59728.13
558.48	59693.02
558.65	59770.26
558.81	59774.94
558.98	59788.98
559.14	59917.71
559.31	59859.20
559.47	59962.18
559.64	59943.46
559.80	59810.05
559.97	59915.37
560.13	59744.51
560.30	60041.76
560.46	59924.74
560.63	59934.10
560.79	59969.21
560.96	60264.11
561.12	60278.16
561.29	60210.28
561.45	60182.19
561.61	60023.04
561.78	59971.55
561.94	60060.49
562.11	60214.96
562.27	60207.94
562.44	60278.16
562.60	60395.18
562.77	60165.81
562.93	60189.22
563.10	60278.16
563.26	60170.49
563.42	60463.06
563.59	60500.51
563.75	60011.34
563.92	60441.99
564.08	60287.52
564.24	60238.37
564.41	60299.22
564.57	60320.29
564.74	60446.68
564.90	60449.02
565.07	60212.62
565.23	60533.28
565.39	60378.80
565.56	60406.89
565.72	60601.15
565.88	60509.87
566.05	60247.73
566.21	60320.29
566.38	60481.78
566.54	60654.98
566.70	60692.43
566.87	60715.84
567.03	60477.10
567.19	60706.47
567.36	60617.53
567.52	60783.71
567.68	60692.43
567.85	60542.64
568.01	60594.13
568.17	60720.52
568.34	60587.11
568.50	60427.95
568.66	60544.98
568.83	60626.90
568.99	60397.52
569.15	60493.49
569.32	60711.16
569.48	60650.30
569.64	60821.16
569.81	60708.82
569.97	60563.70
570.13	60856.27
570.30	60626.90
570.46	60713.50
570.62	60666.69
570.78	60678.39
570.95	60694.77
571.11	60835.20
571.27	60715.84
571.43	60793.07
571.60	60956.91
571.76	61031.81
571.92	60727.54
572.09	60837.54
572.25	60821.16
572.41	60860.95
572.57	60921.80
572.74	61031.81
572.90	60924.14
573.06	60800.10
573.22	60898.40
573.38	60907.76
573.55	60963.93
573.71	61043.51
573.87	61116.07
574.03	60741.58
574.20	60882.02
574.36	60830.52
574.52	61048.19
574.68	60940.53
574.84	61331.40
575.01	61113.73
575.17	61041.17
575.33	60970.96
575.49	60947.55
575.65	61031.81
575.82	61001.38
575.98	60949.89
576.14	61181.60
576.30	61127.77
576.46	60865.63
576.62	61160.54
576.79	61179.26
576.95	60947.55
577.11	61069.26
577.27	61132.45
577.43	60903.08
577.59	61027.13
577.75	61071.60
577.92	60917.12
578.08	61104.37
578.24	61099.68
578.40	61080.96
578.56	61120.75
578.72	61013.08
578.88	61186.28
579.04	61212.03
579.21	61125.43
579.37	61251.82
579.53	61265.86
579.69	61111.39
579.85	60905.42
580.01	61188.63
580.17	61144.16
580.33	61139.47
580.49	61312.67
580.65	61169.90
580.82	61055.21
580.98	61162.88
581.14	61120.75
581.30	61277.57
581.46	61113.73
581.62	61197.99
581.78	61193.31
581.94	61263.52
582.10	61235.44
582.26	61317.35
582.42	61118.41
582.58	61127.77
582.74	61378.21
582.90	61172.24
583.06	61315.01
583.22	61078.62
583.38	61092.66
583.54	61289.27
583.70	61382.89
583.86	61261.18
584.02	61043.51
584.18	61298.63
584.34	61111.39
584.50	61331.40
584.66	61132.45
584.82	61195.65
584.98	61413.32
585.14	61249.48
585.30	61113.73
585.46	61165.22
585.62	61205.01
585.78	61504.60
585.94	61125.43
586.10	61223.73
586.26	61233.10
586.42	61179.26
586.58	61275.22
586.74	61448.42
586.90	61270.54
587.06	61064.58
587.22	61382.89
587.38	61375.87
587.54	61504.60
587.70	61530.34
587.86	61354.80
588.02	61329.06
588.18	61483.53
588.34	61343.10
588.49	61375.87
