SpectraSuite Data File
++++++++++++++++++++++++++++++++++++
Date: Fri Oct 25 10:47:25 EDT 2013
User: price-jones
Dark Spectrum Present: No
Reference Spectrum Present: No
Number of Sampled Component Spectra: 1
Spectrometers: USB2+H05261
Integration Time (usec): 100000 (USB2+H05261)
Spectra Averaged: 1 (USB2+H05261)
Boxcar Smoothing: 0 (USB2+H05261)
Correct for Electrical Dark: No (USB2+H05261)
Strobe/Lamp Enabled: No (USB2+H05261)
Correct for Detector Non-linearity: No (USB2+H05261)
Correct for Stray Light: No (USB2+H05261)
Number of Pixels in Processed Spectrum: 2048
>>>>>Begin Processed Spectral Data<<<<<
365.73	81.92
365.92	81.92
366.12	81.92
366.32	56.17
366.52	39.79
366.72	0.00
366.91	46.81
367.11	114.69
367.31	18.72
367.51	7.02
367.70	39.79
367.90	63.19
368.10	0.00
368.30	23.41
368.49	53.83
368.69	0.00
368.89	86.60
369.09	46.81
369.28	124.05
369.48	102.98
369.68	56.17
369.87	42.13
370.07	133.41
370.27	124.05
370.47	245.76
370.66	430.66
370.86	437.68
371.06	402.57
371.25	489.17
371.45	418.96
371.65	449.38
371.84	519.60
372.04	449.38
372.24	442.36
372.44	496.19
372.63	559.39
372.83	503.22
373.03	451.72
373.22	493.85
373.42	477.47
373.62	489.17
373.81	444.70
374.01	547.69
374.21	503.22
374.40	519.60
374.60	578.11
374.79	557.05
374.99	543.00
375.19	580.45
375.38	592.16
375.58	571.09
375.78	531.30
375.97	533.64
376.17	596.84
376.37	594.50
376.56	561.73
376.76	622.58
376.95	617.90
377.15	573.43
377.35	631.94
377.54	608.54
377.74	601.52
377.93	592.16
378.13	589.82
378.33	650.67
378.52	552.37
378.72	713.86
378.91	662.37
379.11	645.99
379.31	678.76
379.50	669.39
379.70	667.05
379.89	648.33
380.09	620.24
380.28	650.67
380.48	711.52
380.68	660.03
380.87	624.92
381.07	725.57
381.26	718.54
381.46	650.67
381.65	655.35
381.85	716.20
382.04	678.76
382.24	751.31
382.43	645.99
382.63	660.03
382.83	662.37
383.02	727.91
383.22	578.11
383.41	704.50
383.61	699.82
383.80	720.88
384.00	636.63
384.19	706.84
384.39	704.50
384.58	634.29
384.78	727.91
384.97	734.93
385.17	713.86
385.36	697.48
385.56	713.86
385.75	716.20
385.95	798.12
386.14	781.74
386.34	826.21
386.53	737.27
386.72	830.89
386.92	894.08
387.11	828.55
387.31	793.44
387.50	777.06
387.70	842.59
387.89	807.48
388.09	805.14
388.28	889.40
388.48	814.51
388.67	931.53
388.86	823.87
389.06	870.68
389.25	908.13
389.45	933.87
389.64	875.36
389.84	924.51
390.03	901.11
390.22	978.34
390.42	933.87
390.61	894.08
390.81	931.53
391.00	1011.11
391.19	924.51
391.39	987.71
391.58	1006.43
391.78	966.64
391.97	1055.58
392.16	905.79
392.36	968.98
392.55	1025.15
392.75	945.58
392.94	992.39
393.13	924.51
393.33	1004.09
393.52	940.90
393.71	1055.58
393.91	1036.86
394.10	1043.88
394.29	1050.90
394.49	1076.65
394.68	1090.69
394.88	1132.82
395.07	1219.42
395.26	1086.01
395.46	1144.52
395.65	1156.22
395.84	1116.44
396.04	1212.40
396.23	1074.31
396.42	1006.43
396.62	1081.33
396.81	1158.57
397.00	1067.28
397.19	1144.52
397.39	1203.04
397.58	1357.51
397.77	1191.33
397.97	1280.27
398.16	1261.55
398.35	1371.55
398.55	1263.89
398.74	1334.11
398.93	1362.19
399.12	1390.28
399.32	1343.47
399.51	1291.98
399.70	1294.32
399.90	1352.83
400.09	1448.79
400.28	1406.66
400.47	1451.13
400.67	1479.22
400.86	1327.08
401.05	1500.28
401.24	1465.18
401.44	1416.02
401.63	1500.28
401.82	1486.24
402.01	1502.62
402.21	1509.65
402.40	1406.66
402.59	1439.43
402.78	1472.20
402.97	1511.99
403.17	1582.20
403.36	1668.80
403.55	1582.20
403.74	1579.86
403.93	1626.67
404.13	1661.78
404.32	1661.78
404.51	1699.23
404.70	1687.53
404.89	1739.02
405.09	1846.68
405.28	1720.29
405.47	1636.03
405.66	1650.08
405.85	1666.46
406.05	1729.66
406.24	1743.70
406.43	1818.60
406.62	1797.53
406.81	1860.73
407.00	1820.94
407.20	1795.19
407.39	1785.83
407.58	1806.89
407.77	1902.86
407.96	1912.22
408.15	1919.24
408.34	1919.24
408.54	2045.63
408.73	2097.12
408.92	2003.50
409.11	2022.22
409.30	2036.27
409.49	2029.24
409.68	1991.80
409.87	2012.86
410.07	2040.95
410.26	2029.24
410.45	2167.34
410.64	2019.88
410.83	2127.55
411.02	2153.29
411.21	2230.53
411.40	2331.17
411.59	2193.08
411.78	2228.19
411.98	2361.60
412.17	2354.58
412.36	2377.98
412.55	2408.41
412.74	2448.20
412.93	2401.39
413.12	2473.95
413.31	2527.78
413.50	2520.76
413.69	2495.01
413.88	2497.35
414.07	2499.69
414.26	2560.55
414.45	2532.46
414.64	2623.74
414.83	2757.15
415.02	2717.36
415.22	2775.88
415.41	2778.22
415.60	2834.39
415.79	2827.37
415.98	2843.75
416.17	2853.11
416.36	2909.29
416.55	2888.22
416.74	2874.18
416.93	2904.60
417.12	3028.65
417.31	2906.95
417.50	2935.03
417.69	3026.31
417.88	2944.39
418.07	3023.97
418.26	3105.89
418.45	3080.14
418.64	3183.13
418.83	3117.59
419.02	3260.37
419.21	3262.71
419.39	3269.73
419.58	3162.06
419.77	3173.77
419.96	3213.56
420.15	3344.63
420.34	3300.16
420.53	3454.63
420.72	3456.97
420.91	3391.44
421.10	3400.80
421.29	3414.84
421.48	3361.01
421.67	3349.31
421.86	3335.26
422.05	3407.82
422.24	3414.84
422.43	3442.93
422.61	3316.54
422.80	3494.42
422.99	3440.59
423.18	3655.92
423.37	3541.23
423.56	3623.15
423.75	3482.72
423.94	3487.40
424.13	3061.42
424.32	3295.47
424.50	3482.72
424.69	3592.72
424.88	3552.93
425.07	3407.82
425.26	3492.08
425.45	3473.36
425.64	3588.04
425.83	3475.70
426.01	3695.71
426.20	3667.62
426.39	3456.97
426.58	3475.70
426.77	3471.01
426.96	3595.06
427.15	3672.30
427.33	3826.78
427.52	3499.10
427.71	3770.60
427.90	3719.11
428.09	3658.26
428.28	3751.88
428.46	3775.28
428.65	3667.62
428.84	3962.53
429.03	3896.99
429.22	3719.11
429.40	3803.37
429.59	3772.94
429.78	3817.41
429.97	3569.32
430.16	3672.30
430.34	3922.74
430.53	3854.86
430.72	3829.12
430.91	3885.29
431.10	3817.41
431.28	3997.64
431.47	4259.78
431.66	4147.43
431.85	4114.66
432.03	4175.52
432.22	4215.30
432.41	4105.30
432.60	4224.67
432.79	4173.18
432.97	4344.03
433.16	4421.27
433.35	4327.65
433.54	4299.56
433.72	4231.69
433.91	4283.18
434.10	4301.90
434.28	4322.97
434.47	4376.80
434.66	4554.68
434.85	4498.51
435.03	4259.78
435.22	4535.96
435.41	4601.49
435.59	4601.49
435.78	4533.62
435.97	4461.06
436.16	4594.47
436.34	4519.57
436.53	4655.33
436.72	4573.41
436.90	4437.66
437.09	4690.43
437.28	4578.09
437.46	4610.86
437.65	4519.57
437.84	4727.88
438.02	4608.51
438.21	4734.90
438.40	4655.33
438.58	4945.55
438.77	4926.83
438.96	4922.15
439.14	5053.22
439.33	5046.20
439.52	5104.71
439.70	5104.71
439.89	5104.71
440.08	4964.28
440.26	5200.67
440.45	5214.71
440.63	5207.69
440.82	5275.57
441.01	5284.93
441.19	5453.45
441.38	5598.56
441.57	5486.22
441.75	5495.58
441.94	5544.73
442.12	5493.24
442.31	5600.90
442.50	5832.62
442.68	5624.31
442.87	5640.69
443.05	5638.35
443.24	5769.42
443.43	5753.04
443.61	5741.33
443.80	5987.09
443.98	5682.82
444.17	5528.35
444.35	5809.21
444.54	5973.05
444.73	5940.28
444.91	5563.45
445.10	5703.89
445.28	5654.73
445.47	5731.97
445.65	5923.90
445.84	5877.09
446.02	5928.58
446.21	5846.66
446.39	5722.61
446.58	5905.17
446.77	5851.34
446.95	5858.36
447.14	5935.60
447.32	5994.11
447.51	5900.49
447.69	6015.18
447.88	5937.94
448.06	6003.47
448.25	5933.26
448.43	5959.00
448.62	5900.49
448.80	5944.96
448.99	6101.78
449.17	6239.87
449.36	6092.41
449.54	6221.14
449.73	6307.74
449.91	6267.95
450.10	6317.11
450.28	6277.32
450.46	6272.64
450.65	6242.21
450.83	6361.58
451.02	6263.27
451.20	6572.22
451.39	6441.15
451.57	6328.81
451.76	6387.32
451.94	6579.25
452.13	6490.31
452.31	6485.62
452.49	6401.37
452.68	6410.73
452.86	6530.09
453.05	6672.87
453.23	6649.46
453.42	6361.58
453.60	6642.44
453.78	6619.04
453.97	6567.54
454.15	6691.59
454.34	6619.04
454.52	6724.36
454.70	6668.19
454.89	6565.20
455.07	6808.62
455.26	6972.46
455.44	6953.73
455.62	6923.30
455.81	6916.28
455.99	6967.77
456.17	6895.22
456.36	7103.53
456.54	7185.44
456.73	7150.34
456.91	7375.03
457.09	7316.51
457.28	7396.09
457.46	7225.23
457.64	7344.60
457.83	7372.69
458.01	7258.00
458.19	7576.31
458.38	7382.05
458.56	7440.56
458.74	7414.82
458.93	7534.18
459.11	7435.88
459.29	7581.00
459.48	7454.61
459.66	7438.22
459.84	7595.04
460.03	7772.92
460.21	7644.19
460.39	7644.19
460.57	7520.14
460.76	7742.49
460.94	7679.30
461.12	7609.08
461.31	8013.99
461.49	7620.78
461.67	7698.02
461.85	7819.73
462.04	7836.11
462.22	8322.94
462.40	7896.97
462.59	8002.29
462.77	8070.17
462.95	8004.63
463.13	7950.80
463.32	8042.08
463.50	8245.71
463.68	8070.17
463.86	8093.57
464.05	8053.78
464.23	8109.96
464.41	8163.79
464.59	7999.95
464.78	8311.24
464.96	8121.66
465.14	8182.51
465.32	8369.76
465.50	8442.31
465.69	8353.37
465.87	8135.70
466.05	8248.05
466.23	8372.10
466.41	8400.18
466.60	8418.91
466.78	8526.57
466.96	8070.17
467.14	8629.56
467.32	8559.34
467.51	8285.50
467.69	8229.32
467.87	8659.98
468.05	8643.60
468.23	8606.15
468.41	8601.47
468.60	8643.60
468.78	9085.96
468.96	8676.37
469.14	8669.34
469.32	8786.37
469.50	8566.36
469.69	8809.78
469.87	8758.28
470.05	8887.01
470.23	8891.70
470.41	8877.65
470.59	9062.55
470.77	8828.50
470.95	9149.15
471.14	9287.25
471.32	8877.65
471.50	9273.20
471.68	9334.06
471.86	9432.36
472.04	9437.04
472.22	9654.71
472.40	9310.65
472.58	9352.78
472.77	9558.75
472.95	9598.54
473.13	9736.63
473.31	9444.06
473.49	9617.26
473.67	9598.54
473.85	9703.86
474.03	9823.23
474.21	9940.26
474.39	9951.96
474.57	10296.02
474.75	10113.45
474.93	10251.55
475.12	10216.44
475.30	10289.00
475.48	10078.35
475.66	10099.41
475.84	10265.59
476.02	10389.64
476.20	10277.29
476.38	10284.31
476.56	10717.31
476.74	10958.39
476.92	10736.04
477.10	10628.37
477.28	10906.90
477.46	10953.71
477.64	11157.33
477.82	11049.67
478.00	11370.32
478.18	11463.94
478.36	11428.84
478.54	11492.03
478.72	11679.27
478.90	11566.93
479.08	11822.05
479.26	11969.50
479.44	12203.55
479.62	11995.25
479.80	11957.80
479.98	11997.59
480.16	12390.80
480.34	12273.77
480.52	12437.61
480.70	12458.67
480.88	12407.18
481.06	12657.62
481.24	12849.54
481.41	12760.60
481.59	12865.92
481.77	13160.83
481.95	13287.22
482.13	13310.63
482.31	13085.94
482.49	13617.24
482.67	13668.73
482.85	13713.20
483.03	13706.18
483.21	13741.29
483.39	13963.64
483.57	14176.62
483.74	14223.44
483.92	14101.73
484.10	14225.78
484.28	14516.00
484.46	14801.55
484.64	14923.26
484.82	14478.55
485.00	15016.88
485.18	15154.97
485.35	15014.54
485.53	15002.83
485.71	15040.28
485.89	15213.48
486.07	15190.08
486.25	15522.43
486.43	15508.39
486.61	15477.96
486.78	16053.73
486.96	16252.68
487.14	16327.58
487.32	16271.40
487.50	16224.59
487.68	16812.07
487.85	16732.49
488.03	16865.90
488.21	17114.00
488.39	16922.07
488.57	17216.98
488.75	17111.66
488.92	17645.30
489.10	17912.12
489.28	18080.64
489.46	18087.66
489.64	17921.48
489.81	18260.86
489.99	18562.79
490.17	18455.12
490.35	18625.98
490.53	18735.99
490.70	18644.71
490.88	19143.24
491.06	19056.64
491.24	19241.54
491.41	19054.30
491.59	19115.16
491.77	18918.55
491.95	19496.66
492.13	19775.19
492.30	19817.32
492.48	19985.83
492.66	19522.41
492.84	20109.88
493.01	20170.74
493.19	20009.24
493.37	20491.39
493.54	20669.27
493.72	20739.49
493.90	20610.76
494.08	21139.72
494.25	21404.20
494.43	21296.53
494.61	21713.15
494.79	21275.47
494.96	21443.99
495.14	21600.80
495.32	21951.88
495.49	21846.56
495.67	22120.40
495.85	22314.67
496.02	22251.47
496.20	22094.66
496.38	22272.54
496.55	22469.14
496.73	22836.61
496.91	22920.87
497.09	22986.40
497.26	23288.33
497.44	22979.38
497.62	23281.31
497.79	23545.79
497.97	23316.42
498.14	23716.65
498.32	23594.94
498.50	23866.44
498.67	23931.98
498.85	23957.72
499.03	24046.66
499.20	24247.95
499.38	24606.05
499.56	24367.32
499.73	24418.81
499.91	24465.62
500.08	24463.28
500.26	24449.24
500.44	24748.82
500.61	25001.60
500.79	24615.41
500.97	25116.29
501.14	25443.96
501.32	25205.23
501.49	25137.35
501.67	25394.81
501.84	25310.55
502.02	25252.04
502.20	25610.14
502.37	26010.37
502.55	25549.29
502.72	25553.97
502.90	25851.22
503.07	25521.20
503.25	25951.86
503.43	26092.29
503.60	26202.30
503.78	26356.77
503.95	26202.30
504.13	26494.86
504.30	26532.31
504.48	26473.80
504.65	26749.98
504.83	26609.55
505.01	27033.19
505.18	26827.22
505.36	26974.67
505.53	27000.42
505.71	27358.52
505.88	27833.65
506.06	27044.89
506.23	27000.42
506.41	27676.83
506.58	27672.15
506.76	27662.79
506.93	27779.82
507.11	27634.71
507.28	27903.87
507.46	27988.13
507.63	28023.23
507.81	27878.12
507.98	27878.12
508.16	28222.18
508.33	28519.43
508.50	28699.65
508.68	28652.84
508.85	28690.29
509.03	28589.64
509.20	28851.78
509.38	28896.25
509.55	29046.05
509.73	28933.70
509.90	29202.86
510.08	28575.60
510.25	29376.06
510.42	28943.06
510.60	29558.63
510.77	29406.49
510.95	29937.79
511.12	29926.09
511.30	29972.90
511.47	30022.05
511.64	30059.50
511.82	30195.25
511.99	29647.57
512.17	30389.52
512.34	30202.27
512.51	30443.35
512.69	30211.64
512.86	30256.11
513.04	30843.58
513.21	30548.67
513.38	30628.25
513.56	30670.38
513.73	30494.84
513.90	30787.41
514.08	31243.81
514.25	31180.62
514.43	30869.33
514.60	31033.16
514.77	31431.05
514.95	31192.32
515.12	31285.94
515.29	31318.71
515.47	31644.04
515.64	31494.25
515.81	31419.35
515.99	31674.47
516.16	32180.03
516.33	31761.07
516.51	31807.88
516.68	31735.32
516.85	31763.41
517.03	31658.09
517.20	32400.04
517.37	32070.02
517.54	32388.33
517.72	32065.34
517.89	32034.91
518.06	32240.88
518.24	32123.85
518.41	32079.38
518.58	32385.99
518.75	32474.93
518.93	32973.47
519.10	32795.59
519.27	32797.93
519.45	32697.28
519.62	33111.56
519.79	32840.06
519.96	33420.51
520.14	33193.48
520.31	33099.86
520.48	33420.51
520.65	33095.18
520.83	33612.43
521.00	33755.21
521.17	33324.55
521.34	33703.71
521.52	33750.52
521.69	34106.29
521.86	34061.82
522.03	34216.29
522.20	34005.64
522.38	34176.50
522.55	34302.89
522.72	34022.03
522.89	34082.88
523.07	34602.48
523.24	34066.50
523.41	35164.21
523.58	34167.14
523.75	35243.79
523.92	34857.60
524.10	35063.57
524.27	35463.80
524.44	35126.76
524.61	34888.03
524.78	35133.78
524.96	35187.61
525.13	35274.21
525.30	35587.85
525.47	35655.72
525.64	35620.61
525.81	35414.65
525.98	35440.39
526.16	35487.20
526.33	35592.53
526.50	35653.38
526.67	35564.44
526.84	35562.10
527.01	35269.53
527.18	35775.09
527.36	36102.76
527.53	35732.96
527.70	36301.71
527.87	36664.49
528.04	36055.95
528.21	36423.42
528.38	36084.04
528.55	36715.98
528.72	36306.39
528.89	36708.96
529.07	36353.20
529.24	36463.21
529.41	36542.78
529.58	36594.28
529.75	36807.26
529.92	37036.64
530.09	37003.87
530.26	37191.11
530.43	36720.66
530.60	36730.03
530.77	36730.03
530.94	37078.77
531.11	37008.55
531.28	37088.13
531.46	37350.27
531.63	37656.88
531.80	37497.72
531.97	37464.96
532.14	37118.56
532.31	37081.11
532.48	37235.58
532.65	37661.56
532.82	37432.19
532.99	37717.73
533.16	37956.47
533.33	37923.70
533.50	38143.71
533.67	38036.05
533.84	37610.07
534.01	37844.12
534.18	37811.35
534.35	38557.99
534.52	38174.14
534.69	38267.76
534.86	38408.19
535.03	37457.93
535.20	38581.39
535.37	38429.26
535.54	38586.07
535.71	38258.40
535.88	38892.68
536.05	38480.75
536.22	38457.34
536.38	38293.50
536.55	38656.29
536.72	38487.77
536.89	38476.07
537.06	38277.12
537.23	38684.37
537.40	38703.10
537.57	38632.88
537.74	38850.55
537.91	39306.96
538.08	39171.21
538.25	38873.96
538.42	38972.26
538.59	39358.45
538.75	39098.65
538.92	39138.44
539.09	39250.78
539.26	38897.36
539.43	39445.05
539.60	39325.68
539.77	39194.61
539.94	39468.45
540.11	39756.34
540.28	39571.44
540.44	39515.26
540.61	38995.67
540.78	39587.82
540.95	39276.53
541.12	39550.37
541.29	39615.91
541.46	39697.83
541.62	39770.38
541.79	40158.91
541.96	39468.45
542.13	39838.26
542.30	39559.73
542.47	40079.33
542.63	40231.47
542.80	40170.61
542.97	40746.39
543.14	40498.29
543.31	40631.70
543.48	40439.78
543.64	41090.44
543.81	40680.85
543.98	40648.08
544.15	40795.54
544.32	40671.49
544.48	40879.80
544.65	40390.62
544.82	41233.22
544.99	40577.87
545.16	41041.29
545.32	40556.80
545.49	41067.04
545.66	41258.96
545.83	40903.20
546.00	41249.60
546.16	41163.00
546.33	40954.69
546.50	40687.87
546.67	41141.94
546.83	40945.33
547.00	41174.70
547.17	41062.36
547.34	41132.57
547.50	41727.07
547.67	41591.32
547.84	41427.48
548.00	41783.24
548.17	41956.44
548.34	41010.87
548.51	41890.91
548.67	41886.23
548.84	41986.87
549.01	41993.89
549.18	41383.01
549.34	41425.14
549.51	41858.14
549.68	41825.37
549.84	41935.38
550.01	42192.84
550.18	41633.45
550.34	41787.92
550.51	42106.24
550.68	41720.05
550.84	41876.86
551.01	41918.99
551.18	42005.59
551.34	41977.51
551.51	42113.26
551.68	42349.65
551.84	42604.77
552.01	41748.14
552.18	42309.86
552.34	41897.93
552.51	42485.40
552.68	42354.33
552.84	42293.48
553.01	42607.11
553.18	42522.85
553.34	42256.03
553.51	42422.21
553.67	42852.87
553.84	42916.06
554.01	42775.63
554.17	43187.56
554.34	43227.35
554.51	42529.87
554.67	42960.53
554.84	42841.17
555.00	42909.04
555.17	42543.92
555.33	42871.59
555.50	42700.73
555.67	42983.94
555.83	43005.00
556.00	42986.28
556.16	43428.64
556.33	43412.26
556.50	43072.88
556.66	43337.36
556.83	43213.31
556.99	43246.08
557.16	43161.82
557.32	43105.65
557.49	43021.39
557.65	42838.83
557.82	43028.41
557.98	43028.41
558.15	42906.70
558.32	43093.94
558.48	42932.45
558.65	43217.99
558.81	43288.21
558.98	42960.53
559.14	43711.84
559.31	43208.63
559.47	43646.31
559.64	43892.07
559.80	43700.14
559.97	43510.56
560.13	43388.85
560.30	43124.37
560.46	43463.75
560.63	43267.14
560.79	43454.39
560.96	43650.99
561.12	43576.09
561.29	43964.62
561.45	43430.98
561.61	43428.64
561.78	43863.98
561.94	43482.47
562.11	43688.44
562.27	43510.56
562.44	43608.86
562.60	43920.15
562.77	44055.90
562.93	43590.14
563.10	43927.17
563.26	43615.88
563.42	43826.53
563.59	43739.93
563.75	43693.12
563.92	44013.77
564.08	43894.41
564.24	43981.01
564.41	44137.82
564.57	43892.07
564.74	44505.29
564.90	44280.60
565.07	44566.14
565.23	43758.66
565.39	44083.99
565.56	44311.02
565.72	44065.27
565.88	43976.33
566.05	43842.92
566.21	44301.66
566.38	43597.16
566.54	44268.89
566.70	44374.22
566.87	44266.55
567.03	44224.42
567.19	44877.43
567.36	44500.61
567.52	43938.88
567.68	44240.81
567.85	44194.00
568.01	44215.06
568.17	44170.59
568.34	44474.86
568.50	44060.58
568.66	44292.30
568.83	44327.41
568.99	43646.31
569.15	44509.97
569.32	44158.89
569.48	44198.68
569.64	44444.43
569.81	44502.95
569.97	43999.73
570.13	44163.57
570.30	44025.48
570.46	43929.51
570.62	44210.38
570.78	43599.50
570.95	43789.08
571.11	44554.44
571.27	44521.67
571.43	44367.20
571.60	44006.75
571.76	44123.78
571.92	44594.23
572.09	44243.15
572.25	44299.32
572.41	44121.44
572.57	44605.93
572.74	45167.66
572.90	44596.57
573.06	44402.30
573.22	44182.29
573.38	44280.60
573.55	44512.31
573.71	44226.76
573.87	44201.02
574.03	44091.01
574.20	44678.49
574.36	44332.09
574.52	44650.40
574.68	44402.30
574.84	44751.04
575.01	44437.41
575.17	44547.42
575.33	44261.87
575.49	44421.03
575.65	45109.14
575.82	44797.85
575.98	44559.12
576.14	44903.18
576.30	44533.37
576.46	44498.26
576.62	44486.56
576.79	44685.51
576.95	44282.94
577.11	44526.35
577.27	44697.21
577.43	44584.86
577.59	44755.72
577.75	44706.57
577.92	44385.92
578.08	44245.49
578.24	44449.11
578.40	44500.61
578.56	44884.45
578.72	44648.06
578.88	44758.06
579.04	44910.20
579.21	44722.96
579.37	44760.40
579.53	45034.25
579.69	44339.11
579.85	44437.41
580.01	44467.84
580.17	44844.66
580.33	45069.36
580.49	44921.90
580.65	44889.13
580.82	44587.21
580.98	44641.04
581.14	44414.01
581.30	44837.64
581.46	44264.21
581.62	44519.33
581.78	44470.18
581.94	44940.63
582.10	44582.52
582.26	44444.43
582.42	44919.56
582.58	44612.95
582.74	44521.67
582.90	44505.29
583.06	45076.38
583.22	44835.30
583.38	44837.64
583.54	44849.35
583.70	44423.37
583.86	44708.91
584.02	44521.67
584.18	44858.71
584.34	44905.52
584.50	44671.46
584.66	44409.32
584.82	44575.50
584.98	45076.38
585.14	44746.36
585.30	44893.82
585.46	44470.18
585.62	44512.31
585.78	44311.02
585.94	44299.32
586.10	44795.51
586.26	44725.30
586.42	44697.21
586.58	45188.72
586.74	44959.35
586.90	44636.36
587.06	44626.99
587.22	44940.63
587.38	44701.89
587.54	44767.43
587.70	45272.98
587.86	44559.12
588.02	44975.73
588.18	45399.37
588.34	45160.64
588.49	44502.95
588.65	44449.11
588.81	44402.30
588.97	44823.60
589.13	44570.82
589.29	44889.13
589.45	44570.82
589.61	44858.71
589.77	45198.09
589.93	44779.13
590.08	45408.73
590.24	44971.05
