SpectraSuite Data File
++++++++++++++++++++++++++++++++++++
Date: Fri Oct 25 10:44:10 EDT 2013
User: price-jones
Dark Spectrum Present: No
Reference Spectrum Present: No
Number of Sampled Component Spectra: 1
Spectrometers: USB2+H05261
Integration Time (usec): 100000 (USB2+H05261)
Spectra Averaged: 1 (USB2+H05261)
Boxcar Smoothing: 0 (USB2+H05261)
Correct for Electrical Dark: No (USB2+H05261)
Strobe/Lamp Enabled: No (USB2+H05261)
Correct for Detector Non-linearity: No (USB2+H05261)
Correct for Stray Light: No (USB2+H05261)
Number of Pixels in Processed Spectrum: 2048
>>>>>Begin Processed Spectral Data<<<<<
365.73	100.64
365.92	100.64
366.12	100.64
366.32	21.06
366.52	0.00
366.72	30.43
366.91	0.00
367.11	56.17
367.31	0.00
367.51	44.47
367.70	21.06
367.90	28.09
368.10	0.00
368.30	53.83
368.49	35.11
368.69	79.58
368.89	0.00
369.09	72.56
369.28	0.00
369.48	46.81
369.68	95.96
369.87	177.88
370.07	124.05
370.27	131.07
370.47	182.56
370.66	416.62
370.86	390.87
371.06	496.19
371.25	451.72
371.45	472.79
371.65	477.47
371.84	404.91
372.04	507.90
372.24	479.81
372.44	442.36
372.63	566.41
372.83	477.47
373.03	571.09
373.22	540.66
373.42	559.39
373.62	514.92
373.81	482.15
374.01	578.11
374.21	547.69
374.40	550.03
374.60	653.01
374.79	582.79
374.99	559.39
375.19	580.45
375.38	617.90
375.58	559.39
375.78	620.24
375.97	592.16
376.17	645.99
376.37	660.03
376.56	608.54
376.76	629.60
376.95	615.56
377.15	514.92
377.35	592.16
377.54	629.60
377.74	655.35
377.93	641.31
378.13	676.41
378.33	688.12
378.52	629.60
378.72	653.01
378.91	603.86
379.11	650.67
379.31	589.82
379.50	650.67
379.70	667.05
379.89	599.18
380.09	763.01
380.28	660.03
380.48	716.20
380.68	751.31
380.87	631.94
381.07	648.33
381.26	835.57
381.46	732.59
381.65	718.54
381.85	653.01
382.04	704.50
382.24	699.82
382.43	690.46
382.63	690.46
382.83	758.33
383.02	770.04
383.22	772.38
383.41	704.50
383.61	786.42
383.80	795.78
384.00	758.33
384.19	809.83
384.39	793.44
384.58	718.54
384.78	844.93
384.97	809.83
385.17	758.33
385.36	814.51
385.56	791.10
385.75	805.14
385.95	777.06
386.14	856.64
386.34	795.78
386.53	835.57
386.72	837.91
386.92	922.17
387.11	809.83
387.31	882.38
387.50	849.61
387.70	870.68
387.89	844.93
388.09	840.25
388.28	901.11
388.48	844.93
388.67	915.15
388.86	908.13
389.06	964.30
389.25	924.51
389.45	943.24
389.64	926.85
389.84	1015.79
390.03	954.94
390.22	1013.45
390.42	1046.22
390.61	990.05
390.81	992.39
391.00	1125.80
391.19	940.90
391.39	1029.84
391.58	1083.67
391.78	1078.99
391.97	1013.45
392.16	1008.77
392.36	1041.54
392.55	1008.77
392.75	978.34
392.94	1008.77
393.13	983.02
393.33	966.64
393.52	1013.45
393.71	1074.31
393.91	1151.54
394.10	1128.14
394.29	1121.12
394.49	1172.61
394.68	1132.82
394.88	1174.95
395.07	1205.38
395.26	1205.38
395.46	1228.78
395.65	1179.63
395.84	1170.27
396.04	1245.16
396.23	1121.12
396.42	1214.74
396.62	1200.69
396.81	1217.08
397.00	1240.48
397.19	1226.44
397.39	1214.74
397.58	1369.21
397.77	1451.13
397.97	1500.28
398.16	1451.13
398.35	1401.98
398.55	1406.66
398.74	1465.18
398.93	1647.74
399.12	1540.07
399.32	1469.86
399.51	1544.75
399.70	1509.65
399.90	1530.71
400.09	1610.29
400.28	1575.18
400.47	1593.90
400.67	1600.93
400.86	1577.52
401.05	1582.20
401.24	1629.01
401.44	1671.14
401.63	1710.93
401.82	1720.29
402.01	1603.27
402.21	1685.19
402.40	1661.78
402.59	1715.61
402.78	1638.38
402.97	1781.15
403.17	1823.28
403.36	1781.15
403.55	1771.79
403.74	1902.86
403.93	1771.79
404.13	1664.12
404.32	1685.19
404.51	1827.96
404.70	1874.77
404.89	1863.07
405.09	1940.30
405.28	1996.48
405.47	1968.39
405.66	1966.05
405.85	1921.58
406.05	1940.30
406.24	1919.24
406.43	2064.35
406.62	2038.61
406.81	2162.66
407.00	2057.33
407.20	2059.67
407.39	1937.96
407.58	2150.95
407.77	2136.91
407.96	2033.93
408.15	2256.28
408.34	2153.29
408.54	2218.83
408.73	2289.04
408.92	2267.98
409.11	2279.68
409.30	2370.96
409.49	2385.01
409.68	2307.77
409.87	2200.10
410.07	2277.34
410.26	2335.85
410.45	2230.53
410.64	2387.35
410.83	2410.75
411.02	2579.27
411.21	2506.71
411.40	2445.86
411.59	2558.21
411.78	2626.08
411.98	2532.46
412.17	2576.93
412.36	2693.96
412.55	2656.51
412.74	2754.81
412.93	2752.47
413.12	2623.74
413.31	2832.05
413.50	2792.26
413.69	2960.78
413.88	2834.39
414.07	2902.26
414.26	2888.22
414.45	2953.76
414.64	2970.14
414.83	3082.49
415.02	2974.82
415.22	3075.46
415.41	3180.79
415.60	3098.87
415.79	3155.04
415.98	3190.15
416.17	3274.41
416.36	3164.40
416.55	3204.19
416.74	3321.22
416.93	3208.87
417.12	3206.53
417.31	3211.22
417.50	3236.96
417.69	3515.48
417.88	3456.97
418.07	3445.27
418.26	3421.86
418.45	3417.18
418.64	3681.66
418.83	3559.95
419.02	3410.16
419.21	3674.64
419.39	3616.13
419.58	3463.99
419.77	3496.76
419.96	3538.89
420.15	3653.58
420.34	3632.51
420.53	3742.52
420.72	3878.27
420.91	3779.97
421.10	3796.35
421.29	3786.99
421.48	3777.62
421.67	3936.78
421.86	3761.24
422.05	3712.09
422.24	3808.05
422.43	3744.86
422.61	3754.22
422.80	3981.25
422.99	3960.19
423.18	3843.16
423.37	3920.40
423.56	4021.04
423.75	3950.82
423.94	3971.89
424.13	3667.62
424.32	3674.64
424.50	3983.59
424.69	3894.65
424.88	4021.04
425.07	3906.35
425.26	3779.97
425.45	3791.67
425.64	3918.06
425.83	3941.46
426.01	3941.46
426.20	4011.68
426.39	3887.63
426.58	3789.33
426.77	3922.74
426.96	3967.21
427.15	4009.34
427.33	4025.72
427.52	4114.66
427.71	4145.09
427.90	4198.92
428.09	4168.49
428.28	4002.32
428.46	4154.45
428.65	4238.71
428.84	4241.05
429.03	4175.52
429.22	4039.76
429.40	4042.11
429.59	4152.11
429.78	3925.08
429.97	3796.35
430.16	4065.51
430.34	4060.83
430.53	4121.68
430.72	4156.79
430.91	4208.28
431.10	4404.89
431.28	4482.13
431.47	4580.43
431.66	4575.75
431.85	4545.32
432.03	4432.97
432.22	4489.15
432.41	4533.62
432.60	4652.98
432.79	4690.43
432.97	4966.62
433.16	4702.14
433.35	4624.90
433.54	4578.09
433.72	4655.33
433.91	4660.01
434.10	4704.48
434.28	4882.36
434.47	4917.47
434.66	4938.53
434.85	4931.51
435.03	4842.57
435.22	4865.97
435.41	5083.64
435.59	4954.91
435.78	5078.96
435.97	5085.98
436.16	5060.24
436.34	5109.39
436.53	5156.20
436.72	5266.21
436.90	5004.07
437.09	5174.92
437.28	5004.07
437.46	5179.61
437.65	5177.26
437.84	5268.55
438.02	4997.04
438.21	5308.34
438.40	5118.75
438.58	5291.95
438.77	5425.36
438.96	5460.47
439.14	5572.82
439.33	5497.92
439.52	5610.26
439.70	5521.32
439.89	5650.05
440.08	5689.84
440.26	5465.15
440.45	5514.30
440.63	5846.66
440.82	5902.83
441.01	5781.12
441.19	5951.98
441.38	6029.22
441.57	6043.26
441.75	6207.10
441.94	6249.23
442.12	6267.95
442.31	6190.72
442.50	6298.38
442.68	6174.33
442.87	6267.95
443.05	6235.19
443.24	6300.72
443.43	6265.61
443.61	6478.60
443.80	6558.18
443.98	6235.19
444.17	6321.79
444.35	6314.77
444.54	6476.26
444.73	6546.48
444.91	6534.78
445.10	6459.88
445.28	6441.15
445.47	6225.82
445.65	6289.02
445.84	6483.28
446.02	6516.05
446.21	6703.29
446.39	6506.69
446.58	6530.09
446.77	6539.46
446.95	6511.37
447.14	6630.74
447.32	6640.10
447.51	6502.01
447.69	6651.80
447.88	6686.91
448.06	6825.00
448.25	6635.42
448.43	6698.61
448.62	6649.46
448.80	6710.32
448.99	6771.17
449.17	6750.10
449.36	6771.17
449.54	7150.34
449.73	7059.06
449.91	7124.59
450.10	7173.74
450.28	6988.84
450.46	7063.74
450.65	7260.34
450.83	7159.70
451.02	7108.21
451.20	7215.87
451.39	7023.95
451.57	7138.63
451.76	7178.42
451.94	7084.80
452.13	7119.91
452.31	7276.73
452.49	7049.69
452.68	7023.95
452.86	7206.51
453.05	7171.40
453.23	7119.91
453.42	7119.91
453.60	7054.37
453.78	7314.17
453.97	7323.54
454.15	7304.81
454.34	7353.96
454.52	7426.52
454.70	7473.33
454.89	7442.90
455.07	7332.90
455.26	7595.04
455.44	7742.49
455.62	7705.04
455.81	7691.00
455.99	7726.11
456.17	7735.47
456.36	7857.18
456.54	7864.20
456.73	7843.14
456.91	7929.74
457.09	8046.76
457.28	8264.43
457.46	7967.18
457.64	8032.72
457.83	7948.46
458.01	7992.93
458.19	8210.60
458.38	8028.04
458.56	8028.04
458.74	8142.72
458.93	8095.91
459.11	8107.62
459.29	8191.88
459.48	8264.43
459.66	8404.86
459.84	8273.79
460.03	8369.76
460.21	8636.58
460.39	8667.00
460.57	8542.96
460.76	8325.29
460.94	8634.24
461.12	8486.78
461.31	8688.07
461.49	8826.16
461.67	8641.26
461.85	8854.25
462.04	8552.32
462.22	8861.27
462.40	8849.57
462.59	8830.84
462.77	8805.10
462.95	8987.66
463.13	8807.44
463.32	8858.93
463.50	8718.50
463.68	8821.48
463.86	9062.55
464.05	8697.43
464.23	8788.71
464.41	9195.96
464.59	8940.85
464.78	9015.74
464.96	9095.32
465.14	8849.57
465.32	9097.66
465.50	9191.28
465.69	9310.65
465.87	8982.98
466.05	9179.58
466.23	9067.24
466.41	9109.36
466.60	9268.52
466.78	9289.59
466.96	9015.74
467.14	9207.67
467.32	9394.91
467.51	9163.20
467.69	9067.24
467.87	9455.76
468.05	9551.73
468.23	9500.23
468.41	9259.16
468.60	9310.65
468.78	9502.58
468.96	9474.49
469.14	9495.55
469.32	9549.39
469.50	9511.94
469.69	9699.18
469.87	9596.20
470.05	9710.88
470.23	9820.89
470.41	9830.25
470.59	9905.15
470.77	9666.41
470.95	9755.35
471.14	10085.37
471.32	9893.44
471.50	10115.80
471.68	10246.87
471.86	10101.75
472.04	10417.72
472.22	10607.31
472.40	10085.37
472.58	10377.94
472.77	10480.92
472.95	10593.26
473.13	10717.31
473.31	10427.09
473.49	10436.45
473.67	10597.95
473.85	10726.68
474.03	10717.31
474.21	10740.72
474.39	10834.34
474.57	10927.96
474.75	11080.10
474.93	11094.14
475.12	10972.43
475.30	11412.45
475.48	11452.24
475.66	11274.36
475.84	11241.59
476.02	11440.54
476.20	11295.43
476.38	11587.99
476.56	11824.39
476.74	11728.42
476.92	11620.76
477.10	11983.54
477.28	11864.18
477.46	12159.08
477.64	12011.63
477.82	12226.96
478.00	12556.97
478.18	12493.78
478.36	12568.68
478.54	12650.60
478.72	12751.24
478.90	12849.54
479.08	13275.52
479.26	12823.80
479.44	13207.64
479.62	13219.35
479.80	13198.28
479.98	13170.19
480.16	13757.67
480.34	13219.35
480.52	13874.70
480.70	13731.92
480.88	13301.26
481.06	13907.46
481.24	13921.51
481.41	14092.37
481.59	14541.75
481.77	14457.49
481.95	14354.51
482.13	14422.38
482.31	14424.72
482.49	14810.91
482.67	14588.56
482.85	14700.90
483.03	14855.38
483.21	15477.96
483.39	14883.47
483.57	15356.25
483.74	15599.67
483.92	15550.52
484.10	15543.50
484.28	15807.98
484.46	15899.26
484.64	16510.14
484.82	15873.51
485.00	16456.31
485.18	16292.47
485.35	16210.55
485.53	15943.73
485.71	15917.98
485.89	16292.47
486.07	16287.79
486.25	16580.36
486.43	16793.34
486.61	16893.99
486.78	17369.12
486.96	17317.62
487.14	17867.65
487.32	17626.57
487.50	17855.95
487.68	18106.38
487.85	17998.72
488.03	18029.15
488.21	18518.32
488.39	18548.75
488.57	18487.89
488.75	18836.63
488.92	19047.28
489.10	19517.73
489.28	19243.88
489.46	19616.03
489.64	19658.16
489.81	19644.12
489.99	20168.40
490.17	19910.94
490.35	20393.09
490.53	20297.13
490.70	20449.26
490.88	20402.45
491.06	20706.72
491.24	20556.93
491.41	20442.24
491.59	20430.54
491.77	20430.54
491.95	20774.60
492.13	21118.65
492.30	21202.91
492.48	21434.63
492.66	21565.70
492.84	21678.04
493.01	21930.82
493.19	21862.94
493.37	22134.45
493.54	22134.45
493.72	22590.85
493.90	22321.69
494.08	22527.66
494.25	22993.42
494.43	23084.70
494.61	23091.73
494.79	23468.55
494.96	23580.90
495.14	23515.36
495.32	23475.57
495.49	23674.52
495.67	23726.01
495.85	24095.82
496.02	23826.65
496.20	24334.55
496.38	24372.00
496.55	24102.84
496.73	24680.95
496.91	24577.97
497.09	24877.55
497.26	24872.87
497.44	24613.07
497.62	24774.57
497.79	24907.98
497.97	25181.82
498.14	25214.59
498.32	25277.79
498.50	25975.27
498.67	25769.30
498.85	25778.66
499.03	26389.54
499.20	25891.01
499.38	26197.62
499.56	26452.73
499.73	26752.32
499.91	26485.50
500.08	26576.78
500.26	26120.38
500.44	26623.59
500.61	26504.23
500.79	26494.86
500.97	26597.85
501.14	27047.23
501.32	26878.71
501.49	26916.16
501.67	26817.86
501.84	27302.35
502.02	27119.79
502.20	27679.18
502.37	27683.86
502.55	27630.02
502.72	27555.13
502.90	27770.46
503.07	27630.02
503.25	27943.66
503.43	27833.65
503.60	28086.43
503.78	27763.43
503.95	28170.69
504.13	28226.86
504.30	28360.27
504.48	28463.25
504.65	28898.59
504.83	28704.33
505.01	28971.15
505.18	29142.01
505.36	29275.42
505.53	29083.50
505.71	29710.76
505.88	29434.58
506.06	29191.16
506.23	29228.61
506.41	29567.99
506.58	29802.04
506.76	29680.33
506.93	30012.69
507.11	29457.98
507.28	30068.86
507.46	29771.61
507.63	30082.91
507.81	30157.80
507.98	29979.92
508.16	30338.02
508.33	30010.35
508.50	30511.22
508.68	30677.40
508.85	31307.01
509.03	30621.23
509.20	30979.33
509.38	30951.24
509.55	31108.06
509.73	31402.97
509.90	31400.63
510.08	31119.76
510.25	30897.41
510.42	31463.82
510.60	31414.67
510.77	31337.43
510.95	31445.10
511.12	31660.43
511.30	31655.75
511.47	32503.02
511.64	32357.91
511.82	32643.45
511.99	31936.61
512.17	32196.41
512.34	32102.79
512.51	32416.42
512.69	32744.09
512.86	32725.37
513.04	33102.20
513.21	32645.79
513.38	32783.88
513.56	32364.93
513.73	32730.05
513.90	33015.60
514.08	32987.51
514.25	33104.54
514.43	33048.36
514.60	33200.50
514.77	33193.48
514.95	33795.00
515.12	33207.52
515.29	33666.27
515.47	33579.67
515.64	33841.81
515.81	33521.15
515.99	33823.08
516.16	33464.98
516.33	32783.88
516.51	33486.04
516.68	33036.66
516.85	33109.22
517.03	33113.90
517.20	33773.93
517.37	34263.10
517.54	34253.74
517.72	33928.41
517.89	33860.53
518.06	33933.09
518.24	33972.88
518.41	34663.33
518.58	34583.76
518.75	34550.99
518.93	34485.45
519.10	34412.90
519.27	34855.26
519.45	34934.84
519.62	34859.94
519.79	35117.40
519.96	35416.99
520.14	35618.27
520.31	35204.00
520.48	35314.00
520.65	35239.11
520.83	35931.90
521.00	35924.88
521.17	35587.85
521.34	35732.96
521.52	35845.30
521.69	36025.53
521.86	36233.83
522.03	36095.74
522.20	36254.90
522.38	36114.47
522.55	36287.67
522.72	36098.08
522.89	36395.33
523.07	36657.47
523.24	36776.84
523.41	36713.64
523.58	36877.48
523.75	36659.81
523.92	36671.51
524.10	37090.47
524.27	37172.39
524.44	36961.74
524.61	37460.27
524.78	37261.33
524.96	37361.97
525.13	37429.85
525.30	37736.46
525.47	37703.69
525.64	37748.16
525.81	37699.01
525.98	37167.71
526.16	37167.71
526.33	37628.79
526.50	37708.37
526.67	36882.16
526.84	37298.78
527.01	37528.15
527.18	37663.90
527.36	38054.77
527.53	38162.43
527.70	38003.28
527.87	38258.40
528.04	38026.68
528.21	38349.68
528.38	37935.40
528.55	38806.08
528.72	38958.22
528.89	38740.55
529.07	38733.53
529.24	38609.48
529.41	38822.47
529.58	38639.90
529.75	38873.96
529.92	38401.17
530.09	38728.84
530.26	39213.34
530.43	39330.36
530.60	38831.83
530.77	39215.68
530.94	39189.93
531.11	39262.49
531.28	39718.89
531.46	39398.24
531.63	39613.57
531.80	39494.20
531.97	39440.37
532.14	39138.44
532.31	39405.26
532.48	39412.28
532.65	39538.67
532.82	39473.13
532.99	39653.36
533.16	39496.54
533.33	39791.45
533.50	40102.74
533.67	40119.12
533.84	39924.86
534.01	39831.24
534.18	39941.24
534.35	40240.83
534.52	40060.61
534.69	40147.21
534.86	40343.81
535.03	40301.68
535.20	40865.75
535.37	40683.19
535.54	40964.06
535.71	40177.64
535.88	40519.35
536.05	40737.02
536.22	40643.40
536.38	40238.49
536.55	40549.78
536.72	40407.01
536.89	40713.62
537.06	40797.88
537.23	40662.13
537.40	40809.58
537.57	40931.29
537.74	41198.11
537.91	41614.72
538.08	41312.80
538.25	40718.30
538.42	41132.57
538.59	41261.30
538.75	40802.56
538.92	40706.60
539.09	41448.55
539.26	41565.57
539.43	41392.37
539.60	41574.94
539.77	41113.85
539.94	41413.44
540.11	41361.95
540.28	41160.66
540.44	41174.70
540.61	41235.56
540.78	41429.82
540.95	41422.80
541.12	41500.04
541.29	41713.03
541.46	41715.37
541.62	41727.07
541.79	42071.13
541.96	41373.65
542.13	41734.09
542.30	42005.59
542.47	42103.90
542.63	42504.13
542.80	41876.86
542.97	42787.33
543.14	42342.63
543.31	41977.51
543.48	42485.40
543.64	43344.38
543.81	42674.99
543.98	43438.00
544.15	42834.14
544.32	42974.58
544.48	43093.94
544.65	42579.03
544.82	42796.70
544.99	42564.98
545.16	42967.55
545.32	42560.30
545.49	43227.35
545.66	43384.17
545.83	43217.99
546.00	43580.78
546.16	42773.29
546.33	43416.94
546.50	43086.92
546.67	43100.97
546.83	42766.27
547.00	42824.78
547.17	42593.07
547.34	42850.53
547.50	43019.05
547.67	43442.68
547.84	43201.61
548.00	43882.70
548.17	43711.84
548.34	43889.73
548.51	43674.40
548.67	43416.94
548.84	43690.78
549.01	43962.28
549.18	43653.33
549.34	43831.21
549.51	43772.70
549.68	44236.12
549.84	43737.59
550.01	43936.54
550.18	43765.68
550.34	44098.03
550.51	43693.12
550.68	43983.35
550.84	43419.28
551.01	43770.36
551.18	43936.54
551.34	44332.09
551.51	43718.87
551.68	43924.83
551.84	44126.12
552.01	44362.51
552.18	44051.22
552.34	44006.75
552.51	44046.54
552.68	44329.75
552.84	44561.46
553.01	44582.52
553.18	44451.45
553.34	44273.57
553.51	43955.26
553.67	44608.27
553.84	44797.85
554.01	44196.34
554.17	44594.23
554.34	44861.05
554.51	44776.79
554.67	44729.98
554.84	44697.21
555.00	44659.76
555.17	44378.90
555.33	44470.18
555.50	44488.90
555.67	44776.79
555.83	44542.74
556.00	45001.48
556.16	45008.50
556.33	44488.90
556.50	44713.59
556.66	44980.42
556.83	44722.96
556.99	44694.87
557.16	44847.00
557.32	45214.47
557.49	45514.06
557.65	44502.95
557.82	44715.93
557.98	44940.63
558.15	44842.32
558.32	45184.04
558.48	45024.89
558.65	45050.63
558.81	44680.83
558.98	44868.07
559.14	45059.99
559.31	45102.12
559.47	44945.31
559.64	45673.21
559.80	45326.81
559.97	45099.78
560.13	45223.83
560.30	45123.19
560.46	45663.85
560.63	45284.68
560.79	45584.27
560.96	45535.12
561.12	45275.32
561.29	44889.13
561.45	45219.15
561.61	45441.50
561.78	45415.76
561.94	45214.47
562.11	45097.44
562.27	45500.01
562.44	45296.39
562.60	45504.70
562.77	45645.13
562.93	45415.76
563.10	45951.74
563.26	45230.85
563.42	45532.78
563.59	45734.07
563.75	45195.74
563.92	45951.74
564.08	45930.67
564.24	45694.28
564.41	45937.69
564.57	45631.08
564.74	45544.48
564.90	45593.64
565.07	45801.94
565.23	45572.57
565.39	45343.20
565.56	45453.20
565.72	45359.58
565.88	45237.87
566.05	45551.51
566.21	45408.73
566.38	45689.60
566.54	45521.08
566.70	45815.99
566.87	46092.17
567.03	45963.44
567.19	46141.32
567.36	45977.48
567.52	45392.35
567.68	45972.80
567.85	45626.40
568.01	46237.28
568.17	45738.75
568.34	45743.43
568.50	45897.91
568.66	45642.79
568.83	46003.23
568.99	45570.23
569.15	45560.87
569.32	45593.64
569.48	45741.09
569.64	45841.73
569.81	45947.06
569.97	45811.31
570.13	45727.05
570.30	45720.02
570.46	45179.36
570.62	45497.67
570.78	45567.89
570.95	45619.38
571.11	45668.53
571.27	45448.52
571.43	45516.40
571.60	46232.60
571.76	45958.76
571.92	45783.22
572.09	46113.23
572.25	45921.31
572.41	45656.83
572.57	46087.49
572.74	45907.27
572.90	46113.23
573.06	46211.54
573.22	46019.61
573.38	45759.81
573.55	45879.18
573.71	46248.99
573.87	45830.03
574.03	46019.61
574.20	45748.11
574.36	46293.46
574.52	45893.22
574.68	45677.90
574.84	45904.93
575.01	46181.11
575.17	45832.37
575.33	45970.46
575.49	45542.14
575.65	46162.39
575.82	46080.47
575.98	45956.42
576.14	46115.58
576.30	46167.07
576.46	45998.55
576.62	45818.33
576.79	46216.22
576.95	45432.14
577.11	45993.87
577.27	46440.91
577.43	45815.99
577.59	46246.65
577.75	46071.10
577.92	45858.12
578.08	45588.95
578.24	45832.37
578.40	45734.07
578.56	45839.39
578.72	46288.77
578.88	46162.39
579.04	46136.64
579.21	46094.51
579.37	46274.73
579.53	45614.70
579.69	46232.60
579.85	45895.56
580.01	46291.12
580.17	46043.02
580.33	46234.94
580.49	46366.01
580.65	46265.37
580.82	46499.42
580.98	45879.18
581.14	45986.85
581.30	46230.26
581.46	46410.48
581.62	46160.05
581.78	46239.62
581.94	46239.62
582.10	46075.79
582.26	46396.44
582.42	46014.93
582.58	46138.98
582.74	46286.43
582.90	46031.32
583.06	46021.95
583.22	46635.17
583.38	46073.45
583.54	46373.03
583.70	46298.14
583.86	46211.54
584.02	45790.24
584.18	45961.10
584.34	46270.05
584.50	46204.52
584.66	46213.88
584.82	45834.71
584.98	46405.80
585.14	46267.71
585.30	45766.84
585.46	46169.41
585.62	45928.33
585.78	46185.79
585.94	45495.33
586.10	45902.59
586.26	46033.66
586.42	46529.85
586.58	46202.18
586.74	46712.41
586.90	45830.03
587.06	46054.72
587.22	46202.18
587.38	45778.54
587.54	46525.17
587.70	46061.74
587.86	46571.98
588.02	46094.51
588.18	46461.97
588.34	46007.91
588.49	45450.86
588.65	45345.54
588.81	45446.18
588.97	45584.27
589.13	45844.07
589.29	46153.02
589.45	45691.94
589.61	46085.15
589.77	46288.77
589.93	46085.15
590.08	46532.19
