SpectraSuite Data File
++++++++++++++++++++++++++++++++++++
Date: Fri Oct 25 11:23:06 EDT 2013
User: price-jones
Dark Spectrum Present: No
Reference Spectrum Present: No
Number of Sampled Component Spectra: 1
Spectrometers: USB2+H05261
Integration Time (usec): 100000 (USB2+H05261)
Spectra Averaged: 1 (USB2+H05261)
Boxcar Smoothing: 0 (USB2+H05261)
Correct for Electrical Dark: No (USB2+H05261)
Strobe/Lamp Enabled: No (USB2+H05261)
Correct for Detector Non-linearity: No (USB2+H05261)
Correct for Stray Light: No (USB2+H05261)
Number of Pixels in Processed Spectrum: 2048
>>>>>Begin Processed Spectral Data<<<<<
365.73	255.12
365.92	255.12
366.12	255.12
366.32	114.69
366.52	51.49
366.72	145.11
366.91	51.49
367.11	105.32
367.31	102.98
367.51	140.43
367.70	152.13
367.90	119.37
368.10	110.01
368.30	58.51
368.49	56.17
368.69	128.73
368.89	163.84
369.09	126.39
369.28	105.32
369.48	159.16
369.68	154.48
369.87	212.99
370.07	208.31
370.27	196.60
370.47	308.95
370.66	620.24
370.86	575.77
371.06	690.46
371.25	606.20
371.45	587.47
371.65	681.10
371.84	667.05
372.04	718.54
372.24	723.23
372.44	688.12
372.63	767.70
372.83	685.78
373.03	746.63
373.22	753.65
373.42	741.95
373.62	704.50
373.81	805.14
374.01	844.93
374.21	793.44
374.40	809.83
374.60	826.21
374.79	748.97
374.99	826.21
375.19	837.91
375.38	823.87
375.58	791.10
375.78	835.57
375.97	854.30
376.17	870.68
376.37	826.21
376.56	919.83
376.76	851.96
376.95	873.02
377.15	926.85
377.35	873.02
377.54	910.47
377.74	976.00
377.93	840.25
378.13	898.77
378.33	985.37
378.52	882.38
378.72	940.90
378.91	945.58
379.11	947.92
379.31	961.96
379.50	903.45
379.70	947.92
379.89	980.68
380.09	952.60
380.28	1011.11
380.48	1015.79
380.68	971.32
380.87	1048.56
381.07	1020.47
381.26	1001.75
381.46	1001.75
381.65	1041.54
381.85	1076.65
382.04	1090.69
382.24	1008.77
382.43	1008.77
382.63	1050.90
382.83	1144.52
383.02	1132.82
383.22	1198.35
383.41	1086.01
383.61	1111.75
383.80	1172.61
384.00	1093.03
384.19	1060.26
384.39	1149.20
384.58	1163.25
384.78	1214.74
384.97	1144.52
385.17	1167.93
385.36	1153.88
385.56	1165.59
385.75	1233.46
385.95	1322.40
386.14	1233.46
386.34	1245.16
386.53	1275.59
386.72	1233.46
386.92	1291.98
387.11	1224.10
387.31	1268.57
387.50	1172.61
387.70	1256.87
387.89	1254.53
388.09	1291.98
388.28	1263.89
388.48	1329.42
388.67	1348.15
388.86	1296.66
389.06	1357.51
389.25	1320.06
389.45	1359.85
389.64	1355.17
389.84	1324.74
390.03	1416.02
390.22	1439.43
390.42	1439.43
390.61	1446.45
390.81	1448.79
391.00	1423.05
391.19	1481.56
391.39	1432.41
391.58	1446.45
391.78	1530.71
391.97	1446.45
392.16	1483.90
392.36	1586.88
392.55	1441.77
392.75	1591.56
392.94	1507.30
393.13	1535.39
393.33	1572.84
393.52	1582.20
393.71	1696.89
393.91	1561.14
394.10	1547.09
394.29	1568.16
394.49	1654.76
394.68	1694.55
394.88	1619.65
395.07	1621.99
395.26	1713.27
395.46	1760.08
395.65	1739.02
395.84	1748.38
396.04	1795.19
396.23	1816.26
396.42	1708.59
396.62	1839.66
396.81	1832.64
397.00	1846.68
397.19	1872.43
397.39	1764.76
397.58	1888.81
397.77	1783.49
397.97	1844.34
398.16	1867.75
398.35	1842.00
398.55	1830.30
398.74	1905.20
398.93	1935.62
399.12	1984.77
399.32	1994.14
399.51	2036.27
399.70	1926.26
399.90	2005.84
400.09	2073.71
400.28	2104.14
400.47	2087.76
400.67	2176.70
400.86	2050.31
401.05	2022.22
401.24	2106.48
401.44	2148.61
401.63	2134.57
401.82	2211.81
402.01	2146.27
402.21	2176.70
402.40	2235.21
402.59	2174.36
402.78	2111.16
402.97	2239.89
403.17	2246.91
403.36	2172.02
403.55	2305.43
403.74	2338.20
403.93	2506.71
404.13	2429.48
404.32	2368.62
404.51	2427.14
404.70	2415.43
404.89	2389.69
405.09	2403.73
405.28	2410.75
405.47	2483.31
405.66	2530.12
405.85	2628.42
406.05	2555.86
406.24	2471.61
406.43	2661.19
406.62	2729.06
406.81	2773.53
407.00	2642.46
407.20	2700.98
407.39	2689.28
407.58	2705.66
407.77	2860.13
407.96	2825.03
408.15	2740.77
408.34	2665.87
408.54	2878.86
408.73	2876.52
408.92	2815.66
409.11	2841.41
409.30	2892.90
409.49	2876.52
409.68	2892.90
409.87	3052.06
410.07	3077.80
410.26	2944.39
410.45	2984.18
410.64	3129.30
410.83	3101.21
411.02	3030.99
411.21	3208.87
411.40	3176.11
411.59	3248.66
411.78	3236.96
411.98	3335.26
412.17	3361.01
412.36	3276.75
412.55	3318.88
412.74	3452.29
412.93	3384.41
413.12	3337.60
413.31	3485.06
413.50	3426.54
413.69	3571.66
413.88	3574.00
414.07	3625.49
414.26	3588.04
414.45	3775.28
414.64	3606.77
414.83	3794.01
415.02	3742.52
415.22	3904.01
415.41	3824.44
415.60	3925.08
415.79	3887.63
415.98	4004.66
416.17	4004.66
416.36	3911.04
416.55	4105.30
416.74	4149.77
416.93	4231.69
417.12	4084.23
417.31	4091.26
417.50	4236.37
417.69	4313.61
417.88	4400.21
418.07	4152.11
418.26	4365.10
418.45	4425.95
418.64	4489.15
418.83	4440.00
419.02	4440.00
419.21	4514.89
419.39	4613.20
419.58	4648.30
419.77	4524.26
419.96	4533.62
420.15	4678.73
420.34	4681.07
420.53	4610.86
420.72	4802.78
420.91	4662.35
421.10	4667.03
421.29	4945.55
421.48	4807.46
421.67	4770.01
421.86	4812.14
422.05	4795.76
422.24	4842.57
422.43	4816.82
422.61	5018.11
422.80	5121.09
422.99	4936.19
423.18	4983.00
423.37	5130.45
423.56	4971.30
423.75	4901.08
423.94	4851.93
424.13	4554.68
424.32	4844.91
424.50	5008.75
424.69	5057.90
424.88	5130.45
425.07	5046.20
425.26	4887.04
425.45	5064.92
425.64	4992.36
425.83	4957.25
426.01	5060.24
426.20	5093.01
426.39	4990.02
426.58	5039.17
426.77	5053.22
426.96	5137.48
427.15	5109.39
427.33	5336.42
427.52	5088.32
427.71	5418.34
427.90	5135.14
428.09	5362.17
428.28	5357.49
428.46	5357.49
428.65	5392.59
428.84	5301.31
429.03	5645.37
429.22	5245.14
429.40	5432.38
429.59	5572.82
429.78	5261.52
429.97	5446.43
430.16	5734.31
430.34	5549.41
430.53	5621.97
430.72	5675.80
430.91	5593.88
431.10	5834.96
431.28	5734.31
431.47	5849.00
431.66	6052.63
431.85	5661.76
432.03	6057.31
432.22	6115.82
432.41	6050.28
432.60	5956.66
432.79	5959.00
432.97	6132.20
433.16	6015.18
433.35	5984.75
433.54	6115.82
433.72	6291.36
433.91	6202.42
434.10	6200.08
434.28	6246.89
434.47	6232.85
434.66	6300.72
434.85	6356.90
435.03	6249.23
435.22	6399.02
435.41	6551.16
435.59	6410.73
435.78	6392.00
435.97	6415.41
436.16	6401.37
436.34	6544.14
436.53	6590.95
436.72	6626.06
436.90	6274.98
437.09	6434.13
437.28	6595.63
437.46	6691.59
437.65	6579.25
437.84	6801.60
438.02	6895.22
438.21	6839.05
438.40	6689.25
438.58	6909.26
438.77	7171.40
438.96	6970.12
439.14	7314.17
439.33	7232.26
439.52	7222.89
439.70	7356.30
439.89	7360.98
440.08	7449.93
440.26	7358.64
440.45	7466.31
440.63	7520.14
440.82	7501.42
441.01	7585.68
441.19	7529.50
441.38	7824.41
441.57	7770.58
441.75	7648.87
441.94	8156.77
442.12	7978.89
442.31	8049.10
442.50	8131.02
442.68	8067.83
442.87	8135.70
443.05	8161.45
443.24	8280.82
443.43	8339.33
443.61	8304.22
443.80	8500.83
443.98	8081.87
444.17	7992.93
444.35	8404.86
444.54	8496.14
444.73	8266.77
444.91	8421.25
445.10	8407.20
445.28	8552.32
445.47	8320.60
445.65	8423.59
445.84	8545.30
446.02	8589.77
446.21	8573.38
446.39	8496.14
446.58	8587.43
446.77	8540.61
446.95	8285.50
447.14	8507.85
447.32	8863.61
447.51	8542.96
447.69	8294.86
447.88	8592.11
448.06	8571.04
448.25	8514.87
448.43	8718.50
448.62	8503.17
448.80	8704.45
448.99	8748.92
449.17	8753.60
449.36	8697.43
449.54	8851.91
449.73	9015.74
449.91	8851.91
450.10	8884.67
450.28	9177.24
450.46	9116.39
450.65	9092.98
450.83	9048.51
451.02	9128.09
451.20	9320.01
451.39	9432.36
451.57	9320.01
451.76	9032.13
451.94	9301.29
452.13	9504.92
452.31	9401.93
452.49	9228.73
452.68	9540.02
452.86	9373.85
453.05	9502.58
453.23	9523.64
453.42	9455.76
453.60	9341.08
453.78	9661.73
453.97	9343.42
454.15	9600.88
454.34	9586.83
454.52	9949.62
454.70	9879.40
454.89	9785.78
455.07	9839.61
455.26	9944.94
455.44	9877.06
455.62	9858.34
455.81	10050.26
455.99	10122.82
456.17	10108.77
456.36	9973.02
456.54	10101.75
456.73	10328.78
456.91	10560.50
457.09	10544.11
457.28	10670.50
457.46	10466.88
457.64	10562.84
457.83	10595.61
458.01	10483.26
458.19	10820.30
458.38	10867.11
458.56	10876.47
458.74	10895.19
458.93	10993.50
459.11	10951.37
459.29	10953.71
459.48	10946.69
459.66	10787.53
459.84	10972.43
460.03	11115.20
460.21	11016.90
460.39	11213.51
460.57	10949.03
460.76	11194.78
460.94	11290.74
461.12	11307.13
461.31	11290.74
461.49	11300.11
461.67	11250.96
461.85	11576.29
462.04	11349.26
462.22	11580.97
462.40	11597.35
462.59	11758.85
462.77	11623.10
462.95	11789.28
463.13	11803.32
463.32	11585.65
463.50	11770.55
463.68	11948.43
463.86	12081.85
464.05	11899.28
464.23	11726.08
464.41	12023.33
464.59	11901.62
464.78	12002.27
464.96	12166.10
465.14	11976.52
465.32	12088.87
465.50	12362.71
465.69	12259.73
465.87	12250.36
466.05	12259.73
466.23	12353.35
466.41	12283.13
466.60	12435.27
466.78	12393.14
466.96	12334.62
467.14	12507.82
467.32	12685.70
467.51	12784.01
467.69	12266.75
467.87	12402.50
468.05	12769.96
468.23	12547.61
468.41	12510.16
468.60	12945.50
468.78	12851.88
468.96	12856.56
469.14	13434.68
469.32	12985.29
469.50	12776.98
469.69	13238.07
469.87	12924.44
470.05	13345.73
470.23	13458.08
470.41	13287.22
470.59	13535.32
470.77	13181.90
470.95	13268.50
471.14	13792.78
471.32	13397.23
471.50	13909.80
471.68	13884.06
471.86	13926.19
472.04	13743.63
472.22	14384.93
472.40	13912.14
472.58	13729.58
472.77	14008.11
472.95	14202.37
473.13	14679.84
473.31	14190.67
473.49	14106.41
473.67	14293.65
473.85	14363.87
474.03	14888.15
474.21	14689.20
474.39	15157.31
474.57	14768.78
474.75	15005.17
474.93	15414.77
475.12	15267.31
475.30	15152.63
475.48	15264.97
475.66	15583.29
475.84	15428.81
476.02	15527.11
476.20	15536.48
476.38	15730.74
476.56	16173.10
476.74	16187.14
476.92	16011.60
477.10	15974.16
477.28	16624.83
477.46	16561.63
477.64	16468.01
477.82	16760.58
478.00	17106.98
478.18	16823.77
478.36	17090.59
478.54	17050.80
478.72	17043.78
478.90	17493.16
479.08	17645.30
479.26	17949.57
479.44	17975.31
479.62	18045.53
479.80	18403.63
479.98	18338.10
480.16	18897.49
480.34	18555.77
480.52	18513.64
480.70	18796.84
480.88	18614.28
481.06	18965.36
481.24	19012.17
481.41	19318.78
481.59	19562.20
481.77	19557.52
481.95	19793.91
482.13	20034.99
482.31	20144.99
482.49	20353.30
482.67	20418.83
482.85	20634.16
483.03	20772.25
483.21	20774.60
483.39	21142.06
483.57	21369.09
483.74	21432.29
483.92	21514.20
484.10	21446.33
484.28	21928.48
484.46	22324.03
484.64	22672.77
484.82	22214.02
485.00	22511.27
485.18	22871.72
485.35	23363.23
485.53	23077.68
485.71	23131.51
485.89	23770.48
486.07	23517.70
486.25	23709.63
486.43	24156.67
486.61	23857.08
486.78	24264.33
486.96	24383.70
487.14	24828.40
487.32	25113.95
487.50	25090.54
487.68	25144.38
487.85	25792.70
488.03	25717.81
488.21	26141.44
488.39	25940.16
488.57	26286.56
488.75	26230.38
488.92	26469.12
489.10	26946.59
489.28	26981.70
489.46	27517.68
489.64	27222.77
489.81	27747.05
489.99	27613.64
490.17	27950.68
490.35	28360.27
490.53	28627.09
490.70	28591.98
490.88	28519.43
491.06	29036.69
491.24	29102.22
491.41	29053.07
491.59	29336.27
491.77	29577.35
491.95	29963.54
492.13	30134.40
492.30	30057.16
492.48	30520.59
492.66	30644.63
492.84	30675.06
493.01	30883.37
493.19	30855.28
493.37	31744.69
493.54	31632.34
493.72	31782.13
493.90	31374.88
494.08	32428.12
494.25	32617.71
494.43	32591.96
494.61	32697.28
494.79	33205.18
494.96	33050.70
495.14	33141.99
495.32	33631.16
495.49	33364.34
495.67	33488.38
495.85	34136.71
496.02	34291.19
496.20	33603.07
496.38	34120.33
496.55	34794.40
496.73	35379.54
496.91	35260.17
497.09	35531.67
497.26	35145.48
497.44	35192.30
497.62	35349.11
497.79	36217.45
497.97	35737.64
498.14	36598.96
498.32	36428.10
498.50	36725.35
498.67	36992.17
498.85	36835.35
499.03	37514.11
499.20	36957.06
499.38	37270.69
499.56	37944.76
499.73	37638.15
499.91	38000.94
500.08	38007.96
500.26	37790.29
500.44	38075.84
500.61	38490.11
500.79	38377.76
500.97	38188.18
501.14	38780.34
501.32	38927.79
501.49	38632.88
501.67	39138.44
501.84	39152.48
502.02	39454.41
502.20	39803.15
502.37	39716.55
502.55	39583.14
502.72	39969.33
502.90	40236.15
503.07	39950.60
503.25	40271.26
503.43	40388.28
503.60	40325.09
503.78	40348.50
503.95	40570.85
504.13	40697.24
504.30	40814.26
504.48	40921.93
504.65	41301.09
504.83	41120.87
505.01	41876.86
505.18	41523.44
505.36	42045.38
505.53	41474.29
505.71	41937.72
505.88	42293.48
506.06	41930.70
506.23	42724.14
506.41	42157.73
506.58	42792.01
506.76	42728.82
506.93	42644.56
507.11	42595.41
507.28	42969.90
507.46	43030.75
507.63	43246.08
507.81	43419.28
507.98	43077.56
508.16	43229.69
508.33	43913.13
508.50	44098.03
508.68	44238.47
508.85	44334.43
509.03	44172.93
509.20	44364.85
509.38	44877.43
509.55	44449.11
509.73	44690.19
509.90	45411.07
510.08	44811.90
510.25	44807.22
510.42	44858.71
510.60	45415.76
510.77	45659.17
510.95	45808.96
511.12	45614.70
511.30	45556.19
511.47	45689.60
511.64	45471.93
511.82	46230.26
511.99	46068.76
512.17	46382.40
512.34	45890.88
512.51	46520.49
512.69	46705.39
512.86	46670.28
513.04	47063.49
513.21	46887.95
513.38	46965.19
513.56	47208.61
513.73	46988.60
513.90	47295.21
514.08	47253.08
514.25	48041.84
514.43	47849.91
514.60	48034.81
514.77	47959.92
514.95	48095.67
515.12	48076.94
515.29	47936.51
515.47	48062.90
515.64	48917.20
515.81	48315.68
515.99	48687.82
516.16	48947.62
516.33	48676.12
516.51	49052.95
516.68	48477.18
516.85	49029.54
517.03	49162.95
517.20	49116.14
517.37	49464.88
517.54	49535.10
517.72	49195.72
517.89	49698.94
518.06	49057.63
518.24	49305.73
518.41	49649.78
518.58	49736.38
518.75	49813.62
518.93	49954.05
519.10	49958.73
519.27	50075.76
519.45	50103.85
519.62	50141.30
519.79	50309.82
519.96	50567.27
520.14	50717.07
520.31	50534.51
520.48	50927.72
520.65	50808.35
520.83	50796.65
521.00	51143.05
521.17	50920.70
521.34	50923.04
521.52	51110.28
521.69	51274.12
521.86	50923.04
522.03	51545.62
522.20	51344.33
522.38	51793.71
522.55	51487.10
522.72	51686.05
522.89	51709.46
523.07	51938.83
523.24	51732.86
523.41	52168.20
523.58	52175.22
523.75	52348.42
523.92	52142.45
524.10	52472.47
524.27	52184.58
524.44	52552.05
524.61	52385.87
524.78	52580.13
524.96	52767.38
525.13	52786.10
525.30	52568.43
525.47	53160.59
525.64	52727.59
525.81	52903.13
525.98	52863.34
526.16	52952.28
526.33	53057.60
526.50	53188.67
526.67	53139.52
526.84	53202.72
527.01	53415.71
527.18	53581.88
527.36	53240.17
527.53	53230.80
527.70	53574.86
527.87	53439.11
528.04	53385.28
528.21	53792.53
528.38	53345.49
528.55	53883.81
528.72	53909.56
528.89	53722.32
529.07	53986.80
529.24	53640.40
529.41	53930.62
529.58	53680.19
529.75	53633.38
529.92	53808.92
530.09	54005.52
530.26	54164.68
530.43	54337.88
530.60	54099.14
530.77	54164.68
530.94	54206.81
531.11	54333.20
531.28	54267.66
531.46	54513.42
531.63	54578.95
531.80	54513.42
531.97	54616.40
532.14	54915.99
532.31	54871.52
532.48	54801.30
532.65	54915.99
532.82	54717.04
532.99	55065.78
533.16	54869.18
533.33	55093.87
533.50	55159.41
533.67	55063.44
533.84	55089.19
534.01	55358.35
534.18	55126.64
534.35	55466.02
534.52	55253.03
534.69	55564.32
534.86	55643.90
535.03	55484.74
535.20	55384.10
535.37	55519.85
535.54	55714.11
535.71	55501.12
535.88	55491.76
536.05	55585.38
536.22	55819.44
536.38	56039.45
536.55	55987.95
536.72	56191.58
536.89	55910.72
537.06	55753.90
537.23	56191.58
537.40	55828.80
537.57	55913.06
537.74	56224.35
537.91	56245.41
538.08	56514.58
538.25	56376.48
538.42	56383.51
538.59	56385.85
538.75	56275.84
538.92	56140.09
539.09	56556.70
539.26	56250.09
539.43	56547.34
539.60	56631.60
539.77	56341.38
539.94	56715.86
540.11	56402.23
540.28	56757.99
540.44	56535.64
540.61	56739.27
540.78	56797.78
540.95	56610.54
541.12	56615.22
541.29	56596.49
541.46	56776.72
541.62	56823.53
541.79	56947.57
541.96	56743.95
542.13	56828.21
542.30	57069.28
542.47	57141.84
542.63	57038.86
542.80	57132.48
542.97	57277.59
543.14	57319.72
543.31	57408.66
543.48	57317.38
543.64	57593.56
543.81	57689.52
543.98	57684.84
544.15	57572.50
544.32	57858.04
544.48	57911.88
544.65	57670.80
544.82	57609.95
544.99	57488.24
545.16	57748.04
545.32	57785.49
545.49	58101.46
545.66	58000.82
545.83	57977.41
546.00	58021.88
546.16	58028.90
546.33	57860.38
546.50	57769.10
546.67	57827.62
546.83	57663.78
547.00	58040.60
547.17	58192.74
547.34	58056.99
547.50	58075.71
547.67	58358.92
547.84	58408.07
548.00	58391.68
548.17	58375.30
548.34	58183.38
548.51	58511.05
548.67	58590.63
548.84	58621.06
549.01	58438.50
549.18	58436.16
549.34	58520.41
549.51	58571.91
549.68	58534.46
549.84	58424.45
550.01	58834.05
550.18	58695.95
550.34	58520.41
550.51	58864.47
550.68	58789.58
550.84	58721.70
551.01	58712.34
551.18	58710.00
551.34	58913.62
551.51	58890.22
551.68	58850.43
551.84	58801.28
552.01	58761.49
552.18	58866.81
552.34	58759.15
552.51	59140.66
552.68	58869.15
552.84	58946.39
553.01	59238.96
553.18	58918.31
553.34	59100.87
553.51	58941.71
553.67	59100.87
553.84	59065.76
554.01	59227.26
554.17	59433.22
554.34	59377.05
554.51	59182.79
554.67	59465.99
554.84	59365.35
555.00	59421.52
555.17	59030.65
555.33	59234.28
555.50	59257.68
555.67	59220.23
555.83	59248.32
556.00	59402.80
556.16	59763.24
556.33	59601.74
556.50	59449.61
556.66	59693.02
556.83	59416.84
556.99	59571.32
557.16	59770.26
557.32	59611.10
557.49	59606.42
557.65	59484.72
557.82	59697.70
557.98	59615.79
558.15	59709.41
558.32	59793.67
558.48	59508.12
558.65	60004.31
558.81	59901.33
558.98	59840.48
559.14	59700.04
559.31	59854.52
559.47	59934.10
559.64	60065.17
559.80	59941.12
559.97	60030.06
560.13	59749.20
560.30	59842.82
560.46	59910.69
560.63	60137.72
560.79	59906.01
560.96	60212.62
561.12	60004.31
561.29	60041.76
561.45	60154.11
561.61	60062.83
561.78	59966.87
561.94	60037.08
562.11	60060.49
562.27	60001.97
562.44	60402.21
562.60	60287.52
562.77	60013.68
562.93	60186.88
563.10	60362.42
563.26	60261.77
563.42	60376.46
563.59	60348.37
563.75	60051.12
563.92	60355.39
564.08	60282.84
564.24	60640.94
564.41	60427.95
564.57	60280.50
564.74	60479.44
564.90	60465.40
565.07	60346.03
565.23	60360.08
565.39	60406.89
565.56	60425.61
565.72	60343.69
565.88	60399.86
566.05	60460.72
566.21	60446.68
566.38	60425.61
566.54	60542.64
566.70	60650.30
566.87	60722.86
567.03	60273.48
567.19	60683.07
567.36	60659.66
567.52	60608.17
567.68	60818.82
567.85	60601.15
568.01	60741.58
568.17	60657.32
568.34	60779.03
568.50	60603.49
568.66	60390.50
568.83	60725.20
568.99	60701.79
569.15	60760.31
569.32	60603.49
569.48	60552.00
569.64	60666.69
569.81	60680.73
569.97	60573.06
570.13	60542.64
570.30	60512.21
570.46	60711.16
570.62	60741.58
570.78	60837.54
570.95	60664.35
571.11	60762.65
571.27	60823.50
571.43	60811.80
571.60	60912.44
571.76	60727.54
571.92	60877.33
572.09	60846.91
572.25	60987.34
572.41	60804.78
572.57	60889.04
572.74	61104.37
572.90	60914.78
573.06	60645.62
573.22	60907.76
573.38	61041.17
573.55	60804.78
573.71	61048.19
573.87	60891.38
574.03	60767.33
574.20	60919.46
574.36	60837.54
574.52	60867.97
574.68	61066.92
574.84	61102.03
575.01	61076.28
575.17	60781.37
575.33	61043.51
575.49	60884.36
575.65	61013.08
575.82	60980.32
575.98	60793.07
576.14	61235.44
576.30	60931.17
576.46	60982.66
576.62	61071.60
576.79	60877.33
576.95	60821.16
577.11	60900.74
577.27	61165.22
577.43	60882.02
577.59	60786.05
577.75	60959.25
577.92	61062.24
578.08	61062.24
578.24	61062.24
578.40	61237.78
578.56	61305.65
578.72	61127.77
578.88	61066.92
579.04	61212.03
579.21	60992.02
579.37	61190.97
579.53	61242.46
579.69	61013.08
579.85	61167.56
580.01	61120.75
580.17	61022.45
580.33	61282.25
580.49	61272.88
580.65	61132.45
580.82	61174.58
580.98	60947.55
581.14	61052.87
581.30	61261.18
581.46	61069.26
581.62	61286.93
581.78	61118.41
581.94	61261.18
582.10	61193.31
582.26	61209.69
582.42	61134.79
582.58	60919.46
582.74	61085.64
582.90	61237.78
583.06	61123.09
583.22	61092.66
583.38	61113.73
583.54	61132.45
583.70	61366.51
583.86	61403.95
584.02	61099.68
584.18	61212.03
584.34	61275.22
584.50	61073.94
584.66	61017.77
584.82	60996.70
584.98	61270.54
585.14	61265.86
585.30	61102.03
585.46	61099.68
585.62	61296.29
585.78	61282.25
585.94	61071.60
586.10	61296.29
586.26	61315.01
586.42	61420.34
586.58	61364.17
586.74	61307.99
586.90	61085.64
587.06	61282.25
587.22	61366.51
587.38	61345.44
587.54	61457.79
587.70	61633.33
587.86	61181.60
588.02	61340.76
588.18	61340.76
588.34	61200.33
588.49	61153.52
