SpectraSuite Data File
++++++++++++++++++++++++++++++++++++
Date: Fri Oct 25 10:48:32 EDT 2013
User: price-jones
Dark Spectrum Present: No
Reference Spectrum Present: No
Number of Sampled Component Spectra: 1
Spectrometers: USB2+H05261
Integration Time (usec): 100000 (USB2+H05261)
Spectra Averaged: 1 (USB2+H05261)
Boxcar Smoothing: 0 (USB2+H05261)
Correct for Electrical Dark: No (USB2+H05261)
Strobe/Lamp Enabled: No (USB2+H05261)
Correct for Detector Non-linearity: No (USB2+H05261)
Correct for Stray Light: No (USB2+H05261)
Number of Pixels in Processed Spectrum: 2048
>>>>>Begin Processed Spectral Data<<<<<
365.73	110.01
365.92	110.01
366.12	110.01
366.32	138.09
366.52	77.24
366.72	65.54
366.91	0.00
367.11	4.68
367.31	56.17
367.51	56.17
367.70	49.15
367.90	149.79
368.10	67.88
368.30	72.56
368.49	32.77
368.69	100.64
368.89	0.00
369.09	11.70
369.28	95.96
369.48	7.02
369.68	98.30
369.87	119.37
370.07	182.56
370.27	166.18
370.47	198.95
370.66	425.98
370.86	498.53
371.06	524.28
371.25	596.84
371.45	486.83
371.65	528.96
371.84	482.15
372.04	554.71
372.24	517.26
372.44	463.43
372.63	519.60
372.83	566.41
373.03	550.03
373.22	528.96
373.42	512.58
373.62	564.07
373.81	526.62
374.01	552.37
374.21	610.88
374.40	653.01
374.60	528.96
374.79	580.45
374.99	559.39
375.19	594.50
375.38	636.63
375.58	573.43
375.78	638.97
375.97	624.92
376.17	610.88
376.37	615.56
376.56	636.63
376.76	634.29
376.95	704.50
377.15	720.88
377.35	641.31
377.54	739.61
377.74	657.69
377.93	629.60
378.13	681.10
378.33	674.07
378.52	697.48
378.72	720.88
378.91	709.18
379.11	669.39
379.31	699.82
379.50	674.07
379.70	786.42
379.89	631.94
380.09	711.52
380.28	727.91
380.48	695.14
380.68	660.03
380.87	716.20
381.07	720.88
381.26	882.38
381.46	709.18
381.65	767.70
381.85	667.05
382.04	779.40
382.24	788.76
382.43	737.27
382.63	734.93
382.83	723.23
383.02	716.20
383.22	709.18
383.41	772.38
383.61	744.29
383.80	861.32
384.00	828.55
384.19	844.93
384.39	844.93
384.58	861.32
384.78	924.51
384.97	858.98
385.17	755.99
385.36	798.12
385.56	896.43
385.75	812.17
385.95	882.38
386.14	905.79
386.34	828.55
386.53	812.17
386.72	781.74
386.92	931.53
387.11	880.04
387.31	842.59
387.50	889.40
387.70	917.49
387.89	924.51
388.09	908.13
388.28	844.93
388.48	943.24
388.67	1020.47
388.86	987.71
389.06	1067.28
389.25	940.90
389.45	940.90
389.64	973.66
389.84	947.92
390.03	1095.37
390.22	1057.92
390.42	1067.28
390.61	990.05
390.81	1149.20
391.00	1125.80
391.19	1139.84
391.39	1121.12
391.58	1137.50
391.78	1118.78
391.97	1004.09
392.16	1088.35
392.36	1097.71
392.55	1083.67
392.75	997.07
392.94	1008.77
393.13	1048.56
393.33	994.73
393.52	1062.60
393.71	1121.12
393.91	1224.10
394.10	1160.91
394.29	1153.88
394.49	1200.69
394.68	1355.17
394.88	1313.04
395.07	1252.19
395.26	1266.23
395.46	1287.29
395.65	1296.66
395.84	1233.46
396.04	1196.01
396.23	1240.48
396.42	1252.19
396.62	1238.14
396.81	1275.59
397.00	1259.21
397.19	1350.49
397.39	1299.00
397.58	1521.35
397.77	1383.26
397.97	1401.98
398.16	1444.11
398.35	1647.74
398.55	1523.69
398.74	1460.49
398.93	1568.16
399.12	1530.71
399.32	1511.99
399.51	1481.56
399.70	1619.65
399.90	1621.99
400.09	1645.40
400.28	1687.53
400.47	1678.16
400.67	1687.53
400.86	1703.91
401.05	1678.16
401.24	1724.97
401.44	1732.00
401.63	1785.83
401.82	1771.79
402.01	1750.72
402.21	1804.55
402.40	1849.02
402.59	1842.00
402.78	1874.77
402.97	1771.79
403.17	1849.02
403.36	1753.06
403.55	1844.34
403.74	1778.81
403.93	1909.88
404.13	1886.47
404.32	1827.96
404.51	1898.17
404.70	1968.39
404.89	1975.41
405.09	2019.88
405.28	1888.81
405.47	1973.07
405.66	2064.35
405.85	1935.62
406.05	2059.67
406.24	2120.53
406.43	2043.29
406.62	2179.04
406.81	2190.74
407.00	2179.04
407.20	2165.00
407.39	2162.66
407.58	2242.23
407.77	2246.91
407.96	2244.57
408.15	2263.30
408.34	2258.62
408.54	2359.26
408.73	2452.88
408.92	2354.58
409.11	2373.30
409.30	2251.60
409.49	2251.60
409.68	2244.57
409.87	2333.51
410.07	2473.95
410.26	2380.32
410.45	2354.58
410.64	2513.74
410.83	2497.35
411.02	2530.12
411.21	2677.57
411.40	2609.70
411.59	2595.65
411.78	2722.04
411.98	2628.42
412.17	2792.26
412.36	2740.77
412.55	2815.66
412.74	2855.45
412.93	2829.71
413.12	2693.96
413.31	2902.26
413.50	2836.73
413.69	2867.16
413.88	3070.78
414.07	3035.67
414.26	2977.16
414.45	2963.12
414.64	2958.44
414.83	2960.78
415.02	3150.36
415.22	3178.45
415.41	3133.98
415.60	3122.27
415.79	3222.92
415.98	3323.56
416.17	3356.33
416.36	3400.80
416.55	3454.63
416.74	3318.88
416.93	3337.60
417.12	3368.03
417.31	3496.76
417.50	3414.84
417.69	3581.02
417.88	3424.20
418.07	3461.65
418.26	3456.97
418.45	3463.99
418.64	3604.42
418.83	3653.58
419.02	3548.25
419.21	3585.70
419.39	3623.15
419.58	3538.89
419.77	3850.18
419.96	3592.72
420.15	3728.47
420.34	3728.47
420.53	3786.99
420.72	3852.52
420.91	3836.14
421.10	3894.65
421.29	4067.85
421.48	4030.40
421.67	3873.59
421.86	3765.92
422.05	3808.05
422.24	3826.78
422.43	3889.97
422.61	3906.35
422.80	3929.76
422.99	3927.42
423.18	3882.95
423.37	4014.02
423.56	4009.34
423.75	3906.35
423.94	4037.42
424.13	3761.24
424.32	3974.23
424.50	4065.51
424.69	4142.75
424.88	4011.68
425.07	4102.96
425.26	3894.65
425.45	3868.91
425.64	3864.22
425.83	3932.10
426.01	3997.64
426.20	4100.62
426.39	4105.30
426.58	4091.26
426.77	4046.79
426.96	3920.40
427.15	4035.08
427.33	4264.46
427.52	4287.86
427.71	4219.99
427.90	4210.62
428.09	4290.20
428.28	4299.56
428.46	4208.28
428.65	4227.01
428.84	4287.86
429.03	4409.57
429.22	4196.58
429.40	4269.14
429.59	4175.52
429.78	3981.25
429.97	4011.68
430.16	4086.58
430.34	4217.65
430.53	4163.81
430.72	4278.50
430.91	4297.22
431.10	4482.13
431.28	4411.91
431.47	4699.80
431.66	4856.61
431.85	4547.66
432.03	4674.05
432.22	4791.08
432.41	4887.04
432.60	4842.57
432.79	4837.89
432.97	4821.50
433.16	4697.46
433.35	4770.01
433.54	4683.41
433.72	4786.40
433.91	4800.44
434.10	4910.44
434.28	4868.31
434.47	4891.72
434.66	5078.96
434.85	5217.05
435.03	5144.50
435.22	5121.09
435.41	5224.08
435.59	5198.33
435.78	5078.96
435.97	5203.01
436.16	5238.12
436.34	5149.18
436.53	5310.68
436.72	5376.21
436.90	5252.16
437.09	5231.10
437.28	5118.75
437.46	5235.78
437.65	5163.22
437.84	5413.66
438.02	5121.09
438.21	5355.15
438.40	5137.48
438.58	5369.19
438.77	5416.00
438.96	5582.18
439.14	5631.33
439.33	5834.96
439.52	5692.18
439.70	5750.70
439.89	5720.27
440.08	5795.17
440.26	5750.70
440.45	5921.56
440.63	5898.15
440.82	6015.18
441.01	5942.62
441.19	5991.77
441.38	6188.38
441.57	6132.20
441.75	6202.42
441.94	6253.91
442.12	6394.34
442.31	6473.92
442.50	6387.32
442.68	6476.26
442.87	6366.26
443.05	6637.76
443.24	6546.48
443.43	6747.76
443.61	6420.09
443.80	6684.57
443.98	6569.88
444.17	6246.89
444.35	6684.57
444.54	6565.20
444.73	6715.00
444.91	6623.72
445.10	6658.82
445.28	6612.01
445.47	6703.29
445.65	6581.59
445.84	6642.44
446.02	6604.99
446.21	6595.63
446.39	6729.04
446.58	6918.62
446.77	6796.92
446.95	6691.59
447.14	6768.83
447.32	6904.58
447.51	6696.27
447.69	6752.45
447.88	6789.89
448.06	6951.39
448.25	6619.04
448.43	6944.37
448.62	6822.66
448.80	6724.36
448.99	6965.43
449.17	6878.83
449.36	6942.03
449.54	7187.79
449.73	7222.89
449.91	7279.07
450.10	7171.40
450.28	7475.67
450.46	7229.91
450.65	7363.33
450.83	7344.60
451.02	7183.10
451.20	7342.26
451.39	7269.70
451.57	7279.07
451.76	7279.07
451.94	7548.23
452.13	7215.87
452.31	7311.83
452.49	7192.47
452.68	7265.02
452.86	7166.72
453.05	7391.41
453.23	7419.50
453.42	7545.89
453.60	7405.46
453.78	7541.21
453.97	7414.82
454.15	7543.55
454.34	7419.50
454.52	7705.04
454.70	7531.84
454.89	7627.81
455.07	7695.68
455.26	7712.07
455.44	7693.34
455.62	7887.61
455.81	7967.18
455.99	7939.10
456.17	7990.59
456.36	7988.25
456.54	8056.12
456.73	8271.45
456.91	8432.95
457.09	8280.82
457.28	8290.18
457.46	8100.59
457.64	8126.34
457.83	8341.67
458.01	8332.31
458.19	8344.01
458.38	8241.03
458.56	8400.18
458.74	8517.21
458.93	8444.65
459.11	8325.29
459.29	8409.54
459.48	8561.68
459.66	8643.60
459.84	8510.19
460.03	8692.75
460.21	8692.75
460.39	8709.13
460.57	8779.35
460.76	8669.34
460.94	8674.03
461.12	8713.81
461.31	8744.24
461.49	8858.93
461.67	8723.18
461.85	9029.79
462.04	8840.20
462.22	9472.15
462.40	9055.53
462.59	9015.74
462.77	9228.73
462.95	8891.70
463.13	9001.70
463.32	9062.55
463.50	9071.92
463.68	9153.84
463.86	9097.66
464.05	9104.68
464.23	9046.17
464.41	9118.73
464.59	8933.82
464.78	9123.41
464.96	9139.79
465.14	8950.21
465.32	9111.71
465.50	9341.08
465.69	9465.13
465.87	9144.47
466.05	9343.42
466.23	9465.13
466.41	9425.34
466.60	9579.81
466.78	9387.89
466.96	9540.02
467.14	9535.34
467.32	9376.19
467.51	9706.20
467.69	9273.20
467.87	9504.92
468.05	9720.24
468.23	9703.86
468.41	9734.29
468.60	9654.71
468.78	10054.94
468.96	9729.61
469.14	9757.69
469.32	10043.24
469.50	9441.72
469.69	10029.20
469.87	9944.94
470.05	9968.34
470.23	9767.06
470.41	9905.15
470.59	10136.86
470.77	10003.45
470.95	10244.52
471.14	10377.94
471.32	10143.88
471.50	10347.51
471.68	10370.91
471.86	10565.18
472.04	10312.40
472.22	10743.06
472.40	10572.20
472.58	10443.47
472.77	10656.46
472.95	10717.31
473.13	10913.92
473.31	10626.03
473.49	10637.73
473.67	10558.16
473.85	10677.52
474.03	11063.71
474.21	11075.42
474.39	11281.38
474.57	11227.55
474.75	11169.04
474.93	11342.24
475.12	11276.70
475.30	11379.68
475.48	11454.58
475.66	11419.47
475.84	11543.52
476.02	11609.06
476.20	11536.50
476.38	11864.18
476.56	12051.42
476.74	12102.91
476.92	11957.80
477.10	12138.02
477.28	12149.72
477.46	12297.17
477.64	12318.24
477.82	12863.58
478.00	13036.78
478.18	12674.00
478.36	12659.96
478.54	12989.97
478.72	12664.64
478.90	13032.10
479.08	13303.60
479.26	13291.90
479.44	13554.04
479.62	13460.42
479.80	13600.85
479.98	13617.24
480.16	13837.25
480.34	13760.01
480.52	13907.46
480.70	14001.08
480.88	14033.85
481.06	14125.13
481.24	14033.85
481.41	14445.79
481.59	14712.61
481.77	14295.99
481.95	14626.01
482.13	14803.89
482.31	14733.67
482.49	15290.72
482.67	14986.45
482.85	15311.78
483.03	15707.34
483.21	15288.38
483.39	15751.81
483.57	15644.14
483.74	15419.45
483.92	15964.79
484.10	15719.04
484.28	15983.52
484.46	16255.02
484.64	16833.13
484.82	16226.93
485.00	16468.01
485.18	16641.21
485.35	16861.22
485.53	16276.09
485.71	16407.16
485.89	16755.90
486.07	16676.32
486.25	16868.24
486.43	17069.53
486.61	17142.08
486.78	17462.74
486.96	17387.84
487.14	17736.58
487.32	17806.80
487.50	18284.26
487.68	18501.93
487.85	18574.49
488.03	18745.35
488.21	18902.17
488.39	18848.33
488.57	18780.46
488.75	18923.23
488.92	19300.06
489.10	19695.61
489.28	19819.66
489.46	19758.80
489.64	20070.09
489.81	20765.23
489.99	20596.71
490.17	20676.29
490.35	20755.87
490.53	20706.72
490.70	20606.08
490.88	20807.36
491.06	21216.96
491.24	21142.06
491.41	21226.32
491.59	21020.35
491.77	20769.91
491.95	21724.85
492.13	21642.93
492.30	21811.45
492.48	22019.76
492.66	22108.70
492.84	22300.62
493.01	22237.43
493.19	22331.05
493.37	22731.28
493.54	22817.88
493.72	22953.63
493.90	23110.45
494.08	23037.89
494.25	23747.08
494.43	23644.09
494.61	23995.17
494.79	23875.80
494.96	23784.52
495.14	23953.04
495.32	23744.73
495.49	23875.80
495.67	24205.82
495.85	24470.30
496.02	24477.32
496.20	24762.87
496.38	24861.17
496.55	24826.06
496.73	25427.58
496.91	25223.95
497.09	25467.37
497.26	25500.14
497.44	25535.24
497.62	25340.98
497.79	25605.46
497.97	25848.88
498.14	25986.97
498.32	25893.35
498.50	25975.27
498.67	26190.59
498.85	26515.93
499.03	26511.25
499.20	26831.90
499.38	26780.41
499.56	27030.85
499.73	26607.21
499.91	26850.63
500.08	27136.17
500.26	26693.81
500.44	27033.19
500.61	27449.80
500.79	26778.07
500.97	27239.15
501.14	27440.44
501.32	27564.49
501.49	27793.86
501.67	27583.21
501.84	27871.10
502.02	27915.57
502.20	28463.25
502.37	28465.60
502.55	28236.22
502.72	28435.17
502.90	28652.84
503.07	28325.16
503.25	28336.87
503.43	28350.91
503.60	28446.87
503.78	28765.18
503.95	28900.94
504.13	29057.75
504.30	29228.61
504.48	29123.29
504.65	29317.55
504.83	29530.54
505.01	29631.18
505.18	29713.10
505.36	29795.02
505.53	29605.44
505.71	30302.92
505.88	30375.47
506.06	29483.73
506.23	30389.52
506.41	29883.96
506.58	30059.50
506.76	30354.41
506.93	30881.03
507.11	30405.90
507.28	30490.16
507.46	30520.59
507.63	30829.54
507.81	30904.43
507.98	30934.86
508.16	30824.86
508.33	30789.75
508.50	31461.48
508.68	31428.71
508.85	31854.69
509.03	31534.04
509.20	31543.40
509.38	31576.17
509.55	31845.33
509.73	32004.49
509.90	32149.60
510.08	31943.63
510.25	32086.40
510.42	32123.85
510.60	32631.75
510.77	32521.74
510.95	33013.26
511.12	32484.30
511.30	32917.29
511.47	32821.33
511.64	33029.64
511.82	33074.11
511.99	32687.92
512.17	32821.33
512.34	32795.59
512.51	33230.93
512.69	33425.19
512.86	33256.67
513.04	32884.53
513.21	33179.43
513.38	33446.26
513.56	33214.54
513.73	33205.18
513.90	33647.54
514.08	33481.36
514.25	33542.22
514.43	33450.94
514.60	33668.61
514.77	33900.32
514.95	34356.72
515.12	34216.29
515.29	34160.12
515.47	34614.18
515.64	34440.98
515.81	33975.22
515.99	34478.43
516.16	34153.10
516.33	34029.05
516.51	34260.76
516.68	34195.23
516.85	33593.71
517.03	34143.74
517.20	34487.79
517.37	34579.07
517.54	34866.96
517.72	35105.70
517.89	34558.01
518.06	34733.55
518.24	34466.73
518.41	34717.17
518.58	35330.39
518.75	34937.18
518.93	35473.16
519.10	35644.02
519.27	35651.04
519.45	35702.53
519.62	36018.50
519.79	35922.54
519.96	36091.06
520.14	36189.36
520.31	35784.45
520.48	36151.91
520.65	36060.63
520.83	36568.53
521.00	37008.55
521.17	36456.18
521.34	36493.63
521.52	37015.57
521.69	37148.98
521.86	37202.82
522.03	36875.14
522.20	36751.09
522.38	37041.32
522.55	37446.23
522.72	36868.12
522.89	37184.09
523.07	37123.24
523.24	36842.37
523.41	37205.16
523.58	37448.57
523.75	37963.49
523.92	37677.94
524.10	37546.87
524.27	38122.65
524.44	38153.07
524.61	38057.11
524.78	38536.92
524.96	38373.08
525.13	38660.97
525.30	38485.43
525.47	38770.97
525.64	38576.71
525.81	38127.33
525.98	38239.67
526.16	38363.72
526.33	37867.53
526.50	38529.90
526.67	38061.79
526.84	38277.12
527.01	38136.69
527.18	38328.61
527.36	38651.61
527.53	38686.71
527.70	39859.32
527.87	39044.82
528.04	39007.37
528.21	38920.77
528.38	39189.93
528.55	39817.19
528.72	39419.30
528.89	39370.15
529.07	39604.20
529.24	39388.88
529.41	39639.31
529.58	39454.41
529.75	39398.24
529.92	39601.86
530.09	39852.30
530.26	39688.46
530.43	39772.72
530.60	39674.42
530.77	40271.26
530.94	40287.64
531.11	40011.46
531.28	40407.01
531.46	40060.61
531.63	40299.34
531.80	40367.22
531.97	40140.19
532.14	39732.93
532.31	40011.46
532.48	39854.64
532.65	40346.15
532.82	40697.24
532.99	40069.97
533.16	40058.27
533.33	40540.42
533.50	40994.48
533.67	40973.42
533.84	40533.40
534.01	41008.53
534.18	41090.44
534.35	41303.43
534.52	41017.89
534.69	41167.68
534.86	41352.58
535.03	41621.75
535.20	41897.93
535.37	41195.77
535.54	41708.35
535.71	41179.39
535.88	41450.89
536.05	41315.14
536.22	41343.22
536.38	41703.67
536.55	41745.80
536.72	41476.63
536.89	41371.31
537.06	41324.50
537.23	41764.52
537.40	42087.51
537.57	41525.78
537.74	41937.72
537.91	42110.92
538.08	42120.28
538.25	41509.40
538.42	41918.99
538.59	42298.16
538.75	41481.31
538.92	41900.27
539.09	41991.55
539.26	42164.75
539.43	42279.44
539.60	42078.15
539.77	42068.79
539.94	42305.18
540.11	41785.58
540.28	42155.39
540.44	42026.66
540.61	41750.48
540.78	42080.49
540.95	42213.90
541.12	42733.50
541.29	42522.85
541.46	42377.74
541.62	42363.70
541.79	42665.63
541.96	42548.60
542.13	42429.23
542.30	43000.32
542.47	43051.81
542.63	42639.88
542.80	42976.92
542.97	43353.74
543.14	43091.60
543.31	43271.82
543.48	43192.25
543.64	43985.69
543.81	43611.20
543.98	43559.71
544.15	43529.28
544.32	43533.96
544.48	44165.91
544.65	43793.76
544.82	43732.91
544.99	43461.41
545.16	43643.97
545.32	43775.04
545.49	44105.06
545.66	44264.21
545.83	44250.17
546.00	44011.43
546.16	43952.92
546.33	44184.63
546.50	43480.13
546.67	44360.17
546.83	43262.46
547.00	44168.25
547.17	44069.95
547.34	43880.36
547.50	43866.32
547.67	44364.85
547.84	44385.92
548.00	44582.52
548.17	44432.73
548.34	44516.99
548.51	44355.49
548.67	44694.87
548.84	44837.64
549.01	44823.60
549.18	44531.03
549.34	44601.25
549.51	44903.18
549.68	44673.81
549.84	44617.63
550.01	44914.88
550.18	44774.45
550.34	44828.28
550.51	44652.74
550.68	44318.04
550.84	44383.58
551.01	44676.15
551.18	44940.63
551.34	44945.31
551.51	44994.46
551.68	45139.57
551.84	45174.68
552.01	45099.78
552.18	45111.49
552.34	44594.23
552.51	45256.60
552.68	45261.28
552.84	44987.44
553.01	44807.22
553.18	45198.09
553.34	44966.37
553.51	44921.90
553.67	45177.02
553.84	45427.46
554.01	45081.06
554.17	45469.59
554.34	45888.54
554.51	45771.52
554.67	45705.98
554.84	45322.13
555.00	45659.17
555.17	45478.95
555.33	45668.53
555.50	45804.28
555.67	45539.80
555.83	45584.27
556.00	45958.76
556.16	45832.37
556.33	45628.74
556.50	46017.27
556.66	46052.38
556.83	45579.59
556.99	45701.30
557.16	45628.74
557.32	45696.62
557.49	46082.81
557.65	45628.74
557.82	45785.56
557.98	45673.21
558.15	45846.41
558.32	45703.64
558.48	45659.17
558.65	46124.94
558.81	45801.94
558.98	45790.24
559.14	46066.42
559.31	45703.64
559.47	46363.67
559.64	46017.27
559.80	46087.49
559.97	46218.56
560.13	46197.49
560.30	45970.46
560.46	46469.00
560.63	46548.57
560.79	46293.46
560.96	46312.18
561.12	45603.00
561.29	46501.76
561.45	46216.22
561.61	46323.88
561.78	45883.86
561.94	46043.02
562.11	46174.09
562.27	46522.83
562.44	46356.65
562.60	46733.48
562.77	46831.78
562.93	46417.50
563.10	46714.75
563.26	46043.02
563.42	46663.26
563.59	46117.92
563.75	46670.28
563.92	46508.79
564.08	46438.57
564.24	46611.77
564.41	46735.82
564.57	46005.57
564.74	46059.40
564.90	46349.63
565.07	46504.10
565.23	46007.91
565.39	46202.18
565.56	46539.21
565.72	46866.89
565.88	46539.21
566.05	46557.94
566.21	46543.89
566.38	46424.53
566.54	46679.64
566.70	46883.27
566.87	47147.75
567.03	46691.35
567.19	47374.78
567.36	46639.86
567.52	46677.30
567.68	46534.53
567.85	46492.40
568.01	46635.17
568.17	46452.61
568.34	46555.60
568.50	46555.60
568.66	46190.47
568.83	46459.63
568.99	46113.23
569.15	46485.38
569.32	46705.39
569.48	46452.61
569.64	47042.43
569.81	46721.77
569.97	46850.50
570.13	46731.14
570.30	46408.14
570.46	46534.53
570.62	46291.12
570.78	46358.99
570.95	46658.58
571.11	46810.71
571.27	46536.87
571.43	47201.58
571.60	46944.12
571.76	46855.18
571.92	46733.48
572.09	46656.24
572.25	47136.05
572.41	46529.85
572.57	46845.82
572.74	47374.78
572.90	46831.78
573.06	47119.66
573.22	46791.99
573.38	47072.85
573.55	46625.81
573.71	46948.81
573.87	46532.19
574.03	46845.82
574.20	47002.64
574.36	47164.14
574.52	47138.39
574.68	46506.44
574.84	46944.12
575.01	46932.42
575.17	47311.59
575.33	46478.36
575.49	46412.82
575.65	47136.05
575.82	47161.79
575.98	46862.21
576.14	47260.10
576.30	47147.75
576.46	46913.70
576.62	46894.97
576.79	46525.17
576.95	46892.63
577.11	47084.56
577.27	47157.11
577.43	47129.03
577.59	47192.22
577.75	46955.83
577.92	46731.14
578.08	46700.71
578.24	46518.15
578.40	47281.16
578.56	47150.09
578.72	46911.36
578.88	47033.07
579.04	46974.55
579.21	46845.82
579.37	46543.89
579.53	47054.13
579.69	46658.58
579.85	47023.70
580.01	46852.84
580.17	47096.26
580.33	47426.28
580.49	47124.35
580.65	47306.91
580.82	46932.42
580.98	46461.97
581.14	47049.45
581.30	47091.58
581.46	46958.17
581.62	46955.83
581.78	47175.84
581.94	47433.30
582.10	47047.11
582.26	47150.09
582.42	47510.53
582.58	47065.83
582.74	46983.91
582.90	47004.98
583.06	46794.33
583.22	47126.69
583.38	47100.94
583.54	47145.41
583.70	46894.97
583.86	47114.98
584.02	46527.51
584.18	46749.86
584.34	47072.85
584.50	47334.99
584.66	46988.60
584.82	47131.37
584.98	47419.25
585.14	47019.02
585.30	47122.01
585.46	47206.26
585.62	46770.93
585.78	47004.98
585.94	46375.37
586.10	46770.93
586.26	47224.99
586.42	47056.47
586.58	47147.75
586.74	46789.65
586.90	46955.83
587.06	46515.81
587.22	47379.46
587.38	46490.06
587.54	47295.21
587.70	47107.96
587.86	46869.23
588.02	46995.62
588.18	47077.54
588.34	46773.27
588.49	46808.37
588.65	46707.73
588.81	46681.98
588.97	46396.44
589.13	46471.34
589.29	46522.83
589.45	46602.41
589.61	47030.72
589.77	46932.42
589.93	47047.11
