SpectraSuite Data File
++++++++++++++++++++++++++++++++++++
Date: Fri Oct 25 10:43:25 EDT 2013
User: price-jones
Dark Spectrum Present: No
Reference Spectrum Present: No
Number of Sampled Component Spectra: 1
Spectrometers: USB2+H05261
Integration Time (usec): 100000 (USB2+H05261)
Spectra Averaged: 1 (USB2+H05261)
Boxcar Smoothing: 0 (USB2+H05261)
Correct for Electrical Dark: No (USB2+H05261)
Strobe/Lamp Enabled: No (USB2+H05261)
Correct for Detector Non-linearity: No (USB2+H05261)
Correct for Stray Light: No (USB2+H05261)
Number of Pixels in Processed Spectrum: 2048
>>>>>Begin Processed Spectral Data<<<<<
365.73	124.05
365.92	124.05
366.12	124.05
366.32	32.77
366.52	0.00
366.72	0.00
366.91	0.00
367.11	77.24
367.31	0.00
367.51	35.11
367.70	25.75
367.90	63.19
368.10	30.43
368.30	102.98
368.49	0.00
368.69	2.34
368.89	7.02
369.09	42.13
369.28	46.81
369.48	21.06
369.68	63.19
369.87	100.64
370.07	110.01
370.27	131.07
370.47	229.37
370.66	360.44
370.86	362.78
371.06	397.89
371.25	414.27
371.45	386.19
371.65	430.66
371.84	428.32
372.04	430.66
372.24	458.74
372.44	514.92
372.63	451.72
372.83	507.90
373.03	507.90
373.22	503.22
373.42	543.00
373.62	437.68
373.81	498.53
374.01	568.75
374.21	557.05
374.40	540.66
374.60	566.41
374.79	575.77
374.99	589.82
375.19	493.85
375.38	596.84
375.58	620.24
375.78	552.37
375.97	599.18
376.17	648.33
376.37	594.50
376.56	596.84
376.76	526.62
376.95	596.84
377.15	711.52
377.35	608.54
377.54	643.65
377.74	615.56
377.93	580.45
378.13	610.88
378.33	660.03
378.52	664.71
378.72	685.78
378.91	617.90
379.11	578.11
379.31	610.88
379.50	622.58
379.70	695.14
379.89	734.93
380.09	657.69
380.28	575.77
380.48	657.69
380.68	671.73
380.87	720.88
381.07	645.99
381.26	739.61
381.46	636.63
381.65	751.31
381.85	704.50
382.04	713.86
382.24	727.91
382.43	760.67
382.63	688.12
382.83	774.72
383.02	704.50
383.22	730.25
383.41	674.07
383.61	746.63
383.80	802.80
384.00	720.88
384.19	891.74
384.39	821.53
384.58	753.65
384.78	800.46
384.97	868.34
385.17	807.48
385.36	772.38
385.56	716.20
385.75	770.04
385.95	711.52
386.14	798.12
386.34	770.04
386.53	793.44
386.72	854.30
386.92	866.00
387.11	788.76
387.31	816.85
387.50	844.93
387.70	887.06
387.89	849.61
388.09	877.70
388.28	816.85
388.48	802.80
388.67	901.11
388.86	894.08
389.06	917.49
389.25	922.17
389.45	858.98
389.64	971.32
389.84	978.34
390.03	910.47
390.22	924.51
390.42	938.55
390.61	1064.94
390.81	1006.43
391.00	992.39
391.19	1036.86
391.39	1062.60
391.58	1027.50
391.78	987.71
391.97	1006.43
392.16	1001.75
392.36	1057.92
392.55	1034.52
392.75	1055.58
392.94	957.28
393.13	950.26
393.33	957.28
393.52	1043.88
393.71	1069.62
393.91	1057.92
394.10	1132.82
394.29	1130.48
394.49	1086.01
394.68	1151.54
394.88	1188.99
395.07	1266.23
395.26	1153.88
395.46	1170.27
395.65	1231.12
395.84	1139.84
396.04	1207.72
396.23	1191.33
396.42	1177.29
396.62	1181.97
396.81	1165.59
397.00	1156.22
397.19	1373.89
397.39	1191.33
397.58	1322.40
397.77	1306.02
397.97	1378.58
398.16	1352.83
398.35	1376.24
398.55	1385.60
398.74	1437.09
398.93	1446.45
399.12	1444.11
399.32	1437.09
399.51	1448.79
399.70	1535.39
399.90	1462.83
400.09	1409.00
400.28	1533.05
400.47	1603.27
400.67	1530.71
400.86	1526.03
401.05	1746.04
401.24	1703.91
401.44	1755.40
401.63	1722.63
401.82	1818.60
402.01	1598.59
402.21	1706.25
402.40	1778.81
402.59	1823.28
402.78	1727.32
402.97	1750.72
403.17	1614.97
403.36	1755.40
403.55	1764.76
403.74	1919.24
403.93	1837.32
404.13	1820.94
404.32	1865.41
404.51	1884.13
404.70	1792.85
404.89	1858.39
405.09	1863.07
405.28	1968.39
405.47	1912.22
405.66	1916.90
405.85	1935.62
406.05	1926.26
406.24	1865.41
406.43	1952.01
406.62	2083.08
406.81	2092.44
407.00	2085.42
407.20	1966.05
407.39	2038.61
407.58	2141.59
407.77	2141.59
407.96	2146.27
408.15	2139.25
408.34	2094.78
408.54	2275.00
408.73	2239.89
408.92	2237.55
409.11	2181.38
409.30	2221.17
409.49	2197.76
409.68	2333.51
409.87	2251.60
410.07	2286.70
410.26	2305.43
410.45	2345.22
410.64	2361.60
410.83	2392.03
411.02	2377.98
411.21	2492.67
411.40	2546.50
411.59	2539.48
411.78	2516.08
411.98	2562.89
412.17	2487.99
412.36	2719.70
412.55	2689.28
412.74	2712.68
412.93	2628.42
413.12	2656.51
413.31	2745.45
413.50	2792.26
413.69	2796.94
413.88	2913.97
414.07	2778.22
414.26	2825.03
414.45	2846.09
414.64	2841.41
414.83	2925.67
415.02	2970.14
415.22	2986.52
415.41	2995.89
415.60	2977.16
415.79	3211.22
415.98	3218.24
416.17	3286.11
416.36	2984.18
416.55	3169.09
416.74	3192.49
416.93	3136.32
417.12	3201.85
417.31	3290.79
417.50	3269.73
417.69	3445.27
417.88	3417.18
418.07	3276.75
418.26	3393.78
418.45	3370.37
418.64	3492.08
418.83	3557.61
419.02	3609.11
419.21	3616.13
419.39	3501.44
419.58	3534.21
419.77	3398.46
419.96	3555.27
420.15	3637.19
420.34	3562.30
420.53	3723.79
420.72	3653.58
420.91	3740.18
421.10	3819.75
421.29	3782.31
421.48	3709.75
421.67	3712.09
421.86	3751.88
422.05	3749.54
422.24	3733.15
422.43	3782.31
422.61	3812.73
422.80	3801.03
422.99	3751.88
423.18	3894.65
423.37	3946.14
423.56	3873.59
423.75	3702.73
423.94	3779.97
424.13	3623.15
424.32	3723.79
424.50	3974.23
424.69	3955.51
424.88	3754.22
425.07	3674.64
425.26	3775.28
425.45	3798.69
425.64	3803.37
425.83	3786.99
426.01	3913.38
426.20	3918.06
426.39	3775.28
426.58	3922.74
426.77	3840.82
426.96	3936.78
427.15	3838.48
427.33	3892.31
427.52	3929.76
427.71	4138.07
427.90	4098.28
428.09	4102.96
428.28	4095.94
428.46	3999.98
428.65	4023.38
428.84	4119.34
429.03	4149.77
429.22	3969.55
429.40	4051.47
429.59	4072.53
429.78	3843.16
429.97	3904.01
430.16	3899.33
430.34	3964.87
430.53	4021.04
430.72	4102.96
430.91	4187.22
431.10	4133.39
431.28	4402.55
431.47	4409.57
431.66	4500.85
431.85	4470.42
432.03	4491.49
432.22	4486.81
432.41	4353.40
432.60	4470.42
432.79	4667.03
432.97	4599.15
433.16	4561.70
433.35	4498.51
433.54	4440.00
433.72	4599.15
433.91	4671.71
434.10	4676.39
434.28	4496.17
434.47	4704.48
434.66	4784.06
434.85	4863.63
435.03	4760.65
435.22	4858.95
435.41	4821.50
435.59	4926.83
435.78	5050.88
435.97	5111.73
436.16	4940.87
436.34	4861.29
436.53	5015.77
436.72	5114.07
436.90	5039.17
437.09	5011.09
437.28	4959.60
437.46	5060.24
437.65	5151.52
437.84	5118.75
438.02	5095.35
438.21	5048.54
438.40	5097.69
438.58	5083.64
438.77	5301.31
438.96	5242.80
439.14	5303.65
439.33	5313.02
439.52	5497.92
439.70	5645.37
439.89	5516.64
440.08	5469.83
440.26	5643.03
440.45	5504.94
440.63	5554.09
440.82	5935.60
441.01	5860.70
441.19	5753.04
441.38	5937.94
441.57	6047.94
441.75	5998.79
441.94	6195.40
442.12	6139.23
442.31	6310.08
442.50	6101.78
442.68	6113.48
442.87	5989.43
443.05	6368.60
443.24	6384.98
443.43	6270.30
443.61	6314.77
443.80	6431.79
443.98	6153.27
444.17	6071.35
444.35	6244.55
444.54	6452.86
444.73	6389.66
444.91	6293.70
445.10	6326.47
445.28	6321.79
445.47	6305.40
445.65	6190.72
445.84	6258.59
446.02	6368.60
446.21	6480.94
446.39	6284.34
446.58	6434.13
446.77	6595.63
446.95	6455.20
447.14	6530.09
447.32	6562.86
447.51	6616.69
447.69	6588.61
447.88	6422.43
448.06	6422.43
448.25	6619.04
448.43	6595.63
448.62	6619.04
448.80	6431.79
448.99	6506.69
449.17	6654.14
449.36	6506.69
449.54	6700.95
449.73	6965.43
449.91	6862.45
450.10	6970.12
450.28	6853.09
450.46	7012.24
450.65	7119.91
450.83	7108.21
451.02	6932.67
451.20	6935.01
451.39	6965.43
451.57	6995.86
451.76	6881.18
451.94	7047.35
452.13	7140.97
452.31	7054.37
452.49	6927.99
452.68	7126.93
452.86	7023.95
453.05	7183.10
453.23	7101.19
453.42	7126.93
453.60	7148.00
453.78	7302.47
453.97	7220.55
454.15	7082.46
454.34	7272.04
454.52	7386.73
454.70	7368.01
454.89	7492.05
455.07	7304.81
455.26	7393.75
455.44	7463.97
455.62	7599.72
455.81	7555.25
455.99	7527.16
456.17	7449.93
456.36	7705.04
456.54	7772.92
456.73	7641.85
456.91	8058.46
457.09	7765.90
457.28	8091.23
457.46	7702.70
457.64	7981.23
457.83	7974.21
458.01	7775.26
458.19	8187.19
458.38	7999.95
458.56	8081.87
458.74	8238.69
458.93	8009.31
459.11	7971.86
459.29	7885.26
459.48	8198.90
459.66	7990.59
459.84	8058.46
460.03	8430.61
460.21	8133.36
460.39	8198.90
460.57	8414.23
460.76	8421.25
460.94	8327.63
461.12	8386.14
461.31	8587.43
461.49	8416.57
461.67	8484.44
461.85	8746.58
462.04	8346.35
462.22	8992.34
462.40	8627.21
462.59	8706.79
462.77	8650.62
462.95	8725.52
463.13	8631.90
463.32	8585.08
463.50	8739.56
463.68	8739.56
463.86	8772.33
464.05	8889.35
464.23	8657.64
464.41	8805.10
464.59	8610.83
464.78	8922.12
464.96	8901.06
465.14	8844.88
465.32	8910.42
465.50	9088.30
465.69	9001.70
465.87	8954.89
466.05	8947.87
466.23	9053.19
466.41	9004.04
466.60	9263.84
466.78	8807.44
466.96	8968.93
467.14	9174.90
467.32	9298.95
467.51	9287.25
467.69	8994.68
467.87	9355.12
468.05	9355.12
468.23	9062.55
468.41	9186.60
468.60	9350.44
468.78	9296.61
468.96	9247.46
469.14	9605.56
469.32	9507.26
469.50	9273.20
469.69	9493.21
469.87	9605.56
470.05	9556.41
470.23	9902.81
470.41	9619.60
470.59	9708.54
470.77	9664.07
470.95	9933.23
471.14	10022.17
471.32	9638.33
471.50	9975.36
471.68	10249.21
471.86	10162.61
472.04	10050.26
472.22	10326.44
472.40	9984.73
472.58	10200.05
472.77	10141.54
472.95	10347.51
473.13	10658.80
473.31	10193.03
473.49	10228.14
473.67	10289.00
473.85	10448.15
474.03	10841.36
474.21	10918.60
474.39	10834.34
474.57	10888.17
474.75	10930.30
474.93	10995.84
475.12	10970.09
475.30	11126.91
475.48	10934.98
475.66	10979.45
475.84	11236.91
476.02	11344.58
476.20	11297.77
476.38	11133.93
476.56	11662.89
476.74	11613.74
476.92	11377.34
477.10	11562.25
477.28	11978.86
477.46	11665.23
477.64	11866.52
477.82	12077.16
478.00	12393.14
478.18	12189.51
478.36	12116.95
478.54	12343.99
478.72	12386.12
478.90	12730.17
479.08	12814.43
479.26	12910.40
479.44	12744.22
479.62	12896.35
479.80	12816.77
479.98	12994.65
480.16	13511.91
480.34	13343.39
480.52	13563.40
480.70	13355.10
480.88	13408.93
481.06	13853.63
481.24	13652.34
481.41	13729.58
481.59	14104.07
481.77	13909.80
481.95	13958.96
482.13	14146.20
482.31	14253.86
482.49	14413.02
482.67	14630.69
482.85	14651.75
483.03	14609.62
483.21	14827.29
483.39	14839.00
483.57	15009.86
483.74	15133.90
483.92	15346.89
484.10	15269.66
484.28	15161.99
484.46	15967.13
484.64	15871.17
484.82	15878.19
485.00	15946.07
485.18	16065.44
485.35	16229.27
485.53	15964.79
485.71	15845.43
485.89	16297.15
486.07	16081.82
486.25	16156.72
486.43	16362.69
486.61	16549.93
486.78	16879.94
486.96	16966.54
487.14	17149.11
487.32	17135.06
487.50	17675.73
487.68	17799.77
487.85	18036.17
488.03	17783.39
488.21	18181.28
488.39	18043.19
488.57	18218.73
488.75	18494.91
488.92	18890.46
489.10	18927.91
489.28	18941.96
489.46	19658.16
489.64	19372.61
489.81	19660.50
489.99	19564.54
490.17	19475.60
490.35	19936.68
490.53	20030.30
490.70	19866.47
490.88	20081.80
491.06	20308.83
491.24	20142.65
491.41	20053.71
491.59	20023.28
491.77	20240.95
491.95	20861.19
492.13	20613.10
492.30	21027.37
492.48	21385.47
492.66	21469.73
492.84	21097.59
493.01	21664.00
493.19	21462.71
493.37	21820.81
493.54	21729.53
493.72	21919.12
493.90	22457.44
494.08	22314.67
494.25	22441.06
494.43	22597.87
494.61	22953.63
494.79	23002.78
494.96	22766.39
495.14	23035.55
495.32	23328.12
495.49	23178.33
495.67	23742.39
495.85	23651.11
496.02	23742.39
496.20	23889.85
496.38	24105.18
496.55	23763.46
496.73	24121.56
496.91	24107.52
497.09	24517.11
497.26	24687.97
497.44	24683.29
497.62	24828.40
497.79	24767.55
497.97	24645.84
498.14	24945.43
498.32	25032.03
498.50	25406.52
498.67	25565.67
498.85	25591.42
499.03	25879.30
499.20	25631.21
499.38	25972.92
499.56	25769.30
499.73	25638.23
499.91	26218.68
500.08	26270.17
500.26	25968.24
500.44	25986.97
500.61	26066.55
500.79	25947.18
500.97	26242.09
501.14	26504.23
501.32	26576.78
501.49	26782.75
501.67	26862.33
501.84	27227.45
502.02	26852.97
502.20	26930.20
502.37	27218.09
502.55	26974.67
502.72	27339.80
502.90	27634.71
503.07	27302.35
503.25	27421.72
503.43	27522.36
503.60	27379.59
503.78	27433.42
503.95	27859.40
504.13	27896.85
504.30	28297.08
504.48	28252.61
504.65	28271.33
504.83	28238.56
505.01	28189.41
505.18	28950.09
505.36	28786.25
505.53	28652.84
505.71	29266.06
505.88	29111.58
506.06	28914.98
506.23	29048.39
506.41	28823.70
506.58	29062.43
506.76	29165.42
506.93	29130.31
507.11	29266.06
507.28	29441.60
507.46	29242.65
507.63	29699.06
507.81	29532.88
507.98	29270.74
508.16	30022.05
508.33	29954.18
508.50	30443.35
508.68	30005.67
508.85	30572.08
509.03	30373.13
509.20	30998.06
509.38	30335.68
509.55	30342.70
509.73	30696.13
509.90	30649.32
510.08	30920.82
510.25	30881.03
510.42	31007.42
510.60	31098.70
510.77	31145.51
510.95	31241.47
511.12	31381.90
511.30	31573.83
511.47	31400.63
511.64	31517.65
511.82	31927.25
511.99	31332.75
512.17	31857.03
512.34	31681.49
512.51	31901.50
512.69	32474.93
512.86	32086.40
513.04	32451.53
513.21	31999.80
513.38	31901.50
513.56	32297.05
513.73	31976.40
513.90	32737.07
514.08	32313.44
514.25	32252.58
514.43	32634.09
514.60	32484.30
514.77	32545.15
514.95	33230.93
515.12	32650.47
515.29	32673.88
515.47	33160.71
515.64	33392.42
515.81	33268.37
515.99	33165.39
516.16	33251.99
516.33	33221.56
516.51	33216.88
516.68	32900.91
516.85	32748.78
517.03	32842.40
517.20	33181.77
517.37	34162.46
517.54	33654.56
517.72	33500.09
517.89	33521.15
518.06	33537.54
518.24	33488.38
518.41	33696.69
518.58	33907.34
518.75	33921.38
518.93	33905.00
519.10	34117.99
519.27	34256.08
519.45	34323.96
519.62	34707.80
519.79	34726.53
519.96	34918.45
520.14	34794.40
520.31	34227.99
520.48	34920.79
520.65	34625.89
520.83	34983.99
521.00	35552.74
521.17	35023.78
521.34	35608.91
521.52	35042.50
521.69	35314.00
521.86	35428.69
522.03	35784.45
522.20	35519.97
522.38	35929.56
522.55	35515.29
522.72	35571.46
522.89	35569.12
523.07	35962.33
523.24	36055.95
523.41	36062.97
523.58	35852.33
523.75	36465.55
523.92	36409.37
524.10	36905.57
524.27	36851.73
524.44	36800.24
524.61	36928.97
524.78	36503.00
524.96	36828.33
525.13	36818.97
525.30	36844.71
525.47	37067.06
525.64	37284.73
525.81	36746.41
525.98	37034.30
526.16	36840.03
526.33	36664.49
526.50	36900.89
526.67	36378.95
526.84	36547.47
527.01	37181.75
527.18	37067.06
527.36	37230.90
527.53	37467.30
527.70	38038.39
527.87	37886.25
528.04	37596.03
528.21	37907.32
528.38	38014.98
528.55	37804.33
528.72	38129.67
528.89	38429.26
529.07	38120.31
529.24	37682.62
529.41	38024.34
529.58	38092.22
529.75	38398.83
529.92	38644.59
530.09	38452.66
530.26	38579.05
530.43	38263.08
530.60	38298.19
530.77	38494.79
530.94	38941.83
531.11	38864.60
531.28	38710.12
531.46	38689.06
531.63	38827.15
531.80	38590.75
531.97	38897.36
532.14	38735.87
532.31	38698.42
532.48	38981.62
532.65	39194.61
532.82	38506.49
532.99	38934.81
533.16	38848.21
533.33	38906.73
533.50	39433.35
533.67	39498.88
533.84	39498.88
534.01	39566.76
534.18	39379.51
534.35	39697.83
534.52	39316.32
534.69	39611.23
534.86	40460.84
535.03	39824.22
535.20	40004.44
535.37	40399.99
535.54	40238.49
535.71	39615.91
535.88	40151.89
536.05	40133.17
536.22	40065.29
536.38	40589.57
536.55	39985.71
536.72	39786.77
536.89	39817.19
537.06	40350.84
537.23	40388.28
537.40	40055.93
537.57	40425.73
537.74	40587.23
537.91	40449.14
538.08	40392.97
538.25	40100.40
538.42	40882.14
538.59	40332.11
538.75	40051.25
538.92	40790.86
539.09	40514.67
539.26	40821.28
539.43	40690.21
539.60	40734.68
539.77	40320.41
539.94	40746.39
540.11	40458.50
540.28	40968.74
540.44	40849.37
540.61	40886.82
540.78	40919.59
540.95	41139.60
541.12	40978.10
541.29	40699.58
541.46	41249.60
541.62	41258.96
541.79	41588.98
541.96	41359.61
542.13	41429.82
542.30	41008.53
542.47	41434.50
542.63	41509.40
542.80	41240.24
542.97	42014.96
543.14	42117.94
543.31	41008.53
543.48	41762.18
543.64	42204.54
543.81	42513.49
543.98	41893.25
544.15	41776.22
544.32	41659.20
544.48	42117.94
544.65	42408.17
544.82	42487.74
544.99	41958.78
545.16	42075.81
545.32	42265.39
545.49	42616.47
545.66	42356.67
545.83	42824.78
546.00	42574.34
546.16	42185.82
546.33	42576.69
546.50	42265.39
546.67	42412.85
546.83	42150.71
547.00	42445.62
547.17	42424.55
547.34	42536.90
547.50	42845.85
547.67	42674.99
547.84	42497.11
548.00	42995.64
548.17	43487.15
548.34	43021.39
548.51	43318.64
548.67	43693.12
548.84	43136.07
549.01	43068.20
549.18	42911.38
549.34	42794.36
549.51	43107.99
549.68	43131.39
549.84	43124.37
550.01	43433.32
550.18	42939.47
550.34	43545.67
550.51	43225.01
550.68	43157.14
550.84	42916.06
551.01	43192.25
551.18	43810.15
551.34	43339.70
551.51	43306.93
551.68	43309.27
551.84	43442.68
552.01	43833.55
552.18	43402.89
552.34	43580.78
552.51	43299.91
552.68	43594.82
552.84	44133.14
553.01	43632.27
553.18	43723.55
553.34	43810.15
553.51	43847.60
553.67	43770.36
553.84	44233.78
554.01	43941.22
554.17	44032.50
554.34	44484.22
554.51	44151.87
554.67	44481.88
554.84	43817.17
555.00	43913.13
555.17	44273.57
555.33	44388.26
555.50	44236.12
555.67	44163.57
555.83	44116.76
556.00	44308.68
556.16	44062.93
556.33	44388.26
556.50	44612.95
556.66	44055.90
556.83	44041.86
556.99	44130.80
557.16	44385.92
557.32	44105.06
557.49	44381.24
557.65	44371.88
557.82	44411.67
557.98	44205.70
558.15	44711.25
558.32	44240.81
558.48	44067.61
558.65	44406.98
558.81	44194.00
558.98	44673.81
559.14	44481.88
559.31	44313.36
559.47	44692.53
559.64	44629.34
559.80	44687.85
559.97	44744.02
560.13	44374.22
560.30	43978.67
560.46	45359.58
560.63	44528.69
560.79	44729.98
560.96	45074.04
561.12	44498.26
561.29	44605.93
561.45	44079.31
561.61	44720.62
561.78	44657.42
561.94	44430.39
562.11	44467.84
562.27	44877.43
562.44	44446.77
562.60	45008.50
562.77	44903.18
562.93	44783.81
563.10	45439.16
563.26	44280.60
563.42	45425.12
563.59	44982.76
563.75	45160.64
563.92	45024.89
564.08	44903.18
564.24	45413.41
564.41	44985.10
564.57	44739.34
564.74	45151.27
564.90	45165.32
565.07	45296.39
565.23	45155.96
565.39	44729.98
565.56	44870.41
565.72	44596.57
565.88	44664.44
566.05	44987.44
566.21	44847.00
566.38	44268.89
566.54	45181.70
566.70	45406.39
566.87	45258.94
567.03	45153.62
567.19	45280.00
567.36	45251.92
567.52	45174.68
567.68	45605.34
567.85	44987.44
568.01	45090.42
568.17	45043.61
568.34	45205.11
568.50	45371.28
568.66	45017.86
568.83	44912.54
568.99	44807.22
569.15	45354.90
569.32	45045.95
569.48	45181.70
569.64	45375.97
569.81	45357.24
569.97	45413.41
570.13	45261.28
570.30	44966.37
570.46	44861.05
570.62	45008.50
570.78	45181.70
570.95	45052.97
571.11	44898.50
571.27	45322.13
571.43	45165.32
571.60	45563.21
571.76	45055.31
571.92	45460.23
572.09	45701.30
572.25	45249.58
572.41	44940.63
572.57	45514.06
572.74	45862.80
572.90	45191.06
573.06	45397.03
573.22	45425.12
573.38	45170.00
573.55	45371.28
573.71	45467.25
573.87	45535.12
574.03	45572.57
574.20	45497.67
574.36	45247.24
574.52	45572.57
574.68	45614.70
574.84	45656.83
575.01	45382.99
575.17	45076.38
575.33	45198.09
575.49	45125.53
575.65	45509.38
575.82	45558.53
575.98	45368.94
576.14	45577.25
576.30	45715.34
576.46	45345.54
576.62	45254.26
576.79	45179.36
576.95	45041.27
577.11	45869.82
577.27	45357.24
577.43	45366.60
577.59	45670.87
577.75	45212.13
577.92	45067.02
578.08	44964.03
578.24	44839.98
578.40	45696.62
578.56	45764.49
578.72	45762.15
578.88	45902.59
579.04	45319.79
579.21	44919.56
579.37	44966.37
579.53	45184.04
579.69	45698.96
579.85	45067.02
580.01	45574.91
580.17	45392.35
580.33	45282.34
580.49	45577.25
580.65	45305.75
580.82	45607.68
580.98	45755.13
581.14	45113.83
581.30	45603.00
581.46	45418.10
581.62	45848.75
581.78	45450.86
581.94	46033.66
582.10	45574.91
582.26	45624.06
582.42	45553.85
582.58	45368.94
582.74	45401.71
582.90	45638.11
583.06	45769.18
583.22	45940.04
583.38	46225.58
583.54	45783.22
583.70	45813.65
583.86	45495.33
584.02	45703.64
584.18	45514.06
584.34	45539.80
584.50	45790.24
584.66	45425.12
584.82	45633.42
584.98	45542.14
585.14	45179.36
585.30	45214.47
585.46	45443.84
585.62	45450.86
585.78	45134.89
585.94	45205.11
586.10	45642.79
586.26	45380.65
586.42	45909.61
586.58	45834.71
586.74	45462.57
586.90	45701.30
587.06	45720.02
587.22	45626.40
587.38	45851.09
587.54	45698.96
587.70	45830.03
587.86	45586.61
588.02	45340.86
588.18	45886.20
588.34	45551.51
588.49	45137.23
588.65	45516.40
588.81	45095.10
588.97	45434.48
589.13	45172.34
589.29	45296.39
589.45	45408.73
589.61	45490.65
589.77	45785.56
589.93	45621.72
590.08	45736.41
