SpectraSuite Data File
++++++++++++++++++++++++++++++++++++
Date: Fri Oct 25 10:43:24 EDT 2013
User: price-jones
Dark Spectrum Present: No
Reference Spectrum Present: No
Number of Sampled Component Spectra: 1
Spectrometers: USB2+H05261
Integration Time (usec): 100000 (USB2+H05261)
Spectra Averaged: 1 (USB2+H05261)
Boxcar Smoothing: 0 (USB2+H05261)
Correct for Electrical Dark: No (USB2+H05261)
Strobe/Lamp Enabled: No (USB2+H05261)
Correct for Detector Non-linearity: No (USB2+H05261)
Correct for Stray Light: No (USB2+H05261)
Number of Pixels in Processed Spectrum: 2048
>>>>>Begin Processed Spectral Data<<<<<
365.73	133.41
365.92	133.41
366.12	133.41
366.32	114.69
366.52	0.00
366.72	0.00
366.91	0.00
367.11	32.77
367.31	0.00
367.51	0.00
367.70	30.43
367.90	0.00
368.10	0.00
368.30	0.00
368.49	0.00
368.69	107.66
368.89	28.09
369.09	93.62
369.28	0.00
369.48	58.51
369.68	28.09
369.87	72.56
370.07	53.83
370.27	145.11
370.47	187.24
370.66	339.38
370.86	418.96
371.06	451.72
371.25	543.00
371.45	449.38
371.65	425.98
371.84	454.06
372.04	421.30
372.24	517.26
372.44	411.93
372.63	435.34
372.83	454.06
373.03	533.64
373.22	496.19
373.42	528.96
373.62	545.34
373.81	585.13
374.01	592.16
374.21	557.05
374.40	524.28
374.60	674.07
374.79	554.71
374.99	533.64
375.19	575.77
375.38	636.63
375.58	596.84
375.78	606.20
375.97	559.39
376.17	648.33
376.37	566.41
376.56	638.97
376.76	615.56
376.95	589.82
377.15	636.63
377.35	713.86
377.54	648.33
377.74	613.22
377.93	671.73
378.13	599.18
378.33	674.07
378.52	606.20
378.72	685.78
378.91	643.65
379.11	629.60
379.31	664.71
379.50	650.67
379.70	723.23
379.89	629.60
380.09	753.65
380.28	662.37
380.48	692.80
380.68	606.20
380.87	702.16
381.07	692.80
381.26	678.76
381.46	711.52
381.65	706.84
381.85	732.59
382.04	688.12
382.24	699.82
382.43	697.48
382.63	753.65
382.83	699.82
383.02	732.59
383.22	634.29
383.41	779.40
383.61	650.67
383.80	772.38
384.00	826.21
384.19	739.61
384.39	755.99
384.58	898.77
384.78	844.93
384.97	753.65
385.17	725.57
385.36	718.54
385.56	795.78
385.75	788.76
385.95	795.78
386.14	854.30
386.34	814.51
386.53	777.06
386.72	748.97
386.92	851.96
387.11	777.06
387.31	870.68
387.50	861.32
387.70	882.38
387.89	884.72
388.09	866.00
388.28	903.45
388.48	877.70
388.67	854.30
388.86	858.98
389.06	915.15
389.25	978.34
389.45	978.34
389.64	926.85
389.84	994.73
390.03	915.15
390.22	959.62
390.42	844.93
390.61	992.39
390.81	966.64
391.00	1043.88
391.19	1001.75
391.39	1102.39
391.58	1081.33
391.78	1036.86
391.97	1048.56
392.16	999.41
392.36	990.05
392.55	994.73
392.75	997.07
392.94	915.15
393.13	1027.50
393.33	912.81
393.52	947.92
393.71	1025.15
393.91	1111.75
394.10	1174.95
394.29	1207.72
394.49	1188.99
394.68	1163.25
394.88	1151.54
395.07	1214.74
395.26	1226.44
395.46	1221.76
395.65	1341.13
395.84	1203.04
396.04	1214.74
396.23	1224.10
396.42	1153.88
396.62	1261.55
396.81	1233.46
397.00	1188.99
397.19	1221.76
397.39	1327.08
397.58	1380.92
397.77	1394.96
397.97	1437.09
398.16	1387.94
398.35	1446.45
398.55	1397.30
398.74	1392.62
398.93	1476.88
399.12	1472.20
399.32	1387.94
399.51	1523.69
399.70	1526.03
399.90	1547.09
400.09	1577.52
400.28	1551.78
400.47	1591.56
400.67	1659.44
400.86	1586.88
401.05	1650.08
401.24	1652.42
401.44	1699.23
401.63	1703.91
401.82	1659.44
402.01	1673.48
402.21	1685.19
402.40	1657.10
402.59	1753.06
402.78	1753.06
402.97	1671.14
403.17	1638.38
403.36	1753.06
403.55	1689.87
403.74	1856.04
403.93	1816.26
404.13	1867.75
404.32	1832.64
404.51	1959.03
404.70	1839.66
404.89	1886.47
405.09	1937.96
405.28	1928.60
405.47	1898.17
405.66	1968.39
405.85	1884.13
406.05	1977.75
406.24	1994.14
406.43	2005.84
406.62	2106.48
406.81	2153.29
407.00	1961.37
407.20	2076.06
407.39	2057.33
407.58	2050.31
407.77	2118.18
407.96	2083.08
408.15	2193.08
408.34	2263.30
408.54	2225.85
408.73	2195.42
408.92	2078.40
409.11	2260.96
409.30	2307.77
409.49	2183.72
409.68	2193.08
409.87	2235.21
410.07	2272.66
410.26	2289.04
410.45	2429.48
410.64	2373.30
410.83	2438.84
411.02	2537.14
411.21	2602.68
411.40	2527.78
411.59	2445.86
411.78	2525.44
411.98	2567.57
412.17	2492.67
412.36	2565.23
412.55	2576.93
412.74	2654.17
412.93	2736.09
413.12	2600.34
413.31	2827.37
413.50	2792.26
413.69	2792.26
413.88	2881.20
414.07	2909.29
414.26	2874.18
414.45	2958.44
414.64	2855.45
414.83	2925.67
415.02	2909.29
415.22	2984.18
415.41	3089.51
415.60	3150.36
415.79	3150.36
415.98	3192.49
416.17	3155.04
416.36	3251.00
416.55	3194.83
416.74	3386.76
416.93	3197.17
417.12	3330.58
417.31	3218.24
417.50	3342.28
417.69	3456.97
417.88	3494.42
418.07	3405.48
418.26	3515.48
418.45	3384.41
418.64	3454.63
418.83	3335.26
419.02	3487.40
419.21	3616.13
419.39	3485.06
419.58	3456.97
419.77	3473.36
419.96	3838.48
420.15	3616.13
420.34	3669.96
420.53	3599.74
420.72	3707.41
420.91	3854.86
421.10	3871.25
421.29	3648.90
421.48	3812.73
421.67	3733.15
421.86	3751.88
422.05	3786.99
422.24	3712.09
422.43	3810.39
422.61	3719.11
422.80	3756.56
422.99	3749.54
423.18	3948.48
423.37	3988.27
423.56	3875.93
423.75	3913.38
423.94	3768.26
424.13	3681.66
424.32	3719.11
424.50	3840.82
424.69	3864.22
424.88	3941.46
425.07	3801.03
425.26	3859.54
425.45	3922.74
425.64	3845.50
425.83	3934.44
426.01	3971.89
426.20	3999.98
426.39	3981.25
426.58	3796.35
426.77	3843.16
426.96	3976.57
427.15	3936.78
427.33	4152.11
427.52	3969.55
427.71	4091.26
427.90	4107.64
428.09	4234.03
428.28	4212.96
428.46	4077.21
428.65	4079.55
428.84	4112.32
429.03	4238.71
429.22	3978.91
429.40	4081.89
429.59	4145.09
429.78	3843.16
429.97	3838.48
430.16	3899.33
430.34	4035.08
430.53	4046.79
430.72	4290.20
430.91	4231.69
431.10	4292.54
431.28	4526.60
431.47	4503.19
431.66	4720.86
431.85	4437.66
432.03	4620.22
432.22	4601.49
432.41	4622.56
432.60	4568.73
432.79	4589.79
432.97	4652.98
433.16	4585.11
433.35	4585.11
433.54	4458.72
433.72	4622.56
433.91	4592.13
434.10	4821.50
434.28	4718.52
434.47	4812.14
434.66	4952.57
434.85	5020.45
435.03	4912.78
435.22	4873.00
435.41	5043.85
435.59	4954.91
435.78	4999.38
435.97	5074.28
436.16	5118.75
436.34	5048.54
436.53	5074.28
436.72	5205.35
436.90	4793.42
437.09	5200.67
437.28	5050.88
437.46	5102.37
437.65	5210.03
437.84	5322.38
438.02	5071.94
438.21	5036.83
438.40	5118.75
438.58	5411.32
438.77	5247.48
438.96	5380.89
439.14	5460.47
439.33	5401.96
439.52	5591.54
439.70	5404.30
439.89	5540.05
440.08	5687.50
440.26	5621.97
440.45	5715.59
440.63	5886.45
440.82	5860.70
441.01	5853.68
441.19	5970.71
441.38	5783.46
441.57	6001.13
441.75	6211.78
441.94	6375.62
442.12	6136.88
442.31	6253.91
442.50	6298.38
442.68	6314.77
442.87	6340.51
443.05	6176.67
443.24	6462.22
443.43	6296.04
443.61	6478.60
443.80	6415.41
443.98	6132.20
444.17	6038.58
444.35	6480.94
444.54	6665.85
444.73	6619.04
444.91	6356.90
445.10	6544.14
445.28	6415.41
445.47	6265.61
445.65	6387.32
445.84	6338.17
446.02	6483.28
446.21	6626.06
446.39	6544.14
446.58	6537.12
446.77	6478.60
446.95	6516.05
447.14	6647.12
447.32	6635.42
447.51	6560.52
447.69	6579.25
447.88	6562.86
448.06	6654.14
448.25	6562.86
448.43	6420.09
448.62	6497.33
448.80	6640.10
448.99	6717.34
449.17	6703.29
449.36	6759.47
449.54	6843.73
449.73	7014.59
449.91	7026.29
450.10	7007.56
450.28	7112.89
450.46	7096.50
450.65	7101.19
450.83	7077.78
451.02	7148.00
451.20	7201.83
451.39	6995.86
451.57	7180.76
451.76	6984.16
451.94	7096.50
452.13	7344.60
452.31	7199.49
452.49	6869.47
452.68	7185.44
452.86	7052.03
453.05	7222.89
453.23	7229.91
453.42	7232.26
453.60	7276.73
453.78	7353.96
453.97	7201.83
454.15	7365.67
454.34	7152.68
454.52	7328.22
454.70	7234.60
454.89	7337.58
455.07	7463.97
455.26	7541.21
455.44	7763.56
455.62	7726.11
455.81	7728.45
455.99	7487.37
456.17	7702.70
456.36	7662.91
456.54	7817.39
456.73	8060.80
456.91	7833.77
457.09	8173.15
457.28	8219.96
457.46	7873.56
457.64	8180.17
457.83	8114.64
458.01	7908.67
458.19	8147.40
458.38	7922.71
458.56	8112.30
458.74	8138.04
458.93	8006.97
459.11	8238.69
459.29	8168.47
459.48	8241.03
459.66	8318.26
459.84	8339.33
460.03	8465.72
460.21	8517.21
460.39	8524.23
460.57	8365.07
460.76	8327.63
460.94	8578.06
461.12	8517.21
461.31	8559.34
461.49	8404.86
461.67	8624.87
461.85	8741.90
462.04	8540.61
462.22	9100.00
462.40	8807.44
462.59	8571.04
462.77	8826.16
462.95	8877.65
463.13	8868.29
463.32	8830.84
463.50	8699.77
463.68	8887.01
463.86	8990.00
464.05	8753.60
464.23	9025.11
464.41	8912.76
464.59	8617.85
464.78	9055.53
464.96	8957.23
465.14	8732.54
465.32	9092.98
465.50	9095.32
465.69	9092.98
465.87	9074.26
466.05	8950.21
466.23	9165.54
466.41	9174.90
466.60	9275.54
466.78	9036.81
466.96	9188.94
467.14	9312.99
467.32	9266.18
467.51	9296.61
467.69	9130.43
467.87	9207.67
468.05	9362.14
468.23	9312.99
468.41	9158.52
468.60	9582.15
468.78	9495.55
468.96	9446.40
469.14	9497.89
469.32	9612.58
469.50	9420.66
469.69	9565.77
469.87	9783.44
470.05	9504.92
470.23	9577.47
470.41	9603.22
470.59	9902.81
470.77	9631.30
470.95	9837.27
471.14	9994.09
471.32	9804.50
471.50	10176.65
471.68	9898.13
471.86	10291.34
472.04	10209.42
472.22	10368.57
472.40	10267.93
472.58	10204.74
472.77	10490.28
472.95	10436.45
473.13	10656.46
473.31	10375.59
473.49	10516.03
473.67	10511.35
473.85	10509.01
474.03	10562.84
474.21	10824.98
474.39	10827.32
474.57	11033.29
474.75	10885.83
474.93	11126.91
475.12	11021.58
475.30	10977.11
475.48	10967.75
475.66	11159.67
475.84	11023.92
476.02	11337.56
476.20	11337.56
476.38	11658.21
476.56	11810.34
476.74	11712.04
476.92	11580.97
477.10	11894.60
477.28	11817.36
477.46	12044.40
477.64	12109.93
477.82	12259.73
478.00	12425.90
478.18	12381.43
478.36	12446.97
478.54	12229.30
478.72	12493.78
478.90	12622.51
479.08	12856.56
479.26	12896.35
479.44	12765.28
479.62	13069.55
479.80	13238.07
479.98	13259.13
480.16	13432.33
480.34	13373.82
480.52	13664.05
480.70	13507.23
480.88	13359.78
481.06	13544.68
481.24	13947.25
481.41	14057.26
481.59	14139.18
481.77	14288.97
481.95	14321.74
482.13	14359.19
482.31	14349.82
482.49	14867.08
482.67	14614.30
482.85	14841.34
483.03	14848.36
483.21	15154.97
483.39	15040.28
483.57	14925.60
483.74	14857.72
483.92	15386.68
484.10	15400.72
484.28	15428.81
484.46	15985.86
484.64	15955.43
484.82	15751.81
485.00	15854.79
485.18	16147.36
485.35	15941.39
485.53	15873.51
485.71	16093.52
485.89	16086.50
486.07	16336.94
486.25	16346.30
486.43	16666.95
486.61	16730.15
486.78	17125.70
486.96	17205.28
487.14	17486.14
487.32	17680.41
487.50	17795.09
487.68	18090.00
487.85	17940.21
488.03	18082.98
488.21	18427.04
488.39	18075.96
488.57	18202.35
488.75	18333.42
488.92	18953.66
489.10	18934.93
489.28	19002.81
489.46	19531.77
489.64	19370.27
489.81	19669.86
489.99	19742.42
490.17	19501.34
490.35	20339.26
490.53	20285.42
490.70	20189.46
490.88	20343.94
491.06	20599.05
491.24	20367.34
491.41	20491.39
491.59	20671.61
491.77	20725.44
491.95	20776.94
492.13	20702.04
492.30	21397.18
492.48	21296.53
492.66	21453.35
492.84	21322.28
493.01	21774.00
493.19	21844.22
493.37	22022.10
493.54	22019.76
493.72	22569.79
493.90	22398.93
494.08	22567.45
494.25	22792.14
494.43	22955.97
494.61	23073.00
494.79	22930.23
494.96	23091.73
495.14	23164.28
495.32	23374.93
495.49	23140.88
495.67	23665.16
495.85	23915.59
496.02	24098.16
496.20	24208.16
496.38	24182.42
496.55	24240.93
496.73	24584.99
496.91	24526.47
497.09	24664.57
497.26	24847.13
497.44	24767.55
497.62	24730.10
497.79	25355.02
497.97	24606.05
498.14	24882.24
498.32	25509.50
498.50	25575.03
498.67	25439.28
498.85	25308.21
499.03	25535.24
499.20	26057.18
499.38	25692.06
499.56	25731.85
499.73	26178.89
499.91	26412.95
500.08	26595.51
500.26	25930.80
500.44	26047.82
500.61	26146.12
500.79	26157.83
500.97	26490.18
501.14	26899.78
501.32	26911.48
501.49	26834.24
501.67	26813.18
501.84	27094.04
502.02	27215.75
502.20	27482.57
502.37	27534.06
502.55	27398.31
502.72	27655.77
502.90	27477.89
503.07	27292.99
503.25	27564.49
503.43	27639.39
503.60	27711.94
503.78	27798.54
503.95	28018.55
504.13	28098.13
504.30	28563.90
504.48	28287.71
504.65	28594.32
504.83	28479.64
505.01	28774.55
505.18	28870.51
505.36	29230.95
505.53	29064.77
505.71	29130.31
505.88	29139.67
506.06	29214.57
506.23	29481.39
506.41	29294.14
506.58	29420.53
506.76	29315.21
506.93	29422.87
507.11	29699.06
507.28	29472.03
507.46	29708.42
507.63	29577.35
507.81	29991.62
507.98	30008.01
508.16	30120.35
508.33	30115.67
508.50	30010.35
508.68	30206.95
508.85	30834.22
509.03	30579.10
509.20	30431.65
509.38	30698.47
509.55	30588.46
509.73	31021.46
509.90	31005.08
510.08	30909.11
510.25	31026.14
510.42	30944.22
510.60	31885.12
510.77	31487.23
510.95	31618.30
511.12	31304.67
511.30	31419.35
511.47	31761.07
511.64	31807.88
511.82	31908.52
511.99	31826.60
512.17	32329.82
512.34	31796.18
512.51	32390.67
512.69	32254.92
512.86	32437.48
513.04	32421.10
513.21	32533.45
513.38	32577.92
513.56	32430.46
513.73	32594.30
513.90	32900.91
514.08	32409.40
514.25	32423.44
514.43	32428.12
514.60	32903.25
514.77	32989.85
514.95	33289.44
515.12	33006.23
515.29	32945.38
515.47	33642.86
515.64	33713.08
515.81	33544.56
515.99	33731.80
516.16	33511.79
516.33	32861.12
516.51	33350.29
516.68	33102.20
516.85	33170.07
517.03	33106.88
517.20	33158.37
517.37	33902.66
517.54	34099.26
517.72	33907.34
517.89	33408.81
518.06	33797.34
518.24	33912.02
518.41	33776.27
518.58	34073.52
518.75	33841.81
518.93	34525.24
519.10	34469.07
519.27	34616.52
519.45	34642.27
519.62	35028.46
519.79	34792.06
519.96	34892.71
520.14	35042.50
520.31	34471.41
520.48	35002.71
520.65	35086.97
520.83	35899.14
521.00	35587.85
521.17	35426.35
521.34	35398.26
521.52	35810.20
521.69	35470.82
521.86	35800.83
522.03	36081.70
522.20	36067.66
522.38	35508.27
522.55	36229.15
522.72	36187.02
522.89	36184.68
523.07	36154.26
523.24	35927.22
523.41	36638.75
523.58	36329.80
523.75	36943.02
523.92	36545.12
524.10	36575.55
524.27	36800.24
524.44	37057.70
524.61	37148.98
524.78	36856.42
524.96	36931.31
525.13	37254.31
525.30	36851.73
525.47	37708.37
525.64	37354.95
525.81	36907.91
525.98	36804.92
526.16	36912.59
526.33	37132.60
526.50	37420.48
526.67	36973.44
526.84	37247.29
527.01	36795.56
527.18	37493.04
527.36	37301.12
527.53	37928.38
527.70	38225.63
527.87	37914.34
528.04	38267.76
528.21	38082.86
528.38	37823.06
528.55	38361.38
528.72	38623.52
528.89	38176.48
529.07	38010.30
529.24	38007.96
529.41	38333.29
529.58	38515.86
529.75	38103.92
529.92	38529.90
530.09	38696.08
530.26	38670.33
530.43	38951.20
530.60	38738.21
530.77	38597.77
530.94	39192.27
531.11	38745.23
531.28	38520.54
531.46	39222.70
531.63	38918.43
531.80	38604.80
531.97	39232.06
532.14	38848.21
532.31	38639.90
532.48	39016.73
532.65	39681.44
532.82	38773.31
532.99	39704.85
533.16	39428.66
533.33	39606.55
533.50	39842.94
533.67	39515.26
533.84	39353.77
534.01	39763.36
534.18	39470.79
534.35	39632.29
534.52	39936.56
534.69	39997.41
534.86	40348.50
535.03	39751.66
535.20	40179.98
535.37	40484.25
535.54	40264.24
535.71	40261.90
535.88	40465.52
536.05	40189.34
536.22	40407.01
536.38	40460.84
536.55	40470.20
536.72	40378.92
536.89	39934.22
537.06	40243.17
537.23	40968.74
537.40	40425.73
537.57	40582.55
537.74	40807.24
537.91	40889.16
538.08	41053.00
538.25	40100.40
538.42	40755.75
538.59	40687.87
538.75	40184.66
538.92	40971.08
539.09	40603.61
539.26	41305.77
539.43	40835.33
539.60	40959.38
539.77	40615.32
539.94	41411.10
540.11	41055.34
540.28	41347.90
540.44	41343.22
540.61	41462.59
540.78	40886.82
540.95	40879.80
541.12	41165.34
541.29	40912.56
541.46	41336.20
541.62	41588.98
541.79	41565.57
541.96	41146.62
542.13	41511.74
542.30	41511.74
542.47	41240.24
542.63	41392.37
542.80	41895.59
542.97	41776.22
543.14	41900.27
543.31	42167.09
543.48	42237.31
543.64	42719.46
543.81	42401.14
543.98	42319.23
544.15	42515.83
544.32	41961.12
544.48	43332.68
544.65	42249.01
544.82	42096.88
544.99	42078.15
545.16	42220.92
545.32	42564.98
545.49	43019.05
545.66	43302.25
545.83	42855.21
546.00	42705.41
546.16	42717.12
546.33	42382.42
546.50	42703.07
546.67	42574.34
546.83	42429.23
547.00	42576.69
547.17	42726.48
547.34	42749.88
547.50	43037.77
547.67	43393.53
547.84	43194.59
548.00	43140.75
548.17	43646.31
548.34	43075.22
548.51	43395.87
548.67	43405.23
548.84	43449.70
549.01	43136.07
549.18	43330.34
549.34	43613.54
549.51	43384.17
549.68	43606.52
549.84	43306.93
550.01	43819.51
550.18	43222.67
550.34	43688.44
550.51	43196.93
550.68	43578.43
550.84	43145.44
551.01	43449.70
551.18	43585.46
551.34	43718.87
551.51	43845.26
551.68	43571.41
551.84	43882.70
552.01	43459.07
552.18	43655.67
552.34	43311.61
552.51	43966.96
552.68	43763.34
552.84	43849.94
553.01	44289.96
553.18	43882.70
553.34	44357.83
553.51	43791.42
553.67	43768.02
553.84	44622.31
554.01	44360.17
554.17	44521.67
554.34	44580.18
554.51	43964.62
554.67	44215.06
554.84	44037.18
555.00	44123.78
555.17	44144.84
555.33	44472.52
555.50	44133.14
555.67	44495.92
555.83	44549.76
556.00	44772.11
556.16	44453.79
556.33	44236.12
556.50	44053.56
556.66	44484.22
556.83	44126.12
556.99	44556.78
557.16	44664.44
557.32	44105.06
557.49	44882.11
557.65	44224.42
557.82	44666.78
557.98	44392.94
558.15	45181.70
558.32	44868.07
558.48	44238.47
558.65	44072.29
558.81	44507.63
558.98	44172.93
559.14	44395.28
559.31	44465.50
559.47	44559.12
559.64	44760.40
559.80	44879.77
559.97	44774.45
560.13	44538.05
560.30	44645.72
560.46	45102.12
560.63	44619.97
560.79	44964.03
560.96	45034.25
561.12	44729.98
561.29	44512.31
561.45	45048.29
561.61	44765.09
561.78	44762.75
561.94	44519.33
562.11	45317.45
562.27	44648.06
562.44	45036.59
562.60	45120.85
562.77	45181.70
562.93	44825.94
563.10	45198.09
563.26	44575.50
563.42	45359.58
563.59	45043.61
563.75	45057.65
563.92	45390.01
564.08	45408.73
564.24	45331.50
564.41	45284.68
564.57	45347.88
564.74	45097.44
564.90	45193.40
565.07	45102.12
565.23	44996.80
565.39	45062.33
565.56	44797.85
565.72	45020.20
565.88	45024.89
566.05	45113.83
566.21	45085.74
566.38	44774.45
566.54	45378.31
566.70	45759.81
566.87	45691.94
567.03	45628.74
567.19	45804.28
567.36	45549.17
567.52	45333.84
567.68	45326.81
567.85	45235.53
568.01	45448.52
568.17	45682.58
568.34	45528.10
568.50	45324.47
568.66	44999.14
568.83	45813.65
568.99	45347.88
569.15	45345.54
569.32	45549.17
569.48	45509.38
569.64	45698.96
569.81	45277.66
569.97	45165.32
570.13	45329.16
570.30	44992.12
570.46	45050.63
570.62	45170.00
570.78	45123.19
570.95	45240.21
571.11	45474.27
571.27	45153.62
571.43	45624.06
571.60	45488.31
571.76	45434.48
571.92	45715.34
572.09	45359.58
572.25	45303.41
572.41	45923.65
572.57	45677.90
572.74	45979.82
572.90	45729.39
573.06	45839.39
573.22	45811.31
573.38	45755.13
573.55	45177.02
573.71	45834.71
573.87	45280.00
574.03	45516.40
574.20	45874.50
574.36	45708.32
574.52	45837.05
574.68	45490.65
574.84	45521.08
575.01	45170.00
575.17	45717.68
575.33	45109.14
575.49	45462.57
575.65	45708.32
575.82	45647.47
575.98	45642.79
576.14	45918.97
576.30	45832.37
576.46	45647.47
576.62	45794.92
576.79	45485.97
576.95	45244.90
577.11	45893.22
577.27	45808.96
577.43	45925.99
577.59	45485.97
577.75	45247.24
577.92	45392.35
578.08	45373.63
578.24	45174.68
578.40	45329.16
578.56	45591.30
578.72	45322.13
578.88	45818.33
579.04	45476.61
579.21	45258.94
579.37	45535.12
579.53	45347.88
579.69	45310.43
579.85	45457.88
580.01	45855.78
580.17	45425.12
580.33	45738.75
580.49	45710.66
580.65	45469.59
580.82	45605.34
580.98	45502.35
581.14	45799.60
581.30	45326.81
581.46	45537.46
581.62	45778.54
581.78	45530.44
581.94	45865.14
582.10	45825.35
582.26	45565.55
582.42	45897.91
582.58	45528.10
582.74	45720.02
582.90	46174.09
583.06	45792.58
583.22	45949.40
583.38	45909.61
583.54	46167.07
583.70	45682.58
583.86	45820.67
584.02	45675.55
584.18	46110.89
584.34	45675.55
584.50	45682.58
584.66	46005.57
584.82	45432.14
584.98	45642.79
585.14	45720.02
585.30	45312.77
585.46	45535.12
585.62	45394.69
585.78	45813.65
585.94	45085.74
586.10	45415.76
586.26	45394.69
586.42	45670.87
586.58	45797.26
586.74	45535.12
586.90	45851.09
587.06	45387.67
587.22	46054.72
587.38	46014.93
587.54	45703.64
587.70	45771.52
587.86	46073.45
588.02	45642.79
588.18	46138.98
588.34	45626.40
588.49	44996.80
588.65	45270.64
588.81	45287.03
588.97	45228.51
589.13	45401.71
589.29	45347.88
589.45	45565.55
589.61	45595.98
589.77	45918.97
589.93	45923.65
590.08	45958.76
