SpectraSuite Data File
++++++++++++++++++++++++++++++++++++
Date: Fri Oct 25 11:33:14 EDT 2013
User: price-jones
Dark Spectrum Present: No
Reference Spectrum Present: No
Number of Sampled Component Spectra: 1
Spectrometers: USB2+H05261
Integration Time (usec): 100000 (USB2+H05261)
Spectra Averaged: 1 (USB2+H05261)
Boxcar Smoothing: 0 (USB2+H05261)
Correct for Electrical Dark: No (USB2+H05261)
Strobe/Lamp Enabled: No (USB2+H05261)
Correct for Detector Non-linearity: No (USB2+H05261)
Correct for Stray Light: No (USB2+H05261)
Number of Pixels in Processed Spectrum: 2048
>>>>>Begin Processed Spectral Data<<<<<
365.73	271.50
365.92	271.50
366.12	271.50
366.32	210.65
366.52	161.50
366.72	227.03
366.91	194.26
367.11	154.48
367.31	140.43
367.51	191.92
367.70	187.24
367.90	189.58
368.10	191.92
368.30	163.84
368.49	152.13
368.69	166.18
368.89	161.50
369.09	224.69
369.28	215.33
369.48	128.73
369.68	222.35
369.87	220.01
370.07	271.50
370.27	257.46
370.47	313.63
370.66	456.40
370.86	498.53
371.06	592.16
371.25	505.56
371.45	479.81
371.65	521.94
371.84	517.26
372.04	519.60
372.24	557.05
372.44	543.00
372.63	571.09
372.83	606.20
373.03	599.18
373.22	554.71
373.42	554.71
373.62	709.18
373.81	641.31
374.01	662.37
374.21	622.58
374.40	571.09
374.60	645.99
374.79	685.78
374.99	641.31
375.19	624.92
375.38	631.94
375.58	674.07
375.78	667.05
375.97	681.10
376.17	723.23
376.37	655.35
376.56	718.54
376.76	638.97
376.95	664.71
377.15	662.37
377.35	732.59
377.54	608.54
377.74	702.16
377.93	601.52
378.13	711.52
378.33	692.80
378.52	580.45
378.72	720.88
378.91	765.36
379.11	669.39
379.31	695.14
379.50	727.91
379.70	751.31
379.89	739.61
380.09	716.20
380.28	748.97
380.48	751.31
380.68	711.52
380.87	777.06
381.07	702.16
381.26	795.78
381.46	748.97
381.65	760.67
381.85	800.46
382.04	863.66
382.24	798.12
382.43	791.10
382.63	854.30
382.83	795.78
383.02	770.04
383.22	763.01
383.41	786.42
383.61	753.65
383.80	837.91
384.00	830.89
384.19	856.64
384.39	826.21
384.58	849.61
384.78	770.04
384.97	905.79
385.17	866.00
385.36	781.74
385.56	800.46
385.75	877.70
385.95	835.57
386.14	854.30
386.34	938.55
386.53	863.66
386.72	901.11
386.92	887.06
387.11	814.51
387.31	889.40
387.50	943.24
387.70	840.25
387.89	966.64
388.09	842.59
388.28	917.49
388.48	947.92
388.67	943.24
388.86	894.08
389.06	990.05
389.25	936.21
389.45	971.32
389.64	976.00
389.84	966.64
390.03	985.37
390.22	957.28
390.42	933.87
390.61	961.96
390.81	997.07
391.00	1069.62
391.19	994.73
391.39	938.55
391.58	1067.28
391.78	919.83
391.97	1011.11
392.16	945.58
392.36	964.30
392.55	1097.71
392.75	1095.37
392.94	1020.47
393.13	1032.18
393.33	1050.90
393.52	1174.95
393.71	1114.10
393.91	1102.39
394.10	1039.20
394.29	1086.01
394.49	1039.20
394.68	1198.35
394.88	1179.63
395.07	1104.73
395.26	1116.44
395.46	1100.05
395.65	1291.98
395.84	1247.51
396.04	1238.14
396.23	1137.50
396.42	1151.54
396.62	1203.04
396.81	1163.25
397.00	1261.55
397.19	1254.53
397.39	1214.74
397.58	1231.12
397.77	1198.35
397.97	1306.02
398.16	1287.29
398.35	1329.42
398.55	1280.27
398.74	1301.34
398.93	1336.45
399.12	1275.59
399.32	1301.34
399.51	1380.92
399.70	1289.64
399.90	1256.87
400.09	1401.98
400.28	1380.92
400.47	1383.26
400.67	1416.02
400.86	1362.19
401.05	1329.42
401.24	1437.09
401.44	1474.54
401.63	1455.81
401.82	1369.21
402.01	1420.71
402.21	1444.11
402.40	1479.22
402.59	1455.81
402.78	1432.41
402.97	1600.93
403.17	1542.41
403.36	1547.09
403.55	1455.81
403.74	1582.20
403.93	1504.96
404.13	1570.50
404.32	1650.08
404.51	1654.76
404.70	1694.55
404.89	1596.25
405.09	1657.10
405.28	1689.87
405.47	1650.08
405.66	1671.14
405.85	1701.57
406.05	1696.89
406.24	1678.16
406.43	1806.89
406.62	1755.40
406.81	1820.94
407.00	1802.21
407.20	1687.53
407.39	1762.42
407.58	1757.74
407.77	1870.09
407.96	1853.70
408.15	1888.81
408.34	1842.00
408.54	1907.54
408.73	1942.64
408.92	1895.83
409.11	1991.80
409.30	1975.41
409.49	1959.03
409.68	2022.22
409.87	2118.18
410.07	2080.74
410.26	2141.59
410.45	2064.35
410.64	1977.75
410.83	2108.82
411.02	2120.53
411.21	2232.87
411.40	2153.29
411.59	2275.00
411.78	2218.83
411.98	2195.42
412.17	2244.57
412.36	2286.70
412.55	2223.51
412.74	2408.41
412.93	2326.49
413.12	2303.09
413.31	2431.82
413.50	2413.09
413.69	2382.67
413.88	2572.25
414.07	2504.37
414.26	2469.27
414.45	2487.99
414.64	2457.56
414.83	2572.25
415.02	2595.65
415.22	2677.57
415.41	2682.25
415.60	2731.41
415.79	2808.64
415.98	2724.38
416.17	2773.53
416.36	2705.66
416.55	2825.03
416.74	2862.48
416.93	2813.32
417.12	2895.24
417.31	3028.65
417.50	2878.86
417.69	3117.59
417.88	2963.12
418.07	2871.84
418.26	2937.37
418.45	2970.14
418.64	3166.74
418.83	3131.64
419.02	3009.93
419.21	3155.04
419.39	3012.27
419.58	3122.27
419.77	2984.18
419.96	3068.44
420.15	3148.02
420.34	3208.87
420.53	3227.60
420.72	3213.56
420.91	3314.20
421.10	3293.13
421.29	3339.94
421.48	3241.64
421.67	3339.94
421.86	3426.54
422.05	3236.96
422.24	3283.77
422.43	3407.82
422.61	3361.01
422.80	3433.57
422.99	3384.41
423.18	3468.67
423.37	3426.54
423.56	3431.23
423.75	3400.80
423.94	3463.99
424.13	3141.00
424.32	3332.92
424.50	3501.44
424.69	3609.11
424.88	3613.79
425.07	3344.63
425.26	3269.73
425.45	3471.01
425.64	3534.21
425.83	3653.58
426.01	3471.01
426.20	3543.57
426.39	3414.84
426.58	3454.63
426.77	3428.88
426.96	3585.70
427.15	3595.06
427.33	3648.90
427.52	3557.61
427.71	3674.64
427.90	3602.08
428.09	3641.87
428.28	3681.66
428.46	3684.00
428.65	3754.22
428.84	3866.56
429.03	3784.65
429.22	3590.38
429.40	3784.65
429.59	3735.50
429.78	3728.47
429.97	3660.60
430.16	3695.71
430.34	3840.82
430.53	3927.42
430.72	4002.32
430.91	3950.82
431.10	3871.25
431.28	4021.04
431.47	4095.94
431.66	4002.32
431.85	3981.25
432.03	4065.51
432.22	4163.81
432.41	4088.92
432.60	4084.23
432.79	4060.83
432.97	4070.19
433.16	4032.74
433.35	4126.36
433.54	4187.22
433.72	4241.05
433.91	4205.94
434.10	4215.30
434.28	4128.70
434.47	4241.05
434.66	4311.27
434.85	4407.23
435.03	4421.27
435.22	4304.25
435.41	4561.70
435.59	4416.59
435.78	4418.93
435.97	4416.59
436.16	4334.67
436.34	4444.68
436.53	4362.76
436.72	4573.41
436.90	4533.62
437.09	4606.17
437.28	4390.84
437.46	4486.81
437.65	4627.24
437.84	4741.93
438.02	4610.86
438.21	4746.61
438.40	4571.07
438.58	4961.94
438.77	4896.40
438.96	4880.02
439.14	4842.57
439.33	4973.64
439.52	4821.50
439.70	5095.35
439.89	5036.83
440.08	5137.48
440.26	5053.22
440.45	4997.04
440.63	5067.26
440.82	5224.08
441.01	5165.56
441.19	5233.44
441.38	5191.31
441.57	5184.29
441.75	5446.43
441.94	5446.43
442.12	5352.81
442.31	5504.94
442.50	5462.81
442.68	5507.28
442.87	5497.92
443.05	5596.22
443.24	5680.48
443.43	5476.85
443.61	5535.37
443.80	5640.69
443.98	5724.95
444.17	5254.50
444.35	5647.71
444.54	5586.86
444.73	5799.85
444.91	5664.10
445.10	5575.16
445.28	5640.69
445.47	5643.03
445.65	5776.44
445.84	5762.40
446.02	5788.14
446.21	5727.29
446.39	5757.72
446.58	5907.51
446.77	5769.42
446.95	5731.97
447.14	5673.46
447.32	5909.85
447.51	5755.38
447.69	5891.13
447.88	5802.19
448.06	5757.72
448.25	5823.25
448.43	5820.91
448.62	5898.15
448.80	5827.93
448.99	5886.45
449.17	5984.75
449.36	5755.38
449.54	6317.11
449.73	6017.52
449.91	5942.62
450.10	6054.97
450.28	6251.57
450.46	6101.78
450.65	6043.26
450.83	6183.70
451.02	6169.65
451.20	6307.74
451.39	6267.95
451.57	6183.70
451.76	6092.41
451.94	6153.27
452.13	6384.98
452.31	6291.36
452.49	6008.16
452.68	6373.28
452.86	6469.24
453.05	6492.65
453.23	6319.45
453.42	6274.98
453.60	6204.76
453.78	6445.84
453.97	6464.56
454.15	6518.39
454.34	6392.00
454.52	6509.03
454.70	6656.48
454.89	6672.87
455.07	6724.36
455.26	6593.29
455.44	6675.21
455.62	6766.49
455.81	6796.92
455.99	6808.62
456.17	6984.16
456.36	6909.26
456.54	6864.79
456.73	6951.39
456.91	6963.09
457.09	7068.42
457.28	7274.38
457.46	7021.61
457.64	7353.96
457.83	7140.97
458.01	6923.30
458.19	7363.33
458.38	7150.34
458.56	7248.64
458.74	7379.71
458.93	7435.88
459.11	7391.41
459.29	7309.49
459.48	7325.88
459.66	7410.14
459.84	7311.83
460.03	7555.25
460.21	7391.41
460.39	7435.88
460.57	7407.80
460.76	7531.84
460.94	7487.37
461.12	7730.79
461.31	7424.18
461.49	7485.03
461.67	7543.55
461.85	7861.86
462.04	7801.01
462.22	8107.62
462.40	7779.94
462.59	7889.95
462.77	7761.22
462.95	7749.51
463.13	7721.43
463.32	7749.51
463.50	7882.92
463.68	7960.16
463.86	7903.99
464.05	7985.91
464.23	7943.78
464.41	8004.63
464.59	7857.18
464.78	8248.05
464.96	8126.34
465.14	7918.03
465.32	8248.05
465.50	8297.20
465.69	8301.88
465.87	8138.04
466.05	8259.75
466.23	8166.13
466.41	8180.17
466.60	8505.51
466.78	8315.92
466.96	8131.02
467.14	8308.90
467.32	8304.22
467.51	8294.86
467.69	8339.33
467.87	8557.00
468.05	8273.79
468.23	8409.54
468.41	8475.08
468.60	8336.99
468.78	8863.61
468.96	8489.12
469.14	8688.07
469.32	8767.65
469.50	8564.02
469.69	8786.37
469.87	8821.48
470.05	8877.65
470.23	8699.77
470.41	8922.12
470.59	8772.33
470.77	8706.79
470.95	8769.99
471.14	9151.49
471.32	8961.91
471.50	9362.14
471.68	8947.87
471.86	9135.11
472.04	9378.53
472.22	9224.05
472.40	9329.38
472.58	9153.84
472.77	9336.40
472.95	9399.59
473.13	9764.72
473.31	9533.00
473.49	9418.32
473.67	9451.08
473.85	9635.99
474.03	9930.89
474.21	9741.31
474.39	9832.59
474.57	9961.32
474.75	10010.47
474.93	10052.60
475.12	9998.77
475.30	10050.26
475.48	10012.81
475.66	10129.84
475.84	10265.59
476.02	10195.37
476.20	10218.78
476.38	10476.24
476.56	10684.55
476.74	10586.24
476.92	10579.22
477.10	10635.39
477.28	10883.49
477.46	10839.02
477.64	11101.16
477.82	11073.07
478.00	11311.81
478.18	11222.87
478.36	11154.99
478.54	11398.41
478.72	11494.37
478.90	11683.95
479.08	11592.67
479.26	11730.76
479.44	11824.39
479.62	12009.29
479.80	11843.11
479.98	12056.10
480.16	12301.86
480.34	12091.21
480.52	12301.86
480.70	12353.35
480.88	12442.29
481.06	12475.06
481.24	12718.47
481.41	12636.55
481.59	12851.88
481.77	12739.54
481.95	13158.49
482.13	13214.66
482.31	12999.34
482.49	13352.76
482.67	13467.44
482.85	13507.23
483.03	13771.71
483.21	13811.50
483.39	13980.02
483.57	13738.94
483.74	13827.88
483.92	14354.51
484.10	13968.32
484.28	14501.96
484.46	14640.05
484.64	14815.59
484.82	14494.94
485.00	14766.44
485.18	15164.33
485.35	15396.04
485.53	15101.14
485.71	15119.86
485.89	15389.02
486.07	15398.38
486.25	15592.65
486.43	15520.09
486.61	15651.16
486.78	15992.88
486.96	15894.58
487.14	16152.04
487.32	16446.94
487.50	16418.86
487.68	16479.71
487.85	16840.15
488.03	17025.06
488.21	17170.17
488.39	17193.58
488.57	17397.20
488.75	17298.90
488.92	17881.69
489.10	17879.35
489.28	17811.48
489.46	18001.06
489.64	17776.37
489.81	18408.31
489.99	18108.72
490.17	18190.64
490.35	18520.66
490.53	18766.42
490.70	18895.14
490.88	18817.91
491.06	19220.48
491.24	19157.28
491.41	19293.04
491.59	19307.08
491.77	19309.42
491.95	19431.13
492.13	19669.86
492.30	19688.59
492.48	20262.02
492.66	19796.25
492.84	20046.69
493.01	20159.03
493.19	20379.04
493.37	20610.76
493.54	20690.34
493.72	20727.78
493.90	20676.29
494.08	20826.09
494.25	21380.79
494.43	21256.75
494.61	21390.16
494.79	21266.11
494.96	21748.26
495.14	21771.66
495.32	21865.28
495.49	21687.40
495.67	21876.99
495.85	21914.44
496.02	22237.43
496.20	22862.35
496.38	22579.15
496.55	22707.88
496.73	23000.44
496.91	22892.78
497.09	23007.47
497.26	23157.26
497.44	23159.60
497.62	23370.25
497.79	23508.34
497.97	23597.28
498.14	23899.21
498.32	23857.08
498.50	23831.33
498.67	24163.69
498.85	23878.15
499.03	24409.45
499.20	24261.99
499.38	24245.61
499.56	24741.80
499.73	24393.06
499.91	24797.98
500.08	24959.47
500.26	24795.64
500.44	24893.94
500.61	25177.14
500.79	25095.22
500.97	25111.61
501.14	25738.87
501.32	25614.82
501.49	25500.14
501.67	25979.95
501.84	25628.87
502.02	26216.34
502.20	25930.80
502.37	26057.18
502.55	25834.83
502.72	25921.43
502.90	26422.31
503.07	26108.68
503.25	26223.36
503.43	26380.18
503.60	26408.26
503.78	26878.71
503.95	26916.16
504.13	27035.53
504.30	27040.21
504.48	26852.97
504.65	27271.92
504.83	27206.39
505.01	27391.29
505.18	27576.19
505.36	27402.99
505.53	27393.63
505.71	27475.55
505.88	27798.54
506.06	27555.13
506.23	27683.86
506.41	27716.62
506.58	27922.59
506.76	27953.02
506.93	28404.74
507.11	28287.71
507.28	28739.44
507.46	28741.78
507.63	28533.47
507.81	28823.70
507.98	29003.92
508.16	28758.16
508.33	29064.77
508.50	29046.05
508.68	28861.15
508.85	29090.52
509.03	29223.93
509.20	29315.21
509.38	29685.01
509.55	29965.88
509.73	29277.76
509.90	29638.20
510.08	30015.03
510.25	29680.33
510.42	30003.33
510.60	29834.81
510.77	30059.50
510.95	30911.46
511.12	30529.95
511.30	30185.89
511.47	30260.79
511.64	30263.13
511.82	30630.59
511.99	30305.26
512.17	30747.62
512.34	30714.85
512.51	31035.50
512.69	31016.78
512.86	30609.53
513.04	31529.36
513.21	31243.81
513.38	31309.35
513.56	31351.48
513.73	31377.22
513.90	31639.36
514.08	31585.53
514.25	31742.35
514.43	31700.22
514.60	31732.98
514.77	31915.54
514.95	32163.64
515.12	32189.39
515.29	31821.92
515.47	32280.67
515.64	32180.03
515.81	31962.36
515.99	32481.95
516.16	32559.19
516.33	32580.26
516.51	32708.99
516.68	32397.70
516.85	32802.61
517.03	33015.60
517.20	33017.94
517.37	32957.08
517.54	32968.79
517.72	33001.55
517.89	33186.46
518.06	33240.29
518.24	33638.18
518.41	33113.90
518.58	33254.33
518.75	33043.68
518.93	33745.84
519.10	33525.83
519.27	33710.74
519.45	33893.30
519.62	34017.35
519.79	34185.86
519.96	33837.12
520.14	34277.15
520.31	33720.10
520.48	34459.71
520.65	34277.15
520.83	34841.21
521.00	34487.79
521.17	34469.07
521.34	34707.80
521.52	34834.19
521.69	34838.87
521.86	35126.76
522.03	35049.52
522.20	35489.54
522.38	35906.16
522.55	35033.14
522.72	35304.64
522.89	34911.43
523.07	35896.80
523.24	35438.05
523.41	35618.27
523.58	35711.89
523.75	36133.19
523.92	35814.88
524.10	35480.18
524.27	36023.19
524.44	35885.09
524.61	36385.97
524.78	36149.57
524.96	36343.84
525.13	36346.18
525.30	36477.25
525.47	36528.74
525.64	36444.48
525.81	36395.33
525.98	36376.61
526.16	36479.59
526.33	36772.16
526.50	37130.26
526.67	37177.07
526.84	36453.84
527.01	36774.50
527.18	37308.14
527.36	36947.70
527.53	37354.95
527.70	37979.87
527.87	37160.69
528.04	36966.42
528.21	37366.65
528.38	37525.81
528.55	37448.57
528.72	37558.58
528.89	37755.18
529.07	38113.28
529.24	37249.63
529.41	38249.03
529.58	37635.81
529.75	37628.79
529.92	37841.78
530.09	37834.76
530.26	37963.49
530.43	38003.28
530.60	37961.15
530.77	37883.91
530.94	38462.02
531.11	38333.29
531.28	38412.87
531.46	38314.57
531.63	38501.81
531.80	38258.40
531.97	38621.18
532.14	38813.10
532.31	38728.84
532.48	38728.84
532.65	39161.84
532.82	38630.54
532.99	38895.02
533.16	38803.74
533.33	38878.64
533.50	38979.28
533.67	39496.54
533.84	39086.95
534.01	39187.59
534.18	39639.31
534.35	39161.84
534.52	39494.20
534.69	39732.93
534.86	40257.21
535.03	39765.70
535.20	39629.95
535.37	39583.14
535.54	40407.01
535.71	40004.44
535.88	39674.42
536.05	40009.12
536.22	40128.48
536.38	40072.31
536.55	39934.22
536.72	40229.13
536.89	39957.63
537.06	40149.55
537.23	40467.86
537.40	40076.99
537.57	40219.77
537.74	40435.10
537.91	40568.51
538.08	40634.04
538.25	40409.35
538.42	40744.05
538.59	40673.83
538.75	40636.38
538.92	40898.52
539.09	41191.09
539.26	40673.83
539.43	40528.72
539.60	40989.80
539.77	40978.10
539.94	41516.42
540.11	41125.55
540.28	40971.08
540.44	40868.09
540.61	41364.29
540.78	40877.46
540.95	41209.81
541.12	41048.32
541.29	41226.20
541.46	41455.57
541.62	41205.13
541.79	41736.43
541.96	41368.97
542.13	41263.64
542.30	41408.76
542.47	41996.23
542.63	42068.79
542.80	42033.68
542.97	42520.51
543.14	41968.15
543.31	42204.54
543.48	41972.83
543.64	42864.57
543.81	42576.69
543.98	42674.99
544.15	42536.90
544.32	42813.08
544.48	42504.13
544.65	42223.26
544.82	42588.39
544.99	42422.21
545.16	42377.74
545.32	42583.71
545.49	42792.01
545.66	43517.58
545.83	43199.27
546.00	42890.32
546.16	42988.62
546.33	42941.81
546.50	42749.88
546.67	42911.38
546.83	42557.96
547.00	42916.06
547.17	43056.50
547.34	43014.37
547.50	43709.50
547.67	43833.55
547.84	43463.75
548.00	43131.39
548.17	43838.23
548.34	43889.73
548.51	44065.27
548.67	43435.66
548.84	43297.57
549.01	43686.10
549.18	43517.58
549.34	44126.12
549.51	44018.46
549.68	43990.37
549.84	43894.41
550.01	44098.03
550.18	43618.22
550.34	43849.94
550.51	44273.57
550.68	44704.23
550.84	43686.10
551.01	44163.57
551.18	43969.30
551.34	43452.05
551.51	44514.65
551.68	44254.85
551.84	43913.13
552.01	44198.68
552.18	44037.18
552.34	43852.28
552.51	44463.16
552.68	44081.65
552.84	44367.20
553.01	44556.78
553.18	44406.98
553.34	44617.63
553.51	44208.04
553.67	44346.13
553.84	45076.38
554.01	44893.82
554.17	44793.17
554.34	45050.63
554.51	44886.79
554.67	45207.45
554.84	45155.96
555.00	44823.60
555.17	44587.21
555.33	45387.67
555.50	45001.48
555.67	45256.60
555.83	45296.39
556.00	45085.74
556.16	45357.24
556.33	45272.98
556.50	45132.55
556.66	45141.91
556.83	44678.49
556.99	45567.89
557.16	45492.99
557.32	45813.65
557.49	45801.94
557.65	45251.92
557.82	45724.71
557.98	45258.94
558.15	45511.72
558.32	45200.43
558.48	45347.88
558.65	45563.21
558.81	46101.53
558.98	45144.25
559.14	45600.66
559.31	45656.83
559.47	45553.85
559.64	46174.09
559.80	45844.07
559.97	45411.07
560.13	45354.90
560.30	45610.02
560.46	46459.63
560.63	45949.40
560.79	46052.38
560.96	46375.37
561.12	46209.20
561.29	46323.88
561.45	45837.05
561.61	46059.40
561.78	45703.64
561.94	46333.24
562.11	46000.89
562.27	45731.73
562.44	45942.38
562.60	46394.10
562.77	45984.51
562.93	46225.58
563.10	46408.14
563.26	46146.00
563.42	46576.66
563.59	46440.91
563.75	46323.88
563.92	46113.23
564.08	46361.33
564.24	46532.19
564.41	46686.67
564.57	46483.04
564.74	46433.89
564.90	46361.33
565.07	46277.07
565.23	46293.46
565.39	46417.50
565.56	46541.55
565.72	46454.95
565.88	46244.30
566.05	46326.22
566.21	46358.99
566.38	46684.33
566.54	46562.62
566.70	46717.09
566.87	46948.81
567.03	46457.29
567.19	47023.70
567.36	46548.57
567.52	46344.95
567.68	47023.70
567.85	46834.12
568.01	46733.48
568.17	46794.33
568.34	47002.64
568.50	47070.51
568.66	46799.01
568.83	46916.04
568.99	47136.05
569.15	47098.60
569.32	46728.80
569.48	46653.90
569.64	47063.49
569.81	46813.05
569.97	47075.19
570.13	47250.74
570.30	46834.12
570.46	47026.04
570.62	47267.12
570.78	47171.16
570.95	47098.60
571.11	47178.18
571.27	47063.49
571.43	47042.43
571.60	46986.25
571.76	46986.25
571.92	47168.82
572.09	47194.56
572.25	46857.52
572.41	46801.35
572.57	47299.89
572.74	47629.90
572.90	46857.52
573.06	46899.65
573.22	47253.08
573.38	47515.22
573.55	47447.34
573.71	47688.42
573.87	46997.96
574.03	47622.88
574.20	47248.39
574.36	47353.72
574.52	47735.23
574.68	47524.58
574.84	47566.71
575.01	47290.52
575.17	47440.32
575.33	47054.13
575.49	47332.65
575.65	47489.47
575.82	47667.35
575.98	47342.02
576.14	47185.20
576.30	47723.52
576.46	47674.37
576.62	47618.20
576.79	47615.86
576.95	47051.79
577.11	46885.61
577.27	47700.12
577.43	47349.04
577.59	47292.86
577.75	47454.36
577.92	47185.20
578.08	47435.64
578.24	47386.49
578.40	47594.79
578.56	47746.93
578.72	47351.38
578.88	47662.67
579.04	47138.39
579.21	46829.44
579.37	47526.92
579.53	47543.30
579.69	47435.64
579.85	47395.85
580.01	47482.45
580.17	47342.02
580.33	47505.85
580.49	47445.00
580.65	47494.15
580.82	47515.22
580.98	47583.09
581.14	47346.70
581.30	47798.42
581.46	47210.95
581.62	47629.90
581.78	47395.85
581.94	48109.71
582.10	47374.78
582.26	47725.86
582.42	47840.55
582.58	47611.18
582.74	47812.46
582.90	47590.11
583.06	47943.53
583.22	47625.22
583.38	47547.98
583.54	47601.82
583.70	47714.16
583.86	47793.74
584.02	47482.45
584.18	47784.38
584.34	48076.94
584.50	47913.11
584.66	47796.08
584.82	47805.44
584.98	48114.39
585.14	48027.79
585.30	47810.12
585.46	47870.98
585.62	47704.80
585.78	47899.06
585.94	47599.47
586.10	47629.90
586.26	47707.14
586.42	47861.61
586.58	47948.21
586.74	47772.67
586.90	47936.51
587.06	47763.31
587.22	47620.54
587.38	47735.23
587.54	48030.13
587.70	48203.33
587.86	48006.73
588.02	47657.99
588.18	48172.91
588.34	48016.09
588.49	47817.14
588.65	47735.23
588.81	47791.40
588.97	47866.30
589.13	47931.83
589.29	48020.77
589.45	48168.22
589.61	48229.08
589.77	48275.89
589.93	48135.46
590.08	48100.35
