SpectraSuite Data File
++++++++++++++++++++++++++++++++++++
Date: Fri Oct 25 11:22:41 EDT 2013
User: price-jones
Dark Spectrum Present: No
Reference Spectrum Present: No
Number of Sampled Component Spectra: 1
Spectrometers: USB2+H05261
Integration Time (usec): 100000 (USB2+H05261)
Spectra Averaged: 1 (USB2+H05261)
Boxcar Smoothing: 0 (USB2+H05261)
Correct for Electrical Dark: No (USB2+H05261)
Strobe/Lamp Enabled: No (USB2+H05261)
Correct for Detector Non-linearity: No (USB2+H05261)
Correct for Stray Light: No (USB2+H05261)
Number of Pixels in Processed Spectrum: 2048
>>>>>Begin Processed Spectral Data<<<<<
365.73	156.82
365.92	156.82
366.12	156.82
366.32	152.13
366.52	135.75
366.72	124.05
366.91	25.75
367.11	98.30
367.31	149.79
367.51	128.73
367.70	159.16
367.90	81.92
368.10	135.75
368.30	168.52
368.49	79.58
368.69	74.90
368.89	182.56
369.09	208.31
369.28	77.24
369.48	149.79
369.68	184.90
369.87	217.67
370.07	220.01
370.27	292.57
370.47	294.91
370.66	573.43
370.86	608.54
371.06	716.20
371.25	688.12
371.45	615.56
371.65	615.56
371.84	653.01
372.04	674.07
372.24	671.73
372.44	734.93
372.63	685.78
372.83	732.59
373.03	706.84
373.22	777.06
373.42	685.78
373.62	692.80
373.81	683.44
374.01	819.19
374.21	772.38
374.40	884.72
374.60	844.93
374.79	798.12
374.99	842.59
375.19	821.53
375.38	837.91
375.58	851.96
375.78	807.48
375.97	821.53
376.17	877.70
376.37	840.25
376.56	896.43
376.76	844.93
376.95	858.98
377.15	823.87
377.35	891.74
377.54	882.38
377.74	917.49
377.93	854.30
378.13	919.83
378.33	957.28
378.52	933.87
378.72	936.21
378.91	891.74
379.11	842.59
379.31	870.68
379.50	924.51
379.70	997.07
379.89	1055.58
380.09	968.98
380.28	964.30
380.48	973.66
380.68	966.64
380.87	971.32
381.07	1039.20
381.26	1069.62
381.46	1006.43
381.65	1086.01
381.85	1081.33
382.04	1032.18
382.24	1034.52
382.43	1064.94
382.63	961.96
382.83	1025.15
383.02	1081.33
383.22	1142.18
383.41	1029.84
383.61	1050.90
383.80	1015.79
384.00	1097.71
384.19	1132.82
384.39	1163.25
384.58	1100.05
384.78	1137.50
384.97	1219.42
385.17	1104.73
385.36	1111.75
385.56	1142.18
385.75	1214.74
385.95	1224.10
386.14	1247.51
386.34	1086.01
386.53	1266.23
386.72	1238.14
386.92	1263.89
387.11	1207.72
387.31	1228.78
387.50	1214.74
387.70	1224.10
387.89	1205.38
388.09	1256.87
388.28	1296.66
388.48	1320.06
388.67	1327.08
388.86	1261.55
389.06	1334.11
389.25	1313.04
389.45	1448.79
389.64	1310.70
389.84	1352.83
390.03	1327.08
390.22	1366.87
390.42	1364.53
390.61	1329.42
390.81	1401.98
391.00	1376.24
391.19	1392.62
391.39	1434.75
391.58	1373.89
391.78	1514.33
391.97	1465.18
392.16	1430.07
392.36	1481.56
392.55	1526.03
392.75	1519.01
392.94	1586.88
393.13	1519.01
393.33	1519.01
393.52	1659.44
393.71	1565.82
393.91	1528.37
394.10	1612.63
394.29	1694.55
394.49	1643.06
394.68	1554.12
394.88	1629.01
395.07	1675.82
395.26	1619.65
395.46	1638.38
395.65	1739.02
395.84	1743.70
396.04	1785.83
396.23	1825.62
396.42	1774.13
396.62	1774.13
396.81	1788.17
397.00	1682.85
397.19	1837.32
397.39	1872.43
397.58	1799.87
397.77	1870.09
397.97	1900.52
398.16	1867.75
398.35	1891.15
398.55	1856.04
398.74	1863.07
398.93	1982.43
399.12	1856.04
399.32	1984.77
399.51	1893.49
399.70	1930.94
399.90	1888.81
400.09	2019.88
400.28	2069.03
400.47	2033.93
400.67	2017.54
400.86	2054.99
401.05	2125.21
401.24	2008.18
401.44	2092.44
401.63	2253.94
401.82	2172.02
402.01	2094.78
402.21	2167.34
402.40	2141.59
402.59	2218.83
402.78	2286.70
402.97	2279.68
403.17	2307.77
403.36	2270.32
403.55	2317.13
403.74	2310.11
403.93	2331.17
404.13	2403.73
404.32	2392.03
404.51	2326.49
404.70	2373.30
404.89	2452.88
405.09	2462.24
405.28	2583.95
405.47	2495.01
405.66	2574.59
405.85	2431.82
406.05	2499.69
406.24	2537.14
406.43	2562.89
406.62	2654.17
406.81	2670.55
407.00	2562.89
407.20	2520.76
407.39	2616.72
407.58	2752.47
407.77	2705.66
407.96	2710.34
408.15	2670.55
408.34	2684.59
408.54	2932.69
408.73	2787.58
408.92	2773.53
409.11	2836.73
409.30	2911.63
409.49	2874.18
409.68	2977.16
409.87	2998.23
410.07	3038.02
410.26	2963.12
410.45	2979.50
410.64	3133.98
410.83	3176.11
411.02	3204.19
411.21	3096.53
411.40	3150.36
411.59	3145.68
411.78	3251.00
411.98	3246.32
412.17	3311.86
412.36	3393.78
412.55	3365.69
412.74	3478.04
412.93	3342.28
413.12	3382.07
413.31	3590.38
413.50	3438.25
413.69	3534.21
413.88	3609.11
414.07	3571.66
414.26	3571.66
414.45	3662.94
414.64	3698.05
414.83	3712.09
415.02	3777.62
415.22	3794.01
415.41	3824.44
415.60	3918.06
415.79	3927.42
415.98	3889.97
416.17	3939.12
416.36	3983.59
416.55	4028.06
416.74	4042.11
416.93	4035.08
417.12	4121.68
417.31	4215.30
417.50	4173.18
417.69	4367.44
417.88	4273.82
418.07	4234.03
418.26	4259.78
418.45	4318.29
418.64	4456.38
418.83	4617.88
419.02	4498.51
419.21	4428.29
419.39	4507.87
419.58	4437.66
419.77	4409.57
419.96	4440.00
420.15	4629.58
420.34	4638.94
420.53	4699.80
420.72	4624.90
420.91	4627.24
421.10	4753.63
421.29	4975.98
421.48	4688.09
421.67	4748.95
421.86	4755.97
422.05	4732.56
422.24	4781.71
422.43	4819.16
422.61	4919.81
422.80	4999.38
422.99	4760.65
423.18	4917.47
423.37	5153.86
423.56	5029.81
423.75	4945.55
423.94	4821.50
424.13	4664.69
424.32	4854.27
424.50	5097.69
424.69	5226.42
424.88	5188.97
425.07	4931.51
425.26	4863.63
425.45	5071.94
425.64	5093.01
425.83	4999.38
426.01	5137.48
426.20	4933.85
426.39	5036.83
426.58	5163.22
426.77	5011.09
426.96	5071.94
427.15	5060.24
427.33	5320.04
427.52	5076.62
427.71	5397.28
427.90	5191.31
428.09	5167.90
428.28	5256.84
428.46	5427.70
428.65	5441.75
428.84	5500.26
429.03	5579.84
429.22	5359.83
429.40	5497.92
429.59	5472.17
429.78	5343.44
429.97	5277.91
430.16	5495.58
430.34	5640.69
430.53	5591.54
430.72	5556.43
430.91	5528.35
431.10	5652.39
431.28	5769.42
431.47	5746.02
431.66	5823.25
431.85	5743.67
432.03	5834.96
432.22	5921.56
432.41	6015.18
432.60	5942.62
432.79	6010.50
432.97	6043.26
433.16	6120.50
433.35	6050.28
433.54	6094.76
433.72	6237.53
433.91	6083.05
434.10	6080.71
434.28	6232.85
434.47	6338.17
434.66	6214.12
434.85	6356.90
435.03	6347.53
435.22	6221.14
435.41	6464.56
435.59	6565.20
435.78	6630.74
435.97	6272.64
436.16	6537.12
436.34	6328.81
436.53	6363.92
436.72	6504.35
436.90	6354.55
437.09	6654.14
437.28	6473.92
437.46	6684.57
437.65	6696.27
437.84	6733.72
438.02	6836.70
438.21	6534.78
438.40	6750.10
438.58	7138.63
438.77	7047.35
438.96	7047.35
439.14	6890.54
439.33	7178.42
439.52	7145.66
439.70	7208.85
439.89	7391.41
440.08	7433.54
440.26	7325.88
440.45	7417.16
440.63	7524.82
440.82	7555.25
441.01	7571.63
441.19	7658.23
441.38	7730.79
441.57	7740.15
441.75	7843.14
441.94	8044.42
442.12	7943.78
442.31	7922.71
442.50	8121.66
442.68	7941.44
442.87	8173.15
443.05	8156.77
443.24	8189.53
443.43	8205.92
443.61	8259.75
443.80	8219.96
443.98	8112.30
444.17	7756.54
444.35	8299.54
444.54	8374.44
444.73	8133.36
444.91	8327.63
445.10	8414.23
445.28	8322.94
445.47	8278.47
445.65	8238.69
445.84	8491.46
446.02	8580.40
446.21	8437.63
446.39	8458.70
446.58	8409.54
446.77	8521.89
446.95	8425.93
447.14	8496.14
447.32	8772.33
447.51	8521.89
447.69	8334.65
447.88	8538.27
448.06	8449.33
448.25	8599.13
448.43	8568.70
448.62	8505.51
448.80	8683.39
448.99	8566.36
449.17	8730.20
449.36	8599.13
449.54	8826.16
449.73	8896.38
449.91	9074.26
450.10	9067.24
450.28	9167.88
450.46	9132.77
450.65	9200.65
450.83	9249.80
451.02	9039.15
451.20	9338.74
451.39	9312.99
451.57	9263.84
451.76	9097.66
451.94	9284.91
452.13	9305.97
452.31	9376.19
452.49	9214.69
452.68	9589.17
452.86	9352.78
453.05	9362.14
453.23	9497.89
453.42	9406.61
453.60	9298.95
453.78	9645.35
453.97	9355.12
454.15	9703.86
454.34	9268.52
454.52	9692.16
454.70	9717.90
454.89	9582.15
455.07	9921.53
455.26	9818.55
455.44	9891.10
455.62	10068.98
455.81	9991.75
455.99	10209.42
456.17	10085.37
456.36	10104.09
456.54	10003.45
456.73	10310.06
456.91	10551.14
457.09	10621.35
457.28	10391.98
457.46	10270.27
457.64	10703.27
457.83	10548.79
458.01	10396.66
458.19	10911.58
458.38	10518.37
458.56	10754.76
458.74	10719.65
458.93	10633.05
459.11	10759.44
459.29	10757.10
459.48	11005.20
459.66	10640.08
459.84	11112.86
460.03	11084.78
460.21	10881.15
460.39	10843.70
460.57	10949.03
460.76	11129.25
460.94	11332.87
461.12	11201.80
461.31	11293.08
461.49	11330.53
461.67	11318.83
461.85	11421.81
462.04	11398.41
462.22	11932.05
462.40	11676.93
462.59	11658.21
462.77	11625.44
462.95	11800.98
463.13	11520.12
463.32	11651.19
463.50	11829.07
463.68	11623.10
463.86	12053.76
464.05	11800.98
464.23	11742.47
464.41	11791.62
464.59	11606.72
464.78	12154.40
464.96	12046.74
465.14	11903.96
465.32	12006.95
465.50	12147.38
465.69	12135.68
465.87	12091.21
466.05	12191.85
466.23	12016.31
466.41	12428.24
466.60	12753.58
466.78	12128.66
466.96	12060.78
467.14	12678.68
467.32	12566.34
467.51	12320.58
467.69	12243.34
467.87	12456.33
468.05	12575.70
468.23	12475.06
468.41	12479.74
468.60	12704.43
468.78	12961.89
468.96	12585.06
469.14	13057.85
469.32	12816.77
469.50	12688.04
469.69	13048.49
469.87	12919.76
470.05	12994.65
470.23	13525.96
470.41	13467.44
470.59	13310.63
470.77	13149.13
470.95	13209.98
471.14	13652.34
471.32	13303.60
471.50	13528.30
471.68	13617.24
471.86	13717.88
472.04	13853.63
472.22	14185.99
472.40	13832.57
472.58	13853.63
472.77	14097.05
472.95	14260.88
473.13	14644.73
473.31	14054.92
473.49	14312.38
473.67	14057.26
473.85	14501.96
474.03	14492.60
474.21	14572.18
474.39	14923.26
474.57	14881.13
474.75	15019.22
474.93	15290.72
475.12	14916.23
475.30	15133.90
475.48	15108.16
475.66	15309.44
475.84	15178.37
476.02	15580.95
476.20	15463.92
476.38	15681.59
476.56	15957.77
476.74	16355.66
476.92	15704.99
477.10	15971.82
477.28	16049.05
477.46	16039.69
477.64	16318.22
477.82	16568.65
478.00	16985.27
478.18	16980.59
478.36	16971.22
478.54	17296.56
478.72	17291.88
478.90	17645.30
479.08	17727.22
479.26	17909.78
479.44	17687.43
479.62	18057.23
479.80	18080.64
479.98	18218.73
480.16	18867.06
480.34	18410.65
480.52	18719.60
480.70	18822.59
480.88	18471.51
481.06	18717.26
481.24	18934.93
481.41	19300.06
481.59	19253.25
481.77	19667.52
481.95	19894.55
482.13	19960.09
482.31	19473.26
482.49	20437.56
482.67	20128.61
482.85	20491.39
483.03	20800.34
483.21	20996.95
483.39	20879.92
483.57	20821.41
483.74	21324.62
483.92	21516.54
484.10	21144.40
484.28	21841.88
484.46	21991.67
484.64	22569.79
484.82	21991.67
485.00	22352.12
485.18	22728.94
485.35	23080.02
485.53	23040.23
485.71	23190.03
485.89	23831.33
486.07	23321.10
486.25	23520.04
486.43	23735.37
486.61	24121.56
486.78	24257.31
486.96	24084.11
487.14	24699.67
487.32	24687.97
487.50	25097.56
487.68	25048.41
487.85	25067.14
488.03	25472.05
488.21	25818.45
488.39	25596.10
488.57	26274.85
488.75	26286.56
488.92	26211.66
489.10	26906.80
489.28	26782.75
489.46	27016.80
489.64	27159.58
489.81	27740.03
489.99	27672.15
490.17	27702.58
490.35	28283.03
490.53	28254.95
490.70	28287.71
490.88	28591.98
491.06	29275.42
491.24	28774.55
491.41	29144.35
491.59	29266.06
491.77	29116.26
491.95	29546.92
492.13	30125.04
492.30	30328.66
492.48	30012.69
492.66	30508.88
492.84	30579.10
493.01	31220.41
493.19	30651.66
493.37	30836.56
493.54	31323.39
493.72	31480.21
493.90	31377.22
494.08	31999.80
494.25	32589.62
494.43	32055.98
494.61	32409.40
494.79	32872.82
494.96	32748.78
495.14	33462.64
495.32	33193.48
495.49	33081.13
495.67	33582.01
495.85	33897.98
496.02	33668.61
496.20	34052.45
496.38	34162.46
496.55	34223.31
496.73	35063.57
496.91	34771.00
497.09	35526.99
497.26	35332.73
497.44	35496.56
497.62	35105.70
497.79	36081.70
497.97	35566.78
498.14	36142.55
498.32	36025.53
498.50	36114.47
498.67	36678.54
498.85	36985.15
499.03	36912.59
499.20	37038.98
499.38	36783.86
499.56	37156.00
499.73	37486.02
499.91	37570.28
500.08	37668.58
500.26	37603.05
500.44	37944.76
500.61	37972.85
500.79	38017.32
500.97	38281.80
501.14	38885.66
501.32	38955.88
501.49	38871.62
501.67	38895.02
501.84	39473.13
502.02	39304.62
502.20	39140.78
502.37	39416.96
502.55	39608.89
502.72	39552.71
502.90	39793.79
503.07	39704.85
503.25	40222.11
503.43	40147.21
503.60	40294.66
503.78	40289.98
503.95	40580.21
504.13	40650.42
504.30	40938.31
504.48	40706.60
504.65	41045.97
504.83	41230.88
505.01	41734.09
505.18	41111.51
505.36	41736.43
505.53	41303.43
505.71	41860.48
505.88	42096.88
506.06	41762.18
506.23	42314.55
506.41	42209.22
506.58	42759.25
506.76	42361.36
506.93	42672.65
507.11	42473.70
507.28	42913.72
507.46	43033.09
507.63	43180.54
507.81	43854.62
507.98	43063.52
508.16	43140.75
508.33	43786.74
508.50	43639.29
508.68	44561.46
508.85	43896.75
509.03	44247.83
509.20	44086.33
509.38	44435.07
509.55	44428.05
509.73	44790.83
509.90	44722.96
510.08	44905.52
510.25	45010.84
510.42	44802.53
510.60	45263.62
510.77	45673.21
510.95	45748.11
511.12	45530.44
511.30	44992.12
511.47	45865.14
511.64	45563.21
511.82	45890.88
511.99	45844.07
512.17	46017.27
512.34	46394.10
512.51	46075.79
512.69	46548.57
512.86	46457.29
513.04	46997.96
513.21	47089.24
513.38	46817.74
513.56	46937.10
513.73	46927.74
513.90	47030.72
514.08	47206.26
514.25	47367.76
514.43	47730.54
514.60	47906.08
514.77	47959.92
514.95	47690.76
515.12	47540.96
515.29	47892.04
515.47	48385.89
515.64	48376.53
515.81	47973.96
515.99	48725.27
516.16	48809.53
516.33	48601.22
516.51	48811.87
516.68	48884.43
516.85	49120.82
517.03	49151.25
517.20	49134.87
517.37	49024.86
517.54	49223.81
517.72	49542.12
517.89	49317.43
518.06	49507.01
518.24	49230.83
518.41	49900.22
518.58	49366.58
518.75	49495.31
518.93	49638.08
519.10	49680.21
519.27	49867.45
519.45	50012.57
519.62	50031.29
519.79	50267.69
519.96	50038.31
520.14	50251.30
520.31	50195.13
520.48	50529.83
520.65	50417.48
520.83	50740.47
521.00	51295.18
521.17	50995.59
521.34	50962.82
521.52	50808.35
521.69	51093.89
521.86	51400.50
522.03	50923.04
522.20	51470.72
522.38	51604.13
522.55	51487.10
522.72	51611.15
522.89	51639.24
523.07	51718.82
523.24	51756.27
523.41	51838.18
523.58	51753.93
523.75	52245.44
523.92	52051.17
524.10	52030.11
524.27	52158.84
524.44	52332.04
524.61	52224.37
524.78	52149.48
524.96	52198.63
525.13	52549.71
525.30	52418.64
525.47	52795.46
525.64	52306.29
525.81	52758.02
525.98	52736.95
526.16	53092.71
526.33	52858.66
526.50	53200.38
526.67	52947.60
526.84	53350.17
527.01	53174.63
527.18	53202.72
527.36	53064.63
527.53	53064.63
527.70	53254.21
527.87	53457.84
528.04	53214.42
528.21	53528.05
528.38	53366.55
528.55	53708.27
528.72	53448.47
528.89	53719.98
529.07	53602.95
529.24	53497.62
529.41	54134.25
529.58	54178.72
529.75	53815.94
529.92	54075.74
530.09	54326.17
530.26	54031.27
530.43	54330.86
530.60	54192.76
530.77	54195.10
530.94	54220.85
531.11	54272.34
531.28	54625.76
531.46	54457.24
531.63	54635.13
531.80	54302.77
531.97	54548.53
532.14	54543.84
532.31	54525.12
532.48	54731.09
532.65	54934.71
532.82	54798.96
532.99	54742.79
533.16	54864.50
533.33	54915.99
533.50	55023.65
533.67	55070.46
533.84	54878.54
534.01	55288.13
534.18	54838.75
534.35	55346.65
534.52	55098.55
534.69	55407.50
534.86	55540.91
535.03	55278.77
535.20	55246.00
535.37	55491.76
535.54	55477.72
535.71	55505.80
535.88	55384.10
536.05	55683.69
536.22	55793.69
536.38	55721.13
536.55	55760.92
536.72	55791.35
536.89	55744.54
537.06	55725.81
537.23	55955.19
537.40	55690.71
537.57	55938.80
537.74	55786.67
537.91	56236.05
538.08	55833.48
538.25	55646.24
538.42	55971.57
538.59	56212.65
538.75	56133.07
538.92	56207.97
539.09	56470.11
539.26	56313.29
539.43	56179.88
539.60	56526.28
539.77	56346.06
539.94	56549.68
540.11	56603.52
540.28	56411.59
540.44	56465.42
540.61	56638.62
540.78	56659.69
540.95	56467.76
541.12	56404.57
541.29	56413.93
541.46	56652.67
541.62	56722.88
541.79	56942.89
541.96	56542.66
542.13	56638.62
542.30	56879.70
542.47	56872.68
542.63	56926.51
542.80	56987.36
542.97	57226.10
543.14	57446.11
543.31	57352.49
543.48	57078.64
543.64	57607.61
543.81	57324.40
543.98	57364.19
544.15	57516.32
544.32	57663.78
544.48	57616.97
544.65	57308.02
544.82	57712.93
544.99	57387.60
545.16	57813.57
545.32	57511.64
545.49	57654.42
545.66	58094.44
545.83	57762.08
546.00	57977.41
546.16	57659.10
546.33	57897.83
546.50	57673.14
546.67	57757.40
546.83	57567.82
547.00	58059.33
547.17	57832.30
547.34	57879.11
547.50	58181.04
547.67	58176.36
547.84	58085.07
548.00	58375.30
548.17	58391.68
548.34	58094.44
548.51	58379.98
548.67	58489.99
548.84	58415.09
549.01	58204.44
549.18	58358.92
549.34	58361.26
549.51	58284.02
549.68	58461.90
549.84	58475.94
550.01	58520.41
550.18	58349.56
550.34	58515.73
550.51	58548.50
550.68	58742.77
550.84	58433.81
551.01	58719.36
551.18	58405.73
551.34	58621.06
551.51	58677.23
551.68	58667.87
551.84	58740.42
552.01	58508.71
552.18	58883.20
552.34	58656.17
552.51	58702.98
552.68	58894.90
552.84	58773.19
553.01	58932.35
553.18	59152.36
553.34	59168.74
553.51	58974.48
553.67	59030.65
553.84	59075.12
554.01	59021.29
554.17	59196.83
554.34	59161.72
554.51	59220.23
554.67	59133.63
554.84	59114.91
555.00	59245.98
555.17	59004.91
555.33	59206.19
555.50	58848.09
555.67	59229.60
555.83	59206.19
556.00	59245.98
556.16	59669.62
556.33	59304.49
556.50	59323.22
556.66	59463.65
556.83	59255.34
556.99	59407.48
557.16	59480.03
557.32	59517.48
557.49	59601.74
557.65	59351.30
557.82	59543.23
557.98	59543.23
558.15	59648.55
558.32	59735.15
558.48	59449.61
558.65	59749.20
558.81	59451.95
558.98	59653.23
559.14	59767.92
559.31	59702.38
559.47	59681.32
559.64	59856.86
559.80	59891.97
559.97	59994.95
560.13	59625.15
560.30	60037.08
560.46	59831.11
560.63	60074.53
560.79	59913.03
560.96	59821.75
561.12	60011.34
561.29	60072.19
561.45	60030.06
561.61	59882.61
561.78	59880.27
561.94	59866.22
562.11	59920.05
562.27	59999.63
562.44	60175.17
562.60	60282.84
562.77	60196.24
562.93	60072.19
563.10	60233.69
563.26	60212.62
563.42	60313.26
563.59	60165.81
563.75	60025.38
563.92	60271.14
564.08	60107.30
564.24	60521.57
564.41	60315.61
564.57	60264.11
564.74	60526.25
564.90	60301.56
565.07	60294.54
565.23	60210.28
565.39	60210.28
565.56	60402.21
565.72	60144.75
565.88	60217.30
566.05	60165.81
566.21	60360.08
566.38	60303.90
566.54	60406.89
566.70	60554.34
566.87	60446.68
567.03	60224.32
567.19	60537.96
567.36	60420.93
567.52	60336.67
567.68	60690.09
567.85	60339.01
568.01	60631.58
568.17	60266.45
568.34	60463.06
568.50	60498.17
568.66	60505.19
568.83	60594.13
568.99	60509.87
569.15	60544.98
569.32	60612.85
569.48	60610.51
569.64	60734.56
569.81	60486.46
569.97	60552.00
570.13	60484.12
570.30	60514.55
570.46	60636.26
570.62	60919.46
570.78	60767.33
570.95	60449.02
571.11	60736.90
571.27	60559.02
571.43	60687.75
571.60	60987.34
571.76	60704.13
571.92	60678.39
572.09	60753.29
572.25	60659.66
572.41	60692.43
572.57	60647.96
572.74	60882.02
572.90	60594.13
573.06	60629.24
573.22	60629.24
573.38	60781.37
573.55	60664.35
573.71	60959.25
573.87	61006.06
574.03	60671.37
574.20	60809.46
574.36	60795.42
574.52	60839.89
574.68	60594.13
574.84	61027.13
575.01	60985.00
575.17	60718.18
575.33	60828.18
575.49	60793.07
575.65	61006.06
575.82	60917.12
575.98	60636.26
576.14	61151.18
576.30	60973.30
576.46	60727.54
576.62	60903.08
576.79	60779.03
576.95	61085.64
577.11	60938.19
577.27	60935.85
577.43	60872.65
577.59	61020.11
577.75	60877.33
577.92	60959.25
578.08	60877.33
578.24	60844.57
578.40	61073.94
578.56	60970.96
578.72	61076.28
578.88	61174.58
579.04	61048.19
579.21	61085.64
579.37	61109.05
579.53	61167.56
579.69	60912.44
579.85	60898.40
580.01	60985.00
580.17	60893.72
580.33	60982.66
580.49	61111.39
580.65	60980.32
580.82	60849.25
580.98	60970.96
581.14	60917.12
581.30	61080.96
581.46	61015.43
581.62	61111.39
581.78	60928.83
581.94	60940.53
582.10	61006.06
582.26	61066.92
582.42	60982.66
582.58	60928.83
582.74	61073.94
582.90	61085.64
583.06	60973.30
583.22	61001.38
583.38	61181.60
583.54	61120.75
583.70	61197.99
583.86	61113.73
584.02	60926.49
584.18	61031.81
584.34	61226.07
584.50	61205.01
584.66	61010.74
584.82	60884.36
584.98	61078.62
585.14	61118.41
585.30	61207.35
585.46	60968.61
585.62	61048.19
585.78	61380.55
585.94	61036.49
586.10	61151.18
586.26	61174.58
586.42	61258.84
586.58	61221.39
586.74	61237.78
586.90	61083.30
587.06	60996.70
587.22	61277.57
587.38	61188.63
587.54	61553.75
587.70	61244.80
587.86	61186.28
588.02	61113.73
588.18	61354.80
588.34	61240.12
588.49	61181.60
