SpectraSuite Data File
++++++++++++++++++++++++++++++++++++
Date: Fri Oct 25 11:26:15 EDT 2013
User: price-jones
Dark Spectrum Present: No
Reference Spectrum Present: No
Number of Sampled Component Spectra: 1
Spectrometers: USB2+H05261
Integration Time (usec): 100000 (USB2+H05261)
Spectra Averaged: 1 (USB2+H05261)
Boxcar Smoothing: 0 (USB2+H05261)
Correct for Electrical Dark: No (USB2+H05261)
Strobe/Lamp Enabled: No (USB2+H05261)
Correct for Detector Non-linearity: No (USB2+H05261)
Correct for Stray Light: No (USB2+H05261)
Number of Pixels in Processed Spectrum: 2048
>>>>>Begin Processed Spectral Data<<<<<
365.73	215.33
365.92	215.33
366.12	215.33
366.32	191.92
366.52	184.90
366.72	140.43
366.91	189.58
367.11	81.92
367.31	93.62
367.51	88.94
367.70	159.16
367.90	173.20
368.10	93.62
368.30	131.07
368.49	140.43
368.69	95.96
368.89	161.50
369.09	191.92
369.28	175.54
369.48	191.92
369.68	170.86
369.87	198.95
370.07	264.48
370.27	257.46
370.47	304.27
370.66	505.56
370.86	585.13
371.06	683.44
371.25	711.52
371.45	711.52
371.65	662.37
371.84	606.20
372.04	744.29
372.24	763.01
372.44	711.52
372.63	746.63
372.83	793.44
373.03	821.53
373.22	741.95
373.42	786.42
373.62	807.48
373.81	730.25
374.01	837.91
374.21	821.53
374.40	812.17
374.60	847.27
374.79	791.10
374.99	826.21
375.19	894.08
375.38	877.70
375.58	877.70
375.78	873.02
375.97	912.81
376.17	856.64
376.37	945.58
376.56	901.11
376.76	924.51
376.95	910.47
377.15	912.81
377.35	924.51
377.54	938.55
377.74	809.83
377.93	887.06
378.13	933.87
378.33	1029.84
378.52	856.64
378.72	961.96
378.91	922.17
379.11	905.79
379.31	992.39
379.50	915.15
379.70	1011.11
379.89	1060.26
380.09	954.94
380.28	947.92
380.48	959.62
380.68	966.64
380.87	954.94
381.07	933.87
381.26	964.30
381.46	978.34
381.65	1076.65
381.85	985.37
382.04	1067.28
382.24	1074.31
382.43	1039.20
382.63	1102.39
382.83	1083.67
383.02	1100.05
383.22	1081.33
383.41	1088.35
383.61	1118.78
383.80	1191.33
384.00	1121.12
384.19	1153.88
384.39	1151.54
384.58	1193.67
384.78	1132.82
384.97	1203.04
385.17	1167.93
385.36	1217.08
385.56	1179.63
385.75	1221.76
385.95	1240.48
386.14	1156.22
386.34	1214.74
386.53	1160.91
386.72	1196.01
386.92	1392.62
387.11	1289.64
387.31	1205.38
387.50	1233.46
387.70	1219.42
387.89	1275.59
388.09	1324.74
388.28	1322.40
388.48	1268.57
388.67	1259.21
388.86	1259.21
389.06	1306.02
389.25	1350.49
389.45	1296.66
389.64	1327.08
389.84	1394.96
390.03	1357.51
390.22	1369.21
390.42	1425.39
390.61	1350.49
390.81	1462.83
391.00	1366.87
391.19	1369.21
391.39	1462.83
391.58	1392.62
391.78	1514.33
391.97	1469.86
392.16	1558.80
392.36	1504.96
392.55	1614.97
392.75	1526.03
392.94	1483.90
393.13	1556.46
393.33	1544.75
393.52	1570.50
393.71	1547.09
393.91	1575.18
394.10	1591.56
394.29	1591.56
394.49	1591.56
394.68	1600.93
394.88	1593.90
395.07	1696.89
395.26	1774.13
395.46	1701.57
395.65	1678.16
395.84	1757.74
396.04	1643.06
396.23	1746.04
396.42	1722.63
396.62	1837.32
396.81	1811.57
397.00	1804.55
397.19	1804.55
397.39	1687.53
397.58	1776.47
397.77	1804.55
397.97	1888.81
398.16	1834.98
398.35	1823.28
398.55	1811.57
398.74	1909.88
398.93	1849.02
399.12	1879.45
399.32	1954.35
399.51	1860.73
399.70	2071.37
399.90	2008.18
400.09	1996.48
400.28	2012.86
400.47	1989.46
400.67	2066.69
400.86	2001.16
401.05	2071.37
401.24	2052.65
401.44	2101.80
401.63	2080.74
401.82	2162.66
402.01	2073.71
402.21	2249.25
402.40	2265.64
402.59	2225.85
402.78	2335.85
402.97	2216.49
403.17	2221.17
403.36	2265.64
403.55	2331.17
403.74	2291.38
403.93	2235.21
404.13	2342.88
404.32	2347.56
404.51	2366.28
404.70	2373.30
404.89	2382.67
405.09	2487.99
405.28	2380.32
405.47	2485.65
405.66	2518.42
405.85	2581.61
406.05	2527.78
406.24	2483.31
406.43	2590.97
406.62	2443.52
406.81	2796.94
407.00	2466.92
407.20	2562.89
407.39	2574.59
407.58	2605.02
407.77	2757.15
407.96	2640.12
408.15	2670.55
408.34	2691.62
408.54	2813.32
408.73	2869.50
408.92	2757.15
409.11	2846.09
409.30	2946.73
409.49	2918.65
409.68	2888.22
409.87	2818.00
410.07	3019.29
410.26	2986.52
410.45	2939.71
410.64	2965.46
410.83	3112.91
411.02	3166.74
411.21	3187.81
411.40	3173.77
411.59	3152.70
411.78	3201.85
411.98	3098.87
412.17	3105.89
412.36	3304.84
412.55	3363.35
412.74	3370.37
412.93	3363.35
413.12	3330.58
413.31	3445.27
413.50	3386.76
413.69	3515.48
413.88	3475.70
414.07	3602.08
414.26	3613.79
414.45	3609.11
414.64	3770.60
414.83	3751.88
415.02	3721.45
415.22	3918.06
415.41	3913.38
415.60	3859.54
415.79	3854.86
415.98	3997.64
416.17	3936.78
416.36	3962.53
416.55	3868.91
416.74	3929.76
416.93	4128.70
417.12	4095.94
417.31	3985.93
417.50	4264.46
417.69	4212.96
417.88	4215.30
418.07	4262.12
418.26	4170.83
418.45	4344.03
418.64	4510.21
418.83	4337.01
419.02	4299.56
419.21	4423.61
419.39	4493.83
419.58	4470.42
419.77	4407.23
419.96	4479.79
420.15	4571.07
420.34	4671.71
420.53	4561.70
420.72	4643.62
420.91	4748.95
421.10	4683.41
421.29	4901.08
421.48	4545.32
421.67	4779.37
421.86	4697.46
422.05	4746.61
422.24	4802.78
422.43	4971.30
422.61	4809.80
422.80	5062.58
422.99	4980.66
423.18	4945.55
423.37	4940.87
423.56	4765.33
423.75	4891.72
423.94	4683.41
424.13	4645.96
424.32	4826.18
424.50	4957.25
424.69	5114.07
424.88	5181.95
425.07	5036.83
425.26	4945.55
425.45	4943.21
425.64	4889.38
425.83	4917.47
426.01	4961.94
426.20	5214.71
426.39	5025.13
426.58	5036.83
426.77	5139.82
426.96	5139.82
427.15	5275.57
427.33	5331.74
427.52	5132.79
427.71	5233.44
427.90	5177.26
428.09	5207.69
428.28	5245.14
428.46	5341.10
428.65	5369.19
428.84	5411.32
429.03	5511.96
429.22	5331.74
429.40	5397.28
429.59	5511.96
429.78	5301.31
429.97	5329.40
430.16	5418.34
430.34	5514.30
430.53	5673.46
430.72	5687.50
430.91	5596.22
431.10	5596.22
431.28	5715.59
431.47	5746.02
431.66	5769.42
431.85	5809.21
432.03	6012.84
432.22	5982.41
432.41	5874.74
432.60	5928.58
432.79	5968.37
432.97	6024.54
433.16	6033.90
433.35	6017.52
433.54	6017.52
433.72	6129.86
433.91	6193.06
434.10	6228.17
434.28	6216.46
434.47	6244.55
434.66	6195.40
434.85	6384.98
435.03	6387.32
435.22	6307.74
435.41	6452.86
435.59	6544.14
435.78	6455.20
435.97	6506.69
436.16	6499.67
436.34	6356.90
436.53	6471.58
436.72	6715.00
436.90	6291.36
437.09	6513.71
437.28	6530.09
437.46	6668.19
437.65	6441.15
437.84	6782.87
438.02	6803.94
438.21	6733.72
438.40	6705.63
438.58	6911.60
438.77	7054.37
438.96	6909.26
439.14	6979.48
439.33	7070.76
439.52	7087.14
439.70	7164.38
439.89	7356.30
440.08	7358.64
440.26	7321.20
440.45	7232.26
440.63	7281.41
440.82	7508.44
441.01	7543.55
441.19	7571.63
441.38	7754.19
441.57	7824.41
441.75	7688.66
441.94	7976.55
442.12	8030.38
442.31	8011.65
442.50	7885.26
442.68	7700.36
442.87	7990.59
443.05	8182.51
443.24	8121.66
443.43	8100.59
443.61	8241.03
443.80	8397.84
443.98	8042.08
444.17	7833.77
444.35	8147.40
444.54	8369.76
444.73	8208.26
444.91	8329.97
445.10	8393.16
445.28	8482.10
445.47	8184.85
445.65	8372.10
445.84	8283.16
446.02	8521.89
446.21	8241.03
446.39	8339.33
446.58	8423.59
446.77	8414.23
446.95	8496.14
447.14	8322.94
447.32	8507.85
447.51	8334.65
447.69	8575.72
447.88	8566.36
448.06	8500.83
448.25	8549.98
448.43	8662.32
448.62	8643.60
448.80	8456.36
448.99	8683.39
449.17	8716.16
449.36	8664.66
449.54	8746.58
449.73	9053.19
449.91	8915.10
450.10	8662.32
450.28	9202.99
450.46	9057.87
450.65	8994.68
450.83	8992.34
451.02	9158.52
451.20	9289.59
451.39	9020.42
451.57	9083.62
451.76	9067.24
451.94	9261.50
452.13	9343.42
452.31	9142.13
452.49	9116.39
452.68	9336.40
452.86	9160.86
453.05	9528.32
453.23	9537.68
453.42	9357.46
453.60	9357.46
453.78	9624.28
453.97	9390.23
454.15	9432.36
454.34	9397.25
454.52	9561.09
454.70	9671.09
454.89	9635.99
455.07	9666.41
455.26	9680.46
455.44	9886.42
455.62	9776.42
455.81	9940.26
455.99	9776.42
456.17	10012.81
456.36	9944.94
456.54	10132.18
456.73	10202.40
456.91	10544.11
457.09	10553.48
457.28	10497.30
457.46	10576.88
457.64	10567.52
457.83	10494.96
458.01	10410.70
458.19	10478.58
458.38	10551.14
458.56	10792.21
458.74	10614.33
458.93	10656.46
459.11	10682.20
459.29	10651.78
459.48	10607.31
459.66	10738.38
459.84	10951.37
460.03	11110.52
460.21	10895.19
460.39	10785.19
460.57	10953.71
460.76	11014.56
460.94	11187.76
461.12	11091.80
461.31	11082.44
461.49	11257.98
461.67	11119.89
461.85	11140.95
462.04	11255.64
462.22	11838.43
462.40	11662.89
462.59	11307.13
462.77	11578.63
462.95	11721.40
463.13	11461.60
463.32	11592.67
463.50	11768.21
463.68	11800.98
463.86	11836.09
464.05	11808.00
464.23	11712.04
464.41	11779.92
464.59	11735.45
464.78	12161.42
464.96	11995.25
465.14	12011.63
465.32	11927.37
465.50	12112.27
465.69	12341.64
465.87	12327.60
466.05	12112.27
466.23	12065.46
466.41	11997.59
466.60	12465.69
466.78	11992.90
466.96	12259.73
467.14	12196.53
467.32	12465.69
467.51	12259.73
467.69	12414.20
467.87	12259.73
468.05	12348.67
468.23	12493.78
468.41	12552.29
468.60	12580.38
468.78	12664.64
468.96	12479.74
469.14	12807.41
469.32	13046.15
469.50	12533.57
469.69	12807.41
469.87	13055.51
470.05	13046.15
470.23	13006.36
470.41	13125.72
470.59	13273.18
470.77	13130.41
470.95	13284.88
471.14	13273.18
471.32	13186.58
471.50	13570.43
471.68	13366.80
471.86	13425.31
472.04	13710.86
472.22	14281.95
472.40	13731.92
472.58	13666.39
472.77	14080.66
472.95	14022.15
473.13	14654.09
473.31	13956.61
473.49	13902.78
473.67	14136.84
473.85	14090.02
474.03	14569.83
474.21	14370.89
474.39	14944.32
474.57	14721.97
474.75	14848.36
474.93	14897.51
475.12	14925.60
475.30	14970.07
475.48	15101.14
475.66	15021.56
475.84	15246.25
476.02	15276.68
476.20	15335.19
476.38	15489.67
476.56	15817.34
476.74	15857.13
476.92	15826.70
477.10	15667.55
477.28	16046.71
477.46	15964.79
477.64	16079.48
477.82	16458.65
478.00	16915.05
478.18	16580.36
478.36	16975.91
478.54	17245.07
478.72	16982.93
478.90	17319.96
479.08	17642.96
479.26	17497.84
479.44	17877.01
479.62	17720.20
479.80	18317.03
479.98	18082.98
480.16	18691.52
480.34	18415.34
480.52	18871.74
480.70	18317.03
480.88	18478.53
481.06	18356.82
481.24	18827.27
481.41	19222.82
481.59	19035.58
481.77	19538.79
481.95	19381.98
482.13	19812.63
482.31	19580.92
482.49	20006.90
482.67	20058.39
482.85	20332.23
483.03	20549.90
483.21	20648.21
483.39	20552.24
483.57	20709.06
483.74	21078.86
483.92	21259.09
484.10	21312.92
484.28	21472.07
484.46	21858.26
484.64	22066.57
484.82	22132.11
485.00	22398.93
485.18	22710.22
485.35	22937.25
485.53	22874.06
485.71	22841.29
485.89	23592.60
486.07	23115.13
486.25	23103.43
486.43	23309.40
486.61	24032.62
486.78	24191.78
486.96	24119.22
487.14	24133.26
487.32	24254.97
487.50	24664.57
487.68	24851.81
487.85	25195.87
488.03	25324.60
488.21	25717.81
488.39	25745.89
488.57	26047.82
488.75	26122.72
488.92	26553.38
489.10	26696.15
489.28	26710.19
489.46	27070.64
489.64	26764.03
489.81	27529.38
489.99	27246.18
490.17	27754.07
490.35	28041.96
490.53	28397.72
490.70	28369.63
490.88	28329.84
491.06	28697.31
491.24	28933.70
491.41	28872.85
491.59	29200.52
491.77	28882.21
491.95	29539.90
492.13	29425.22
492.30	29785.66
492.48	29935.45
492.66	30253.76
492.84	30293.55
493.01	30595.48
493.19	30314.62
493.37	30937.20
493.54	31388.92
493.72	31091.68
493.90	31243.81
494.08	31536.38
494.25	31915.54
494.43	32421.10
494.61	32266.63
494.79	32259.60
494.96	32428.12
495.14	32905.59
495.32	32931.34
495.49	32776.86
495.67	32966.45
495.85	33422.85
496.02	33914.36
496.20	33954.15
496.38	33902.66
496.55	33825.42
496.73	34768.66
496.91	34604.82
497.09	34614.18
497.26	34565.03
497.44	34885.68
497.62	34892.71
497.79	35592.53
497.97	35299.96
498.14	35840.62
498.32	35931.90
498.50	35941.27
498.67	36070.00
498.85	36212.77
499.03	36500.65
499.20	36636.41
499.38	36741.73
499.56	37046.00
499.73	37048.34
499.91	36959.40
500.08	37411.12
500.26	37263.67
500.44	37270.69
500.61	37738.80
500.79	37502.40
500.97	38054.77
501.14	38742.89
501.32	38352.02
501.49	38522.88
501.67	38464.36
501.84	38773.31
502.02	38560.33
502.20	38951.20
502.37	39047.16
502.55	39098.65
502.72	39601.86
502.90	39754.00
503.07	39477.82
503.25	39592.50
503.43	39414.62
503.60	39981.03
503.78	40257.21
503.95	40079.33
504.13	40374.24
504.30	40573.19
504.48	40821.28
504.65	40355.52
504.83	40725.32
505.01	41139.60
505.18	41137.26
505.36	41205.13
505.53	41310.46
505.71	41511.74
505.88	41535.15
506.06	41181.73
506.23	41591.32
506.41	41647.49
506.58	41942.40
506.76	42029.00
506.93	42342.63
507.11	41989.21
507.28	42471.36
507.46	42314.55
507.63	42880.95
507.81	42948.83
507.98	42693.71
508.16	43391.19
508.33	43213.31
508.50	43143.09
508.68	43777.38
508.85	43957.60
509.03	43676.74
509.20	43723.55
509.38	43985.69
509.55	44128.46
509.73	44786.15
509.90	44472.52
510.08	44032.50
510.25	44402.30
510.42	44589.55
510.60	44835.30
510.77	44706.57
510.95	45069.36
511.12	45038.93
511.30	44755.72
511.47	45500.01
511.64	45649.81
511.82	45497.67
511.99	45478.95
512.17	45888.54
512.34	45907.27
512.51	45900.25
512.69	46328.56
512.86	46024.29
513.04	46735.82
513.21	46426.87
513.38	46548.57
513.56	46808.37
513.73	46504.10
513.90	47047.11
514.08	46529.85
514.25	47276.48
514.43	47215.63
514.60	47613.52
514.77	47437.98
514.95	47515.22
515.12	47229.67
515.29	47569.05
515.47	48018.43
515.64	47807.78
515.81	47805.44
515.99	48067.58
516.16	48362.49
516.33	48156.52
516.51	48493.56
516.68	47997.37
516.85	48325.04
517.03	48781.45
517.20	48559.09
517.37	48692.50
517.54	49155.93
517.72	48678.46
517.89	48746.34
518.06	49043.59
518.24	49134.87
518.41	48772.08
518.58	49303.38
518.75	49235.51
518.93	49137.21
519.10	49233.17
519.27	49502.33
519.45	49483.61
519.62	49553.82
519.79	49750.43
519.96	50101.51
520.14	50145.98
520.31	49717.66
520.48	50071.08
520.65	50529.83
520.83	50623.45
521.00	50389.39
521.17	50363.65
521.34	50255.98
521.52	50752.18
521.69	50897.29
521.86	50632.81
522.03	50866.86
522.20	51227.31
522.38	51358.38
522.55	51522.21
522.72	50908.99
522.89	51224.96
523.07	51416.89
523.24	51393.48
523.41	51632.22
523.58	51143.05
523.75	51728.18
523.92	51636.90
524.10	51569.02
524.27	51744.56
524.44	51814.78
524.61	51941.17
524.78	51990.32
524.96	52102.67
525.13	52065.22
525.30	52329.70
525.47	52392.89
525.64	52203.31
525.81	52315.65
525.98	52472.47
526.16	52402.25
526.33	52566.09
526.50	52846.96
526.67	52896.11
526.84	52713.55
527.01	52554.39
527.18	52692.48
527.36	52662.05
527.53	53010.79
527.70	53069.31
527.87	53202.72
528.04	52956.96
528.21	53099.73
528.38	53116.12
528.55	53488.26
528.72	53216.76
528.89	53483.58
529.07	53354.85
529.24	53359.53
529.41	53549.12
529.58	53815.94
529.75	53523.37
529.92	53638.06
530.09	53872.11
530.26	53619.33
530.43	53998.50
530.60	53963.39
530.77	53748.06
530.94	54068.72
531.11	53865.09
531.28	53801.89
531.46	54019.56
531.63	54227.87
531.80	54195.10
531.97	54204.47
532.14	54447.88
532.31	54358.94
532.48	54520.44
532.65	54492.35
532.82	54333.20
532.99	54616.40
533.16	54578.95
533.33	54698.32
533.50	54728.75
533.67	54571.93
533.84	54501.71
534.01	54951.10
534.18	54658.53
534.35	55241.32
534.52	54960.46
534.69	55054.08
534.86	55042.38
535.03	54831.73
535.20	55138.34
535.37	55238.98
535.54	55203.88
535.71	55253.03
535.88	55480.06
536.05	55398.14
536.22	55480.06
536.38	55725.81
536.55	55339.63
536.72	55384.10
536.89	55458.99
537.06	55437.93
537.23	55597.09
537.40	55498.78
537.57	55402.82
537.74	55641.56
537.91	56027.74
538.08	55838.16
538.25	55508.14
538.42	56055.83
538.59	55983.27
538.75	55721.13
538.92	55999.66
539.09	55962.21
539.26	55976.25
539.43	56156.47
539.60	56282.86
539.77	56271.16
539.94	56451.38
540.11	56413.93
540.28	56240.73
540.44	56329.67
540.61	56339.04
540.78	56238.39
540.95	56154.13
541.12	56339.04
541.29	56233.71
541.46	56477.13
541.62	56423.29
541.79	56491.17
541.96	56252.44
542.13	56633.94
542.30	56584.79
542.47	56860.97
542.63	56844.59
542.80	57022.47
542.97	56865.66
543.14	57034.17
543.31	57190.99
543.48	57027.15
543.64	57116.09
543.81	57219.08
543.98	57223.76
544.15	57137.16
544.32	57268.23
544.48	57298.65
544.65	57485.90
544.82	57366.53
544.99	57251.84
545.16	57277.59
545.32	57275.25
545.49	57661.44
545.66	57736.34
545.83	57436.75
546.00	57614.63
546.16	57570.16
546.33	57476.54
546.50	57336.10
546.67	57492.92
546.83	57537.39
547.00	57759.74
547.17	57478.88
547.34	57670.80
547.50	57855.70
547.67	57925.92
547.84	57930.60
548.00	57886.13
548.17	58087.42
548.34	57895.49
548.51	58131.89
548.67	58227.85
548.84	58078.05
549.01	57874.43
549.18	58073.37
549.34	57993.79
549.51	58131.89
549.68	58211.46
549.84	58019.54
550.01	58511.05
550.18	58052.31
550.34	58213.80
550.51	58415.09
550.68	58272.32
550.84	58216.14
551.01	58539.14
551.18	58323.81
551.34	58391.68
551.51	58401.05
551.68	58417.43
551.84	58546.16
552.01	58431.47
552.18	58550.84
552.34	58440.84
552.51	58534.46
552.68	58625.74
552.84	58787.24
553.01	58740.42
553.18	58679.57
553.34	59016.61
553.51	58550.84
553.67	58752.13
553.84	59035.33
554.01	58939.37
554.17	59032.99
554.34	59032.99
554.51	58791.92
554.67	58899.58
554.84	58824.68
555.00	58986.18
555.17	58848.09
555.33	58927.67
555.50	58894.90
555.67	59054.06
555.83	58820.00
556.00	58997.88
556.16	59264.70
556.33	59203.85
556.50	59159.38
556.66	59320.88
556.83	59175.76
556.99	59075.12
557.16	59414.50
557.32	59337.26
557.49	59566.63
557.65	59234.28
557.82	59295.13
557.98	59173.42
558.15	59206.19
558.32	59309.18
558.48	59236.62
558.65	59613.44
558.81	59419.18
558.98	59571.32
559.14	59487.06
559.31	59344.28
559.47	59386.41
559.64	59470.67
559.80	59568.97
559.97	59688.34
560.13	59327.90
560.30	59716.43
560.46	59749.20
560.63	59678.98
560.79	59760.90
560.96	59753.88
561.12	59910.69
561.29	59831.11
561.45	59688.34
561.61	59728.13
561.78	59751.54
561.94	59580.68
562.11	59690.68
562.27	59655.57
562.44	59889.63
562.60	59997.29
562.77	59959.84
562.93	59833.46
563.10	59678.98
563.26	59924.74
563.42	60324.97
563.59	59973.89
563.75	59854.52
563.92	59831.11
564.08	59847.50
564.24	59969.21
564.41	60247.73
564.57	60046.44
564.74	59980.91
564.90	60074.53
565.07	59711.75
565.23	60046.44
565.39	60104.96
565.56	60037.08
565.72	60074.53
565.88	60119.00
566.05	60156.45
566.21	59992.61
566.38	60203.26
566.54	60212.62
566.70	60268.79
566.87	60243.05
567.03	59842.82
567.19	60240.71
567.36	60177.51
567.52	60399.86
567.68	60418.59
567.85	60149.43
568.01	60397.52
568.17	60184.54
568.34	60313.26
568.50	60214.96
568.66	60121.34
568.83	60310.92
568.99	60329.65
569.15	60301.56
569.32	60329.65
569.48	60231.35
569.64	60418.59
569.81	60205.60
569.97	60243.05
570.13	60402.21
570.30	60245.39
570.46	60374.12
570.62	60388.16
570.78	60233.69
570.95	60123.68
571.11	60727.54
571.27	60383.48
571.43	60243.05
571.60	60383.48
571.76	60610.51
571.92	60446.68
572.09	60556.68
572.25	60535.62
572.41	60406.89
572.57	60439.65
572.74	60615.19
572.90	60437.31
573.06	60566.04
573.22	60357.74
573.38	60547.32
573.55	60381.14
573.71	60624.56
573.87	60746.26
574.03	60388.16
574.20	60636.26
574.36	60516.89
574.52	60575.40
574.68	60750.94
574.84	60788.39
575.01	60647.96
575.17	60708.82
575.33	60772.01
575.49	60594.13
575.65	60598.81
575.82	60755.63
575.98	60676.05
576.14	60856.27
576.30	60732.22
576.46	60465.40
576.62	60699.45
576.79	60732.22
576.95	60755.63
577.11	60844.57
577.27	60973.30
577.43	60781.37
577.59	60711.16
577.75	60811.80
577.92	60472.42
578.08	60645.62
578.24	60853.93
578.40	60671.37
578.56	60830.52
578.72	60645.62
578.88	60942.87
579.04	61048.19
579.21	60816.48
579.37	60823.50
579.53	60912.44
579.69	60685.41
579.85	60743.92
580.01	60797.76
580.17	60540.30
580.33	60692.43
580.49	60856.27
580.65	60835.20
580.82	60900.74
580.98	60629.24
581.14	60839.89
581.30	60807.12
581.46	60650.30
581.62	60973.30
581.78	60718.18
581.94	61010.74
582.10	60657.32
582.26	60764.99
582.42	60757.97
582.58	60912.44
582.74	60760.31
582.90	60844.57
583.06	60793.07
583.22	60727.54
583.38	60713.50
583.54	60886.70
583.70	60821.16
583.86	60858.61
584.02	60750.94
584.18	61120.75
584.34	60874.99
584.50	60800.10
584.66	60741.58
584.82	60753.29
584.98	60940.53
585.14	60903.08
585.30	60814.14
585.46	61024.79
585.62	60931.17
585.78	61258.84
585.94	60577.75
586.10	60879.67
586.26	61001.38
586.42	60858.61
586.58	61167.56
586.74	60842.23
586.90	60877.33
587.06	61001.38
587.22	61057.56
587.38	60783.71
587.54	61008.40
587.70	61034.15
587.86	61015.43
588.02	61113.73
588.18	60942.87
588.34	60898.40
588.49	60835.20
