SpectraSuite Data File
++++++++++++++++++++++++++++++++++++
Date: Fri Oct 25 11:26:27 EDT 2013
User: price-jones
Dark Spectrum Present: No
Reference Spectrum Present: No
Number of Sampled Component Spectra: 1
Spectrometers: USB2+H05261
Integration Time (usec): 100000 (USB2+H05261)
Spectra Averaged: 1 (USB2+H05261)
Boxcar Smoothing: 0 (USB2+H05261)
Correct for Electrical Dark: No (USB2+H05261)
Strobe/Lamp Enabled: No (USB2+H05261)
Correct for Detector Non-linearity: No (USB2+H05261)
Correct for Stray Light: No (USB2+H05261)
Number of Pixels in Processed Spectrum: 2048
>>>>>Begin Processed Spectral Data<<<<<
365.73	297.25
365.92	297.25
366.12	297.25
366.32	110.01
366.52	128.73
366.72	175.54
366.91	79.58
367.11	93.62
367.31	70.22
367.51	100.64
367.70	187.24
367.90	107.66
368.10	152.13
368.30	145.11
368.49	114.69
368.69	198.95
368.89	184.90
369.09	154.48
369.28	180.22
369.48	175.54
369.68	156.82
369.87	217.67
370.07	222.35
370.27	269.16
370.47	362.78
370.66	615.56
370.86	641.31
371.06	608.54
371.25	613.22
371.45	631.94
371.65	753.65
371.84	674.07
372.04	660.03
372.24	793.44
372.44	851.96
372.63	746.63
372.83	795.78
373.03	814.51
373.22	791.10
373.42	765.36
373.62	777.06
373.81	812.17
374.01	795.78
374.21	791.10
374.40	844.93
374.60	959.62
374.79	788.76
374.99	837.91
375.19	849.61
375.38	809.83
375.58	884.72
375.78	842.59
375.97	805.14
376.17	936.21
376.37	882.38
376.56	868.34
376.76	908.13
376.95	830.89
377.15	847.27
377.35	875.36
377.54	933.87
377.74	891.74
377.93	922.17
378.13	971.32
378.33	922.17
378.52	924.51
378.72	933.87
378.91	882.38
379.11	861.32
379.31	1015.79
379.50	898.77
379.70	1034.52
379.89	1032.18
380.09	924.51
380.28	952.60
380.48	1027.50
380.68	1057.92
380.87	919.83
381.07	999.41
381.26	1027.50
381.46	990.05
381.65	1093.03
381.85	1029.84
382.04	1032.18
382.24	1055.58
382.43	987.71
382.63	1018.13
382.83	1146.86
383.02	1132.82
383.22	1121.12
383.41	1032.18
383.61	1139.84
383.80	1179.63
384.00	1177.29
384.19	1123.46
384.39	1224.10
384.58	1069.62
384.78	1118.78
384.97	1128.14
385.17	1151.54
385.36	1153.88
385.56	1207.72
385.75	1128.14
385.95	1231.12
386.14	1210.06
386.34	1217.08
386.53	1228.78
386.72	1156.22
386.92	1235.80
387.11	1277.93
387.31	1196.01
387.50	1254.53
387.70	1261.55
387.89	1266.23
388.09	1299.00
388.28	1322.40
388.48	1247.51
388.67	1320.06
388.86	1359.85
389.06	1256.87
389.25	1256.87
389.45	1355.17
389.64	1336.45
389.84	1430.07
390.03	1359.85
390.22	1455.81
390.42	1397.30
390.61	1411.34
390.81	1401.98
391.00	1376.24
391.19	1387.94
391.39	1465.18
391.58	1401.98
391.78	1472.20
391.97	1481.56
392.16	1432.41
392.36	1549.43
392.55	1493.26
392.75	1432.41
392.94	1397.30
393.13	1671.14
393.33	1476.88
393.52	1528.37
393.71	1586.88
393.91	1621.99
394.10	1561.14
394.29	1668.80
394.49	1715.61
394.68	1652.42
394.88	1579.86
395.07	1715.61
395.26	1624.33
395.46	1621.99
395.65	1795.19
395.84	1750.72
396.04	1760.08
396.23	1729.66
396.42	1746.04
396.62	1764.76
396.81	1816.26
397.00	1729.66
397.19	1827.96
397.39	1769.44
397.58	1769.44
397.77	1753.06
397.97	1909.88
398.16	1851.36
398.35	1870.09
398.55	1732.00
398.74	1774.13
398.93	2031.58
399.12	1900.52
399.32	1912.22
399.51	1902.86
399.70	2047.97
399.90	1989.46
400.09	1949.67
400.28	2031.58
400.47	1954.35
400.67	2120.53
400.86	2010.52
401.05	2120.53
401.24	2113.50
401.44	2078.40
401.63	2136.91
401.82	2073.71
402.01	2132.23
402.21	2249.25
402.40	2146.27
402.59	2188.40
402.78	2211.81
402.97	2190.74
403.17	2216.49
403.36	2317.13
403.55	2317.13
403.74	2352.24
403.93	2296.07
404.13	2317.13
404.32	2352.24
404.51	2331.17
404.70	2370.96
404.89	2497.35
405.09	2504.37
405.28	2525.44
405.47	2445.86
405.66	2499.69
405.85	2471.61
406.05	2466.92
406.24	2523.10
406.43	2490.33
406.62	2548.84
406.81	2719.70
407.00	2677.57
407.20	2670.55
407.39	2679.91
407.58	2693.96
407.77	2780.56
407.96	2801.62
408.15	2759.49
408.34	2691.62
408.54	2792.26
408.73	2766.51
408.92	2750.13
409.11	2787.58
409.30	2808.64
409.49	2848.43
409.68	2909.29
409.87	2911.63
410.07	2935.03
410.26	3052.06
410.45	3005.25
410.64	3108.23
410.83	3105.89
411.02	2918.65
411.21	3073.12
411.40	3108.23
411.59	3258.03
411.78	3108.23
411.98	3229.94
412.17	3269.73
412.36	3300.16
412.55	3361.01
412.74	3431.23
412.93	3300.16
413.12	3393.78
413.31	3492.08
413.50	3379.73
413.69	3538.89
413.88	3655.92
414.07	3517.83
414.26	3611.45
414.45	3646.55
414.64	3522.51
414.83	3681.66
415.02	3693.37
415.22	3887.63
415.41	3756.56
415.60	3894.65
415.79	3899.33
415.98	3878.27
416.17	3941.46
416.36	3899.33
416.55	4046.79
416.74	4056.15
416.93	4065.51
417.12	4077.21
417.31	4156.79
417.50	4004.66
417.69	4346.37
417.88	4306.59
418.07	4292.54
418.26	4222.33
418.45	4222.33
418.64	4315.95
418.83	4369.78
419.02	4407.23
419.21	4400.21
419.39	4491.49
419.58	4423.61
419.77	4278.50
419.96	4538.30
420.15	4765.33
420.34	4652.98
420.53	4709.16
420.72	4779.37
420.91	4550.00
421.10	4784.06
421.29	4578.09
421.48	4741.93
421.67	4662.35
421.86	4638.94
422.05	4854.27
422.24	4830.87
422.43	4734.90
422.61	4922.15
422.80	4943.21
422.99	4973.64
423.18	5022.79
423.37	4983.00
423.56	4812.14
423.75	4903.42
423.94	4819.16
424.13	4662.35
424.32	4568.73
424.50	4919.81
424.69	5109.39
424.88	5179.61
425.07	4968.96
425.26	4847.25
425.45	4929.17
425.64	4919.81
425.83	4947.89
426.01	5018.11
426.20	4954.91
426.39	4997.04
426.58	5139.82
426.77	5011.09
426.96	5139.82
427.15	5048.54
427.33	5001.72
427.52	4990.02
427.71	5144.50
427.90	5240.46
428.09	5287.27
428.28	5547.07
428.46	5423.02
428.65	5301.31
428.84	5472.17
429.03	5441.75
429.22	5376.21
429.40	5554.09
429.59	5359.83
429.78	5261.52
429.97	5301.31
430.16	5509.62
430.34	5549.41
430.53	5523.66
430.72	5802.19
430.91	5518.98
431.10	5537.71
431.28	5619.63
431.47	5860.70
431.66	5767.08
431.85	5734.31
432.03	5959.00
432.22	5977.73
432.41	5774.10
432.60	5811.55
432.79	5746.02
432.97	5942.62
433.16	5905.17
433.35	5919.21
433.54	6125.18
433.72	6129.86
433.91	6125.18
434.10	6169.65
434.28	6230.51
434.47	6125.18
434.66	6253.91
434.85	6429.45
435.03	6347.53
435.22	6272.64
435.41	6628.40
435.59	6319.45
435.78	6251.57
435.97	6473.92
436.16	6462.22
436.34	6366.26
436.53	6396.68
436.72	6548.82
436.90	6560.52
437.09	6651.80
437.28	6499.67
437.46	6675.21
437.65	6471.58
437.84	6586.27
438.02	6513.71
438.21	6670.53
438.40	6736.06
438.58	7049.69
438.77	6909.26
438.96	6899.90
439.14	7000.54
439.33	7117.57
439.52	7194.81
439.70	7297.79
439.89	7522.48
440.08	7236.94
440.26	7300.13
440.45	7442.90
440.63	7403.11
440.82	7592.70
441.01	7555.25
441.19	7653.55
441.38	7723.77
441.57	7747.17
441.75	7808.03
441.94	7894.63
442.12	7758.88
442.31	7892.29
442.50	7997.61
442.68	7850.16
442.87	8070.17
443.05	8070.17
443.24	7948.46
443.43	8133.36
443.61	8372.10
443.80	8292.52
443.98	8002.29
444.17	7833.77
444.35	8327.63
444.54	8423.59
444.73	8308.90
444.91	8250.39
445.10	8194.22
445.28	8318.26
445.47	8290.18
445.65	8264.43
445.84	8170.81
446.02	8613.17
446.21	8484.44
446.39	8334.65
446.58	8379.12
446.77	8334.65
446.95	8383.80
447.14	8191.88
447.32	8299.54
447.51	8332.31
447.69	8503.17
447.88	8498.49
448.06	8482.10
448.25	8329.97
448.43	8580.40
448.62	8631.90
448.80	8549.98
448.99	8557.00
449.17	8667.00
449.36	8571.04
449.54	8823.82
449.73	8910.42
449.91	8968.93
450.10	8961.91
450.28	9151.49
450.46	9067.24
450.65	8966.59
450.83	8826.16
451.02	9029.79
451.20	9240.44
451.39	8985.32
451.57	9114.05
451.76	9046.17
451.94	9151.49
452.13	9298.95
452.31	8992.34
452.49	9100.00
452.68	9516.62
452.86	9439.38
453.05	9350.44
453.23	9472.15
453.42	9158.52
453.60	9266.18
453.78	9322.35
453.97	9111.71
454.15	9563.43
454.34	9350.44
454.52	9565.77
454.70	9713.22
454.89	9507.26
455.07	9865.36
455.26	9811.53
455.44	9701.52
455.62	9865.36
455.81	9940.26
455.99	9989.41
456.17	9987.07
456.36	10005.79
456.54	10104.09
456.73	10174.31
456.91	10429.43
457.09	10366.23
457.28	10436.45
457.46	10157.92
457.64	10298.36
457.83	10391.98
458.01	10394.32
458.19	10817.96
458.38	10623.69
458.56	10518.37
458.74	10623.69
458.93	10642.42
459.11	10457.51
459.29	10466.88
459.48	10829.66
459.66	10654.12
459.84	10883.49
460.03	10890.51
460.21	11089.46
460.39	11117.54
460.57	11007.54
460.76	10993.50
460.94	11070.73
461.12	11075.42
461.31	11136.27
461.49	11309.47
461.67	11218.19
461.85	11435.86
462.04	11208.83
462.22	11793.96
462.40	11445.22
462.59	11449.90
462.77	11674.59
462.95	11702.68
463.13	11602.04
463.32	11653.53
463.50	11808.00
463.68	11786.94
463.86	11779.92
464.05	11702.68
464.23	11690.98
464.41	11705.02
464.59	11655.87
464.78	12032.69
464.96	11665.23
465.14	11637.14
465.32	11892.26
465.50	12119.29
465.69	11936.73
465.87	12091.21
466.05	12011.63
466.23	12142.70
466.41	12063.12
466.60	12573.36
466.78	12074.82
466.96	12091.21
467.14	12138.02
467.32	12159.08
467.51	12327.60
467.69	12056.10
467.87	12351.01
468.05	12512.50
468.23	12252.70
468.41	12465.69
468.60	12641.23
468.78	12760.60
468.96	12578.04
469.14	12690.38
469.32	12779.32
469.50	12348.67
469.69	13099.98
469.87	13146.79
470.05	13165.51
470.23	12868.27
470.41	13254.45
470.59	13200.62
470.77	12931.46
470.95	13310.63
471.14	13685.11
471.32	13102.32
471.50	13497.87
471.68	13685.11
471.86	13380.84
472.04	13568.09
472.22	13757.67
472.40	13453.40
472.58	13633.62
472.77	13947.25
472.95	13844.27
473.13	14572.18
473.31	13989.38
473.49	14052.58
473.67	14214.07
473.85	14005.77
474.03	14485.58
474.21	14307.69
474.39	14778.14
474.57	14387.27
474.75	14794.53
474.93	15075.39
475.12	14799.21
475.30	15138.58
475.48	14846.02
475.66	15019.22
475.84	15082.41
476.02	15452.22
476.20	15140.93
476.38	15592.65
476.56	16149.70
476.74	15936.71
476.92	15754.15
477.10	16027.99
477.28	16194.17
477.46	16006.92
477.64	16252.68
477.82	16498.44
478.00	16851.86
478.18	16641.21
478.36	16681.00
478.54	17266.13
478.72	17334.01
478.90	17238.05
479.08	17329.33
479.26	17762.33
479.44	17619.55
479.62	17785.73
479.80	17692.11
479.98	17778.71
480.16	18384.91
480.34	18200.01
480.52	18658.75
480.70	18607.26
480.88	18054.89
481.06	18740.67
481.24	18752.37
481.41	18956.00
481.59	19276.65
481.77	19276.65
481.95	19520.07
482.13	19534.11
482.31	19583.26
482.49	20114.56
482.67	20091.16
482.85	20664.59
483.03	20585.01
483.21	20889.28
483.39	20802.68
483.57	20783.96
483.74	21048.44
483.92	21261.43
484.10	21254.40
484.28	21811.45
484.46	21757.62
484.64	22448.08
484.82	21673.36
485.00	22623.62
485.18	22761.71
485.35	23007.47
485.53	22953.63
485.71	22909.16
485.89	23510.68
486.07	22955.97
486.25	23168.96
486.43	23644.09
486.61	23852.40
486.78	24283.06
486.96	23875.80
487.14	24386.04
487.32	24341.57
487.50	24980.54
487.68	24692.65
487.85	24840.11
488.03	25022.67
488.21	25663.97
488.39	25596.10
488.57	26204.64
488.75	25956.54
488.92	26366.13
489.10	26508.91
489.28	26595.51
489.46	27075.32
489.64	26679.77
489.81	27323.41
489.99	27283.62
490.17	27269.58
490.35	28030.26
490.53	28205.80
490.70	28285.37
490.88	28315.80
491.06	28601.35
491.24	28446.87
491.41	28746.46
491.59	29085.84
491.77	29172.44
491.95	29331.59
492.13	29310.53
492.30	29937.79
492.48	30171.85
492.66	30024.39
492.84	30267.81
493.01	30431.65
493.19	30696.13
493.37	30850.60
493.54	31276.58
493.72	31321.05
493.90	31178.28
494.08	31580.85
494.25	31842.99
494.43	31803.20
494.61	32168.32
494.79	32697.28
494.96	32182.37
495.14	32456.21
495.32	33207.52
495.49	33104.54
495.67	33006.23
495.85	33287.10
496.02	33479.02
496.20	33670.95
496.38	34258.42
496.55	34235.02
496.73	34843.56
496.91	34366.09
497.09	34670.36
497.26	34768.66
497.44	34490.13
497.62	35274.21
497.79	35487.20
497.97	35220.38
498.14	35997.44
498.32	36027.87
498.50	35672.10
498.67	36149.57
498.85	36100.42
499.03	36566.19
499.20	36575.55
499.38	36699.60
499.56	36945.36
499.73	36809.61
499.91	37088.13
500.08	37659.22
500.26	36985.15
500.44	37354.95
500.61	37890.93
500.79	37928.38
500.97	37635.81
501.14	38162.43
501.32	38326.27
501.49	38403.51
501.67	38389.47
501.84	38639.90
502.02	38728.84
502.20	38822.47
502.37	39196.95
502.55	39068.22
502.72	39302.28
502.90	39555.05
503.07	39517.60
503.25	39559.73
503.43	39482.50
503.60	39597.18
503.78	40018.48
503.95	40107.42
504.13	40074.65
504.30	40470.20
504.48	40187.00
504.65	40493.61
504.83	40945.33
505.01	41193.43
505.18	41174.70
505.36	41359.61
505.53	41368.97
505.71	41415.78
505.88	41493.02
506.06	41635.79
506.23	41874.52
506.41	41392.37
506.58	41759.84
506.76	41937.72
506.93	42101.56
507.11	42087.51
507.28	42340.29
507.46	42588.39
507.63	42569.66
507.81	43000.32
507.98	42602.43
508.16	42794.36
508.33	42934.79
508.50	43318.64
508.68	43054.15
508.85	43693.12
509.03	43639.29
509.20	44374.22
509.38	43990.37
509.55	44196.34
509.73	44184.63
509.90	44783.81
510.08	43983.35
510.25	44058.24
510.42	44353.15
510.60	44907.86
510.77	44992.12
510.95	45207.45
511.12	44839.98
511.30	45275.32
511.47	45324.47
511.64	45258.94
511.82	45635.77
511.99	44900.84
512.17	45535.12
512.34	45799.60
512.51	46225.58
512.69	46080.47
512.86	46005.57
513.04	46548.57
513.21	46466.66
513.38	46504.10
513.56	46859.87
513.73	46230.26
513.90	46855.18
514.08	46614.11
514.25	47269.46
514.43	47299.89
514.60	47316.27
514.77	47042.43
514.95	47229.67
515.12	47503.51
515.29	47543.30
515.47	47510.53
515.64	48114.39
515.81	47807.78
515.99	47714.16
516.16	48161.20
516.33	48147.16
516.51	48540.37
516.68	47746.93
516.85	48196.31
517.03	48587.18
517.20	48498.24
517.37	48645.69
517.54	48692.50
517.72	48179.93
517.89	48650.38
518.06	48736.98
518.24	48748.68
518.41	49287.00
518.58	49074.01
518.75	49095.08
518.93	49272.96
519.10	49151.25
519.27	49553.82
519.45	49397.01
519.62	49673.19
519.79	49689.57
519.96	49759.79
520.14	50028.95
520.31	50099.17
520.48	50052.36
520.65	50026.61
520.83	50578.98
521.00	50064.06
521.17	50309.82
521.34	50607.06
521.52	50583.66
521.69	50515.78
521.86	50703.03
522.03	50974.53
522.20	50913.67
522.38	51622.86
522.55	51133.68
522.72	51107.94
522.89	51164.11
523.07	51281.14
523.24	51377.10
523.41	51653.28
523.58	51407.53
523.75	51601.79
523.92	51817.12
524.10	51657.96
524.27	51824.14
524.44	51948.19
524.61	51906.06
524.78	51959.89
524.96	52027.77
525.13	52130.75
525.30	51971.60
525.47	52444.38
525.64	52364.81
525.81	52334.38
525.98	52449.06
526.16	52411.62
526.33	52708.86
526.50	52814.19
526.67	52500.56
526.84	52729.93
527.01	52807.17
527.18	52701.84
527.36	52968.66
527.53	52917.17
527.70	53432.09
527.87	53176.97
528.04	53088.03
528.21	53340.81
528.38	53385.28
528.55	53179.31
528.72	53333.79
528.89	53375.92
529.07	52863.34
529.24	53219.10
529.41	53558.48
529.58	53588.91
529.75	53549.12
529.92	53722.32
530.09	53799.55
530.26	53705.93
530.43	54012.54
530.60	53415.71
530.77	53804.24
530.94	54150.63
531.11	53647.42
531.28	53731.68
531.46	53844.02
531.63	54169.36
531.80	54150.63
531.97	54115.53
532.14	54447.88
532.31	54328.52
532.48	54417.46
532.65	54337.88
532.82	54272.34
532.99	54653.85
533.16	54277.02
533.33	54824.71
533.50	54733.43
533.67	54710.02
533.84	54295.75
534.01	54894.92
534.18	54698.32
534.35	54976.84
534.52	54993.23
534.69	55002.59
534.86	54967.48
535.03	54953.44
535.20	54798.96
535.37	55255.37
535.54	55257.71
535.71	55079.83
535.88	55150.04
536.05	55454.31
536.22	55428.57
536.38	55580.70
536.55	55384.10
536.72	55473.04
536.89	55267.07
537.06	55531.55
537.23	55365.37
537.40	55325.58
537.57	55709.43
537.74	55756.24
537.91	55854.54
538.08	55756.24
538.25	55306.86
538.42	55894.33
538.59	56002.00
538.75	55784.33
538.92	56069.87
539.09	56074.55
539.26	56020.72
539.43	55910.72
539.60	56086.26
539.77	56177.54
539.94	56479.47
540.11	56329.67
540.28	56257.12
540.44	56275.84
540.61	56062.85
540.78	56018.38
540.95	56437.34
541.12	56280.52
541.29	56278.18
541.46	56584.79
541.62	56336.69
541.79	56355.42
541.96	56341.38
542.13	56425.64
542.30	56575.43
542.47	56662.03
542.63	56825.87
542.80	56748.63
542.97	56996.73
543.14	57045.88
543.31	57160.56
543.48	57059.92
543.64	57235.46
543.81	57345.47
543.98	57116.09
544.15	57106.73
544.32	57202.69
544.48	57535.05
544.65	57230.78
544.82	57242.48
544.99	57001.41
545.16	57141.84
545.32	57254.18
545.49	57539.73
545.66	57633.35
545.83	57530.37
546.00	57457.81
546.16	57467.17
546.33	57413.34
546.50	57427.38
546.67	57715.27
546.83	57326.74
547.00	57715.27
547.17	57675.48
547.34	57619.31
547.50	57635.69
547.67	57867.40
547.84	57668.46
548.00	57853.36
548.17	57911.88
548.34	57769.10
548.51	58087.42
548.67	57937.62
548.84	58089.76
549.01	58024.22
549.18	58007.84
549.34	58028.90
549.51	58152.95
549.68	58305.09
549.84	58000.82
550.01	58401.05
550.18	58211.46
550.34	58272.32
550.51	58232.53
550.68	58017.20
550.84	58047.63
551.01	58487.65
551.18	58223.17
551.34	58281.68
551.51	58389.34
551.68	58548.50
551.84	58576.59
552.01	58216.14
552.18	58546.16
552.34	58286.36
552.51	58609.35
552.68	58408.07
552.84	58548.50
553.01	58777.87
553.18	58775.53
553.34	59042.35
553.51	58621.06
553.67	58555.52
553.84	58997.88
554.01	58922.99
554.17	58857.45
554.34	59004.91
554.51	58967.46
554.67	58859.79
554.84	58979.16
555.00	58962.78
555.17	58855.11
555.33	58878.52
555.50	58876.18
555.67	58927.67
555.83	58934.69
556.00	58993.20
556.16	59311.52
556.33	59231.94
556.50	58997.88
556.66	59281.09
556.83	59152.36
556.99	59189.81
557.16	59276.41
557.32	59288.11
557.49	59386.41
557.65	59185.13
557.82	59367.69
557.98	59264.70
558.15	59292.79
558.32	59456.63
558.48	59243.64
558.65	59154.70
558.81	59243.64
558.98	59442.59
559.14	59447.27
559.31	59475.35
559.47	59426.20
559.64	59597.06
559.80	59601.74
559.97	59437.90
560.13	59480.03
560.30	59669.62
560.46	59583.02
560.63	59622.81
560.79	59643.87
560.96	59702.38
561.12	59695.36
561.29	59859.20
561.45	59824.09
561.61	59758.56
561.78	59402.80
561.94	59639.19
562.11	59744.51
562.27	59655.57
562.44	59863.88
562.60	59948.14
562.77	59817.07
562.93	59622.81
563.10	60032.40
563.26	59725.79
563.42	60144.75
563.59	59693.02
563.75	59728.13
563.92	59739.83
564.08	59971.55
564.24	59870.90
564.41	59957.50
564.57	59980.91
564.74	59943.46
564.90	60051.12
565.07	60060.49
565.23	59915.37
565.39	60097.94
565.56	60083.89
565.72	60200.92
565.88	60079.21
566.05	59955.16
566.21	60037.08
566.38	60060.49
566.54	60196.24
566.70	60261.77
566.87	60261.77
567.03	59910.69
567.19	60367.10
567.36	60264.11
567.52	60114.32
567.68	60413.91
567.85	60285.18
568.01	60229.01
568.17	60142.41
568.34	60692.43
568.50	60062.83
568.66	60161.13
568.83	60369.44
568.99	60186.88
569.15	60259.43
569.32	60123.68
569.48	60254.75
569.64	60523.91
569.81	60189.22
569.97	60074.53
570.13	60367.10
570.30	60287.52
570.46	60423.27
570.62	60420.93
570.78	60231.35
570.95	60437.31
571.11	60547.32
571.27	60416.25
571.43	60488.80
571.60	60341.35
571.76	60247.73
571.92	60544.98
572.09	60444.33
572.25	60350.71
572.41	60303.90
572.57	60678.39
572.74	60601.15
572.90	60509.87
573.06	60495.83
573.22	60587.11
573.38	60706.47
573.55	60514.55
573.71	60591.79
573.87	60619.88
574.03	60598.81
574.20	60636.26
574.36	60334.33
574.52	60615.19
574.68	60701.79
574.84	60711.16
575.01	60594.13
575.17	60594.13
575.33	60563.70
575.49	60486.46
575.65	60561.36
575.82	60720.52
575.98	60835.20
576.14	60870.31
576.30	60783.71
576.46	60685.41
576.62	60505.19
576.79	60544.98
576.95	60334.33
577.11	60725.20
577.27	60643.28
577.43	60872.65
577.59	60643.28
577.75	60596.47
577.92	60552.00
578.08	60718.18
578.24	60650.30
578.40	60961.59
578.56	60786.05
578.72	60774.35
578.88	60874.99
579.04	60741.58
579.21	60687.75
579.37	60774.35
579.53	60853.93
579.69	60477.10
579.85	60645.62
580.01	60582.43
580.17	60755.63
580.33	60797.76
580.49	60732.22
580.65	60783.71
580.82	60830.52
580.98	60685.41
581.14	60683.07
581.30	60889.04
581.46	60811.80
581.62	60793.07
581.78	60788.39
581.94	60753.29
582.10	60734.56
582.26	60706.47
582.42	60622.22
582.58	60872.65
582.74	60804.78
582.90	60772.01
583.06	60713.50
583.22	60624.56
583.38	60617.53
583.54	60767.33
583.70	60839.89
583.86	60814.14
584.02	60612.85
584.18	61013.08
584.34	60891.38
584.50	60865.63
584.66	60743.92
584.82	60956.91
584.98	61057.56
585.14	61022.45
585.30	60743.92
585.46	60867.97
585.62	60816.48
585.78	60921.80
585.94	60640.94
586.10	60891.38
586.26	60704.13
586.42	61052.87
586.58	61090.32
586.74	61099.68
586.90	60966.27
587.06	60903.08
587.22	60959.25
587.38	60783.71
587.54	60977.98
587.70	61165.22
587.86	60914.78
588.02	60935.85
588.18	61080.96
588.34	60816.48
588.49	61015.43
