SpectraSuite Data File
++++++++++++++++++++++++++++++++++++
Date: Fri Oct 25 10:44:19 EDT 2013
User: price-jones
Dark Spectrum Present: No
Reference Spectrum Present: No
Number of Sampled Component Spectra: 1
Spectrometers: USB2+H05261
Integration Time (usec): 100000 (USB2+H05261)
Spectra Averaged: 1 (USB2+H05261)
Boxcar Smoothing: 0 (USB2+H05261)
Correct for Electrical Dark: No (USB2+H05261)
Strobe/Lamp Enabled: No (USB2+H05261)
Correct for Detector Non-linearity: No (USB2+H05261)
Correct for Stray Light: No (USB2+H05261)
Number of Pixels in Processed Spectrum: 2048
>>>>>Begin Processed Spectral Data<<<<<
365.73	77.24
365.92	77.24
366.12	77.24
366.32	77.24
366.52	44.47
366.72	56.17
366.91	0.00
367.11	11.70
367.31	44.47
367.51	65.54
367.70	0.00
367.90	0.00
368.10	91.28
368.30	4.68
368.49	72.56
368.69	67.88
368.89	79.58
369.09	16.38
369.28	2.34
369.48	63.19
369.68	9.36
369.87	128.73
370.07	102.98
370.27	117.03
370.47	236.39
370.66	388.53
370.86	376.83
371.06	479.81
371.25	500.87
371.45	447.04
371.65	545.34
371.84	491.51
372.04	390.87
372.24	477.47
372.44	461.09
372.63	468.11
372.83	571.09
373.03	491.51
373.22	559.39
373.42	477.47
373.62	521.94
373.81	592.16
374.01	634.29
374.21	573.43
374.40	507.90
374.60	615.56
374.79	606.20
374.99	592.16
375.19	540.66
375.38	606.20
375.58	617.90
375.78	585.13
375.97	657.69
376.17	718.54
376.37	601.52
376.56	634.29
376.76	580.45
376.95	608.54
377.15	578.11
377.35	610.88
377.54	660.03
377.74	608.54
377.93	751.31
378.13	753.65
378.33	631.94
378.52	636.63
378.72	716.20
378.91	702.16
379.11	657.69
379.31	695.14
379.50	758.33
379.70	678.76
379.89	704.50
380.09	664.71
380.28	641.31
380.48	753.65
380.68	755.99
380.87	664.71
381.07	727.91
381.26	828.55
381.46	688.12
381.65	779.40
381.85	706.84
382.04	695.14
382.24	760.67
382.43	650.67
382.63	720.88
382.83	674.07
383.02	737.27
383.22	755.99
383.41	720.88
383.61	856.64
383.80	856.64
384.00	765.36
384.19	774.72
384.39	835.57
384.58	849.61
384.78	802.80
384.97	910.47
385.17	844.93
385.36	828.55
385.56	798.12
385.75	833.23
385.95	922.17
386.14	891.74
386.34	894.08
386.53	814.51
386.72	784.08
386.92	889.40
387.11	898.77
387.31	917.49
387.50	882.38
387.70	856.64
387.89	912.81
388.09	945.58
388.28	877.70
388.48	992.39
388.67	926.85
388.86	1027.50
389.06	985.37
389.25	1029.84
389.45	957.28
389.64	1013.45
389.84	1050.90
390.03	1006.43
390.22	1050.90
390.42	1057.92
390.61	1104.73
390.81	1041.54
391.00	1090.69
391.19	1123.46
391.39	1034.52
391.58	1025.15
391.78	999.41
391.97	1118.78
392.16	1032.18
392.36	1107.07
392.55	1093.03
392.75	1074.31
392.94	957.28
393.13	926.85
393.33	964.30
393.52	1050.90
393.71	1057.92
393.91	1102.39
394.10	1165.59
394.29	1177.29
394.49	1224.10
394.68	1212.40
394.88	1299.00
395.07	1296.66
395.26	1364.53
395.46	1242.82
395.65	1289.64
395.84	1296.66
396.04	1303.68
396.23	1170.27
396.42	1296.66
396.62	1097.71
396.81	1226.44
397.00	1228.78
397.19	1338.79
397.39	1329.42
397.58	1483.90
397.77	1411.34
397.97	1495.60
398.16	1476.88
398.35	1476.88
398.55	1507.30
398.74	1528.37
398.93	1561.14
399.12	1598.59
399.32	1474.54
399.51	1544.75
399.70	1650.08
399.90	1678.16
400.09	1694.55
400.28	1757.74
400.47	1652.42
400.67	1675.82
400.86	1685.19
401.05	1853.70
401.24	1689.87
401.44	1837.32
401.63	1809.23
401.82	1818.60
402.01	1776.47
402.21	1856.04
402.40	1827.96
402.59	1905.20
402.78	1874.77
402.97	1874.77
403.17	1811.57
403.36	1870.09
403.55	1914.56
403.74	2071.37
403.93	1909.88
404.13	1994.14
404.32	1947.33
404.51	1935.62
404.70	1898.17
404.89	1970.73
405.09	2052.65
405.28	1977.75
405.47	2029.24
405.66	2104.14
405.85	2029.24
406.05	2036.27
406.24	2108.82
406.43	2179.04
406.62	2162.66
406.81	2167.34
407.00	2106.48
407.20	2115.84
407.39	2181.38
407.58	2317.13
407.77	2225.85
407.96	2275.00
408.15	2338.20
408.34	2338.20
408.54	2382.67
408.73	2356.92
408.92	2307.77
409.11	2380.32
409.30	2335.85
409.49	2438.84
409.68	2310.11
409.87	2265.64
410.07	2420.11
410.26	2321.81
410.45	2387.35
410.64	2504.37
410.83	2539.48
411.02	2518.42
411.21	2684.59
411.40	2647.15
411.59	2813.32
411.78	2768.85
411.98	2654.17
412.17	2822.69
412.36	2754.81
412.55	2775.88
412.74	2855.45
412.93	2733.75
413.12	2848.43
413.31	3084.83
413.50	2963.12
413.69	2958.44
413.88	3007.59
414.07	3124.62
414.26	3033.33
414.45	3040.36
414.64	2998.23
414.83	3236.96
415.02	3030.99
415.22	3023.97
415.41	3267.39
415.60	3169.09
415.79	3260.37
415.98	3445.27
416.17	3332.92
416.36	3337.60
416.55	3316.54
416.74	3365.69
416.93	3433.57
417.12	3456.97
417.31	3410.16
417.50	3445.27
417.69	3529.53
417.88	3485.06
418.07	3475.70
418.26	3564.64
418.45	3634.85
418.64	3705.07
418.83	3707.41
419.02	3786.99
419.21	3761.24
419.39	3709.75
419.58	3583.36
419.77	3665.28
419.96	3686.34
420.15	3794.01
420.34	3693.37
420.53	3819.75
420.72	3892.31
420.91	4154.45
421.10	3889.97
421.29	4163.81
421.48	3943.80
421.67	4007.00
421.86	4032.74
422.05	4084.23
422.24	3892.31
422.43	3983.59
422.61	3962.53
422.80	4016.36
422.99	3983.59
423.18	4124.02
423.37	4067.85
423.56	4067.85
423.75	4049.13
423.94	4095.94
424.13	3871.25
424.32	3901.67
424.50	4065.51
424.69	4161.47
424.88	4243.39
425.07	3992.95
425.26	3995.29
425.45	4009.34
425.64	4180.20
425.83	3988.27
426.01	4065.51
426.20	4025.72
426.39	4184.88
426.58	4119.34
426.77	3971.89
426.96	4163.81
427.15	4276.16
427.33	4046.79
427.52	4079.55
427.71	4280.84
427.90	4177.86
428.09	4236.37
428.28	4327.65
428.46	4313.61
428.65	4241.05
428.84	4440.00
429.03	4547.66
429.22	4243.39
429.40	4322.97
429.59	4154.45
429.78	4046.79
429.97	4028.06
430.16	4145.09
430.34	4299.56
430.53	4227.01
430.72	4386.16
430.91	4304.25
431.10	4517.23
431.28	4807.46
431.47	4744.27
431.66	4863.63
431.85	4669.37
432.03	4713.84
432.22	4833.21
432.41	4791.08
432.60	4901.08
432.79	4795.76
432.97	4784.06
433.16	4826.18
433.35	4751.29
433.54	4730.22
433.72	4919.81
433.91	4812.14
434.10	4929.17
434.28	5020.45
434.47	4880.02
434.66	5097.69
434.85	5109.39
435.03	5156.20
435.22	5011.09
435.41	5235.78
435.59	5235.78
435.78	5369.19
435.97	5275.57
436.16	5221.74
436.34	5303.65
436.53	5383.23
436.72	5392.59
436.90	5277.91
437.09	5390.25
437.28	5245.14
437.46	5179.61
437.65	5341.10
437.84	5352.81
438.02	5362.17
438.21	5366.85
438.40	5287.27
438.58	5509.62
438.77	5554.09
438.96	5621.97
439.14	5731.97
439.33	5774.10
439.52	5898.15
439.70	5804.53
439.89	5673.46
440.08	5856.02
440.26	5856.02
440.45	5982.41
440.63	6033.90
440.82	6155.61
441.01	5966.03
441.19	6225.82
441.38	6218.80
441.57	6118.16
441.75	6408.39
441.94	6516.05
442.12	6415.41
442.31	6595.63
442.50	6516.05
442.68	6567.54
442.87	6506.69
443.05	6516.05
443.24	6539.46
443.43	6661.16
443.61	6691.59
443.80	6843.73
443.98	6684.57
444.17	6480.94
444.35	6647.12
444.54	6899.90
444.73	6874.15
444.91	6792.23
445.10	6813.30
445.28	6567.54
445.47	6600.31
445.65	6621.38
445.84	6876.49
446.02	6724.36
446.21	6682.23
446.39	6927.99
446.58	6806.28
446.77	6743.08
446.95	6773.51
447.14	6986.50
447.32	7241.62
447.51	6904.58
447.69	6960.75
447.88	6703.29
448.06	7035.65
448.25	6820.32
448.43	6848.41
448.62	7056.72
448.80	6944.37
448.99	7019.27
449.17	6993.52
449.36	6836.70
449.54	7096.50
449.73	7452.27
449.91	7190.13
450.10	7653.55
450.28	7573.97
450.46	7559.93
450.65	7459.29
450.83	7419.50
451.02	7328.22
451.20	7529.50
451.39	7360.98
451.57	7494.40
451.76	7379.71
451.94	7616.10
452.13	7595.04
452.31	7157.36
452.49	7267.36
452.68	7506.10
452.86	7370.35
453.05	7515.46
453.23	7520.14
453.42	7644.19
453.60	7695.68
453.78	7913.35
453.97	7768.24
454.15	7620.78
454.34	7669.94
454.52	7850.16
454.70	7894.63
454.89	7824.41
455.07	7763.56
455.26	7967.18
455.44	7969.52
455.62	7896.97
455.81	7967.18
455.99	8053.78
456.17	8126.34
456.36	8336.99
456.54	8322.94
456.73	8339.33
456.91	8386.14
457.09	8320.60
457.28	8568.70
457.46	8114.64
457.64	8322.94
457.83	8489.12
458.01	8301.88
458.19	8638.92
458.38	8170.81
458.56	8709.13
458.74	8449.33
458.93	8479.76
459.11	8580.40
459.29	8622.53
459.48	8430.61
459.66	8517.21
459.84	8554.66
460.03	8758.28
460.21	9039.15
460.39	8723.18
460.57	8643.60
460.76	8861.27
460.94	8915.10
461.12	8992.34
461.31	8877.65
461.49	8802.75
461.67	8882.33
461.85	9128.09
462.04	8917.44
462.22	9392.57
462.40	9146.81
462.59	9310.65
462.77	9132.77
462.95	9252.14
463.13	9282.56
463.32	9301.29
463.50	9359.80
463.68	9394.91
463.86	9167.88
464.05	9249.80
464.23	9427.68
464.41	9331.72
464.59	9202.99
464.78	9652.37
464.96	9589.17
465.14	9291.93
465.32	9305.97
465.50	9458.10
465.69	9493.21
465.87	9514.28
466.05	9600.88
466.23	9525.98
466.41	9570.45
466.60	9708.54
466.78	9474.49
466.96	9703.86
467.14	9612.58
467.32	9603.22
467.51	9617.26
467.69	9628.96
467.87	9638.33
468.05	9774.08
468.23	9790.46
468.41	9870.04
468.60	9951.96
468.78	9991.75
468.96	9811.53
469.14	10012.81
469.32	10029.20
469.50	9818.55
469.69	10022.17
469.87	10022.17
470.05	10326.44
470.23	10104.09
470.41	10010.47
470.59	10249.21
470.77	10249.21
470.95	10469.22
471.14	10490.28
471.32	10443.47
471.50	10560.50
471.68	10401.34
471.86	10644.76
472.04	10736.04
472.22	10885.83
472.40	10705.61
472.58	10827.32
472.77	10918.60
472.95	10848.38
473.13	11293.08
473.31	11021.58
473.49	10778.17
473.67	10871.79
473.85	11208.83
474.03	11253.30
474.21	11246.27
474.39	11234.57
474.57	11510.75
474.75	11314.15
474.93	11655.87
475.12	11639.48
475.30	11548.20
475.48	11522.46
475.66	11747.15
475.84	11679.27
476.02	11962.48
476.20	11831.41
476.38	11985.88
476.56	12285.47
476.74	12250.36
476.92	12046.74
477.10	11995.25
477.28	12510.16
477.46	12074.82
477.64	12659.96
477.82	12823.80
478.00	12863.58
478.18	13128.06
478.36	12718.47
478.54	13001.68
478.72	13142.11
478.90	13390.20
479.08	13296.58
479.26	13516.59
479.44	13722.56
479.62	13570.43
479.80	13521.27
479.98	14019.81
480.16	14139.18
480.34	14136.84
480.52	14153.22
480.70	14377.91
480.88	13811.50
481.06	14314.72
481.24	14349.82
481.41	14733.67
481.59	14831.97
481.77	14815.59
481.95	14939.64
482.13	15386.68
482.31	15105.82
482.49	15307.10
482.67	15246.25
482.85	15503.71
483.03	15693.29
483.21	15772.87
483.39	15915.64
483.57	15786.91
483.74	16016.29
483.92	16168.42
484.10	15826.70
484.28	16271.40
484.46	16435.24
484.64	16891.65
484.82	16608.44
485.00	16629.51
485.18	17149.11
485.35	16774.62
485.53	16620.14
485.71	16526.52
485.89	16821.43
486.07	16964.20
486.25	17081.23
486.43	17081.23
486.61	17474.44
486.78	17942.55
486.96	17996.38
487.14	17790.41
487.32	18188.30
487.50	18518.32
487.68	18927.91
487.85	19021.53
488.03	18897.49
488.21	19178.35
488.39	19377.30
488.57	19288.35
488.75	19594.96
488.92	19499.00
489.10	19964.77
489.28	19992.86
489.46	20685.65
489.64	20306.49
489.81	20973.54
489.99	20861.19
490.17	20849.49
490.35	21067.16
490.53	20823.75
490.70	21062.48
490.88	20865.88
491.06	21298.88
491.24	21420.58
491.41	21390.16
491.59	21509.52
491.77	21455.69
491.95	21687.40
492.13	21914.44
492.30	21879.33
492.48	22157.85
492.66	22637.66
492.84	22394.25
493.01	22815.54
493.19	22607.23
493.37	22918.53
493.54	23171.30
493.72	23339.82
493.90	23260.24
494.08	23693.24
494.25	23885.17
494.43	23627.71
494.61	24240.93
494.79	24034.96
494.96	24039.64
495.14	24297.10
495.32	24189.44
495.49	24545.20
495.67	24428.17
495.85	24568.60
496.02	24802.66
496.20	25137.35
496.38	25303.53
496.55	25245.02
496.73	25612.48
496.91	25706.10
497.09	25649.93
497.26	25977.61
497.44	25956.54
497.62	26160.17
497.79	26181.23
497.97	26118.04
498.14	25928.45
498.32	26096.97
498.50	26579.12
498.67	26721.90
498.85	26618.91
499.03	26764.03
499.20	26703.17
499.38	27370.22
499.56	27197.02
499.73	27241.50
499.91	27103.40
500.08	27339.80
500.26	27012.12
500.44	27470.87
500.61	27824.29
500.79	27585.55
500.97	27632.36
501.14	27885.14
501.32	27929.61
501.49	27604.28
501.67	27681.52
501.84	27985.79
502.02	28395.38
502.20	28383.68
502.37	28751.14
502.55	28739.44
502.72	28858.81
502.90	28809.65
503.07	28641.14
503.25	28524.11
503.43	28779.23
503.60	28753.48
503.78	28877.53
503.95	29170.10
504.13	29427.56
504.30	29390.11
504.48	28968.81
504.65	29663.95
504.83	29448.62
505.01	29874.60
505.18	30031.41
505.36	30221.00
505.53	30340.36
505.71	30513.56
505.88	30609.53
506.06	30197.59
506.23	30611.87
506.41	30443.35
506.58	30780.39
506.76	30799.11
506.93	30955.93
507.11	30169.51
507.28	30878.69
507.46	30899.75
507.63	30838.90
507.81	31250.83
507.98	30962.95
508.16	31311.69
508.33	31239.13
508.50	31316.37
508.68	31761.07
508.85	32065.34
509.03	31955.33
509.20	32079.38
509.38	31676.81
509.55	32554.51
509.73	32507.70
509.90	32135.56
510.08	31999.80
510.25	32063.00
510.42	32268.97
510.60	32671.54
510.77	33076.45
510.95	32746.44
511.12	32739.41
511.30	32664.52
511.47	33680.31
511.64	32954.74
511.82	33448.60
511.99	33083.47
512.17	33179.43
512.34	33153.69
512.51	33675.63
512.69	33472.00
512.86	33909.68
513.04	34368.43
513.21	33741.16
513.38	33626.48
513.56	34054.79
513.73	33720.10
513.90	33668.61
514.08	33947.13
514.25	33762.23
514.43	34122.67
514.60	34164.80
514.77	34323.96
514.95	34728.87
515.12	34237.36
515.29	34675.04
515.47	35061.22
515.64	34789.72
515.81	34909.09
515.99	34546.31
516.16	34679.72
516.33	34270.12
516.51	34455.03
516.68	33813.72
516.85	34050.11
517.03	33790.31
517.20	34520.56
517.37	35101.01
517.54	35299.96
517.72	34810.79
517.89	35234.42
518.06	34796.74
518.24	34862.28
518.41	35246.13
518.58	35475.50
518.75	35416.99
518.93	35543.38
519.10	35461.46
519.27	35744.66
519.45	36250.22
519.62	36381.29
519.79	36507.68
519.96	36140.21
520.14	36512.36
520.31	36346.18
520.48	36650.45
520.65	36149.57
520.83	37141.96
521.00	36947.70
521.17	36671.51
521.34	36989.83
521.52	37106.85
521.69	37308.14
521.86	37195.79
522.03	37177.07
522.20	37347.93
522.38	37289.42
522.55	37258.99
522.72	37083.45
522.89	37071.75
523.07	37715.39
523.24	37521.13
523.41	37535.17
523.58	37830.08
523.75	38499.47
523.92	37951.79
524.10	38534.58
524.27	38387.13
524.44	38405.85
524.61	38246.69
524.78	38335.63
524.96	38590.75
525.13	38419.89
525.30	38742.89
525.47	38782.68
525.64	38604.80
525.81	38274.78
525.98	38829.49
526.16	38291.16
526.33	38279.46
526.50	38284.14
526.67	38188.18
526.84	38220.95
527.01	38164.78
527.18	39115.03
527.36	38817.78
527.53	38995.67
527.70	39658.04
527.87	39711.87
528.04	38960.56
528.21	39473.13
528.38	39484.84
528.55	39754.00
528.72	39452.07
528.89	40273.60
529.07	39264.83
529.24	39498.88
529.41	39702.51
529.58	39730.59
529.75	39688.46
529.92	39590.16
530.09	40322.75
530.26	39920.18
530.43	40261.90
530.60	39730.59
530.77	40280.62
530.94	40418.71
531.11	40275.94
531.28	40481.91
531.46	40357.86
531.63	40360.20
531.80	40629.36
531.97	40257.21
532.14	40484.25
532.31	39983.37
532.48	40299.34
532.65	40664.47
532.82	40519.35
532.99	41088.10
533.16	40741.71
533.33	40802.56
533.50	40938.31
533.67	41017.89
533.84	41057.68
534.01	40753.41
534.18	41104.49
534.35	41319.82
534.52	40659.79
534.69	41448.55
534.86	41457.91
535.03	41380.67
535.20	41572.60
535.37	42043.04
535.54	41853.46
535.71	41310.46
535.88	41806.65
536.05	41556.21
536.22	41628.77
536.38	41717.71
536.55	41738.77
536.72	41474.29
536.89	41347.90
537.06	41413.44
537.23	41834.74
537.40	41509.40
537.57	42204.54
537.74	42073.47
537.91	42508.81
538.08	42408.17
538.25	41720.05
538.42	42328.59
538.59	42550.94
538.75	41825.37
538.92	42422.21
539.09	42249.01
539.26	42178.79
539.43	42307.52
539.60	41883.89
539.77	42344.97
539.94	42038.36
540.11	41750.48
540.28	42169.43
540.44	42553.28
540.61	42417.53
540.78	42146.03
540.95	42298.16
541.12	42382.42
541.29	42677.33
541.46	42188.16
541.62	42682.01
541.79	43138.41
541.96	42274.76
542.13	43058.84
542.30	42880.95
542.47	42749.88
542.63	42845.85
542.80	43131.39
542.97	43140.75
543.14	43906.11
543.31	43555.03
543.48	43665.03
543.64	43744.61
543.81	43508.22
543.98	44039.52
544.15	43306.93
544.32	43962.28
544.48	44505.29
544.65	43718.87
544.82	43901.43
544.99	43438.00
545.16	43412.26
545.32	43995.05
545.49	44598.91
545.66	44292.30
545.83	44144.84
546.00	44369.54
546.16	44184.63
546.33	44142.50
546.50	44254.85
546.67	44378.90
546.83	43885.04
547.00	43934.20
547.17	44032.50
547.34	44339.11
547.50	44219.74
547.67	44336.77
547.84	44254.85
548.00	44350.81
548.17	44898.50
548.34	44547.42
548.51	44650.40
548.67	45024.89
548.84	44502.95
549.01	44659.76
549.18	44463.16
549.34	44912.54
549.51	44949.99
549.68	44643.38
549.84	44832.96
550.01	45188.72
550.18	44758.06
550.34	45001.48
550.51	44858.71
550.68	44652.74
550.84	44765.09
551.01	44940.63
551.18	44910.20
551.34	45153.62
551.51	45123.19
551.68	45907.27
551.84	45059.99
552.01	45177.02
552.18	44978.07
552.34	45003.82
552.51	45333.84
552.68	45184.04
552.84	45397.03
553.01	45134.89
553.18	45411.07
553.34	45174.68
553.51	45343.20
553.67	45106.80
553.84	45666.19
554.01	45254.26
554.17	45647.47
554.34	46089.83
554.51	45581.93
554.67	46314.52
554.84	45141.91
555.00	45741.09
555.17	45382.99
555.33	45645.13
555.50	45808.96
555.67	45689.60
555.83	45617.04
556.00	45462.57
556.16	45954.08
556.33	46036.00
556.50	45869.82
556.66	45883.86
556.83	45603.00
556.99	46066.42
557.16	45778.54
557.32	45860.46
557.49	46122.60
557.65	45729.39
557.82	45918.97
557.98	46162.39
558.15	46220.90
558.32	46597.73
558.48	45848.75
558.65	45815.99
558.81	46052.38
558.98	46211.54
559.14	45979.82
559.31	45869.82
559.47	46199.83
559.64	46176.43
559.80	46349.63
559.97	46045.36
560.13	45722.37
560.30	45977.48
560.46	46092.17
560.63	46220.90
560.79	46375.37
560.96	46396.44
561.12	46124.94
561.29	46064.08
561.45	46440.91
561.61	46473.68
561.78	46213.88
561.94	45991.53
562.11	45954.08
562.27	46330.90
562.44	46153.02
562.60	46857.52
562.77	46293.46
562.93	46148.34
563.10	46588.36
563.26	46426.87
563.42	46307.50
563.59	46244.30
563.75	45827.69
563.92	46815.40
564.08	46316.86
564.24	46614.11
564.41	46815.40
564.57	46712.41
564.74	46698.37
564.90	46391.76
565.07	46906.68
565.23	46574.32
565.39	46396.44
565.56	46766.24
565.72	46033.66
565.88	46429.21
566.05	46419.84
566.21	46522.83
566.38	46513.47
566.54	46721.77
566.70	46625.81
566.87	47037.75
567.03	46653.90
567.19	46969.87
567.36	46707.73
567.52	46380.06
567.68	46714.75
567.85	46314.52
568.01	46780.29
568.17	46461.97
568.34	46745.18
568.50	46646.88
568.66	46319.20
568.83	46857.52
568.99	46562.62
569.15	46681.98
569.32	46337.93
569.48	46333.24
569.64	47295.21
569.81	46157.70
569.97	46857.52
570.13	46782.63
570.30	46553.26
570.46	46445.59
570.62	46569.64
570.78	46754.54
570.95	46569.64
571.11	46761.56
571.27	46745.18
571.43	46646.88
571.60	46621.13
571.76	46614.11
571.92	47138.39
572.09	46979.23
572.25	46866.89
572.41	46220.90
572.57	46883.27
572.74	47220.31
572.90	46756.88
573.06	47072.85
573.22	46995.62
573.38	46714.75
573.55	46342.61
573.71	46883.27
573.87	46607.09
574.03	46981.57
574.20	46703.05
574.36	46777.95
574.52	46897.31
574.68	46934.76
574.84	46951.15
575.01	46791.99
575.17	46497.08
575.33	46913.70
575.49	46410.48
575.65	46873.91
575.82	47152.43
575.98	46752.20
576.14	47019.02
576.30	46866.89
576.46	46859.87
576.62	46775.61
576.79	47107.96
576.95	46557.94
577.11	46412.82
577.27	46635.17
577.43	46930.08
577.59	46618.79
577.75	46738.16
577.92	46520.49
578.08	46691.35
578.24	46366.01
578.40	46422.19
578.56	46794.33
578.72	46358.99
578.88	47114.98
579.04	47122.01
579.21	46841.14
579.37	47117.32
579.53	46859.87
579.69	46909.02
579.85	47093.92
580.01	46873.91
580.17	46571.98
580.33	46806.03
580.49	46759.22
580.65	46883.27
580.82	46993.28
580.98	47089.24
581.14	47122.01
581.30	47227.33
581.46	46986.25
581.62	47037.75
581.78	46873.91
581.94	46948.81
582.10	46791.99
582.26	47070.51
582.42	47360.74
582.58	47075.19
582.74	46663.26
582.90	47360.74
583.06	47578.41
583.22	47117.32
583.38	47393.51
583.54	46962.85
583.70	46876.25
583.86	46773.27
584.02	46932.42
584.18	46726.46
584.34	46955.83
584.50	47096.26
584.66	46740.50
584.82	46567.30
584.98	47154.77
585.14	46693.69
585.30	46827.10
585.46	47159.45
585.62	46834.12
585.78	46824.76
585.94	46714.75
586.10	46707.73
586.26	46763.90
586.42	47033.07
586.58	47435.64
586.74	47430.96
586.90	47529.26
587.06	46813.05
587.22	47075.19
587.38	46607.09
587.54	47000.30
587.70	46951.15
587.86	47063.49
588.02	47075.19
588.18	47180.52
588.34	47112.64
588.49	46520.49
588.65	46586.02
588.81	46059.40
588.97	46539.21
589.13	46136.64
589.29	46728.80
589.45	46719.43
589.61	47416.91
589.77	46941.78
589.93	47012.00
