SpectraSuite Data File
++++++++++++++++++++++++++++++++++++
Date: Fri Oct 25 11:23:27 EDT 2013
User: price-jones
Dark Spectrum Present: No
Reference Spectrum Present: No
Number of Sampled Component Spectra: 1
Spectrometers: USB2+H05261
Integration Time (usec): 100000 (USB2+H05261)
Spectra Averaged: 1 (USB2+H05261)
Boxcar Smoothing: 0 (USB2+H05261)
Correct for Electrical Dark: No (USB2+H05261)
Strobe/Lamp Enabled: No (USB2+H05261)
Correct for Detector Non-linearity: No (USB2+H05261)
Correct for Stray Light: No (USB2+H05261)
Number of Pixels in Processed Spectrum: 2048
>>>>>Begin Processed Spectral Data<<<<<
365.73	191.92
365.92	191.92
366.12	191.92
366.32	142.77
366.52	145.11
366.72	110.01
366.91	133.41
367.11	177.88
367.31	128.73
367.51	91.28
367.70	91.28
367.90	114.69
368.10	142.77
368.30	142.77
368.49	112.35
368.69	152.13
368.89	86.60
369.09	142.77
369.28	138.09
369.48	159.16
369.68	189.58
369.87	191.92
370.07	236.39
370.27	259.80
370.47	376.83
370.66	589.82
370.86	660.03
371.06	620.24
371.25	636.63
371.45	692.80
371.65	699.82
371.84	662.37
372.04	688.12
372.24	699.82
372.44	709.18
372.63	704.50
372.83	823.87
373.03	814.51
373.22	737.27
373.42	781.74
373.62	814.51
373.81	821.53
374.01	760.67
374.21	800.46
374.40	748.97
374.60	807.48
374.79	823.87
374.99	819.19
375.19	821.53
375.38	851.96
375.58	945.58
375.78	777.06
375.97	856.64
376.17	924.51
376.37	877.70
376.56	896.43
376.76	844.93
376.95	896.43
377.15	816.85
377.35	915.15
377.54	931.53
377.74	861.32
377.93	917.49
378.13	910.47
378.33	943.24
378.52	987.71
378.72	917.49
378.91	833.23
379.11	940.90
379.31	985.37
379.50	922.17
379.70	938.55
379.89	938.55
380.09	880.04
380.28	924.51
380.48	1043.88
380.68	922.17
380.87	936.21
381.07	1025.15
381.26	1074.31
381.46	966.64
381.65	992.39
381.85	1001.75
382.04	1050.90
382.24	999.41
382.43	1022.81
382.63	1076.65
382.83	987.71
383.02	1043.88
383.22	1142.18
383.41	1128.14
383.61	1032.18
383.80	1165.59
384.00	1102.39
384.19	1109.41
384.39	1064.94
384.58	1107.07
384.78	1179.63
384.97	1135.16
385.17	1107.07
385.36	1144.52
385.56	1177.29
385.75	1132.82
385.95	1198.35
386.14	1165.59
386.34	1100.05
386.53	1125.80
386.72	1118.78
386.92	1109.41
387.11	1231.12
387.31	1128.14
387.50	1221.76
387.70	1355.17
387.89	1263.89
388.09	1224.10
388.28	1240.48
388.48	1266.23
388.67	1359.85
388.86	1373.89
389.06	1320.06
389.25	1317.72
389.45	1303.68
389.64	1343.47
389.84	1331.76
390.03	1383.26
390.22	1378.58
390.42	1437.09
390.61	1425.39
390.81	1462.83
391.00	1350.49
391.19	1514.33
391.39	1444.11
391.58	1446.45
391.78	1530.71
391.97	1504.96
392.16	1418.36
392.36	1509.65
392.55	1441.77
392.75	1504.96
392.94	1507.30
393.13	1469.86
393.33	1537.73
393.52	1561.14
393.71	1661.78
393.91	1558.80
394.10	1542.41
394.29	1631.35
394.49	1462.83
394.68	1673.48
394.88	1572.84
395.07	1762.42
395.26	1638.38
395.46	1638.38
395.65	1664.12
395.84	1724.97
396.04	1813.92
396.23	1748.38
396.42	1919.24
396.62	1771.79
396.81	1802.21
397.00	1802.21
397.19	1844.34
397.39	1781.15
397.58	1914.56
397.77	1778.81
397.97	1799.87
398.16	1865.41
398.35	1928.60
398.55	1806.89
398.74	1947.33
398.93	2008.18
399.12	1921.58
399.32	1947.33
399.51	1966.05
399.70	1937.96
399.90	1959.03
400.09	2057.33
400.28	2087.76
400.47	2106.48
400.67	2087.76
400.86	2101.80
401.05	2078.40
401.24	2162.66
401.44	2085.42
401.63	2195.42
401.82	2129.89
402.01	2036.27
402.21	2157.97
402.40	2162.66
402.59	2127.55
402.78	2134.57
402.97	2256.28
403.17	2286.70
403.36	2251.60
403.55	2275.00
403.74	2340.54
403.93	2326.49
404.13	2429.48
404.32	2399.05
404.51	2216.49
404.70	2380.32
404.89	2401.39
405.09	2401.39
405.28	2427.14
405.47	2455.22
405.66	2567.57
405.85	2670.55
406.05	2565.23
406.24	2546.50
406.43	2518.42
406.62	2562.89
406.81	2593.31
407.00	2602.68
407.20	2602.68
407.39	2546.50
407.58	2661.19
407.77	2731.41
407.96	2736.09
408.15	2775.88
408.34	2722.04
408.54	2799.28
408.73	2764.17
408.92	2857.79
409.11	2857.79
409.30	2930.35
409.49	2874.18
409.68	2958.44
409.87	2902.26
410.07	2944.39
410.26	2972.48
410.45	3007.59
410.64	3059.08
410.83	3122.27
411.02	3068.44
411.21	3129.30
411.40	3269.73
411.59	3225.26
411.78	3066.10
411.98	3162.06
412.17	3337.60
412.36	3424.20
412.55	3412.50
412.74	3417.18
412.93	3571.66
413.12	3286.11
413.31	3613.79
413.50	3522.51
413.69	3534.21
413.88	3611.45
414.07	3611.45
414.26	3557.61
414.45	3545.91
414.64	3784.65
414.83	3674.64
415.02	3751.88
415.22	3838.48
415.41	3927.42
415.60	3899.33
415.79	4014.02
415.98	4051.47
416.17	4093.60
416.36	3840.82
416.55	4011.68
416.74	4166.15
416.93	4070.19
417.12	4257.43
417.31	4203.60
417.50	4147.43
417.69	4451.70
417.88	4351.06
418.07	4353.40
418.26	4287.86
418.45	4353.40
418.64	4517.23
418.83	4533.62
419.02	4451.70
419.21	4461.06
419.39	4519.57
419.58	4386.16
419.77	4451.70
419.96	4589.79
420.15	4538.30
420.34	4798.10
420.53	4538.30
420.72	4730.22
420.91	4851.93
421.10	4791.08
421.29	4875.34
421.48	4828.53
421.67	4908.10
421.86	4828.53
422.05	4755.97
422.24	4858.95
422.43	4903.42
422.61	4922.15
422.80	4950.23
422.99	4884.70
423.18	4940.87
423.37	4954.91
423.56	4926.83
423.75	4999.38
423.94	4912.78
424.13	4585.11
424.32	4809.80
424.50	5088.32
424.69	5071.94
424.88	5062.58
425.07	4758.31
425.26	4929.17
425.45	4905.76
425.64	4997.04
425.83	5025.13
426.01	4957.25
426.20	5114.07
426.39	5121.09
426.58	5057.90
426.77	4992.36
426.96	5191.31
427.15	5132.79
427.33	5245.14
427.52	5322.38
427.71	5348.12
427.90	5207.69
428.09	5561.11
428.28	5465.15
428.46	5282.59
428.65	5497.92
428.84	5380.89
429.03	5504.94
429.22	5350.46
429.40	5406.64
429.59	5441.75
429.78	5277.91
429.97	5305.99
430.16	5423.02
430.34	5624.31
430.53	5837.30
430.72	5816.23
430.91	5612.60
431.10	5661.76
431.28	5715.59
431.47	5785.80
431.66	5771.76
431.85	5846.66
432.03	5837.30
432.22	5949.64
432.41	5991.77
432.60	5996.45
432.79	5987.09
432.97	6167.31
433.16	6008.16
433.35	6085.39
433.54	6129.86
433.72	6235.19
433.91	5996.45
434.10	6132.20
434.28	6052.63
434.47	6312.42
434.66	6225.82
434.85	6494.99
435.03	6441.15
435.22	6392.00
435.41	6523.07
435.59	6310.08
435.78	6523.07
435.97	6525.41
436.16	6473.92
436.34	6464.56
436.53	6462.22
436.72	6747.76
436.90	6497.33
437.09	6719.68
437.28	6494.99
437.46	6612.01
437.65	6677.55
437.84	6719.68
438.02	6752.45
438.21	6913.94
438.40	6504.35
438.58	6953.73
438.77	7101.19
438.96	6864.79
439.14	7377.37
439.33	7082.46
439.52	7276.73
439.70	7187.79
439.89	7243.96
440.08	7428.86
440.26	7295.45
440.45	7307.15
440.63	7426.52
440.82	7559.93
441.01	7611.42
441.19	7674.62
441.38	7829.09
441.57	7803.35
441.75	7971.86
441.94	7936.76
442.12	7978.89
442.31	7955.48
442.50	8386.14
442.68	8229.32
442.87	7981.23
443.05	8133.36
443.24	8070.17
443.43	8381.46
443.61	8250.39
443.80	8432.95
443.98	8016.33
444.17	7920.37
444.35	8126.34
444.54	8416.57
444.73	8229.32
444.91	8308.90
445.10	8243.37
445.28	8411.89
445.47	8100.59
445.65	8454.02
445.84	8638.92
446.02	8404.86
446.21	8505.51
446.39	8294.86
446.58	8432.95
446.77	8432.95
446.95	8344.01
447.14	8407.20
447.32	8547.64
447.51	8444.65
447.69	8369.76
447.88	8596.79
448.06	8617.85
448.25	8475.08
448.43	8559.34
448.62	8566.36
448.80	8491.46
448.99	8690.41
449.17	8674.03
449.36	8627.21
449.54	8926.80
449.73	8959.57
449.91	9041.49
450.10	8924.46
450.28	9100.00
450.46	9111.71
450.65	9142.13
450.83	9151.49
451.02	9011.06
451.20	9165.54
451.39	9158.52
451.57	9240.44
451.76	9085.96
451.94	9137.45
452.13	9352.78
452.31	9348.10
452.49	9144.47
452.68	9469.81
452.86	9350.44
453.05	9474.49
453.23	9394.91
453.42	9413.63
453.60	9362.14
453.78	9483.85
453.97	9544.70
454.15	9493.21
454.34	9497.89
454.52	9987.07
454.70	9832.59
454.89	9792.80
455.07	9778.76
455.26	9774.08
455.44	9909.83
455.62	9783.44
455.81	9753.01
455.99	9912.17
456.17	10232.82
456.36	10193.03
456.54	10183.67
456.73	10258.57
456.91	10347.51
457.09	10384.96
457.28	10600.29
457.46	10307.72
457.64	10569.86
457.83	10464.54
458.01	10328.78
458.19	10668.16
458.38	10670.50
458.56	10778.17
458.74	10752.42
458.93	10509.01
459.11	10621.35
459.29	10841.36
459.48	10801.57
459.66	11012.22
459.84	11077.76
460.03	11136.27
460.21	11131.59
460.39	11052.01
460.57	10991.16
460.76	11239.25
460.94	11122.23
461.12	11314.15
461.31	10998.18
461.49	11304.79
461.67	11197.12
461.85	11410.11
462.04	11267.34
462.22	11658.21
462.40	11438.20
462.59	11592.67
462.77	11618.42
462.95	11606.72
463.13	11784.60
463.32	11880.56
463.50	11648.85
463.68	11808.00
463.86	11850.13
464.05	11653.53
464.23	11761.19
464.41	11957.80
464.59	11805.66
464.78	12259.73
464.96	12121.63
465.14	11669.91
465.32	11927.37
465.50	12028.01
465.69	12271.43
465.87	12180.15
466.05	11999.93
466.23	12280.79
466.41	12205.89
466.60	12631.87
466.78	12187.17
466.96	12423.56
467.14	12353.35
467.32	12423.56
467.51	12421.22
467.69	12126.32
467.87	12578.04
468.05	12933.80
468.23	12334.62
468.41	12727.83
468.60	12662.30
468.78	12748.90
468.96	12688.04
469.14	12833.16
469.32	13004.02
469.50	12709.11
469.69	13053.17
469.87	13205.30
470.05	13209.98
470.23	13188.92
470.41	13380.84
470.59	13336.37
470.77	13092.96
470.95	13355.10
471.14	13654.69
471.32	13289.56
471.50	13455.74
471.68	13729.58
471.86	13872.36
472.04	13877.04
472.22	13916.83
472.40	13954.27
472.58	13848.95
472.77	13776.39
472.95	14153.22
473.13	14523.02
473.31	14052.58
473.49	13977.68
473.67	14195.35
473.85	14508.98
474.03	14904.53
474.21	14684.52
474.39	15169.01
474.57	14572.18
474.75	15122.20
474.93	15009.86
475.12	15117.52
475.30	15435.83
475.48	14911.55
475.66	15248.59
475.84	15190.08
476.02	15407.75
476.20	15482.64
476.38	15775.21
476.56	16067.78
476.74	16086.50
476.92	15885.22
477.10	15728.40
477.28	16290.13
477.46	16287.79
477.64	16322.90
477.82	16746.53
478.00	16924.41
478.18	16886.97
478.36	16961.86
478.54	17296.56
478.72	17095.27
478.90	17312.94
479.08	17666.36
479.26	18003.40
479.44	17731.90
479.62	17858.29
479.80	18176.60
479.98	18375.55
480.16	18476.19
480.34	18218.73
480.52	18565.13
480.70	18405.97
480.88	18338.10
481.06	18780.46
481.24	18452.78
481.41	19190.05
481.59	19580.92
481.77	19709.65
481.95	19459.21
482.13	20025.62
482.31	19681.56
482.49	20379.04
482.67	20460.96
482.85	20475.01
483.03	20439.90
483.21	20767.57
483.39	21128.02
483.57	21167.80
483.74	21205.25
483.92	21228.66
484.10	21439.31
484.28	21626.55
484.46	22066.57
484.64	22216.36
484.82	22382.54
485.00	22478.50
485.18	23290.67
485.35	23330.46
485.53	22869.37
485.71	23381.95
485.89	23721.33
486.07	23580.90
486.25	23342.16
486.43	23723.67
486.61	24006.87
486.78	24049.00
486.96	24159.01
487.14	24620.10
487.32	24664.57
487.50	24943.09
487.68	25170.12
487.85	25565.67
488.03	25612.48
488.21	25989.31
488.39	26263.15
488.57	26167.19
488.75	26162.51
488.92	26602.53
489.10	26944.25
489.28	26719.56
489.46	27248.52
489.64	27145.53
489.81	27735.35
489.99	27770.46
490.17	28128.56
490.35	28601.35
490.53	28437.51
490.70	27988.13
490.88	28311.12
491.06	28720.71
491.24	29612.46
491.41	29436.92
491.59	29312.87
491.77	29539.90
491.95	29989.28
492.13	29862.90
492.30	30380.15
492.48	30375.47
492.66	30384.83
492.84	30316.96
493.01	30979.33
493.19	30752.30
493.37	31187.64
493.54	31295.30
493.72	31646.38
493.90	31578.51
494.08	31768.09
494.25	32297.05
494.43	32603.66
494.61	32477.27
494.79	32488.98
494.96	32615.37
495.14	32882.19
495.32	33172.41
495.49	33312.84
495.67	33256.67
495.85	33762.23
496.02	33778.61
496.20	34019.69
496.38	34274.80
496.55	34415.24
496.73	35082.29
496.91	34515.88
497.09	34939.52
497.26	35248.47
497.44	35234.42
497.62	35225.06
497.79	35763.39
497.97	35384.22
498.14	36065.31
498.32	36240.86
498.50	36011.48
498.67	36715.98
498.85	36879.82
499.03	36758.11
499.20	36847.05
499.38	36994.51
499.56	37109.19
499.73	37177.07
499.91	37619.43
500.08	37963.49
500.26	37457.93
500.44	37872.21
500.61	37989.24
500.79	38113.28
500.97	38579.05
501.14	38735.87
501.32	38822.47
501.49	38878.64
501.67	38553.30
501.84	39255.46
502.02	39220.36
502.20	39388.88
502.37	39363.13
502.55	39559.73
502.72	39693.15
502.90	39796.13
503.07	39728.25
503.25	39737.62
503.43	40112.10
503.60	40308.71
503.78	40484.25
503.95	40617.66
504.13	41256.62
504.30	40706.60
504.48	40596.59
504.65	40982.78
504.83	41338.54
505.01	41340.88
505.18	41394.71
505.36	41422.80
505.53	41654.51
505.71	41928.36
505.88	42033.68
506.06	41406.42
506.23	42092.19
506.41	41991.55
506.58	42373.06
506.76	42403.49
506.93	42946.49
507.11	42396.46
507.28	42131.98
507.46	42983.94
507.63	43269.48
507.81	43629.93
507.98	43171.18
508.16	43391.19
508.33	44009.09
508.50	43540.99
508.68	43938.88
508.85	44121.44
509.03	44203.36
509.20	44093.35
509.38	44463.16
509.55	44671.46
509.73	44650.40
509.90	44790.83
510.08	44690.19
510.25	45015.52
510.42	44931.26
510.60	45165.32
510.77	45303.41
510.95	45750.45
511.12	45326.81
511.30	45696.62
511.47	45469.59
511.64	45834.71
511.82	45895.56
511.99	45766.84
512.17	46024.29
512.34	46174.09
512.51	46461.97
512.69	46979.23
512.86	46712.41
513.04	46618.79
513.21	46813.05
513.38	46504.10
513.56	47023.70
513.73	46838.80
513.90	46997.96
514.08	47152.43
514.25	47454.36
514.43	47835.87
514.60	47686.07
514.77	47552.66
514.95	47716.50
515.12	47594.79
515.29	47880.34
515.47	48172.91
515.64	48292.27
515.81	47978.64
515.99	48538.03
516.16	48830.60
516.33	48545.05
516.51	48577.82
516.68	48971.03
516.85	48526.33
517.03	48793.15
517.20	49392.33
517.37	48622.29
517.54	48886.77
517.72	49425.09
517.89	49315.09
518.06	49544.46
518.24	49499.99
518.41	49216.78
518.58	49392.33
518.75	49556.16
518.93	49593.61
519.10	49783.19
519.27	49911.92
519.45	49705.96
519.62	49986.82
519.79	49759.79
519.96	50246.62
520.14	50548.55
520.31	50007.89
520.48	50295.77
520.65	50578.98
520.83	50412.80
521.00	50892.61
521.17	50578.98
521.34	50688.98
521.52	50553.23
521.69	50820.05
521.86	51414.55
522.03	51250.71
522.20	51611.15
522.38	51896.70
522.55	51332.63
522.72	51372.42
522.89	51573.70
523.07	51650.94
523.24	51742.22
523.41	51744.56
523.58	51552.64
523.75	51990.32
523.92	51782.01
524.10	52203.31
524.27	52397.57
524.44	52079.26
524.61	52301.61
524.78	52397.57
524.96	52435.02
525.13	52425.66
525.30	52893.77
525.47	52601.20
525.64	52715.89
525.81	52701.84
525.98	52624.60
526.16	52750.99
526.33	52907.81
526.50	53298.68
526.67	52715.89
526.84	52931.22
527.01	53024.84
527.18	52884.40
527.36	53064.63
527.53	53057.60
527.70	53474.22
527.87	53303.36
528.04	53066.97
528.21	53439.11
528.38	53626.35
528.55	53684.87
528.72	53359.53
528.89	53705.93
529.07	53532.73
529.24	53727.00
529.41	53776.15
529.58	54010.20
529.75	53525.71
529.92	53624.01
530.09	53979.78
530.26	54066.38
530.43	53916.58
530.60	53928.28
530.77	54082.76
530.94	54071.06
531.11	54328.52
531.28	54188.08
531.46	54176.38
531.63	54363.62
531.80	54387.03
531.97	54354.26
532.14	54700.66
532.31	54270.00
532.48	54986.21
532.65	54759.17
532.82	54438.52
532.99	54686.62
533.16	54768.54
533.33	54979.18
533.50	54972.16
533.67	54595.34
533.84	54827.05
534.01	54801.30
534.18	55058.76
534.35	55379.42
534.52	55384.10
534.69	55292.82
534.86	55309.20
535.03	55194.51
535.20	55599.43
535.37	55281.11
535.54	55695.39
535.71	55405.16
535.88	55620.49
536.05	55442.61
536.22	55585.38
536.38	55866.25
536.55	55910.72
536.72	55571.34
536.89	55732.84
537.06	55796.03
537.23	55772.63
537.40	55683.69
537.57	55927.10
537.74	55739.86
537.91	56158.81
538.08	55990.30
538.25	55852.20
538.42	56020.72
538.59	56296.91
538.75	56034.77
538.92	55978.59
539.09	56172.86
539.26	55941.14
539.43	56140.09
539.60	56306.27
539.77	56343.72
539.94	56577.77
540.11	56673.73
540.28	56559.05
540.44	56547.34
540.61	56720.54
540.78	56554.36
540.95	56652.67
541.12	56343.72
541.29	56561.39
541.46	56299.25
541.62	56736.93
541.79	56830.55
541.96	56631.60
542.13	56568.41
542.30	56509.89
542.47	56788.42
542.63	57020.13
542.80	56935.87
542.97	57193.33
543.14	57343.12
543.31	57230.78
543.48	57111.41
543.64	57542.07
543.81	57570.16
543.98	57331.42
544.15	57406.32
544.32	57497.60
544.48	57595.90
544.65	57586.54
544.82	57607.61
544.99	57532.71
545.16	57755.06
545.32	57544.41
545.49	57808.89
545.66	58052.31
545.83	57717.61
546.00	57916.56
546.16	57813.57
546.33	57654.42
546.50	57808.89
546.67	57902.51
546.83	57408.66
547.00	57780.81
547.17	57790.17
547.34	57946.98
547.50	58096.78
547.67	58099.12
547.84	57972.73
548.00	58412.75
548.17	58291.04
548.34	58197.42
548.51	58269.98
548.67	58396.37
548.84	58269.98
549.01	58286.36
549.18	58387.00
549.34	58344.87
549.51	58443.18
549.68	58660.85
549.84	58557.86
550.01	58646.80
550.18	58363.60
550.34	58712.34
550.51	58667.87
550.68	58412.75
550.84	58351.90
551.01	58787.24
551.18	58525.10
551.34	58756.81
551.51	58574.25
551.68	58684.25
551.84	58663.19
552.01	58527.44
552.18	59047.04
552.34	58777.87
552.51	58955.75
552.68	58691.27
552.84	58674.89
553.01	59124.27
553.18	58932.35
553.34	58908.94
553.51	58810.64
553.67	58972.14
553.84	58976.82
554.01	59133.63
554.17	58983.84
554.34	59187.47
554.51	59119.59
554.67	59161.72
554.84	59016.61
555.00	59213.21
555.17	59056.40
555.33	59180.45
555.50	59140.66
555.67	59037.67
555.83	59187.47
556.00	59213.21
556.16	59714.09
556.33	59428.54
556.50	59250.66
556.66	59496.42
556.83	59248.32
556.99	59606.42
557.16	59519.82
557.32	59454.29
557.49	59749.20
557.65	59164.06
557.82	59353.65
557.98	59538.55
558.15	59557.27
558.32	59646.21
558.48	59543.23
558.65	59636.85
558.81	59913.03
558.98	59601.74
559.14	59737.49
559.31	59662.60
559.47	59922.40
559.64	60027.72
559.80	59856.86
559.97	59728.13
560.13	59456.63
560.30	59777.28
560.46	59803.03
560.63	59751.54
560.79	60154.11
560.96	59950.48
561.12	59987.93
561.29	59938.78
561.45	60062.83
561.61	59852.18
561.78	59891.97
561.94	59962.18
562.11	60020.70
562.27	60046.44
562.44	60090.91
562.60	60189.22
562.77	59990.27
562.93	59891.97
563.10	60100.28
563.26	59934.10
563.42	60210.28
563.59	59931.76
563.75	60402.21
563.92	60088.57
564.08	60093.25
564.24	60299.22
564.41	60521.57
564.57	60282.84
564.74	60250.07
564.90	60116.66
565.07	60280.50
565.23	60179.85
565.39	60324.97
565.56	60467.74
565.72	60329.65
565.88	60285.18
566.05	60273.48
566.21	60156.45
566.38	60341.35
566.54	60367.10
566.70	60474.76
566.87	60526.25
567.03	60182.19
567.19	60610.51
567.36	60126.02
567.52	60341.35
567.68	60786.05
567.85	60406.89
568.01	60554.34
568.17	60495.83
568.34	60495.83
568.50	60516.89
568.66	60420.93
568.83	60526.25
568.99	60533.28
569.15	60488.80
569.32	60346.03
569.48	60432.63
569.64	60542.64
569.81	60584.77
569.97	60552.00
570.13	60488.80
570.30	60341.35
570.46	60528.59
570.62	60699.45
570.78	60697.11
570.95	60470.08
571.11	60685.41
571.27	60774.35
571.43	60662.00
571.60	60879.67
571.76	60947.55
571.92	60601.15
572.09	60647.96
572.25	60823.50
572.41	60605.83
572.57	60544.98
572.74	60961.59
572.90	60734.56
573.06	60514.55
573.22	60757.97
573.38	60835.20
573.55	60676.05
573.71	61003.72
573.87	60830.52
574.03	60612.85
574.20	60814.14
574.36	60755.63
574.52	60718.18
574.68	60753.29
574.84	60853.93
575.01	60933.51
575.17	60949.89
575.33	60788.39
575.49	60680.73
575.65	60977.98
575.82	60945.21
575.98	60748.60
576.14	61134.79
576.30	60781.37
576.46	60795.42
576.62	60704.13
576.79	60949.89
576.95	60760.31
577.11	60905.42
577.27	60921.80
577.43	60947.55
577.59	60739.24
577.75	60870.31
577.92	60814.14
578.08	60891.38
578.24	60942.87
578.40	61041.17
578.56	61123.09
578.72	60926.49
578.88	61076.28
579.04	60985.00
579.21	60975.64
579.37	61050.53
579.53	61141.81
579.69	60800.10
579.85	60942.87
580.01	61010.74
580.17	61013.08
580.33	61099.68
580.49	61076.28
580.65	61095.00
580.82	61029.47
580.98	60863.29
581.14	60968.61
581.30	61125.43
581.46	61073.94
581.62	61006.06
581.78	60959.25
581.94	61008.40
582.10	61022.45
582.26	60889.04
582.42	60898.40
582.58	60977.98
582.74	60966.27
582.90	61076.28
583.06	61062.24
583.22	61024.79
583.38	61127.77
583.54	61076.28
583.70	61013.08
583.86	61139.47
584.02	61055.21
584.18	61219.05
584.34	61027.13
584.50	61116.07
584.66	61066.92
584.82	60867.97
584.98	61326.72
585.14	61193.31
585.30	60907.76
585.46	60900.74
585.62	61338.42
585.78	61375.87
585.94	60933.51
586.10	61024.79
586.26	61109.05
586.42	61153.52
586.58	61296.29
586.74	61137.13
586.90	61102.03
587.06	61041.17
587.22	61361.82
587.38	61073.94
587.54	61116.07
587.70	61364.17
587.86	61197.99
588.02	61085.64
588.18	61132.45
588.34	61186.28
588.49	61209.69
