SpectraSuite Data File
++++++++++++++++++++++++++++++++++++
Date: Fri Oct 25 10:47:39 EDT 2013
User: price-jones
Dark Spectrum Present: No
Reference Spectrum Present: No
Number of Sampled Component Spectra: 1
Spectrometers: USB2+H05261
Integration Time (usec): 100000 (USB2+H05261)
Spectra Averaged: 1 (USB2+H05261)
Boxcar Smoothing: 0 (USB2+H05261)
Correct for Electrical Dark: No (USB2+H05261)
Strobe/Lamp Enabled: No (USB2+H05261)
Correct for Detector Non-linearity: No (USB2+H05261)
Correct for Stray Light: No (USB2+H05261)
Number of Pixels in Processed Spectrum: 2048
>>>>>Begin Processed Spectral Data<<<<<
365.73	156.82
365.92	156.82
366.12	156.82
366.32	53.83
366.52	39.79
366.72	67.88
366.91	110.01
367.11	95.96
367.31	23.41
367.51	42.13
367.70	0.00
367.90	58.51
368.10	56.17
368.30	49.15
368.49	0.00
368.69	35.11
368.89	81.92
369.09	53.83
369.28	91.28
369.48	51.49
369.68	49.15
369.87	72.56
370.07	105.32
370.27	142.77
370.47	163.84
370.66	372.15
370.86	334.70
371.06	423.64
371.25	393.21
371.45	449.38
371.65	472.79
371.84	442.36
372.04	486.83
372.24	503.22
372.44	435.34
372.63	535.98
372.83	397.89
373.03	442.36
373.22	550.03
373.42	531.30
373.62	543.00
373.81	451.72
374.01	545.34
374.21	615.56
374.40	575.77
374.60	627.26
374.79	535.98
374.99	599.18
375.19	571.09
375.38	599.18
375.58	543.00
375.78	589.82
375.97	524.28
376.17	613.22
376.37	606.20
376.56	496.19
376.76	507.90
376.95	561.73
377.15	664.71
377.35	631.94
377.54	671.73
377.74	573.43
377.93	706.84
378.13	643.65
378.33	648.33
378.52	617.90
378.72	667.05
378.91	650.67
379.11	564.07
379.31	566.41
379.50	629.60
379.70	723.23
379.89	603.86
380.09	681.10
380.28	676.41
380.48	711.52
380.68	596.84
380.87	678.76
381.07	610.88
381.26	713.86
381.46	662.37
381.65	692.80
381.85	674.07
382.04	727.91
382.24	720.88
382.43	741.95
382.63	734.93
382.83	678.76
383.02	711.52
383.22	695.14
383.41	704.50
383.61	716.20
383.80	772.38
384.00	758.33
384.19	795.78
384.39	711.52
384.58	748.97
384.78	788.76
384.97	798.12
385.17	755.99
385.36	753.65
385.56	758.33
385.75	784.08
385.95	830.89
386.14	786.42
386.34	734.93
386.53	816.85
386.72	856.64
386.92	854.30
387.11	819.19
387.31	744.29
387.50	788.76
387.70	800.46
387.89	870.68
388.09	746.63
388.28	791.10
388.48	844.93
388.67	851.96
388.86	851.96
389.06	922.17
389.25	940.90
389.45	861.32
389.64	973.66
389.84	924.51
390.03	828.55
390.22	896.43
390.42	1022.81
390.61	943.24
390.81	947.92
391.00	983.02
391.19	919.83
391.39	992.39
391.58	947.92
391.78	966.64
391.97	983.02
392.16	938.55
392.36	1036.86
392.55	985.37
392.75	936.21
392.94	997.07
393.13	990.05
393.33	1032.18
393.52	1109.41
393.71	1020.47
393.91	1081.33
394.10	1076.65
394.29	1076.65
394.49	1083.67
394.68	1095.37
394.88	1069.62
395.07	1142.18
395.26	1107.07
395.46	1139.84
395.65	1186.65
395.84	1158.57
396.04	1146.86
396.23	1130.48
396.42	1062.60
396.62	1130.48
396.81	1226.44
397.00	1167.93
397.19	1121.12
397.39	1111.75
397.58	1263.89
397.77	1226.44
397.97	1221.76
398.16	1203.04
398.35	1327.08
398.55	1390.28
398.74	1313.04
398.93	1399.64
399.12	1334.11
399.32	1350.49
399.51	1329.42
399.70	1411.34
399.90	1296.66
400.09	1401.98
400.28	1486.24
400.47	1432.41
400.67	1654.76
400.86	1446.45
401.05	1437.09
401.24	1558.80
401.44	1497.94
401.63	1547.09
401.82	1511.99
402.01	1544.75
402.21	1528.37
402.40	1600.93
402.59	1544.75
402.78	1668.80
402.97	1535.39
403.17	1614.97
403.36	1629.01
403.55	1654.76
403.74	1647.74
403.93	1643.06
404.13	1713.27
404.32	1600.93
404.51	1692.21
404.70	1750.72
404.89	1593.90
405.09	1834.98
405.28	1708.59
405.47	1753.06
405.66	1764.76
405.85	1753.06
406.05	1809.23
406.24	1778.81
406.43	1863.07
406.62	1792.85
406.81	1987.11
407.00	1926.26
407.20	1818.60
407.39	1956.69
407.58	2040.95
407.77	1989.46
407.96	1975.41
408.15	2043.29
408.34	1905.20
408.54	1994.14
408.73	2090.10
408.92	2122.87
409.11	2017.54
409.30	2078.40
409.49	2134.57
409.68	2059.67
409.87	2090.10
410.07	2132.23
410.26	2134.57
410.45	2136.91
410.64	2251.60
410.83	2197.76
411.02	2284.36
411.21	2282.02
411.40	2296.07
411.59	2293.72
411.78	2385.01
411.98	2310.11
412.17	2389.69
412.36	2490.33
412.55	2415.43
412.74	2478.63
412.93	2417.77
413.12	2497.35
413.31	2464.58
413.50	2555.86
413.69	2450.54
413.88	2476.29
414.07	2478.63
414.26	2595.65
414.45	2588.63
414.64	2668.21
414.83	2710.34
415.02	2752.47
415.22	2736.09
415.41	2902.26
415.60	2881.20
415.79	2843.75
415.98	2967.80
416.17	2881.20
416.36	2841.41
416.55	2904.60
416.74	2897.58
416.93	2944.39
417.12	2993.55
417.31	3115.25
417.50	3045.04
417.69	3180.79
417.88	3178.45
418.07	3138.66
418.26	3131.64
418.45	3126.96
418.64	3157.38
418.83	3279.09
419.02	3283.77
419.21	3229.94
419.39	3283.77
419.58	3293.13
419.77	3227.60
419.96	3328.24
420.15	3290.79
420.34	3405.48
420.53	3456.97
420.72	3433.57
420.91	3534.21
421.10	3492.08
421.29	3543.57
421.48	3473.36
421.67	3515.48
421.86	3351.65
422.05	3466.33
422.24	3508.46
422.43	3339.94
422.61	3508.46
422.80	3641.87
422.99	3435.91
423.18	3646.55
423.37	3634.85
423.56	3592.72
423.75	3456.97
423.94	3630.17
424.13	3351.65
424.32	3445.27
424.50	3709.75
424.69	3733.15
424.88	3693.37
425.07	3480.38
425.26	3454.63
425.45	3597.40
425.64	3709.75
425.83	3581.02
426.01	3581.02
426.20	3742.52
426.39	3714.43
426.58	3726.13
426.77	3665.28
426.96	3686.34
427.15	3653.58
427.33	3765.92
427.52	3665.28
427.71	3740.18
427.90	3751.88
428.09	3763.58
428.28	3843.16
428.46	3819.75
428.65	3630.17
428.84	3960.19
429.03	4032.74
429.22	3634.85
429.40	3880.61
429.59	3822.09
429.78	3667.62
429.97	3672.30
430.16	3733.15
430.34	3885.29
430.53	3896.99
430.72	3894.65
430.91	3925.08
431.10	3925.08
431.28	4084.23
431.47	4161.47
431.66	4140.41
431.85	4105.30
432.03	4114.66
432.22	4334.67
432.41	4205.94
432.60	4227.01
432.79	4236.37
432.97	4332.33
433.16	4299.56
433.35	4133.39
433.54	4219.99
433.72	4465.74
433.91	4170.83
434.10	4241.05
434.28	4475.10
434.47	4507.87
434.66	4550.00
434.85	4510.21
435.03	4484.47
435.22	4498.51
435.41	4606.17
435.59	4603.83
435.78	4662.35
435.97	4535.96
436.16	4690.43
436.34	4615.54
436.53	4655.33
436.72	4805.12
436.90	4603.83
437.09	4842.57
437.28	4704.48
437.46	4844.91
437.65	4732.56
437.84	4781.71
438.02	4814.48
438.21	4842.57
438.40	4819.16
438.58	4950.23
438.77	5057.90
438.96	4912.78
439.14	5022.79
439.33	5137.48
439.52	5125.77
439.70	5025.13
439.89	5291.95
440.08	5357.49
440.26	5240.46
440.45	5235.78
440.63	5233.44
440.82	5334.08
441.01	5390.25
441.19	5474.51
441.38	5596.22
441.57	5579.84
441.75	5467.49
441.94	5743.67
442.12	5584.52
442.31	5703.89
442.50	5774.10
442.68	5724.95
442.87	5680.48
443.05	5778.78
443.24	5973.05
443.43	5914.53
443.61	5846.66
443.80	5865.38
443.98	5799.85
444.17	5607.92
444.35	5879.43
444.54	5928.58
444.73	5870.06
444.91	5790.49
445.10	6010.50
445.28	5799.85
445.47	6015.18
445.65	5774.10
445.84	6101.78
446.02	6008.16
446.21	5928.58
446.39	6012.84
446.58	6122.84
446.77	6076.03
446.95	5893.47
447.14	6139.23
447.32	6267.95
447.51	5987.09
447.69	6214.12
447.88	6090.07
448.06	5916.87
448.25	6162.63
448.43	6136.88
448.62	6045.60
448.80	6029.22
448.99	6352.21
449.17	6024.54
449.36	6200.08
449.54	6359.24
449.73	6384.98
449.91	6583.93
450.10	6392.00
450.28	6478.60
450.46	6462.22
450.65	6509.03
450.83	6541.80
451.02	6600.31
451.20	6392.00
451.39	6537.12
451.57	6413.07
451.76	6604.99
451.94	6317.11
452.13	6602.65
452.31	6520.73
452.49	6633.08
452.68	6579.25
452.86	6656.48
453.05	6633.08
453.23	6693.93
453.42	6616.69
453.60	6665.85
453.78	6773.51
453.97	6637.76
454.15	6607.33
454.34	6497.33
454.52	6998.20
454.70	6918.62
454.89	6806.28
455.07	6820.32
455.26	7028.63
455.44	7035.65
455.62	7005.22
455.81	7131.61
455.99	7229.91
456.17	7101.19
456.36	7075.44
456.54	7211.19
456.73	7087.14
456.91	7501.42
457.09	7393.75
457.28	7452.27
457.46	7377.37
457.64	7424.18
457.83	7248.64
458.01	7356.30
458.19	7632.49
458.38	7384.39
458.56	7623.12
458.74	7508.44
458.93	7583.34
459.11	7452.27
459.29	7576.31
459.48	7658.23
459.66	7522.48
459.84	7772.92
460.03	7824.41
460.21	7700.36
460.39	7850.16
460.57	7763.56
460.76	7826.75
460.94	7946.12
461.12	7761.22
461.31	7875.90
461.49	7861.86
461.67	7840.79
461.85	8039.74
462.04	7918.03
462.22	8402.52
462.40	8102.93
462.59	8236.35
462.77	8011.65
462.95	8198.90
463.13	8109.96
463.32	8266.77
463.50	8149.75
463.68	8315.92
463.86	8201.24
464.05	8276.13
464.23	8065.49
464.41	8215.28
464.59	8208.26
464.78	8409.54
464.96	8428.27
465.14	8217.62
465.32	8512.53
465.50	8531.25
465.69	8442.31
465.87	8468.06
466.05	8674.03
466.23	8383.80
466.41	8671.68
466.60	8678.71
466.78	8552.32
466.96	8601.47
467.14	8526.57
467.32	8636.58
467.51	8699.77
467.69	8418.91
467.87	8688.07
468.05	8809.78
468.23	8685.73
468.41	8477.42
468.60	8723.18
468.78	8840.20
468.96	8716.16
469.14	8826.16
469.32	9245.12
469.50	8805.10
469.69	8997.02
469.87	9088.30
470.05	8837.86
470.23	9053.19
470.41	9116.39
470.59	9149.15
470.77	9118.73
470.95	8990.00
471.14	9174.90
471.32	9294.27
471.50	9329.38
471.68	9488.53
471.86	9535.34
472.04	9500.23
472.22	9593.86
472.40	9497.89
472.58	9563.43
472.77	9785.78
472.95	9717.90
473.13	10349.85
473.31	9755.35
473.49	9568.11
473.67	9753.01
473.85	9830.25
474.03	9951.96
474.21	10059.62
474.39	10026.86
474.57	10228.14
474.75	10279.63
474.93	10193.03
475.12	10338.15
475.30	10469.22
475.48	10413.04
475.66	10267.93
475.84	10525.39
476.02	10586.24
476.20	10478.58
476.38	10759.44
476.56	10757.10
476.74	11012.22
476.92	10820.30
477.10	10714.97
477.28	11157.33
477.46	10984.13
477.64	11344.58
477.82	11363.30
478.00	11480.33
478.18	11412.45
478.36	11459.26
478.54	11501.39
478.72	11693.32
478.90	11590.33
479.08	12156.74
479.26	12163.76
479.44	12372.07
479.62	12142.70
479.80	12245.68
479.98	12397.82
480.16	12269.09
480.34	12411.86
480.52	12643.57
480.70	12465.69
480.88	12533.57
481.06	12620.17
481.24	12746.56
481.41	12844.86
481.59	13095.30
481.77	13376.16
481.95	13336.37
482.13	13205.30
482.31	13518.93
482.49	13514.25
482.67	13809.16
482.85	13921.51
483.03	13783.41
483.21	14026.83
483.39	14075.98
483.57	14106.41
483.74	14490.26
483.92	14518.34
484.10	14087.68
484.28	14579.20
484.46	14773.46
484.64	14785.16
484.82	14757.08
485.00	15192.42
485.18	15019.22
485.35	15520.09
485.53	15154.97
485.71	15229.87
485.89	15405.41
486.07	15599.67
486.25	15363.28
486.43	15737.76
486.61	15763.51
486.78	15960.11
486.96	16297.15
487.14	16360.34
487.32	16610.78
487.50	16627.17
487.68	16936.12
487.85	16840.15
488.03	17200.60
488.21	17144.42
488.39	17055.48
488.57	17085.91
488.75	17575.08
488.92	17778.71
489.10	17862.97
489.28	18366.18
489.46	18113.41
489.64	17905.10
489.81	18609.60
489.99	18609.60
490.17	18766.42
490.35	18679.82
490.53	18995.79
490.70	18899.83
490.88	18981.74
491.06	19449.85
491.24	19080.05
491.41	19295.38
491.59	19524.75
491.77	19307.08
491.95	19723.69
492.13	20044.35
492.30	19927.32
492.48	20203.50
492.66	20222.23
492.84	20130.95
493.01	20559.27
493.19	20400.11
493.37	20601.40
493.54	20964.18
493.72	20814.38
493.90	20919.71
494.08	21336.32
494.25	21509.52
494.43	21516.54
494.61	21507.18
494.79	21659.32
494.96	21692.08
495.14	22195.30
495.32	22141.47
495.49	22118.06
495.67	22209.34
495.85	22185.94
496.02	22843.63
496.20	22574.47
496.38	22560.42
496.55	22752.35
496.73	23426.42
496.91	23119.81
497.09	23370.25
497.26	23372.59
497.44	23056.62
497.62	23503.66
497.79	23857.08
497.97	23480.25
498.14	23845.38
498.32	23896.87
498.50	23747.08
498.67	24456.26
498.85	24381.36
499.03	24716.06
499.20	24301.78
499.38	24437.53
499.56	24254.97
499.73	24620.10
499.91	24732.44
500.08	25001.60
500.26	24463.28
500.44	24758.19
500.61	24936.07
500.79	24872.87
500.97	25200.55
501.14	25497.80
501.32	25469.71
501.49	25546.95
501.67	25624.18
501.84	25675.68
502.02	25820.79
502.20	25872.28
502.37	26216.34
502.55	26340.39
502.72	26199.96
502.90	26005.69
503.07	26017.40
503.25	26181.23
503.43	26370.82
503.60	26314.64
503.78	26675.09
503.95	26752.32
504.13	26712.53
504.30	26871.69
504.48	26916.16
504.65	27204.05
504.83	27395.97
505.01	27262.56
505.18	27321.07
505.36	27391.29
505.53	27201.71
505.71	27995.15
505.88	27737.69
506.06	27388.95
506.23	27950.68
506.41	28002.17
506.58	27672.15
506.76	27810.25
506.93	28126.22
507.11	27857.06
507.28	28137.92
507.46	28077.07
507.63	28254.95
507.81	28690.29
507.98	27786.84
508.16	28641.14
508.33	28788.59
508.50	29137.33
508.68	29099.88
508.85	29109.24
509.03	28767.52
509.20	29078.82
509.38	29436.92
509.55	29514.16
509.73	29490.75
509.90	29476.71
510.08	29266.06
510.25	29214.57
510.42	29795.02
510.60	29816.08
510.77	30005.67
510.95	29628.84
511.12	29984.60
511.30	30118.01
511.47	30623.57
511.64	30323.98
511.82	30134.40
511.99	29993.97
512.17	30335.68
512.34	30263.13
512.51	30707.83
512.69	30654.00
512.86	31000.40
513.04	30616.55
513.21	30969.97
513.38	30913.80
513.56	30810.81
513.73	30745.28
513.90	31601.91
514.08	31276.58
514.25	31365.52
514.43	31285.94
514.60	31690.85
514.77	31412.33
514.95	31817.24
515.12	31943.63
515.29	31761.07
515.47	32306.41
515.64	31686.17
515.81	31842.99
515.99	32168.32
516.16	31868.73
516.33	32025.55
516.51	31908.52
516.68	31842.99
516.85	31871.07
517.03	31826.60
517.20	32311.10
517.37	32498.34
517.54	32568.55
517.72	32690.26
517.89	32362.59
518.06	32673.88
518.24	32123.85
518.41	32606.00
518.58	32781.54
518.75	32620.05
518.93	32971.13
519.10	33118.58
519.27	33010.92
519.45	33193.48
519.62	33060.07
519.79	33523.49
519.96	33617.11
520.14	33530.51
520.31	33366.68
520.48	33649.88
520.65	33799.68
520.83	34143.74
521.00	34183.52
521.17	33944.79
521.34	34211.61
521.52	34068.84
521.69	33975.22
521.86	34300.55
522.03	34216.29
522.20	33935.43
522.38	34698.44
522.55	34843.56
522.72	34455.03
522.89	34087.56
523.07	34801.43
523.24	34747.59
523.41	34693.76
523.58	34960.58
523.75	35318.68
523.92	35105.70
524.10	35501.25
524.27	35255.49
524.44	35510.61
524.61	35601.89
524.78	35447.41
524.96	35468.48
525.13	35611.25
525.30	35690.83
525.47	36170.64
525.64	35779.77
525.81	35707.21
525.98	35842.96
526.16	35178.25
526.33	35295.28
526.50	35854.67
526.67	35758.70
526.84	35821.90
527.01	35335.07
527.18	35765.73
527.36	36149.57
527.53	36114.47
527.70	36725.35
527.87	36109.78
528.04	36374.27
528.21	36671.51
528.38	36669.17
528.55	36781.52
528.72	36715.98
528.89	36886.84
529.07	37338.57
529.24	36493.63
529.41	36973.44
529.58	36627.04
529.75	36833.01
529.92	36957.06
530.09	36999.19
530.26	36912.59
530.43	37439.21
530.60	37273.03
530.77	37078.77
530.94	37347.93
531.11	37376.01
531.28	37329.20
531.46	37806.67
531.63	37820.72
531.80	37684.97
531.97	37610.07
532.14	37502.40
532.31	37603.05
532.48	38014.98
532.65	37865.19
532.82	38047.75
532.99	37748.16
533.16	37947.11
533.33	37825.40
533.50	38614.16
533.67	37839.44
533.84	37874.55
534.01	38190.52
534.18	38155.41
534.35	38663.31
534.52	38089.88
534.69	38813.10
534.86	38766.29
535.03	38527.56
535.20	38866.94
535.37	39042.48
535.54	38925.45
535.71	38742.89
535.88	38911.41
536.05	38866.94
536.22	38925.45
536.38	39108.01
536.55	38759.27
536.72	38525.22
536.89	38632.88
537.06	38927.79
537.23	39030.77
537.40	39194.61
537.57	38806.08
537.74	39016.73
537.91	39255.46
538.08	39608.89
538.25	39304.62
538.42	39276.53
538.59	39461.43
538.75	39178.23
538.92	39519.95
539.09	39517.60
539.26	39379.51
539.43	39679.10
539.60	39578.46
539.77	39929.54
539.94	39636.97
540.11	39651.02
540.28	39552.71
540.44	40067.63
540.61	39494.20
540.78	39688.46
540.95	39866.34
541.12	39819.53
541.29	39606.55
541.46	39349.09
541.62	40601.27
541.79	40261.90
541.96	39791.45
542.13	40011.46
542.30	40091.04
542.47	40020.82
542.63	40526.38
542.80	40460.84
542.97	40842.35
543.14	40648.08
543.31	40840.01
543.48	40704.26
543.64	41097.47
543.81	41261.30
543.98	41095.13
544.15	41015.55
544.32	41090.44
544.48	41460.25
544.65	41144.28
544.82	40935.97
544.99	40877.46
545.16	41219.17
545.32	41064.70
545.49	41064.70
545.66	41668.56
545.83	41284.71
546.00	41694.30
546.16	41301.09
546.33	41251.94
546.50	41371.31
546.67	41902.61
546.83	41186.41
547.00	41670.90
547.17	41516.42
547.34	41642.81
547.50	41670.90
547.67	41603.02
547.84	41298.75
548.00	41675.58
548.17	42206.88
548.34	41811.33
548.51	42216.24
548.67	41961.12
548.84	42239.65
549.01	41558.55
549.18	41680.26
549.34	42398.80
549.51	42153.05
549.68	42239.65
549.84	42192.84
550.01	42351.99
550.18	42080.49
550.34	42211.56
550.51	42312.20
550.68	42487.74
550.84	41837.08
551.01	42373.06
551.18	42403.49
551.34	42129.64
551.51	42581.37
551.68	42857.55
551.84	42630.52
552.01	42520.51
552.18	42073.47
552.34	42548.60
552.51	43089.26
552.68	42646.90
552.84	42773.29
553.01	42897.34
553.18	42518.17
553.34	42770.95
553.51	42691.37
553.67	42593.07
553.84	43023.73
554.01	42974.58
554.17	43250.76
554.34	43178.20
554.51	43173.52
554.67	43412.26
554.84	43246.08
555.00	43185.22
555.17	43260.12
555.33	43012.02
555.50	43119.69
555.67	42925.42
555.83	43096.28
556.00	43122.03
556.16	43386.51
556.33	43697.80
556.50	43033.09
556.66	43847.60
556.83	43423.96
556.99	43697.80
557.16	43683.76
557.32	43386.51
557.49	43529.28
557.65	43358.42
557.82	42829.46
557.98	43449.70
558.15	43367.79
558.32	43910.79
558.48	43791.42
558.65	43821.85
558.81	43482.47
558.98	43821.85
559.14	43510.56
559.31	43339.70
559.47	43643.97
559.64	43976.33
559.80	44109.74
559.97	43866.32
560.13	43498.86
560.30	43985.69
560.46	43643.97
560.63	43945.90
560.79	44051.22
560.96	44252.51
561.12	43763.34
561.29	43674.40
561.45	44083.99
561.61	44147.18
561.78	43950.58
561.94	43943.56
562.11	43800.79
562.27	43959.94
562.44	43957.60
562.60	44149.53
562.77	44215.06
562.93	44189.31
563.10	44168.25
563.26	43667.37
563.42	44116.76
563.59	44151.87
563.75	44130.80
563.92	44013.77
564.08	44280.60
564.24	44559.12
564.41	44362.51
564.57	44020.80
564.74	44245.49
564.90	44390.60
565.07	44680.83
565.23	44062.93
565.39	44165.91
565.56	44439.75
565.72	44254.85
565.88	44275.91
566.05	44107.40
566.21	44353.15
566.38	43917.81
566.54	44289.96
566.70	44596.57
566.87	44751.04
567.03	44327.41
567.19	44940.63
567.36	44137.82
567.52	44488.90
567.68	44472.52
567.85	44486.56
568.01	44491.24
568.17	44444.43
568.34	44818.92
568.50	44715.93
568.66	44067.61
568.83	44395.28
568.99	44446.77
569.15	44376.56
569.32	44224.42
569.48	44315.70
569.64	44706.57
569.81	44692.53
569.97	44603.59
570.13	45010.84
570.30	44439.75
570.46	44418.69
570.62	44615.29
570.78	44177.61
570.95	44502.95
571.11	44823.60
571.27	44563.80
571.43	44383.58
571.60	44830.62
571.76	44861.05
571.92	44451.45
572.09	44540.39
572.25	44636.36
572.41	44804.88
572.57	44715.93
572.74	44954.67
572.90	44680.83
573.06	44982.76
573.22	44699.55
573.38	44449.11
573.55	44442.09
573.71	44942.97
573.87	44540.39
574.03	44573.16
574.20	44734.66
574.36	44704.23
574.52	44783.81
574.68	44687.85
574.84	44987.44
575.01	44975.73
575.17	45038.93
575.33	44879.77
575.49	44549.76
575.65	44978.07
575.82	44737.00
575.98	44706.57
576.14	45254.26
576.30	44421.03
576.46	44666.78
576.62	44671.46
576.79	45020.20
576.95	44273.57
577.11	44346.13
577.27	44722.96
577.43	44854.03
577.59	44755.72
577.75	44706.57
577.92	44381.24
578.08	44519.33
578.24	44491.24
578.40	44678.49
578.56	44886.79
578.72	44680.83
578.88	45174.68
579.04	44718.28
579.21	44446.77
579.37	44767.43
579.53	44947.65
579.69	44605.93
579.85	44896.16
580.01	45170.00
580.17	44594.23
580.33	45256.60
580.49	45057.65
580.65	44905.52
580.82	45158.30
580.98	44741.68
581.14	44807.22
581.30	44830.62
581.46	44732.32
581.62	45088.08
581.78	44884.45
581.94	45425.12
582.10	44987.44
582.26	45097.44
582.42	44912.54
582.58	44758.06
582.74	44619.97
582.90	44994.46
583.06	44849.35
583.22	45270.64
583.38	44886.79
583.54	44947.65
583.70	44847.00
583.86	44957.01
584.02	44598.91
584.18	44919.56
584.34	44765.09
584.50	45387.67
584.66	44945.31
584.82	44825.94
584.98	45392.35
585.14	45022.54
585.30	44921.90
585.46	44807.22
585.62	44849.35
585.78	44889.13
585.94	44662.10
586.10	44591.89
586.26	44456.14
586.42	45502.35
586.58	45006.16
586.74	45120.85
586.90	45191.06
587.06	45027.23
587.22	45322.13
587.38	44713.59
587.54	45212.13
587.70	45537.46
587.86	45322.13
588.02	45137.23
588.18	45226.17
588.34	45230.85
588.49	44921.90
588.65	44631.68
588.81	44776.79
588.97	44961.69
589.13	44664.44
589.29	45177.02
589.45	45010.84
589.61	45006.16
589.77	45151.27
589.93	45247.24
590.08	45127.87
590.24	45404.05
