SpectraSuite Data File
++++++++++++++++++++++++++++++++++++
Date: Fri Oct 25 10:46:57 EDT 2013
User: price-jones
Dark Spectrum Present: No
Reference Spectrum Present: No
Number of Sampled Component Spectra: 1
Spectrometers: USB2+H05261
Integration Time (usec): 100000 (USB2+H05261)
Spectra Averaged: 1 (USB2+H05261)
Boxcar Smoothing: 0 (USB2+H05261)
Correct for Electrical Dark: No (USB2+H05261)
Strobe/Lamp Enabled: No (USB2+H05261)
Correct for Detector Non-linearity: No (USB2+H05261)
Correct for Stray Light: No (USB2+H05261)
Number of Pixels in Processed Spectrum: 2048
>>>>>Begin Processed Spectral Data<<<<<
365.73	142.77
365.92	142.77
366.12	142.77
366.32	0.00
366.52	105.32
366.72	35.11
366.91	46.81
367.11	37.45
367.31	0.00
367.51	42.13
367.70	14.04
367.90	0.00
368.10	84.26
368.30	39.79
368.49	77.24
368.69	56.17
368.89	32.77
369.09	56.17
369.28	105.32
369.48	145.11
369.68	107.66
369.87	56.17
370.07	60.85
370.27	107.66
370.47	217.67
370.66	395.55
370.86	418.96
371.06	444.70
371.25	531.30
371.45	503.22
371.65	461.09
371.84	468.11
372.04	491.51
372.24	561.73
372.44	421.30
372.63	491.51
372.83	552.37
373.03	468.11
373.22	531.30
373.42	557.05
373.62	519.60
373.81	538.32
374.01	540.66
374.21	521.94
374.40	543.00
374.60	636.63
374.79	526.62
374.99	629.60
375.19	636.63
375.38	620.24
375.58	543.00
375.78	645.99
375.97	620.24
376.17	671.73
376.37	587.47
376.56	589.82
376.76	587.47
376.95	596.84
377.15	685.78
377.35	671.73
377.54	709.18
377.74	657.69
377.93	645.99
378.13	627.26
378.33	699.82
378.52	727.91
378.72	678.76
378.91	657.69
379.11	709.18
379.31	624.92
379.50	617.90
379.70	711.52
379.89	699.82
380.09	653.01
380.28	770.04
380.48	702.16
380.68	716.20
380.87	751.31
381.07	695.14
381.26	727.91
381.46	772.38
381.65	655.35
381.85	683.44
382.04	713.86
382.24	704.50
382.43	674.07
382.63	741.95
382.83	667.05
383.02	730.25
383.22	725.57
383.41	765.36
383.61	748.97
383.80	699.82
384.00	805.14
384.19	807.48
384.39	840.25
384.58	805.14
384.78	816.85
384.97	755.99
385.17	805.14
385.36	835.57
385.56	877.70
385.75	737.27
385.95	805.14
386.14	791.10
386.34	847.27
386.53	826.21
386.72	844.93
386.92	875.36
387.11	786.42
387.31	844.93
387.50	933.87
387.70	868.34
387.89	896.43
388.09	903.45
388.28	896.43
388.48	917.49
388.67	856.64
388.86	905.79
389.06	978.34
389.25	884.72
389.45	938.55
389.64	978.34
389.84	938.55
390.03	994.73
390.22	957.28
390.42	1027.50
390.61	992.39
390.81	926.85
391.00	1020.47
391.19	1032.18
391.39	976.00
391.58	1006.43
391.78	992.39
391.97	1107.07
392.16	1043.88
392.36	1069.62
392.55	1064.94
392.75	1004.09
392.94	896.43
393.13	983.02
393.33	877.70
393.52	987.71
393.71	1177.29
393.91	1069.62
394.10	1071.97
394.29	1102.39
394.49	1172.61
394.68	1153.88
394.88	1247.51
395.07	1254.53
395.26	1247.51
395.46	1191.33
395.65	1287.29
395.84	1163.25
396.04	1291.98
396.23	1191.33
396.42	1231.12
396.62	1181.97
396.81	1233.46
397.00	1263.89
397.19	1275.59
397.39	1245.16
397.58	1313.04
397.77	1383.26
397.97	1444.11
398.16	1371.55
398.35	1409.00
398.55	1376.24
398.74	1399.64
398.93	1460.49
399.12	1420.71
399.32	1476.88
399.51	1458.15
399.70	1474.54
399.90	1500.28
400.09	1554.12
400.28	1589.22
400.47	1544.75
400.67	1687.53
400.86	1558.80
401.05	1614.97
401.24	1645.40
401.44	1680.50
401.63	1722.63
401.82	1673.48
402.01	1612.63
402.21	1652.42
402.40	1668.80
402.59	1675.82
402.78	1696.89
402.97	1654.76
403.17	1724.97
403.36	1715.61
403.55	1659.44
403.74	1849.02
403.93	1827.96
404.13	1778.81
404.32	1727.32
404.51	1795.19
404.70	1846.68
404.89	1788.17
405.09	1874.77
405.28	1994.14
405.47	1827.96
405.66	1923.92
405.85	1893.49
406.05	1877.11
406.24	2050.31
406.43	2005.84
406.62	2024.56
406.81	2064.35
407.00	1991.80
407.20	2015.20
407.39	2003.50
407.58	2165.00
407.77	2176.70
407.96	2127.55
408.15	2118.18
408.34	2087.76
408.54	2256.28
408.73	2160.31
408.92	2167.34
409.11	2134.57
409.30	2197.76
409.49	2195.42
409.68	2176.70
409.87	2202.44
410.07	2282.02
410.26	2239.89
410.45	2326.49
410.64	2310.11
410.83	2300.75
411.02	2476.29
411.21	2523.10
411.40	2476.29
411.59	2420.11
411.78	2532.46
411.98	2417.77
412.17	2567.57
412.36	2537.14
412.55	2548.84
412.74	2635.44
412.93	2663.53
413.12	2712.68
413.31	2668.21
413.50	2715.02
413.69	2731.41
413.88	2883.54
414.07	2752.47
414.26	2932.69
414.45	2757.15
414.64	2885.88
414.83	2876.52
415.02	3042.70
415.22	2995.89
415.41	2970.14
415.60	2960.78
415.79	3148.02
415.98	3201.85
416.17	3176.11
416.36	3098.87
416.55	3126.96
416.74	3084.83
416.93	3122.27
417.12	3152.70
417.31	3258.03
417.50	3267.39
417.69	3349.31
417.88	3211.22
418.07	3339.94
418.26	3293.13
418.45	3365.69
418.64	3478.04
418.83	3386.76
419.02	3368.03
419.21	3454.63
419.39	3447.61
419.58	3492.08
419.77	3358.67
419.96	3529.53
420.15	3461.65
420.34	3597.40
420.53	3482.72
420.72	3768.26
420.91	3695.71
421.10	3651.24
421.29	3627.83
421.48	3796.35
421.67	3758.90
421.86	3632.51
422.05	3632.51
422.24	3616.13
422.43	3604.42
422.61	3705.07
422.80	3726.13
422.99	3854.86
423.18	3819.75
423.37	3880.61
423.56	3786.99
423.75	3740.18
423.94	3798.69
424.13	3496.76
424.32	3744.86
424.50	3850.18
424.69	3885.29
424.88	3796.35
425.07	3723.79
425.26	3747.20
425.45	3730.81
425.64	3859.54
425.83	3859.54
426.01	3768.26
426.20	3777.62
426.39	3936.78
426.58	3826.78
426.77	3838.48
426.96	3948.48
427.15	3899.33
427.33	3925.08
427.52	4025.72
427.71	4063.17
427.90	3934.44
428.09	3901.67
428.28	3953.16
428.46	3936.78
428.65	4065.51
428.84	4248.07
429.03	4276.16
429.22	3978.91
429.40	3988.27
429.59	4011.68
429.78	3829.12
429.97	3829.12
430.16	3978.91
430.34	4004.66
430.53	4021.04
430.72	4070.19
430.91	4109.98
431.10	4198.92
431.28	4374.46
431.47	4505.53
431.66	4407.23
431.85	4266.80
432.03	4678.73
432.22	4456.38
432.41	4484.47
432.60	4512.55
432.79	4671.71
432.97	4629.58
433.16	4484.47
433.35	4435.32
433.54	4510.21
433.72	4470.42
433.91	4638.94
434.10	4615.54
434.28	4528.94
434.47	4550.00
434.66	4798.10
434.85	4655.33
435.03	4748.95
435.22	4924.49
435.41	4905.76
435.59	4973.64
435.78	4915.12
435.97	4910.44
436.16	4957.25
436.34	5041.51
436.53	5011.09
436.72	4975.98
436.90	5036.83
437.09	5027.47
437.28	4929.17
437.46	5125.77
437.65	5060.24
437.84	5027.47
438.02	4842.57
438.21	4985.34
438.40	5064.92
438.58	5153.86
438.77	5095.35
438.96	5427.70
439.14	5427.70
439.33	5373.87
439.52	5427.70
439.70	5518.98
439.89	5509.62
440.08	5500.26
440.26	5614.95
440.45	5416.00
440.63	5600.90
440.82	5731.97
441.01	5783.46
441.19	5865.38
441.38	6108.80
441.57	5966.03
441.75	5888.79
441.94	6113.48
442.12	6176.67
442.31	6094.76
442.50	6031.56
442.68	5940.28
442.87	6160.29
443.05	6080.71
443.24	6094.76
443.43	6064.33
443.61	6200.08
443.80	6406.05
443.98	6080.71
444.17	6078.37
444.35	6181.35
444.54	6399.02
444.73	6382.64
444.91	6139.23
445.10	6204.76
445.28	6260.93
445.47	6169.65
445.65	6033.90
445.84	6136.88
446.02	6270.30
446.21	6305.40
446.39	6333.49
446.58	6408.39
446.77	6352.21
446.95	6263.27
447.14	6616.69
447.32	6506.69
447.51	6518.39
447.69	6541.80
447.88	6415.41
448.06	6471.58
448.25	6401.37
448.43	6445.84
448.62	6415.41
448.80	6546.48
448.99	6623.72
449.17	6576.91
449.36	6661.16
449.54	6752.45
449.73	6642.44
449.91	6836.70
450.10	6810.96
450.28	7007.56
450.46	6846.07
450.65	6829.68
450.83	6942.03
451.02	7007.56
451.20	6930.33
451.39	6895.22
451.57	6902.24
451.76	6750.10
451.94	6937.35
452.13	7131.61
452.31	7049.69
452.49	6733.72
452.68	7016.93
452.86	7005.22
453.05	6923.30
453.23	7014.59
453.42	6876.49
453.60	7059.06
453.78	7297.79
453.97	7110.55
454.15	7007.56
454.34	7169.06
454.52	7248.64
454.70	7311.83
454.89	7262.68
455.07	7243.96
455.26	7440.56
455.44	7360.98
455.62	7384.39
455.81	7482.69
455.99	7398.43
456.17	7452.27
456.36	7604.40
456.54	7653.55
456.73	7658.23
456.91	7981.23
457.09	7892.29
457.28	7875.90
457.46	7730.79
457.64	7761.22
457.83	7789.30
458.01	7681.64
458.19	7892.29
458.38	7831.43
458.56	7873.56
458.74	7967.18
458.93	7793.98
459.11	8128.68
459.29	8077.19
459.48	7936.76
459.66	8016.33
459.84	8189.53
460.03	8210.60
460.21	8348.69
460.39	8138.04
460.57	8156.77
460.76	8234.00
460.94	8147.40
461.12	8276.13
461.31	8372.10
461.49	8388.48
461.67	8500.83
461.85	8369.76
462.04	8292.52
462.22	8943.19
462.40	8645.94
462.59	8491.46
462.77	8498.49
462.95	8683.39
463.13	8594.45
463.32	8538.27
463.50	8622.53
463.68	8816.80
463.86	8795.73
464.05	8559.34
464.23	8641.26
464.41	8681.05
464.59	8685.73
464.78	8940.85
464.96	8774.67
465.14	8781.69
465.32	8898.72
465.50	9025.11
465.69	9114.05
465.87	8898.72
466.05	9153.84
466.23	8999.36
466.41	8994.68
466.60	9184.26
466.78	8795.73
466.96	9078.94
467.14	8999.36
467.32	9011.06
467.51	9268.52
467.69	9027.45
467.87	9118.73
468.05	9132.77
468.23	9284.91
468.41	9029.79
468.60	9247.46
468.78	9202.99
468.96	9151.49
469.14	9352.78
469.32	9439.38
469.50	9121.07
469.69	9345.76
469.87	9621.94
470.05	9547.05
470.23	9561.09
470.41	9493.21
470.59	9652.37
470.77	9593.86
470.95	9675.77
471.14	10029.20
471.32	9605.56
471.50	9792.80
471.68	9668.75
471.86	9973.02
472.04	9923.87
472.22	10415.38
472.40	9996.43
472.58	9930.89
472.77	10157.92
472.95	10150.90
473.13	10300.70
473.31	9970.68
473.49	10134.52
473.67	10317.08
473.85	10338.15
474.03	10714.97
474.21	10579.22
474.39	10635.39
474.57	10977.11
474.75	10714.97
474.93	10794.55
475.12	10801.57
475.30	11101.16
475.48	10808.59
475.66	10946.69
475.84	10995.84
476.02	10801.57
476.20	11199.46
476.38	11414.79
476.56	11421.81
476.74	11349.26
476.92	11508.41
477.10	11541.18
477.28	11623.10
477.46	11784.60
477.64	11501.39
477.82	12095.89
478.00	12123.98
478.18	12219.94
478.36	12315.90
478.54	12187.17
478.72	12538.25
478.90	12617.83
479.08	12475.06
479.26	12779.32
479.44	12587.40
479.62	12917.42
479.80	12863.58
479.98	12830.82
480.16	13116.36
480.34	13153.81
480.52	13191.26
480.70	13401.91
480.88	13261.48
481.06	13345.73
481.24	13741.29
481.41	13928.53
481.59	13596.17
481.77	14026.83
481.95	13820.86
482.13	13923.85
482.31	14174.28
482.49	14656.43
482.67	14401.32
482.85	14614.30
483.03	14892.83
483.21	14651.75
483.39	14834.32
483.57	14806.23
483.74	15169.01
483.92	15044.96
484.10	15246.25
484.28	15559.88
484.46	15545.84
484.64	15880.53
484.82	15662.86
485.00	15686.27
485.18	15903.94
485.35	16063.10
485.53	15576.27
485.71	15985.86
485.89	15988.20
486.07	15873.51
486.25	15943.73
486.43	16802.71
486.61	16489.07
486.78	16685.68
486.96	17116.34
487.14	17041.44
487.32	17184.21
487.50	17738.92
487.68	17525.93
487.85	17724.88
488.03	17790.41
488.21	17963.61
488.39	17872.33
488.57	18209.37
488.75	18171.92
488.92	18668.11
489.10	18714.92
489.28	18977.06
489.46	19173.67
489.64	19239.20
489.81	19562.20
489.99	19513.05
490.17	19407.72
490.35	19936.68
490.53	19592.62
490.70	19974.13
490.88	20006.90
491.06	20252.66
491.24	20276.06
491.41	20184.78
491.59	20549.90
491.77	20463.30
491.95	20762.89
492.13	20790.98
492.30	21097.59
492.48	20992.26
492.66	21064.82
492.84	21067.16
493.01	21486.12
493.19	21500.16
493.37	21553.99
493.54	21912.10
493.72	22291.26
493.90	22164.87
494.08	22274.88
494.25	22478.50
494.43	22473.82
494.61	23094.07
494.79	22677.45
494.96	22590.85
495.14	23049.60
495.32	22948.95
495.49	22930.23
495.67	23211.09
495.85	23379.61
496.02	23288.33
496.20	23473.23
496.38	23662.82
496.55	24100.50
496.73	24552.22
496.91	24247.95
497.09	24250.29
497.26	24315.83
497.44	24205.82
497.62	24563.92
497.79	24828.40
497.97	24362.64
498.14	24666.91
498.32	25083.52
498.50	25230.98
498.67	25397.15
498.85	25088.20
499.03	25689.72
499.20	25645.25
499.38	25778.66
499.56	25612.48
499.73	26008.03
499.91	26125.06
500.08	25872.28
500.26	26068.89
500.44	25881.64
500.61	26223.36
500.79	26031.44
500.97	26443.37
501.14	26726.58
501.32	26448.05
501.49	26410.60
501.67	26305.28
501.84	26885.73
502.02	26895.10
502.20	26796.79
502.37	27335.12
502.55	27131.49
502.72	27321.07
502.90	27580.87
503.07	27318.73
503.25	27517.68
503.43	27456.82
503.60	27850.03
503.78	27470.87
503.95	27253.20
504.13	27814.93
504.30	27583.21
504.48	28175.37
504.65	28123.88
504.83	28402.40
505.01	28662.20
505.18	28470.28
505.36	28524.11
505.53	28474.96
505.71	28996.90
505.88	29034.35
506.06	28716.03
506.23	29125.63
506.41	29263.72
506.58	29081.16
506.76	29289.46
506.93	29420.53
507.11	28900.94
507.28	29413.51
507.46	29223.93
507.63	29652.25
507.81	29818.42
507.98	29741.19
508.16	29912.05
508.33	29928.43
508.50	30178.87
508.68	30073.54
508.85	30637.61
509.03	30401.22
509.20	30373.13
509.38	30426.96
509.55	30888.05
509.73	30621.23
509.90	30609.53
510.08	30670.38
510.25	30789.75
510.42	31070.61
510.60	30967.63
510.77	31030.82
510.95	31182.96
511.12	31337.43
511.30	31094.02
511.47	31838.31
511.64	32257.26
511.82	31763.41
511.99	31503.61
512.17	31505.95
512.34	31452.12
512.51	32041.93
512.69	32051.30
512.86	31938.95
513.04	32659.84
513.21	31920.23
513.38	32002.14
513.56	32325.14
513.73	32081.72
513.90	32477.27
514.08	32189.39
514.25	32311.10
514.43	33017.94
514.60	32692.60
514.77	32645.79
514.95	32723.03
515.12	33205.18
515.29	32964.10
515.47	33298.80
515.64	33163.05
515.81	33125.60
515.99	33434.55
516.16	33425.19
516.33	33331.57
516.51	33294.12
516.68	32943.04
516.85	32802.61
517.03	33284.76
517.20	33134.96
517.37	33748.18
517.54	33998.62
517.72	33895.64
517.89	33940.11
518.06	33415.83
518.24	33806.70
518.41	33787.97
518.58	33886.28
518.75	33848.83
518.93	34457.37
519.10	34314.59
519.27	34253.74
519.45	34485.45
519.62	34499.50
519.79	34511.20
519.96	35117.40
520.14	35122.08
520.31	34403.53
520.48	34998.03
520.65	34735.89
520.83	35274.21
521.00	35278.89
521.17	34843.56
521.34	35271.87
521.52	35590.19
521.69	35730.62
521.86	35880.41
522.03	35667.42
522.20	35728.28
522.38	35861.69
522.55	35938.93
522.72	35845.30
522.89	35807.86
523.07	35962.33
523.24	35997.44
523.41	35995.10
523.58	36123.83
523.75	36381.29
523.92	36151.91
524.10	36732.37
524.27	36552.15
524.44	36975.78
524.61	36973.44
524.78	36870.46
524.96	36870.46
525.13	36978.12
525.30	37560.92
525.47	37411.12
525.64	37191.11
525.81	37050.68
525.98	37167.71
526.16	36650.45
526.33	36926.63
526.50	37368.99
526.67	36407.03
526.84	36933.65
527.01	37125.58
527.18	37357.29
527.36	37425.17
527.53	37677.94
527.70	37820.72
527.87	37979.87
528.04	37668.58
528.21	37799.65
528.38	37565.60
528.55	38288.82
528.72	37860.51
528.89	37766.88
529.07	38181.16
529.24	37996.26
529.41	38059.45
529.58	37900.29
529.75	38363.72
529.92	38036.05
530.09	37993.92
530.26	38649.27
530.43	38806.08
530.60	38607.14
530.77	38675.01
530.94	39051.84
531.11	38609.48
531.28	38478.41
531.46	39007.37
531.63	39108.01
531.80	38953.54
531.97	39225.04
532.14	38675.01
532.31	38359.04
532.48	38902.04
532.65	39098.65
532.82	39309.30
532.99	39278.87
533.16	39384.19
533.33	39234.40
533.50	39992.73
533.67	39737.62
533.84	39150.14
534.01	39548.03
534.18	39452.07
534.35	39938.90
534.52	39269.51
534.69	40116.78
534.86	40130.83
535.03	39854.64
535.20	40091.04
535.37	40383.60
535.54	40154.23
535.71	39964.65
535.88	40069.97
536.05	39988.05
536.22	39765.70
536.38	39915.50
536.55	40158.91
536.72	39981.03
536.89	39709.53
537.06	40318.07
537.23	40737.02
537.40	40065.29
537.57	40584.89
537.74	41076.40
537.91	40987.46
538.08	40430.41
538.25	40292.32
538.42	40081.67
538.59	41141.94
538.75	40507.65
538.92	40622.34
539.09	41287.05
539.26	40994.48
539.43	41076.40
539.60	41273.01
539.77	41067.04
539.94	40790.86
540.11	41060.02
540.28	40842.35
540.44	40875.12
540.61	41031.93
540.78	40989.80
540.95	41036.61
541.12	41443.87
541.29	40788.52
541.46	41034.27
541.62	41518.76
541.79	41895.59
541.96	41289.39
542.13	41202.79
542.30	41478.97
542.47	41333.86
542.63	41383.01
542.80	41841.76
542.97	41455.57
543.14	42347.31
543.31	42328.59
543.48	42251.35
543.64	42609.45
543.81	42387.10
543.98	42309.86
544.15	41954.10
544.32	42567.32
544.48	42511.15
544.65	42277.10
544.82	42623.50
544.99	42258.37
545.16	42230.29
545.32	42787.33
545.49	43150.12
545.66	42387.10
545.83	42464.34
546.00	42604.77
546.16	42660.94
546.33	42630.52
546.50	42476.04
546.67	43035.43
546.83	42139.00
547.00	42237.31
547.17	42679.67
547.34	42923.08
547.50	42911.38
547.67	43494.18
547.84	43061.18
548.00	43295.23
548.17	43363.11
548.34	43260.12
548.51	43636.95
548.67	43435.66
548.84	43416.94
549.01	43288.21
549.18	43360.76
549.34	43578.43
549.51	43239.06
549.68	43395.87
549.84	43386.51
550.01	43648.65
550.18	43597.16
550.34	43515.24
550.51	44102.71
550.68	43761.00
550.84	43250.76
551.01	43931.86
551.18	43660.35
551.34	43283.53
551.51	43622.90
551.68	44156.55
551.84	43552.69
552.01	43646.31
552.18	43983.35
552.34	43641.63
552.51	44123.78
552.68	43590.14
552.84	44177.61
553.01	44381.24
553.18	44016.11
553.34	43833.55
553.51	43482.47
553.67	44392.94
553.84	44556.78
554.01	44250.17
554.17	44322.72
554.34	44486.56
554.51	44318.04
554.67	44418.69
554.84	44240.81
555.00	44404.64
555.17	44451.45
555.33	44463.16
555.50	44219.74
555.67	44198.68
555.83	44126.12
556.00	44395.28
556.16	44769.77
556.33	44357.83
556.50	44142.50
556.66	44533.37
556.83	44140.16
556.99	44697.21
557.16	45153.62
557.32	44376.56
557.49	44685.51
557.65	44435.07
557.82	43936.54
557.98	44641.04
558.15	44205.70
558.32	44435.07
558.48	44591.89
558.65	44601.25
558.81	44296.98
558.98	44524.01
559.14	44842.32
559.31	44851.69
559.47	44612.95
559.64	45092.76
559.80	45090.42
559.97	44868.07
560.13	44753.38
560.30	44615.29
560.46	45099.78
560.63	45251.92
560.79	45368.94
560.96	45125.53
561.12	45378.31
561.29	45214.47
561.45	44765.09
561.61	45228.51
561.78	45228.51
561.94	45038.93
562.11	44608.27
562.27	45422.78
562.44	45153.62
562.60	45020.20
562.77	45579.59
562.93	45043.61
563.10	45380.65
563.26	45137.23
563.42	45177.02
563.59	45666.19
563.75	44966.37
563.92	45588.95
564.08	45628.74
564.24	45619.38
564.41	45509.38
564.57	45191.06
564.74	45713.00
564.90	45645.13
565.07	45282.34
565.23	45242.56
565.39	44858.71
565.56	45853.44
565.72	45333.84
565.88	45263.62
566.05	45258.94
566.21	45095.10
566.38	45495.33
566.54	45492.99
566.70	45633.42
566.87	45469.59
567.03	45251.92
567.19	45734.07
567.36	45942.38
567.52	45731.73
567.68	45717.68
567.85	45551.51
568.01	45457.88
568.17	45720.02
568.34	45724.71
568.50	45626.40
568.66	45441.50
568.83	45956.42
568.99	45525.76
569.15	45731.73
569.32	45336.18
569.48	45518.74
569.64	46157.70
569.81	46113.23
569.97	45886.20
570.13	46054.72
570.30	45123.19
570.46	45453.20
570.62	45083.40
570.78	45134.89
570.95	44989.78
571.11	46064.08
571.27	45162.98
571.43	45806.62
571.60	45799.60
571.76	45544.48
571.92	45476.61
572.09	45680.24
572.25	45666.19
572.41	45509.38
572.57	45734.07
572.74	46206.86
572.90	45521.08
573.06	45640.45
573.22	45263.62
573.38	46127.28
573.55	45305.75
573.71	45993.87
573.87	45820.67
574.03	45715.34
574.20	45312.77
574.36	45521.08
574.52	45977.48
574.68	45663.85
574.84	45745.77
575.01	45989.19
575.17	45539.80
575.33	45815.99
575.49	45722.37
575.65	46040.68
575.82	46234.94
575.98	46024.29
576.14	46085.15
576.30	46064.08
576.46	45677.90
576.62	45628.74
576.79	45427.46
576.95	45687.26
577.11	45837.05
577.27	46333.24
577.43	46089.83
577.59	45860.46
577.75	45783.22
577.92	45495.33
578.08	45736.41
578.24	45497.67
578.40	46106.21
578.56	45670.87
578.72	46085.15
578.88	45928.33
579.04	46167.07
579.21	45717.68
579.37	45799.60
579.53	45881.52
579.69	45500.01
579.85	45666.19
580.01	45846.41
580.17	46101.53
580.33	46164.73
580.49	46003.23
580.65	46061.74
580.82	45656.83
580.98	45998.55
581.14	45811.31
581.30	46445.59
581.46	45422.78
581.62	45755.13
581.78	45883.86
581.94	46120.26
582.10	45837.05
582.26	46248.99
582.42	45853.44
582.58	45970.46
582.74	46256.01
582.90	45895.56
583.06	45834.71
583.22	46461.97
583.38	46569.64
583.54	46057.06
583.70	45869.82
583.86	45944.72
584.02	46061.74
584.18	46021.95
584.34	46195.15
584.50	46593.04
584.66	45617.04
584.82	45764.49
584.98	46370.69
585.14	46286.43
585.30	45640.45
585.46	46178.77
585.62	45652.15
585.78	46319.20
585.94	46021.95
586.10	46213.88
586.26	45818.33
586.42	46279.41
586.58	46258.35
586.74	46108.55
586.90	45954.08
587.06	45815.99
587.22	46181.11
587.38	45277.66
587.54	46260.69
587.70	45965.78
587.86	46380.06
588.02	46192.81
588.18	46586.02
588.34	45778.54
588.49	45888.54
588.65	45801.94
588.81	45481.29
588.97	45815.99
589.13	45649.81
589.29	45794.92
589.45	46326.22
589.61	45762.15
589.77	46321.54
589.93	46160.05
590.08	46389.42
