SpectraSuite Data File
++++++++++++++++++++++++++++++++++++
Date: Fri Oct 25 11:23:59 EDT 2013
User: price-jones
Dark Spectrum Present: No
Reference Spectrum Present: No
Number of Sampled Component Spectra: 1
Spectrometers: USB2+H05261
Integration Time (usec): 100000 (USB2+H05261)
Spectra Averaged: 1 (USB2+H05261)
Boxcar Smoothing: 0 (USB2+H05261)
Correct for Electrical Dark: No (USB2+H05261)
Strobe/Lamp Enabled: No (USB2+H05261)
Correct for Detector Non-linearity: No (USB2+H05261)
Correct for Stray Light: No (USB2+H05261)
Number of Pixels in Processed Spectrum: 2048
>>>>>Begin Processed Spectral Data<<<<<
365.73	187.24
365.92	187.24
366.12	187.24
366.32	152.13
366.52	138.09
366.72	117.03
366.91	147.45
367.11	149.79
367.31	100.64
367.51	110.01
367.70	145.11
367.90	175.54
368.10	198.95
368.30	131.07
368.49	149.79
368.69	142.77
368.89	196.60
369.09	173.20
369.28	93.62
369.48	196.60
369.68	224.69
369.87	142.77
370.07	166.18
370.27	210.65
370.47	330.02
370.66	622.58
370.86	634.29
371.06	638.97
371.25	767.70
371.45	608.54
371.65	718.54
371.84	737.27
372.04	641.31
372.24	692.80
372.44	685.78
372.63	734.93
372.83	709.18
373.03	720.88
373.22	725.57
373.42	781.74
373.62	774.72
373.81	800.46
374.01	802.80
374.21	763.01
374.40	793.44
374.60	837.91
374.79	861.32
374.99	861.32
375.19	873.02
375.38	870.68
375.58	880.04
375.78	866.00
375.97	898.77
376.17	880.04
376.37	781.74
376.56	952.60
376.76	961.96
376.95	940.90
377.15	891.74
377.35	870.68
377.54	889.40
377.74	950.26
377.93	915.15
378.13	830.89
378.33	922.17
378.52	861.32
378.72	957.28
378.91	908.13
379.11	1018.13
379.31	891.74
379.50	891.74
379.70	931.53
379.89	1006.43
380.09	945.58
380.28	945.58
380.48	1006.43
380.68	950.26
380.87	992.39
381.07	952.60
381.26	1027.50
381.46	1013.45
381.65	1081.33
381.85	1027.50
382.04	1025.15
382.24	1153.88
382.43	1142.18
382.63	1025.15
382.83	1043.88
383.02	1088.35
383.22	1060.26
383.41	1188.99
383.61	1121.12
383.80	1167.93
384.00	1055.58
384.19	1029.84
384.39	1078.99
384.58	1224.10
384.78	1214.74
384.97	1128.14
385.17	1167.93
385.36	1217.08
385.56	1228.78
385.75	1181.97
385.95	1231.12
386.14	1217.08
386.34	1184.31
386.53	1128.14
386.72	1261.55
386.92	1273.25
387.11	1193.67
387.31	1167.93
387.50	1212.40
387.70	1256.87
387.89	1373.89
388.09	1303.68
388.28	1303.68
388.48	1284.95
388.67	1341.13
388.86	1249.85
389.06	1331.76
389.25	1380.92
389.45	1373.89
389.64	1343.47
389.84	1397.30
390.03	1387.94
390.22	1404.32
390.42	1338.79
390.61	1434.75
390.81	1385.60
391.00	1469.86
391.19	1530.71
391.39	1430.07
391.58	1411.34
391.78	1425.39
391.97	1537.73
392.16	1507.30
392.36	1453.47
392.55	1413.68
392.75	1448.79
392.94	1556.46
393.13	1481.56
393.33	1507.30
393.52	1535.39
393.71	1610.29
393.91	1603.27
394.10	1621.99
394.29	1638.38
394.49	1582.20
394.68	1661.78
394.88	1652.42
395.07	1657.10
395.26	1661.78
395.46	1668.80
395.65	1661.78
395.84	1680.50
396.04	1715.61
396.23	1844.34
396.42	1746.04
396.62	1778.81
396.81	1891.15
397.00	1771.79
397.19	1872.43
397.39	1825.62
397.58	1874.77
397.77	1778.81
397.97	1888.81
398.16	1898.17
398.35	1886.47
398.55	1813.92
398.74	1877.11
398.93	1919.24
399.12	1907.54
399.32	1860.73
399.51	1844.34
399.70	1933.28
399.90	2038.61
400.09	2078.40
400.28	2008.18
400.47	1942.64
400.67	2076.06
400.86	2031.58
401.05	2064.35
401.24	2118.18
401.44	2015.20
401.63	2076.06
401.82	2141.59
402.01	2069.03
402.21	2108.82
402.40	2165.00
402.59	2207.13
402.78	2275.00
402.97	2275.00
403.17	2298.41
403.36	2169.68
403.55	2228.19
403.74	2289.04
403.93	2319.47
404.13	2347.56
404.32	2427.14
404.51	2399.05
404.70	2457.56
404.89	2342.88
405.09	2436.50
405.28	2429.48
405.47	2509.05
405.66	2546.50
405.85	2490.33
406.05	2565.23
406.24	2569.91
406.43	2497.35
406.62	2569.91
406.81	2640.12
407.00	2663.53
407.20	2534.80
407.39	2595.65
407.58	2700.98
407.77	2722.04
407.96	2733.75
408.15	2832.05
408.34	2747.79
408.54	2789.92
408.73	2712.68
408.92	2766.51
409.11	2925.67
409.30	2923.33
409.49	2911.63
409.68	3042.70
409.87	2918.65
410.07	2949.08
410.26	3026.31
410.45	2972.48
410.64	3066.10
410.83	3073.12
411.02	3164.40
411.21	3267.39
411.40	3075.46
411.59	3232.28
411.78	3133.98
411.98	3185.47
412.17	3255.69
412.36	3197.17
412.55	3335.26
412.74	3391.44
412.93	3440.59
413.12	3300.16
413.31	3452.29
413.50	3536.55
413.69	3538.89
413.88	3662.94
414.07	3576.34
414.26	3576.34
414.45	3695.71
414.64	3669.96
414.83	3815.07
415.02	3789.33
415.22	3885.29
415.41	3929.76
415.60	3831.46
415.79	3911.04
415.98	4014.02
416.17	3889.97
416.36	3915.72
416.55	3955.51
416.74	3992.95
416.93	4086.58
417.12	4243.39
417.31	4201.26
417.50	4133.39
417.69	4222.33
417.88	4180.20
418.07	4351.06
418.26	4287.86
418.45	4339.35
418.64	4503.19
418.83	4374.46
419.02	4351.06
419.21	4589.79
419.39	4636.60
419.58	4404.89
419.77	4432.97
419.96	4697.46
420.15	4542.98
420.34	4601.49
420.53	4503.19
420.72	4610.86
420.91	4739.58
421.10	4727.88
421.29	4755.97
421.48	4692.77
421.67	4652.98
421.86	4751.29
422.05	4863.63
422.24	4873.00
422.43	4821.50
422.61	4856.61
422.80	4931.51
422.99	4847.25
423.18	4896.40
423.37	5048.54
423.56	4863.63
423.75	4880.02
423.94	4751.29
424.13	4709.16
424.32	4997.04
424.50	4997.04
424.69	5090.67
424.88	5071.94
425.07	5006.41
425.26	4978.32
425.45	5067.26
425.64	4947.89
425.83	5032.15
426.01	5107.05
426.20	5144.50
426.39	5167.90
426.58	5085.98
426.77	5107.05
426.96	5287.27
427.15	5149.18
427.33	5158.54
427.52	5181.95
427.71	5317.70
427.90	5338.76
428.09	5315.36
428.28	5259.18
428.46	5437.06
428.65	5270.89
428.84	5549.41
429.03	5572.82
429.22	5301.31
429.40	5589.20
429.59	5420.68
429.78	5366.85
429.97	5261.52
430.16	5523.66
430.34	5523.66
430.53	5844.32
430.72	5750.70
430.91	5722.61
431.10	5652.39
431.28	5813.89
431.47	5818.57
431.66	5947.30
431.85	5685.16
432.03	5905.17
432.22	6127.52
432.41	5937.94
432.60	5891.13
432.79	6001.13
432.97	5961.34
433.16	6104.12
433.35	6174.33
433.54	6136.88
433.72	6164.97
433.91	6174.33
434.10	6221.14
434.28	6153.27
434.47	6317.11
434.66	6303.06
434.85	6305.40
435.03	6408.39
435.22	6293.70
435.41	6387.32
435.59	6590.95
435.78	6534.78
435.97	6455.20
436.16	6490.31
436.34	6415.41
436.53	6560.52
436.72	6651.80
436.90	6438.81
437.09	6729.04
437.28	6576.91
437.46	6579.25
437.65	6700.95
437.84	6981.82
438.02	6715.00
438.21	6853.09
438.40	6745.42
438.58	7026.29
438.77	7042.67
438.96	6939.69
439.14	7187.79
439.33	7068.42
439.52	7386.73
439.70	7218.21
439.89	7613.76
440.08	7494.40
440.26	7297.79
440.45	7279.07
440.63	7536.52
440.82	7616.10
441.01	7445.24
441.19	7637.17
441.38	7709.72
441.57	7817.39
441.75	7789.30
441.94	8049.10
442.12	8056.12
442.31	8241.03
442.50	7941.44
442.68	7955.48
442.87	8067.83
443.05	7985.91
443.24	8205.92
443.43	8283.16
443.61	8063.15
443.80	8372.10
443.98	8002.29
444.17	8135.70
444.35	8418.91
444.54	8512.53
444.73	8341.67
444.91	8489.12
445.10	8299.54
445.28	8322.94
445.47	8297.20
445.65	8329.97
445.84	8645.94
446.02	8542.96
446.21	8592.11
446.39	8465.72
446.58	8699.77
446.77	8613.17
446.95	8229.32
447.14	8524.23
447.32	8594.45
447.51	8517.21
447.69	8507.85
447.88	8587.43
448.06	8470.40
448.25	8535.93
448.43	8788.71
448.62	8491.46
448.80	8601.47
448.99	8732.54
449.17	8849.57
449.36	8627.21
449.54	8760.63
449.73	8936.17
449.91	9039.15
450.10	8915.10
450.28	9235.75
450.46	9160.86
450.65	8936.17
450.83	9036.81
451.02	9013.40
451.20	9214.69
451.39	9043.83
451.57	9383.21
451.76	9128.09
451.94	9193.62
452.13	9376.19
452.31	9317.67
452.49	9228.73
452.68	9518.96
452.86	9383.21
453.05	9551.73
453.23	9579.81
453.42	9373.85
453.60	9472.15
453.78	9500.23
453.97	9556.41
454.15	9343.42
454.34	9390.23
454.52	9776.42
454.70	9685.14
454.89	9778.76
455.07	9916.85
455.26	9970.68
455.44	10003.45
455.62	10038.56
455.81	9900.47
455.99	10024.51
456.17	10104.09
456.36	10197.71
456.54	10153.24
456.73	10342.83
456.91	10619.01
457.09	10480.92
457.28	10607.31
457.46	10473.90
457.64	10656.46
457.83	10525.39
458.01	10663.48
458.19	10810.93
458.38	10792.21
458.56	10897.53
458.74	10698.59
458.93	10782.85
459.11	10930.30
459.29	10745.40
459.48	10759.44
459.66	10700.93
459.84	11122.23
460.03	10974.77
460.21	11007.54
460.39	10906.90
460.57	11159.67
460.76	11346.92
460.94	11075.42
461.12	11110.52
461.31	11246.27
461.49	11187.76
461.67	11274.36
461.85	11435.86
462.04	11405.43
462.22	11662.89
462.40	11527.14
462.59	11623.10
462.77	11407.77
462.95	11817.36
463.13	11779.92
463.32	11686.29
463.50	11838.43
463.68	11833.75
463.86	11889.92
464.05	11550.54
464.23	11637.14
464.41	12037.38
464.59	11871.20
464.78	12100.57
464.96	12290.15
465.14	11812.68
465.32	12013.97
465.50	12135.68
465.69	12266.75
465.87	12156.74
466.05	12131.00
466.23	12329.94
466.41	12287.81
466.60	12622.51
466.78	12449.31
466.96	12423.56
467.14	12306.54
467.32	12318.24
467.51	12451.65
467.69	12521.87
467.87	12482.08
468.05	12858.90
468.23	12393.14
468.41	12573.36
468.60	12769.96
468.78	12659.96
468.96	12706.77
469.14	12917.42
469.32	13226.37
469.50	12542.93
469.69	12662.30
469.87	13198.28
470.05	13118.70
470.23	13064.87
470.41	13270.84
470.59	13401.91
470.77	13366.80
470.95	13160.83
471.14	13572.77
471.32	13322.33
471.50	13692.13
471.68	13537.66
471.86	13528.30
472.04	13724.90
472.22	14087.68
472.40	13554.04
472.58	13884.06
472.77	14230.46
472.95	14464.51
473.13	14759.42
473.31	14097.05
473.49	14443.45
473.67	14164.92
473.85	14321.74
474.03	14829.63
474.21	14654.09
474.39	14663.46
474.57	14888.15
474.75	14881.13
474.93	15009.86
475.12	15131.56
475.30	15314.13
475.48	15105.82
475.66	15243.91
475.84	15318.81
476.02	15241.57
476.20	15531.80
476.38	15655.84
476.56	16170.76
476.74	16011.60
476.92	15974.16
477.10	15831.38
477.28	16182.46
477.46	16240.98
477.64	16336.94
477.82	16805.05
478.00	17238.05
478.18	16919.73
478.36	17069.53
478.54	17228.68
478.72	17041.44
478.90	17577.42
479.08	17755.30
479.26	18106.38
479.44	17717.86
479.62	18111.07
479.80	18143.83
479.98	17970.63
480.16	18743.01
480.34	18373.21
480.52	18890.46
480.70	18759.39
480.88	18445.76
481.06	18537.04
481.24	18972.38
481.41	19208.78
481.59	19681.56
481.77	19515.39
481.95	19719.01
482.13	19627.73
482.31	19648.80
482.49	20650.55
482.67	20154.35
482.85	20741.83
483.03	20755.87
483.21	21109.29
483.39	21106.95
483.57	21097.59
483.74	21226.32
483.92	21317.60
484.10	21465.05
484.28	21682.72
484.46	22228.07
484.64	22258.49
484.82	22099.34
485.00	22455.10
485.18	22476.16
485.35	23243.86
485.53	22967.68
485.71	23183.01
485.89	23190.03
486.07	23391.31
486.25	23264.92
486.43	23838.36
486.61	24049.00
486.78	24102.84
486.96	24261.99
487.14	24657.54
487.32	24891.60
487.50	25202.89
487.68	24917.34
487.85	25371.41
488.03	25645.25
488.21	25579.71
488.39	25752.91
488.57	26111.02
488.75	26352.09
488.92	26476.14
489.10	26731.26
489.28	26946.59
489.46	27101.06
489.64	27192.34
489.81	27733.01
489.99	28056.00
490.17	27969.40
490.35	28458.57
490.53	28496.02
490.70	28734.76
490.88	28624.75
491.06	29060.09
491.24	29043.71
491.41	29469.69
491.59	29420.53
491.77	29769.27
491.95	29432.24
492.13	29930.77
492.30	30059.50
492.48	30347.39
492.66	30321.64
492.84	30445.69
493.01	31299.98
493.19	30859.96
493.37	31285.94
493.54	31482.55
493.72	31435.74
493.90	31744.69
494.08	32432.80
494.25	32346.20
494.43	32524.08
494.61	32435.14
494.79	32556.85
494.96	32847.08
495.14	32889.21
495.32	33071.77
495.49	33467.32
495.67	33518.81
495.85	33282.42
496.02	33919.04
496.20	34125.01
496.38	34642.27
496.55	34330.98
496.73	34689.08
496.91	35047.18
497.09	34962.92
497.26	34862.28
497.44	35077.61
497.62	35292.94
497.79	36013.82
497.97	35674.45
498.14	36105.10
498.32	36313.41
498.50	36407.03
498.67	36823.65
498.85	36636.41
499.03	36912.59
499.20	37130.26
499.38	36898.55
499.56	37244.94
499.73	36952.38
499.91	37813.70
500.08	37834.76
500.26	37425.17
500.44	37827.74
500.61	38480.75
500.79	38103.92
500.97	38330.95
501.14	39065.88
501.32	38471.39
501.49	39328.02
501.67	39100.99
501.84	39309.30
502.02	39220.36
502.20	39779.74
502.37	39222.70
502.55	39592.50
502.72	39491.86
502.90	39646.33
503.07	39875.71
503.25	39971.67
503.43	40336.79
503.60	40355.52
503.78	40336.79
503.95	40725.32
504.13	40746.39
504.30	41099.81
504.48	40692.55
504.65	40921.93
504.83	41165.34
505.01	41577.28
505.18	41411.10
505.36	41734.09
505.53	41584.30
505.71	41918.99
505.88	42038.36
506.06	41436.84
506.23	42590.73
506.41	42146.03
506.58	42216.24
506.76	42885.64
506.93	42670.31
507.11	42504.13
507.28	42759.25
507.46	42913.72
507.63	43175.86
507.81	43342.04
507.98	43482.47
508.16	43372.47
508.33	43924.83
508.50	43447.36
508.68	43524.60
508.85	43775.04
509.03	44257.19
509.20	44041.86
509.38	44626.99
509.55	44678.49
509.73	44521.67
509.90	44814.24
510.08	44765.09
510.25	45294.05
510.42	45137.23
510.60	45322.13
510.77	45427.46
510.95	45904.93
511.12	45235.53
511.30	45340.86
511.47	45881.52
511.64	45429.80
511.82	45958.76
511.99	45846.41
512.17	45963.44
512.34	46347.29
512.51	46316.86
512.69	46749.86
512.86	46614.11
513.04	47194.56
513.21	46904.34
513.38	47423.93
513.56	47580.75
513.73	47159.45
513.90	47236.69
514.08	47180.52
514.25	47674.37
514.43	47915.45
514.60	47606.50
514.77	47381.80
514.95	48072.26
515.12	47753.95
515.29	48189.29
515.47	48348.45
515.64	48540.37
515.81	47962.26
515.99	48591.86
516.16	48507.60
516.33	48554.41
516.51	48938.26
516.68	48680.80
516.85	48964.01
517.03	48795.49
517.20	49249.55
517.37	49191.04
517.54	49226.15
517.72	49155.93
517.89	49413.39
518.06	49628.72
518.24	49790.22
518.41	49160.61
518.58	49907.24
518.75	49640.42
518.93	49954.05
519.10	49764.47
519.27	49897.88
519.45	49909.58
519.62	50115.55
519.79	50073.42
519.96	50403.44
520.14	50527.48
520.31	50405.78
520.48	50497.06
520.65	50614.08
520.83	50618.77
521.00	50679.62
521.17	50901.97
521.34	50834.10
521.52	50939.42
521.69	50838.78
521.86	51098.58
522.03	51503.49
522.20	51749.24
522.38	51447.32
522.55	51592.43
522.72	51231.99
522.89	51639.24
523.07	51906.06
523.24	51632.22
523.41	51819.46
523.58	51732.86
523.75	52018.41
523.92	52114.37
524.10	52116.71
524.27	52177.56
524.44	52128.41
524.61	52067.56
524.78	52287.57
524.96	52299.27
525.13	52470.13
525.30	52210.33
525.47	52786.10
525.64	52624.60
525.81	52816.53
525.98	52640.99
526.16	52898.45
526.33	52720.57
526.50	53378.26
526.67	53083.35
526.84	53092.71
527.01	52921.85
527.18	53205.06
527.36	53340.81
527.53	53371.24
527.70	53607.63
527.87	53640.40
528.04	53338.47
528.21	53284.64
528.38	53551.46
528.55	53696.57
528.72	53666.14
528.89	53380.60
529.07	53710.61
529.24	53677.85
529.41	53886.15
529.58	53944.67
529.75	53741.04
529.92	53801.89
530.09	54052.33
530.26	54059.35
530.43	54220.85
530.60	53897.86
530.77	53799.55
530.94	54218.51
531.11	53979.78
531.28	54382.35
531.46	54349.58
531.63	54440.86
531.80	54365.96
531.97	54550.87
532.14	54536.82
532.31	54543.84
532.48	54857.48
532.65	54831.73
532.82	54714.70
532.99	54981.52
533.16	54695.98
533.33	55042.38
533.50	55117.28
533.67	54995.57
533.84	55065.78
534.01	55164.09
534.18	54908.97
534.35	55391.12
534.52	55332.60
534.69	55365.37
534.86	55580.70
535.03	55285.79
535.20	55276.43
535.37	55583.04
535.54	55536.23
535.71	55063.44
535.88	55566.66
536.05	55728.16
536.22	55756.24
536.38	55627.51
536.55	55767.94
536.72	55739.86
536.89	55618.15
537.06	55730.50
537.23	55908.38
537.40	55739.86
537.57	55849.86
537.74	55847.52
537.91	56296.91
538.08	56137.75
538.25	55793.69
538.42	56081.58
538.59	56243.07
538.75	55896.67
538.92	56149.45
539.09	56552.02
539.26	56310.95
539.43	56184.56
539.60	56126.05
539.77	56264.14
539.94	56664.37
540.11	56484.15
540.28	56432.66
540.44	56453.72
540.61	56725.22
540.78	56528.62
540.95	56577.77
541.12	56633.94
541.29	56584.79
541.46	56615.22
541.62	56800.12
541.79	57031.83
541.96	56507.55
542.13	56729.90
542.30	56757.99
542.47	57034.17
542.63	56786.08
542.80	56921.83
542.97	57043.54
543.14	57312.70
543.31	57436.75
543.48	57436.75
543.64	57598.24
543.81	57371.21
543.98	57495.26
544.15	57546.75
544.32	57844.00
544.48	57598.24
544.65	57661.44
544.82	57429.72
544.99	57408.66
545.16	57499.94
545.32	57565.48
545.49	57778.46
545.66	57996.13
545.83	57888.47
546.00	57748.04
546.16	57935.28
546.33	57815.91
546.50	57584.20
546.67	57801.87
546.83	57553.77
547.00	58059.33
547.17	57729.31
547.34	57951.66
547.50	58220.83
547.67	58314.45
547.84	58225.51
548.00	58232.53
548.17	58436.16
548.34	58218.49
548.51	58396.37
548.67	58396.37
548.84	58162.31
549.01	58223.17
549.18	58237.21
549.34	58358.92
549.51	58447.86
549.68	58511.05
549.84	58377.64
550.01	58700.64
550.18	58539.14
550.34	58539.14
550.51	58473.60
550.68	58623.40
550.84	58534.46
551.01	58698.30
551.18	58492.33
551.34	58820.00
551.51	58592.97
551.68	58869.15
551.84	58688.93
552.01	58553.18
552.18	58812.98
552.34	58623.40
552.51	58946.39
552.68	58604.67
552.84	58838.73
553.01	59018.95
553.18	58864.47
553.34	59035.33
553.51	58803.62
553.67	59028.31
553.84	59260.02
554.01	59032.99
554.17	59114.91
554.34	59377.05
554.51	59110.23
554.67	59325.56
554.84	59107.89
555.00	59250.66
555.17	59112.57
555.33	59164.06
555.50	59217.89
555.67	59096.19
555.83	59260.02
556.00	59405.14
556.16	59655.57
556.33	59428.54
556.50	59358.33
556.66	59454.29
556.83	59379.39
556.99	59669.62
557.16	59512.80
557.32	59683.66
557.49	59505.78
557.65	59388.75
557.82	59533.87
557.98	59330.24
558.15	59590.04
558.32	59655.57
558.48	59341.94
558.65	59498.76
558.81	59440.24
558.98	59756.22
559.14	59664.94
559.31	60020.70
559.47	59959.84
559.64	59753.88
559.80	59678.98
559.97	59908.35
560.13	59861.54
560.30	59725.79
560.46	59861.54
560.63	59805.37
560.79	59805.37
560.96	59887.29
561.12	59901.33
561.29	60268.79
561.45	59964.52
561.61	59838.14
561.78	59950.48
561.94	59866.22
562.11	59873.24
562.27	60144.75
562.44	59929.42
562.60	60018.36
562.77	60095.60
562.93	60006.65
563.10	60198.58
563.26	60016.02
563.42	60364.76
563.59	60200.92
563.75	60104.96
563.92	60006.65
564.08	60128.36
564.24	60360.08
564.41	60317.95
564.57	60198.58
564.74	60350.71
564.90	60196.24
565.07	60168.15
565.23	60385.82
565.39	60460.72
565.56	60317.95
565.72	60310.92
565.88	60308.58
566.05	60327.31
566.21	60317.95
566.38	60486.46
566.54	60334.33
566.70	60631.58
566.87	60500.51
567.03	60210.28
567.19	60685.41
567.36	60477.10
567.52	60413.91
567.68	60554.34
567.85	60388.16
568.01	60704.13
568.17	60416.25
568.34	60514.55
568.50	60498.17
568.66	60587.11
568.83	60559.02
568.99	60547.32
569.15	60303.90
569.32	60619.88
569.48	60636.26
569.64	60591.79
569.81	60767.33
569.97	60584.77
570.13	60654.98
570.30	60512.21
570.46	60619.88
570.62	60722.86
570.78	60760.31
570.95	60877.33
571.11	60657.32
571.27	60552.00
571.43	60544.98
571.60	60842.23
571.76	60638.60
571.92	60594.13
572.09	60605.83
572.25	60605.83
572.41	60760.31
572.57	60671.37
572.74	60687.75
572.90	60652.64
573.06	60732.22
573.22	60832.86
573.38	60624.56
573.55	60767.33
573.71	61080.96
573.87	60814.14
574.03	60580.09
574.20	60870.31
574.36	60554.34
574.52	60863.29
574.68	60828.18
574.84	60996.70
575.01	60877.33
575.17	60872.65
575.33	60654.98
575.49	60807.12
575.65	60992.02
575.82	60924.14
575.98	60821.16
576.14	60975.64
576.30	60999.04
576.46	60896.06
576.62	60760.31
576.79	60889.04
576.95	60814.14
577.11	60910.10
577.27	61120.75
577.43	60910.10
577.59	60704.13
577.75	60786.05
577.92	60666.69
578.08	60886.70
578.24	60802.44
578.40	61071.60
578.56	61020.11
578.72	61087.98
578.88	61031.81
579.04	61137.13
579.21	60994.36
579.37	61041.17
579.53	61095.00
579.69	60910.10
579.85	61043.51
580.01	60928.83
580.17	60933.51
580.33	61022.45
580.49	61160.54
580.65	61078.62
580.82	61029.47
580.98	61003.72
581.14	60996.70
581.30	61118.41
581.46	61024.79
581.62	61092.66
581.78	61027.13
581.94	61130.11
582.10	61106.71
582.26	61293.95
582.42	61153.52
582.58	61092.66
582.74	61003.72
582.90	61095.00
583.06	61113.73
583.22	60956.91
583.38	61020.11
583.54	61062.24
583.70	60970.96
583.86	61158.20
584.02	60797.76
584.18	61247.14
584.34	61052.87
584.50	60954.57
584.66	61219.05
584.82	60865.63
584.98	61193.31
585.14	61064.58
585.30	60903.08
585.46	61097.34
585.62	61345.44
585.78	61230.75
585.94	60896.06
586.10	61041.17
586.26	61144.16
586.42	61148.84
586.58	61333.74
586.74	61172.24
586.90	61027.13
587.06	60889.04
587.22	61408.64
587.38	61045.85
587.54	61324.38
587.70	61364.17
587.86	61230.75
588.02	61146.50
588.18	61242.46
588.34	61158.20
