SpectraSuite Data File
++++++++++++++++++++++++++++++++++++
Date: Fri Oct 25 11:26:32 EDT 2013
User: price-jones
Dark Spectrum Present: No
Reference Spectrum Present: No
Number of Sampled Component Spectra: 1
Spectrometers: USB2+H05261
Integration Time (usec): 100000 (USB2+H05261)
Spectra Averaged: 1 (USB2+H05261)
Boxcar Smoothing: 0 (USB2+H05261)
Correct for Electrical Dark: No (USB2+H05261)
Strobe/Lamp Enabled: No (USB2+H05261)
Correct for Detector Non-linearity: No (USB2+H05261)
Correct for Stray Light: No (USB2+H05261)
Number of Pixels in Processed Spectrum: 2048
>>>>>Begin Processed Spectral Data<<<<<
365.73	248.10
365.92	248.10
366.12	248.10
366.32	138.09
366.52	114.69
366.72	182.56
366.91	163.84
367.11	175.54
367.31	100.64
367.51	102.98
367.70	138.09
367.90	191.92
368.10	212.99
368.30	135.75
368.49	154.48
368.69	145.11
368.89	149.79
369.09	128.73
369.28	152.13
369.48	149.79
369.68	95.96
369.87	175.54
370.07	182.56
370.27	224.69
370.47	341.72
370.66	629.60
370.86	667.05
371.06	634.29
371.25	713.86
371.45	751.31
371.65	744.29
371.84	653.01
372.04	631.94
372.24	741.95
372.44	765.36
372.63	767.70
372.83	744.29
373.03	816.85
373.22	713.86
373.42	753.65
373.62	870.68
373.81	800.46
374.01	840.25
374.21	837.91
374.40	828.55
374.60	854.30
374.79	812.17
374.99	880.04
375.19	863.66
375.38	863.66
375.58	849.61
375.78	929.19
375.97	901.11
376.17	891.74
376.37	943.24
376.56	821.53
376.76	938.55
376.95	851.96
377.15	943.24
377.35	905.79
377.54	933.87
377.74	877.70
377.93	933.87
378.13	931.53
378.33	980.68
378.52	966.64
378.72	924.51
378.91	919.83
379.11	954.94
379.31	971.32
379.50	945.58
379.70	1022.81
379.89	1004.09
380.09	938.55
380.28	912.81
380.48	957.28
380.68	999.41
380.87	1029.84
381.07	1039.20
381.26	994.73
381.46	1029.84
381.65	1076.65
381.85	1057.92
382.04	1015.79
382.24	1041.54
382.43	1022.81
382.63	1027.50
382.83	1069.62
383.02	1123.46
383.22	1071.97
383.41	1074.31
383.61	1177.29
383.80	1132.82
384.00	1104.73
384.19	1104.73
384.39	1109.41
384.58	1093.03
384.78	1142.18
384.97	1123.46
385.17	1214.74
385.36	1165.59
385.56	1125.80
385.75	1158.57
385.95	1114.10
386.14	1254.53
386.34	1163.25
386.53	1221.76
386.72	1146.86
386.92	1296.66
387.11	1224.10
387.31	1242.82
387.50	1275.59
387.70	1247.51
387.89	1320.06
388.09	1313.04
388.28	1238.14
388.48	1327.08
388.67	1317.72
388.86	1207.72
389.06	1263.89
389.25	1287.29
389.45	1303.68
389.64	1387.94
389.84	1416.02
390.03	1387.94
390.22	1451.13
390.42	1441.77
390.61	1366.87
390.81	1401.98
391.00	1446.45
391.19	1416.02
391.39	1547.09
391.58	1572.84
391.78	1570.50
391.97	1554.12
392.16	1554.12
392.36	1614.97
392.55	1523.69
392.75	1483.90
392.94	1497.94
393.13	1540.07
393.33	1455.81
393.52	1586.88
393.71	1605.61
393.91	1561.14
394.10	1561.14
394.29	1554.12
394.49	1584.54
394.68	1636.03
394.88	1621.99
395.07	1586.88
395.26	1572.84
395.46	1678.16
395.65	1689.87
395.84	1746.04
396.04	1708.59
396.23	1701.57
396.42	1820.94
396.62	1760.08
396.81	1776.47
397.00	1774.13
397.19	1790.51
397.39	1860.73
397.58	1879.45
397.77	1813.92
397.97	1827.96
398.16	1888.81
398.35	1884.13
398.55	1926.26
398.74	1928.60
398.93	1954.35
399.12	1947.33
399.32	1921.58
399.51	1947.33
399.70	2083.08
399.90	2008.18
400.09	2012.86
400.28	1959.03
400.47	2080.74
400.67	2174.36
400.86	2143.93
401.05	2019.88
401.24	2015.20
401.44	2106.48
401.63	2118.18
401.82	2225.85
402.01	2118.18
402.21	2122.87
402.40	2101.80
402.59	2148.61
402.78	2277.34
402.97	2197.76
403.17	2335.85
403.36	2267.98
403.55	2396.71
403.74	2305.43
403.93	2354.58
404.13	2466.92
404.32	2340.54
404.51	2448.20
404.70	2408.41
404.89	2349.90
405.09	2377.98
405.28	2429.48
405.47	2548.84
405.66	2527.78
405.85	2464.58
406.05	2544.16
406.24	2546.50
406.43	2597.99
406.62	2635.44
406.81	2691.62
407.00	2619.06
407.20	2527.78
407.39	2794.60
407.58	2829.71
407.77	2700.98
407.96	2635.44
408.15	2724.38
408.34	2803.96
408.54	2834.39
408.73	2836.73
408.92	2806.30
409.11	2752.47
409.30	2876.52
409.49	2925.67
409.68	2939.71
409.87	2885.88
410.07	3023.97
410.26	2963.12
410.45	2881.20
410.64	2993.55
410.83	3101.21
411.02	3084.83
411.21	3234.62
411.40	3089.51
411.59	3234.62
411.78	3152.70
411.98	3141.00
412.17	3251.00
412.36	3302.50
412.55	3353.99
412.74	3410.16
412.93	3433.57
413.12	3421.86
413.31	3494.42
413.50	3454.63
413.69	3487.40
413.88	3557.61
414.07	3574.00
414.26	3786.99
414.45	3737.84
414.64	3693.37
414.83	3763.58
415.02	3698.05
415.22	3817.41
415.41	3911.04
415.60	3899.33
415.79	3920.40
415.98	3911.04
416.17	3904.01
416.36	3866.56
416.55	4105.30
416.74	4102.96
416.93	4227.01
417.12	4161.47
417.31	4287.86
417.50	4154.45
417.69	4395.53
417.88	4243.39
418.07	4337.01
418.26	4245.73
418.45	4341.69
418.64	4468.08
418.83	4496.17
419.02	4428.29
419.21	4482.13
419.39	4489.15
419.58	4484.47
419.77	4491.49
419.96	4596.81
420.15	4505.53
420.34	4638.94
420.53	4758.31
420.72	4571.07
420.91	4629.58
421.10	4725.54
421.29	4842.57
421.48	4713.84
421.67	4674.05
421.86	4730.22
422.05	4849.59
422.24	4758.31
422.43	4816.82
422.61	4889.38
422.80	4990.02
422.99	5085.98
423.18	4915.12
423.37	5060.24
423.56	4968.96
423.75	4947.89
423.94	4908.10
424.13	4573.41
424.32	4882.36
424.50	5011.09
424.69	5116.41
424.88	5118.75
425.07	4994.70
425.26	4812.14
425.45	5062.58
425.64	4973.64
425.83	5135.14
426.01	5081.30
426.20	5013.43
426.39	5188.97
426.58	5088.32
426.77	5011.09
426.96	5172.58
427.15	5142.16
427.33	5217.05
427.52	5135.14
427.71	5254.50
427.90	5088.32
428.09	5446.43
428.28	5327.06
428.46	5418.34
428.65	5390.25
428.84	5509.62
429.03	5589.20
429.22	5245.14
429.40	5397.28
429.59	5591.54
429.78	5247.48
429.97	5261.52
430.16	5495.58
430.34	5617.29
430.53	5540.05
430.72	5621.97
430.91	5678.14
431.10	5678.14
431.28	5682.82
431.47	5762.40
431.66	5849.00
431.85	5865.38
432.03	5919.21
432.22	6069.01
432.41	5956.66
432.60	5863.04
432.79	6164.97
432.97	5982.41
433.16	6054.97
433.35	6087.73
433.54	5844.32
433.72	6050.28
433.91	6080.71
434.10	6111.14
434.28	5877.09
434.47	6204.76
434.66	6277.32
434.85	6328.81
435.03	6429.45
435.22	6317.11
435.41	6670.53
435.59	6368.60
435.78	6314.77
435.97	6485.62
436.16	6450.52
436.34	6361.58
436.53	6703.29
436.72	6562.86
436.90	6520.73
437.09	6787.55
437.28	6604.99
437.46	6654.14
437.65	6710.32
437.84	6832.02
438.02	6785.21
438.21	6796.92
438.40	6670.53
438.58	6867.13
438.77	7138.63
438.96	6927.99
439.14	7157.36
439.33	7176.08
439.52	7208.85
439.70	7276.73
439.89	7468.65
440.08	7442.90
440.26	7431.20
440.45	7508.44
440.63	7534.18
440.82	7691.00
441.01	7494.40
441.19	7756.54
441.38	7597.38
441.57	7786.96
441.75	7887.61
441.94	7950.80
442.12	7957.82
442.31	8035.06
442.50	8217.62
442.68	7990.59
442.87	8072.51
443.05	8056.12
443.24	8154.43
443.43	8077.19
443.61	8407.20
443.80	8344.01
443.98	8156.77
444.17	7672.28
444.35	8135.70
444.54	8458.70
444.73	8322.94
444.91	8358.05
445.10	8210.60
445.28	8257.41
445.47	8372.10
445.65	8465.72
445.84	8461.04
446.02	8493.80
446.21	8622.53
446.39	8439.97
446.58	8458.70
446.77	8573.38
446.95	8383.80
447.14	8416.57
447.32	8662.32
447.51	8526.57
447.69	8423.59
447.88	8351.03
448.06	8566.36
448.25	8631.90
448.43	8482.10
448.62	8589.77
448.80	8585.08
448.99	8706.79
449.17	8788.71
449.36	8725.52
449.54	8863.61
449.73	8889.35
449.91	9085.96
450.10	9142.13
450.28	9118.73
450.46	9249.80
450.65	8990.00
450.83	9184.26
451.02	9118.73
451.20	9156.18
451.39	9238.09
451.57	9102.34
451.76	9210.01
451.94	9214.69
452.13	9399.59
452.31	9411.29
452.49	9268.52
452.68	9493.21
452.86	9612.58
453.05	9270.86
453.23	9521.30
453.42	9547.05
453.60	9488.53
453.78	9675.77
453.97	9434.70
454.15	9210.01
454.34	9336.40
454.52	9778.76
454.70	9788.12
454.89	9806.84
455.07	9685.14
455.26	9825.57
455.44	10134.52
455.62	10005.79
455.81	9961.32
455.99	9863.02
456.17	10108.77
456.36	10132.18
456.54	10104.09
456.73	10368.57
456.91	10448.15
457.09	10562.84
457.28	10558.16
457.46	10342.83
457.64	10745.40
457.83	10331.12
458.01	10303.04
458.19	10764.12
458.38	10679.86
458.56	10747.74
458.74	10745.40
458.93	10750.08
459.11	10693.91
459.29	10679.86
459.48	10850.72
459.66	10717.31
459.84	10977.11
460.03	11183.08
460.21	10963.07
460.39	10815.62
460.57	11145.63
460.76	11091.80
460.94	11187.76
461.12	11073.07
461.31	11272.02
461.49	11159.67
461.67	11325.85
461.85	11611.40
462.04	11356.28
462.22	11662.89
462.40	11681.61
462.59	11391.39
462.77	11634.80
462.95	11602.04
463.13	11637.14
463.32	11604.38
463.50	11744.81
463.68	11740.13
463.86	12023.33
464.05	11735.45
464.23	11595.01
464.41	12016.31
464.59	11721.40
464.78	12353.35
464.96	12006.95
465.14	11913.33
465.32	12039.72
465.50	12095.89
465.69	12308.88
465.87	12245.68
466.05	12123.98
466.23	12051.42
466.41	12369.73
466.60	12444.63
466.78	12451.65
466.96	12299.52
467.14	12355.69
467.32	12465.69
467.51	12397.82
467.69	12187.17
467.87	12592.08
468.05	12627.19
468.23	12547.61
468.41	12456.33
468.60	12723.15
468.78	12919.76
468.96	12727.83
469.14	13064.87
469.32	13069.55
469.50	12821.45
469.69	12924.44
469.87	12999.34
470.05	12952.52
470.23	13362.12
470.41	13486.17
470.59	13331.69
470.77	13387.86
470.95	13018.06
471.14	13441.70
471.32	13202.96
471.50	13687.45
471.68	13600.85
471.86	13540.00
472.04	13767.03
472.22	14083.00
472.40	13682.77
472.58	14115.77
472.77	14061.94
472.95	14176.62
473.13	14562.81
473.31	14012.79
473.49	14106.41
473.67	14340.46
473.85	14408.34
474.03	14597.92
474.21	14523.02
474.39	14813.25
474.57	14803.89
474.75	15051.99
474.93	14890.49
475.12	14853.04
475.30	15049.64
475.48	14853.04
475.66	15250.93
475.84	15110.50
476.02	15468.60
476.20	15714.36
476.38	15599.67
476.56	16294.81
476.74	15873.51
476.92	15784.57
477.10	15875.85
477.28	16248.00
477.46	16109.91
477.64	16334.60
477.82	16776.96
478.00	16957.18
478.18	16954.84
478.36	16706.74
478.54	16959.52
478.72	17212.30
478.90	17404.22
479.08	17631.26
479.26	17736.58
479.44	17811.48
479.62	17860.63
479.80	17963.61
479.98	18239.79
480.16	18789.82
480.34	18211.71
480.52	18420.02
480.70	18670.45
480.88	18256.18
481.06	18679.82
481.24	18956.00
481.41	19267.29
481.59	19623.05
481.77	19379.64
481.95	19637.09
482.13	19672.20
482.31	19707.31
482.49	20524.16
482.67	20292.44
482.85	20570.97
483.03	20650.55
483.21	21163.12
483.39	21109.29
483.57	20711.40
483.74	21174.83
483.92	21259.09
484.10	21212.28
484.28	21542.29
484.46	22141.47
484.64	22649.36
484.82	22031.46
485.00	22305.31
485.18	22717.24
485.35	22972.36
485.53	22555.74
485.71	23119.81
485.89	23683.88
486.07	23372.59
486.25	23339.82
486.43	23728.35
486.61	23913.25
486.78	23983.47
486.96	24245.61
487.14	24620.10
487.32	24526.47
487.50	24809.68
487.68	25010.96
487.85	25469.71
488.03	25678.02
488.21	25855.90
488.39	25872.28
488.57	25717.81
488.75	26291.24
488.92	26363.79
489.10	26754.66
489.28	26909.14
489.46	26944.25
489.64	27168.94
489.81	27419.38
489.99	27812.59
490.17	27524.70
490.35	28439.85
490.53	28030.26
490.70	28463.25
490.88	28428.15
491.06	28879.87
491.24	28781.57
491.41	28896.25
491.59	29170.10
491.77	29490.75
491.95	29511.81
492.13	29682.67
492.30	30270.15
492.48	30167.16
492.66	29895.66
492.84	30176.53
493.01	30815.49
493.19	30941.88
493.37	30918.48
493.54	31115.08
493.72	31711.92
493.90	31171.25
494.08	31644.04
494.25	32020.87
494.43	32187.05
494.61	32376.63
494.79	32500.68
494.96	32397.70
495.14	32795.59
495.32	33017.94
495.49	33139.65
495.67	32896.23
495.85	33795.00
496.02	33748.18
496.20	33706.05
496.38	34153.10
496.55	34361.40
496.73	34946.54
496.91	34501.84
497.09	35002.71
497.26	35475.50
497.44	35108.04
497.62	35351.45
497.79	36133.19
497.97	35653.38
498.14	35805.52
498.32	36140.21
498.50	36456.18
498.67	36718.32
498.85	36357.88
499.03	36769.82
499.20	36765.14
499.38	36821.31
499.56	37179.41
499.73	37376.01
499.91	37549.21
500.08	37699.01
500.26	37500.06
500.44	37670.92
500.61	38183.50
500.79	37923.70
500.97	38345.00
501.14	38342.66
501.32	38424.57
501.49	38831.83
501.67	38918.43
501.84	39157.16
502.02	39175.89
502.20	38897.36
502.37	39395.90
502.55	39508.24
502.72	39475.48
502.90	39665.06
503.07	39463.77
503.25	39889.75
503.43	39599.52
503.60	39688.46
503.78	40334.45
503.95	40486.59
504.13	40364.88
504.30	40692.55
504.48	40322.75
504.65	40746.39
504.83	41581.96
505.01	41127.89
505.18	41483.66
505.36	41551.53
505.53	41684.94
505.71	41972.83
505.88	42031.34
506.06	41233.22
506.23	42298.16
506.41	41762.18
506.58	41996.23
506.76	42359.02
506.93	42658.60
507.11	42473.70
507.28	42782.65
507.46	42913.72
507.63	43311.61
507.81	43232.04
507.98	43040.11
508.16	42873.93
508.33	43187.56
508.50	43222.67
508.68	43805.47
508.85	44032.50
509.03	43688.44
509.20	43842.92
509.38	44746.36
509.55	44603.59
509.73	44416.35
509.90	44715.93
510.08	44399.96
510.25	44594.23
510.42	44715.93
510.60	45509.38
510.77	45202.77
510.95	45640.45
511.12	45219.15
511.30	45476.61
511.47	45635.77
511.64	45392.35
511.82	46234.94
511.99	45507.04
512.17	46312.18
512.34	45783.22
512.51	46312.18
512.69	46628.15
512.86	46277.07
513.04	46766.24
513.21	46546.23
513.38	46607.09
513.56	46852.84
513.73	47222.65
513.90	47334.99
514.08	47159.45
514.25	47344.36
514.43	47798.42
514.60	47068.17
514.77	47597.13
514.95	47632.24
515.12	47555.00
515.29	47536.28
515.47	48016.09
515.64	48226.74
515.81	47718.84
515.99	48385.89
516.16	48100.35
516.33	48051.20
516.51	48655.06
516.68	48722.93
516.85	48699.53
517.03	48837.62
517.20	48631.65
517.37	48676.12
517.54	48603.56
517.72	48989.75
517.89	49062.31
518.06	49422.75
518.24	49303.38
518.41	49429.77
518.58	49485.95
518.75	49233.17
518.93	49748.09
519.10	49279.98
519.27	49811.28
519.45	49652.12
519.62	50298.11
519.79	49900.22
519.96	50288.75
520.14	50333.22
520.31	50258.32
520.48	50728.77
520.65	50588.34
520.83	50438.54
521.00	51129.00
521.17	50405.78
521.34	50997.93
521.52	50698.34
521.69	51117.30
521.86	51129.00
522.03	51110.28
522.20	51351.35
522.38	51089.21
522.55	51201.56
522.72	51351.35
522.89	51302.20
523.07	51669.67
523.24	51564.34
523.41	51767.97
523.58	51725.84
523.75	51870.95
523.92	51634.56
524.10	51810.10
524.27	52236.08
524.44	52112.03
524.61	52296.93
524.78	52350.76
524.96	52430.34
525.13	52245.44
525.30	52381.19
525.47	52446.72
525.64	52383.53
525.81	52360.12
525.98	52776.74
526.16	52619.92
526.33	52905.47
526.50	53104.41
526.67	52587.16
526.84	52992.07
527.01	52989.73
527.18	53029.52
527.36	53015.47
527.53	52982.71
527.70	53642.74
527.87	53406.34
528.04	53275.27
528.21	53371.24
528.38	53420.39
528.55	53319.74
528.72	53518.69
528.89	53624.01
529.07	53462.52
529.24	53425.07
529.41	53888.49
529.58	53900.20
529.75	53586.57
529.92	54061.69
530.09	53853.39
530.26	54054.67
530.43	53932.96
530.60	54033.61
530.77	53970.41
530.94	54103.82
531.11	54024.25
531.28	54293.41
531.46	54443.20
531.63	54733.43
531.80	54155.32
531.97	54560.23
532.14	54831.73
532.31	54609.38
532.48	54766.20
532.65	54719.38
532.82	54635.13
532.99	54639.81
533.16	54529.80
533.33	54742.79
533.50	54876.20
533.67	54649.17
533.84	54499.37
534.01	54766.20
534.18	55203.88
534.35	55124.30
534.52	55042.38
534.69	55168.77
534.86	55327.92
535.03	54941.74
535.20	55243.66
535.37	55367.71
535.54	55313.88
535.71	55334.95
535.88	55407.50
536.05	55309.20
536.22	55615.81
536.38	55524.53
536.55	55723.47
536.72	55519.85
536.89	55536.23
537.06	55608.79
537.23	55739.86
537.40	55917.74
537.57	55655.60
537.74	55901.36
537.91	55983.27
538.08	55957.53
538.25	55641.56
538.42	55950.51
538.59	56313.29
538.75	55854.54
538.92	56102.64
539.09	56308.61
539.26	56156.47
539.43	56147.11
539.60	56175.20
539.77	56264.14
539.94	56633.94
540.11	56353.08
540.28	56350.74
540.44	56545.00
540.61	56355.42
540.78	56542.66
540.95	56697.14
541.12	56774.37
541.29	56425.64
541.46	56739.27
541.62	56718.20
541.79	56800.12
541.96	56498.19
542.13	56505.21
542.30	56676.07
542.47	56952.26
542.63	56898.42
542.80	56853.95
542.97	57001.41
543.14	57396.96
543.31	57176.95
543.48	57333.76
543.64	57511.64
543.81	57455.47
543.98	57485.90
544.15	57310.36
544.32	57502.28
544.48	57623.99
544.65	57448.45
544.82	57499.94
544.99	57373.55
545.16	57425.04
545.32	57443.77
545.49	57712.93
545.66	57593.56
545.83	57607.61
546.00	57776.12
546.16	57670.80
546.33	57668.46
546.50	57340.78
546.67	57874.43
546.83	57511.64
547.00	57755.06
547.17	57609.95
547.34	57865.06
547.50	57881.45
547.67	58073.37
547.84	57918.90
548.00	58150.61
548.17	58136.57
548.34	57984.43
548.51	58164.65
548.67	58284.02
548.84	58169.33
549.01	58309.77
549.18	58218.49
549.34	58323.81
549.51	58272.32
549.68	58293.38
549.84	58387.00
550.01	58305.09
550.18	58522.76
550.34	58567.23
550.51	58504.03
550.68	58401.05
550.84	58157.63
551.01	58396.37
551.18	58766.17
551.34	58319.13
551.51	58663.19
551.68	58841.07
551.84	58555.52
552.01	58597.65
552.18	58693.61
552.34	58672.55
552.51	58672.55
552.68	58571.91
552.84	58681.91
553.01	58845.75
553.18	58756.81
553.34	59040.01
553.51	58789.58
553.67	58969.80
553.84	58972.14
554.01	58883.20
554.17	59180.45
554.34	59112.57
554.51	58958.09
554.67	59253.00
554.84	59105.55
555.00	59023.63
555.17	58932.35
555.33	59082.14
555.50	58960.44
555.67	59105.55
555.83	59037.67
556.00	59075.12
556.16	59536.21
556.33	59412.16
556.50	59463.65
556.66	59348.96
556.83	59271.73
556.99	59543.23
557.16	59774.94
557.32	59576.00
557.49	59611.10
557.65	59608.76
557.82	59384.07
557.98	59550.25
558.15	59648.55
558.32	59526.84
558.48	59529.19
558.65	59512.80
558.81	59430.88
558.98	59583.02
559.14	59592.38
559.31	59580.68
559.47	59723.45
559.64	59611.10
559.80	59849.84
559.97	59653.23
560.13	59608.76
560.30	59746.86
560.46	59690.68
560.63	59697.70
560.79	59508.12
560.96	59840.48
561.12	59856.86
561.29	59798.35
561.45	60025.38
561.61	59758.56
561.78	60074.53
561.94	59838.14
562.11	59945.80
562.27	59838.14
562.44	59978.57
562.60	60116.66
562.77	60224.32
562.93	59863.88
563.10	60093.25
563.26	60083.89
563.42	60430.29
563.59	60163.47
563.75	60224.32
563.92	60062.83
564.08	60032.40
564.24	60069.85
564.41	60023.04
564.57	60250.07
564.74	60067.51
564.90	60296.88
565.07	60165.81
565.23	60210.28
565.39	60102.62
565.56	60200.92
565.72	60285.18
565.88	60104.96
566.05	60189.22
566.21	60317.95
566.38	60355.39
566.54	60205.60
566.70	60315.61
566.87	60406.89
567.03	60144.75
567.19	60573.06
567.36	60404.55
567.52	60416.25
567.68	60603.49
567.85	60444.33
568.01	60533.28
568.17	60357.74
568.34	60500.51
568.50	60390.50
568.66	60306.24
568.83	60568.38
568.99	60392.84
569.15	60456.04
569.32	60666.69
569.48	60346.03
569.64	60528.59
569.81	60561.36
569.97	60416.25
570.13	60395.18
570.30	60355.39
570.46	60589.45
570.62	60411.57
570.78	60467.74
570.95	60507.53
571.11	60662.00
571.27	60331.99
571.43	60512.21
571.60	60605.83
571.76	60542.64
571.92	60612.85
572.09	60750.94
572.25	60411.57
572.41	60608.17
572.57	60481.78
572.74	60898.40
572.90	60619.88
573.06	60779.03
573.22	60722.86
573.38	60495.83
573.55	60542.64
573.71	60985.00
573.87	60715.84
574.03	60673.71
574.20	60973.30
574.36	60563.70
574.52	60729.88
574.68	60767.33
574.84	60891.38
575.01	60814.14
575.17	60750.94
575.33	60582.43
575.49	60626.90
575.65	60662.00
575.82	60821.16
575.98	60814.14
576.14	61193.31
576.30	60970.96
576.46	60615.19
576.62	60795.42
576.79	60739.24
576.95	60708.82
577.11	60851.59
577.27	60814.14
577.43	60846.91
577.59	60898.40
577.75	60797.76
577.92	60708.82
578.08	60884.36
578.24	60779.03
578.40	61207.35
578.56	61087.98
578.72	60910.10
578.88	61109.05
579.04	61008.40
579.21	60926.49
579.37	60886.70
579.53	60800.10
579.69	60692.43
579.85	60746.26
580.01	60893.72
580.17	60753.29
580.33	60919.46
580.49	61106.71
580.65	60952.23
580.82	60832.86
580.98	60643.28
581.14	60907.76
581.30	61036.49
581.46	60741.58
581.62	61085.64
581.78	60917.12
581.94	60912.44
582.10	60872.65
582.26	60797.76
582.42	60849.25
582.58	60926.49
582.74	60874.99
582.90	60907.76
583.06	60947.55
583.22	60818.82
583.38	60889.04
583.54	60945.21
583.70	61132.45
583.86	61059.90
584.02	60945.21
584.18	61212.03
584.34	61034.15
584.50	60874.99
584.66	60942.87
584.82	60889.04
584.98	61300.97
585.14	61045.85
585.30	60949.89
585.46	61059.90
585.62	61034.15
585.78	61226.07
585.94	61036.49
586.10	61076.28
586.26	61078.62
586.42	60996.70
586.58	61113.73
586.74	61048.19
586.90	60917.12
587.06	61048.19
587.22	61282.25
587.38	60956.91
587.54	61055.21
587.70	61549.07
587.86	60977.98
588.02	60926.49
588.18	61240.12
588.34	61050.53
