SpectraSuite Data File
++++++++++++++++++++++++++++++++++++
Date: Fri Oct 25 11:23:42 EDT 2013
User: price-jones
Dark Spectrum Present: No
Reference Spectrum Present: No
Number of Sampled Component Spectra: 1
Spectrometers: USB2+H05261
Integration Time (usec): 100000 (USB2+H05261)
Spectra Averaged: 1 (USB2+H05261)
Boxcar Smoothing: 0 (USB2+H05261)
Correct for Electrical Dark: No (USB2+H05261)
Strobe/Lamp Enabled: No (USB2+H05261)
Correct for Detector Non-linearity: No (USB2+H05261)
Correct for Stray Light: No (USB2+H05261)
Number of Pixels in Processed Spectrum: 2048
>>>>>Begin Processed Spectral Data<<<<<
365.73	271.50
365.92	271.50
366.12	271.50
366.32	126.39
366.52	114.69
366.72	177.88
366.91	86.60
367.11	98.30
367.31	128.73
367.51	156.82
367.70	114.69
367.90	142.77
368.10	58.51
368.30	77.24
368.49	77.24
368.69	156.82
368.89	79.58
369.09	107.66
369.28	203.63
369.48	126.39
369.68	184.90
369.87	259.80
370.07	107.66
370.27	215.33
370.47	325.33
370.66	554.71
370.86	557.05
371.06	725.57
371.25	702.16
371.45	683.44
371.65	674.07
371.84	662.37
372.04	674.07
372.24	758.33
372.44	664.71
372.63	779.40
372.83	718.54
373.03	767.70
373.22	641.31
373.42	833.23
373.62	730.25
373.81	746.63
374.01	793.44
374.21	819.19
374.40	849.61
374.60	833.23
374.79	901.11
374.99	912.81
375.19	887.06
375.38	861.32
375.58	854.30
375.78	891.74
375.97	924.51
376.17	870.68
376.37	896.43
376.56	819.19
376.76	870.68
376.95	870.68
377.15	894.08
377.35	898.77
377.54	903.45
377.74	968.98
377.93	858.98
378.13	854.30
378.33	973.66
378.52	896.43
378.72	896.43
378.91	912.81
379.11	950.26
379.31	964.30
379.50	873.02
379.70	1004.09
379.89	945.58
380.09	877.70
380.28	950.26
380.48	940.90
380.68	1011.11
380.87	1008.77
381.07	987.71
381.26	1086.01
381.46	954.94
381.65	1111.75
381.85	1039.20
382.04	968.98
382.24	997.07
382.43	1055.58
382.63	1048.56
382.83	1156.22
383.02	1156.22
383.22	1043.88
383.41	1057.92
383.61	1128.14
383.80	1235.80
384.00	1074.31
384.19	1057.92
384.39	1184.31
384.58	1179.63
384.78	1205.38
384.97	1160.91
385.17	1165.59
385.36	1177.29
385.56	1231.12
385.75	1193.67
385.95	1188.99
386.14	1188.99
386.34	1306.02
386.53	1254.53
386.72	1245.16
386.92	1254.53
387.11	1174.95
387.31	1310.70
387.50	1224.10
387.70	1263.89
387.89	1165.59
388.09	1200.69
388.28	1165.59
388.48	1263.89
388.67	1268.57
388.86	1329.42
389.06	1270.91
389.25	1287.29
389.45	1357.51
389.64	1345.81
389.84	1343.47
390.03	1366.87
390.22	1425.39
390.42	1289.64
390.61	1401.98
390.81	1301.34
391.00	1387.94
391.19	1472.20
391.39	1397.30
391.58	1413.68
391.78	1455.81
391.97	1404.32
392.16	1413.68
392.36	1481.56
392.55	1474.54
392.75	1446.45
392.94	1509.65
393.13	1537.73
393.33	1441.77
393.52	1504.96
393.71	1523.69
393.91	1689.87
394.10	1596.25
394.29	1624.33
394.49	1526.03
394.68	1551.78
394.88	1633.69
395.07	1664.12
395.26	1645.40
395.46	1647.74
395.65	1664.12
395.84	1694.55
396.04	1664.12
396.23	1790.51
396.42	1813.92
396.62	1809.23
396.81	1713.27
397.00	1736.68
397.19	1764.76
397.39	1753.06
397.58	1870.09
397.77	1902.86
397.97	1907.54
398.16	1870.09
398.35	1877.11
398.55	1827.96
398.74	1867.75
398.93	1940.30
399.12	1914.56
399.32	1912.22
399.51	1944.99
399.70	1933.28
399.90	1954.35
400.09	1884.13
400.28	2050.31
400.47	1966.05
400.67	2069.03
400.86	1900.52
401.05	2036.27
401.24	2022.22
401.44	2073.71
401.63	2165.00
401.82	2179.04
402.01	2115.84
402.21	2204.78
402.40	2202.44
402.59	2101.80
402.78	2298.41
402.97	2225.85
403.17	2279.68
403.36	2223.51
403.55	2328.83
403.74	2321.81
403.93	2221.17
404.13	2441.18
404.32	2352.24
404.51	2307.77
404.70	2392.03
404.89	2342.88
405.09	2483.31
405.28	2457.56
405.47	2413.09
405.66	2551.18
405.85	2450.54
406.05	2583.95
406.24	2523.10
406.43	2544.16
406.62	2717.36
406.81	2686.94
407.00	2661.19
407.20	2686.94
407.39	2602.68
407.58	2806.30
407.77	2827.37
407.96	2745.45
408.15	2808.64
408.34	2689.28
408.54	2810.98
408.73	2754.81
408.92	2850.77
409.11	2853.11
409.30	2935.03
409.49	2899.92
409.68	2909.29
409.87	2986.52
410.07	2965.46
410.26	3063.76
410.45	3047.38
410.64	3056.74
410.83	3110.57
411.02	3117.59
411.21	3108.23
411.40	3105.89
411.59	3272.07
411.78	3201.85
411.98	3218.24
412.17	3171.43
412.36	3173.77
412.55	3325.90
412.74	3438.25
412.93	3375.05
413.12	3342.28
413.31	3576.34
413.50	3391.44
413.69	3520.17
413.88	3665.28
414.07	3550.59
414.26	3686.34
414.45	3646.55
414.64	3756.56
414.83	3653.58
415.02	3794.01
415.22	3784.65
415.41	3906.35
415.60	3901.67
415.79	3936.78
415.98	3852.52
416.17	3946.14
416.36	4018.70
416.55	3946.14
416.74	4098.28
416.93	4016.36
417.12	4187.22
417.31	4294.88
417.50	4266.80
417.69	4152.11
417.88	4334.67
418.07	4227.01
418.26	4404.89
418.45	4301.90
418.64	4479.79
418.83	4290.20
419.02	4472.76
419.21	4440.00
419.39	4592.13
419.58	4568.73
419.77	4444.68
419.96	4655.33
420.15	4596.81
420.34	4697.46
420.53	4655.33
420.72	4641.28
420.91	4791.08
421.10	4657.67
421.29	4662.35
421.48	4678.73
421.67	4774.69
421.86	4863.63
422.05	4896.40
422.24	4664.69
422.43	4711.50
422.61	4868.31
422.80	4985.34
422.99	5097.69
423.18	4994.70
423.37	4980.66
423.56	5074.28
423.75	5074.28
423.94	4898.74
424.13	4550.00
424.32	4777.03
424.50	4985.34
424.69	5015.77
424.88	5146.84
425.07	5027.47
425.26	4816.82
425.45	5093.01
425.64	4931.51
425.83	4917.47
426.01	5081.30
426.20	5116.41
426.39	5025.13
426.58	5146.84
426.77	5226.42
426.96	5191.31
427.15	5062.58
427.33	5221.74
427.52	5100.03
427.71	5341.10
427.90	5205.35
428.09	5376.21
428.28	5287.27
428.46	5277.91
428.65	5366.85
428.84	5636.01
429.03	5488.56
429.22	5247.48
429.40	5497.92
429.59	5542.39
429.78	5317.70
429.97	5261.52
430.16	5556.43
430.34	5617.29
430.53	5633.67
430.72	5884.11
430.91	5582.18
431.10	5664.10
431.28	5844.32
431.47	5834.96
431.66	5898.15
431.85	5806.87
432.03	5767.08
432.22	5959.00
432.41	5919.21
432.60	5860.70
432.79	6015.18
432.97	6026.88
433.16	6235.19
433.35	5926.24
433.54	6057.31
433.72	6047.94
433.91	6069.01
434.10	6202.42
434.28	6242.21
434.47	6214.12
434.66	6209.44
434.85	6483.28
435.03	6513.71
435.22	6305.40
435.41	6621.38
435.59	6497.33
435.78	6310.08
435.97	6532.44
436.16	6504.35
436.34	6317.11
436.53	6539.46
436.72	6630.74
436.90	6562.86
437.09	6558.18
437.28	6516.05
437.46	6607.33
437.65	6672.87
437.84	6738.40
438.02	6635.42
438.21	6794.58
438.40	6647.12
438.58	7138.63
438.77	7150.34
438.96	6939.69
439.14	7115.23
439.33	7229.91
439.52	7447.58
439.70	7253.32
439.89	7243.96
440.08	7410.14
440.26	7438.22
440.45	7258.00
440.63	7311.83
440.82	7761.22
441.01	7522.48
441.19	7510.78
441.38	7716.75
441.57	7819.73
441.75	7822.07
441.94	8037.40
442.12	7990.59
442.31	7950.80
442.50	7974.21
442.68	8173.15
442.87	7997.61
443.05	8159.11
443.24	8241.03
443.43	8098.25
443.61	8100.59
443.80	8334.65
443.98	7990.59
444.17	7962.50
444.35	8102.93
444.54	8372.10
444.73	8203.58
444.91	8442.31
445.10	8332.31
445.28	8257.41
445.47	8231.66
445.65	8219.96
445.84	8599.13
446.02	8521.89
446.21	8608.49
446.39	8339.33
446.58	8753.60
446.77	8606.15
446.95	8259.75
447.14	8264.43
447.32	8669.34
447.51	8552.32
447.69	8547.64
447.88	8580.40
448.06	8472.74
448.25	8566.36
448.43	8418.91
448.62	8449.33
448.80	8456.36
448.99	8730.20
449.17	8739.56
449.36	8650.62
449.54	8936.17
449.73	9102.34
449.91	9043.83
450.10	8924.46
450.28	9179.58
450.46	9034.47
450.65	9163.20
450.83	9139.79
451.02	9053.19
451.20	9256.82
451.39	9263.84
451.57	9308.31
451.76	8992.34
451.94	9289.59
452.13	9341.08
452.31	9334.06
452.49	9128.09
452.68	9224.05
452.86	9362.14
453.05	9320.01
453.23	9654.71
453.42	9341.08
453.60	9322.35
453.78	9617.26
453.97	9589.17
454.15	9474.49
454.34	9455.76
454.52	9696.84
454.70	9675.77
454.89	9783.44
455.07	9778.76
455.26	9619.60
455.44	10193.03
455.62	9769.40
455.81	9888.76
455.99	9963.66
456.17	10235.16
456.36	10186.01
456.54	10300.70
456.73	10211.76
456.91	10661.14
457.09	10541.77
457.28	10712.63
457.46	10307.72
457.64	10457.51
457.83	10480.92
458.01	10476.24
458.19	10745.40
458.38	10406.02
458.56	10848.38
458.74	10670.50
458.93	10619.01
459.11	10752.42
459.29	10857.75
459.48	10647.10
459.66	10984.13
459.84	10902.22
460.03	11005.20
460.21	11044.99
460.39	10934.98
460.57	11122.23
460.76	11042.65
460.94	11190.10
461.12	11447.56
461.31	11262.66
461.49	11309.47
461.67	11337.56
461.85	11522.46
462.04	11391.39
462.22	11555.22
462.40	11784.60
462.59	11637.14
462.77	11721.40
462.95	11892.26
463.13	11433.52
463.32	11679.27
463.50	11824.39
463.68	11871.20
463.86	11850.13
464.05	11831.41
464.23	11822.05
464.41	12016.31
464.59	11932.05
464.78	12379.09
464.96	12070.14
465.14	12067.80
465.32	12081.85
465.50	12229.30
465.69	12175.47
465.87	12184.83
466.05	12105.25
466.23	12002.27
466.41	12201.21
466.60	12514.84
466.78	12358.03
466.96	12341.64
467.14	12561.66
467.32	12376.75
467.51	12521.87
467.69	12210.57
467.87	12566.34
468.05	12716.13
468.23	12716.13
468.41	12526.55
468.60	12692.73
468.78	13036.78
468.96	12552.29
469.14	12957.21
469.32	13114.02
469.50	12751.24
469.69	13055.51
469.87	13186.58
470.05	13165.51
470.23	13324.67
470.41	13013.38
470.59	13406.59
470.77	13247.43
470.95	13455.74
471.14	13558.72
471.32	13149.13
471.50	13729.58
471.68	13404.25
471.86	13767.03
472.04	13682.77
472.22	13900.44
472.40	13577.45
472.58	13820.86
472.77	13958.96
472.95	14195.35
473.13	14857.72
473.31	14153.22
473.49	14157.90
473.67	14106.41
473.85	14305.35
474.03	14712.61
474.21	14551.11
474.39	15035.60
474.57	14813.25
474.75	14927.94
474.93	15166.67
475.12	14890.49
475.30	15220.50
475.48	14991.13
475.66	15248.59
475.84	15316.47
476.02	15494.35
476.20	15459.24
476.38	15688.61
476.56	16135.65
476.74	16093.52
476.92	15878.19
477.10	15744.78
477.28	16313.53
477.46	16308.85
477.64	16189.49
477.82	16727.81
478.00	17015.69
478.18	16751.21
478.36	17151.45
478.54	17263.79
478.72	17247.41
478.90	17357.41
479.08	17820.84
479.26	17575.08
479.44	17397.20
479.62	17675.73
479.80	17933.18
479.98	18235.11
480.16	18806.20
480.34	18785.14
480.52	18588.53
480.70	18668.11
480.88	18644.71
481.06	18881.10
481.24	19180.69
481.41	19520.07
481.59	19484.96
481.77	19585.60
481.95	19506.02
482.13	19772.85
482.31	19800.93
482.49	20353.30
482.67	20273.72
482.85	20503.09
483.03	20676.29
483.21	20950.14
483.39	20947.79
483.57	20713.74
483.74	21493.14
483.92	21696.77
484.10	21465.05
484.28	21949.54
484.46	22246.79
484.64	22497.23
484.82	21799.75
485.00	22300.62
485.18	22918.53
485.35	23040.23
485.53	23026.19
485.71	23037.89
485.89	23711.97
486.07	23403.02
486.25	23662.82
486.43	23700.26
486.61	24030.28
486.78	24154.33
486.96	24299.44
487.14	24439.87
487.32	24505.41
487.50	24915.00
487.68	24882.24
487.85	25280.13
488.03	25483.75
488.21	26443.37
488.39	25895.69
488.57	26441.03
488.75	26560.40
488.92	26192.94
489.10	26529.97
489.28	27353.84
489.46	27372.57
489.64	27068.30
489.81	27887.48
489.99	27981.10
490.17	27960.04
490.35	28203.46
490.53	28723.05
490.70	28973.49
490.88	28264.31
491.06	28816.68
491.24	29188.82
491.41	29294.14
491.59	29666.29
491.77	29057.75
491.95	29876.94
492.13	29996.31
492.30	30155.46
492.48	30050.14
492.66	30628.25
492.84	30396.54
493.01	31136.15
493.19	30775.70
493.37	31091.68
493.54	31199.34
493.72	32088.74
493.90	31501.27
494.08	32027.89
494.25	31819.58
494.43	31971.72
494.61	32039.59
494.79	32561.53
494.96	32666.86
495.14	33067.09
495.32	32950.06
495.49	33120.92
495.67	33551.58
495.85	34015.01
496.02	34204.59
496.20	33886.28
496.38	34679.72
496.55	34349.70
496.73	34864.62
496.91	34614.18
497.09	34426.94
497.26	35154.85
497.44	35108.04
497.62	35386.56
497.79	36074.68
497.97	35770.41
498.14	36147.23
498.32	36730.03
498.50	36493.63
498.67	36811.95
498.85	36584.91
499.03	36877.48
499.20	36905.57
499.38	37057.70
499.56	37057.70
499.73	36943.02
499.91	37656.88
500.08	37830.08
500.26	37567.94
500.44	37909.66
500.61	38225.63
500.79	38391.81
500.97	38293.50
501.14	38623.52
501.32	38740.55
501.49	38649.27
501.67	39093.97
501.84	39339.72
502.02	39009.71
502.20	38785.02
502.37	39325.68
502.55	39754.00
502.72	39489.52
502.90	39786.77
503.07	39459.09
503.25	40114.44
503.43	40023.16
503.60	40313.39
503.78	40758.09
503.95	40568.51
504.13	40634.04
504.30	40732.34
504.48	40725.32
504.65	41193.43
504.83	41368.97
505.01	41680.26
505.18	41263.64
505.36	41706.01
505.53	41914.31
505.71	41888.57
505.88	41977.51
506.06	41703.67
506.23	42096.88
506.41	41801.97
506.58	42216.24
506.76	42663.28
506.93	42763.93
507.11	42674.99
507.28	42506.47
507.46	42923.08
507.63	43632.27
507.81	43917.81
507.98	42848.19
508.16	42990.96
508.33	43842.92
508.50	43700.14
508.68	44109.74
508.85	44376.56
509.03	44055.90
509.20	44278.25
509.38	44414.01
509.55	44704.23
509.73	44357.83
509.90	44769.77
510.08	45270.64
510.25	44729.98
510.42	44605.93
510.60	45125.53
510.77	45401.71
510.95	45488.31
511.12	45041.27
511.30	45642.79
511.47	45600.66
511.64	45741.09
511.82	46092.17
511.99	45813.65
512.17	45563.21
512.34	46141.32
512.51	46850.50
512.69	46817.74
512.86	46169.41
513.04	47058.81
513.21	47143.07
513.38	47257.76
513.56	47185.20
513.73	46962.85
513.90	47400.53
514.08	46974.55
514.25	47592.45
514.43	47835.87
514.60	47662.67
514.77	47620.54
514.95	47758.63
515.12	47791.40
515.29	48135.46
515.47	47976.30
515.64	48191.63
515.81	48392.92
515.99	48509.94
516.16	48701.87
516.33	48343.77
516.51	49287.00
516.68	48666.76
516.85	48945.28
517.03	49184.02
517.20	48959.33
517.37	48839.96
517.54	49050.61
517.72	49177.00
517.89	49261.26
518.06	49488.29
518.24	49703.62
518.41	49270.62
518.58	49425.09
518.75	49443.82
518.93	49979.80
519.10	49532.76
519.27	49958.73
519.45	50071.08
519.62	49900.22
519.79	50012.57
519.96	50272.37
520.14	50361.31
520.31	50312.16
520.48	50354.29
520.65	50546.21
520.83	50798.99
521.00	51000.27
521.17	50714.73
521.34	51175.81
521.52	50831.75
521.69	51042.40
521.86	51192.20
522.03	51030.70
522.20	51892.02
522.38	51814.78
522.55	51587.75
522.72	51608.81
522.89	51697.75
523.07	51608.81
523.24	51650.94
523.41	51798.40
523.58	51800.74
523.75	52196.29
523.92	52200.97
524.10	52439.70
524.27	52420.98
524.44	52032.45
524.61	52266.50
524.78	52016.07
524.96	52437.36
525.13	52523.96
525.30	52683.12
525.47	52718.23
525.64	52491.19
525.81	52877.38
525.98	52790.78
526.16	52926.53
526.33	52853.98
526.50	53277.61
526.67	52917.17
526.84	53083.35
527.01	52966.32
527.18	53001.43
527.36	52994.41
527.53	53588.91
527.70	53560.82
527.87	53710.61
528.04	53352.51
528.21	53609.97
528.38	53764.45
528.55	53841.68
528.72	53808.92
528.89	53635.72
529.07	53710.61
529.24	53233.14
529.41	53935.30
529.58	53874.45
529.75	53616.99
529.92	53979.78
530.09	54075.74
530.26	53942.33
530.43	54012.54
530.60	54110.85
530.77	54255.96
530.94	54464.27
531.11	53972.75
531.28	54197.44
531.46	54284.04
531.63	54225.53
531.80	54365.96
531.97	54630.44
532.14	54581.29
532.31	54525.12
532.48	55033.02
532.65	54660.87
532.82	54644.49
532.99	54855.14
533.16	54656.19
533.33	54700.66
533.50	55016.63
533.67	54859.82
533.84	55126.64
534.01	55157.06
534.18	55091.53
534.35	55463.67
534.52	55278.77
534.69	55047.06
534.86	55386.44
535.03	55278.77
535.20	55070.46
535.37	55536.23
535.54	55323.24
535.71	55194.51
535.88	55248.35
536.05	55330.26
536.22	55636.87
536.38	55618.15
536.55	55896.67
536.72	55679.00
536.89	55615.81
537.06	55538.57
537.23	55746.88
537.40	55683.69
537.57	55707.09
537.74	55952.85
537.91	56032.42
538.08	55945.83
538.25	55697.73
538.42	55992.64
538.59	56278.18
538.75	56278.18
538.92	56317.97
539.09	56296.91
539.26	56214.99
539.43	56161.15
539.60	56516.92
539.77	56317.97
539.94	56535.64
540.11	56685.43
540.28	56769.69
540.44	56680.75
540.61	56811.82
540.78	56554.36
540.95	56467.76
541.12	56587.13
541.29	56624.58
541.46	56690.12
541.62	56779.06
541.79	56790.76
541.96	56612.88
542.13	56736.93
542.30	56889.06
542.47	56849.27
542.63	56987.36
542.80	57027.15
542.97	56966.30
543.14	57406.32
543.31	57560.79
543.48	57099.71
543.64	57570.16
543.81	57373.55
543.98	57378.23
544.15	57415.68
544.32	57528.03
544.48	57733.99
544.65	57506.96
544.82	57649.74
544.99	57361.85
545.16	57677.82
545.32	57516.32
545.49	57921.24
545.66	57593.56
545.83	57818.25
546.00	58014.86
546.16	57773.78
546.33	57682.50
546.50	57719.95
546.67	57963.37
546.83	57638.03
547.00	57918.90
547.17	57872.09
547.34	57968.05
547.50	58202.10
547.67	58333.17
547.84	58089.76
548.00	58361.26
548.17	58244.23
548.34	58239.55
548.51	58445.52
548.67	58049.97
548.84	58361.26
549.01	58277.00
549.18	58389.34
549.34	58227.85
549.51	58478.28
549.68	58473.60
549.84	58487.65
550.01	58480.63
550.18	58323.81
550.34	58506.37
550.51	58658.51
550.68	58410.41
550.84	58225.51
551.01	58738.08
551.18	58581.27
551.34	58527.44
551.51	58677.23
551.68	58763.83
551.84	58597.65
552.01	58866.81
552.18	58782.55
552.34	58557.86
552.51	58768.51
552.68	58691.27
552.84	58915.96
553.01	59121.93
553.18	58937.03
553.34	58995.54
553.51	58810.64
553.67	58834.05
553.84	59128.95
554.01	59063.42
554.17	59023.63
554.34	59091.51
554.51	58983.84
554.67	59203.85
554.84	59117.25
555.00	59168.74
555.17	58986.18
555.33	59025.97
555.50	59042.35
555.67	59103.21
555.83	59168.74
556.00	59302.15
556.16	59498.76
556.33	59442.59
556.50	59402.80
556.66	59489.40
556.83	59040.01
556.99	59622.81
557.16	59625.15
557.32	59686.00
557.49	59655.57
557.65	59487.06
557.82	59494.08
557.98	59550.25
558.15	59547.91
558.32	59650.89
558.48	59751.54
558.65	59615.79
558.81	59465.99
558.98	59552.59
559.14	59742.17
559.31	59653.23
559.47	59711.75
559.64	59938.78
559.80	59629.83
559.97	59859.20
560.13	59730.47
560.30	59739.83
560.46	59833.46
560.63	59821.75
560.79	59870.90
560.96	60149.43
561.12	59805.37
561.29	60184.54
561.45	59959.84
561.61	60058.15
561.78	60088.57
561.94	59861.54
562.11	59999.63
562.27	59969.21
562.44	60252.41
562.60	60182.19
562.77	60119.00
562.93	60088.57
563.10	60444.33
563.26	60140.07
563.42	60308.58
563.59	60203.26
563.75	60128.36
563.92	60186.88
564.08	60097.94
564.24	60296.88
564.41	60378.80
564.57	60299.22
564.74	60198.58
564.90	60165.81
565.07	60324.97
565.23	60420.93
565.39	60292.20
565.56	60601.15
565.72	60477.10
565.88	60458.38
566.05	60266.45
566.21	60313.26
566.38	60257.09
566.54	60257.09
566.70	60619.88
566.87	60587.11
567.03	60554.34
567.19	60559.02
567.36	60327.31
567.52	60484.12
567.68	60610.51
567.85	60526.25
568.01	60697.11
568.17	60542.64
568.34	60381.14
568.50	60589.45
568.66	60542.64
568.83	60554.34
568.99	60271.14
569.15	60392.84
569.32	60451.36
569.48	60594.13
569.64	60547.32
569.81	60409.23
569.97	60498.17
570.13	60626.90
570.30	60566.04
570.46	60519.23
570.62	60659.66
570.78	60657.32
570.95	60629.24
571.11	60746.26
571.27	60741.58
571.43	60692.43
571.60	60764.99
571.76	60608.17
571.92	60633.92
572.09	60561.36
572.25	60837.54
572.41	60718.18
572.57	60704.13
572.74	60996.70
572.90	60650.30
573.06	60662.00
573.22	60612.85
573.38	60603.49
573.55	60736.90
573.71	61043.51
573.87	60912.44
574.03	60725.20
574.20	60807.12
574.36	60685.41
574.52	60994.36
574.68	60790.73
574.84	60732.22
575.01	61050.53
575.17	60823.50
575.33	60879.67
575.49	60800.10
575.65	60889.04
575.82	60949.89
575.98	60797.76
576.14	61223.73
576.30	60900.74
576.46	61003.72
576.62	60989.68
576.79	61050.53
576.95	60760.31
577.11	61008.40
577.27	60846.91
577.43	60992.02
577.59	60722.86
577.75	60715.84
577.92	60774.35
578.08	60966.27
578.24	61020.11
578.40	61045.85
578.56	61188.63
578.72	61083.30
578.88	61097.34
579.04	61036.49
579.21	60828.18
579.37	61188.63
579.53	61048.19
579.69	60591.79
579.85	61059.90
580.01	61015.43
580.17	60842.23
580.33	61036.49
580.49	60996.70
580.65	61162.88
580.82	60940.53
580.98	61043.51
581.14	60793.07
581.30	61134.79
581.46	61050.53
581.62	60935.85
581.78	60874.99
581.94	61029.47
582.10	61127.77
582.26	61095.00
582.42	61097.34
582.58	60891.38
582.74	60879.67
582.90	61059.90
583.06	61181.60
583.22	60898.40
583.38	61076.28
583.54	60973.30
583.70	61146.50
583.86	61235.44
584.02	60818.82
584.18	61064.58
584.34	61326.72
584.50	61148.84
584.66	60910.10
584.82	60891.38
584.98	61352.46
585.14	61085.64
585.30	61024.79
585.46	61090.32
585.62	61022.45
585.78	61183.94
585.94	61024.79
586.10	61179.26
586.26	61113.73
586.42	61214.37
586.58	61439.06
586.74	61228.41
586.90	61172.24
587.06	61125.43
587.22	61240.12
587.38	61221.39
587.54	61319.70
587.70	61469.49
587.86	61085.64
588.02	61038.83
588.18	61277.57
588.34	61190.97
588.49	61013.08
