SpectraSuite Data File
++++++++++++++++++++++++++++++++++++
Date: Fri Oct 25 11:22:49 EDT 2013
User: price-jones
Dark Spectrum Present: No
Reference Spectrum Present: No
Number of Sampled Component Spectra: 1
Spectrometers: USB2+H05261
Integration Time (usec): 100000 (USB2+H05261)
Spectra Averaged: 1 (USB2+H05261)
Boxcar Smoothing: 0 (USB2+H05261)
Correct for Electrical Dark: No (USB2+H05261)
Strobe/Lamp Enabled: No (USB2+H05261)
Correct for Detector Non-linearity: No (USB2+H05261)
Correct for Stray Light: No (USB2+H05261)
Number of Pixels in Processed Spectrum: 2048
>>>>>Begin Processed Spectral Data<<<<<
365.73	189.58
365.92	189.58
366.12	189.58
366.32	166.18
366.52	168.52
366.72	212.99
366.91	163.84
367.11	166.18
367.31	84.26
367.51	126.39
367.70	135.75
367.90	72.56
368.10	100.64
368.30	121.71
368.49	161.50
368.69	159.16
368.89	86.60
369.09	117.03
369.28	161.50
369.48	166.18
369.68	138.09
369.87	196.60
370.07	231.71
370.27	264.48
370.47	330.02
370.66	610.88
370.86	561.73
371.06	681.10
371.25	723.23
371.45	638.97
371.65	727.91
371.84	580.45
372.04	678.76
372.24	655.35
372.44	706.84
372.63	767.70
372.83	795.78
373.03	772.38
373.22	753.65
373.42	695.14
373.62	744.29
373.81	770.04
374.01	772.38
374.21	856.64
374.40	774.72
374.60	800.46
374.79	763.01
374.99	779.40
375.19	760.67
375.38	779.40
375.58	866.00
375.78	854.30
375.97	866.00
376.17	971.32
376.37	898.77
376.56	882.38
376.76	840.25
376.95	840.25
377.15	931.53
377.35	856.64
377.54	947.92
377.74	877.70
377.93	854.30
378.13	1008.77
378.33	943.24
378.52	826.21
378.72	863.66
378.91	952.60
379.11	947.92
379.31	889.40
379.50	905.79
379.70	1078.99
379.89	940.90
380.09	1057.92
380.28	947.92
380.48	966.64
380.68	940.90
380.87	861.32
381.07	933.87
381.26	997.07
381.46	1090.69
381.65	990.05
381.85	997.07
382.04	1118.78
382.24	1102.39
382.43	968.98
382.63	1018.13
382.83	1057.92
383.02	1097.71
383.22	1093.03
383.41	1146.86
383.61	1055.58
383.80	1088.35
384.00	1116.44
384.19	1135.16
384.39	1153.88
384.58	1076.65
384.78	1240.48
384.97	1144.52
385.17	1193.67
385.36	1172.61
385.56	1144.52
385.75	1146.86
385.95	1203.04
386.14	1242.82
386.34	1146.86
386.53	1238.14
386.72	1203.04
386.92	1193.67
387.11	1275.59
387.31	1268.57
387.50	1226.44
387.70	1303.68
387.89	1263.89
388.09	1240.48
388.28	1235.80
388.48	1165.59
388.67	1263.89
388.86	1296.66
389.06	1275.59
389.25	1411.34
389.45	1320.06
389.64	1289.64
389.84	1385.60
390.03	1472.20
390.22	1409.00
390.42	1315.38
390.61	1444.11
390.81	1355.17
391.00	1301.34
391.19	1416.02
391.39	1427.73
391.58	1362.19
391.78	1511.99
391.97	1521.35
392.16	1434.75
392.36	1446.45
392.55	1469.86
392.75	1514.33
392.94	1537.73
393.13	1547.09
393.33	1460.49
393.52	1603.27
393.71	1607.95
393.91	1535.39
394.10	1631.35
394.29	1640.72
394.49	1483.90
394.68	1619.65
394.88	1685.19
395.07	1659.44
395.26	1654.76
395.46	1605.61
395.65	1699.23
395.84	1675.82
396.04	1767.10
396.23	1802.21
396.42	1806.89
396.62	1767.10
396.81	1746.04
397.00	1776.47
397.19	1795.19
397.39	1799.87
397.58	1837.32
397.77	1827.96
397.97	1774.13
398.16	1849.02
398.35	1926.26
398.55	1832.64
398.74	1907.54
398.93	1961.37
399.12	1989.46
399.32	1912.22
399.51	2024.56
399.70	2029.24
399.90	2071.37
400.09	1975.41
400.28	2033.93
400.47	1935.62
400.67	1970.73
400.86	2179.04
401.05	2108.82
401.24	2012.86
401.44	2139.25
401.63	2230.53
401.82	2207.13
402.01	2125.21
402.21	2115.84
402.40	2186.06
402.59	2062.01
402.78	2385.01
402.97	2239.89
403.17	2136.91
403.36	2275.00
403.55	2284.36
403.74	2328.83
403.93	2504.37
404.13	2373.30
404.32	2406.07
404.51	2340.54
404.70	2406.07
404.89	2352.24
405.09	2466.92
405.28	2525.44
405.47	2499.69
405.66	2586.29
405.85	2619.06
406.05	2523.10
406.24	2558.21
406.43	2588.63
406.62	2628.42
406.81	2614.38
407.00	2630.76
407.20	2602.68
407.39	2626.08
407.58	2722.04
407.77	2764.17
407.96	2743.11
408.15	2729.06
408.34	2693.96
408.54	2988.86
408.73	2965.46
408.92	2731.41
409.11	2970.14
409.30	2827.37
409.49	2956.10
409.68	2846.09
409.87	2904.60
410.07	3021.63
410.26	3103.55
410.45	2986.52
410.64	2946.73
410.83	3199.51
411.02	3026.31
411.21	3133.98
411.40	3141.00
411.59	3260.37
411.78	3239.30
411.98	3183.13
412.17	3227.60
412.36	3239.30
412.55	3421.86
412.74	3473.36
412.93	3419.52
413.12	3480.38
413.31	3583.36
413.50	3609.11
413.69	3463.99
413.88	3501.44
414.07	3655.92
414.26	3630.17
414.45	3686.34
414.64	3709.75
414.83	3735.50
415.02	3768.26
415.22	3812.73
415.41	3999.98
415.60	3896.99
415.79	3871.25
415.98	3925.08
416.17	3992.95
416.36	4011.68
416.55	3964.87
416.74	4117.00
416.93	4084.23
417.12	4070.19
417.31	4219.99
417.50	4222.33
417.69	4351.06
417.88	4269.14
418.07	4318.29
418.26	4320.63
418.45	4329.99
418.64	4507.87
418.83	4477.44
419.02	4325.31
419.21	4510.21
419.39	4507.87
419.58	4383.82
419.77	4437.66
419.96	4521.92
420.15	4622.56
420.34	4592.13
420.53	4585.11
420.72	4592.13
420.91	4718.52
421.10	4774.69
421.29	4802.78
421.48	4894.06
421.67	4933.85
421.86	4901.08
422.05	4765.33
422.24	4910.44
422.43	4929.17
422.61	5001.72
422.80	4940.87
422.99	4844.91
423.18	4936.19
423.37	4997.04
423.56	4975.98
423.75	4863.63
423.94	4777.03
424.13	4657.67
424.32	4823.84
424.50	5025.13
424.69	5043.85
424.88	5149.18
425.07	5018.11
425.26	5069.60
425.45	4868.31
425.64	4877.68
425.83	4975.98
426.01	4971.30
426.20	5071.94
426.39	5027.47
426.58	5013.43
426.77	5018.11
426.96	5107.05
427.15	4971.30
427.33	5343.44
427.52	5249.82
427.71	5284.93
427.90	5135.14
428.09	5383.23
428.28	5451.11
428.46	5516.64
428.65	5392.59
428.84	5509.62
429.03	5469.83
429.22	5334.08
429.40	5458.13
429.59	5537.71
429.78	5378.55
429.97	5289.61
430.16	5598.56
430.34	5584.52
430.53	5575.16
430.72	5668.78
430.91	5619.63
431.10	5586.86
431.28	5699.20
431.47	5795.17
431.66	5968.37
431.85	5776.44
432.03	6038.58
432.22	5944.96
432.41	5968.37
432.60	5834.96
432.79	6012.84
432.97	5930.92
433.16	6040.92
433.35	6064.33
433.54	6141.57
433.72	6160.29
433.91	6225.82
434.10	6300.72
434.28	6064.33
434.47	6200.08
434.66	6389.66
434.85	6377.96
435.03	6499.67
435.22	6413.07
435.41	6574.56
435.59	6326.47
435.78	6513.71
435.97	6340.51
436.16	6485.62
436.34	6445.84
436.53	6310.08
436.72	6729.04
436.90	6574.56
437.09	6731.38
437.28	6438.81
437.46	6525.41
437.65	6576.91
437.84	6717.34
438.02	6691.59
438.21	6871.81
438.40	6712.66
438.58	7098.84
438.77	6862.45
438.96	6956.07
439.14	7110.55
439.33	7295.45
439.52	7136.29
439.70	7152.68
439.89	7543.55
440.08	7473.33
440.26	7396.09
440.45	7337.58
440.63	7658.23
440.82	7548.23
441.01	7672.28
441.19	7538.87
441.38	7737.81
441.57	7749.51
441.75	7971.86
441.94	7775.26
442.12	8016.33
442.31	8170.81
442.50	8170.81
442.68	7995.27
442.87	8301.88
443.05	7922.71
443.24	8407.20
443.43	8245.71
443.61	8252.73
443.80	8542.96
443.98	8243.37
444.17	7981.23
444.35	8257.41
444.54	8404.86
444.73	8428.27
444.91	8098.25
445.10	8297.20
445.28	8320.60
445.47	8461.04
445.65	8451.67
445.84	8402.52
446.02	8468.06
446.21	8283.16
446.39	8461.04
446.58	8545.30
446.77	8578.06
446.95	8444.65
447.14	8446.99
447.32	8608.49
447.51	8545.30
447.69	8617.85
447.88	8617.85
448.06	8503.17
448.25	8449.33
448.43	8425.93
448.62	8898.72
448.80	8737.22
448.99	8821.48
449.17	8870.63
449.36	8505.51
449.54	8802.75
449.73	8917.44
449.91	9146.81
450.10	8889.35
450.28	9226.39
450.46	9062.55
450.65	9062.55
450.83	8854.25
451.02	9069.58
451.20	9153.84
451.39	9259.16
451.57	9111.71
451.76	9142.13
451.94	8999.36
452.13	9275.54
452.31	9376.19
452.49	9135.11
452.68	9317.67
452.86	9277.88
453.05	9502.58
453.23	9469.81
453.42	9467.47
453.60	9226.39
453.78	9680.46
453.97	9376.19
454.15	9736.63
454.34	9558.75
454.52	9582.15
454.70	9659.39
454.89	9731.95
455.07	9788.12
455.26	9708.54
455.44	10111.11
455.62	9844.29
455.81	10178.99
455.99	10068.98
456.17	10359.21
456.36	10178.99
456.54	10108.77
456.73	10197.71
456.91	10572.20
457.09	10377.94
457.28	10401.34
457.46	10483.26
457.64	10375.59
457.83	10434.11
458.01	10490.28
458.19	10691.57
458.38	10509.01
458.56	10829.66
458.74	10869.45
458.93	10747.74
459.11	10876.47
459.29	10705.61
459.48	10981.79
459.66	10796.89
459.84	11080.10
460.03	11103.50
460.21	11232.23
460.39	11023.92
460.57	11014.56
460.76	11272.02
460.94	11208.83
461.12	11349.26
461.31	10946.69
461.49	11192.44
461.67	11262.66
461.85	11293.08
462.04	11377.34
462.22	11854.81
462.40	11482.67
462.59	11541.18
462.77	11517.78
462.95	11754.17
463.13	11566.93
463.32	11571.61
463.50	11836.09
463.68	11922.69
463.86	12042.06
464.05	11815.02
464.23	11772.89
464.41	12105.25
464.59	11793.96
464.78	12210.57
464.96	12196.53
465.14	11999.93
465.32	12018.65
465.50	12339.30
465.69	12226.96
465.87	12138.02
466.05	12135.68
466.23	12341.64
466.41	12149.72
466.60	12606.13
466.78	12582.72
466.96	12374.41
467.14	12514.84
467.32	12114.61
467.51	12793.37
467.69	12325.26
467.87	12608.47
468.05	12751.24
468.23	12278.45
468.41	12784.01
468.60	12666.98
468.78	12894.01
468.96	12683.36
469.14	12788.69
469.32	12891.67
469.50	12819.11
469.69	13130.41
469.87	13273.18
470.05	13195.94
470.23	13486.17
470.41	13195.94
470.59	13429.99
470.77	13146.79
470.95	13366.80
471.14	13558.72
471.32	13186.58
471.50	13631.28
471.68	13816.18
471.86	13657.03
472.04	13778.73
472.22	14242.16
472.40	13715.54
472.58	14153.22
472.77	13961.30
472.95	14354.51
473.13	14429.40
473.31	14143.86
473.49	14291.31
473.67	14008.11
473.85	14288.97
474.03	14782.82
474.21	14520.68
474.39	14867.08
474.57	14700.90
474.75	14874.10
474.93	15112.84
475.12	14951.34
475.30	15358.60
475.48	14754.74
475.66	15522.43
475.84	15232.21
476.02	15620.74
476.20	15229.87
476.38	15875.85
476.56	16056.08
476.74	15854.79
476.92	15822.02
477.10	16133.31
477.28	16332.26
477.46	16170.76
477.64	16561.63
477.82	16570.99
478.00	16844.84
478.18	16783.98
478.36	17238.05
478.54	17329.33
478.72	17207.62
478.90	17561.04
479.08	17661.68
479.26	18141.49
479.44	17708.49
479.62	18333.42
479.80	18106.38
479.98	18162.56
480.16	18738.33
480.34	18338.10
480.52	18452.78
480.70	19129.20
480.88	18899.83
481.06	18766.42
481.24	18934.93
481.41	19454.53
481.59	19332.82
481.77	19653.48
481.95	19826.68
482.13	19613.69
482.31	19803.27
482.49	20465.64
482.67	20023.28
482.85	20545.22
483.03	20423.51
483.21	20706.72
483.39	21172.49
483.57	20961.84
483.74	21102.27
483.92	21345.69
484.10	21319.94
484.28	21656.98
484.46	21975.29
484.64	22485.53
484.82	22174.24
485.00	22539.36
485.18	22860.01
485.35	23049.60
485.53	23087.04
485.71	23271.95
485.89	23571.54
486.07	23140.88
486.25	23974.11
486.43	23555.15
486.61	24067.73
486.78	24177.73
486.96	24339.23
487.14	24500.73
487.32	24821.38
487.50	24779.25
487.68	25432.26
487.85	25479.07
488.03	25607.80
488.21	25809.09
488.39	26258.47
488.57	26309.96
488.75	26597.85
488.92	26792.11
489.10	26986.38
489.28	26707.85
489.46	27550.45
489.64	27311.71
489.81	27754.07
489.99	27843.01
490.17	28060.68
490.35	28437.51
490.53	28322.82
490.70	28673.90
490.88	28437.51
491.06	28868.17
491.24	28922.00
491.41	29013.28
491.59	29041.37
491.77	29731.83
491.95	29696.72
492.13	30050.14
492.30	30459.73
492.48	30092.27
492.66	30253.76
492.84	30572.08
493.01	30829.54
493.19	30827.20
493.37	31365.52
493.54	31494.25
493.72	31580.85
493.90	31538.72
494.08	31974.06
494.25	32224.50
494.43	32163.64
494.61	32645.79
494.79	32385.99
494.96	32517.06
495.14	32980.49
495.32	33371.36
495.49	33256.67
495.67	33495.41
495.85	33692.01
496.02	33977.56
496.20	34110.97
496.38	34110.97
496.55	34506.52
496.73	35049.52
496.91	34810.79
497.09	35388.90
497.26	35028.46
497.44	34785.04
497.62	35419.33
497.79	36079.36
497.97	35625.29
498.14	36217.45
498.32	36306.39
498.50	36512.36
498.67	36809.61
498.85	36744.07
499.03	37163.03
499.20	37240.26
499.38	36786.20
499.56	37441.55
499.73	37207.50
499.91	37687.31
500.08	38026.68
500.26	37542.19
500.44	38082.86
500.61	38286.48
500.79	38216.27
500.97	38562.67
501.14	38770.97
501.32	39016.73
501.49	38705.44
501.67	38642.24
501.84	38801.40
502.02	38976.94
502.20	39505.90
502.37	39398.24
502.55	39335.04
502.72	39468.45
502.90	40264.24
503.07	39908.47
503.25	40102.74
503.43	39945.92
503.60	40020.82
503.78	40685.53
503.95	40364.88
504.13	40374.24
504.30	40807.24
504.48	40917.25
504.65	41385.35
504.83	41060.02
505.01	41455.57
505.18	41397.06
505.36	41895.59
505.53	41553.87
505.71	41668.56
505.88	42005.59
506.06	41766.86
506.23	42106.24
506.41	41993.89
506.58	42359.02
506.76	42450.30
506.93	43089.26
507.11	42473.70
507.28	42813.08
507.46	43061.18
507.63	43295.23
507.81	43522.26
507.98	42754.57
508.16	43351.40
508.33	43400.55
508.50	43585.46
508.68	44114.42
508.85	43950.58
509.03	44044.20
509.20	44165.91
509.38	44519.33
509.55	44547.42
509.73	44484.22
509.90	44767.43
510.08	44821.26
510.25	44744.02
510.42	45289.37
510.60	45219.15
510.77	45013.18
510.95	45631.08
511.12	45427.46
511.30	45319.79
511.47	45563.21
511.64	45635.77
511.82	46227.92
511.99	45675.55
512.17	46513.47
512.34	45902.59
512.51	46703.05
512.69	46387.08
512.86	46361.33
513.04	47026.04
513.21	47084.56
513.38	47023.70
513.56	46972.21
513.73	46848.16
513.90	47227.33
514.08	46909.02
514.25	47313.93
514.43	47765.65
514.60	47840.55
514.77	47363.08
514.95	47681.39
515.12	47744.59
515.29	47704.80
515.47	48114.39
515.64	48474.84
515.81	48027.79
515.99	48339.08
516.16	48652.72
516.33	48542.71
516.51	48542.71
516.68	48673.78
516.85	48905.49
517.03	49242.53
517.20	48992.09
517.37	48942.94
517.54	49088.06
517.72	49745.75
517.89	49193.38
518.06	49614.68
518.24	49577.23
518.41	49521.05
518.58	49595.95
518.75	49502.33
518.93	49918.95
519.10	49663.83
519.27	49869.79
519.45	49977.46
519.62	49998.52
519.79	50092.15
519.96	50138.96
520.14	50293.43
520.31	50525.14
520.48	50878.57
520.65	50490.04
520.83	51150.07
521.00	51016.66
521.17	50880.91
521.34	51196.88
521.52	51002.61
521.69	50878.57
521.86	51227.31
522.03	51227.31
522.20	51728.18
522.38	51393.48
522.55	51674.35
522.72	51341.99
522.89	51529.23
523.07	51725.84
523.24	51641.58
523.41	52046.49
523.58	51576.04
523.75	52140.11
523.92	51765.63
524.10	52034.79
524.27	52512.26
524.44	52376.51
524.61	52416.30
524.78	52437.36
524.96	52474.81
525.13	52495.88
525.30	52800.15
525.47	52582.48
525.64	52903.13
525.81	52713.55
525.98	53130.16
526.16	52760.36
526.33	52804.83
526.50	53492.94
526.67	53013.13
526.84	53024.84
527.01	53043.56
527.18	53015.47
527.36	53244.85
527.53	52959.30
527.70	53822.96
527.87	53478.90
528.04	53137.18
528.21	53415.71
528.38	53450.81
528.55	53411.02
528.72	53560.82
528.89	53490.60
529.07	53825.30
529.24	53560.82
529.41	53712.95
529.58	53607.63
529.75	53759.76
529.92	53743.38
530.09	54326.17
530.26	54038.29
530.43	54295.75
530.60	54010.20
530.77	54293.41
530.94	54279.36
531.11	54251.28
531.28	54597.68
531.46	54351.92
531.63	54351.92
531.80	54419.80
531.97	54635.13
532.14	54761.51
532.31	54443.20
532.48	54876.20
532.65	54834.07
532.82	54688.96
532.99	54979.18
533.16	54901.95
533.33	55136.00
533.50	55274.09
533.67	54890.24
533.84	54637.47
534.01	55056.42
534.18	55236.64
534.35	55316.22
534.52	55257.71
534.69	55456.65
534.86	55400.48
535.03	55395.80
535.20	55297.50
535.37	55573.68
535.54	55400.48
535.71	55320.90
535.88	55798.37
536.05	55646.24
536.22	55812.41
536.38	55894.33
536.55	55863.91
536.72	55735.18
536.89	55564.32
537.06	55730.50
537.23	55884.97
537.40	55449.63
537.57	55870.93
537.74	56046.47
537.91	56243.07
538.08	56097.96
538.25	55936.46
538.42	55950.51
538.59	56140.09
538.75	56090.94
538.92	56264.14
539.09	56273.50
539.26	56360.10
539.43	56119.02
539.60	56395.21
539.77	56332.01
539.94	56498.19
540.11	56519.26
540.28	56626.92
540.44	56924.17
540.61	56582.45
540.78	56638.62
540.95	56203.28
541.12	56591.81
541.29	56442.02
541.46	56608.20
541.62	56680.75
541.79	56828.21
541.96	56603.52
542.13	56598.83
542.30	56945.23
542.47	56877.36
542.63	56989.70
542.80	56919.49
542.97	57296.31
543.14	57499.94
543.31	57375.89
543.48	57258.87
543.64	57523.35
543.81	57354.83
543.98	57345.47
544.15	57595.90
544.32	57708.25
544.48	57680.16
544.65	57488.24
544.82	57607.61
544.99	57059.92
545.16	57755.06
545.32	57392.28
545.49	57556.11
545.66	57649.74
545.83	58038.26
546.00	57874.43
546.16	57958.69
546.33	57900.17
546.50	57455.47
546.67	57766.76
546.83	57631.01
547.00	57954.00
547.17	57829.96
547.34	57787.83
547.50	58171.67
547.67	58337.85
547.84	58131.89
548.00	58288.70
548.17	58188.06
548.34	58408.07
548.51	58384.66
548.67	58567.23
548.84	58284.02
549.01	58319.13
549.18	58199.76
549.34	58335.51
549.51	58323.81
549.68	58534.46
549.84	58532.12
550.01	58522.76
550.18	58326.15
550.34	58770.85
550.51	58515.73
550.68	58667.87
550.84	58365.94
551.01	58784.90
551.18	58653.82
551.34	58834.05
551.51	58710.00
551.68	58733.40
551.84	58805.96
552.01	58658.51
552.18	58829.37
552.34	58745.11
552.51	59068.10
552.68	58621.06
552.84	58972.14
553.01	58951.07
553.18	58951.07
553.34	59206.19
553.51	58789.58
553.67	58897.24
553.84	59112.57
554.01	58993.20
554.17	59054.06
554.34	59103.21
554.51	59260.02
554.67	59262.36
554.84	59072.78
555.00	59150.02
555.17	59096.19
555.33	59325.56
555.50	59255.34
555.67	59105.55
555.83	59119.59
556.00	59278.75
556.16	59388.75
556.33	59515.14
556.50	59203.85
556.66	59480.03
556.83	59215.55
556.99	59576.00
557.16	59709.41
557.32	59662.60
557.49	59688.34
557.65	59498.76
557.82	59590.04
557.98	59657.91
558.15	59512.80
558.32	59653.23
558.48	59409.82
558.65	59583.02
558.81	59817.07
558.98	59807.71
559.14	59835.80
559.31	59709.41
559.47	59964.52
559.64	59931.76
559.80	59882.61
559.97	59784.30
560.13	59835.80
560.30	59847.50
560.46	59807.71
560.63	59985.59
560.79	59767.92
560.96	59922.40
561.12	60083.89
561.29	59917.71
561.45	60065.17
561.61	59753.88
561.78	59828.77
561.94	60090.91
562.11	59887.29
562.27	59959.84
562.44	60133.04
562.60	60296.88
562.77	60048.78
562.93	59938.78
563.10	60079.21
563.26	60151.77
563.42	60357.74
563.59	60200.92
563.75	59969.21
563.92	60292.20
564.08	59924.74
564.24	60364.76
564.41	60214.96
564.57	60170.49
564.74	60137.72
564.90	60315.61
565.07	60301.56
565.23	60339.01
565.39	60240.71
565.56	60413.91
565.72	60207.94
565.88	60516.89
566.05	60367.10
566.21	60151.77
566.38	60350.71
566.54	60556.68
566.70	60739.24
566.87	60619.88
567.03	60205.60
567.19	60570.72
567.36	60617.53
567.52	60364.76
567.68	60631.58
567.85	60552.00
568.01	60645.62
568.17	60254.75
568.34	60547.32
568.50	60360.08
568.66	60523.91
568.83	60486.46
568.99	60458.38
569.15	60638.60
569.32	60552.00
569.48	60413.91
569.64	60697.11
569.81	60488.80
569.97	60683.07
570.13	60662.00
570.30	60526.25
570.46	60837.54
570.62	60669.03
570.78	60629.24
570.95	60706.47
571.11	60671.37
571.27	60544.98
571.43	60825.84
571.60	60680.73
571.76	60544.98
571.92	60685.41
572.09	60662.00
572.25	60769.67
572.41	60741.58
572.57	60666.69
572.74	60879.67
572.90	60725.20
573.06	60767.33
573.22	60889.04
573.38	60662.00
573.55	60776.69
573.71	61052.87
573.87	60874.99
574.03	60837.54
574.20	60718.18
574.36	60694.77
574.52	60865.63
574.68	60790.73
574.84	60905.42
575.01	60734.56
575.17	60912.44
575.33	60924.14
575.49	60830.52
575.65	60870.31
575.82	61095.00
575.98	60809.46
576.14	61216.71
576.30	61038.83
576.46	60910.10
576.62	60748.60
576.79	60863.29
576.95	60781.37
577.11	60931.17
577.27	60804.78
577.43	60807.12
577.59	60865.63
577.75	61022.45
577.92	60928.83
578.08	60814.14
578.24	60985.00
578.40	61083.30
578.56	61034.15
578.72	61134.79
578.88	61080.96
579.04	61207.35
579.21	60837.54
579.37	61137.13
579.53	61167.56
579.69	60980.32
579.85	60961.59
580.01	61258.84
580.17	61027.13
580.33	61176.92
580.49	61104.37
580.65	60912.44
580.82	61045.85
580.98	61048.19
581.14	60945.21
581.30	61029.47
581.46	60912.44
581.62	61242.46
581.78	60884.36
581.94	61127.77
582.10	61048.19
582.26	60973.30
582.42	61006.06
582.58	60935.85
582.74	61130.11
582.90	61057.56
583.06	60982.66
583.22	61048.19
583.38	61055.21
583.54	61130.11
583.70	61312.67
583.86	61041.17
584.02	60968.61
584.18	61319.70
584.34	61092.66
584.50	61188.63
584.66	60919.46
584.82	60882.02
584.98	61324.38
585.14	61085.64
585.30	61106.71
585.46	61158.20
585.62	61197.99
585.78	61256.50
585.94	60966.27
586.10	61162.88
586.26	61242.46
586.42	61247.14
586.58	61303.31
586.74	61155.86
586.90	61160.54
587.06	61172.24
587.22	61296.29
587.38	61062.24
587.54	61237.78
587.70	61293.95
587.86	61207.35
588.02	61338.42
588.18	61258.84
588.34	61226.07
588.49	61345.44
