SpectraSuite Data File
++++++++++++++++++++++++++++++++++++
Date: Fri Oct 25 11:34:18 EDT 2013
User: price-jones
Dark Spectrum Present: No
Reference Spectrum Present: No
Number of Sampled Component Spectra: 1
Spectrometers: USB2+H05261
Integration Time (usec): 100000 (USB2+H05261)
Spectra Averaged: 1 (USB2+H05261)
Boxcar Smoothing: 0 (USB2+H05261)
Correct for Electrical Dark: No (USB2+H05261)
Strobe/Lamp Enabled: No (USB2+H05261)
Correct for Detector Non-linearity: No (USB2+H05261)
Correct for Stray Light: No (USB2+H05261)
Number of Pixels in Processed Spectrum: 2048
>>>>>Begin Processed Spectral Data<<<<<
365.73	271.50
365.92	271.50
366.12	271.50
366.32	208.31
366.52	126.39
366.72	208.31
366.91	168.52
367.11	189.58
367.31	208.31
367.51	128.73
367.70	168.52
367.90	234.05
368.10	112.35
368.30	196.60
368.49	252.78
368.69	196.60
368.89	220.01
369.09	212.99
369.28	194.26
369.48	220.01
369.68	245.76
369.87	276.18
370.07	231.71
370.27	220.01
370.47	320.65
370.66	367.46
370.86	507.90
371.06	540.66
371.25	599.18
371.45	524.28
371.65	594.50
371.84	519.60
372.04	533.64
372.24	561.73
372.44	538.32
372.63	624.92
372.83	592.16
373.03	606.20
373.22	594.50
373.42	599.18
373.62	610.88
373.81	634.29
374.01	678.76
374.21	671.73
374.40	557.05
374.60	645.99
374.79	667.05
374.99	671.73
375.19	615.56
375.38	650.67
375.58	669.39
375.78	601.52
375.97	676.41
376.17	697.48
376.37	671.73
376.56	596.84
376.76	620.24
376.95	676.41
377.15	641.31
377.35	669.39
377.54	634.29
377.74	634.29
377.93	655.35
378.13	674.07
378.33	737.27
378.52	725.57
378.72	645.99
378.91	746.63
379.11	669.39
379.31	753.65
379.50	664.71
379.70	751.31
379.89	753.65
380.09	779.40
380.28	624.92
380.48	777.06
380.68	777.06
380.87	732.59
381.07	732.59
381.26	760.67
381.46	744.29
381.65	779.40
381.85	725.57
382.04	837.91
382.24	755.99
382.43	760.67
382.63	833.23
382.83	786.42
383.02	772.38
383.22	858.98
383.41	760.67
383.61	805.14
383.80	793.44
384.00	884.72
384.19	765.36
384.39	788.76
384.58	880.04
384.78	802.80
384.97	889.40
385.17	882.38
385.36	851.96
385.56	854.30
385.75	798.12
385.95	856.64
386.14	833.23
386.34	746.63
386.53	833.23
386.72	772.38
386.92	884.72
387.11	891.74
387.31	919.83
387.50	828.55
387.70	894.08
387.89	908.13
388.09	896.43
388.28	863.66
388.48	814.51
388.67	894.08
388.86	870.68
389.06	917.49
389.25	1013.45
389.45	924.51
389.64	926.85
389.84	973.66
390.03	994.73
390.22	954.94
390.42	983.02
390.61	938.55
390.81	938.55
391.00	964.30
391.19	945.58
391.39	999.41
391.58	947.92
391.78	952.60
391.97	966.64
392.16	1076.65
392.36	943.24
392.55	1062.60
392.75	1060.26
392.94	966.64
393.13	1027.50
393.33	1008.77
393.52	1020.47
393.71	1053.24
393.91	1078.99
394.10	1050.90
394.29	1107.07
394.49	1088.35
394.68	1123.46
394.88	1027.50
395.07	1086.01
395.26	1142.18
395.46	1151.54
395.65	1121.12
395.84	1165.59
396.04	1139.84
396.23	1160.91
396.42	1198.35
396.62	1144.52
396.81	1200.69
397.00	1200.69
397.19	1256.87
397.39	1275.59
397.58	1256.87
397.77	1228.78
397.97	1245.16
398.16	1210.06
398.35	1210.06
398.55	1254.53
398.74	1146.86
398.93	1228.78
399.12	1259.21
399.32	1371.55
399.51	1207.72
399.70	1308.36
399.90	1310.70
400.09	1254.53
400.28	1359.85
400.47	1284.95
400.67	1350.49
400.86	1341.13
401.05	1275.59
401.24	1341.13
401.44	1331.76
401.63	1441.77
401.82	1469.86
402.01	1390.28
402.21	1504.96
402.40	1476.88
402.59	1425.39
402.78	1472.20
402.97	1458.15
403.17	1535.39
403.36	1493.26
403.55	1586.88
403.74	1621.99
403.93	1533.05
404.13	1511.99
404.32	1558.80
404.51	1511.99
404.70	1610.29
404.89	1636.03
405.09	1626.67
405.28	1668.80
405.47	1650.08
405.66	1678.16
405.85	1659.44
406.05	1657.10
406.24	1687.53
406.43	1701.57
406.62	1610.29
406.81	1797.53
407.00	1750.72
407.20	1650.08
407.39	1757.74
407.58	1783.49
407.77	1870.09
407.96	1830.30
408.15	1886.47
408.34	1907.54
408.54	1926.26
408.73	1856.04
408.92	1912.22
409.11	1935.62
409.30	2038.61
409.49	1933.28
409.68	2031.58
409.87	1998.82
410.07	1937.96
410.26	2059.67
410.45	2062.01
410.64	2076.06
410.83	2150.95
411.02	2108.82
411.21	2076.06
411.40	2080.74
411.59	2057.33
411.78	2181.38
411.98	2120.53
412.17	2122.87
412.36	2284.36
412.55	2190.74
412.74	2305.43
412.93	2296.07
413.12	2244.57
413.31	2331.17
413.50	2326.49
413.69	2333.51
413.88	2506.71
414.07	2445.86
414.26	2476.29
414.45	2485.65
414.64	2392.03
414.83	2487.99
415.02	2518.42
415.22	2640.12
415.41	2605.02
415.60	2663.53
415.79	2691.62
415.98	2724.38
416.17	2708.00
416.36	2747.79
416.55	2605.02
416.74	2633.10
416.93	2778.22
417.12	2782.90
417.31	2754.81
417.50	2808.64
417.69	2792.26
417.88	2825.03
418.07	2759.49
418.26	2820.35
418.45	2836.73
418.64	3002.91
418.83	3007.59
419.02	2918.65
419.21	3054.40
419.39	3007.59
419.58	2951.42
419.77	2890.56
419.96	3091.85
420.15	2986.52
420.34	2960.78
420.53	3059.08
420.72	3068.44
420.91	3087.17
421.10	3169.09
421.29	3176.11
421.48	3124.62
421.67	3215.90
421.86	3204.19
422.05	3279.09
422.24	3162.06
422.43	3337.60
422.61	3295.47
422.80	3353.99
422.99	3372.71
423.18	3262.71
423.37	3431.23
423.56	3300.16
423.75	3262.71
423.94	3279.09
424.13	3204.19
424.32	3148.02
424.50	3272.07
424.69	3246.32
424.88	3555.27
425.07	3269.73
425.26	3211.22
425.45	3253.34
425.64	3389.10
425.83	3337.60
426.01	3356.33
426.20	3316.54
426.39	3391.44
426.58	3300.16
426.77	3461.65
426.96	3398.46
427.15	3412.50
427.33	3349.31
427.52	3321.22
427.71	3473.36
427.90	3419.52
428.09	3552.93
428.28	3669.96
428.46	3588.04
428.65	3531.87
428.84	3817.41
429.03	3681.66
429.22	3552.93
429.40	3744.86
429.59	3854.86
429.78	3566.98
429.97	3520.17
430.16	3728.47
430.34	3796.35
430.53	3658.26
430.72	3847.84
430.91	3885.29
431.10	3714.43
431.28	3854.86
431.47	3929.76
431.66	3899.33
431.85	3756.56
432.03	3964.87
432.22	3971.89
432.41	4093.60
432.60	3990.61
432.79	3878.27
432.97	3960.19
433.16	4035.08
433.35	3929.76
433.54	3990.61
433.72	4039.76
433.91	4037.42
434.10	4028.06
434.28	3995.29
434.47	4079.55
434.66	4208.28
434.85	4161.47
435.03	4147.43
435.22	4198.92
435.41	4264.46
435.59	4315.95
435.78	4301.90
435.97	4285.52
436.16	4248.07
436.34	4339.35
436.53	4360.42
436.72	4393.19
436.90	4210.62
437.09	4407.23
437.28	4203.60
437.46	4341.69
437.65	4416.59
437.84	4498.51
438.02	4341.69
438.21	4435.32
438.40	4369.78
438.58	4491.49
438.77	4671.71
438.96	4770.01
439.14	4711.50
439.33	4650.64
439.52	4762.99
439.70	4713.84
439.89	5006.41
440.08	4968.96
440.26	4938.53
440.45	4964.28
440.63	4975.98
440.82	4980.66
441.01	5062.58
441.19	5078.96
441.38	5029.81
441.57	5123.43
441.75	5235.78
441.94	5235.78
442.12	5191.31
442.31	5296.63
442.50	5277.91
442.68	5231.10
442.87	5149.18
443.05	5446.43
443.24	5308.34
443.43	5444.09
443.61	5334.08
443.80	5535.37
443.98	5268.55
444.17	5270.89
444.35	5469.83
444.54	5310.68
444.73	5476.85
444.91	5423.02
445.10	5437.06
445.28	5439.40
445.47	5572.82
445.65	5448.77
445.84	5621.97
446.02	5596.22
446.21	5549.41
446.39	5699.20
446.58	5479.19
446.77	5657.07
446.95	5647.71
447.14	5556.43
447.32	5837.30
447.51	5568.13
447.69	5624.31
447.88	5668.78
448.06	5645.37
448.25	5619.63
448.43	5579.84
448.62	5621.97
448.80	5586.86
448.99	5746.02
449.17	5898.15
449.36	5673.46
449.54	5596.22
449.73	5863.04
449.91	5872.40
450.10	5879.43
450.28	5900.49
450.46	5907.51
450.65	5830.27
450.83	5940.28
451.02	5975.39
451.20	5923.90
451.39	5853.68
451.57	5867.72
451.76	5954.32
451.94	5926.24
452.13	6139.23
452.31	6094.76
452.49	6057.31
452.68	6054.97
452.86	6256.25
453.05	6050.28
453.23	6305.40
453.42	6038.58
453.60	6085.39
453.78	6249.23
453.97	6190.72
454.15	6136.88
454.34	6342.85
454.52	6260.93
454.70	6443.49
454.89	6312.42
455.07	6420.09
455.26	6478.60
455.44	6576.91
455.62	6450.52
455.81	6551.16
455.99	6579.25
456.17	6726.70
456.36	6654.14
456.54	6663.51
456.73	6764.15
456.91	6785.21
457.09	6949.05
457.28	6752.45
457.46	6663.51
457.64	6799.26
457.83	6778.19
458.01	6813.30
458.19	7063.74
458.38	6897.56
458.56	6974.80
458.74	6911.60
458.93	6930.33
459.11	6991.18
459.29	7101.19
459.48	7035.65
459.66	6988.84
459.84	7286.09
460.03	7403.11
460.21	7131.61
460.39	7082.46
460.57	7246.30
460.76	7370.35
460.94	7314.17
461.12	7215.87
461.31	7250.98
461.49	7236.94
461.67	7204.17
461.85	7438.22
462.04	7368.01
462.22	7864.20
462.40	7655.89
462.59	7653.55
462.77	7269.70
462.95	7473.33
463.13	7487.37
463.32	7419.50
463.50	7592.70
463.68	7653.55
463.86	7665.25
464.05	7606.74
464.23	7606.74
464.41	7672.28
464.59	7623.12
464.78	7826.75
464.96	7861.86
465.14	7721.43
465.32	7899.31
465.50	7826.75
465.69	8044.42
465.87	7801.01
466.05	7819.73
466.23	7920.37
466.41	7943.78
466.60	7978.89
466.78	7925.05
466.96	8023.36
467.14	8126.34
467.32	8044.42
467.51	8114.64
467.69	7859.52
467.87	8152.09
468.05	8079.53
468.23	8140.38
468.41	8166.13
468.60	8320.60
468.78	8175.49
468.96	8142.72
469.14	8107.62
469.32	8250.39
469.50	8224.64
469.69	8388.48
469.87	8592.11
470.05	8711.47
470.23	8620.19
470.41	8538.27
470.59	8699.77
470.77	8613.17
470.95	8580.40
471.14	8943.19
471.32	8505.51
471.50	8858.93
471.68	8732.54
471.86	8772.33
472.04	8777.01
472.22	8910.42
472.40	8896.38
472.58	9104.68
472.77	9109.36
472.95	9193.62
473.13	9249.80
473.31	8975.95
473.49	9198.31
473.67	9125.75
473.85	9301.29
474.03	9338.74
474.21	9130.43
474.39	9467.47
474.57	9462.79
474.75	9736.63
474.93	9738.97
475.12	9654.71
475.30	9736.63
475.48	9774.08
475.66	9682.80
475.84	9767.06
476.02	9914.51
476.20	9778.76
476.38	10092.39
476.56	10246.87
476.74	10274.95
476.92	10211.76
477.10	10045.58
477.28	10293.68
477.46	10349.85
477.64	10466.88
477.82	10670.50
478.00	10862.43
478.18	10761.78
478.36	10771.15
478.54	11028.60
478.72	10869.45
478.90	11180.74
479.08	11391.39
479.26	11239.25
479.44	11489.69
479.62	11396.07
479.80	11386.71
479.98	11538.84
480.16	11873.54
480.34	11957.80
480.52	12020.99
480.70	11896.94
480.88	12102.91
481.06	12121.63
481.24	11845.45
481.41	12159.08
481.59	12351.01
481.77	12339.30
481.95	12336.96
482.13	12463.35
482.31	12655.28
482.49	12973.59
482.67	13104.66
482.85	13046.15
483.03	13235.73
483.21	13298.92
483.39	13511.91
483.57	13130.41
483.74	13540.00
483.92	13727.24
484.10	13523.62
484.28	13745.97
484.46	14075.98
484.64	14071.30
484.82	14115.77
485.00	14094.71
485.18	14321.74
485.35	14820.27
485.53	14703.25
485.71	14829.63
485.89	14806.23
486.07	14696.22
486.25	15302.42
486.43	15211.14
486.61	15243.91
486.78	15393.70
486.96	15255.61
487.14	15391.36
487.32	15594.99
487.50	15800.96
487.68	15932.03
487.85	16123.95
488.03	16369.71
488.21	16189.49
488.39	16184.80
488.57	16636.53
488.75	16898.67
488.92	16673.98
489.10	16840.15
489.28	16908.03
489.46	17305.92
489.64	17238.05
489.81	17436.99
489.99	17649.98
490.17	17486.14
490.35	17923.82
490.53	18183.62
490.70	18244.48
490.88	18202.35
491.06	18141.49
491.24	18338.10
491.41	18101.70
491.59	18427.04
491.77	18597.90
491.95	18609.60
492.13	18817.91
492.30	18792.16
492.48	19044.94
492.66	19201.76
492.84	19403.04
493.01	19353.89
493.19	19461.55
493.37	19971.79
493.54	19957.75
493.72	19740.08
493.90	19859.45
494.08	20163.72
494.25	20170.74
494.43	20130.95
494.61	20348.62
494.79	20545.22
494.96	20552.24
495.14	20819.07
495.32	21057.80
495.49	20966.52
495.67	21212.28
495.85	21329.30
496.02	21612.51
496.20	21546.97
496.38	21645.27
496.55	21488.46
496.73	22073.59
496.91	21642.93
497.09	22249.13
497.26	22525.32
497.44	22094.66
497.62	22485.53
497.79	22340.41
497.97	22705.54
498.14	22642.34
498.32	22836.61
498.50	22948.95
498.67	23023.85
498.85	23154.92
499.03	23243.86
499.20	23311.74
499.38	23442.81
499.56	23501.32
499.73	23520.04
499.91	23538.77
500.08	23683.88
500.26	23583.24
500.44	23723.67
500.61	23903.89
500.79	24180.07
500.97	24170.71
501.14	24439.87
501.32	24685.63
501.49	24439.87
501.67	24589.67
501.84	24833.08
502.02	24683.29
502.20	24748.82
502.37	25017.99
502.55	24758.19
502.72	25209.91
502.90	25195.87
503.07	24959.47
503.25	25233.32
503.43	25142.03
503.60	25144.38
503.78	25680.36
503.95	25233.32
504.13	25692.06
504.30	26157.83
504.48	25614.82
504.65	26136.76
504.83	26237.41
505.01	26277.19
505.18	26043.14
505.36	26541.68
505.53	26190.59
505.71	26506.57
505.88	26218.68
506.06	26705.51
506.23	26984.04
506.41	26642.32
506.58	26965.31
506.76	27138.51
506.93	27264.90
507.11	26656.36
507.28	27154.90
507.46	27232.13
507.63	27681.52
507.81	27360.86
507.98	27281.28
508.16	27538.74
508.33	27864.08
508.50	27740.03
508.68	27896.85
508.85	27969.40
509.03	27796.20
509.20	27765.78
509.38	28116.86
509.55	28334.53
509.73	28575.60
509.90	28409.42
510.08	28577.94
510.25	28432.83
510.42	29085.84
510.60	28959.45
510.77	28971.15
510.95	29015.62
511.12	28638.80
511.30	29156.05
511.47	29057.75
511.64	29032.00
511.82	29593.73
511.99	29071.79
512.17	29633.52
512.34	29486.07
512.51	29741.19
512.69	29839.49
512.86	29900.34
513.04	29869.92
513.21	30101.63
513.38	29638.20
513.56	30024.39
513.73	29867.58
513.90	30277.17
514.08	30333.34
514.25	30417.60
514.43	30401.22
514.60	30738.26
514.77	30707.83
514.95	30953.58
515.12	30492.50
515.29	30986.35
515.47	30754.64
515.64	31424.03
515.81	30731.23
515.99	30834.22
516.16	31405.31
516.33	31384.24
516.51	31419.35
516.68	31232.11
516.85	31377.22
517.03	31835.97
517.20	31644.04
517.37	31826.60
517.54	31765.75
517.72	31798.52
517.89	31924.91
518.06	32112.15
518.24	32402.38
518.41	32271.31
518.58	32320.46
518.75	31922.57
518.93	32687.92
519.10	32203.43
519.27	32315.78
519.45	32957.08
519.62	32652.81
519.79	32788.56
519.96	32446.85
520.14	32807.29
520.31	32687.92
520.48	33055.39
520.65	32847.08
520.83	33474.34
521.00	32865.80
521.17	33015.60
521.34	33312.84
521.52	33294.12
521.69	33308.16
521.86	33509.45
522.03	33823.08
522.20	33647.54
522.38	34047.77
522.55	34129.69
522.72	33731.80
522.89	33741.16
523.07	33998.62
523.24	33780.95
523.41	34433.96
523.58	33905.00
523.75	34745.25
523.92	34125.01
524.10	34450.35
524.27	34864.62
524.44	34801.43
524.61	34522.90
524.78	34742.91
524.96	34787.38
525.13	34916.11
525.30	34944.20
525.47	35049.52
525.64	35009.73
525.81	35150.17
525.98	35166.55
526.16	35072.93
526.33	34759.30
526.50	35342.09
526.67	34974.63
526.84	35538.69
527.01	35473.16
527.18	35234.42
527.36	35793.81
527.53	35723.60
527.70	35611.25
527.87	35742.32
528.04	35496.56
528.21	35793.81
528.38	36027.87
528.55	36135.53
528.72	35945.95
528.89	35651.04
529.07	36142.55
529.24	35934.24
529.41	36376.61
529.58	36378.95
529.75	36224.47
529.92	36465.55
530.09	36573.21
530.26	36552.15
530.43	36552.15
530.60	36428.10
530.77	36507.68
530.94	36629.38
531.11	36545.12
531.28	36842.37
531.46	36713.64
531.63	37151.32
531.80	36697.26
531.97	37069.40
532.14	36978.12
532.31	37392.40
532.48	37656.88
532.65	37736.46
532.82	37081.11
532.99	37865.19
533.16	37270.69
533.33	37900.29
533.50	37427.51
533.67	37233.24
533.84	37027.28
534.01	37610.07
534.18	37493.04
534.35	37947.11
534.52	38167.12
534.69	38167.12
534.86	38000.94
535.03	37848.80
535.20	38043.07
535.37	38066.47
535.54	37965.83
535.71	38785.02
535.88	38345.00
536.05	37794.97
536.22	38450.32
536.38	38782.68
536.55	38052.43
536.72	38284.14
536.89	38155.41
537.06	38588.41
537.23	38642.24
537.40	38639.90
537.57	38644.59
537.74	38440.96
537.91	38909.07
538.08	38857.57
538.25	38646.93
538.42	38913.75
538.59	39356.11
538.75	38995.67
538.92	39002.69
539.09	38988.64
539.26	38944.17
539.43	39016.73
539.60	39440.37
539.77	39267.17
539.94	39398.24
540.11	39620.59
540.28	38965.24
540.44	39573.78
540.61	39770.38
540.78	39339.72
540.95	39470.79
541.12	39545.69
541.29	39171.21
541.46	39782.09
541.62	39683.78
541.79	39936.56
541.96	39075.24
542.13	39480.16
542.30	39885.07
542.47	40268.92
542.63	40156.57
542.80	40313.39
542.97	40261.90
543.14	40477.22
543.31	40502.97
543.48	40577.87
543.64	40446.80
543.81	40772.13
543.98	40673.83
544.15	40210.40
544.32	40580.21
544.48	40844.69
544.65	41170.02
544.82	40823.62
544.99	41273.01
545.16	40861.07
545.32	40678.51
545.49	41659.20
545.66	41317.48
545.83	41116.19
546.00	41677.92
546.16	41460.25
546.33	40978.10
546.50	41029.59
546.67	41350.24
546.83	40832.99
547.00	41282.37
547.17	41443.87
547.34	41116.19
547.50	41649.83
547.67	41830.05
547.84	41694.30
548.00	41731.75
548.17	41982.19
548.34	41537.49
548.51	42096.88
548.67	41581.96
548.84	41738.77
549.01	42068.79
549.18	41455.57
549.34	41706.01
549.51	42160.07
549.68	41886.23
549.84	42078.15
550.01	42511.15
550.18	42227.95
550.34	42124.96
550.51	42382.42
550.68	42560.30
550.84	42389.44
551.01	42302.84
551.18	42408.17
551.34	42117.94
551.51	42490.09
551.68	42574.34
551.84	42127.30
552.01	42506.47
552.18	42511.15
552.34	42548.60
552.51	42794.36
552.68	42672.65
552.84	42607.11
553.01	42810.74
553.18	42401.14
553.34	42911.38
553.51	42389.44
553.67	43189.91
553.84	43103.31
554.01	43398.21
554.17	42686.69
554.34	43395.87
554.51	42965.21
554.67	43512.90
554.84	43103.31
555.00	42972.24
555.17	43290.55
555.33	43428.64
555.50	43325.66
555.67	43278.85
555.83	43587.80
556.00	43543.33
556.16	43501.20
556.33	43641.63
556.50	43438.00
556.66	43658.01
556.83	42997.98
556.99	43470.77
557.16	43604.18
557.32	43653.33
557.49	43749.29
557.65	43346.72
557.82	43515.24
557.98	43697.80
558.15	43379.49
558.32	43639.29
558.48	43452.05
558.65	43615.88
558.81	43952.92
558.98	44018.46
559.14	43882.70
559.31	43524.60
559.47	43688.44
559.64	43861.64
559.80	44105.06
559.97	44004.41
560.13	43505.88
560.30	44081.65
560.46	44046.54
560.63	44067.61
560.79	44175.27
560.96	44540.39
561.12	43763.34
561.29	44055.90
561.45	44432.73
561.61	44252.51
561.78	44266.55
561.94	43922.49
562.11	44144.84
562.27	44336.77
562.44	43969.30
562.60	44467.84
562.77	44444.43
562.93	44451.45
563.10	44376.56
563.26	44296.98
563.42	44926.58
563.59	44367.20
563.75	44390.60
563.92	44657.42
564.08	44505.29
564.24	44748.70
564.41	44463.16
564.57	44741.68
564.74	44758.06
564.90	44619.97
565.07	44666.78
565.23	44381.24
565.39	44676.15
565.56	44685.51
565.72	44662.10
565.88	44772.11
566.05	44690.19
566.21	44610.61
566.38	44257.19
566.54	45024.89
566.70	44978.07
566.87	44849.35
567.03	44643.38
567.19	45284.68
567.36	44914.88
567.52	44879.77
567.68	45497.67
567.85	45507.04
568.01	45235.53
568.17	44821.26
568.34	44982.76
568.50	45263.62
568.66	44807.22
568.83	44863.39
568.99	45310.43
569.15	45085.74
569.32	44947.65
569.48	45233.19
569.64	45195.74
569.81	45076.38
569.97	45181.70
570.13	45654.49
570.30	45272.98
570.46	45483.63
570.62	45301.07
570.78	45420.44
570.95	44816.58
571.11	45474.27
571.27	45223.83
571.43	45170.00
571.60	44823.60
571.76	45041.27
571.92	45162.98
572.09	45097.44
572.25	45177.02
572.41	45139.57
572.57	45588.95
572.74	45441.50
572.90	45338.52
573.06	45291.71
573.22	44931.26
573.38	45811.31
573.55	45333.84
573.71	45982.16
573.87	45418.10
574.03	45261.28
574.20	45610.02
574.36	45385.33
574.52	45624.06
574.68	45434.48
574.84	45830.03
575.01	45703.64
575.17	45713.00
575.33	45811.31
575.49	45872.16
575.65	45830.03
575.82	45764.49
575.98	45495.33
576.14	45799.60
576.30	46040.68
576.46	46021.95
576.62	45148.93
576.79	45680.24
576.95	45521.08
577.11	45621.72
577.27	45436.82
577.43	45862.80
577.59	45872.16
577.75	45656.83
577.92	45275.32
578.08	45787.90
578.24	45577.25
578.40	45897.91
578.56	45837.05
578.72	45944.72
578.88	45900.25
579.04	45565.55
579.21	45390.01
579.37	45785.56
579.53	45834.71
579.69	45521.08
579.85	45764.49
580.01	45991.53
580.17	45371.28
580.33	45858.12
580.49	45839.39
580.65	46160.05
580.82	45663.85
580.98	45624.06
581.14	45563.21
581.30	45925.99
581.46	45177.02
581.62	45579.59
581.78	45462.57
581.94	46050.04
582.10	45366.60
582.26	45996.21
582.42	45890.88
582.58	45626.40
582.74	45815.99
582.90	45890.88
583.06	45982.16
583.22	45570.23
583.38	45911.95
583.54	45890.88
583.70	45860.46
583.86	46092.17
584.02	45593.64
584.18	46061.74
584.34	45970.46
584.50	46328.56
584.66	46103.87
584.82	45909.61
584.98	46169.41
585.14	46171.75
585.30	45778.54
585.46	46117.92
585.62	46073.45
585.78	45975.14
585.94	45464.91
586.10	45759.81
586.26	45874.50
586.42	45993.87
586.58	45904.93
586.74	45675.55
586.90	45539.80
587.06	45900.25
587.22	46110.89
587.38	46211.54
587.54	46115.58
587.70	45944.72
587.86	46239.62
588.02	46071.10
588.18	45492.99
588.34	45977.48
588.49	46108.55
588.65	45617.04
588.81	46038.34
588.97	46014.93
589.13	46209.20
589.29	45977.48
589.45	46490.06
589.61	46234.94
589.77	46387.08
589.93	46183.45
590.08	46670.28
