SpectraSuite Data File
++++++++++++++++++++++++++++++++++++
Date: Fri Oct 25 11:34:40 EDT 2013
User: price-jones
Dark Spectrum Present: No
Reference Spectrum Present: No
Number of Sampled Component Spectra: 1
Spectrometers: USB2+H05261
Integration Time (usec): 100000 (USB2+H05261)
Spectra Averaged: 1 (USB2+H05261)
Boxcar Smoothing: 0 (USB2+H05261)
Correct for Electrical Dark: No (USB2+H05261)
Strobe/Lamp Enabled: No (USB2+H05261)
Correct for Detector Non-linearity: No (USB2+H05261)
Correct for Stray Light: No (USB2+H05261)
Number of Pixels in Processed Spectrum: 2048
>>>>>Begin Processed Spectral Data<<<<<
365.73	318.31
365.92	318.31
366.12	318.31
366.32	222.35
366.52	138.09
366.72	203.63
366.91	180.22
367.11	147.45
367.31	180.22
367.51	194.26
367.70	161.50
367.90	168.52
368.10	166.18
368.30	224.69
368.49	166.18
368.69	266.82
368.89	196.60
369.09	210.65
369.28	250.44
369.48	191.92
369.68	168.52
369.87	238.73
370.07	236.39
370.27	229.37
370.47	383.85
370.66	444.70
370.86	486.83
371.06	491.51
371.25	578.11
371.45	589.82
371.65	575.77
371.84	510.24
372.04	545.34
372.24	519.60
372.44	585.13
372.63	596.84
372.83	603.86
373.03	615.56
373.22	613.22
373.42	596.84
373.62	573.43
373.81	613.22
374.01	688.12
374.21	601.52
374.40	629.60
374.60	615.56
374.79	615.56
374.99	585.13
375.19	711.52
375.38	608.54
375.58	667.05
375.78	617.90
375.97	727.91
376.17	681.10
376.37	690.46
376.56	655.35
376.76	660.03
376.95	636.63
377.15	711.52
377.35	662.37
377.54	692.80
377.74	594.50
377.93	678.76
378.13	695.14
378.33	669.39
378.52	690.46
378.72	720.88
378.91	685.78
379.11	699.82
379.31	648.33
379.50	690.46
379.70	648.33
379.89	702.16
380.09	695.14
380.28	645.99
380.48	767.70
380.68	657.69
380.87	774.72
381.07	730.25
381.26	763.01
381.46	739.61
381.65	720.88
381.85	758.33
382.04	784.08
382.24	723.23
382.43	692.80
382.63	760.67
382.83	744.29
383.02	847.27
383.22	781.74
383.41	723.23
383.61	737.27
383.80	819.19
384.00	779.40
384.19	746.63
384.39	755.99
384.58	788.76
384.78	765.36
384.97	802.80
385.17	837.91
385.36	765.36
385.56	788.76
385.75	812.17
385.95	791.10
386.14	837.91
386.34	779.40
386.53	854.30
386.72	870.68
386.92	875.36
387.11	940.90
387.31	908.13
387.50	877.70
387.70	837.91
387.89	854.30
388.09	830.89
388.28	812.17
388.48	868.34
388.67	896.43
388.86	877.70
389.06	938.55
389.25	842.59
389.45	912.81
389.64	940.90
389.84	912.81
390.03	912.81
390.22	889.40
390.42	929.19
390.61	880.04
390.81	952.60
391.00	945.58
391.19	1011.11
391.39	954.94
391.58	961.96
391.78	957.28
391.97	1015.79
392.16	983.02
392.36	999.41
392.55	1057.92
392.75	973.66
392.94	1050.90
393.13	1053.24
393.33	976.00
393.52	992.39
393.71	976.00
393.91	1022.81
394.10	1074.31
394.29	1015.79
394.49	1071.97
394.68	1081.33
394.88	1160.91
395.07	1036.86
395.26	997.07
395.46	1041.54
395.65	1158.57
395.84	1097.71
396.04	1217.08
396.23	1186.65
396.42	1193.67
396.62	1196.01
396.81	1214.74
397.00	1203.04
397.19	1116.44
397.39	1186.65
397.58	1203.04
397.77	1217.08
397.97	1165.59
398.16	1198.35
398.35	1198.35
398.55	1303.68
398.74	1198.35
398.93	1289.64
399.12	1282.61
399.32	1240.48
399.51	1259.21
399.70	1275.59
399.90	1317.72
400.09	1200.69
400.28	1238.14
400.47	1315.38
400.67	1266.23
400.86	1423.05
401.05	1327.08
401.24	1404.32
401.44	1350.49
401.63	1432.41
401.82	1432.41
402.01	1397.30
402.21	1362.19
402.40	1420.71
402.59	1418.36
402.78	1448.79
402.97	1533.05
403.17	1474.54
403.36	1486.24
403.55	1462.83
403.74	1511.99
403.93	1413.68
404.13	1526.03
404.32	1483.90
404.51	1490.92
404.70	1600.93
404.89	1633.69
405.09	1572.84
405.28	1423.05
405.47	1596.25
405.66	1533.05
405.85	1605.61
406.05	1650.08
406.24	1708.59
406.43	1591.56
406.62	1746.04
406.81	1767.10
407.00	1668.80
407.20	1682.85
407.39	1743.70
407.58	1724.97
407.77	1788.17
407.96	1762.42
408.15	1853.70
408.34	1696.89
408.54	1940.30
408.73	1809.23
408.92	1867.75
409.11	1881.79
409.30	1898.17
409.49	1912.22
409.68	1949.67
409.87	2008.18
410.07	1912.22
410.26	1933.28
410.45	2003.50
410.64	2010.52
410.83	1916.90
411.02	1940.30
411.21	2129.89
411.40	2008.18
411.59	2136.91
411.78	2136.91
411.98	2080.74
412.17	2148.61
412.36	2169.68
412.55	2200.10
412.74	2263.30
412.93	2214.15
413.12	2237.55
413.31	2373.30
413.50	2267.98
413.69	2356.92
413.88	2331.17
414.07	2352.24
414.26	2408.41
414.45	2438.84
414.64	2394.37
414.83	2377.98
415.02	2469.27
415.22	2502.03
415.41	2579.27
415.60	2551.18
415.79	2523.10
415.98	2633.10
416.17	2607.36
416.36	2628.42
416.55	2642.46
416.74	2766.51
416.93	2569.91
417.12	2560.55
417.31	2834.39
417.50	2609.70
417.69	2846.09
417.88	2796.94
418.07	2686.94
418.26	2857.79
418.45	2832.05
418.64	3023.97
418.83	2775.88
419.02	2935.03
419.21	2829.71
419.39	2890.56
419.58	2885.88
419.77	2930.35
419.96	3061.42
420.15	3059.08
420.34	3133.98
420.53	2949.08
420.72	3108.23
420.91	2944.39
421.10	3082.49
421.29	3176.11
421.48	3119.93
421.67	3059.08
421.86	3105.89
422.05	3211.22
422.24	3183.13
422.43	3276.75
422.61	3194.83
422.80	3155.04
422.99	3169.09
423.18	3248.66
423.37	3258.03
423.56	3201.85
423.75	3157.38
423.94	3178.45
424.13	3070.78
424.32	3180.79
424.50	3246.32
424.69	3400.80
424.88	3197.17
425.07	3304.84
425.26	3243.98
425.45	3281.43
425.64	3332.92
425.83	3220.58
426.01	3267.39
426.20	3272.07
426.39	3342.28
426.58	3351.65
426.77	3260.37
426.96	3419.52
427.15	3304.84
427.33	3543.57
427.52	3375.05
427.71	3466.33
427.90	3452.29
428.09	3447.61
428.28	3445.27
428.46	3562.30
428.65	3524.85
428.84	3616.13
429.03	3651.24
429.22	3494.42
429.40	3590.38
429.59	3517.83
429.78	3421.86
429.97	3419.52
430.16	3527.19
430.34	3653.58
430.53	3735.50
430.72	3555.27
430.91	3557.61
431.10	3709.75
431.28	3719.11
431.47	3805.71
431.66	3707.41
431.85	3728.47
432.03	3911.04
432.22	3815.07
432.41	3765.92
432.60	3861.88
432.79	3960.19
432.97	3929.76
433.16	3866.56
433.35	3983.59
433.54	3943.80
433.72	4093.60
433.91	3822.09
434.10	3765.92
434.28	4058.49
434.47	4032.74
434.66	4058.49
434.85	4028.06
435.03	4161.47
435.22	3997.64
435.41	4245.73
435.59	4187.22
435.78	4107.64
435.97	4210.62
436.16	4184.88
436.34	4222.33
436.53	4271.48
436.72	4189.56
436.90	4257.43
437.09	4290.20
437.28	4198.92
437.46	4138.07
437.65	4276.16
437.84	4421.27
438.02	4301.90
438.21	4315.95
438.40	4283.18
438.58	4381.48
438.77	4524.26
438.96	4479.79
439.14	4533.62
439.33	4531.28
439.52	4643.62
439.70	4645.96
439.89	4844.91
440.08	4615.54
440.26	4727.88
440.45	4758.31
440.63	4791.08
440.82	4973.64
441.01	4938.53
441.19	4901.08
441.38	4791.08
441.57	4877.68
441.75	5074.28
441.94	5057.90
442.12	5165.56
442.31	5039.17
442.50	5163.22
442.68	5114.07
442.87	5181.95
443.05	5263.86
443.24	5298.97
443.43	5277.91
443.61	5270.89
443.80	5516.64
443.98	5177.26
444.17	5027.47
444.35	5224.08
444.54	5256.84
444.73	5357.49
444.91	5427.70
445.10	5369.19
445.28	5423.02
445.47	5397.28
445.65	5336.42
445.84	5362.17
446.02	5282.59
446.21	5467.49
446.39	5493.24
446.58	5462.81
446.77	5343.44
446.95	5430.04
447.14	5476.85
447.32	5643.03
447.51	5357.49
447.69	5420.68
447.88	5504.94
448.06	5416.00
448.25	5359.83
448.43	5584.52
448.62	5465.15
448.80	5284.93
448.99	5514.30
449.17	5451.11
449.36	5504.94
449.54	5636.01
449.73	5703.89
449.91	5797.51
450.10	5741.33
450.28	5795.17
450.46	5865.38
450.65	5797.51
450.83	5769.42
451.02	5856.02
451.20	5811.55
451.39	5877.09
451.57	5790.49
451.76	5781.12
451.94	5757.72
452.13	6083.05
452.31	5809.21
452.49	5944.96
452.68	6036.24
452.86	5762.40
453.05	6094.76
453.23	6125.18
453.42	6080.71
453.60	6003.47
453.78	6174.33
453.97	6038.58
454.15	6057.31
454.34	6218.80
454.52	6242.21
454.70	6153.27
454.89	6164.97
455.07	6225.82
455.26	6340.51
455.44	6300.72
455.62	6338.17
455.81	6277.32
455.99	6410.73
456.17	6452.86
456.36	6518.39
456.54	6647.12
456.73	6520.73
456.91	6665.85
457.09	6672.87
457.28	6745.42
457.46	6527.75
457.64	6829.68
457.83	6806.28
458.01	6593.29
458.19	6675.21
458.38	6764.15
458.56	6768.83
458.74	6670.53
458.93	6684.57
459.11	6703.29
459.29	6888.20
459.48	6857.77
459.66	6841.39
459.84	6927.99
460.03	7110.55
460.21	6930.33
460.39	7037.99
460.57	6890.54
460.76	6984.16
460.94	6965.43
461.12	7082.46
461.31	7094.16
461.49	7105.87
461.67	6998.20
461.85	7162.04
462.04	7037.99
462.22	7585.68
462.40	7349.28
462.59	7222.89
462.77	7302.47
462.95	7391.41
463.13	7382.05
463.32	7358.64
463.50	7440.56
463.68	7499.08
463.86	7358.64
464.05	7428.86
464.23	7286.09
464.41	7503.76
464.59	7487.37
464.78	7665.25
464.96	7569.29
465.14	7665.25
465.32	7571.63
465.50	7728.45
465.69	7555.25
465.87	7595.04
466.05	7625.47
466.23	7714.41
466.41	7854.84
466.60	8042.08
466.78	7733.13
466.96	7585.68
467.14	7948.46
467.32	7854.84
467.51	7852.50
467.69	7646.53
467.87	7915.69
468.05	7976.55
468.23	8060.80
468.41	7777.60
468.60	7887.61
468.78	8116.98
468.96	7936.76
469.14	7903.99
469.32	8320.60
469.50	7978.89
469.69	8159.11
469.87	8278.47
470.05	8140.38
470.23	8421.25
470.41	8205.92
470.59	8344.01
470.77	8334.65
470.95	8351.03
471.14	8355.71
471.32	8489.12
471.50	8484.44
471.68	8463.38
471.86	8699.77
472.04	8491.46
472.22	8690.41
472.40	8695.09
472.58	8704.45
472.77	8800.41
472.95	8987.66
473.13	9022.77
473.31	8877.65
473.49	8924.46
473.67	8844.88
473.85	9184.26
474.03	9235.75
474.21	9118.73
474.39	9350.44
474.57	9345.76
474.75	9355.12
474.93	9404.27
475.12	9362.14
475.30	9362.14
475.48	9586.83
475.66	9799.82
475.84	9453.42
476.02	9638.33
476.20	9750.67
476.38	9575.13
476.56	10031.54
476.74	9912.17
476.92	9954.30
477.10	9738.97
477.28	10265.59
477.46	10310.06
477.64	10104.09
477.82	10286.65
478.00	10438.79
478.18	10494.96
478.36	10707.95
478.54	10747.74
478.72	10619.01
478.90	10883.49
479.08	10956.05
479.26	10916.26
479.44	10836.68
479.62	10939.66
479.80	11187.76
479.98	11407.77
480.16	11618.42
480.34	11461.60
480.52	11513.10
480.70	11442.88
480.88	11602.04
481.06	11611.40
481.24	11782.26
481.41	11967.16
481.59	11880.56
481.77	11793.96
481.95	11892.26
482.13	12390.80
482.31	12264.41
482.49	12578.04
482.67	12559.31
482.85	12884.65
483.03	12805.07
483.21	12872.95
483.39	12973.59
483.57	12802.73
483.74	13296.58
483.92	13268.50
484.10	13296.58
484.28	13298.92
484.46	13392.55
484.64	13912.14
484.82	13415.95
485.00	13902.78
485.18	14202.37
485.35	14185.99
485.53	14422.38
485.71	14370.89
485.89	14555.79
486.07	14415.36
486.25	14487.92
486.43	14801.55
486.61	14677.50
486.78	14750.06
486.96	14782.82
487.14	15248.59
487.32	15019.22
487.50	15346.89
487.68	15475.62
487.85	15761.17
488.03	15791.59
488.21	16030.33
488.39	16149.70
488.57	15927.35
488.75	16226.93
488.92	16411.84
489.10	16603.76
489.28	16407.16
489.46	17069.53
489.64	16666.95
489.81	17163.15
489.99	17170.17
490.17	16861.22
490.35	17507.21
490.53	17626.57
490.70	17357.41
490.88	17568.06
491.06	17731.90
491.24	17855.95
491.41	17818.50
491.59	18162.56
491.77	17963.61
491.95	18375.55
492.13	18508.96
492.30	18366.18
492.48	18499.59
492.66	18625.98
492.84	18581.51
493.01	18956.00
493.19	19080.05
493.37	19150.26
493.54	19194.73
493.72	19323.46
493.90	19365.59
494.08	19627.73
494.25	19763.48
494.43	19814.98
494.61	20093.50
494.79	19976.47
494.96	20168.40
495.14	20205.84
495.32	20374.36
495.49	19908.60
495.67	20510.11
495.85	20725.44
496.02	20933.75
496.20	21078.86
496.38	20992.26
496.55	21287.17
496.73	21362.07
496.91	20971.20
497.09	21455.69
497.26	21455.69
497.44	21443.99
497.62	22036.14
497.79	22015.08
497.97	21797.41
498.14	22167.21
498.32	22073.59
498.50	22324.03
498.67	22436.38
498.85	22522.98
499.03	22469.14
499.20	22719.58
499.38	22731.28
499.56	22787.46
499.73	22948.95
499.91	23129.17
500.08	23419.40
500.26	23103.43
500.44	23236.84
500.61	23470.89
500.79	23321.10
500.97	23613.66
501.14	23728.35
501.32	23915.59
501.49	23875.80
501.67	24149.65
501.84	24140.29
502.02	24140.29
502.20	23873.46
502.37	24177.73
502.55	24112.20
502.72	24327.53
502.90	24634.14
503.07	24641.16
503.25	24367.32
503.43	24732.44
503.60	24666.91
503.78	25010.96
503.95	24821.38
504.13	25137.35
504.30	25046.07
504.48	24879.89
504.65	25427.58
504.83	25472.05
505.01	25708.44
505.18	25514.18
505.36	25898.03
505.53	25722.49
505.71	25572.69
505.88	25996.33
506.06	25553.97
506.23	26237.41
506.41	25891.01
506.58	25935.48
506.76	26073.57
506.93	26230.38
507.11	26560.40
507.28	26246.77
507.46	26298.26
507.63	26614.23
507.81	26754.66
507.98	26801.47
508.16	26934.88
508.33	26892.76
508.50	26977.01
508.68	27225.11
508.85	27531.72
509.03	27138.51
509.20	27578.53
509.38	27435.76
509.55	27349.16
509.73	27536.40
509.90	27901.53
510.08	27744.71
510.25	27821.95
510.42	27630.02
510.60	28095.79
510.77	28086.43
510.95	28491.34
511.12	27887.48
511.30	28339.21
511.47	28273.67
511.64	28048.98
511.82	28772.21
511.99	28505.38
512.17	28917.32
512.34	28788.59
512.51	28648.16
512.69	29001.58
512.86	28821.36
513.04	29336.27
513.21	28982.85
513.38	29113.92
513.56	29570.33
513.73	29146.69
513.90	29340.96
514.08	29322.23
514.25	29677.99
514.43	29397.13
514.60	29535.22
514.77	29631.18
514.95	29977.58
515.12	29846.51
515.29	30120.35
515.47	30335.68
515.64	30295.89
515.81	30181.21
515.99	30197.59
516.16	30328.66
516.33	30532.29
516.51	30485.48
516.68	30553.35
516.85	30733.57
517.03	30878.69
517.20	30888.05
517.37	30768.68
517.54	30855.28
517.72	30827.20
517.89	31269.56
518.06	31199.34
518.24	30984.01
518.41	31225.09
518.58	30948.90
518.75	30773.36
518.93	31274.24
519.10	31672.13
519.27	31751.71
519.45	31463.82
519.62	31449.78
519.79	31999.80
519.96	31512.97
520.14	31990.44
520.31	31899.16
520.48	32034.91
520.65	32182.37
520.83	32142.58
521.00	32194.07
521.17	32126.19
521.34	32229.18
521.52	32362.59
521.69	32683.24
521.86	32477.27
522.03	32507.70
522.20	33134.96
522.38	33191.14
522.55	32996.87
522.72	32748.78
522.89	33153.69
523.07	33450.94
523.24	33439.23
523.41	33628.82
523.58	32879.85
523.75	33127.94
523.92	33137.30
524.10	33722.44
524.27	33734.14
524.44	33474.34
524.61	33223.90
524.78	33675.63
524.96	33895.64
525.13	33860.53
525.30	34230.33
525.47	34307.57
525.64	33912.02
525.81	34148.42
525.98	34639.93
526.16	33956.49
526.33	34075.86
526.50	34312.25
526.67	34347.36
526.84	34307.57
527.01	34330.98
527.18	34651.63
527.36	34436.30
527.53	34574.39
527.70	35349.11
527.87	34553.33
528.04	34696.10
528.21	34850.58
528.38	34642.27
528.55	34660.99
528.72	34859.94
528.89	34998.03
529.07	35225.06
529.24	34792.06
529.41	35168.89
529.58	35318.68
529.75	35196.98
529.92	35381.88
530.09	35524.65
530.26	35466.14
530.43	35676.79
530.60	35903.82
530.77	35435.71
530.94	35196.98
531.11	35372.52
531.28	35805.52
531.46	35634.66
531.63	36044.25
531.80	36025.53
531.97	36062.97
532.14	36004.46
532.31	36172.98
532.48	36807.26
532.65	36643.43
532.82	35840.62
532.99	36252.56
533.16	35908.50
533.33	36376.61
533.50	36678.54
533.67	36088.72
533.84	36067.66
534.01	36463.21
534.18	36428.10
534.35	37268.35
534.52	37043.66
534.69	37223.88
534.86	37015.57
535.03	36847.05
535.20	37504.74
535.37	36999.19
535.54	37294.10
535.71	36847.05
535.88	36931.31
536.05	37235.58
536.22	37457.93
536.38	37574.96
536.55	37057.70
536.72	37132.60
536.89	37298.78
537.06	37663.90
537.23	37783.27
537.40	37469.64
537.57	37516.45
537.74	37333.89
537.91	37689.65
538.08	38162.43
538.25	37467.30
538.42	38050.09
538.59	38232.65
538.75	38052.43
538.92	38190.52
539.09	38265.42
539.26	37715.39
539.43	38382.45
539.60	38281.80
539.77	38092.22
539.94	38429.26
540.11	38124.99
540.28	38368.40
540.44	38089.88
540.61	38323.93
540.78	37944.76
540.95	38560.33
541.12	38309.89
541.29	38576.71
541.46	38593.09
541.62	38824.81
541.79	38803.74
541.96	38174.14
542.13	39009.71
542.30	39119.71
542.47	38745.23
542.63	39023.75
542.80	39140.78
542.97	39395.90
543.14	39491.86
543.31	39255.46
543.48	39168.87
543.64	40032.52
543.81	39725.91
543.98	39700.17
544.15	39517.60
544.32	39517.60
544.48	39648.68
544.65	39786.77
544.82	40076.99
544.99	39807.83
545.16	39676.76
545.32	39924.86
545.49	40187.00
545.66	40119.12
545.83	40002.10
546.00	39868.69
546.16	40163.59
546.33	39903.79
546.50	39763.36
546.67	40624.68
546.83	39700.17
547.00	39917.84
547.17	39803.15
547.34	40224.45
547.50	40884.48
547.67	40584.89
547.84	40205.72
548.00	40353.18
548.17	41022.57
548.34	40428.07
548.51	40837.67
548.67	41251.94
548.84	40699.58
549.01	40898.52
549.18	40914.90
549.34	41029.59
549.51	41029.59
549.68	41081.08
549.84	40577.87
550.01	40942.99
550.18	41013.21
550.34	41357.27
550.51	41148.96
550.68	41340.88
550.84	41308.11
551.01	41464.93
551.18	40952.35
551.34	40774.47
551.51	41277.69
551.68	41296.41
551.84	41392.37
552.01	41160.66
552.18	41586.64
552.34	41509.40
552.51	41652.17
552.68	41357.27
552.84	41787.92
553.01	41441.53
553.18	41462.59
553.34	41750.48
553.51	41720.05
553.67	41755.16
553.84	42012.62
554.01	42054.75
554.17	41834.74
554.34	42036.02
554.51	42014.96
554.67	42246.67
554.84	42457.32
555.00	41851.12
555.17	41792.61
555.33	42167.09
555.50	42080.49
555.67	41816.01
555.83	42284.12
556.00	42220.92
556.16	42541.58
556.33	42710.10
556.50	42485.40
556.66	42064.11
556.83	42174.11
556.99	42806.06
557.16	42494.77
557.32	42972.24
557.49	42513.49
557.65	42412.85
557.82	42396.46
557.98	42485.40
558.15	42476.04
558.32	42834.14
558.48	42892.66
558.65	42768.61
558.81	42866.91
558.98	42564.98
559.14	42885.64
559.31	42443.27
559.47	42539.24
559.64	42712.44
559.80	42719.46
559.97	43194.59
560.13	42658.60
560.30	42536.90
560.46	43232.04
560.63	43255.44
560.79	43119.69
560.96	43234.38
561.12	42972.24
561.29	43384.17
561.45	43110.33
561.61	42979.26
561.78	42684.35
561.94	42939.47
562.11	43248.42
562.27	43164.16
562.44	43356.08
562.60	43618.22
562.77	43569.07
562.93	43328.00
563.10	43440.34
563.26	43620.56
563.42	44034.84
563.59	43419.28
563.75	43241.40
563.92	43461.41
564.08	43339.70
564.24	43166.50
564.41	43728.23
564.57	43604.18
564.74	43143.09
564.90	43679.08
565.07	43810.15
565.23	43250.76
565.39	43388.85
565.56	44088.67
565.72	43344.38
565.88	43938.88
566.05	43838.23
566.21	43791.42
566.38	43845.26
566.54	43831.21
566.70	44287.62
566.87	44198.68
567.03	43566.73
567.19	43583.12
567.36	43665.03
567.52	43140.75
567.68	44231.44
567.85	43896.75
568.01	43929.51
568.17	43840.57
568.34	43985.69
568.50	43835.89
568.66	43461.41
568.83	44194.00
568.99	43878.02
569.15	44144.84
569.32	43796.10
569.48	44423.37
569.64	44130.80
569.81	44126.12
569.97	43817.17
570.13	43950.58
570.30	44074.63
570.46	44025.48
570.62	43962.28
570.78	44161.23
570.95	44299.32
571.11	44587.21
571.27	44236.12
571.43	43803.13
571.60	43896.75
571.76	44198.68
571.92	44250.17
572.09	43936.54
572.25	44313.36
572.41	44334.43
572.57	44229.10
572.74	44390.60
572.90	44067.61
573.06	44137.82
573.22	44194.00
573.38	44273.57
573.55	44212.72
573.71	44622.31
573.87	44603.59
574.03	44254.85
574.20	44472.52
574.36	43964.62
574.52	44458.48
574.68	44673.81
574.84	44500.61
575.01	44149.53
575.17	44236.12
575.33	44271.23
575.49	44540.39
575.65	44390.60
575.82	44678.49
575.98	44233.78
576.14	44596.57
576.30	44872.75
576.46	44381.24
576.62	44432.73
576.79	44547.42
576.95	43828.87
577.11	44172.93
577.27	44739.34
577.43	44498.26
577.59	44535.71
577.75	44194.00
577.92	44383.58
578.08	44175.27
578.24	44720.62
578.40	44863.39
578.56	44711.25
578.72	44453.79
578.88	44619.97
579.04	44809.56
579.21	44638.70
579.37	44594.23
579.53	44219.74
579.69	44325.07
579.85	44727.64
580.01	44701.89
580.17	44954.67
580.33	44500.61
580.49	44711.25
580.65	44779.13
580.82	44776.79
580.98	44308.68
581.14	44390.60
581.30	45240.21
581.46	44919.56
581.62	44222.08
581.78	44472.52
581.94	44456.14
582.10	44533.37
582.26	44722.96
582.42	45151.27
582.58	44751.04
582.74	44952.33
582.90	44641.04
583.06	44797.85
583.22	44748.70
583.38	44835.30
583.54	44828.28
583.70	44692.53
583.86	44734.66
584.02	44430.39
584.18	44992.12
584.34	44685.51
584.50	44673.81
584.66	44481.88
584.82	44978.07
584.98	44924.24
585.14	45076.38
585.30	44739.34
585.46	44788.49
585.62	44961.69
585.78	45043.61
585.94	44395.28
586.10	44687.85
586.26	44418.69
586.42	44715.93
586.58	44952.33
586.74	45017.86
586.90	44774.45
587.06	44804.88
587.22	45034.25
587.38	44680.83
587.54	44802.53
587.70	45263.62
587.86	45237.87
588.02	44388.26
588.18	44694.87
588.34	44659.76
588.49	45052.97
588.65	44769.77
588.81	44978.07
588.97	44772.11
589.13	44666.78
589.29	44673.81
589.45	45151.27
589.61	44886.79
589.77	45242.56
589.93	45013.18
590.08	44776.79
590.24	45350.22
