SpectraSuite Data File
++++++++++++++++++++++++++++++++++++
Date: Fri Oct 25 11:23:09 EDT 2013
User: price-jones
Dark Spectrum Present: No
Reference Spectrum Present: No
Number of Sampled Component Spectra: 1
Spectrometers: USB2+H05261
Integration Time (usec): 100000 (USB2+H05261)
Spectra Averaged: 1 (USB2+H05261)
Boxcar Smoothing: 0 (USB2+H05261)
Correct for Electrical Dark: No (USB2+H05261)
Strobe/Lamp Enabled: No (USB2+H05261)
Correct for Detector Non-linearity: No (USB2+H05261)
Correct for Stray Light: No (USB2+H05261)
Number of Pixels in Processed Spectrum: 2048
>>>>>Begin Processed Spectral Data<<<<<
365.73	198.95
365.92	198.95
366.12	198.95
366.32	269.16
366.52	184.90
366.72	210.65
366.91	170.86
367.11	180.22
367.31	84.26
367.51	70.22
367.70	117.03
367.90	91.28
368.10	81.92
368.30	128.73
368.49	175.54
368.69	166.18
368.89	184.90
369.09	224.69
369.28	145.11
369.48	217.67
369.68	173.20
369.87	262.14
370.07	177.88
370.27	234.05
370.47	315.97
370.66	587.47
370.86	681.10
371.06	653.01
371.25	690.46
371.45	608.54
371.65	692.80
371.84	706.84
372.04	678.76
372.24	685.78
372.44	655.35
372.63	713.86
372.83	669.39
373.03	727.91
373.22	706.84
373.42	772.38
373.62	826.21
373.81	798.12
374.01	751.31
374.21	786.42
374.40	809.83
374.60	758.33
374.79	763.01
374.99	788.76
375.19	805.14
375.38	854.30
375.58	812.17
375.78	800.46
375.97	903.45
376.17	891.74
376.37	833.23
376.56	943.24
376.76	835.57
376.95	901.11
377.15	950.26
377.35	917.49
377.54	966.64
377.74	802.80
377.93	922.17
378.13	929.19
378.33	978.34
378.52	1013.45
378.72	938.55
378.91	903.45
379.11	945.58
379.31	966.64
379.50	999.41
379.70	1046.22
379.89	940.90
380.09	1015.79
380.28	978.34
380.48	1013.45
380.68	898.77
380.87	978.34
381.07	1025.15
381.26	1078.99
381.46	1015.79
381.65	950.26
381.85	1081.33
382.04	1018.13
382.24	1123.46
382.43	1027.50
382.63	1041.54
382.83	1128.14
383.02	1102.39
383.22	1020.47
383.41	1055.58
383.61	1074.31
383.80	1146.86
384.00	1116.44
384.19	1177.29
384.39	1130.48
384.58	1097.71
384.78	1191.33
384.97	1247.51
385.17	1090.69
385.36	1212.40
385.56	1165.59
385.75	1188.99
385.95	1207.72
386.14	1093.03
386.34	1233.46
386.53	1156.22
386.72	1231.12
386.92	1280.27
387.11	1214.74
387.31	1287.29
387.50	1186.65
387.70	1315.38
387.89	1287.29
388.09	1174.95
388.28	1406.66
388.48	1205.38
388.67	1221.76
388.86	1294.32
389.06	1357.51
389.25	1380.92
389.45	1366.87
389.64	1334.11
389.84	1343.47
390.03	1423.05
390.22	1313.04
390.42	1336.45
390.61	1352.83
390.81	1287.29
391.00	1404.32
391.19	1416.02
391.39	1486.24
391.58	1448.79
391.78	1519.01
391.97	1458.15
392.16	1334.11
392.36	1495.60
392.55	1547.09
392.75	1533.05
392.94	1554.12
393.13	1521.35
393.33	1537.73
393.52	1526.03
393.71	1643.06
393.91	1556.46
394.10	1561.14
394.29	1561.14
394.49	1514.33
394.68	1666.46
394.88	1682.85
395.07	1701.57
395.26	1647.74
395.46	1767.10
395.65	1666.46
395.84	1682.85
396.04	1844.34
396.23	1755.40
396.42	1671.14
396.62	1694.55
396.81	1746.04
397.00	1837.32
397.19	1823.28
397.39	1734.34
397.58	1898.17
397.77	1877.11
397.97	1874.77
398.16	1844.34
398.35	1942.64
398.55	1834.98
398.74	2003.50
398.93	1980.09
399.12	1944.99
399.32	1860.73
399.51	2012.86
399.70	1994.14
399.90	1914.56
400.09	2085.42
400.28	2122.87
400.47	2045.63
400.67	2064.35
400.86	2111.16
401.05	2071.37
401.24	2111.16
401.44	2190.74
401.63	2239.89
401.82	2153.29
402.01	2239.89
402.21	2181.38
402.40	2139.25
402.59	2230.53
402.78	2139.25
402.97	2218.83
403.17	2338.20
403.36	2260.96
403.55	2401.39
403.74	2363.94
403.93	2473.95
404.13	2321.81
404.32	2275.00
404.51	2335.85
404.70	2459.90
404.89	2319.47
405.09	2349.90
405.28	2478.63
405.47	2427.14
405.66	2478.63
405.85	2609.70
406.05	2619.06
406.24	2705.66
406.43	2637.78
406.62	2663.53
406.81	2579.27
407.00	2516.08
407.20	2698.64
407.39	2633.10
407.58	2682.25
407.77	2750.13
407.96	2736.09
408.15	2787.58
408.34	2679.91
408.54	2789.92
408.73	2780.56
408.92	2902.26
409.11	2925.67
409.30	2853.11
409.49	3012.27
409.68	3005.25
409.87	2958.44
410.07	3042.70
410.26	3009.93
410.45	3087.17
410.64	2965.46
410.83	2991.20
411.02	3063.76
411.21	3014.61
411.40	3169.09
411.59	3297.81
411.78	3262.71
411.98	3384.41
412.17	3365.69
412.36	3293.13
412.55	3620.81
412.74	3564.64
412.93	3459.31
413.12	3506.12
413.31	3534.21
413.50	3475.70
413.69	3459.31
413.88	3625.49
414.07	3492.08
414.26	3756.56
414.45	3765.92
414.64	3700.39
414.83	3798.69
415.02	3889.97
415.22	3946.14
415.41	3932.10
415.60	3845.50
415.79	3932.10
415.98	4039.76
416.17	4102.96
416.36	3999.98
416.55	3985.93
416.74	4191.90
416.93	4002.32
417.12	4283.18
417.31	4098.28
417.50	4187.22
417.69	4458.72
417.88	4400.21
418.07	4402.55
418.26	4358.08
418.45	4428.29
418.64	4512.55
418.83	4540.64
419.02	4369.78
419.21	4622.56
419.39	4617.88
419.58	4580.43
419.77	4421.27
419.96	4636.60
420.15	4573.41
420.34	4692.77
420.53	4620.22
420.72	4816.82
420.91	4809.80
421.10	4849.59
421.29	4884.70
421.48	4718.52
421.67	4770.01
421.86	4727.88
422.05	4784.06
422.24	4894.06
422.43	4915.12
422.61	4980.66
422.80	4905.76
422.99	5125.77
423.18	5025.13
423.37	5088.32
423.56	5090.67
423.75	4943.21
423.94	4908.10
424.13	4681.07
424.32	4777.03
424.50	5067.26
424.69	5329.40
424.88	5137.48
425.07	4868.31
425.26	4826.18
425.45	5088.32
425.64	4971.30
425.83	5029.81
426.01	5132.79
426.20	5170.24
426.39	5114.07
426.58	4954.91
426.77	5095.35
426.96	5238.12
427.15	5359.83
427.33	5411.32
427.52	5254.50
427.71	5462.81
427.90	5427.70
428.09	5336.42
428.28	5341.10
428.46	5432.38
428.65	5439.40
428.84	5420.68
429.03	5504.94
429.22	5605.58
429.40	5633.67
429.59	5638.35
429.78	5341.10
429.97	5359.83
430.16	5500.26
430.34	5626.65
430.53	5715.59
430.72	5790.49
430.91	5841.98
431.10	5748.36
431.28	5462.81
431.47	5757.72
431.66	5900.49
431.85	5804.53
432.03	5879.43
432.22	5860.70
432.41	5905.17
432.60	5928.58
432.79	6122.84
432.97	6090.07
433.16	6050.28
433.35	6183.70
433.54	6099.44
433.72	6186.04
433.91	6092.41
434.10	6216.46
434.28	6218.80
434.47	6312.42
434.66	6174.33
434.85	6274.98
435.03	6361.58
435.22	6359.24
435.41	6415.41
435.59	6420.09
435.78	6523.07
435.97	6459.88
436.16	6595.63
436.34	6511.37
436.53	6572.22
436.72	6789.89
436.90	6647.12
437.09	6743.08
437.28	6588.61
437.46	6768.83
437.65	6789.89
437.84	6799.26
438.02	6719.68
438.21	6815.64
438.40	6883.52
438.58	7112.89
438.77	7075.44
438.96	6972.46
439.14	7183.10
439.33	7215.87
439.52	7236.94
439.70	7304.81
439.89	7353.96
440.08	7424.18
440.26	7634.83
440.45	7459.29
440.63	7646.53
440.82	7503.76
441.01	7763.56
441.19	7569.29
441.38	7880.58
441.57	7836.11
441.75	7988.25
441.94	8166.13
442.12	7927.39
442.31	8215.28
442.50	8208.26
442.68	8119.32
442.87	8056.12
443.05	8163.79
443.24	8219.96
443.43	8198.90
443.61	8334.65
443.80	8456.36
443.98	8049.10
444.17	7920.37
444.35	8201.24
444.54	8531.25
444.73	8318.26
444.91	8500.83
445.10	8451.67
445.28	8479.76
445.47	8388.48
445.65	8547.64
445.84	8503.17
446.02	8594.45
446.21	8676.37
446.39	8318.26
446.58	8732.54
446.77	8688.07
446.95	8381.46
447.14	8468.06
447.32	8519.55
447.51	8482.10
447.69	8507.85
447.88	8636.58
448.06	8631.90
448.25	8561.68
448.43	8688.07
448.62	8634.24
448.80	8636.58
448.99	8828.50
449.17	8772.33
449.36	8769.99
449.54	8959.57
449.73	9174.90
449.91	9104.68
450.10	9092.98
450.28	9179.58
450.46	9188.94
450.65	9050.85
450.83	8924.46
451.02	8865.95
451.20	9303.63
451.39	9240.44
451.57	9270.86
451.76	9118.73
451.94	9135.11
452.13	9369.16
452.31	9411.29
452.49	9308.31
452.68	9474.49
452.86	9362.14
453.05	9284.91
453.23	9743.65
453.42	9493.21
453.60	9385.55
453.78	9708.54
453.97	9654.71
454.15	9533.00
454.34	9605.56
454.52	9774.08
454.70	9919.19
454.89	9790.46
455.07	9898.13
455.26	9898.13
455.44	9933.23
455.62	10209.42
455.81	10143.88
455.99	10183.67
456.17	10169.63
456.36	10183.67
456.54	10195.37
456.73	10298.36
456.91	10520.71
457.09	10431.77
457.28	10787.53
457.46	10338.15
457.64	10949.03
457.83	10583.90
458.01	10576.88
458.19	10944.34
458.38	10719.65
458.56	10761.78
458.74	10719.65
458.93	10714.97
459.11	10626.03
459.29	10846.04
459.48	10979.45
459.66	11089.46
459.84	10942.00
460.03	10986.47
460.21	11162.01
460.39	11030.94
460.57	11152.65
460.76	11243.93
460.94	11370.32
461.12	11206.48
461.31	11396.07
461.49	11232.23
461.67	11267.34
461.85	11412.45
462.04	11590.33
462.22	11548.20
462.40	11506.07
462.59	11543.52
462.77	11630.12
462.95	11800.98
463.13	11686.29
463.32	11896.94
463.50	11861.84
463.68	11882.90
463.86	11868.86
464.05	11669.91
464.23	11625.44
464.41	12049.08
464.59	11700.34
464.78	12301.86
464.96	12067.80
465.14	12016.31
465.32	12072.48
465.50	12306.54
465.69	12229.30
465.87	12215.26
466.05	12383.77
466.23	12224.62
466.41	12582.72
466.60	12603.78
466.78	12245.68
466.96	12386.12
467.14	12507.82
467.32	12397.82
467.51	12795.71
467.69	12297.17
467.87	12578.04
468.05	12659.96
468.23	12184.83
468.41	12617.83
468.60	12854.22
468.78	12964.23
468.96	12744.22
469.14	12961.89
469.32	13277.86
469.50	12692.73
469.69	13018.06
469.87	13193.60
470.05	13448.72
470.23	13149.13
470.41	13357.44
470.59	13415.95
470.77	13221.69
470.95	13722.56
471.14	13509.57
471.32	13137.43
471.50	13666.39
471.68	14136.84
471.86	13771.71
472.04	14052.58
472.22	14120.45
472.40	13919.17
472.58	13965.98
472.77	14277.27
472.95	14359.19
473.13	14754.74
473.31	14047.90
473.49	14389.61
473.67	14237.48
473.85	14485.58
474.03	14799.21
474.21	14759.42
474.39	14949.00
474.57	14925.60
474.75	14981.77
474.93	15269.66
475.12	15126.88
475.30	15459.24
475.48	15190.08
475.66	15330.51
475.84	15241.57
476.02	15733.08
476.20	15346.89
476.38	15875.85
476.56	16056.08
476.74	16248.00
476.92	16107.57
477.10	16056.08
477.28	16233.96
477.46	16386.09
477.64	16252.68
477.82	16313.53
478.00	17111.66
478.18	16769.94
478.36	17212.30
478.54	17413.59
478.72	17249.75
478.90	17631.26
479.08	17806.80
479.26	17958.93
479.44	17884.03
479.62	18162.56
479.80	18258.52
479.98	18511.30
480.16	18766.42
480.34	18523.00
480.52	18848.33
480.70	18899.83
480.88	18551.09
481.06	19044.94
481.24	19243.88
481.41	19339.85
481.59	19777.53
481.77	19889.87
481.95	19770.51
482.13	19829.02
482.31	20039.67
482.49	20397.77
482.67	20697.36
482.85	20620.12
483.03	21048.44
483.21	21427.60
483.39	21249.72
483.57	21186.53
483.74	21291.85
483.92	21713.15
484.10	21343.35
484.28	21867.63
484.46	22412.97
484.64	22562.76
484.82	22338.07
485.00	22534.68
485.18	22785.12
485.35	23417.06
485.53	23370.25
485.71	23208.75
485.89	23644.09
486.07	23634.73
486.25	23875.80
486.43	23840.70
486.61	23985.81
486.78	24098.16
486.96	24790.95
487.14	24386.04
487.32	24978.20
487.50	25057.78
487.68	25546.95
487.85	25551.63
488.03	25961.22
488.21	26153.15
488.39	25610.14
488.57	26408.26
488.75	26635.30
488.92	26551.04
489.10	27089.36
489.28	26864.67
489.46	27571.51
489.64	27105.74
489.81	27992.81
489.99	27744.71
490.17	28135.58
490.35	28676.24
490.53	28100.47
490.70	29062.43
490.88	28119.20
491.06	29043.71
491.24	29193.50
491.41	29563.31
491.59	29656.93
491.77	29441.60
491.95	30188.23
492.13	30150.78
492.30	30548.67
492.48	30527.61
492.66	30305.26
492.84	30628.25
493.01	30941.88
493.19	31136.15
493.37	31419.35
493.54	31707.24
493.72	32252.58
493.90	31948.31
494.08	32161.30
494.25	32123.85
494.43	32266.63
494.61	32669.20
494.79	32594.30
494.96	32910.27
495.14	33177.09
495.32	33397.10
495.49	33544.56
495.67	33387.74
495.85	33935.43
496.02	33907.34
496.20	34356.72
496.38	34740.57
496.55	34185.86
496.73	34962.92
496.91	34717.17
497.09	34974.63
497.26	35435.71
497.44	35501.25
497.62	35594.87
497.79	35842.96
497.97	36037.23
498.14	36395.33
498.32	36823.65
498.50	36430.44
498.67	36854.08
498.85	36617.68
499.03	37024.93
499.20	37244.94
499.38	37303.46
499.56	37736.46
499.73	37865.19
499.91	37617.09
500.08	37902.64
500.26	37785.61
500.44	38174.14
500.61	38120.31
500.79	38078.18
500.97	38667.99
501.14	39091.63
501.32	39023.75
501.49	38705.44
501.67	39093.97
501.84	39847.62
502.02	39487.18
502.20	39627.61
502.37	39739.96
502.55	39856.98
502.72	39636.97
502.90	40098.06
503.07	40072.31
503.25	40254.87
503.43	40287.64
503.60	40526.38
503.78	40715.96
503.95	41034.27
504.13	41289.39
504.30	41378.33
504.48	41010.87
504.65	41244.92
504.83	41680.26
505.01	41628.77
505.18	41787.92
505.36	42000.91
505.53	41682.60
505.71	41813.67
505.88	42206.88
506.06	41935.38
506.23	42520.51
506.41	42396.46
506.58	42389.44
506.76	42742.86
506.93	42906.70
507.11	42717.12
507.28	43159.48
507.46	42909.04
507.63	43250.76
507.81	43428.64
507.98	43323.32
508.16	44296.98
508.33	43732.91
508.50	43761.00
508.68	44039.52
508.85	44409.32
509.03	44472.52
509.20	44734.66
509.38	44875.09
509.55	45001.48
509.73	44781.47
509.90	45240.21
510.08	45141.91
510.25	45202.77
510.42	45478.95
510.60	45059.99
510.77	45312.77
510.95	46099.19
511.12	45322.13
511.30	45839.39
511.47	45820.67
511.64	46375.37
511.82	46169.41
511.99	46281.75
512.17	46309.84
512.34	46101.53
512.51	46747.52
512.69	46784.97
512.86	46838.80
513.04	47131.37
513.21	47098.60
513.38	47292.86
513.56	47248.39
513.73	46897.31
513.90	47346.70
514.08	47208.61
514.25	47800.76
514.43	48100.35
514.60	47693.10
514.77	47896.72
514.95	47906.08
515.12	48142.48
515.29	48142.48
515.47	48268.87
515.64	48509.94
515.81	48484.20
515.99	48839.96
516.16	48701.87
516.33	48690.16
516.51	49233.17
516.68	48725.27
516.85	49027.20
517.03	49394.67
517.20	49434.45
517.37	49298.70
517.54	49392.33
517.72	49542.12
517.89	49116.14
518.06	50092.15
518.24	49577.23
518.41	49853.41
518.58	49890.86
518.75	49698.94
518.93	49930.65
519.10	49949.37
519.27	50073.42
519.45	50101.51
519.62	50157.68
519.79	50300.45
519.96	50363.65
520.14	50539.19
520.31	50602.38
520.48	50932.40
520.65	50593.02
520.83	51150.07
521.00	51299.86
521.17	50892.61
521.34	50901.97
521.52	51269.43
521.69	51138.36
521.86	51416.89
522.03	51297.52
522.20	51470.72
522.38	51842.87
522.55	51618.17
522.72	51821.80
522.89	51735.20
523.07	51866.27
523.24	51796.06
523.41	51777.33
523.58	51866.27
523.75	52205.65
523.92	52165.86
524.10	52451.41
524.27	52399.91
524.44	52189.27
524.61	52397.57
524.78	52678.44
524.96	52479.49
525.13	52643.33
525.30	52896.11
525.47	52732.27
525.64	52856.32
525.81	53158.25
525.98	52971.00
526.16	53090.37
526.33	52839.93
526.50	53366.55
526.67	53127.82
526.84	53139.52
527.01	53251.87
527.18	53315.06
527.36	53127.82
527.53	53528.05
527.70	53717.64
527.87	53748.06
528.04	53392.30
528.21	53827.64
528.38	53666.14
528.55	54024.25
528.72	53822.96
528.89	53876.79
529.07	53570.18
529.24	53923.60
529.41	54127.23
529.58	53944.67
529.75	53888.49
529.92	54314.47
530.09	54150.63
530.26	53928.28
530.43	54220.85
530.60	54068.72
530.77	54209.15
530.94	54433.84
531.11	54155.32
531.28	54653.85
531.46	54726.41
531.63	54693.64
531.80	54623.42
531.97	54756.83
532.14	54899.61
532.31	54738.11
532.48	55009.61
532.65	54944.08
532.82	54663.21
532.99	54836.41
533.16	55037.70
533.33	55187.49
533.50	55278.77
533.67	55391.12
533.84	55168.77
534.01	55451.97
534.18	55304.52
534.35	55517.51
534.52	55241.32
534.69	55501.12
534.86	55674.32
535.03	55381.76
535.20	55592.40
535.37	55702.41
535.54	55643.90
535.71	55657.94
535.88	55676.66
536.05	55494.10
536.22	55936.46
536.38	55772.63
536.55	55964.55
536.72	56069.87
536.89	55887.31
537.06	55945.83
537.23	56095.62
537.40	55704.75
537.57	55969.23
537.74	56116.68
537.91	56086.26
538.08	56261.80
538.25	56058.17
538.42	56273.50
538.59	56275.84
538.75	56156.47
538.92	56348.40
539.09	56395.21
539.26	56360.10
539.43	56343.72
539.60	56306.27
539.77	56376.48
539.94	56687.78
540.11	56523.94
540.28	56619.90
540.44	56676.07
540.61	56739.27
540.78	56720.54
540.95	56807.14
541.12	56804.80
541.29	56636.28
541.46	56947.57
541.62	57006.09
541.79	56844.59
541.96	56470.11
542.13	56945.23
542.30	57083.33
542.47	57272.91
542.63	57144.18
542.80	57202.69
542.97	57375.89
543.14	57399.30
543.31	57436.75
543.48	57757.40
543.64	57886.13
543.81	57605.26
543.98	57549.09
544.15	57612.29
544.32	57907.19
544.48	57797.19
544.65	57733.99
544.82	57797.19
544.99	57530.37
545.16	57649.74
545.32	57872.09
545.49	57797.19
545.66	57902.51
545.83	58061.67
546.00	58136.57
546.16	57979.75
546.33	57825.28
546.50	57682.50
546.67	57935.28
546.83	57652.08
547.00	58145.93
547.17	58157.63
547.34	58211.46
547.50	58265.30
547.67	58148.27
547.84	58223.17
548.00	58487.65
548.17	58330.83
548.34	58468.92
548.51	58497.01
548.67	58590.63
548.84	58518.07
549.01	58316.79
549.18	58330.83
549.34	58501.69
549.51	58677.23
549.68	58454.88
549.84	58487.65
550.01	58815.32
550.18	58646.80
550.34	58777.87
550.51	58812.98
550.68	58817.66
550.84	58408.07
551.01	58815.32
551.18	58773.19
551.34	58766.17
551.51	58745.11
551.68	58981.50
551.84	58756.81
552.01	58920.65
552.18	59093.85
552.34	58775.53
552.51	59145.34
552.68	58894.90
552.84	58967.46
553.01	59206.19
553.18	59079.80
553.34	59135.98
553.51	59093.85
553.67	58941.71
553.84	59231.94
554.01	59255.34
554.17	59363.01
554.34	59281.09
554.51	59126.61
554.67	59316.20
554.84	59367.69
555.00	59391.09
555.17	59297.47
555.33	59348.96
555.50	59236.62
555.67	59405.14
555.83	59416.84
556.00	59430.88
556.16	59751.54
556.33	59728.13
556.50	59360.67
556.66	59753.88
556.83	59463.65
556.99	59938.78
557.16	59751.54
557.32	59873.24
557.49	59875.58
557.65	59468.33
557.82	59592.38
557.98	59662.60
558.15	59760.90
558.32	59774.94
558.48	59470.67
558.65	59796.01
558.81	59840.48
558.98	59894.31
559.14	59962.18
559.31	59847.50
559.47	59959.84
559.64	59924.74
559.80	59840.48
559.97	60114.32
560.13	59819.41
560.30	59941.12
560.46	59962.18
560.63	59908.35
560.79	59948.14
560.96	60268.79
561.12	60123.68
561.29	60060.49
561.45	60027.72
561.61	60179.85
561.78	60048.78
561.94	60315.61
562.11	60193.90
562.27	60214.96
562.44	60308.58
562.60	60203.26
562.77	60238.37
562.93	60154.11
563.10	60378.80
563.26	59941.12
563.42	60491.15
563.59	60303.90
563.75	60282.84
563.92	60226.66
564.08	60142.41
564.24	60339.01
564.41	60313.26
564.57	60285.18
564.74	60584.77
564.90	60477.10
565.07	60385.82
565.23	60343.69
565.39	60477.10
565.56	60580.09
565.72	60423.27
565.88	60477.10
566.05	60397.52
566.21	60472.42
566.38	60374.12
566.54	60715.84
566.70	60692.43
566.87	60685.41
567.03	60486.46
567.19	60711.16
567.36	60584.77
567.52	60526.25
567.68	60750.94
567.85	60605.83
568.01	60657.32
568.17	60540.30
568.34	60596.47
568.50	60416.25
568.66	60673.71
568.83	60666.69
568.99	60584.77
569.15	60554.34
569.32	60537.96
569.48	60575.40
569.64	60851.59
569.81	60568.38
569.97	60640.94
570.13	60795.42
570.30	60563.70
570.46	60650.30
570.62	60893.72
570.78	60762.65
570.95	60907.76
571.11	60856.27
571.27	60839.89
571.43	60788.39
571.60	60947.55
571.76	61116.07
571.92	60783.71
572.09	60858.61
572.25	60732.22
572.41	60814.14
572.57	60650.30
572.74	61052.87
572.90	60788.39
573.06	60867.97
573.22	60830.52
573.38	60917.12
573.55	60846.91
573.71	61200.33
573.87	60917.12
574.03	60645.62
574.20	61132.45
574.36	60910.10
574.52	60919.46
574.68	61109.05
574.84	60999.04
575.01	61069.26
575.17	60980.32
575.33	61057.56
575.49	61085.64
575.65	61116.07
575.82	61137.13
575.98	61001.38
576.14	61130.11
576.30	61104.37
576.46	61181.60
576.62	60935.85
576.79	60933.51
576.95	60832.86
577.11	61076.28
577.27	60987.34
577.43	61078.62
577.59	60959.25
577.75	61090.32
577.92	60858.61
578.08	61073.94
578.24	61134.79
578.40	61226.07
578.56	61418.00
578.72	61076.28
578.88	61090.32
579.04	61179.26
579.21	61020.11
579.37	61333.74
579.53	61312.67
579.69	61066.92
579.85	60928.83
580.01	61125.43
580.17	60956.91
580.33	61169.90
580.49	61268.20
580.65	61305.65
580.82	61118.41
580.98	61160.54
581.14	61092.66
581.30	61329.06
581.46	61090.32
581.62	61167.56
581.78	61265.86
581.94	61392.25
582.10	61132.45
582.26	61137.13
582.42	61193.31
582.58	60933.51
582.74	61174.58
582.90	61085.64
583.06	60940.53
583.22	60949.89
583.38	61193.31
583.54	61286.93
583.70	61357.14
583.86	61200.33
584.02	61097.34
584.18	61317.35
584.34	61343.10
584.50	61120.75
584.66	61251.82
584.82	61144.16
584.98	61247.14
585.14	61247.14
585.30	61052.87
585.46	61319.70
585.62	61123.09
585.78	61361.82
585.94	61052.87
586.10	61436.72
586.26	61312.67
586.42	61551.41
586.58	61338.42
586.74	61455.45
586.90	61254.16
587.06	61357.14
587.22	61446.08
587.38	61137.13
587.54	61418.00
587.70	61474.17
587.86	61408.64
588.02	61141.81
588.18	61567.79
588.34	61373.53
588.49	61270.54
