SpectraSuite Data File
++++++++++++++++++++++++++++++++++++
Date: Fri Oct 25 10:43:55 EDT 2013
User: price-jones
Dark Spectrum Present: No
Reference Spectrum Present: No
Number of Sampled Component Spectra: 1
Spectrometers: USB2+H05261
Integration Time (usec): 100000 (USB2+H05261)
Spectra Averaged: 1 (USB2+H05261)
Boxcar Smoothing: 0 (USB2+H05261)
Correct for Electrical Dark: No (USB2+H05261)
Strobe/Lamp Enabled: No (USB2+H05261)
Correct for Detector Non-linearity: No (USB2+H05261)
Correct for Stray Light: No (USB2+H05261)
Number of Pixels in Processed Spectrum: 2048
>>>>>Begin Processed Spectral Data<<<<<
365.73	170.86
365.92	170.86
366.12	170.86
366.32	70.22
366.52	63.19
366.72	21.06
366.91	53.83
367.11	25.75
367.31	7.02
367.51	18.72
367.70	30.43
367.90	53.83
368.10	84.26
368.30	0.00
368.49	58.51
368.69	7.02
368.89	23.41
369.09	7.02
369.28	0.00
369.48	70.22
369.68	77.24
369.87	63.19
370.07	166.18
370.27	133.41
370.47	191.92
370.66	355.76
370.86	425.98
371.06	404.91
371.25	528.96
371.45	423.64
371.65	545.34
371.84	440.02
372.04	458.74
372.24	411.93
372.44	543.00
372.63	559.39
372.83	514.92
373.03	470.45
373.22	521.94
373.42	512.58
373.62	535.98
373.81	620.24
374.01	610.88
374.21	578.11
374.40	603.86
374.60	653.01
374.79	610.88
374.99	559.39
375.19	550.03
375.38	667.05
375.58	589.82
375.78	615.56
375.97	547.69
376.17	650.67
376.37	615.56
376.56	573.43
376.76	585.13
376.95	699.82
377.15	671.73
377.35	690.46
377.54	678.76
377.74	723.23
377.93	606.20
378.13	629.60
378.33	645.99
378.52	638.97
378.72	695.14
378.91	648.33
379.11	648.33
379.31	662.37
379.50	681.10
379.70	608.54
379.89	667.05
380.09	648.33
380.28	671.73
380.48	657.69
380.68	730.25
380.87	758.33
381.07	653.01
381.26	620.24
381.46	770.04
381.65	763.01
381.85	692.80
382.04	716.20
382.24	791.10
382.43	615.56
382.63	690.46
382.83	730.25
383.02	746.63
383.22	795.78
383.41	772.38
383.61	800.46
383.80	730.25
384.00	793.44
384.19	793.44
384.39	896.43
384.58	781.74
384.78	844.93
384.97	842.59
385.17	760.67
385.36	788.76
385.56	828.55
385.75	767.70
385.95	858.98
386.14	903.45
386.34	823.87
386.53	802.80
386.72	849.61
386.92	950.26
387.11	908.13
387.31	891.74
387.50	863.66
387.70	847.27
387.89	889.40
388.09	910.47
388.28	849.61
388.48	833.23
388.67	950.26
388.86	891.74
389.06	973.66
389.25	922.17
389.45	1064.94
389.64	1057.92
389.84	987.71
390.03	961.96
390.22	994.73
390.42	1001.75
390.61	1034.52
390.81	1102.39
391.00	1158.57
391.19	1090.69
391.39	1121.12
391.58	1081.33
391.78	1132.82
391.97	1067.28
392.16	1102.39
392.36	1050.90
392.55	1076.65
392.75	1048.56
392.94	1034.52
393.13	971.32
393.33	950.26
393.52	1100.05
393.71	1144.52
393.91	1067.28
394.10	1053.24
394.29	1153.88
394.49	1203.04
394.68	1261.55
394.88	1242.82
395.07	1266.23
395.26	1268.57
395.46	1247.51
395.65	1282.61
395.84	1357.51
396.04	1369.21
396.23	1287.29
396.42	1196.01
396.62	1224.10
396.81	1275.59
397.00	1252.19
397.19	1205.38
397.39	1301.34
397.58	1383.26
397.77	1467.52
397.97	1497.94
398.16	1488.58
398.35	1535.39
398.55	1516.67
398.74	1556.46
398.93	1589.22
399.12	1577.52
399.32	1535.39
399.51	1533.05
399.70	1579.86
399.90	1614.97
400.09	1610.29
400.28	1727.32
400.47	1717.95
400.67	1607.95
400.86	1729.66
401.05	1834.98
401.24	1708.59
401.44	1783.49
401.63	1720.29
401.82	1732.00
402.01	1668.80
402.21	1886.47
402.40	1832.64
402.59	1776.47
402.78	1877.11
402.97	1891.15
403.17	1858.39
403.36	1973.07
403.55	1872.43
403.74	1926.26
403.93	1898.17
404.13	1905.20
404.32	2036.27
404.51	1881.79
404.70	1963.71
404.89	2050.31
405.09	2073.71
405.28	2050.31
405.47	2010.52
405.66	2153.29
405.85	1984.77
406.05	2038.61
406.24	2062.01
406.43	2104.14
406.62	2263.30
406.81	2324.15
407.00	2129.89
407.20	2162.66
407.39	2188.40
407.58	2303.09
407.77	2169.68
407.96	2307.77
408.15	2289.04
408.34	2272.66
408.54	2429.48
408.73	2333.51
408.92	2338.20
409.11	2413.09
409.30	2445.86
409.49	2396.71
409.68	2347.56
409.87	2300.75
410.07	2520.76
410.26	2424.80
410.45	2595.65
410.64	2518.42
410.83	2492.67
411.02	2597.99
411.21	2661.19
411.40	2686.94
411.59	2649.49
411.78	2663.53
411.98	2780.56
412.17	2754.81
412.36	2738.43
412.55	2745.45
412.74	2843.75
412.93	2942.05
413.12	2895.24
413.31	3049.72
413.50	2967.80
413.69	3150.36
413.88	3012.27
414.07	3133.98
414.26	3028.65
414.45	3103.55
414.64	3052.06
414.83	3286.11
415.02	3098.87
415.22	3297.81
415.41	3304.84
415.60	3206.53
415.79	3330.58
415.98	3426.54
416.17	3499.10
416.36	3396.12
416.55	3379.73
416.74	3412.50
416.93	3330.58
417.12	3377.39
417.31	3606.77
417.50	3471.01
417.69	3716.77
417.88	3611.45
418.07	3552.93
418.26	3552.93
418.45	3686.34
418.64	3765.92
418.83	3634.85
419.02	3555.27
419.21	3740.18
419.39	3751.88
419.58	3744.86
419.77	3468.67
419.96	3712.09
420.15	3777.62
420.34	3911.04
420.53	3880.61
420.72	4065.51
420.91	3936.78
421.10	4004.66
421.29	4016.36
421.48	3976.57
421.67	3985.93
421.86	4086.58
422.05	3978.91
422.24	3922.74
422.43	4030.40
422.61	3964.87
422.80	4007.00
422.99	4007.00
423.18	4091.26
423.37	4320.63
423.56	4079.55
423.75	4042.11
423.94	4124.02
424.13	3824.44
424.32	3964.87
424.50	4107.64
424.69	4215.30
424.88	4107.64
425.07	4173.18
425.26	4039.76
425.45	4102.96
425.64	4011.68
425.83	4109.98
426.01	4156.79
426.20	4138.07
426.39	4208.28
426.58	4032.74
426.77	4131.05
426.96	4117.00
427.15	4063.17
427.33	4100.62
427.52	4322.97
427.71	4285.52
427.90	4290.20
428.09	4390.84
428.28	4320.63
428.46	4374.46
428.65	4257.43
428.84	4491.49
429.03	4552.34
429.22	4231.69
429.40	4386.16
429.59	4224.67
429.78	4166.15
429.97	4004.66
430.16	4112.32
430.34	4210.62
430.53	4400.21
430.72	4252.75
430.91	4390.84
431.10	4442.34
431.28	4758.31
431.47	4947.89
431.66	4868.31
431.85	4798.10
432.03	4786.40
432.22	4896.40
432.41	4807.46
432.60	4910.44
432.79	4908.10
432.97	4978.32
433.16	5046.20
433.35	4880.02
433.54	4851.93
433.72	4833.21
433.91	4823.84
434.10	4964.28
434.28	5055.56
434.47	5071.94
434.66	5128.11
434.85	5174.92
435.03	5132.79
435.22	5062.58
435.41	5413.66
435.59	5261.52
435.78	5172.58
435.97	5352.81
436.16	5315.36
436.34	5488.56
436.53	5535.37
436.72	5472.17
436.90	5242.80
437.09	5345.78
437.28	5277.91
437.46	5364.51
437.65	5383.23
437.84	5528.35
438.02	5160.88
438.21	5280.25
438.40	5383.23
438.58	5561.11
438.77	5570.48
438.96	5526.00
439.14	5760.06
439.33	5851.34
439.52	6073.69
439.70	5935.60
439.89	5994.11
440.08	5870.06
440.26	5757.72
440.45	5916.87
440.63	6143.91
440.82	6342.85
441.01	6221.14
441.19	6333.49
441.38	6286.68
441.57	6317.11
441.75	6443.49
441.94	6429.45
442.12	6389.66
442.31	6537.12
442.50	6719.68
442.68	6614.35
442.87	6534.78
443.05	6757.13
443.24	6724.36
443.43	6705.63
443.61	6726.70
443.80	6841.39
443.98	6752.45
444.17	6633.08
444.35	6736.06
444.54	6834.36
444.73	6761.81
444.91	6738.40
445.10	6656.48
445.28	6710.32
445.47	6569.88
445.65	6614.35
445.84	6703.29
446.02	6745.42
446.21	6932.67
446.39	6726.70
446.58	7014.59
446.77	7021.61
446.95	6729.04
447.14	7150.34
447.32	7215.87
447.51	6960.75
447.69	6988.84
447.88	7030.97
448.06	6998.20
448.25	6757.13
448.43	7066.08
448.62	7138.63
448.80	7073.10
448.99	7087.14
449.17	7206.51
449.36	6965.43
449.54	7227.57
449.73	7445.24
449.91	7599.72
450.10	7478.01
450.28	7414.82
450.46	7585.68
450.65	7414.82
450.83	7637.17
451.02	7503.76
451.20	7592.70
451.39	7611.42
451.57	7499.08
451.76	7419.50
451.94	7604.40
452.13	7581.00
452.31	7419.50
452.49	7192.47
452.68	7581.00
452.86	7433.54
453.05	7543.55
453.23	7616.10
453.42	7655.89
453.60	7559.93
453.78	7564.61
453.97	7751.85
454.15	7789.30
454.34	7733.13
454.52	7634.83
454.70	7826.75
454.89	7840.79
455.07	7808.03
455.26	8049.10
455.44	8088.89
455.62	8088.89
455.81	8280.82
455.99	8161.45
456.17	8023.36
456.36	8285.50
456.54	8224.64
456.73	8238.69
456.91	8390.82
457.09	8589.77
457.28	8552.32
457.46	8435.29
457.64	8397.84
457.83	8542.96
458.01	8334.65
458.19	8472.74
458.38	8498.49
458.56	8730.20
458.74	8655.30
458.93	8390.82
459.11	8444.65
459.29	8477.42
459.48	8718.50
459.66	8755.94
459.84	8879.99
460.03	9048.51
460.21	8884.67
460.39	8933.82
460.57	8711.47
460.76	8938.51
460.94	8954.89
461.12	9027.45
461.31	9029.79
461.49	8816.80
461.67	9050.85
461.85	9474.49
462.04	9025.11
462.22	9518.96
462.40	9231.07
462.59	9254.48
462.77	9247.46
462.95	9364.48
463.13	9291.93
463.32	9392.57
463.50	9224.05
463.68	9635.99
463.86	9411.29
464.05	9210.01
464.23	9495.55
464.41	9413.63
464.59	9135.11
464.78	9626.62
464.96	9504.92
465.14	9266.18
465.32	9696.84
465.50	9544.70
465.69	9678.12
465.87	9678.12
466.05	9589.17
466.23	9603.22
466.41	9818.55
466.60	9940.26
466.78	9614.92
466.96	9476.83
467.14	9673.43
467.32	9696.84
467.51	9970.68
467.69	9572.79
467.87	9717.90
468.05	9811.53
468.23	9879.40
468.41	9727.27
468.60	9853.66
468.78	9851.31
468.96	9884.08
469.14	9919.19
469.32	10246.87
469.50	9881.74
469.69	10078.35
469.87	10139.20
470.05	10169.63
470.23	10134.52
470.41	10242.18
470.59	10377.94
470.77	10195.37
470.95	10225.80
471.14	10721.99
471.32	10305.38
471.50	10478.58
471.68	10532.41
471.86	10965.41
472.04	10923.28
472.22	10869.45
472.40	10682.20
472.58	10832.00
472.77	10626.03
472.95	10967.75
473.13	11176.06
473.31	11063.71
473.49	10988.82
473.67	10988.82
473.85	10988.82
474.03	11311.81
474.21	11433.52
474.39	11655.87
474.57	11470.97
474.75	11637.14
474.93	11707.36
475.12	11517.78
475.30	11564.59
475.48	11520.12
475.66	11651.19
475.84	11723.74
476.02	12025.67
476.20	12011.63
476.38	12322.92
476.56	12236.32
476.74	12147.38
476.92	12121.63
477.10	12315.90
477.28	12566.34
477.46	12552.29
477.64	12688.04
477.82	12943.16
478.00	13022.74
478.18	12851.88
478.36	12973.59
478.54	13348.08
478.72	13568.09
478.90	13399.57
479.08	13474.46
479.26	13745.97
479.44	13523.62
479.62	13767.03
479.80	13757.67
479.98	13916.83
480.16	14242.16
480.34	13865.33
480.52	14249.18
480.70	14181.31
480.88	14127.47
481.06	14497.28
481.24	14569.83
481.41	14951.34
481.59	14871.76
481.77	14759.42
481.95	15208.80
482.13	14888.15
482.31	15297.74
482.49	15426.47
482.67	15534.14
482.85	15594.99
483.03	15747.12
483.21	15807.98
483.39	16013.95
483.57	15992.88
483.74	15957.77
483.92	16257.36
484.10	15932.03
484.28	16390.77
484.46	17111.66
484.64	17001.65
484.82	16547.59
485.00	16779.30
485.18	16996.97
485.35	16903.35
485.53	16395.45
485.71	16901.01
485.89	16723.13
486.07	16793.34
486.25	17139.74
486.43	17373.80
486.61	17432.31
486.78	17790.41
486.96	18071.28
487.14	18073.62
487.32	18466.83
487.50	18534.70
487.68	18909.19
487.85	19143.24
488.03	19150.26
488.21	19381.98
488.39	19023.87
488.57	19248.57
488.75	19494.32
488.92	20051.37
489.10	20112.22
489.28	20161.37
489.46	20498.41
489.64	20587.35
489.81	20926.73
489.99	20790.98
490.17	20950.14
490.35	21223.98
490.53	21259.09
490.70	21359.73
490.88	21242.70
491.06	21748.26
491.24	21696.77
491.41	21469.73
491.59	21694.43
491.77	21303.56
491.95	21546.97
492.13	22199.98
492.30	22443.40
492.48	22740.64
492.66	22970.02
492.84	23084.70
493.01	22682.13
493.19	22698.52
493.37	22838.95
493.54	23068.32
493.72	22965.34
493.90	23679.20
494.08	23592.60
494.25	24079.43
494.43	24144.97
494.61	24002.19
494.79	24271.36
494.96	24460.94
495.14	24533.50
495.32	24690.31
495.49	24671.59
495.67	24559.24
495.85	24812.02
496.02	25006.28
496.20	25233.32
496.38	25516.52
496.55	25443.96
496.73	26024.42
496.91	25645.25
497.09	25745.89
497.26	26029.10
497.44	26108.68
497.62	26267.83
497.79	26214.00
497.97	25825.47
498.14	26335.71
498.32	26305.28
498.50	26562.74
498.67	26892.76
498.85	26986.38
499.03	27000.42
499.20	27227.45
499.38	27112.77
499.56	27433.42
499.73	27164.26
499.91	27683.86
500.08	27470.87
500.26	26883.39
500.44	27321.07
500.61	27346.82
500.79	27431.08
500.97	27559.81
501.14	28051.32
501.32	27894.50
501.49	27985.79
501.67	28048.98
501.84	28430.49
502.02	28348.57
502.20	28622.41
502.37	28772.21
502.55	28835.40
502.72	29235.63
502.90	28947.75
503.07	28795.61
503.25	29130.31
503.43	28725.39
503.60	28875.19
503.78	28879.87
503.95	29057.75
504.13	29603.10
504.30	29495.43
504.48	29631.18
504.65	29582.03
504.83	29804.38
505.01	29778.64
505.18	30099.29
505.36	30899.75
505.53	30293.55
505.71	30773.36
505.88	30764.00
506.06	30281.85
506.23	30658.68
506.41	30515.90
506.58	30965.29
506.76	30642.29
506.93	31206.36
507.11	31262.54
507.28	30780.39
507.46	31182.96
507.63	30684.42
507.81	30998.06
507.98	31002.74
508.16	31487.23
508.33	31283.60
508.50	31611.28
508.68	32119.17
508.85	32151.94
509.03	32119.17
509.20	32114.49
509.38	32163.64
509.55	32465.57
509.73	31842.99
509.90	32147.26
510.08	32367.27
510.25	32657.49
510.42	32383.65
510.60	32964.10
510.77	33003.89
510.95	33156.03
511.12	33008.58
511.30	33036.66
511.47	33289.44
511.64	33453.28
511.82	33460.30
511.99	33436.89
512.17	33663.93
512.34	33214.54
512.51	33481.36
512.69	33947.13
512.86	33827.76
513.04	33708.40
513.21	33837.12
513.38	34012.66
513.56	33956.49
513.73	33481.36
513.90	33846.49
514.08	34115.65
514.25	34087.56
514.43	34368.43
514.60	34614.18
514.77	34618.86
514.95	34607.16
515.12	34785.04
515.29	34632.91
515.47	34857.60
515.64	34719.51
515.81	34902.07
515.99	34991.01
516.16	34319.28
516.33	34387.15
516.51	34782.70
516.68	34263.10
516.85	33984.58
517.03	34361.40
517.20	34913.77
517.37	35178.25
517.54	35276.55
517.72	35306.98
517.89	34794.40
518.06	34946.54
518.24	35278.89
518.41	34651.63
518.58	35770.41
518.75	35318.68
518.93	35955.31
519.10	35569.12
519.27	36187.02
519.45	35622.95
519.62	36226.81
519.79	36322.77
519.96	36425.76
520.14	36751.09
520.31	35981.06
520.48	36114.47
520.65	36636.41
520.83	36514.70
521.00	36840.03
521.17	36891.52
521.34	36989.83
521.52	36858.76
521.69	37397.08
521.86	37724.75
522.03	37624.11
522.20	37022.59
522.38	37165.37
522.55	37773.91
522.72	37464.96
522.89	37060.04
523.07	37804.33
523.24	37603.05
523.41	38061.79
523.58	37544.53
523.75	38455.00
523.92	38242.01
524.10	38251.38
524.27	38438.62
524.44	38543.94
524.61	38197.54
524.78	38387.13
524.96	38785.02
525.13	38986.30
525.30	38745.23
525.47	38983.96
525.64	38253.72
525.81	38876.30
525.98	38506.49
526.16	38251.38
526.33	37965.83
526.50	38412.87
526.67	37785.61
526.84	38064.13
527.01	38464.36
527.18	38710.12
527.36	39402.92
527.53	39042.48
527.70	39431.01
527.87	39393.56
528.04	39442.71
528.21	39590.16
528.38	39313.98
528.55	39826.56
528.72	40041.88
528.89	40060.61
529.07	40182.32
529.24	39440.37
529.41	40198.70
529.58	39899.11
529.75	39847.62
529.92	39915.50
530.09	40032.52
530.26	40191.68
530.43	40690.21
530.60	40257.21
530.77	40491.27
530.94	40414.03
531.11	40325.09
531.28	40638.72
531.46	40435.10
531.63	40435.10
531.80	40713.62
531.97	40411.69
532.14	40439.78
532.31	40409.35
532.48	40175.30
532.65	40800.22
532.82	40430.41
532.99	41050.66
533.16	40748.73
533.33	40893.84
533.50	41593.66
533.67	41198.11
533.84	40804.90
534.01	40863.41
534.18	40884.48
534.35	41464.93
534.52	41186.41
534.69	41312.80
534.86	41310.46
535.03	41596.00
535.20	42274.76
535.37	41797.29
535.54	42422.21
535.71	41918.99
535.88	41666.22
536.05	41521.10
536.22	41876.86
536.38	41471.95
536.55	41790.27
536.72	41813.67
536.89	41605.36
537.06	41841.76
537.23	42417.53
537.40	42150.71
537.57	42284.12
537.74	42085.17
537.91	42864.57
538.08	41893.25
538.25	41635.79
538.42	42094.53
538.59	42600.09
538.75	42043.04
538.92	41790.27
539.09	42724.14
539.26	42630.52
539.43	42241.99
539.60	42604.77
539.77	42473.70
539.94	42300.50
540.11	42183.48
540.28	42593.07
540.44	42717.12
540.61	42384.76
540.78	42335.61
540.95	42518.17
541.12	42199.86
541.29	42990.96
541.46	43178.20
541.62	42967.55
541.79	43196.93
541.96	42031.34
542.13	42621.16
542.30	42948.83
542.47	42553.28
542.63	43016.71
542.80	43232.04
542.97	43414.60
543.14	43887.39
543.31	43557.37
543.48	43700.14
543.64	44203.36
543.81	44224.42
543.98	43798.44
544.15	43489.49
544.32	44039.52
544.48	44409.32
544.65	44067.61
544.82	43929.51
544.99	43859.30
545.16	43667.37
545.32	43629.93
545.49	44105.06
545.66	44355.49
545.83	44004.41
546.00	44074.63
546.16	44147.18
546.33	44168.25
546.50	43641.63
546.67	44268.89
546.83	43342.04
547.00	43817.17
547.17	44025.48
547.34	43955.26
547.50	44116.76
547.67	44832.96
547.84	44561.46
548.00	44355.49
548.17	45001.48
548.34	44378.90
548.51	44765.09
548.67	45102.12
548.84	45221.49
549.01	44533.37
549.18	44657.42
549.34	45045.95
549.51	45099.78
549.68	45181.70
549.84	44795.51
550.01	45052.97
550.18	45038.93
550.34	44891.48
550.51	44545.08
550.68	45237.87
550.84	44500.61
551.01	45022.54
551.18	44926.58
551.34	45371.28
551.51	45097.44
551.68	45228.51
551.84	45191.06
552.01	45137.23
552.18	45209.79
552.34	45188.72
552.51	45322.13
552.68	44683.17
552.84	45303.41
553.01	45537.46
553.18	45422.78
553.34	45439.16
553.51	45181.70
553.67	45834.71
553.84	45617.04
554.01	45916.63
554.17	45638.11
554.34	45881.52
554.51	45684.92
554.67	45375.97
554.84	45984.51
555.00	45359.58
555.17	45556.19
555.33	45808.96
555.50	45565.55
555.67	45340.86
555.83	45794.92
556.00	45776.20
556.16	46206.86
556.33	45638.11
556.50	45925.99
556.66	45902.59
556.83	45525.76
556.99	45869.82
557.16	46588.36
557.32	45830.03
557.49	45897.91
557.65	45925.99
557.82	45965.78
557.98	46031.32
558.15	46045.36
558.32	46270.05
558.48	45663.85
558.65	45696.62
558.81	46028.98
558.98	45972.80
559.14	46295.80
559.31	46291.12
559.47	46291.12
559.64	46281.75
559.80	46298.14
559.97	46632.83
560.13	45787.90
560.30	46028.98
560.46	46164.73
560.63	46674.96
560.79	46424.53
560.96	46288.77
561.12	46117.92
561.29	46251.33
561.45	46380.06
561.61	46199.83
561.78	46019.61
561.94	45914.29
562.11	46382.40
562.27	46387.08
562.44	46403.46
562.60	46845.82
562.77	46445.59
562.93	46232.60
563.10	46806.03
563.26	46061.74
563.42	46747.52
563.59	46401.12
563.75	46454.95
563.92	46717.09
564.08	46733.48
564.24	46658.58
564.41	46691.35
564.57	46632.83
564.74	46600.07
564.90	46405.80
565.07	46279.41
565.23	46433.89
565.39	46808.37
565.56	46286.43
565.72	46150.68
565.88	46211.54
566.05	46443.25
566.21	46536.87
566.38	46429.21
566.54	46614.11
566.70	47246.05
566.87	47014.34
567.03	46714.75
567.19	46848.16
567.36	46986.25
567.52	46443.25
567.68	46447.93
567.85	46361.33
568.01	46532.19
568.17	46443.25
568.34	47288.18
568.50	46918.38
568.66	46471.34
568.83	46555.60
568.99	46635.17
569.15	46742.84
569.32	46616.45
569.48	46639.86
569.64	47173.50
569.81	46323.88
569.97	46651.56
570.13	46742.84
570.30	46454.95
570.46	46541.55
570.62	46553.26
570.78	46127.28
570.95	46436.23
571.11	46761.56
571.27	46433.89
571.43	46480.70
571.60	46726.46
571.76	46717.09
571.92	46424.53
572.09	46731.14
572.25	46557.94
572.41	47068.17
572.57	46630.49
572.74	47126.69
572.90	46817.74
573.06	47145.41
573.22	46784.97
573.38	46813.05
573.55	46784.97
573.71	46983.91
573.87	46564.96
574.03	47051.79
574.20	46806.03
574.36	46609.43
574.52	46665.60
574.68	47016.68
574.84	46815.40
575.01	47009.66
575.17	46789.65
575.33	46251.33
575.49	46775.61
575.65	46724.11
575.82	46909.02
575.98	46937.10
576.14	47056.47
576.30	46822.42
576.46	46529.85
576.62	46618.79
576.79	46653.90
576.95	46251.33
577.11	46806.03
577.27	46986.25
577.43	46637.51
577.59	46780.29
577.75	46344.95
577.92	46532.19
578.08	46600.07
578.24	46504.10
578.40	47047.11
578.56	47068.17
578.72	47049.45
578.88	47063.49
579.04	47356.06
579.21	46955.83
579.37	46834.12
579.53	47299.89
579.69	46878.59
579.85	46721.77
580.01	47086.90
580.17	46976.89
580.33	46892.63
580.49	46726.46
580.65	47131.37
580.82	46969.87
580.98	46747.52
581.14	46569.64
581.30	47157.11
581.46	46995.62
581.62	47075.19
581.78	47276.48
581.94	47126.69
582.10	47178.18
582.26	47126.69
582.42	46794.33
582.58	47110.30
582.74	46946.47
582.90	47004.98
583.06	47229.67
583.22	47306.91
583.38	47346.70
583.54	47136.05
583.70	46941.78
583.86	46768.58
584.02	46801.35
584.18	47072.85
584.34	46717.09
584.50	46742.84
584.66	47019.02
584.82	47138.39
584.98	47103.28
585.14	46981.57
585.30	46838.80
585.46	46890.29
585.62	47061.15
585.78	46405.80
585.94	46602.41
586.10	46796.67
586.26	46642.20
586.42	47002.64
586.58	47236.69
586.74	47084.56
586.90	47138.39
587.06	46506.44
587.22	47070.51
587.38	46955.83
587.54	47051.79
587.70	47304.57
587.86	46958.17
588.02	46995.62
588.18	47320.95
588.34	46946.47
588.49	46230.26
588.65	46380.06
588.81	46651.56
588.97	46522.83
589.13	46632.83
589.29	46373.03
589.45	46813.05
589.61	46583.68
589.77	47143.07
589.93	46639.86
