SpectraSuite Data File
++++++++++++++++++++++++++++++++++++
Date: Fri Oct 25 11:34:12 EDT 2013
User: price-jones
Dark Spectrum Present: No
Reference Spectrum Present: No
Number of Sampled Component Spectra: 1
Spectrometers: USB2+H05261
Integration Time (usec): 100000 (USB2+H05261)
Spectra Averaged: 1 (USB2+H05261)
Boxcar Smoothing: 0 (USB2+H05261)
Correct for Electrical Dark: No (USB2+H05261)
Strobe/Lamp Enabled: No (USB2+H05261)
Correct for Detector Non-linearity: No (USB2+H05261)
Correct for Stray Light: No (USB2+H05261)
Number of Pixels in Processed Spectrum: 2048
>>>>>Begin Processed Spectral Data<<<<<
365.73	276.18
365.92	276.18
366.12	276.18
366.32	208.31
366.52	159.16
366.72	156.82
366.91	201.29
367.11	135.75
367.31	119.37
367.51	208.31
367.70	203.63
367.90	212.99
368.10	205.97
368.30	215.33
368.49	201.29
368.69	205.97
368.89	173.20
369.09	194.26
369.28	238.73
369.48	212.99
369.68	217.67
369.87	227.03
370.07	196.60
370.27	257.46
370.47	355.76
370.66	498.53
370.86	519.60
371.06	592.16
371.25	566.41
371.45	505.56
371.65	585.13
371.84	533.64
372.04	629.60
372.24	533.64
372.44	641.31
372.63	585.13
372.83	655.35
373.03	617.90
373.22	554.71
373.42	599.18
373.62	599.18
373.81	669.39
374.01	676.41
374.21	627.26
374.40	662.37
374.60	648.33
374.79	617.90
374.99	734.93
375.19	624.92
375.38	617.90
375.58	662.37
375.78	653.01
375.97	514.92
376.17	739.61
376.37	660.03
376.56	636.63
376.76	617.90
376.95	716.20
377.15	648.33
377.35	692.80
377.54	667.05
377.74	683.44
377.93	702.16
378.13	641.31
378.33	678.76
378.52	720.88
378.72	662.37
378.91	697.48
379.11	650.67
379.31	655.35
379.50	629.60
379.70	704.50
379.89	746.63
380.09	725.57
380.28	667.05
380.48	697.48
380.68	732.59
380.87	732.59
381.07	774.72
381.26	739.61
381.46	791.10
381.65	739.61
381.85	718.54
382.04	777.06
382.24	781.74
382.43	777.06
382.63	739.61
382.83	784.08
383.02	858.98
383.22	842.59
383.41	772.38
383.61	781.74
383.80	858.98
384.00	837.91
384.19	763.01
384.39	884.72
384.58	744.29
384.78	805.14
384.97	784.08
385.17	767.70
385.36	837.91
385.56	866.00
385.75	882.38
385.95	816.85
386.14	840.25
386.34	826.21
386.53	858.98
386.72	870.68
386.92	905.79
387.11	819.19
387.31	861.32
387.50	812.17
387.70	851.96
387.89	800.46
388.09	866.00
388.28	938.55
388.48	926.85
388.67	905.79
388.86	924.51
389.06	844.93
389.25	976.00
389.45	910.47
389.64	912.81
389.84	933.87
390.03	999.41
390.22	931.53
390.42	961.96
390.61	943.24
390.81	1036.86
391.00	1008.77
391.19	978.34
391.39	978.34
391.58	950.26
391.78	966.64
391.97	954.94
392.16	945.58
392.36	1008.77
392.55	1001.75
392.75	1069.62
392.94	1086.01
393.13	1064.94
393.33	992.39
393.52	1036.86
393.71	1074.31
393.91	1036.86
394.10	1069.62
394.29	1064.94
394.49	1067.28
394.68	1128.14
394.88	1118.78
395.07	1083.67
395.26	1217.08
395.46	1114.10
395.65	1114.10
395.84	1205.38
396.04	1144.52
396.23	1146.86
396.42	1116.44
396.62	1146.86
396.81	1212.40
397.00	1142.18
397.19	1210.06
397.39	1247.51
397.58	1172.61
397.77	1177.29
397.97	1228.78
398.16	1282.61
398.35	1277.93
398.55	1277.93
398.74	1357.51
398.93	1343.47
399.12	1313.04
399.32	1270.91
399.51	1270.91
399.70	1376.24
399.90	1376.24
400.09	1338.79
400.28	1352.83
400.47	1310.70
400.67	1483.90
400.86	1299.00
401.05	1390.28
401.24	1420.71
401.44	1390.28
401.63	1394.96
401.82	1451.13
402.01	1497.94
402.21	1453.47
402.40	1533.05
402.59	1392.62
402.78	1448.79
402.97	1474.54
403.17	1451.13
403.36	1598.59
403.55	1502.62
403.74	1537.73
403.93	1516.67
404.13	1563.48
404.32	1638.38
404.51	1645.40
404.70	1633.69
404.89	1605.61
405.09	1636.03
405.28	1678.16
405.47	1631.35
405.66	1717.95
405.85	1746.04
406.05	1729.66
406.24	1720.29
406.43	1671.14
406.62	1717.95
406.81	1806.89
407.00	1722.63
407.20	1736.68
407.39	1703.91
407.58	1727.32
407.77	1881.79
407.96	1842.00
408.15	1867.75
408.34	1881.79
408.54	1952.01
408.73	1865.41
408.92	1802.21
409.11	1947.33
409.30	1907.54
409.49	1940.30
409.68	1926.26
409.87	1942.64
410.07	1970.73
410.26	2038.61
410.45	2003.50
410.64	2012.86
410.83	1975.41
411.02	1959.03
411.21	2073.71
411.40	2064.35
411.59	2062.01
411.78	2064.35
411.98	2111.16
412.17	2202.44
412.36	2218.83
412.55	2246.91
412.74	2115.84
412.93	2331.17
413.12	2239.89
413.31	2319.47
413.50	2282.02
413.69	2457.56
413.88	2366.28
414.07	2303.09
414.26	2471.61
414.45	2483.31
414.64	2436.50
414.83	2597.99
415.02	2466.92
415.22	2597.99
415.41	2623.74
415.60	2576.93
415.79	2654.17
415.98	2719.70
416.17	2651.83
416.36	2722.04
416.55	2719.70
416.74	2656.51
416.93	2679.91
417.12	2801.62
417.31	2864.82
417.50	2850.77
417.69	2911.63
417.88	2853.11
418.07	2909.29
418.26	2864.82
418.45	3021.63
418.64	2904.60
418.83	2972.48
419.02	2909.29
419.21	3052.06
419.39	3049.72
419.58	3110.57
419.77	3042.70
419.96	3052.06
420.15	3194.83
420.34	3112.91
420.53	3052.06
420.72	3108.23
420.91	3105.89
421.10	3141.00
421.29	3192.49
421.48	3199.51
421.67	3272.07
421.86	3248.66
422.05	3304.84
422.24	3208.87
422.43	3108.23
422.61	3145.68
422.80	3283.77
422.99	3389.10
423.18	3372.71
423.37	3339.94
423.56	3220.58
423.75	3370.37
423.94	3171.43
424.13	3101.21
424.32	3183.13
424.50	3405.48
424.69	3473.36
424.88	3379.73
425.07	3314.20
425.26	3342.28
425.45	3377.39
425.64	3386.76
425.83	3410.16
426.01	3323.56
426.20	3309.52
426.39	3346.97
426.58	3389.10
426.77	3414.84
426.96	3473.36
427.15	3522.51
427.33	3529.53
427.52	3400.80
427.71	3583.36
427.90	3557.61
428.09	3564.64
428.28	3625.49
428.46	3524.85
428.65	3602.08
428.84	3639.53
429.03	3604.42
429.22	3592.72
429.40	3684.00
429.59	3733.15
429.78	3566.98
429.97	3501.44
430.16	3627.83
430.34	3737.84
430.53	3742.52
430.72	3812.73
430.91	3742.52
431.10	3906.35
431.28	3896.99
431.47	3873.59
431.66	3866.56
431.85	3719.11
432.03	3904.01
432.22	4074.87
432.41	3969.55
432.60	3960.19
432.79	3861.88
432.97	4014.02
433.16	4021.04
433.35	3967.21
433.54	4140.41
433.72	4107.64
433.91	4170.83
434.10	4163.81
434.28	4018.70
434.47	4156.79
434.66	4222.33
434.85	4318.29
435.03	4292.54
435.22	4203.60
435.41	4313.61
435.59	4362.76
435.78	4376.80
435.97	4203.60
436.16	4133.39
436.34	4285.52
436.53	4322.97
436.72	4346.37
436.90	4290.20
437.09	4351.06
437.28	4257.43
437.46	4468.08
437.65	4442.34
437.84	4507.87
438.02	4475.10
438.21	4470.42
438.40	4491.49
438.58	4517.23
438.77	4685.75
438.96	4517.23
439.14	4835.55
439.33	4816.82
439.52	4688.09
439.70	4798.10
439.89	4940.87
440.08	4901.08
440.26	4884.70
440.45	4847.25
440.63	5004.07
440.82	5008.75
441.01	4945.55
441.19	4884.70
441.38	5214.71
441.57	5303.65
441.75	5118.75
441.94	5334.08
442.12	5359.83
442.31	5254.50
442.50	5315.36
442.68	5338.76
442.87	5305.99
443.05	5322.38
443.24	5563.45
443.43	5256.84
443.61	5446.43
443.80	5736.65
443.98	5270.89
444.17	5015.77
444.35	5380.89
444.54	5423.02
444.73	5514.30
444.91	5476.85
445.10	5504.94
445.28	5481.53
445.47	5476.85
445.65	5554.09
445.84	5500.26
446.02	5748.36
446.21	5561.11
446.39	5483.88
446.58	5607.92
446.77	5671.12
446.95	5579.84
447.14	5664.10
447.32	5603.24
447.51	5591.54
447.69	5523.66
447.88	5535.37
448.06	5699.20
448.25	5682.82
448.43	5598.56
448.62	5593.88
448.80	5818.57
448.99	5886.45
449.17	5678.14
449.36	5575.16
449.54	5928.58
449.73	5827.93
449.91	6064.33
450.10	5743.67
450.28	5982.41
450.46	6045.60
450.65	6045.60
450.83	5984.75
451.02	5991.77
451.20	5937.94
451.39	5921.56
451.57	5893.47
451.76	5944.96
451.94	6090.07
452.13	6045.60
452.31	6118.16
452.49	5998.79
452.68	6242.21
452.86	6146.25
453.05	6162.63
453.23	6284.34
453.42	6157.95
453.60	6202.42
453.78	6204.76
453.97	6181.35
454.15	6143.91
454.34	6209.44
454.52	6352.21
454.70	6282.00
454.89	6363.92
455.07	6399.02
455.26	6392.00
455.44	6518.39
455.62	6520.73
455.81	6387.32
455.99	6492.65
456.17	6555.84
456.36	6597.97
456.54	6506.69
456.73	6871.81
456.91	6803.94
457.09	6785.21
457.28	7007.56
457.46	6864.79
457.64	6965.43
457.83	7021.61
458.01	6813.30
458.19	7166.72
458.38	7112.89
458.56	7119.91
458.74	7105.87
458.93	6871.81
459.11	7005.22
459.29	6951.39
459.48	6960.75
459.66	7213.53
459.84	7176.08
460.03	7222.89
460.21	7265.02
460.39	7269.70
460.57	7250.98
460.76	7328.22
460.94	7281.41
461.12	7180.76
461.31	7232.26
461.49	7478.01
461.67	7346.94
461.85	7421.84
462.04	7480.35
462.22	7723.77
462.40	7597.38
462.59	7393.75
462.77	7473.33
462.95	7716.75
463.13	7520.14
463.32	7555.25
463.50	7758.88
463.68	7473.33
463.86	7634.83
464.05	7761.22
464.23	7784.62
464.41	7843.14
464.59	7468.65
464.78	7969.52
464.96	7805.69
465.14	7623.12
465.32	7857.18
465.50	7733.13
465.69	7962.50
465.87	7716.75
466.05	7871.22
466.23	8128.68
466.41	8042.08
466.60	8095.91
466.78	8116.98
466.96	8011.65
467.14	8051.44
467.32	8046.76
467.51	8203.58
467.69	7880.58
467.87	7988.25
468.05	8210.60
468.23	8067.83
468.41	8248.05
468.60	8205.92
468.78	8344.01
468.96	8262.09
469.14	8446.99
469.32	8458.70
469.50	8292.52
469.69	8505.51
469.87	8479.76
470.05	8512.53
470.23	8458.70
470.41	8526.57
470.59	8493.80
470.77	8629.56
470.95	8767.65
471.14	8978.30
471.32	8575.72
471.50	8760.63
471.68	8861.27
471.86	8767.65
472.04	8800.41
472.22	9207.67
472.40	8833.18
472.58	8861.27
472.77	8990.00
472.95	9095.32
473.13	9415.98
473.31	9167.88
473.49	9055.53
473.67	9174.90
473.85	9217.03
474.03	9458.10
474.21	9427.68
474.39	9444.06
474.57	9584.49
474.75	9694.50
474.93	9685.14
475.12	9788.12
475.30	9774.08
475.48	9856.00
475.66	9825.57
475.84	9816.21
476.02	10012.81
476.20	10052.60
476.38	10012.81
476.56	10525.39
476.74	10448.15
476.92	10289.00
477.10	10223.46
477.28	10300.70
477.46	10457.51
477.64	10644.76
477.82	10473.90
478.00	10747.74
478.18	10621.35
478.36	10927.96
478.54	10925.62
478.72	11002.86
478.90	11103.50
479.08	11061.37
479.26	11393.73
479.44	11475.65
479.62	11515.44
479.80	11625.44
479.98	11482.67
480.16	11932.05
480.34	11819.71
480.52	11976.52
480.70	12205.89
480.88	12126.32
481.06	11997.59
481.24	11978.86
481.41	12121.63
481.59	12210.57
481.77	12542.93
481.95	12496.12
482.13	12807.41
482.31	12496.12
482.49	13032.10
482.67	12863.58
482.85	13034.44
483.03	13200.62
483.21	13420.63
483.39	13298.92
483.57	13523.62
483.74	13631.28
483.92	13685.11
484.10	13738.94
484.28	14059.60
484.46	14251.52
484.64	14202.37
484.82	14078.32
485.00	14249.18
485.18	14434.08
485.35	14469.19
485.53	14178.97
485.71	14923.26
485.89	15098.80
486.07	14857.72
486.25	15002.83
486.43	15185.40
486.61	15318.81
486.78	15604.35
486.96	15573.92
487.14	15742.44
487.32	15845.43
487.50	15456.90
487.68	16042.03
487.85	16203.53
488.03	16212.89
488.21	16311.19
488.39	16545.25
488.57	16624.83
488.75	16620.14
488.92	16781.64
489.10	17174.85
489.28	17053.14
489.46	17153.79
489.64	17425.29
489.81	17687.43
489.99	17818.50
490.17	17476.78
490.35	17949.57
490.53	17921.48
490.70	18075.96
490.88	17804.46
491.06	18480.87
491.24	18415.34
491.41	18501.93
491.59	18707.90
491.77	18780.46
491.95	19061.32
492.13	18637.69
492.30	19129.20
492.48	19058.98
492.66	19337.51
492.84	19290.70
493.01	19529.43
493.19	19714.33
493.37	19681.56
493.54	19709.65
493.72	20098.18
493.90	20198.82
494.08	20533.52
494.25	20538.20
494.43	20365.00
494.61	20444.58
494.79	20781.62
494.96	20734.81
495.14	20762.89
495.32	20814.38
495.49	21212.28
495.67	21268.45
495.85	21369.09
496.02	21561.02
496.20	21710.81
496.38	21816.13
496.55	21823.16
496.73	22288.92
496.91	21706.13
497.09	22422.33
497.26	22239.77
497.44	22368.50
497.62	22492.55
497.79	22909.16
497.97	22588.51
498.14	22801.50
498.32	22862.35
498.50	22897.46
498.67	23183.01
498.85	22885.76
499.03	23711.97
499.20	23243.86
499.38	23494.30
499.56	23630.05
499.73	23506.00
499.91	23819.63
500.08	24215.18
500.26	23826.65
500.44	24032.62
500.61	23922.62
500.79	23939.00
500.97	24372.00
501.14	24685.63
501.32	24915.00
501.49	24254.97
501.67	24900.96
501.84	24737.12
502.02	24786.27
502.20	25006.28
502.37	25156.08
502.55	25142.03
502.72	25294.17
502.90	25343.32
503.07	25338.64
503.25	25504.82
503.43	25436.94
503.60	25825.47
503.78	25228.63
503.95	25766.96
504.13	25577.37
504.30	26089.95
504.48	25860.58
504.65	25792.70
504.83	26361.45
505.01	26377.84
505.18	26059.52
505.36	26424.65
505.53	26270.17
505.71	26520.61
505.88	26981.70
506.06	26782.75
506.23	27049.57
506.41	26757.00
506.58	26588.49
506.76	27091.70
506.93	27229.79
507.11	27047.23
507.28	27709.60
507.46	27496.61
507.63	27243.84
507.81	28023.23
507.98	27445.12
508.16	27562.15
508.33	27744.71
508.50	27793.86
508.68	27999.83
508.85	27831.31
509.03	28086.43
509.20	28285.37
509.38	28594.32
509.55	28369.63
509.73	28549.85
509.90	28533.47
510.08	28751.14
510.25	28713.69
510.42	28669.22
510.60	28856.46
510.77	28973.49
510.95	29226.27
511.12	28933.70
511.30	29153.71
511.47	29425.22
511.64	29156.05
511.82	29483.73
511.99	29427.56
512.17	29656.93
512.34	29319.89
512.51	30075.88
512.69	29958.86
512.86	29926.09
513.04	30150.78
513.21	30089.93
513.38	30286.53
513.56	30492.50
513.73	30567.40
513.90	30265.47
514.08	29907.37
514.25	30895.07
514.43	30815.49
514.60	30806.13
514.77	30815.49
514.95	31065.93
515.12	30991.03
515.29	30857.62
515.47	31042.53
515.64	30794.43
515.81	30686.76
515.99	31201.68
516.16	31608.93
516.33	31660.43
516.51	31714.26
516.68	31276.58
516.85	31339.77
517.03	31901.50
517.20	32212.79
517.37	31882.78
517.54	31805.54
517.72	32051.30
517.89	31810.22
518.06	31922.57
518.24	32060.66
518.41	31899.16
518.58	32081.72
518.75	31791.50
518.93	32327.48
519.10	32510.04
519.27	32467.91
519.45	32472.59
519.62	32842.40
519.79	32959.42
519.96	33039.00
520.14	32900.91
520.31	32823.67
520.48	33392.42
520.65	32811.97
520.83	33558.60
521.00	33392.42
521.17	33151.35
521.34	33528.17
521.52	33991.60
521.69	33764.57
521.86	33820.74
522.03	33635.84
522.20	33841.81
522.38	33928.41
522.55	34139.05
522.72	33972.88
522.89	34291.19
523.07	34532.26
523.24	34455.03
523.41	34469.07
523.58	34286.51
523.75	34323.96
523.92	34808.45
524.10	34452.69
524.27	34431.62
524.44	34623.54
524.61	34944.20
524.78	34944.20
524.96	35241.45
525.13	35072.93
525.30	35255.49
525.47	35204.00
525.64	35271.87
525.81	35283.58
525.98	35438.05
526.16	35222.72
526.33	35400.60
526.50	35828.92
526.67	35377.20
526.84	35566.78
527.01	35814.88
527.18	35569.12
527.36	35562.10
527.53	35999.78
527.70	35971.69
527.87	36034.89
528.04	36147.23
528.21	36154.26
528.38	36229.15
528.55	36247.88
528.72	36112.13
528.89	36407.03
529.07	35826.58
529.24	35931.90
529.41	36451.50
529.58	36119.15
529.75	36634.06
529.92	36744.07
530.09	36758.11
530.26	36645.77
530.43	36631.72
530.60	36484.27
530.77	36364.90
530.94	36973.44
531.11	36692.58
531.28	36718.32
531.46	37088.13
531.63	37027.28
531.80	36676.19
531.97	37340.91
532.14	37368.99
532.31	37301.12
532.48	37460.27
532.65	37759.86
532.82	37446.23
532.99	37703.69
533.16	37448.57
533.33	37752.84
533.50	37647.52
533.67	37673.26
533.84	37404.10
534.01	37406.44
534.18	37963.49
534.35	38120.31
534.52	37989.24
534.69	38431.60
534.86	38078.18
535.03	38139.03
535.20	38136.69
535.37	38710.12
535.54	38347.34
535.71	38260.74
535.88	38270.10
536.05	38314.57
536.22	38895.02
536.38	38494.79
536.55	38658.63
536.72	38532.24
536.89	38244.35
537.06	38614.16
537.23	38728.84
537.40	38382.45
537.57	38813.10
537.74	38607.14
537.91	38773.31
538.08	39201.63
538.25	39147.80
538.42	39405.26
538.59	39363.13
538.75	39164.18
538.92	39391.22
539.09	39423.98
539.26	38897.36
539.43	39365.47
539.60	39583.14
539.77	39243.76
539.94	39974.01
540.11	39660.38
540.28	39529.31
540.44	39643.99
540.61	39571.44
540.78	39913.16
540.95	40294.66
541.12	39945.92
541.29	40067.63
541.46	39959.97
541.62	39777.40
541.79	40329.77
541.96	39543.35
542.13	39725.91
542.30	40044.23
542.47	40318.07
542.63	40086.36
542.80	40467.86
542.97	40744.05
543.14	40861.07
543.31	40868.09
543.48	40509.99
543.64	40886.82
543.81	40638.72
543.98	41158.32
544.15	40627.02
544.32	41202.79
544.48	41265.99
544.65	41106.83
544.82	41083.42
544.99	40898.52
545.16	41139.60
545.32	40912.56
545.49	41390.03
545.66	41460.25
545.83	41237.90
546.00	41446.21
546.16	41474.29
546.33	41045.97
546.50	41268.33
546.67	41757.50
546.83	41429.82
547.00	41544.51
547.17	41371.31
547.34	41645.15
547.50	41741.11
547.67	41883.89
547.84	41577.28
548.00	42195.18
548.17	41958.78
548.34	42272.42
548.51	42225.60
548.67	42181.13
548.84	42113.26
549.01	42057.09
549.18	41776.22
549.34	41876.86
549.51	42199.86
549.68	42518.17
549.84	42389.44
550.01	42815.42
550.18	42452.64
550.34	42506.47
550.51	42738.18
550.68	42679.67
550.84	42476.04
551.01	43068.20
551.18	42801.38
551.34	42347.31
551.51	42838.83
551.68	42899.68
551.84	42745.20
552.01	42443.27
552.18	43014.37
552.34	42663.28
552.51	42834.14
552.68	42609.45
552.84	42829.46
553.01	43166.50
553.18	42841.17
553.34	43187.56
553.51	42703.07
553.67	43037.77
553.84	43325.66
554.01	43206.29
554.17	42756.91
554.34	43367.79
554.51	43269.48
554.67	43515.24
554.84	43206.29
555.00	43152.46
555.17	43672.06
555.33	43367.79
555.50	43171.18
555.67	43508.22
555.83	43445.02
556.00	43763.34
556.16	44383.58
556.33	44130.80
556.50	43601.84
556.66	43756.32
556.83	43653.33
556.99	44362.51
557.16	43978.67
557.32	43964.62
557.49	44105.06
557.65	43945.90
557.82	43887.39
557.98	43756.32
558.15	44238.47
558.32	43732.91
558.48	44179.95
558.65	43997.39
558.81	44280.60
558.98	44154.21
559.14	44327.41
559.31	43948.24
559.47	43882.70
559.64	44116.76
559.80	44418.69
559.97	44650.40
560.13	44601.25
560.30	44509.97
560.46	44762.75
560.63	44189.31
560.79	44587.21
560.96	44659.76
561.12	44612.95
561.29	44622.31
561.45	44360.17
561.61	44734.66
561.78	44348.47
561.94	44306.34
562.11	44521.67
562.27	44692.53
562.44	44626.99
562.60	44502.95
562.77	44451.45
562.93	44418.69
563.10	45092.76
563.26	44807.22
563.42	45380.65
563.59	45031.91
563.75	44292.30
563.92	45113.83
564.08	44832.96
564.24	44671.46
564.41	44678.49
564.57	45214.47
564.74	45076.38
564.90	44928.92
565.07	45097.44
565.23	44971.05
565.39	44744.02
565.56	45432.14
565.72	45116.17
565.88	44952.33
566.05	44767.43
566.21	45287.03
566.38	44687.85
566.54	44741.68
566.70	45265.96
566.87	45202.77
567.03	45305.75
567.19	45198.09
567.36	45106.80
567.52	45092.76
567.68	45230.85
567.85	45748.11
568.01	45471.93
568.17	45268.30
568.34	45471.93
568.50	45329.16
568.66	45071.70
568.83	45698.96
568.99	45226.17
569.15	45277.66
569.32	45235.53
569.48	45216.81
569.64	45340.86
569.81	45294.05
569.97	45507.04
570.13	45003.82
570.30	45104.46
570.46	45310.43
570.62	45972.80
570.78	45205.11
570.95	45223.83
571.11	45626.40
571.27	45139.57
571.43	45280.00
571.60	45572.57
571.76	45525.76
571.92	45581.93
572.09	45549.17
572.25	45207.45
572.41	45420.44
572.57	45764.49
572.74	45909.61
572.90	45914.29
573.06	45713.00
573.22	45588.95
573.38	45769.18
573.55	45928.33
573.71	45874.50
573.87	46202.18
574.03	45588.95
574.20	46038.34
574.36	45436.82
574.52	45645.13
574.68	45954.08
574.84	45771.52
575.01	46057.06
575.17	46089.83
575.33	45757.47
575.49	45642.79
575.65	45968.12
575.82	45888.54
575.98	45509.38
576.14	46017.27
576.30	45860.46
576.46	46071.10
576.62	45713.00
576.79	45663.85
576.95	46073.45
577.11	45811.31
577.27	45993.87
577.43	46169.41
577.59	45762.15
577.75	45574.91
577.92	45563.21
578.08	45904.93
578.24	45916.63
578.40	45830.03
578.56	46248.99
578.72	45853.44
578.88	46300.48
579.04	46005.57
579.21	45752.79
579.37	45879.18
579.53	46459.63
579.69	45914.29
579.85	45860.46
580.01	45797.26
580.17	45457.88
580.33	46213.88
580.49	46223.24
580.65	46078.13
580.82	45947.06
580.98	45392.35
581.14	45727.05
581.30	46092.17
581.46	45691.94
581.62	45897.91
581.78	46075.79
581.94	45937.69
582.10	45949.40
582.26	46295.80
582.42	45638.11
582.58	46047.70
582.74	46150.68
582.90	45998.55
583.06	46251.33
583.22	46307.50
583.38	46237.28
583.54	46082.81
583.70	45951.74
583.86	46223.24
584.02	46019.61
584.18	46387.08
584.34	46277.07
584.50	46270.05
584.66	45815.99
584.82	46312.18
584.98	46309.84
585.14	46595.38
585.30	45818.33
585.46	45977.48
585.62	46134.30
585.78	46571.98
585.94	45715.34
586.10	46211.54
586.26	45787.90
586.42	45614.70
586.58	46316.86
586.74	46014.93
586.90	46138.98
587.06	46052.38
587.22	46590.70
587.38	46115.58
587.54	46686.67
587.70	46464.32
587.86	46373.03
588.02	46824.76
588.18	46038.34
588.34	46014.93
588.49	46384.74
588.65	46131.96
588.81	46218.56
588.97	46333.24
589.13	46256.01
589.29	46316.86
589.45	46600.07
589.61	47058.81
589.77	46567.30
589.93	46497.08
590.08	46586.02
