SpectraSuite Data File
++++++++++++++++++++++++++++++++++++
Date: Fri Oct 25 11:22:29 EDT 2013
User: price-jones
Dark Spectrum Present: No
Reference Spectrum Present: No
Number of Sampled Component Spectra: 1
Spectrometers: USB2+H05261
Integration Time (usec): 100000 (USB2+H05261)
Spectra Averaged: 1 (USB2+H05261)
Boxcar Smoothing: 0 (USB2+H05261)
Correct for Electrical Dark: No (USB2+H05261)
Strobe/Lamp Enabled: No (USB2+H05261)
Correct for Detector Non-linearity: No (USB2+H05261)
Correct for Stray Light: No (USB2+H05261)
Number of Pixels in Processed Spectrum: 2048
>>>>>Begin Processed Spectral Data<<<<<
365.73	170.86
365.92	170.86
366.12	170.86
366.32	168.52
366.52	154.48
366.72	131.07
366.91	166.18
367.11	133.41
367.31	42.13
367.51	135.75
367.70	98.30
367.90	107.66
368.10	84.26
368.30	152.13
368.49	152.13
368.69	149.79
368.89	159.16
369.09	105.32
369.28	110.01
369.48	145.11
369.68	243.42
369.87	117.03
370.07	283.20
370.27	304.27
370.47	341.72
370.66	617.90
370.86	550.03
371.06	688.12
371.25	767.70
371.45	655.35
371.65	648.33
371.84	709.18
372.04	711.52
372.24	695.14
372.44	641.31
372.63	692.80
372.83	767.70
373.03	772.38
373.22	760.67
373.42	739.61
373.62	755.99
373.81	779.40
374.01	812.17
374.21	800.46
374.40	791.10
374.60	849.61
374.79	816.85
374.99	870.68
375.19	809.83
375.38	795.78
375.58	849.61
375.78	814.51
375.97	830.89
376.17	870.68
376.37	844.93
376.56	856.64
376.76	919.83
376.95	847.27
377.15	828.55
377.35	882.38
377.54	917.49
377.74	964.30
377.93	903.45
378.13	896.43
378.33	868.34
378.52	919.83
378.72	873.02
378.91	952.60
379.11	983.02
379.31	968.98
379.50	880.04
379.70	1011.11
379.89	1041.54
380.09	1015.79
380.28	887.06
380.48	1081.33
380.68	1090.69
380.87	1001.75
381.07	957.28
381.26	1093.03
381.46	1043.88
381.65	973.66
381.85	985.37
382.04	1039.20
382.24	1078.99
382.43	1104.73
382.63	992.39
382.83	1121.12
383.02	1160.91
383.22	1118.78
383.41	1078.99
383.61	1137.50
383.80	1107.07
384.00	1177.29
384.19	1046.22
384.39	1153.88
384.58	1128.14
384.78	1095.37
384.97	1207.72
385.17	1160.91
385.36	1193.67
385.56	1144.52
385.75	1249.85
385.95	1163.25
386.14	1252.19
386.34	1160.91
386.53	1233.46
386.72	1123.46
386.92	1205.38
387.11	1249.85
387.31	1270.91
387.50	1231.12
387.70	1291.98
387.89	1299.00
388.09	1284.95
388.28	1322.40
388.48	1273.25
388.67	1268.57
388.86	1334.11
389.06	1359.85
389.25	1289.64
389.45	1392.62
389.64	1376.24
389.84	1371.55
390.03	1348.15
390.22	1406.66
390.42	1355.17
390.61	1376.24
390.81	1373.89
391.00	1420.71
391.19	1383.26
391.39	1380.92
391.58	1406.66
391.78	1516.67
391.97	1488.58
392.16	1514.33
392.36	1462.83
392.55	1540.07
392.75	1563.48
392.94	1504.96
393.13	1572.84
393.33	1507.30
393.52	1568.16
393.71	1694.55
393.91	1556.46
394.10	1589.22
394.29	1495.60
394.49	1593.90
394.68	1596.25
394.88	1654.76
395.07	1696.89
395.26	1591.56
395.46	1668.80
395.65	1757.74
395.84	1664.12
396.04	1746.04
396.23	1769.44
396.42	1799.87
396.62	1799.87
396.81	1795.19
397.00	1753.06
397.19	1776.47
397.39	1750.72
397.58	1781.15
397.77	1863.07
397.97	1846.68
398.16	1849.02
398.35	1926.26
398.55	1811.57
398.74	1881.79
398.93	1980.09
399.12	1916.90
399.32	1839.66
399.51	1940.30
399.70	2033.93
399.90	1881.79
400.09	2012.86
400.28	2125.21
400.47	2122.87
400.67	2085.42
400.86	2101.80
401.05	2143.93
401.24	2150.95
401.44	2200.10
401.63	2157.97
401.82	2120.53
402.01	2179.04
402.21	2188.40
402.40	2291.38
402.59	2321.81
402.78	2197.76
402.97	2342.88
403.17	2225.85
403.36	2239.89
403.55	2413.09
403.74	2310.11
403.93	2443.52
404.13	2392.03
404.32	2333.51
404.51	2413.09
404.70	2387.35
404.89	2424.80
405.09	2532.46
405.28	2438.84
405.47	2466.92
405.66	2567.57
405.85	2548.84
406.05	2492.67
406.24	2588.63
406.43	2424.80
406.62	2626.08
406.81	2654.17
407.00	2672.89
407.20	2628.42
407.39	2649.49
407.58	2658.85
407.77	2731.41
407.96	2869.50
408.15	2862.48
408.34	2668.21
408.54	2897.58
408.73	2832.05
408.92	2911.63
409.11	2895.24
409.30	3019.29
409.49	2911.63
409.68	3021.63
409.87	2995.89
410.07	2963.12
410.26	3045.04
410.45	2920.99
410.64	3117.59
410.83	3047.38
411.02	3225.26
411.21	3187.81
411.40	3176.11
411.59	3290.79
411.78	3187.81
411.98	3192.49
412.17	3251.00
412.36	3206.53
412.55	3358.67
412.74	3515.48
412.93	3384.41
413.12	3403.14
413.31	3616.13
413.50	3447.61
413.69	3510.80
413.88	3630.17
414.07	3709.75
414.26	3632.51
414.45	3648.90
414.64	3768.26
414.83	3712.09
415.02	3756.56
415.22	3882.95
415.41	3894.65
415.60	3990.61
415.79	3964.87
415.98	4009.34
416.17	3974.23
416.36	4121.68
416.55	4011.68
416.74	4049.13
416.93	4156.79
417.12	4198.92
417.31	4222.33
417.50	4266.80
417.69	4372.12
417.88	4290.20
418.07	4423.61
418.26	4348.72
418.45	4383.82
418.64	4538.30
418.83	4582.77
419.02	4425.95
419.21	4430.63
419.39	4657.67
419.58	4521.92
419.77	4545.32
419.96	4765.33
420.15	4601.49
420.34	4683.41
420.53	4627.24
420.72	4767.67
420.91	4809.80
421.10	4779.37
421.29	4861.29
421.48	4713.84
421.67	4814.48
421.86	4903.42
422.05	4706.82
422.24	4922.15
422.43	4943.21
422.61	4997.04
422.80	5064.92
422.99	5064.92
423.18	4905.76
423.37	5107.05
423.56	4926.83
423.75	5085.98
423.94	4887.04
424.13	4547.66
424.32	4847.25
424.50	5034.49
424.69	5153.86
424.88	5158.54
425.07	5015.77
425.26	5018.11
425.45	5020.45
425.64	4877.68
425.83	5034.49
426.01	5046.20
426.20	5018.11
426.39	5146.84
426.58	5132.79
426.77	5121.09
426.96	5228.76
427.15	5109.39
427.33	5207.69
427.52	4954.91
427.71	5327.06
427.90	5181.95
428.09	5338.76
428.28	5308.34
428.46	5408.98
428.65	5390.25
428.84	5657.07
429.03	5708.57
429.22	5481.53
429.40	5483.88
429.59	5598.56
429.78	5542.39
429.97	5308.34
430.16	5420.68
430.34	5603.24
430.53	5797.51
430.72	5692.18
430.91	5694.52
431.10	5816.23
431.28	5813.89
431.47	6036.24
431.66	5713.25
431.85	5865.38
432.03	6033.90
432.22	6099.44
432.41	6078.37
432.60	5991.77
432.79	6094.76
432.97	5984.75
433.16	6162.63
433.35	6134.54
433.54	6183.70
433.72	6092.41
433.91	6078.37
434.10	6218.80
434.28	6085.39
434.47	6312.42
434.66	6436.47
434.85	6389.66
435.03	6305.40
435.22	6375.62
435.41	6569.88
435.59	6251.57
435.78	6319.45
435.97	6431.79
436.16	6483.28
436.34	6607.33
436.53	6628.40
436.72	6586.27
436.90	6551.16
437.09	6693.93
437.28	6703.29
437.46	6773.51
437.65	6736.06
437.84	6712.66
438.02	6902.24
438.21	6846.07
438.40	6785.21
438.58	7150.34
438.77	7115.23
438.96	7171.40
439.14	7258.00
439.33	7274.38
439.52	7250.98
439.70	7480.35
439.89	7543.55
440.08	7524.82
440.26	7536.52
440.45	7417.16
440.63	7353.96
440.82	7536.52
441.01	7726.11
441.19	7623.12
441.38	7901.65
441.57	7847.82
441.75	7962.50
441.94	8102.93
442.12	8191.88
442.31	8004.63
442.50	8065.49
442.68	8051.44
442.87	8168.47
443.05	8208.26
443.24	8334.65
443.43	8362.73
443.61	8189.53
443.80	8414.23
443.98	8142.72
444.17	7988.25
444.35	8367.42
444.54	8332.31
444.73	8262.09
444.91	8411.89
445.10	8524.23
445.28	8451.67
445.47	8496.14
445.65	8472.74
445.84	8528.91
446.02	8704.45
446.21	8545.30
446.39	8379.12
446.58	8758.28
446.77	8503.17
446.95	8346.35
447.14	8388.48
447.32	8608.49
447.51	8627.21
447.69	8594.45
447.88	8641.26
448.06	8699.77
448.25	8821.48
448.43	8697.43
448.62	8695.09
448.80	8711.47
448.99	8793.39
449.17	8898.72
449.36	8816.80
449.54	8926.80
449.73	9144.47
449.91	8992.34
450.10	9149.15
450.28	8954.89
450.46	9263.84
450.65	9212.35
450.83	9291.93
451.02	9102.34
451.20	9254.48
451.39	9139.79
451.57	9198.31
451.76	9100.00
451.94	9298.95
452.13	9547.05
452.31	9427.68
452.49	9071.92
452.68	9427.68
452.86	9507.26
453.05	9343.42
453.23	9764.72
453.42	9563.43
453.60	9530.66
453.78	9645.35
453.97	9549.39
454.15	9783.44
454.34	9497.89
454.52	9774.08
454.70	9710.88
454.89	9823.23
455.07	9970.68
455.26	10012.81
455.44	10150.90
455.62	10083.03
455.81	10284.31
455.99	10361.55
456.17	10104.09
456.36	10298.36
456.54	10272.61
456.73	10230.48
456.91	10630.71
457.09	10420.06
457.28	10721.99
457.46	10509.01
457.64	10516.03
457.83	10448.15
458.01	10745.40
458.19	10977.11
458.38	10775.83
458.56	10579.22
458.74	11087.12
458.93	10932.64
459.11	10909.24
459.29	10626.03
459.48	11059.03
459.66	10930.30
459.84	10881.15
460.03	11157.33
460.21	11138.61
460.39	11129.25
460.57	10977.11
460.76	11330.53
460.94	11403.09
461.12	11283.72
461.31	11133.93
461.49	11351.60
461.67	11367.98
461.85	11585.65
462.04	11463.94
462.22	11646.51
462.40	11749.49
462.59	11730.76
462.77	11632.46
462.95	11892.26
463.13	11665.23
463.32	11906.31
463.50	12095.89
463.68	11793.96
463.86	11868.86
464.05	11768.21
464.23	11803.32
464.41	12058.44
464.59	11698.00
464.78	12369.73
464.96	12266.75
465.14	11950.78
465.32	12023.33
465.50	12362.71
465.69	12423.56
465.87	12360.37
466.05	12404.84
466.23	12266.75
466.41	12453.99
466.60	12755.92
466.78	12358.03
466.96	12678.68
467.14	12587.40
467.32	12343.99
467.51	12648.26
467.69	12519.53
467.87	12596.76
468.05	12779.32
468.23	12802.73
468.41	12720.81
468.60	12659.96
468.78	12999.34
468.96	12807.41
469.14	13069.55
469.32	13022.74
469.50	12760.60
469.69	13238.07
469.87	13308.29
470.05	13362.12
470.23	13193.60
470.41	13235.73
470.59	13453.40
470.77	13357.44
470.95	13788.10
471.14	13935.55
471.32	13429.99
471.50	13813.84
471.68	13738.94
471.86	13745.97
472.04	13745.97
472.22	14232.80
472.40	13944.91
472.58	14319.40
472.77	14183.65
472.95	14317.06
473.13	14986.45
473.31	14141.52
473.49	14352.16
473.67	14265.57
473.85	14501.96
474.03	14899.85
474.21	14803.89
474.39	14932.62
474.57	15035.60
474.75	15059.01
474.93	15187.74
475.12	15068.37
475.30	15403.07
475.48	15269.66
475.66	15328.17
475.84	15246.25
476.02	15463.92
476.20	15576.27
476.38	16102.89
476.56	16208.21
476.74	16133.31
476.92	16074.80
477.10	16121.61
477.28	16531.20
477.46	16248.00
477.64	16755.90
477.82	16688.02
478.00	17064.85
478.18	16933.78
478.36	17219.32
478.54	17521.25
478.72	17343.37
478.90	17535.29
479.08	17987.02
479.26	17666.36
479.44	18008.08
479.62	17914.46
479.80	18295.97
479.98	18068.94
480.16	18972.38
480.34	18485.55
480.52	18876.42
480.70	18668.11
480.88	18558.11
481.06	18860.04
481.24	18946.64
481.41	19531.77
481.59	19562.20
481.77	19700.29
481.95	19969.45
482.13	19658.16
482.31	19805.61
482.49	20620.12
482.67	20470.33
482.85	20938.43
483.03	20739.49
483.21	21165.46
483.39	20919.71
483.57	21411.22
483.74	21579.74
483.92	21516.54
484.10	21673.36
484.28	21984.65
484.46	22298.28
484.64	22623.62
484.82	22478.50
485.00	22366.16
485.18	22930.23
485.35	23304.71
485.53	23243.86
485.71	23379.61
485.89	23714.31
486.07	24020.92
486.25	23641.75
486.43	23800.91
486.61	23969.43
486.78	24217.52
486.96	24496.05
487.14	24903.30
487.32	25050.75
487.50	25568.01
487.68	25317.57
487.85	25689.72
488.03	26080.59
488.21	26494.86
488.39	26539.33
488.57	26338.05
488.75	26651.68
488.92	26649.34
489.10	26988.72
489.28	27105.74
489.46	27410.01
489.64	27140.85
489.81	28018.55
489.99	28339.21
490.17	28318.14
490.35	28772.21
490.53	28514.75
490.70	28746.46
490.88	28851.78
491.06	29179.46
491.24	29362.02
491.41	29165.42
491.59	29762.25
491.77	29661.61
491.95	30103.97
492.13	30539.31
492.30	30096.95
492.48	30565.06
492.66	30733.57
492.84	30471.43
493.01	30993.37
493.19	30932.52
493.37	31056.57
493.54	31952.99
493.72	31744.69
493.90	32102.79
494.08	32048.96
494.25	32187.05
494.43	32584.94
494.61	32535.79
494.79	32868.14
494.96	32538.13
495.14	32804.95
495.32	33504.77
495.49	33504.77
495.67	33530.51
495.85	33855.85
496.02	34113.31
496.20	34319.28
496.38	34611.84
496.55	34663.33
496.73	35557.42
496.91	34969.94
497.09	35555.08
497.26	35306.98
497.44	35601.89
497.62	35667.42
497.79	36463.21
497.97	36215.11
498.14	36168.30
498.32	36725.35
498.50	36680.88
498.67	37167.71
498.85	36807.26
499.03	37368.99
499.20	37160.69
499.38	36966.42
499.56	37596.03
499.73	37493.04
499.91	37640.50
500.08	38176.48
500.26	38337.98
500.44	38185.84
500.61	38806.08
500.79	38396.49
500.97	38445.64
501.14	39173.55
501.32	39143.12
501.49	39131.42
501.67	39515.26
501.84	39704.85
502.02	39856.98
502.20	39651.02
502.37	39683.78
502.55	39552.71
502.72	39864.00
502.90	40135.51
503.07	39995.07
503.25	40273.60
503.43	40325.09
503.60	40882.14
503.78	40847.03
503.95	40814.26
504.13	41429.82
504.30	41397.06
504.48	40886.82
504.65	41511.74
504.83	41041.29
505.01	42050.06
505.18	41846.44
505.36	42157.73
505.53	42089.85
505.71	41956.44
505.88	42244.33
506.06	41961.12
506.23	42564.98
506.41	42504.13
506.58	42773.29
506.76	42726.48
506.93	42476.04
507.11	42976.92
507.28	42878.61
507.46	43459.07
507.63	44062.93
507.81	43583.12
507.98	43580.78
508.16	43789.08
508.33	44294.64
508.50	43910.79
508.68	44430.39
508.85	44425.71
509.03	44243.15
509.20	44601.25
509.38	44896.16
509.55	45083.40
509.73	44980.42
509.90	45258.94
510.08	45214.47
510.25	45146.59
510.42	45031.91
510.60	45918.97
510.77	45825.35
510.95	45923.65
511.12	45415.76
511.30	45923.65
511.47	46146.00
511.64	45827.69
511.82	46780.29
511.99	46309.84
512.17	46890.29
512.34	46618.79
512.51	46684.33
512.69	46806.03
512.86	46564.96
513.04	47117.32
513.21	47023.70
513.38	47428.62
513.56	47349.04
513.73	47339.68
513.90	47129.03
514.08	47470.75
514.25	47702.46
514.43	47805.44
514.60	48128.44
514.77	47889.70
514.95	48154.18
515.12	47849.91
515.29	48264.19
515.47	48350.79
515.64	48619.95
515.81	48418.66
515.99	48755.70
516.16	49102.10
516.33	49139.55
516.51	49324.45
516.68	49111.46
516.85	49191.04
517.03	49095.08
517.20	49254.23
517.37	49375.94
517.54	49682.55
517.72	49469.56
517.89	49279.98
518.06	49785.54
518.24	49886.18
518.41	49881.50
518.58	49879.16
518.75	49778.51
518.93	49972.78
519.10	49631.06
519.27	50454.93
519.45	50080.44
519.62	50546.21
519.79	50305.13
519.96	50693.66
520.14	50520.46
520.31	50876.22
520.48	50955.80
520.65	50927.72
520.83	51206.24
521.00	51131.34
521.17	51239.01
521.34	51201.56
521.52	50974.53
521.69	51285.82
521.86	51487.10
522.03	51430.93
522.20	51657.96
522.38	51725.84
522.55	51969.26
522.72	51798.40
522.89	51903.72
523.07	52083.94
523.24	51810.10
523.41	52229.05
523.58	52002.02
523.75	52395.23
523.92	52207.99
524.10	52498.22
524.27	52505.24
524.44	52676.10
524.61	52645.67
524.78	52603.54
524.96	52521.62
525.13	52666.73
525.30	52863.34
525.47	53139.52
525.64	52879.72
525.81	52963.98
525.98	53404.00
526.16	53144.20
526.33	53303.36
526.50	53415.71
526.67	53506.99
526.84	53483.58
527.01	53153.57
527.18	53511.67
527.36	53588.91
527.53	53539.75
527.70	53701.25
527.87	53811.26
528.04	53825.30
528.21	53563.16
528.38	53820.62
528.55	54024.25
528.72	53588.91
528.89	53609.97
529.07	53942.33
529.24	53581.88
529.41	54092.12
529.58	54265.32
529.75	54157.66
529.92	54160.00
530.09	54087.44
530.26	54031.27
530.43	54314.47
530.60	54447.88
530.77	54328.52
530.94	54490.01
531.11	54344.90
531.28	54578.95
531.46	54543.84
531.63	54667.89
531.80	54883.22
531.97	54923.01
532.14	55030.68
532.31	55068.12
532.48	54955.78
532.65	55257.71
532.82	54546.18
532.99	55021.31
533.16	54864.50
533.33	55213.24
533.50	55334.95
533.67	55271.75
533.84	55292.82
534.01	55178.13
534.18	55295.16
534.35	55618.15
534.52	55767.94
534.69	55660.28
534.86	55531.55
535.03	55578.36
535.20	55695.39
535.37	55517.51
535.54	55952.85
535.71	55833.48
535.88	55697.73
536.05	55781.99
536.22	55910.72
536.38	55812.41
536.55	55990.30
536.72	55889.65
536.89	56013.70
537.06	55959.87
537.23	56154.13
537.40	56182.22
537.57	56142.43
537.74	56346.06
537.91	56329.67
538.08	56226.69
538.25	56172.86
538.42	56299.25
538.59	56617.56
538.75	56512.23
538.92	56224.35
539.09	56676.07
539.26	56390.53
539.43	56229.03
539.60	56549.68
539.77	56669.05
539.94	56729.90
540.11	56804.80
540.28	56669.05
540.44	56832.89
540.61	56783.74
540.78	56678.41
540.95	56713.52
541.12	56484.15
541.29	56917.15
541.46	57027.15
541.62	57022.47
541.79	57036.51
541.96	56910.13
542.13	57064.60
542.30	56842.25
542.47	57305.68
542.63	57261.21
542.80	57186.31
542.97	57153.54
543.14	57411.00
543.31	57406.32
543.48	57539.73
543.64	57762.08
543.81	57675.48
543.98	57570.16
544.15	57722.29
544.32	57932.94
544.48	57848.68
544.65	57731.65
544.82	57829.96
544.99	57586.54
545.16	57867.40
545.32	57907.19
545.49	58024.22
545.66	58244.23
545.83	58127.20
546.00	58298.06
546.16	58169.33
546.33	57785.49
546.50	58068.69
546.67	58089.76
546.83	57858.04
547.00	58169.33
547.17	58171.67
547.34	58127.20
547.50	58237.21
547.67	58330.83
547.84	58316.79
548.00	58464.24
548.17	58639.78
548.34	58653.82
548.51	58518.07
548.67	58485.31
548.84	58358.92
549.01	58518.07
549.18	58342.53
549.34	58607.01
549.51	58499.35
549.68	58550.84
549.84	58705.32
550.01	58742.77
550.18	58616.38
550.34	58871.49
550.51	58850.43
550.68	58831.71
550.84	58618.72
551.01	58724.04
551.18	58791.92
551.34	58827.02
551.51	58784.90
551.68	58873.84
551.84	58681.91
552.01	58801.28
552.18	58960.44
552.34	58805.96
552.51	58990.86
552.68	58953.41
552.84	58965.12
553.01	59199.17
553.18	59217.89
553.34	59264.70
553.51	59007.25
553.67	59203.85
553.84	59128.95
554.01	59325.56
554.17	59344.28
554.34	59423.86
554.51	59180.45
554.67	59327.90
554.84	59283.43
555.00	59243.64
555.17	59269.39
555.33	59409.82
555.50	59304.49
555.67	59468.33
555.83	59517.48
556.00	59573.66
556.16	59732.81
556.33	59758.56
556.50	59732.81
556.66	59592.38
556.83	59264.70
556.99	59781.96
557.16	59903.67
557.32	59627.49
557.49	59901.33
557.65	59742.17
557.82	59564.29
557.98	59817.07
558.15	59730.47
558.32	59730.47
558.48	59662.60
558.65	59739.83
558.81	59721.11
558.98	59896.65
559.14	60006.65
559.31	59971.55
559.47	59964.52
559.64	60111.98
559.80	60130.70
559.97	60018.36
560.13	60032.40
560.30	60023.04
560.46	60231.35
560.63	60149.43
560.79	59978.57
560.96	60207.94
561.12	60243.05
561.29	60196.24
561.45	60065.17
561.61	60069.85
561.78	60062.83
561.94	60177.51
562.11	60086.23
562.27	60226.66
562.44	60233.69
562.60	60238.37
562.77	60287.52
562.93	60083.89
563.10	60165.81
563.26	60343.69
563.42	60603.49
563.59	60149.43
563.75	60467.74
563.92	60376.46
564.08	60221.98
564.24	60430.29
564.41	60423.27
564.57	60507.53
564.74	60587.11
564.90	60596.47
565.07	60521.57
565.23	60556.68
565.39	60514.55
565.56	60643.28
565.72	60460.72
565.88	60535.62
566.05	60397.52
566.21	60544.98
566.38	60697.11
566.54	60573.06
566.70	60598.81
566.87	60748.60
567.03	60622.22
567.19	60727.54
567.36	60605.83
567.52	60519.23
567.68	60706.47
567.85	60680.73
568.01	60631.58
568.17	60715.84
568.34	60874.99
568.50	60570.72
568.66	60554.34
568.83	60736.90
568.99	60776.69
569.15	60977.98
569.32	60727.54
569.48	60662.00
569.64	60790.73
569.81	60966.27
569.97	60540.30
570.13	60790.73
570.30	60685.41
570.46	60825.84
570.62	60750.94
570.78	60764.99
570.95	60734.56
571.11	60879.67
571.27	60680.73
571.43	60963.93
571.60	61233.10
571.76	60947.55
571.92	60966.27
572.09	60924.14
572.25	60999.04
572.41	60835.20
572.57	61015.43
572.74	61130.11
572.90	61036.49
573.06	60802.44
573.22	60860.95
573.38	60893.72
573.55	60970.96
573.71	61324.38
573.87	60863.29
574.03	60956.91
574.20	60863.29
574.36	61085.64
574.52	61144.16
574.68	61162.88
574.84	61212.03
575.01	61059.90
575.17	61010.74
575.33	60949.89
575.49	60772.01
575.65	61134.79
575.82	61228.41
575.98	61167.56
576.14	61406.30
576.30	61258.84
576.46	61062.24
576.62	60996.70
576.79	61132.45
576.95	60931.17
577.11	61027.13
577.27	61132.45
577.43	61036.49
577.59	61329.06
577.75	61190.97
577.92	60982.66
578.08	61139.47
578.24	61130.11
578.40	61197.99
578.56	61258.84
578.72	61036.49
578.88	61219.05
579.04	61385.23
579.21	61181.60
579.37	61343.10
579.53	61322.04
579.69	60877.33
579.85	61013.08
580.01	61296.29
580.17	61205.01
580.33	61118.41
580.49	61581.84
580.65	61345.44
580.82	61209.69
580.98	60999.04
581.14	60898.40
581.30	61237.78
581.46	61235.44
581.62	61148.84
581.78	61244.80
581.94	61109.05
582.10	61219.05
582.26	61195.65
582.42	61034.15
582.58	61345.44
582.74	61202.67
582.90	61188.63
583.06	61329.06
583.22	61286.93
583.38	61324.38
583.54	61176.92
583.70	61427.36
583.86	61193.31
584.02	61045.85
584.18	61333.74
584.34	61490.55
584.50	61272.88
584.66	61265.86
584.82	61244.80
584.98	61361.82
585.14	61118.41
585.30	61087.98
585.46	61368.85
585.62	61310.33
585.78	61375.87
585.94	61223.73
586.10	61357.14
586.26	61361.82
586.42	61539.71
586.58	61439.06
586.74	61506.94
586.90	61319.70
587.06	61343.10
587.22	61410.98
587.38	61380.55
587.54	61345.44
587.70	61434.38
587.86	61223.73
588.02	61506.94
588.18	61539.71
588.34	61354.80
