SpectraSuite Data File
++++++++++++++++++++++++++++++++++++
Date: Fri Oct 25 10:47:44 EDT 2013
User: price-jones
Dark Spectrum Present: No
Reference Spectrum Present: No
Number of Sampled Component Spectra: 1
Spectrometers: USB2+H05261
Integration Time (usec): 100000 (USB2+H05261)
Spectra Averaged: 1 (USB2+H05261)
Boxcar Smoothing: 0 (USB2+H05261)
Correct for Electrical Dark: No (USB2+H05261)
Strobe/Lamp Enabled: No (USB2+H05261)
Correct for Detector Non-linearity: No (USB2+H05261)
Correct for Stray Light: No (USB2+H05261)
Number of Pixels in Processed Spectrum: 2048
>>>>>Begin Processed Spectral Data<<<<<
365.73	168.52
365.92	168.52
366.12	168.52
366.32	91.28
366.52	60.85
366.72	65.54
366.91	42.13
367.11	30.43
367.31	53.83
367.51	58.51
367.70	0.00
367.90	95.96
368.10	21.06
368.30	21.06
368.49	25.75
368.69	74.90
368.89	98.30
369.09	67.88
369.28	86.60
369.48	77.24
369.68	74.90
369.87	102.98
370.07	81.92
370.27	114.69
370.47	187.24
370.66	341.72
370.86	379.17
371.06	416.62
371.25	526.62
371.45	395.55
371.65	514.92
371.84	491.51
372.04	451.72
372.24	449.38
372.44	433.00
372.63	526.62
372.83	468.11
373.03	545.34
373.22	531.30
373.42	531.30
373.62	599.18
373.81	585.13
374.01	617.90
374.21	503.22
374.40	545.34
374.60	606.20
374.79	526.62
374.99	545.34
375.19	571.09
375.38	580.45
375.58	568.75
375.78	543.00
375.97	571.09
376.17	634.29
376.37	528.96
376.56	592.16
376.76	552.37
376.95	638.97
377.15	629.60
377.35	603.86
377.54	594.50
377.74	613.22
377.93	653.01
378.13	690.46
378.33	627.26
378.52	578.11
378.72	645.99
378.91	676.41
379.11	543.00
379.31	662.37
379.50	671.73
379.70	641.31
379.89	660.03
380.09	641.31
380.28	655.35
380.48	641.31
380.68	648.33
380.87	608.54
381.07	688.12
381.26	674.07
381.46	594.50
381.65	615.56
381.85	688.12
382.04	678.76
382.24	800.46
382.43	650.67
382.63	737.27
382.83	727.91
383.02	727.91
383.22	720.88
383.41	713.86
383.61	660.03
383.80	702.16
384.00	681.10
384.19	767.70
384.39	711.52
384.58	716.20
384.78	720.88
384.97	798.12
385.17	753.65
385.36	718.54
385.56	819.19
385.75	723.23
385.95	821.53
386.14	763.01
386.34	812.17
386.53	772.38
386.72	709.18
386.92	800.46
387.11	856.64
387.31	901.11
387.50	812.17
387.70	835.57
387.89	828.55
388.09	830.89
388.28	823.87
388.48	812.17
388.67	795.78
388.86	837.91
389.06	880.04
389.25	954.94
389.45	887.06
389.64	950.26
389.84	966.64
390.03	807.48
390.22	915.15
390.42	926.85
390.61	936.21
390.81	908.13
391.00	966.64
391.19	997.07
391.39	945.58
391.58	919.83
391.78	938.55
391.97	947.92
392.16	915.15
392.36	884.72
392.55	997.07
392.75	983.02
392.94	910.47
393.13	917.49
393.33	929.19
393.52	947.92
393.71	938.55
393.91	1032.18
394.10	997.07
394.29	1071.97
394.49	978.34
394.68	1032.18
394.88	1097.71
395.07	1083.67
395.26	1121.12
395.46	1109.41
395.65	1130.48
395.84	1078.99
396.04	1160.91
396.23	1128.14
396.42	1093.03
396.62	1200.69
396.81	1163.25
397.00	1132.82
397.19	1200.69
397.39	1235.80
397.58	1308.36
397.77	1291.98
397.97	1284.95
398.16	1231.12
398.35	1146.86
398.55	1310.70
398.74	1334.11
398.93	1376.24
399.12	1299.00
399.32	1287.29
399.51	1324.74
399.70	1357.51
399.90	1378.58
400.09	1409.00
400.28	1460.49
400.47	1303.68
400.67	1540.07
400.86	1378.58
401.05	1430.07
401.24	1469.86
401.44	1418.36
401.63	1502.62
401.82	1483.90
402.01	1418.36
402.21	1523.69
402.40	1472.20
402.59	1479.22
402.78	1507.30
402.97	1568.16
403.17	1551.78
403.36	1437.09
403.55	1600.93
403.74	1661.78
403.93	1617.31
404.13	1591.56
404.32	1579.86
404.51	1568.16
404.70	1652.42
404.89	1692.21
405.09	1706.25
405.28	1703.91
405.47	1640.72
405.66	1724.97
405.85	1790.51
406.05	1680.50
406.24	1753.06
406.43	1811.57
406.62	1863.07
406.81	1898.17
407.00	1937.96
407.20	1778.81
407.39	1823.28
407.58	1839.66
407.77	1907.54
407.96	2064.35
408.15	2024.56
408.34	1884.13
408.54	1959.03
408.73	1825.62
408.92	2101.80
409.11	2043.29
409.30	2001.16
409.49	2057.33
409.68	2047.97
409.87	2047.97
410.07	2115.84
410.26	2115.84
410.45	2010.52
410.64	2153.29
410.83	2179.04
411.02	2230.53
411.21	2207.13
411.40	2307.77
411.59	2289.04
411.78	2319.47
411.98	2200.10
412.17	2335.85
412.36	2312.45
412.55	2403.73
412.74	2326.49
412.93	2399.05
413.12	2420.11
413.31	2513.74
413.50	2431.82
413.69	2532.46
413.88	2644.81
414.07	2548.84
414.26	2572.25
414.45	2567.57
414.64	2590.97
414.83	2583.95
415.02	2708.00
415.22	2668.21
415.41	2848.43
415.60	2722.04
415.79	2813.32
415.98	2867.16
416.17	2841.41
416.36	2766.51
416.55	2904.60
416.74	3019.29
416.93	2806.30
417.12	2998.23
417.31	2897.58
417.50	2913.97
417.69	3082.49
417.88	3091.85
418.07	3155.04
418.26	2977.16
418.45	3117.59
418.64	3218.24
418.83	3204.19
419.02	3112.91
419.21	3084.83
419.39	3222.92
419.58	3094.19
419.77	3185.47
419.96	3286.11
420.15	3248.66
420.34	3187.81
420.53	3204.19
420.72	3290.79
420.91	3283.77
421.10	3283.77
421.29	3363.35
421.48	3323.56
421.67	3447.61
421.86	3332.92
422.05	3382.07
422.24	3307.18
422.43	3398.46
422.61	3445.27
422.80	3461.65
422.99	3545.91
423.18	3494.42
423.37	3611.45
423.56	3648.90
423.75	3541.23
423.94	3412.50
424.13	3288.45
424.32	3365.69
424.50	3499.10
424.69	3428.88
424.88	3709.75
425.07	3524.85
425.26	3375.05
425.45	3421.86
425.64	3482.72
425.83	3412.50
426.01	3555.27
426.20	3499.10
426.39	3597.40
426.58	3529.53
426.77	3564.64
426.96	3651.24
427.15	3513.14
427.33	3646.55
427.52	3655.92
427.71	3658.26
427.90	3662.94
428.09	3721.45
428.28	3777.62
428.46	3826.78
428.65	3733.15
428.84	3857.20
429.03	3896.99
429.22	3815.07
429.40	3775.28
429.59	3880.61
429.78	3641.87
429.97	3524.85
430.16	3679.32
430.34	3714.43
430.53	3854.86
430.72	3777.62
430.91	3737.84
431.10	3794.01
431.28	3974.23
431.47	4180.20
431.66	4257.43
431.85	4056.15
432.03	4175.52
432.22	4112.32
432.41	4081.89
432.60	4248.07
432.79	4393.19
432.97	4109.98
433.16	4283.18
433.35	4142.75
433.54	4365.10
433.72	4152.11
433.91	4273.82
434.10	4241.05
434.28	4308.93
434.47	4241.05
434.66	4444.68
434.85	4390.84
435.03	4531.28
435.22	4386.16
435.41	4557.02
435.59	4540.64
435.78	4517.23
435.97	4517.23
436.16	4400.21
436.34	4535.96
436.53	4629.58
436.72	4681.07
436.90	4482.13
437.09	4678.73
437.28	4678.73
437.46	4542.98
437.65	4624.90
437.84	4542.98
438.02	4674.05
438.21	4629.58
438.40	4592.13
438.58	4964.28
438.77	4922.15
438.96	4880.02
439.14	5011.09
439.33	4943.21
439.52	5032.15
439.70	5121.09
439.89	5048.54
440.08	5125.77
440.26	5020.45
440.45	5050.88
440.63	5165.56
440.82	5245.14
441.01	5270.89
441.19	5298.97
441.38	5451.11
441.57	5324.72
441.75	5458.13
441.94	5638.35
442.12	5551.75
442.31	5584.52
442.50	5610.26
442.68	5687.50
442.87	5757.72
443.05	5694.52
443.24	5586.86
443.43	5654.73
443.61	5734.31
443.80	5774.10
443.98	5568.13
444.17	5518.98
444.35	5760.06
444.54	5888.79
444.73	5823.25
444.91	5806.87
445.10	5776.44
445.28	5762.40
445.47	5762.40
445.65	5729.63
445.84	5973.05
446.02	5900.49
446.21	5788.14
446.39	5750.70
446.58	5916.87
446.77	5984.75
446.95	5818.57
447.14	5867.72
447.32	6153.27
447.51	5980.07
447.69	6003.47
447.88	5870.06
448.06	5774.10
448.25	5909.85
448.43	6127.52
448.62	5909.85
448.80	5867.72
448.99	6005.81
449.17	6157.95
449.36	6017.52
449.54	6183.70
449.73	6345.19
449.91	6349.87
450.10	6333.49
450.28	6459.88
450.46	6328.81
450.65	6307.74
450.83	6384.98
451.02	6321.79
451.20	6445.84
451.39	6319.45
451.57	6368.60
451.76	6429.45
451.94	6455.20
452.13	6693.93
452.31	6504.35
452.49	6415.41
452.68	6506.69
452.86	6586.27
453.05	6682.23
453.23	6548.82
453.42	6590.95
453.60	6473.92
453.78	6651.80
453.97	6537.12
454.15	6635.42
454.34	6586.27
454.52	6829.68
454.70	6686.91
454.89	6773.51
455.07	6796.92
455.26	6736.06
455.44	6874.15
455.62	6918.62
455.81	6942.03
455.99	7014.59
456.17	6757.13
456.36	6888.20
456.54	7283.75
456.73	7243.96
456.91	7279.07
457.09	7126.93
457.28	7342.26
457.46	6904.58
457.64	7250.98
457.83	7145.66
458.01	7068.42
458.19	7297.79
458.38	7297.79
458.56	7414.82
458.74	7353.96
458.93	7342.26
459.11	7449.93
459.29	7541.21
459.48	7513.12
459.66	7368.01
459.84	7461.63
460.03	7585.68
460.21	7583.34
460.39	7606.74
460.57	7667.60
460.76	7702.70
460.94	7798.66
461.12	7557.59
461.31	7728.45
461.49	7831.43
461.67	7517.80
461.85	7878.24
462.04	7737.81
462.22	8327.63
462.40	7861.86
462.59	7999.95
462.77	7976.55
462.95	7911.01
463.13	7880.58
463.32	7878.24
463.50	8028.04
463.68	8152.09
463.86	8042.08
464.05	8168.47
464.23	8088.89
464.41	8159.11
464.59	8009.31
464.78	8114.64
464.96	8271.45
465.14	8152.09
465.32	8463.38
465.50	8255.07
465.69	8238.69
465.87	8259.75
466.05	8236.35
466.23	8196.56
466.41	8269.11
466.60	8575.72
466.78	8381.46
466.96	8461.04
467.14	8620.19
467.32	8585.08
467.51	8624.87
467.69	8409.54
467.87	8468.06
468.05	8468.06
468.23	8535.93
468.41	8507.85
468.60	8432.95
468.78	8578.06
468.96	8617.85
469.14	8781.69
469.32	8732.54
469.50	8631.90
469.69	8748.92
469.87	8856.59
470.05	8908.08
470.23	9062.55
470.41	8858.93
470.59	9064.89
470.77	9181.92
470.95	8926.80
471.14	9298.95
471.32	8711.47
471.50	9200.65
471.68	9128.09
471.86	9263.84
472.04	9202.99
472.22	9371.50
472.40	9146.81
472.58	9411.29
472.77	9509.60
472.95	9579.81
473.13	9909.83
473.31	9542.36
473.49	9516.62
473.67	9502.58
473.85	9664.07
474.03	9968.34
474.21	9643.01
474.39	9872.38
474.57	9848.97
474.75	10059.62
474.93	10186.01
475.12	10216.44
475.30	10040.90
475.48	9949.62
475.66	10263.25
475.84	10111.11
476.02	10305.38
476.20	10202.40
476.38	10441.13
476.56	10799.23
476.74	10682.20
476.92	10539.43
477.10	10663.48
477.28	10703.27
477.46	10656.46
477.64	11110.52
477.82	11002.86
478.00	11265.00
478.18	11424.15
478.36	11321.17
478.54	11290.74
478.72	11304.79
478.90	11749.49
479.08	11639.48
479.26	11845.45
479.44	11885.24
479.62	11974.18
479.80	12189.51
479.98	12018.65
480.16	12320.58
480.34	12173.13
480.52	12561.66
480.70	12341.64
480.88	12388.46
481.06	12496.12
481.24	12444.63
481.41	12744.22
481.59	12882.31
481.77	12781.67
481.95	13188.92
482.13	13125.72
482.31	13275.52
482.49	13401.91
482.67	13390.20
482.85	13762.35
483.03	13699.16
483.21	13729.58
483.39	14157.90
483.57	14012.79
483.74	14157.90
483.92	14270.25
484.10	14298.33
484.28	14504.30
484.46	14541.75
484.64	14689.20
484.82	14398.98
485.00	14850.70
485.18	14923.26
485.35	14923.26
485.53	14951.34
485.71	14941.98
485.89	15220.50
486.07	15204.12
486.25	15173.69
486.43	15183.06
486.61	15611.37
486.78	15826.70
486.96	15880.53
487.14	16100.55
487.32	15985.86
487.50	16353.32
487.68	16599.08
487.85	16587.38
488.03	16791.00
488.21	16964.20
488.39	16865.90
488.57	16959.52
488.75	17305.92
488.92	17401.88
489.10	17752.96
489.28	17869.99
489.46	17837.22
489.64	17891.06
489.81	18132.13
489.99	18452.78
490.17	18422.36
490.35	18448.10
490.53	18689.18
490.70	18815.57
490.88	18375.55
491.06	18918.55
491.24	19005.15
491.41	18668.11
491.59	19133.88
491.77	19218.14
491.95	19421.77
492.13	19627.73
492.30	19520.07
492.48	19620.71
492.66	19798.59
492.84	19939.02
493.01	20215.21
493.19	20081.80
493.37	20367.34
493.54	20287.76
493.72	20589.69
493.90	20531.18
494.08	20709.06
494.25	21275.47
494.43	20751.19
494.61	21528.25
494.79	21312.92
494.96	21612.51
495.14	21525.91
495.32	21493.14
495.49	21743.58
495.67	22136.79
495.85	21830.18
496.02	22225.73
496.20	22143.81
496.38	22293.60
496.55	22104.02
496.73	22733.62
496.91	22394.25
497.09	22799.16
497.26	23096.41
497.44	22600.21
497.62	23065.98
497.79	23644.09
497.97	23108.11
498.14	23534.09
498.32	23386.63
498.50	23180.67
498.67	23831.33
498.85	23894.53
499.03	24053.69
499.20	24137.94
499.38	24203.48
499.56	24231.57
499.73	24034.96
499.91	24393.06
500.08	24606.05
500.26	24201.14
500.44	24734.78
500.61	24575.62
500.79	24580.31
500.97	24957.13
501.14	25305.87
501.32	24669.25
501.49	25057.78
501.67	25528.22
501.84	25364.39
502.02	25163.10
502.20	25638.23
502.37	25638.23
502.55	25759.94
502.72	25771.64
502.90	25869.94
503.07	25340.98
503.25	25996.33
503.43	25790.36
503.60	26221.02
503.78	26277.19
503.95	26178.89
504.13	26211.66
504.30	26312.30
504.48	26443.37
504.65	26754.66
504.83	26920.84
505.01	27253.20
505.18	27047.23
505.36	27110.43
505.53	26972.33
505.71	27623.00
505.88	27030.85
506.06	27065.96
506.23	27262.56
506.41	27171.28
506.58	27578.53
506.76	27604.28
506.93	27948.34
507.11	27646.41
507.28	28067.70
507.46	27906.21
507.63	27995.15
507.81	27953.02
507.98	27725.99
508.16	28350.91
508.33	28397.72
508.50	28393.04
508.68	28535.81
508.85	28814.34
509.03	28851.78
509.20	28683.27
509.38	28627.09
509.55	29057.75
509.73	28762.84
509.90	29380.74
510.08	28903.28
510.25	28711.35
510.42	29549.26
510.60	29310.53
510.77	29401.81
510.95	29654.59
511.12	29331.59
511.30	29495.43
511.47	30284.19
511.64	29834.81
511.82	30368.45
511.99	30057.16
512.17	29916.73
512.34	29790.34
512.51	30075.88
512.69	30483.14
512.86	30380.15
513.04	30480.80
513.21	30555.69
513.38	30333.34
513.56	30745.28
513.73	30471.43
513.90	31063.59
514.08	30815.49
514.25	30703.15
514.43	31117.42
514.60	30946.56
514.77	30789.75
514.95	31405.31
515.12	31105.72
515.29	31398.29
515.47	31693.19
515.64	31309.35
515.81	31578.51
515.99	31248.49
516.16	31714.26
516.33	31559.78
516.51	31845.33
516.68	31426.37
516.85	31344.45
517.03	32177.68
517.20	31896.82
517.37	31791.50
517.54	32247.90
517.72	32208.11
517.89	31482.55
518.06	32109.81
518.24	32233.86
518.41	32077.04
518.58	32367.27
518.75	32348.54
518.93	32641.11
519.10	32582.60
519.27	32978.15
519.45	32678.56
519.62	32924.32
519.79	32992.19
519.96	33123.26
520.14	33134.96
520.31	33228.59
520.48	33200.50
520.65	33010.92
520.83	33497.75
521.00	33497.75
521.17	33347.95
521.34	33680.31
521.52	33759.89
521.69	33919.04
521.86	34054.79
522.03	33954.15
522.20	33675.63
522.38	34043.09
522.55	34171.82
522.72	34455.03
522.89	33937.77
523.07	34501.84
523.24	34141.39
523.41	34132.03
523.58	34225.65
523.75	34927.81
523.92	34653.97
524.10	34834.19
524.27	34733.55
524.44	34932.50
524.61	34749.93
524.78	34717.17
524.96	35299.96
525.13	35103.35
525.30	35302.30
525.47	35288.26
525.64	35468.48
525.81	35335.07
525.98	35196.98
526.16	35117.40
526.33	35494.22
526.50	35658.06
526.67	35147.82
526.84	35023.78
527.01	35583.16
527.18	35543.38
527.36	35770.41
527.53	35833.60
527.70	35938.93
527.87	36114.47
528.04	35782.11
528.21	36107.44
528.38	36201.07
528.55	36011.48
528.72	36428.10
528.89	36023.19
529.07	36624.70
529.24	35988.08
529.41	36613.00
529.58	36208.09
529.75	36662.15
529.92	36671.51
530.09	36561.51
530.26	36224.47
530.43	36503.00
530.60	36500.65
530.77	36493.63
530.94	37160.69
531.11	37153.66
531.28	37003.87
531.46	37240.26
531.63	37483.68
531.80	36875.14
531.97	37378.36
532.14	37572.62
532.31	37343.25
532.48	37427.51
532.65	37640.50
532.82	37546.87
532.99	37703.69
533.16	37408.78
533.33	37354.95
533.50	37610.07
533.67	37511.77
533.84	37209.84
534.01	37923.70
534.18	37373.67
534.35	37827.74
534.52	37640.50
534.69	37979.87
534.86	38476.07
535.03	37972.85
535.20	38567.35
535.37	38597.77
535.54	38555.64
535.71	38117.96
535.88	38415.21
536.05	38258.40
536.22	38419.89
536.38	38314.57
536.55	38054.77
536.72	38335.63
536.89	38022.00
537.06	38569.69
537.23	39047.16
537.40	38635.22
537.57	38607.14
537.74	38761.61
537.91	39086.95
538.08	39072.90
538.25	38436.28
538.42	38864.60
538.59	39199.29
538.75	38682.03
538.92	39049.50
539.09	39246.10
539.26	39210.99
539.43	39508.24
539.60	39370.15
539.77	39262.49
539.94	38967.58
540.11	39157.16
540.28	39023.75
540.44	39449.73
540.61	39271.85
540.78	39243.76
540.95	39489.52
541.12	39407.60
541.29	39519.95
541.46	39192.27
541.62	39833.58
541.79	39992.73
541.96	39316.32
542.13	39431.01
542.30	39681.44
542.47	40091.04
542.63	39414.62
542.80	40025.50
542.97	40091.04
543.14	40533.40
543.31	40133.17
543.48	40098.06
543.64	40825.96
543.81	40540.42
543.98	40161.25
544.15	40165.93
544.32	40910.22
544.48	40748.73
544.65	40545.10
544.82	40392.97
544.99	39873.37
545.16	40715.96
545.32	40978.10
545.49	41277.69
545.66	41361.95
545.83	40711.28
546.00	41024.91
546.16	41251.94
546.33	40835.33
546.50	40999.16
546.67	41151.30
546.83	40821.28
547.00	40952.35
547.17	41165.34
547.34	41074.06
547.50	41247.26
547.67	41303.43
547.84	41528.13
548.00	41640.47
548.17	41617.07
548.34	41511.74
548.51	41750.48
548.67	41904.95
548.84	41799.63
549.01	41631.11
549.18	41481.31
549.34	41764.52
549.51	41689.62
549.68	42059.43
549.84	41450.89
550.01	42017.30
550.18	42017.30
550.34	41745.80
550.51	41909.63
550.68	41783.24
550.84	41614.72
551.01	41670.90
551.18	41408.76
551.34	41991.55
551.51	42206.88
551.68	41874.52
551.84	42146.03
552.01	41951.76
552.18	42340.29
552.34	42178.79
552.51	41991.55
552.68	42595.41
552.84	42609.45
553.01	42960.53
553.18	42209.22
553.34	41881.55
553.51	42113.26
553.67	42029.00
553.84	42827.12
554.01	42745.20
554.17	43044.79
554.34	42806.06
554.51	42609.45
554.67	42794.36
554.84	42635.20
555.00	42572.00
555.17	42632.86
555.33	42279.44
555.50	42749.88
555.67	42609.45
555.83	42768.61
556.00	42625.84
556.16	43180.54
556.33	42763.93
556.50	43112.67
556.66	42909.04
556.83	42717.12
556.99	43217.99
557.16	43012.02
557.32	43103.31
557.49	43175.86
557.65	42515.83
557.82	43227.35
557.98	42869.25
558.15	43316.29
558.32	43299.91
558.48	43143.09
558.65	42857.55
558.81	42967.55
558.98	43217.99
559.14	43543.33
559.31	43030.75
559.47	43730.57
559.64	43271.82
559.80	43707.16
559.97	43655.67
560.13	43136.07
560.30	43292.89
560.46	43370.13
560.63	43236.72
560.79	43550.35
560.96	43973.98
561.12	43491.83
561.29	43077.56
561.45	43468.43
561.61	43592.48
561.78	43428.64
561.94	43335.02
562.11	43475.45
562.27	43159.48
562.44	43601.84
562.60	43854.62
562.77	43894.41
562.93	43665.03
563.10	44009.09
563.26	43622.90
563.42	43697.80
563.59	43611.20
563.75	43868.66
563.92	43751.63
564.08	44039.52
564.24	43978.67
564.41	43718.87
564.57	43770.36
564.74	43807.81
564.90	44205.70
565.07	43957.60
565.23	43852.28
565.39	43826.53
565.56	43966.96
565.72	43639.29
565.88	44006.75
566.05	43784.40
566.21	43983.35
566.38	44102.71
566.54	43941.22
566.70	44444.43
566.87	44512.31
567.03	43976.33
567.19	44535.71
567.36	44060.58
567.52	43756.32
567.68	44414.01
567.85	44098.03
568.01	44065.27
568.17	43920.15
568.34	44240.81
568.50	43955.26
568.66	44130.80
568.83	44315.70
568.99	43896.75
569.15	44488.90
569.32	43693.12
569.48	43859.30
569.64	44708.91
569.81	44318.04
569.97	44107.40
570.13	44032.50
570.30	44023.14
570.46	43966.96
570.62	43941.22
570.78	43735.25
570.95	44137.82
571.11	44339.11
571.27	44498.26
571.43	43803.13
571.60	44311.02
571.76	44491.24
571.92	44479.54
572.09	44074.63
572.25	43924.83
572.41	44182.29
572.57	44053.56
572.74	44287.62
572.90	44292.30
573.06	44556.78
573.22	44484.22
573.38	44133.14
573.55	44381.24
573.71	44327.41
573.87	44683.17
574.03	44612.95
574.20	43955.26
574.36	44397.62
574.52	44804.88
574.68	44208.04
574.84	44182.29
575.01	44109.74
575.17	44240.81
575.33	44486.56
575.49	44065.27
575.65	44421.03
575.82	44594.23
575.98	44507.63
576.14	44540.39
576.30	44566.14
576.46	44114.42
576.62	44708.91
576.79	43981.01
576.95	44037.18
577.11	44491.24
577.27	44540.39
577.43	44886.79
577.59	44252.51
577.75	44538.05
577.92	43786.74
578.08	44163.57
578.24	43887.39
578.40	44619.97
578.56	44275.91
578.72	44149.53
578.88	44729.98
579.04	44390.60
579.21	44479.54
579.37	44715.93
579.53	44158.89
579.69	44002.07
579.85	44524.01
580.01	44821.26
580.17	45036.59
580.33	44507.63
580.49	44456.14
580.65	44603.59
580.82	44945.31
580.98	44423.37
581.14	44320.38
581.30	44610.61
581.46	45064.67
581.62	44954.67
581.78	44718.28
581.94	44636.36
582.10	44568.48
582.26	44891.48
582.42	44421.03
582.58	44563.80
582.74	44107.40
582.90	44774.45
583.06	45141.91
583.22	44315.70
583.38	44910.20
583.54	44786.15
583.70	44421.03
583.86	44584.86
584.02	44451.45
584.18	44582.52
584.34	44624.65
584.50	44659.76
584.66	44526.35
584.82	44669.12
584.98	44767.43
585.14	45261.28
585.30	44547.42
585.46	44617.63
585.62	44030.16
585.78	44397.62
585.94	44027.82
586.10	44446.77
586.26	44680.83
586.42	44737.00
586.58	44769.77
586.74	44781.47
586.90	44250.17
587.06	44678.49
587.22	45043.61
587.38	44605.93
587.54	45221.49
587.70	45382.99
587.86	45036.59
588.02	45146.59
588.18	45059.99
588.34	44587.21
588.49	44432.73
588.65	44306.34
588.81	44226.76
588.97	44622.31
589.13	44648.06
589.29	44566.14
589.45	44411.67
589.61	45038.93
589.77	45532.78
589.93	44875.09
590.08	45069.36
590.24	44828.28
590.40	45315.11
