SpectraSuite Data File
++++++++++++++++++++++++++++++++++++
Date: Fri Oct 25 10:47:53 EDT 2013
User: price-jones
Dark Spectrum Present: No
Reference Spectrum Present: No
Number of Sampled Component Spectra: 1
Spectrometers: USB2+H05261
Integration Time (usec): 100000 (USB2+H05261)
Spectra Averaged: 1 (USB2+H05261)
Boxcar Smoothing: 0 (USB2+H05261)
Correct for Electrical Dark: No (USB2+H05261)
Strobe/Lamp Enabled: No (USB2+H05261)
Correct for Detector Non-linearity: No (USB2+H05261)
Correct for Stray Light: No (USB2+H05261)
Number of Pixels in Processed Spectrum: 2048
>>>>>Begin Processed Spectral Data<<<<<
365.73	156.82
365.92	156.82
366.12	156.82
366.32	98.30
366.52	105.32
366.72	16.38
366.91	23.41
367.11	30.43
367.31	32.77
367.51	37.45
367.70	28.09
367.90	72.56
368.10	46.81
368.30	0.00
368.49	7.02
368.69	0.00
368.89	126.39
369.09	16.38
369.28	142.77
369.48	91.28
369.68	28.09
369.87	98.30
370.07	95.96
370.27	159.16
370.47	236.39
370.66	414.27
370.86	332.36
371.06	493.85
371.25	486.83
371.45	482.15
371.65	404.91
371.84	463.43
372.04	409.59
372.24	447.04
372.44	447.04
372.63	484.49
372.83	512.58
373.03	491.51
373.22	507.90
373.42	482.15
373.62	500.87
373.81	430.66
374.01	613.22
374.21	587.47
374.40	540.66
374.60	564.07
374.79	550.03
374.99	559.39
375.19	543.00
375.38	641.31
375.58	568.75
375.78	552.37
375.97	610.88
376.17	650.67
376.37	594.50
376.56	636.63
376.76	543.00
376.95	603.86
377.15	594.50
377.35	596.84
377.54	662.37
377.74	587.47
377.93	596.84
378.13	669.39
378.33	631.94
378.52	564.07
378.72	653.01
378.91	648.33
379.11	636.63
379.31	585.13
379.50	622.58
379.70	676.41
379.89	603.86
380.09	655.35
380.28	667.05
380.48	648.33
380.68	650.67
380.87	695.14
381.07	613.22
381.26	711.52
381.46	678.76
381.65	709.18
381.85	671.73
382.04	678.76
382.24	681.10
382.43	596.84
382.63	662.37
382.83	671.73
383.02	678.76
383.22	667.05
383.41	683.44
383.61	765.36
383.80	777.06
384.00	711.52
384.19	781.74
384.39	704.50
384.58	755.99
384.78	770.04
384.97	739.61
385.17	737.27
385.36	760.67
385.56	706.84
385.75	800.46
385.95	732.59
386.14	793.44
386.34	774.72
386.53	833.23
386.72	760.67
386.92	793.44
387.11	849.61
387.31	830.89
387.50	847.27
387.70	720.88
387.89	851.96
388.09	781.74
388.28	863.66
388.48	807.48
388.67	870.68
388.86	866.00
389.06	840.25
389.25	823.87
389.45	908.13
389.64	908.13
389.84	950.26
390.03	903.45
390.22	926.85
390.42	905.79
390.61	901.11
390.81	823.87
391.00	1011.11
391.19	968.98
391.39	896.43
391.58	943.24
391.78	898.77
391.97	1053.24
392.16	875.36
392.36	1032.18
392.55	968.98
392.75	1055.58
392.94	1086.01
393.13	1029.84
393.33	1020.47
393.52	976.00
393.71	992.39
393.91	985.37
394.10	1041.54
394.29	1076.65
394.49	1018.13
394.68	1111.75
394.88	1074.31
395.07	1123.46
395.26	1153.88
395.46	1118.78
395.65	1144.52
395.84	1125.80
396.04	1104.73
396.23	1057.92
396.42	1123.46
396.62	1109.41
396.81	1071.97
397.00	1186.65
397.19	1121.12
397.39	1240.48
397.58	1291.98
397.77	1156.22
397.97	1270.91
398.16	1226.44
398.35	1280.27
398.55	1235.80
398.74	1338.79
398.93	1306.02
399.12	1235.80
399.32	1235.80
399.51	1327.08
399.70	1416.02
399.90	1371.55
400.09	1439.43
400.28	1439.43
400.47	1334.11
400.67	1430.07
400.86	1502.62
401.05	1497.94
401.24	1355.17
401.44	1474.54
401.63	1528.37
401.82	1570.50
402.01	1486.24
402.21	1540.07
402.40	1537.73
402.59	1561.14
402.78	1572.84
402.97	1441.77
403.17	1549.43
403.36	1586.88
403.55	1500.28
403.74	1561.14
403.93	1720.29
404.13	1743.70
404.32	1703.91
404.51	1689.87
404.70	1664.12
404.89	1664.12
405.09	1757.74
405.28	1741.36
405.47	1696.89
405.66	1673.48
405.85	1727.32
406.05	1626.67
406.24	1739.02
406.43	1823.28
406.62	1935.62
406.81	1959.03
407.00	1769.44
407.20	1799.87
407.39	1783.49
407.58	1984.77
407.77	1907.54
407.96	1947.33
408.15	1907.54
408.34	2015.20
408.54	1977.75
408.73	2015.20
408.92	2017.54
409.11	2029.24
409.30	2094.78
409.49	2008.18
409.68	2036.27
409.87	2101.80
410.07	2127.55
410.26	2202.44
410.45	2111.16
410.64	2078.40
410.83	2282.02
411.02	2125.21
411.21	2312.45
411.40	2157.97
411.59	2267.98
411.78	2326.49
411.98	2312.45
412.17	2279.68
412.36	2244.57
412.55	2415.43
412.74	2410.75
412.93	2328.83
413.12	2436.50
413.31	2504.37
413.50	2452.88
413.69	2530.12
413.88	2581.61
414.07	2600.34
414.26	2726.72
414.45	2590.97
414.64	2558.21
414.83	2773.53
415.02	2733.75
415.22	2731.41
415.41	2864.82
415.60	2740.77
415.79	2771.19
415.98	2818.00
416.17	2918.65
416.36	2803.96
416.55	2848.43
416.74	3042.70
416.93	2916.31
417.12	2876.52
417.31	2965.46
417.50	3066.10
417.69	3009.93
417.88	2939.71
418.07	2984.18
418.26	3073.12
418.45	3049.72
418.64	3239.30
418.83	3143.34
419.02	3194.83
419.21	3145.68
419.39	3213.56
419.58	3157.38
419.77	3260.37
419.96	3204.19
420.15	3279.09
420.34	3295.47
420.53	3358.67
420.72	3386.76
420.91	3372.71
421.10	3279.09
421.29	3435.91
421.48	3417.18
421.67	3377.39
421.86	3452.29
422.05	3494.42
422.24	3307.18
422.43	3379.73
422.61	3442.93
422.80	3555.27
422.99	3536.55
423.18	3564.64
423.37	3588.04
423.56	3618.47
423.75	3557.61
423.94	3424.20
424.13	3325.90
424.32	3449.95
424.50	3581.02
424.69	3686.34
424.88	3672.30
425.07	3538.89
425.26	3494.42
425.45	3510.80
425.64	3644.21
425.83	3480.38
426.01	3637.19
426.20	3595.06
426.39	3590.38
426.58	3555.27
426.77	3489.74
426.96	3623.15
427.15	3588.04
427.33	3728.47
427.52	3688.68
427.71	3740.18
427.90	3786.99
428.09	3854.86
428.28	3681.66
428.46	3719.11
428.65	3786.99
428.84	3854.86
429.03	3796.35
429.22	3691.02
429.40	3819.75
429.59	3868.91
429.78	3655.92
429.97	3691.02
430.16	3702.73
430.34	3801.03
430.53	3791.67
430.72	3794.01
430.91	3948.48
431.10	3936.78
431.28	4119.34
431.47	4156.79
431.66	4262.12
431.85	4098.28
432.03	4191.90
432.22	4276.16
432.41	4175.52
432.60	4189.56
432.79	4124.02
432.97	4341.69
433.16	4421.27
433.35	4231.69
433.54	4196.58
433.72	4287.86
433.91	4290.20
434.10	4266.80
434.28	4229.35
434.47	4430.63
434.66	4500.85
434.85	4325.31
435.03	4505.53
435.22	4542.98
435.41	4484.47
435.59	4676.39
435.78	4568.73
435.97	4540.64
436.16	4514.89
436.34	4351.06
436.53	4582.77
436.72	4720.86
436.90	4660.01
437.09	4664.69
437.28	4535.96
437.46	4641.28
437.65	4751.29
437.84	4622.56
438.02	4620.22
438.21	4791.08
438.40	4669.37
438.58	4758.31
438.77	4851.93
438.96	4905.76
439.14	5015.77
439.33	5018.11
439.52	5097.69
439.70	5036.83
439.89	5081.30
440.08	5078.96
440.26	5085.98
440.45	5179.61
440.63	5057.90
440.82	5193.65
441.01	5270.89
441.19	5296.63
441.38	5448.77
441.57	5399.62
441.75	5544.73
441.94	5710.91
442.12	5446.43
442.31	5657.07
442.50	5626.65
442.68	5792.83
442.87	5738.99
443.05	5652.39
443.24	5790.49
443.43	5865.38
443.61	5687.50
443.80	5888.79
443.98	5738.99
444.17	5809.21
444.35	6036.24
444.54	5802.19
444.73	5849.00
444.91	5856.02
445.10	5743.67
445.28	5692.18
445.47	5701.54
445.65	5820.91
445.84	5823.25
446.02	5834.96
446.21	5884.11
446.39	5919.21
446.58	5982.41
446.77	5982.41
446.95	5841.98
447.14	5879.43
447.32	6087.73
447.51	5989.43
447.69	6022.20
447.88	5919.21
448.06	5837.30
448.25	5989.43
448.43	6106.46
448.62	5881.77
448.80	5987.09
448.99	6157.95
449.17	6111.14
449.36	6085.39
449.54	6171.99
449.73	6218.80
449.91	6253.91
450.10	6354.55
450.28	6487.96
450.46	6363.92
450.65	6349.87
450.83	6352.21
451.02	6389.66
451.20	6396.68
451.39	6406.05
451.57	6471.58
451.76	6380.30
451.94	6527.75
452.13	6661.16
452.31	6473.92
452.49	6441.15
452.68	6354.55
452.86	6651.80
453.05	6520.73
453.23	6832.02
453.42	6494.99
453.60	6483.28
453.78	6527.75
453.97	6661.16
454.15	6675.21
454.34	6612.01
454.52	6707.98
454.70	6801.60
454.89	6956.07
455.07	6862.45
455.26	6892.88
455.44	7140.97
455.62	6869.47
455.81	6984.16
455.99	7005.22
456.17	6981.82
456.36	7007.56
456.54	7035.65
456.73	7272.04
456.91	7250.98
457.09	7164.38
457.28	7375.03
457.46	7215.87
457.64	7246.30
457.83	7356.30
458.01	7248.64
458.19	7421.84
458.38	7396.09
458.56	7485.03
458.74	7396.09
458.93	7304.81
459.11	7426.52
459.29	7588.02
459.48	7637.17
459.66	7456.95
459.84	7789.30
460.03	7651.21
460.21	7686.32
460.39	7566.95
460.57	7559.93
460.76	7733.13
460.94	7765.90
461.12	7508.44
461.31	7920.37
461.49	7852.50
461.67	7604.40
461.85	7981.23
462.04	7840.79
462.22	8479.76
462.40	8009.31
462.59	8049.10
462.77	7957.82
462.95	8053.78
463.13	8018.68
463.32	8042.08
463.50	8002.29
463.68	8060.80
463.86	8028.04
464.05	7927.39
464.23	7932.08
464.41	8196.56
464.59	8070.17
464.78	8374.44
464.96	8264.43
465.14	8226.98
465.32	8189.53
465.50	8418.91
465.69	8437.63
465.87	8154.43
466.05	8290.18
466.23	8252.73
466.41	8294.86
466.60	8638.92
466.78	8294.86
466.96	8215.28
467.14	8339.33
467.32	8416.57
467.51	8458.70
467.69	8390.82
467.87	8409.54
468.05	8510.19
468.23	8519.55
468.41	8610.83
468.60	8489.12
468.78	8652.96
468.96	8685.73
469.14	8826.16
469.32	8732.54
469.50	8648.28
469.69	8912.76
469.87	8919.78
470.05	8919.78
470.23	8802.75
470.41	9062.55
470.59	9109.36
470.77	8879.99
470.95	9039.15
471.14	9275.54
471.32	9025.11
471.50	9275.54
471.68	9240.44
471.86	9249.80
472.04	9373.85
472.22	9380.87
472.40	9430.02
472.58	9502.58
472.77	9198.31
472.95	9600.88
473.13	9933.23
473.31	9500.23
473.49	9507.26
473.67	9511.94
473.85	9439.38
474.03	9856.00
474.21	9905.15
474.39	9832.59
474.57	10148.56
474.75	10139.20
474.93	10073.67
475.12	10113.45
475.30	10195.37
475.48	10403.68
475.66	10298.36
475.84	10118.14
476.02	10307.72
476.20	10396.66
476.38	10675.18
476.56	10717.31
476.74	10518.37
476.92	10698.59
477.10	10949.03
477.28	10848.38
477.46	10761.78
477.64	11257.98
477.82	11234.57
478.00	11335.21
478.18	11452.24
478.36	11293.08
478.54	11367.98
478.72	11592.67
478.90	11683.95
479.08	11726.08
479.26	11953.12
479.44	11896.94
479.62	11866.52
479.80	12039.72
479.98	12016.31
480.16	12552.29
480.34	12123.98
480.52	12540.59
480.70	12601.44
480.88	12374.41
481.06	12758.26
481.24	12762.94
481.41	12800.39
481.59	13074.23
481.77	12872.95
481.95	13198.28
482.13	13132.75
482.31	13200.62
482.49	13444.04
482.67	13357.44
482.85	13797.46
483.03	13635.96
483.21	13624.26
483.39	14305.35
483.57	13839.59
483.74	14307.69
483.92	14204.71
484.10	14122.79
484.28	14794.53
484.46	14609.62
484.64	14956.02
484.82	14595.58
485.00	14684.52
485.18	15133.90
485.35	15187.74
485.53	15152.63
485.71	15094.11
485.89	15410.09
486.07	15279.02
486.25	15374.98
486.43	15379.66
486.61	15728.40
486.78	16013.95
486.96	15798.62
487.14	15983.52
487.32	16379.07
487.50	16400.13
487.68	16842.50
487.85	16826.11
488.03	17104.64
488.21	16957.18
488.39	17029.74
488.57	17069.53
488.75	17357.41
488.92	17472.10
489.10	17802.11
489.28	17839.56
489.46	17830.20
489.64	18033.83
489.81	18118.09
489.99	18267.88
490.17	18321.71
490.35	18705.56
490.53	18607.26
490.70	18995.79
490.88	18663.43
491.06	18675.13
491.24	18738.33
491.41	19243.88
491.59	19040.26
491.77	19253.25
491.95	19400.70
492.13	19325.80
492.30	19742.42
492.48	20063.07
492.66	19922.64
492.84	19857.10
493.01	20250.32
493.19	20130.95
493.37	20540.54
493.54	20507.77
493.72	20805.02
493.90	20683.31
494.08	20720.76
494.25	21116.31
494.43	21099.93
494.61	21692.08
494.79	21603.14
494.96	21322.28
495.14	21490.80
495.32	21909.75
495.49	21872.31
495.67	21682.72
495.85	22078.27
496.02	22085.30
496.20	22434.03
496.38	22377.86
496.55	22492.55
496.73	23103.43
496.91	22309.99
497.09	22586.17
497.26	22796.82
497.44	23061.30
497.62	23030.87
497.79	23522.38
497.97	23117.47
498.14	23501.32
498.32	23695.58
498.50	23342.16
498.67	24025.60
498.85	23812.61
499.03	24182.42
499.20	24034.96
499.38	24130.92
499.56	24339.23
499.73	24432.85
499.91	24407.11
500.08	24685.63
500.26	24400.08
500.44	24379.02
500.61	24755.85
500.79	24634.14
500.97	24940.75
501.14	24931.39
501.32	25074.16
501.49	25296.51
501.67	25266.08
501.84	25326.94
502.02	25455.67
502.20	25441.62
502.37	25928.45
502.55	25619.50
502.72	25715.47
502.90	26024.42
503.07	25523.54
503.25	25846.54
503.43	25898.03
503.60	25958.88
503.78	26029.10
503.95	26342.73
504.13	26534.65
504.30	26661.04
504.48	26162.51
504.65	26607.21
504.83	26522.95
505.01	26841.26
505.18	27047.23
505.36	27070.64
505.53	27297.67
505.71	27449.80
505.88	27370.22
506.06	27349.16
506.23	27557.47
506.41	27405.33
506.58	27669.81
506.76	27630.02
506.93	28016.21
507.11	27592.58
507.28	27929.61
507.46	27690.88
507.63	27618.32
507.81	28091.11
507.98	28170.69
508.16	28030.26
508.33	28692.63
508.50	28313.46
508.68	28449.21
508.85	28739.44
509.03	28643.48
509.20	28334.53
509.38	28907.96
509.55	29036.69
509.73	29303.51
509.90	28926.68
510.08	28872.85
510.25	29024.98
510.42	29312.87
510.60	29633.52
510.77	29628.84
510.95	29668.63
511.12	29558.63
511.30	29848.85
511.47	30230.36
511.64	29820.77
511.82	30309.94
511.99	30181.21
512.17	30082.91
512.34	29930.77
512.51	30366.11
512.69	30424.62
512.86	30260.79
513.04	30473.78
513.21	30836.56
513.38	30574.42
513.56	30597.82
513.73	30548.67
513.90	30962.95
514.08	30455.05
514.25	31019.12
514.43	30820.17
514.60	30881.03
514.77	30951.24
514.95	31197.00
515.12	31185.30
515.29	31267.22
515.47	31622.98
515.64	31646.38
515.81	31524.68
515.99	31962.36
516.16	32086.40
516.33	31328.07
516.51	31634.68
516.68	31543.40
516.85	31213.38
517.03	31857.03
517.20	31700.22
517.37	31969.38
517.54	32470.25
517.72	32336.84
517.89	32203.43
518.06	32032.57
518.24	32004.49
518.41	32245.56
518.58	32704.31
518.75	32404.72
518.93	32814.31
519.10	32327.48
519.27	32657.49
519.45	32893.89
519.62	33088.15
519.79	33223.90
519.96	33034.32
520.14	33612.43
520.31	32987.51
520.48	33347.95
520.65	33593.71
520.83	33612.43
521.00	33724.78
521.17	33731.80
521.34	33701.37
521.52	34017.35
521.69	33759.89
521.86	33996.28
522.03	33989.26
522.20	34270.12
522.38	34361.40
522.55	34209.27
522.72	34115.65
522.89	33979.90
523.07	34239.70
523.24	34251.40
523.41	34583.76
523.58	34569.71
523.75	34637.59
523.92	34822.49
524.10	35143.14
524.27	34829.51
524.44	35328.05
524.61	34925.47
524.78	35016.75
524.96	35274.21
525.13	35218.04
525.30	35342.09
525.47	35342.09
525.64	35222.72
525.81	35477.84
525.98	35225.06
526.16	35290.60
526.33	34873.98
526.50	35632.32
526.67	35306.98
526.84	35468.48
527.01	35538.69
527.18	35271.87
527.36	35821.90
527.53	35496.56
527.70	36137.87
527.87	36217.45
528.04	35971.69
528.21	36247.88
528.38	35992.76
528.55	36165.96
528.72	36311.07
528.89	36655.13
529.07	36730.03
529.24	36205.75
529.41	36744.07
529.58	36325.11
529.75	36514.70
529.92	37191.11
530.09	36893.86
530.26	36676.19
530.43	36739.39
530.60	36835.35
530.77	36250.22
530.94	37067.06
531.11	37024.93
531.28	37153.66
531.46	37067.06
531.63	37591.34
531.80	37127.92
531.97	37172.39
532.14	37163.03
532.31	36980.46
532.48	37120.90
532.65	37801.99
532.82	37354.95
532.99	37420.48
533.16	37488.36
533.33	37654.54
533.50	37991.58
533.67	37528.15
533.84	38017.32
534.01	37801.99
534.18	37869.87
534.35	38426.92
534.52	38068.81
534.69	38045.41
534.86	38363.72
535.03	37787.95
535.20	38314.57
535.37	38766.29
535.54	38698.42
535.71	38387.13
535.88	38277.12
536.05	38518.20
536.22	38707.78
536.38	38721.82
536.55	38127.33
536.72	38850.55
536.89	38569.69
537.06	38614.16
537.23	38880.98
537.40	38532.24
537.57	38869.28
537.74	38778.00
537.91	39157.16
538.08	38689.06
538.25	39026.09
538.42	39112.69
538.59	39051.84
538.75	38934.81
538.92	39115.03
539.09	39213.34
539.26	39257.81
539.43	39248.44
539.60	39203.97
539.77	39313.98
539.94	39344.41
540.11	39243.76
540.28	39468.45
540.44	39119.71
540.61	39150.14
540.78	39365.47
540.95	39269.51
541.12	39765.70
541.29	39587.82
541.46	39381.85
541.62	39653.36
541.79	39779.74
541.96	39608.89
542.13	39854.64
542.30	40416.37
542.47	40105.08
542.63	39583.14
542.80	40339.13
542.97	40533.40
543.14	40582.55
543.31	40524.04
543.48	40444.46
543.64	40982.78
543.81	40996.82
543.98	40388.28
544.15	40313.39
544.32	40713.62
544.48	40921.93
544.65	40825.96
544.82	40605.95
544.99	40144.87
545.16	41148.96
545.32	40697.24
545.49	40886.82
545.66	41038.95
545.83	41043.63
546.00	41139.60
546.16	41102.15
546.33	41034.27
546.50	40725.32
546.67	41226.20
546.83	40334.45
547.00	41263.64
547.17	41163.00
547.34	41148.96
547.50	40947.67
547.67	41361.95
547.84	41329.18
548.00	41469.61
548.17	41493.02
548.34	41752.82
548.51	41933.04
548.67	41986.87
548.84	41956.44
549.01	41563.23
549.18	41500.04
549.34	41460.25
549.51	41771.54
549.68	42249.01
549.84	41666.22
550.01	41930.70
550.18	41626.43
550.34	41968.15
550.51	41537.49
550.68	41783.24
550.84	41727.07
551.01	41846.44
551.18	42073.47
551.34	42052.41
551.51	42040.70
551.68	42047.72
551.84	42459.66
552.01	41902.61
552.18	42106.24
552.34	42492.43
552.51	42469.02
552.68	41872.18
552.84	42567.32
553.01	42836.48
553.18	42291.14
553.34	42621.16
553.51	42478.38
553.67	42288.80
553.84	42555.62
554.01	43079.90
554.17	42801.38
554.34	42682.01
554.51	42799.04
554.67	43152.46
554.84	42958.19
555.00	42628.18
555.17	42822.44
555.33	42895.00
555.50	42637.54
555.67	42948.83
555.83	43042.45
556.00	43182.88
556.16	43180.54
556.33	43040.11
556.50	43189.91
556.66	43374.81
556.83	42862.23
556.99	43496.52
557.16	43077.56
557.32	42979.26
557.49	43487.15
557.65	42817.76
557.82	42829.46
557.98	43267.14
558.15	43082.24
558.32	43360.76
558.48	43377.15
558.65	42981.60
558.81	43145.44
558.98	43391.19
559.14	43494.18
559.31	43529.28
559.47	43243.74
559.64	43866.32
559.80	43578.43
559.97	43573.75
560.13	43576.09
560.30	43084.58
560.46	43718.87
560.63	43899.09
560.79	44140.16
560.96	44013.77
561.12	43798.44
561.29	43786.74
561.45	43690.78
561.61	43847.60
561.78	43564.39
561.94	43716.53
562.11	43885.04
562.27	43859.30
562.44	43833.55
562.60	44023.14
562.77	43985.69
562.93	43683.76
563.10	44069.95
563.26	43533.96
563.42	43695.46
563.59	43955.26
563.75	43693.12
563.92	43807.81
564.08	43948.24
564.24	43938.88
564.41	44294.64
564.57	44046.54
564.74	43826.53
564.90	44044.20
565.07	43903.77
565.23	44364.85
565.39	43859.30
565.56	44093.35
565.72	43901.43
565.88	44226.76
566.05	44189.31
566.21	43669.72
566.38	43386.51
566.54	43629.93
566.70	44109.74
566.87	44404.64
567.03	44432.73
567.19	44374.22
567.36	44514.65
567.52	44144.84
567.68	44201.02
567.85	44306.34
568.01	44128.46
568.17	44009.09
568.34	44147.18
568.50	44189.31
568.66	44083.99
568.83	44135.48
568.99	44119.10
569.15	44198.68
569.32	43931.86
569.48	43842.92
569.64	44430.39
569.81	44238.47
569.97	44292.30
570.13	44577.84
570.30	44378.90
570.46	43871.00
570.62	43959.94
570.78	44439.75
570.95	44069.95
571.11	44549.76
571.27	44299.32
571.43	44158.89
571.60	44385.92
571.76	44170.59
571.92	44411.67
572.09	44304.00
572.25	43868.66
572.41	44526.35
572.57	44341.45
572.74	44856.37
572.90	44538.05
573.06	44680.83
573.22	44182.29
573.38	44179.95
573.55	44425.71
573.71	44753.38
573.87	44645.72
574.03	44453.79
574.20	44650.40
574.36	44378.90
574.52	44847.00
574.68	44975.73
574.84	44638.70
575.01	44107.40
575.17	44542.74
575.33	44179.95
575.49	44596.57
575.65	44968.71
575.82	44591.89
575.98	44329.75
576.14	44942.97
576.30	44360.17
576.46	44364.85
576.62	44163.57
576.79	44470.18
576.95	44165.91
577.11	44582.52
577.27	44776.79
577.43	44348.47
577.59	44547.42
577.75	44715.93
577.92	44304.00
578.08	44107.40
578.24	44299.32
578.40	44568.48
578.56	44697.21
578.72	44531.03
578.88	44676.15
579.04	44856.37
579.21	44395.28
579.37	44680.83
579.53	44610.61
579.69	44388.26
579.85	44271.23
580.01	44428.05
580.17	44687.85
580.33	44992.12
580.49	44727.64
580.65	44935.95
580.82	44821.26
580.98	44615.29
581.14	44430.39
581.30	44725.30
581.46	44245.49
581.62	44325.07
581.78	44823.60
581.94	44809.56
582.10	44425.71
582.26	44229.10
582.42	44519.33
582.58	44781.47
582.74	44905.52
582.90	45036.59
583.06	44605.93
583.22	45347.88
583.38	44655.08
583.54	44762.75
583.70	44748.70
583.86	44673.81
584.02	44346.13
584.18	44783.81
584.34	44996.80
584.50	44622.31
584.66	44669.12
584.82	44318.04
584.98	44559.12
585.14	45057.65
585.30	44662.10
585.46	44615.29
585.62	44477.20
585.78	44402.30
585.94	44046.54
586.10	44350.81
586.26	44872.75
586.42	44961.69
586.58	45008.50
586.74	44701.89
586.90	44737.00
587.06	44973.39
587.22	44889.13
587.38	44809.56
587.54	44680.83
587.70	45160.64
587.86	44851.69
588.02	44671.46
588.18	44495.92
588.34	44926.58
588.49	44465.50
588.65	44598.91
588.81	44505.29
588.97	44456.14
589.13	44739.34
589.29	44624.65
589.45	44994.46
589.61	45317.45
589.77	45223.83
589.93	45144.25
590.08	44926.58
590.24	45106.80
