SpectraSuite Data File
++++++++++++++++++++++++++++++++++++
Date: Fri Oct 25 11:22:50 EDT 2013
User: price-jones
Dark Spectrum Present: No
Reference Spectrum Present: No
Number of Sampled Component Spectra: 1
Spectrometers: USB2+H05261
Integration Time (usec): 100000 (USB2+H05261)
Spectra Averaged: 1 (USB2+H05261)
Boxcar Smoothing: 0 (USB2+H05261)
Correct for Electrical Dark: No (USB2+H05261)
Strobe/Lamp Enabled: No (USB2+H05261)
Correct for Detector Non-linearity: No (USB2+H05261)
Correct for Stray Light: No (USB2+H05261)
Number of Pixels in Processed Spectrum: 2048
>>>>>Begin Processed Spectral Data<<<<<
365.73	278.52
365.92	278.52
366.12	278.52
366.32	170.86
366.52	126.39
366.72	149.79
366.91	110.01
367.11	110.01
367.31	124.05
367.51	65.54
367.70	81.92
367.90	135.75
368.10	98.30
368.30	93.62
368.49	79.58
368.69	107.66
368.89	159.16
369.09	133.41
369.28	194.26
369.48	112.35
369.68	224.69
369.87	180.22
370.07	212.99
370.27	290.23
370.47	299.59
370.66	571.09
370.86	599.18
371.06	727.91
371.25	692.80
371.45	683.44
371.65	650.67
371.84	723.23
372.04	676.41
372.24	676.41
372.44	629.60
372.63	718.54
372.83	678.76
373.03	716.20
373.22	739.61
373.42	786.42
373.62	774.72
373.81	814.51
374.01	863.66
374.21	816.85
374.40	870.68
374.60	919.83
374.79	847.27
374.99	868.34
375.19	873.02
375.38	945.58
375.58	910.47
375.78	875.36
375.97	924.51
376.17	952.60
376.37	875.36
376.56	903.45
376.76	779.40
376.95	861.32
377.15	926.85
377.35	877.70
377.54	964.30
377.74	940.90
377.93	887.06
378.13	833.23
378.33	870.68
378.52	908.13
378.72	961.96
378.91	924.51
379.11	870.68
379.31	891.74
379.50	1020.47
379.70	931.53
379.89	987.71
380.09	922.17
380.28	971.32
380.48	922.17
380.68	994.73
380.87	1004.09
381.07	1064.94
381.26	1004.09
381.46	945.58
381.65	1071.97
381.85	1055.58
382.04	1109.41
382.24	1097.71
382.43	1011.11
382.63	1121.12
382.83	1139.84
383.02	1137.50
383.22	1076.65
383.41	1149.20
383.61	1100.05
383.80	1109.41
384.00	1188.99
384.19	1111.75
384.39	1097.71
384.58	1090.69
384.78	1184.31
384.97	1191.33
385.17	1177.29
385.36	1252.19
385.56	1177.29
385.75	1160.91
385.95	1139.84
386.14	1184.31
386.34	1174.95
386.53	1231.12
386.72	1196.01
386.92	1188.99
387.11	1219.42
387.31	1322.40
387.50	1247.51
387.70	1238.14
387.89	1266.23
388.09	1266.23
388.28	1362.19
388.48	1373.89
388.67	1329.42
388.86	1329.42
389.06	1252.19
389.25	1327.08
389.45	1315.38
389.64	1338.79
389.84	1320.06
390.03	1364.53
390.22	1390.28
390.42	1390.28
390.61	1416.02
390.81	1437.09
391.00	1366.87
391.19	1432.41
391.39	1401.98
391.58	1591.56
391.78	1455.81
391.97	1537.73
392.16	1591.56
392.36	1514.33
392.55	1577.52
392.75	1533.05
392.94	1502.62
393.13	1486.24
393.33	1488.58
393.52	1607.95
393.71	1621.99
393.91	1547.09
394.10	1636.03
394.29	1610.29
394.49	1645.40
394.68	1593.90
394.88	1558.80
395.07	1607.95
395.26	1659.44
395.46	1739.02
395.65	1771.79
395.84	1706.25
396.04	1806.89
396.23	1881.79
396.42	1762.42
396.62	1776.47
396.81	1797.53
397.00	1781.15
397.19	1858.39
397.39	1771.79
397.58	1877.11
397.77	1783.49
397.97	1839.66
398.16	1842.00
398.35	1977.75
398.55	1886.47
398.74	1886.47
398.93	2017.54
399.12	1830.30
399.32	1975.41
399.51	1881.79
399.70	1989.46
399.90	1867.75
400.09	2045.63
400.28	1921.58
400.47	2062.01
400.67	1963.71
400.86	2029.24
401.05	2094.78
401.24	2167.34
401.44	2085.42
401.63	2090.10
401.82	2172.02
402.01	2125.21
402.21	2071.37
402.40	2211.81
402.59	2221.17
402.78	2296.07
402.97	2291.38
403.17	2289.04
403.36	2246.91
403.55	2300.75
403.74	2377.98
403.93	2368.62
404.13	2333.51
404.32	2429.48
404.51	2452.88
404.70	2422.45
404.89	2335.85
405.09	2499.69
405.28	2366.28
405.47	2506.71
405.66	2471.61
405.85	2532.46
406.05	2509.05
406.24	2480.97
406.43	2502.03
406.62	2665.87
406.81	2595.65
407.00	2478.63
407.20	2544.16
407.39	2551.18
407.58	2738.43
407.77	2878.86
407.96	2766.51
408.15	2813.32
408.34	2822.69
408.54	2974.82
408.73	2787.58
408.92	2813.32
409.11	2935.03
409.30	3068.44
409.49	2906.95
409.68	2796.94
409.87	2937.37
410.07	2935.03
410.26	3201.85
410.45	3059.08
410.64	2935.03
410.83	3019.29
411.02	3045.04
411.21	3094.19
411.40	3239.30
411.59	3213.56
411.78	3265.05
411.98	3183.13
412.17	3314.20
412.36	3316.54
412.55	3346.97
412.74	3410.16
412.93	3438.25
413.12	3302.50
413.31	3693.37
413.50	3522.51
413.69	3463.99
413.88	3599.74
414.07	3571.66
414.26	3637.19
414.45	3651.24
414.64	3733.15
414.83	3843.16
415.02	3632.51
415.22	3854.86
415.41	3861.88
415.60	3981.25
415.79	3950.82
415.98	3992.95
416.17	4077.21
416.36	3885.29
416.55	4011.68
416.74	4021.04
416.93	3955.51
417.12	4236.37
417.31	4168.49
417.50	4180.20
417.69	4341.69
417.88	4334.67
418.07	4311.27
418.26	4308.93
418.45	4360.42
418.64	4472.76
418.83	4365.10
419.02	4479.79
419.21	4400.21
419.39	4564.04
419.58	4482.13
419.77	4535.96
419.96	4660.01
420.15	4622.56
420.34	4641.28
420.53	4535.96
420.72	4681.07
420.91	4676.39
421.10	4718.52
421.29	4711.50
421.48	4748.95
421.67	4758.31
421.86	4725.54
422.05	4814.48
422.24	4842.57
422.43	5018.11
422.61	4926.83
422.80	5060.24
422.99	4865.97
423.18	4945.55
423.37	4924.49
423.56	5036.83
423.75	4915.12
423.94	4917.47
424.13	4652.98
424.32	4737.24
424.50	5006.41
424.69	5132.79
424.88	5088.32
425.07	5029.81
425.26	5062.58
425.45	4980.66
425.64	5125.77
425.83	5032.15
426.01	5252.16
426.20	4987.68
426.39	5078.96
426.58	5025.13
426.77	5083.64
426.96	5275.57
427.15	5277.91
427.33	5198.33
427.52	5151.52
427.71	5289.61
427.90	5198.33
428.09	5507.28
428.28	5284.93
428.46	5383.23
428.65	5401.96
428.84	5490.90
429.03	5486.22
429.22	5444.09
429.40	5481.53
429.59	5448.77
429.78	5294.29
429.97	5472.17
430.16	5430.04
430.34	5762.40
430.53	5673.46
430.72	5699.20
430.91	5755.38
431.10	5540.05
431.28	5860.70
431.47	5755.38
431.66	5753.04
431.85	5977.73
432.03	6015.18
432.22	6071.35
432.41	5994.11
432.60	5996.45
432.79	6003.47
432.97	5916.87
433.16	6052.63
433.35	6061.99
433.54	6179.01
433.72	6207.10
433.91	6171.99
434.10	6031.56
434.28	6111.14
434.47	6277.32
434.66	6129.86
434.85	6356.90
435.03	6335.83
435.22	6384.98
435.41	6490.31
435.59	6377.96
435.78	6616.69
435.97	6466.90
436.16	6436.47
436.34	6558.18
436.53	6555.84
436.72	6616.69
436.90	6471.58
437.09	6775.85
437.28	6539.46
437.46	6729.04
437.65	6813.30
437.84	6705.63
438.02	6745.42
438.21	6722.02
438.40	6612.01
438.58	7037.99
438.77	7218.21
438.96	7143.32
439.14	7052.03
439.33	7183.10
439.52	7243.96
439.70	7220.55
439.89	7187.79
440.08	7466.31
440.26	7377.37
440.45	7536.52
440.63	7590.36
440.82	7658.23
441.01	7625.47
441.19	7555.25
441.38	7875.90
441.57	7815.05
441.75	7810.37
441.94	8042.08
442.12	7995.27
442.31	7906.33
442.50	8030.38
442.68	8135.70
442.87	8135.70
443.05	8215.28
443.24	8170.81
443.43	8299.54
443.61	8245.71
443.80	8517.21
443.98	8168.47
444.17	7808.03
444.35	8187.19
444.54	8266.77
444.73	8416.57
444.91	8287.84
445.10	8465.72
445.28	8491.46
445.47	8224.64
445.65	8376.78
445.84	8554.66
446.02	8634.24
446.21	8386.14
446.39	8322.94
446.58	8669.34
446.77	8603.81
446.95	8219.96
447.14	8482.10
447.32	8479.76
447.51	8573.38
447.69	8437.63
447.88	8683.39
448.06	8596.79
448.25	8369.76
448.43	8634.24
448.62	8667.00
448.80	8627.21
448.99	8734.88
449.17	8697.43
449.36	8683.39
449.54	8943.19
449.73	9036.81
449.91	9135.11
450.10	9029.79
450.28	9233.41
450.46	9102.34
450.65	9188.94
450.83	9167.88
451.02	8975.95
451.20	9240.44
451.39	9413.63
451.57	9256.82
451.76	9100.00
451.94	9238.09
452.13	9579.81
452.31	9486.19
452.49	9280.22
452.68	9593.86
452.86	9280.22
453.05	9825.57
453.23	9727.27
453.42	9605.56
453.60	9448.74
453.78	9558.75
453.97	9460.45
454.15	9497.89
454.34	9504.92
454.52	9867.70
454.70	9837.27
454.89	9743.65
455.07	9963.66
455.26	9933.23
455.44	9867.70
455.62	9802.16
455.81	9937.91
455.99	10008.13
456.17	10078.35
456.36	10148.56
456.54	10246.87
456.73	10188.35
456.91	10619.01
457.09	10595.61
457.28	10366.23
457.46	10539.43
457.64	10546.45
457.83	10733.70
458.01	10590.92
458.19	10853.06
458.38	10752.42
458.56	10679.86
458.74	10707.95
458.93	10614.33
459.11	11026.26
459.29	10750.08
459.48	10939.66
459.66	10934.98
459.84	11059.03
460.03	11180.74
460.21	11117.54
460.39	11033.29
460.57	11061.37
460.76	11267.34
460.94	11171.38
461.12	11208.83
461.31	11332.87
461.49	11227.55
461.67	11112.86
461.85	11459.26
462.04	11346.92
462.22	11950.78
462.40	11859.49
462.59	11496.71
462.77	11618.42
462.95	11798.64
463.13	11674.59
463.32	11655.87
463.50	11810.34
463.68	11648.85
463.86	11690.98
464.05	11829.07
464.23	11630.12
464.41	11915.67
464.59	11627.78
464.78	12217.60
464.96	12049.08
465.14	12039.72
465.32	12128.66
465.50	12170.79
465.69	12528.89
465.87	12437.61
466.05	12325.26
466.23	12259.73
466.41	12388.46
466.60	12798.05
466.78	12266.75
466.96	12217.60
467.14	12374.41
467.32	12386.12
467.51	12627.19
467.69	12290.15
467.87	12620.17
468.05	12486.76
468.23	12702.09
468.41	12828.48
468.60	12681.02
468.78	12982.95
468.96	12769.96
469.14	12943.16
469.32	12987.63
469.50	12730.17
469.69	13008.70
469.87	13151.47
470.05	13149.13
470.23	13090.62
470.41	13280.20
470.59	13242.75
470.77	13256.79
470.95	13238.07
471.14	13514.25
471.32	13273.18
471.50	13453.40
471.68	13736.60
471.86	13841.93
472.04	13530.64
472.22	14242.16
472.40	13905.12
472.58	13942.57
472.77	13961.30
472.95	14157.90
473.13	14829.63
473.31	14359.19
473.49	14244.50
473.67	14415.36
473.85	14237.48
474.03	14836.66
474.21	14806.23
474.39	14827.29
474.57	14778.14
474.75	14934.96
474.93	15222.84
475.12	15063.69
475.30	15412.43
475.48	15059.01
475.66	15323.49
475.84	15136.24
476.02	15620.74
476.20	15377.32
476.38	15871.17
476.56	16027.99
476.74	16248.00
476.92	15833.72
477.10	16011.60
477.28	16318.22
477.46	16404.81
477.64	16556.95
477.82	16786.32
478.00	17420.61
478.18	17039.10
478.36	16982.93
478.54	17352.73
478.72	17160.81
478.90	17855.95
479.08	17830.20
479.26	17809.14
479.44	17710.83
479.62	18001.06
479.80	18445.76
479.98	18232.77
480.16	18698.54
480.34	18539.38
480.52	18796.84
480.70	18909.19
480.88	18394.27
481.06	19201.76
481.24	19061.32
481.41	19253.25
481.59	19302.40
481.77	19756.46
481.95	19859.45
482.13	19990.52
482.31	19992.86
482.49	20395.43
482.67	20072.43
482.85	20875.24
483.03	20772.25
483.21	20812.04
483.39	21357.39
483.57	20985.24
483.74	21551.65
483.92	21558.67
484.10	21277.81
484.28	21853.58
484.46	22094.66
484.64	22607.23
484.82	22403.61
485.00	22424.67
485.18	22684.47
485.35	23386.63
485.53	22852.99
485.71	23337.48
485.89	23950.70
486.07	23784.52
486.25	23480.25
486.43	23772.82
486.61	24198.80
486.78	24364.98
486.96	24510.09
487.14	24830.74
487.32	24844.79
487.50	24802.66
487.68	25151.40
487.85	25298.85
488.03	25532.90
488.21	25771.64
488.39	25811.43
488.57	26246.77
488.75	26345.07
488.92	26780.41
489.10	26913.82
489.28	27058.93
489.46	27211.07
489.64	27491.93
489.81	28020.89
489.99	27772.80
490.17	28304.10
490.35	28297.08
490.53	28425.81
490.70	28519.43
490.88	28664.54
491.06	29022.64
491.24	29109.24
491.41	29268.40
491.59	29453.30
491.77	29521.18
491.95	30061.84
492.13	30092.27
492.30	30328.66
492.48	30621.23
492.66	30232.70
492.84	30480.80
493.01	30932.52
493.19	30836.56
493.37	31112.74
493.54	31569.15
493.72	31812.56
493.90	32065.34
494.08	32051.30
494.25	32250.24
494.43	32610.68
494.61	32833.04
494.79	32856.44
494.96	32584.94
495.14	32980.49
495.32	33472.00
495.49	33656.90
495.67	33415.83
495.85	33741.16
496.02	33923.72
496.20	33961.17
496.38	34579.07
496.55	34419.92
496.73	35246.13
496.91	34787.38
497.09	35264.85
497.26	35349.11
497.44	34789.72
497.62	35782.11
497.79	36091.06
497.97	36025.53
498.14	36254.90
498.32	36451.50
498.50	36636.41
498.67	36994.51
498.85	36659.81
499.03	37062.38
499.20	36863.44
499.38	37406.44
499.56	37415.80
499.73	37425.17
499.91	37303.46
500.08	38052.43
500.26	37511.77
500.44	38232.65
500.61	37982.21
500.79	37968.17
500.97	38244.35
501.14	38941.83
501.32	39019.07
501.49	38958.22
501.67	38902.04
501.84	39395.90
502.02	39683.78
502.20	39363.13
502.37	39536.33
502.55	39653.36
502.72	39665.06
502.90	40025.50
503.07	39936.56
503.25	40240.83
503.43	40091.04
503.60	40650.42
503.78	40182.32
503.95	40685.53
504.13	40748.73
504.30	41242.58
504.48	41031.93
504.65	41062.36
504.83	41397.06
505.01	41825.37
505.18	41521.10
505.36	41855.80
505.53	41504.72
505.71	42272.42
505.88	42129.64
506.06	41975.17
506.23	41940.06
506.41	42335.61
506.58	42775.63
506.76	42272.42
506.93	42983.94
507.11	42010.28
507.28	43126.71
507.46	43096.28
507.63	43407.58
507.81	43861.64
507.98	43648.65
508.16	43484.81
508.33	43679.08
508.50	44240.81
508.68	43784.40
508.85	44514.65
509.03	44186.97
509.20	44112.08
509.38	44968.71
509.55	44832.96
509.73	44774.45
509.90	45160.64
510.08	44788.49
510.25	44903.18
510.42	45294.05
510.60	45139.57
510.77	45715.34
510.95	45738.75
511.12	45565.55
511.30	45820.67
511.47	45750.45
511.64	46143.66
511.82	45956.42
511.99	46382.40
512.17	46312.18
512.34	46253.67
512.51	46557.94
512.69	47023.70
512.86	46651.56
513.04	47194.56
513.21	47145.41
513.38	47168.82
513.56	47250.74
513.73	47054.13
513.90	47283.50
514.08	47154.77
514.25	47536.28
514.43	47927.15
514.60	48116.73
514.77	47662.67
514.95	48367.17
515.12	47730.54
515.29	47924.81
515.47	48285.25
515.64	48411.64
515.81	48245.46
515.99	48449.09
516.16	48734.63
516.33	48949.96
516.51	48905.49
516.68	49029.54
516.85	49034.22
517.03	48889.11
517.20	48779.10
517.37	48891.45
517.54	48954.64
517.72	49085.72
517.89	49326.79
518.06	49750.43
518.24	49516.37
518.41	49717.66
518.58	49464.88
518.75	49773.83
518.93	49940.01
519.10	49794.90
519.27	50300.45
519.45	50000.86
519.62	50021.93
519.79	50323.86
519.96	50279.39
520.14	50391.73
520.31	50475.99
520.48	50670.26
520.65	50504.08
520.83	50724.09
521.00	50822.39
521.17	50906.65
521.34	51033.04
521.52	51063.47
521.69	51154.75
521.86	51468.38
522.03	51540.94
522.20	51552.64
522.38	51716.48
522.55	51742.22
522.72	51807.76
522.89	51611.15
523.07	51978.62
523.24	51915.42
523.41	51819.46
523.58	51807.76
523.75	52271.18
523.92	52002.02
524.10	52362.46
524.27	52439.70
524.44	52079.26
524.61	52643.33
524.78	52605.88
524.96	52545.03
525.13	52701.84
525.30	52657.37
525.47	53116.12
525.64	52839.93
525.81	52839.93
525.98	53048.24
526.16	52622.26
526.33	53006.11
526.50	53413.37
526.67	53127.82
526.84	53024.84
527.01	53167.61
527.18	53244.85
527.36	53223.78
527.53	53612.31
527.70	53638.06
527.87	53689.55
528.04	53563.16
528.21	53661.46
528.38	53628.69
528.55	53881.47
528.72	53427.41
528.89	53642.74
529.07	53586.57
529.24	53663.80
529.41	54124.89
529.58	54080.42
529.75	53977.43
529.92	54115.53
530.09	53918.92
530.26	54152.97
530.43	54380.01
530.60	54024.25
530.77	54059.35
530.94	54522.78
531.11	54185.74
531.28	54520.44
531.46	54543.84
531.63	54796.62
531.80	54581.29
531.97	54862.16
532.14	54564.91
532.31	54710.02
532.48	55065.78
532.65	54649.17
532.82	54864.50
532.99	54873.86
533.16	54946.42
533.33	55196.85
533.50	55168.77
533.67	55021.31
533.84	55077.49
534.01	55000.25
534.18	55058.76
534.35	55679.00
534.52	55327.92
534.69	55405.16
534.86	55557.30
535.03	55494.10
535.20	55512.83
535.37	55526.87
535.54	55700.07
535.71	55433.25
535.88	55559.64
536.05	55636.87
536.22	55831.14
536.38	55543.25
536.55	55943.48
536.72	55835.82
536.89	56016.04
537.06	55800.71
537.23	56142.43
537.40	55964.55
537.57	56224.35
537.74	56196.26
537.91	56285.20
538.08	56107.32
538.25	56107.32
538.42	56058.17
538.59	56575.43
538.75	56184.56
538.92	56275.84
539.09	56442.02
539.26	56376.48
539.43	56381.16
539.60	56425.64
539.77	56310.95
539.94	56769.69
540.11	56580.11
540.28	56605.86
540.44	56828.21
540.61	56587.13
540.78	56226.69
540.95	56659.69
541.12	56683.09
541.29	56999.07
541.46	56811.82
541.62	56985.02
541.79	56739.27
541.96	56512.23
542.13	56765.01
542.30	56935.87
542.47	57270.57
542.63	56987.36
542.80	57352.49
542.97	57382.91
543.14	57432.07
543.31	57247.16
543.48	57530.37
543.64	57579.52
543.81	57499.94
543.98	57574.84
544.15	57691.86
544.32	57738.68
544.48	57851.02
544.65	57689.52
544.82	57666.12
544.99	57509.30
545.16	57698.89
545.32	57762.08
545.49	57860.38
545.66	57907.19
545.83	58019.54
546.00	58134.23
546.16	57736.34
546.33	57780.81
546.50	57792.51
546.67	58073.37
546.83	57434.41
547.00	58134.23
547.17	57935.28
547.34	58014.86
547.50	58145.93
547.67	58356.58
547.84	58078.05
548.00	58347.21
548.17	58473.60
548.34	58391.68
548.51	58714.68
548.67	58436.16
548.84	58513.39
549.01	58195.08
549.18	58354.24
549.34	58396.37
549.51	58478.28
549.68	58681.91
549.84	58644.46
550.01	58663.19
550.18	58440.84
550.34	58693.61
550.51	58990.86
550.68	58632.76
550.84	58534.46
551.01	59025.97
551.18	58866.81
551.34	58588.29
551.51	58724.04
551.68	58775.53
551.84	58841.07
552.01	58717.02
552.18	58981.50
552.34	58829.37
552.51	58974.48
552.68	58597.65
552.84	58892.56
553.01	59227.26
553.18	58953.41
553.34	59159.38
553.51	58862.13
553.67	58887.88
553.84	59096.19
554.01	59255.34
554.17	59070.44
554.34	59210.87
554.51	59337.26
554.67	59360.67
554.84	59313.86
555.00	59260.02
555.17	59021.29
555.33	59210.87
555.50	59278.75
555.67	59025.97
555.83	59171.08
556.00	59299.81
556.16	59686.00
556.33	59498.76
556.50	59676.64
556.66	59660.26
556.83	59416.84
556.99	59632.17
557.16	59758.56
557.32	59648.55
557.49	59992.61
557.65	59573.66
557.82	59903.67
557.98	59662.60
558.15	59831.11
558.32	59711.75
558.48	59655.57
558.65	59690.68
558.81	59725.79
558.98	59908.35
559.14	59842.82
559.31	59805.37
559.47	59831.11
559.64	59971.55
559.80	59920.05
559.97	60121.34
560.13	59889.63
560.30	59711.75
560.46	59877.93
560.63	59700.04
560.79	60109.64
560.96	60238.37
561.12	59917.71
561.29	60020.70
561.45	60198.58
561.61	60011.34
561.78	59966.87
561.94	60044.10
562.11	59959.84
562.27	60100.28
562.44	60001.97
562.60	60238.37
562.77	60182.19
562.93	60020.70
563.10	60252.41
563.26	59950.48
563.42	60406.89
563.59	60233.69
563.75	60324.97
563.92	60104.96
564.08	60224.32
564.24	60399.86
564.41	60285.18
564.57	60472.42
564.74	60465.40
564.90	60184.54
565.07	60317.95
565.23	60411.57
565.39	60430.29
565.56	60413.91
565.72	60374.12
565.88	60170.49
566.05	60441.99
566.21	60282.84
566.38	60537.96
566.54	60409.23
566.70	60519.23
566.87	60605.83
567.03	60296.88
567.19	60708.82
567.36	60671.37
567.52	60566.04
567.68	60715.84
567.85	60512.21
568.01	60743.92
568.17	60509.87
568.34	60519.23
568.50	60676.05
568.66	60449.02
568.83	60683.07
568.99	60467.74
569.15	60509.87
569.32	60516.89
569.48	60570.72
569.64	60727.54
569.81	60608.17
569.97	60495.83
570.13	60722.86
570.30	60573.06
570.46	60851.59
570.62	60722.86
570.78	60844.57
570.95	60837.54
571.11	60832.86
571.27	60779.03
571.43	60739.24
571.60	60963.93
571.76	60753.29
571.92	60825.84
572.09	60898.40
572.25	60823.50
572.41	60753.29
572.57	61146.50
572.74	60931.17
572.90	60837.54
573.06	60942.87
573.22	60928.83
573.38	60874.99
573.55	60802.44
573.71	60940.53
573.87	60870.31
574.03	60786.05
574.20	60835.20
574.36	60720.52
574.52	60825.84
574.68	61113.73
574.84	60959.25
575.01	61038.83
575.17	60954.57
575.33	60963.93
575.49	60837.54
575.65	60926.49
575.82	60896.06
575.98	60832.86
576.14	61022.45
576.30	61116.07
576.46	60952.23
576.62	60910.10
576.79	60860.95
576.95	60919.46
577.11	60966.27
577.27	61202.67
577.43	61085.64
577.59	60846.91
577.75	60879.67
577.92	60910.10
578.08	61059.90
578.24	61024.79
578.40	61300.97
578.56	61080.96
578.72	61069.26
578.88	61183.94
579.04	61174.58
579.21	61127.77
579.37	61193.31
579.53	61078.62
579.69	61001.38
579.85	61151.18
580.01	61132.45
580.17	61139.47
580.33	61111.39
580.49	61165.22
580.65	61226.07
580.82	60917.12
580.98	60734.56
581.14	61043.51
581.30	61244.80
581.46	60851.59
581.62	61052.87
581.78	61167.56
581.94	61195.65
582.10	61167.56
582.26	61268.20
582.42	61172.24
582.58	61212.03
582.74	60949.89
582.90	61137.13
583.06	61340.76
583.22	60992.02
583.38	61097.34
583.54	61179.26
583.70	61087.98
583.86	61174.58
584.02	61085.64
584.18	61300.97
584.34	61230.75
584.50	61139.47
584.66	61172.24
584.82	60992.02
584.98	61338.42
585.14	61233.10
585.30	61024.79
585.46	61265.86
585.62	61104.37
585.78	61268.20
585.94	61090.32
586.10	61286.93
586.26	61300.97
586.42	61193.31
586.58	61434.38
586.74	61069.26
586.90	61125.43
587.06	61338.42
587.22	61455.45
587.38	61230.75
587.54	61434.38
587.70	61392.25
587.86	61268.20
588.02	61249.48
588.18	61418.00
588.34	61219.05
588.49	61186.28
