SpectraSuite Data File
++++++++++++++++++++++++++++++++++++
Date: Fri Oct 25 11:33:59 EDT 2013
User: price-jones
Dark Spectrum Present: No
Reference Spectrum Present: No
Number of Sampled Component Spectra: 1
Spectrometers: USB2+H05261
Integration Time (usec): 100000 (USB2+H05261)
Spectra Averaged: 1 (USB2+H05261)
Boxcar Smoothing: 0 (USB2+H05261)
Correct for Electrical Dark: No (USB2+H05261)
Strobe/Lamp Enabled: No (USB2+H05261)
Correct for Detector Non-linearity: No (USB2+H05261)
Correct for Stray Light: No (USB2+H05261)
Number of Pixels in Processed Spectrum: 2048
>>>>>Begin Processed Spectral Data<<<<<
365.73	257.46
365.92	257.46
366.12	257.46
366.32	152.13
366.52	159.16
366.72	163.84
366.91	126.39
367.11	114.69
367.31	184.90
367.51	220.01
367.70	184.90
367.90	205.97
368.10	168.52
368.30	140.43
368.49	180.22
368.69	259.80
368.89	177.88
369.09	187.24
369.28	313.63
369.48	215.33
369.68	161.50
369.87	280.86
370.07	208.31
370.27	308.95
370.47	339.38
370.66	526.62
370.86	449.38
371.06	514.92
371.25	505.56
371.45	550.03
371.65	545.34
371.84	477.47
372.04	524.28
372.24	573.43
372.44	578.11
372.63	610.88
372.83	545.34
373.03	552.37
373.22	624.92
373.42	564.07
373.62	603.86
373.81	636.63
374.01	575.77
374.21	669.39
374.40	692.80
374.60	622.58
374.79	594.50
374.99	615.56
375.19	688.12
375.38	638.97
375.58	643.65
375.78	706.84
375.97	650.67
376.17	645.99
376.37	662.37
376.56	678.76
376.76	662.37
376.95	629.60
377.15	587.47
377.35	704.50
377.54	669.39
377.74	634.29
377.93	655.35
378.13	657.69
378.33	748.97
378.52	678.76
378.72	723.23
378.91	681.10
379.11	688.12
379.31	767.70
379.50	650.67
379.70	648.33
379.89	699.82
380.09	711.52
380.28	805.14
380.48	734.93
380.68	746.63
380.87	744.29
381.07	807.48
381.26	709.18
381.46	819.19
381.65	791.10
381.85	812.17
382.04	746.63
382.24	734.93
382.43	828.55
382.63	800.46
382.83	753.65
383.02	835.57
383.22	863.66
383.41	884.72
383.61	800.46
383.80	770.04
384.00	725.57
384.19	788.76
384.39	842.59
384.58	880.04
384.78	739.61
384.97	812.17
385.17	767.70
385.36	795.78
385.56	854.30
385.75	840.25
385.95	821.53
386.14	926.85
386.34	837.91
386.53	887.06
386.72	847.27
386.92	1025.15
387.11	922.17
387.31	870.68
387.50	816.85
387.70	863.66
387.89	950.26
388.09	922.17
388.28	844.93
388.48	891.74
388.67	905.79
388.86	837.91
389.06	926.85
389.25	887.06
389.45	943.24
389.64	929.19
389.84	1060.26
390.03	931.53
390.22	1001.75
390.42	908.13
390.61	936.21
390.81	987.71
391.00	957.28
391.19	957.28
391.39	938.55
391.58	945.58
391.78	1011.11
391.97	985.37
392.16	1018.13
392.36	1109.41
392.55	1069.62
392.75	1018.13
392.94	1046.22
393.13	1062.60
393.33	1074.31
393.52	1057.92
393.71	1118.78
393.91	1043.88
394.10	1015.79
394.29	1074.31
394.49	1137.50
394.68	1221.76
394.88	1011.11
395.07	1217.08
395.26	1214.74
395.46	1156.22
395.65	1153.88
395.84	1149.20
396.04	1327.08
396.23	1149.20
396.42	1191.33
396.62	1158.57
396.81	1252.19
397.00	1240.48
397.19	1156.22
397.39	1151.54
397.58	1320.06
397.77	1231.12
397.97	1270.91
398.16	1193.67
398.35	1341.13
398.55	1217.08
398.74	1303.68
398.93	1371.55
399.12	1273.25
399.32	1268.57
399.51	1348.15
399.70	1380.92
399.90	1313.04
400.09	1394.96
400.28	1390.28
400.47	1256.87
400.67	1425.39
400.86	1474.54
401.05	1401.98
401.24	1453.47
401.44	1460.49
401.63	1406.66
401.82	1427.73
402.01	1469.86
402.21	1490.92
402.40	1488.58
402.59	1465.18
402.78	1465.18
402.97	1465.18
403.17	1540.07
403.36	1565.82
403.55	1551.78
403.74	1486.24
403.93	1551.78
404.13	1598.59
404.32	1579.86
404.51	1549.43
404.70	1621.99
404.89	1612.63
405.09	1575.18
405.28	1675.82
405.47	1647.74
405.66	1755.40
405.85	1769.44
406.05	1629.01
406.24	1816.26
406.43	1806.89
406.62	1795.19
406.81	1736.68
407.00	1689.87
407.20	1743.70
407.39	1692.21
407.58	1853.70
407.77	1760.08
407.96	1888.81
408.15	1902.86
408.34	1914.56
408.54	1912.22
408.73	1874.77
408.92	1870.09
409.11	1933.28
409.30	1914.56
409.49	1949.67
409.68	1928.60
409.87	1937.96
410.07	2118.18
410.26	2057.33
410.45	1998.82
410.64	2057.33
410.83	2104.14
411.02	2097.12
411.21	2242.23
411.40	2101.80
411.59	2115.84
411.78	2108.82
411.98	2193.08
412.17	2097.12
412.36	2090.10
412.55	2179.04
412.74	2289.04
412.93	2434.16
413.12	2204.78
413.31	2420.11
413.50	2368.62
413.69	2403.73
413.88	2396.71
414.07	2462.24
414.26	2495.01
414.45	2487.99
414.64	2548.84
414.83	2614.38
415.02	2567.57
415.22	2579.27
415.41	2614.38
415.60	2677.57
415.79	2705.66
415.98	2780.56
416.17	2738.43
416.36	2663.53
416.55	2696.30
416.74	2806.30
416.93	2836.73
417.12	2839.07
417.31	2918.65
417.50	2897.58
417.69	2836.73
417.88	3077.80
418.07	2850.77
418.26	3000.57
418.45	3059.08
418.64	3073.12
418.83	2951.42
419.02	3098.87
419.21	3129.30
419.39	3098.87
419.58	3009.93
419.77	3084.83
419.96	3112.91
420.15	3218.24
420.34	3129.30
420.53	3119.93
420.72	3197.17
420.91	3318.88
421.10	3141.00
421.29	3267.39
421.48	3258.03
421.67	3262.71
421.86	3236.96
422.05	3199.51
422.24	3197.17
422.43	3255.69
422.61	3398.46
422.80	3335.26
422.99	3232.28
423.18	3417.18
423.37	3480.38
423.56	3297.81
423.75	3379.73
423.94	3279.09
424.13	2981.84
424.32	3183.13
424.50	3389.10
424.69	3318.88
424.88	3473.36
425.07	3332.92
425.26	3300.16
425.45	3405.48
425.64	3461.65
425.83	3342.28
426.01	3379.73
426.20	3510.80
426.39	3445.27
426.58	3527.19
426.77	3419.52
426.96	3485.06
427.15	3517.83
427.33	3496.76
427.52	3449.95
427.71	3604.42
427.90	3606.77
428.09	3655.92
428.28	3772.94
428.46	3705.07
428.65	3691.02
428.84	3758.90
429.03	3789.33
429.22	3707.41
429.40	3684.00
429.59	3805.71
429.78	3728.47
429.97	3578.68
430.16	3756.56
430.34	3824.44
430.53	3812.73
430.72	3777.62
430.91	3852.52
431.10	3794.01
431.28	3927.42
431.47	4032.74
431.66	3922.74
431.85	4007.00
432.03	4039.76
432.22	4088.92
432.41	4100.62
432.60	4060.83
432.79	4070.19
432.97	4105.30
433.16	4159.13
433.35	4053.81
433.54	4149.77
433.72	4149.77
433.91	4166.15
434.10	4079.55
434.28	3992.95
434.47	4287.86
434.66	4308.93
434.85	4028.06
435.03	4318.29
435.22	4285.52
435.41	4402.55
435.59	4503.19
435.78	4287.86
435.97	4381.48
436.16	4205.94
436.34	4432.97
436.53	4320.63
436.72	4437.66
436.90	4404.89
437.09	4603.83
437.28	4315.95
437.46	4407.23
437.65	4507.87
437.84	4589.79
438.02	4472.76
438.21	4528.94
438.40	4477.44
438.58	4718.52
438.77	4655.33
438.96	4734.90
439.14	4828.53
439.33	4971.30
439.52	4922.15
439.70	4814.48
439.89	5046.20
440.08	5048.54
440.26	5020.45
440.45	4887.04
440.63	4990.02
440.82	4973.64
441.01	5111.73
441.19	5174.92
441.38	5172.58
441.57	5109.39
441.75	5149.18
441.94	5270.89
442.12	5280.25
442.31	5434.72
442.50	5605.58
442.68	5322.38
442.87	5427.70
443.05	5486.22
443.24	5364.51
443.43	5408.98
443.61	5521.32
443.80	5689.84
443.98	5547.07
444.17	5270.89
444.35	5418.34
444.54	5638.35
444.73	5617.29
444.91	5741.33
445.10	5647.71
445.28	5605.58
445.47	5664.10
445.65	5418.34
445.84	5650.05
446.02	5636.01
446.21	5547.07
446.39	5589.20
446.58	5863.04
446.77	5708.57
446.95	5741.33
447.14	5710.91
447.32	5841.98
447.51	5607.92
447.69	5544.73
447.88	5727.29
448.06	5706.23
448.25	5708.57
448.43	5874.74
448.62	5774.10
448.80	5694.52
448.99	5961.34
449.17	5944.96
449.36	5816.23
449.54	5760.06
449.73	5886.45
449.91	5874.74
450.10	6139.23
450.28	6148.59
450.46	6223.48
450.65	6214.12
450.83	6134.54
451.02	6010.50
451.20	6239.87
451.39	6059.65
451.57	6085.39
451.76	6211.78
451.94	6200.08
452.13	6382.64
452.31	6293.70
452.49	6153.27
452.68	6188.38
452.86	6347.53
453.05	6188.38
453.23	6389.66
453.42	6356.90
453.60	6272.64
453.78	6384.98
453.97	6228.17
454.15	6277.32
454.34	6480.94
454.52	6534.78
454.70	6551.16
454.89	6396.68
455.07	6616.69
455.26	6588.61
455.44	6511.37
455.62	6677.55
455.81	6597.97
455.99	6546.48
456.17	6679.89
456.36	6733.72
456.54	6757.13
456.73	6691.59
456.91	7005.22
457.09	7030.97
457.28	7002.88
457.46	7096.50
457.64	7014.59
457.83	6986.50
458.01	6857.77
458.19	7077.78
458.38	7112.89
458.56	7197.15
458.74	7049.69
458.93	7129.27
459.11	7108.21
459.29	7187.79
459.48	7059.06
459.66	7286.09
459.84	7131.61
460.03	7452.27
460.21	7330.56
460.39	7435.88
460.57	7389.07
460.76	7370.35
460.94	7496.74
461.12	7412.48
461.31	7480.35
461.49	7365.67
461.67	7571.63
461.85	7707.38
462.04	7534.18
462.22	8079.53
462.40	7768.24
462.59	7545.89
462.77	7602.06
462.95	7632.49
463.13	7665.25
463.32	7850.16
463.50	7845.48
463.68	7789.30
463.86	7758.88
464.05	7892.29
464.23	7838.45
464.41	8119.32
464.59	7688.66
464.78	8058.46
464.96	7934.42
465.14	8119.32
465.32	8086.55
465.50	8006.97
465.69	8105.28
465.87	7981.23
466.05	7976.55
466.23	8065.49
466.41	8149.75
466.60	8217.62
466.78	8025.70
466.96	8105.28
467.14	8030.38
467.32	8313.58
467.51	8241.03
467.69	8273.79
467.87	8308.90
468.05	8269.11
468.23	8294.86
468.41	8320.60
468.60	8250.39
468.78	8297.20
468.96	8381.46
469.14	8542.96
469.32	8428.27
469.50	8348.69
469.69	8566.36
469.87	8594.45
470.05	8697.43
470.23	8833.18
470.41	8758.28
470.59	8711.47
470.77	8751.26
470.95	8980.64
471.14	8875.31
471.32	8767.65
471.50	8795.73
471.68	8957.23
471.86	8924.46
472.04	9046.17
472.22	9334.06
472.40	9202.99
472.58	9245.12
472.77	9217.03
472.95	9179.58
473.13	9586.83
473.31	9390.23
473.49	9362.14
473.67	9305.97
473.85	9472.15
474.03	9785.78
474.21	9652.37
474.39	9584.49
474.57	9612.58
474.75	9682.80
474.93	9963.66
475.12	9769.40
475.30	10029.20
475.48	9928.55
475.66	10092.39
475.84	9989.41
476.02	10157.92
476.20	10008.13
476.38	10319.42
476.56	10487.94
476.74	10314.74
476.92	10244.52
477.10	10373.25
477.28	10684.55
477.46	10719.65
477.64	10808.59
477.82	11035.63
478.00	11009.88
478.18	11021.58
478.36	11112.86
478.54	11187.76
478.72	11391.39
478.90	11143.29
479.08	11290.74
479.26	11723.74
479.44	11461.60
479.62	11824.39
479.80	11878.22
479.98	11939.07
480.16	12210.57
480.34	12023.33
480.52	12292.49
480.70	12245.68
480.88	11960.14
481.06	12355.69
481.24	12442.29
481.41	12599.10
481.59	12711.45
481.77	12833.16
481.95	12791.03
482.13	12945.50
482.31	12760.60
482.49	13142.11
482.67	13167.85
482.85	13247.43
483.03	13350.42
483.21	13593.83
483.39	13783.41
483.57	13687.45
483.74	13884.06
483.92	14066.62
484.10	13827.88
484.28	14218.75
484.46	14516.00
484.64	14555.79
484.82	14207.05
485.00	14492.60
485.18	15040.28
485.35	14806.23
485.53	14803.89
485.71	15096.46
485.89	15323.49
486.07	15267.31
486.25	15616.05
486.43	15262.63
486.61	15482.64
486.78	15845.43
486.96	15683.93
487.14	16084.16
487.32	16091.18
487.50	16318.22
487.68	16285.45
487.85	16493.76
488.03	16458.65
488.21	16720.79
488.39	16725.47
488.57	16908.03
488.75	17116.34
488.92	17078.89
489.10	17495.50
489.28	17411.25
489.46	17598.49
489.64	17649.98
489.81	17816.16
489.99	17970.63
490.17	18305.33
490.35	18155.54
490.53	18176.60
490.70	18338.10
490.88	18523.00
491.06	18792.16
491.24	18831.95
491.41	18607.26
491.59	19353.89
491.77	19311.76
491.95	19080.05
492.13	19374.95
492.30	19414.74
492.48	19447.51
492.66	19812.63
492.84	19386.66
493.01	19913.28
493.19	19793.91
493.37	19985.83
493.54	20294.79
493.72	20695.02
493.90	20432.88
494.08	20676.29
494.25	20922.05
494.43	20767.57
494.61	21076.52
494.79	21195.89
494.96	20975.88
495.14	21666.34
495.32	21535.27
495.49	21408.88
495.67	21818.47
495.85	21743.58
496.02	21884.01
496.20	22209.34
496.38	22253.81
496.55	22012.74
496.73	22604.89
496.91	22558.08
497.09	22628.30
497.26	22724.26
497.44	22541.70
497.62	22972.36
497.79	23442.81
497.97	23290.67
498.14	23145.56
498.32	23190.03
498.50	23665.16
498.67	23618.35
498.85	23510.68
499.03	23934.32
499.20	23924.96
499.38	23922.62
499.56	23924.96
499.73	24409.45
499.91	24486.68
500.08	24512.43
500.26	24416.47
500.44	24652.86
500.61	24673.93
500.79	24444.56
500.97	24863.51
501.14	25050.75
501.32	24774.57
501.49	24795.64
501.67	24985.22
501.84	25535.24
502.02	25130.33
502.20	25331.62
502.37	25383.11
502.55	25715.47
502.72	25745.89
502.90	25663.97
503.07	25589.08
503.25	25741.21
503.43	25839.51
503.60	25818.45
503.78	25930.80
503.95	25961.22
504.13	26221.02
504.30	26452.73
504.48	26368.48
504.65	26644.66
504.83	26714.87
505.01	26904.46
505.18	26572.10
505.36	26913.82
505.53	26838.92
505.71	27372.57
505.88	27325.75
506.06	27049.57
506.23	27227.45
506.41	27182.98
506.58	27676.83
506.76	27477.89
506.93	27730.67
507.11	27594.92
507.28	28048.98
507.46	27789.18
507.63	28350.91
507.81	28194.09
507.98	28023.23
508.16	28254.95
508.33	28355.59
508.50	28779.23
508.68	28470.28
508.85	28917.32
509.03	28678.58
509.20	28861.15
509.38	28987.53
509.55	29312.87
509.73	29254.36
509.90	29125.63
510.08	29191.16
510.25	29303.51
510.42	29355.00
510.60	29448.62
510.77	29923.75
510.95	29984.60
511.12	29549.26
511.30	29563.31
511.47	29848.85
511.64	29916.73
511.82	30363.77
511.99	30129.72
512.17	30656.34
512.34	30281.85
512.51	30579.10
512.69	30452.71
512.86	30565.06
513.04	30885.71
513.21	30661.02
513.38	30766.34
513.56	31019.12
513.73	30799.11
513.90	31189.98
514.08	30972.31
514.25	30740.60
514.43	31255.51
514.60	31161.89
514.77	31108.06
514.95	31307.01
515.12	30984.01
515.29	31386.58
515.47	31625.32
515.64	31454.46
515.81	31821.92
515.99	32201.09
516.16	32222.16
516.33	32362.59
516.51	31990.44
516.68	32006.83
516.85	32156.62
517.03	32486.64
517.20	32503.02
517.37	32170.66
517.54	32488.98
517.72	32545.15
517.89	32734.73
518.06	32720.69
518.24	32708.99
518.41	32570.90
518.58	32994.53
518.75	32842.40
518.93	32554.51
519.10	32842.40
519.27	33273.06
519.45	33085.81
519.62	33298.80
519.79	33376.04
519.96	33481.36
520.14	33165.39
520.31	33139.65
520.48	33584.35
520.65	33993.94
520.83	33802.02
521.00	34064.16
521.17	33790.31
521.34	34478.43
521.52	34277.15
521.69	34043.09
521.86	34235.02
522.03	34455.03
522.20	34646.95
522.38	34473.75
522.55	34417.58
522.72	34553.33
522.89	34382.47
523.07	34773.34
523.24	35061.22
523.41	34778.02
523.58	35012.07
523.75	35077.61
523.92	34899.73
524.10	35150.17
524.27	35416.99
524.44	35101.01
524.61	35496.56
524.78	35438.05
524.96	35782.11
525.13	35702.53
525.30	35735.30
525.47	36238.51
525.64	35847.64
525.81	35620.61
525.98	36252.56
526.16	35978.72
526.33	36004.46
526.50	36566.19
526.67	36027.87
526.84	36350.86
527.01	35938.93
527.18	36400.01
527.36	36442.14
527.53	36463.21
527.70	36559.17
527.87	37167.71
528.04	36362.56
528.21	36648.11
528.38	36814.29
528.55	36830.67
528.72	36467.89
528.89	36863.44
529.07	36943.02
529.24	37343.25
529.41	37530.49
529.58	37242.60
529.75	37308.14
529.92	37336.23
530.09	37219.20
530.26	37013.23
530.43	37186.43
530.60	37027.28
530.77	37006.21
530.94	37479.00
531.11	37734.12
531.28	37305.80
531.46	37823.06
531.63	37951.79
531.80	37350.27
531.97	38174.14
532.14	38066.47
532.31	37745.82
532.48	38057.11
532.65	37989.24
532.82	38258.40
532.99	38260.74
533.16	38352.02
533.33	38225.63
533.50	38649.27
533.67	38326.27
533.84	38295.85
534.01	38405.85
534.18	37984.55
534.35	39093.97
534.52	38621.18
534.69	39065.88
534.86	38937.15
535.03	38595.43
535.20	39051.84
535.37	39283.55
535.54	39056.52
535.71	39246.10
535.88	38983.96
536.05	39313.98
536.22	39419.30
536.38	39012.05
536.55	39072.90
536.72	39225.04
536.89	39496.54
537.06	39519.95
537.23	39910.82
537.40	39672.08
537.57	39379.51
537.74	39756.34
537.91	39721.23
538.08	39751.66
538.25	39468.45
538.42	40100.40
538.59	40261.90
538.75	39936.56
538.92	40238.49
539.09	40407.01
539.26	40116.78
539.43	40268.92
539.60	40240.83
539.77	40407.01
539.94	40575.53
540.11	40624.68
540.28	40704.26
540.44	40493.61
540.61	40123.80
540.78	40353.18
540.95	40793.20
541.12	40292.32
541.29	40301.68
541.46	40512.33
541.62	40680.85
541.79	40809.58
541.96	40109.76
542.13	40594.25
542.30	40526.38
542.47	41151.30
542.63	40832.99
542.80	41450.89
542.97	41291.73
543.14	40959.38
543.31	41212.15
543.48	41310.46
543.64	42284.12
543.81	41682.60
543.98	41581.96
544.15	41738.77
544.32	42052.41
544.48	41986.87
544.65	41827.71
544.82	41949.42
544.99	41677.92
545.16	42164.75
545.32	42078.15
545.49	42068.79
545.66	42127.30
545.83	42260.71
546.00	41979.85
546.16	42143.69
546.33	41722.39
546.50	41860.48
546.67	42520.51
546.83	41961.12
547.00	42094.53
547.17	42167.09
547.34	42106.24
547.50	42646.90
547.67	42586.05
547.84	42450.30
548.00	42845.85
548.17	42794.36
548.34	42986.28
548.51	43009.68
548.67	42827.12
548.84	42925.42
549.01	42422.21
549.18	42974.58
549.34	43171.18
549.51	43016.71
549.68	42831.80
549.84	43030.75
550.01	42930.11
550.18	43091.60
550.34	43512.90
550.51	43154.80
550.68	43332.68
550.84	43505.88
551.01	43201.61
551.18	43536.30
551.34	42993.30
551.51	43831.21
551.68	43597.16
551.84	43606.52
552.01	43346.72
552.18	43426.30
552.34	43365.45
552.51	43828.87
552.68	43650.99
552.84	43536.30
553.01	43433.32
553.18	43959.94
553.34	43704.82
553.51	43526.94
553.67	43791.42
553.84	44294.64
554.01	43868.66
554.17	44158.89
554.34	44268.89
554.51	43988.03
554.67	44254.85
554.84	44128.46
555.00	44175.27
555.17	44123.78
555.33	44360.17
555.50	44381.24
555.67	44432.73
555.83	44376.56
556.00	44032.50
556.16	44753.38
556.33	44367.20
556.50	44308.68
556.66	44488.90
556.83	44626.99
556.99	44458.48
557.16	44872.75
557.32	44509.97
557.49	44615.29
557.65	44493.58
557.82	44732.32
557.98	44739.34
558.15	44774.45
558.32	44556.78
558.48	44577.84
558.65	44809.56
558.81	44767.43
558.98	44402.30
559.14	44538.05
559.31	44821.26
559.47	44694.87
559.64	44755.72
559.80	44935.95
559.97	44945.31
560.13	44900.84
560.30	44762.75
560.46	45265.96
560.63	45193.40
560.79	45453.20
560.96	44896.16
561.12	44776.79
561.29	45202.77
561.45	45275.32
561.61	44940.63
561.78	45270.64
561.94	45429.80
562.11	45186.38
562.27	45212.13
562.44	44875.09
562.60	45741.09
562.77	45558.53
562.93	45081.06
563.10	45546.82
563.26	45268.30
563.42	45661.51
563.59	45230.85
563.75	45680.24
563.92	45507.04
564.08	45317.45
564.24	45226.17
564.41	45500.01
564.57	45717.68
564.74	45790.24
564.90	45504.70
565.07	45787.90
565.23	45820.67
565.39	45727.05
565.56	46019.61
565.72	45425.12
565.88	45886.20
566.05	45951.74
566.21	45642.79
566.38	45614.70
566.54	45600.66
566.70	46059.40
566.87	45689.60
567.03	45495.33
567.19	46141.32
567.36	45762.15
567.52	46190.47
567.68	46101.53
567.85	45916.63
568.01	46295.80
568.17	45949.40
568.34	45928.33
568.50	46117.92
568.66	45600.66
568.83	46169.41
568.99	46045.36
569.15	45954.08
569.32	46560.28
569.48	45715.34
569.64	46391.76
569.81	45923.65
569.97	46225.58
570.13	46281.75
570.30	45942.38
570.46	46412.82
570.62	45984.51
570.78	46576.66
570.95	46141.32
571.11	46326.22
571.27	46007.91
571.43	46202.18
571.60	46279.41
571.76	46064.08
571.92	46188.13
572.09	46162.39
572.25	46300.48
572.41	46281.75
572.57	46522.83
572.74	46677.30
572.90	46590.70
573.06	46080.47
573.22	46380.06
573.38	46653.90
573.55	46387.08
573.71	46906.68
573.87	46674.96
574.03	46248.99
574.20	47063.49
574.36	46611.77
574.52	46693.69
574.68	46520.49
574.84	46637.51
575.01	46557.94
575.17	46525.17
575.33	46424.53
575.49	46284.09
575.65	46616.45
575.82	46791.99
575.98	46391.76
576.14	46546.23
576.30	47042.43
576.46	46520.49
576.62	46429.21
576.79	46471.34
576.95	46248.99
577.11	46440.91
577.27	46934.76
577.43	46775.61
577.59	46419.84
577.75	46555.60
577.92	46010.25
578.08	46469.00
578.24	46677.30
578.40	47136.05
578.56	46841.14
578.72	46452.61
578.88	46742.84
579.04	46887.95
579.21	46759.22
579.37	46628.15
579.53	46808.37
579.69	46663.26
579.85	46501.76
580.01	46635.17
580.17	46637.51
580.33	47084.56
580.49	46550.91
580.65	46571.98
580.82	46728.80
580.98	46597.73
581.14	46234.94
581.30	46923.06
581.46	47051.79
581.62	46466.66
581.78	46447.93
581.94	46815.40
582.10	46567.30
582.26	46815.40
582.42	46829.44
582.58	46780.29
582.74	46667.94
582.90	47079.88
583.06	46665.60
583.22	46344.95
583.38	46855.18
583.54	47143.07
583.70	46960.51
583.86	47159.45
584.02	46548.57
584.18	47201.58
584.34	47068.17
584.50	47512.88
584.66	47224.99
584.82	47042.43
584.98	46990.94
585.14	46976.89
585.30	46712.41
585.46	46492.40
585.62	46742.84
585.78	46656.24
585.94	46600.07
586.10	46871.57
586.26	46845.82
586.42	46815.40
586.58	46920.72
586.74	46733.48
586.90	47119.66
587.06	46955.83
587.22	47152.43
587.38	46941.78
587.54	47157.11
587.70	47171.16
587.86	47098.60
588.02	46745.18
588.18	46944.12
588.34	46782.63
588.49	46948.81
588.65	46581.34
588.81	47136.05
588.97	47253.08
589.13	46703.05
589.29	47061.15
589.45	47613.52
589.61	47309.25
589.77	47239.03
589.93	47171.16
590.08	47519.90
