SpectraSuite Data File
++++++++++++++++++++++++++++++++++++
Date: Fri Oct 25 11:34:40 EDT 2013
User: price-jones
Dark Spectrum Present: No
Reference Spectrum Present: No
Number of Sampled Component Spectra: 1
Spectrometers: USB2+H05261
Integration Time (usec): 100000 (USB2+H05261)
Spectra Averaged: 1 (USB2+H05261)
Boxcar Smoothing: 0 (USB2+H05261)
Correct for Electrical Dark: No (USB2+H05261)
Strobe/Lamp Enabled: No (USB2+H05261)
Correct for Detector Non-linearity: No (USB2+H05261)
Correct for Stray Light: No (USB2+H05261)
Number of Pixels in Processed Spectrum: 2048
>>>>>Begin Processed Spectral Data<<<<<
365.73	330.02
365.92	330.02
366.12	330.02
366.32	131.07
366.52	215.33
366.72	212.99
366.91	133.41
367.11	208.31
367.31	189.58
367.51	159.16
367.70	184.90
367.90	257.46
368.10	173.20
368.30	138.09
368.49	198.95
368.69	215.33
368.89	245.76
369.09	264.48
369.28	222.35
369.48	217.67
369.68	266.82
369.87	348.74
370.07	212.99
370.27	344.06
370.47	297.25
370.66	498.53
370.86	477.47
371.06	531.30
371.25	540.66
371.45	578.11
371.65	552.37
371.84	496.19
372.04	493.85
372.24	554.71
372.44	552.37
372.63	585.13
372.83	566.41
373.03	622.58
373.22	645.99
373.42	669.39
373.62	631.94
373.81	594.50
374.01	638.97
374.21	678.76
374.40	510.24
374.60	664.71
374.79	587.47
374.99	685.78
375.19	653.01
375.38	561.73
375.58	627.26
375.78	648.33
375.97	638.97
376.17	744.29
376.37	627.26
376.56	587.47
376.76	631.94
376.95	622.58
377.15	606.20
377.35	650.67
377.54	706.84
377.74	643.65
377.93	688.12
378.13	594.50
378.33	681.10
378.52	716.20
378.72	732.59
378.91	725.57
379.11	732.59
379.31	711.52
379.50	636.63
379.70	713.86
379.89	767.70
380.09	613.22
380.28	622.58
380.48	760.67
380.68	683.44
380.87	767.70
381.07	777.06
381.26	725.57
381.46	706.84
381.65	765.36
381.85	748.97
382.04	741.95
382.24	727.91
382.43	725.57
382.63	767.70
382.83	800.46
383.02	746.63
383.22	734.93
383.41	795.78
383.61	866.00
383.80	830.89
384.00	758.33
384.19	765.36
384.39	856.64
384.58	821.53
384.78	800.46
384.97	823.87
385.17	866.00
385.36	788.76
385.56	720.88
385.75	800.46
385.95	807.48
386.14	861.32
386.34	770.04
386.53	770.04
386.72	812.17
386.92	896.43
387.11	840.25
387.31	943.24
387.50	882.38
387.70	784.08
387.89	887.06
388.09	875.36
388.28	880.04
388.48	814.51
388.67	891.74
388.86	901.11
389.06	901.11
389.25	889.40
389.45	877.70
389.64	882.38
389.84	856.64
390.03	983.02
390.22	938.55
390.42	912.81
390.61	912.81
390.81	926.85
391.00	1048.56
391.19	959.62
391.39	983.02
391.58	978.34
391.78	1041.54
391.97	1034.52
392.16	978.34
392.36	1041.54
392.55	1029.84
392.75	980.68
392.94	1097.71
393.13	1029.84
393.33	1078.99
393.52	1093.03
393.71	1071.97
393.91	1050.90
394.10	1055.58
394.29	959.62
394.49	1156.22
394.68	1069.62
394.88	1032.18
395.07	1050.90
395.26	1165.59
395.46	1111.75
395.65	1109.41
395.84	1114.10
396.04	1207.72
396.23	1097.71
396.42	1186.65
396.62	1196.01
396.81	1170.27
397.00	1158.57
397.19	1146.86
397.39	1116.44
397.58	1149.20
397.77	1156.22
397.97	1146.86
398.16	1226.44
398.35	1210.06
398.55	1109.41
398.74	1210.06
398.93	1329.42
399.12	1249.85
399.32	1249.85
399.51	1291.98
399.70	1366.87
399.90	1259.21
400.09	1390.28
400.28	1371.55
400.47	1284.95
400.67	1390.28
400.86	1451.13
401.05	1355.17
401.24	1315.38
401.44	1406.66
401.63	1315.38
401.82	1469.86
402.01	1366.87
402.21	1420.71
402.40	1345.81
402.59	1404.32
402.78	1437.09
402.97	1432.41
403.17	1511.99
403.36	1488.58
403.55	1488.58
403.74	1483.90
403.93	1526.03
404.13	1544.75
404.32	1617.31
404.51	1521.35
404.70	1565.82
404.89	1607.95
405.09	1657.10
405.28	1654.76
405.47	1666.46
405.66	1640.72
405.85	1640.72
406.05	1537.73
406.24	1706.25
406.43	1671.14
406.62	1722.63
406.81	1661.78
407.00	1633.69
407.20	1685.19
407.39	1657.10
407.58	1736.68
407.77	1710.93
407.96	1753.06
408.15	1774.13
408.34	1741.36
408.54	1853.70
408.73	1802.21
408.92	1874.77
409.11	1909.88
409.30	1870.09
409.49	1900.52
409.68	1919.24
409.87	1928.60
410.07	1886.47
410.26	1930.94
410.45	1879.45
410.64	1949.67
410.83	2031.58
411.02	2050.31
411.21	2179.04
411.40	2052.65
411.59	2122.87
411.78	2125.21
411.98	2157.97
412.17	2113.50
412.36	2045.63
412.55	2186.06
412.74	2319.47
412.93	2174.36
413.12	2186.06
413.31	2277.34
413.50	2249.25
413.69	2326.49
413.88	2464.58
414.07	2349.90
414.26	2422.45
414.45	2434.16
414.64	2417.77
414.83	2422.45
415.02	2438.84
415.22	2506.71
415.41	2513.74
415.60	2532.46
415.79	2520.76
415.98	2597.99
416.17	2602.68
416.36	2579.27
416.55	2588.63
416.74	2607.36
416.93	2647.15
417.12	2658.85
417.31	2668.21
417.50	2782.90
417.69	2775.88
417.88	2689.28
418.07	2700.98
418.26	2794.60
418.45	2806.30
418.64	2860.13
418.83	2906.95
419.02	2944.39
419.21	2953.76
419.39	2909.29
419.58	3054.40
419.77	2939.71
419.96	2888.22
420.15	2944.39
420.34	2977.16
420.53	3091.85
420.72	3133.98
420.91	3110.57
421.10	3040.36
421.29	3197.17
421.48	3143.34
421.67	3169.09
421.86	3176.11
422.05	3070.78
422.24	3082.49
422.43	3159.72
422.61	3112.91
422.80	3141.00
422.99	3148.02
423.18	3126.96
423.37	3269.73
423.56	3197.17
423.75	3166.74
423.94	3052.06
424.13	3005.25
424.32	3157.38
424.50	3290.79
424.69	3382.07
424.88	3215.90
425.07	3246.32
425.26	3281.43
425.45	3293.13
425.64	3220.58
425.83	3229.94
426.01	3407.82
426.20	3290.79
426.39	3253.34
426.58	3339.94
426.77	3318.88
426.96	3309.52
427.15	3297.81
427.33	3419.52
427.52	3321.22
427.71	3466.33
427.90	3300.16
428.09	3588.04
428.28	3522.51
428.46	3363.35
428.65	3529.53
428.84	3576.34
429.03	3574.00
429.22	3559.95
429.40	3541.23
429.59	3583.36
429.78	3559.95
429.97	3492.08
430.16	3604.42
430.34	3707.41
430.53	3709.75
430.72	3700.39
430.91	3775.28
431.10	3707.41
431.28	3791.67
431.47	3875.93
431.66	3922.74
431.85	3815.07
432.03	3803.37
432.22	3922.74
432.41	3941.46
432.60	3936.78
432.79	3880.61
432.97	4060.83
433.16	3824.44
433.35	3873.59
433.54	3878.27
433.72	3915.72
433.91	3999.98
434.10	4084.23
434.28	3971.89
434.47	3941.46
434.66	4060.83
434.85	4084.23
435.03	4149.77
435.22	4135.73
435.41	4138.07
435.59	4044.45
435.78	4212.96
435.97	4262.12
436.16	4100.62
436.34	4196.58
436.53	4191.90
436.72	4269.14
436.90	4177.86
437.09	4491.49
437.28	4011.68
437.46	4379.14
437.65	4351.06
437.84	4344.03
438.02	4367.44
438.21	4327.65
438.40	4360.42
438.58	4428.29
438.77	4552.34
438.96	4493.83
439.14	4634.26
439.33	4662.35
439.52	4662.35
439.70	4741.93
439.89	4716.18
440.08	4779.37
440.26	4718.52
440.45	4706.82
440.63	4823.84
440.82	4910.44
441.01	4819.16
441.19	4903.42
441.38	4983.00
441.57	5020.45
441.75	5036.83
441.94	5224.08
442.12	5104.71
442.31	5090.67
442.50	5240.46
442.68	5004.07
442.87	5104.71
443.05	5088.32
443.24	5256.84
443.43	5114.07
443.61	5238.12
443.80	5231.10
443.98	5235.78
444.17	4971.30
444.35	5233.44
444.54	5411.32
444.73	5397.28
444.91	5343.44
445.10	5458.13
445.28	5322.38
445.47	5313.02
445.65	5320.04
445.84	5371.53
446.02	5334.08
446.21	5357.49
446.39	5572.82
446.58	5439.40
446.77	5416.00
446.95	5371.53
447.14	5507.28
447.32	5533.03
447.51	5359.83
447.69	5479.19
447.88	5406.64
448.06	5486.22
448.25	5399.62
448.43	5526.00
448.62	5418.34
448.80	5600.90
448.99	5528.35
449.17	5741.33
449.36	5483.88
449.54	5668.78
449.73	5694.52
449.91	5582.18
450.10	5675.80
450.28	5837.30
450.46	5816.23
450.65	5722.61
450.83	5806.87
451.02	5846.66
451.20	5893.47
451.39	5820.91
451.57	5834.96
451.76	5844.32
451.94	5940.28
452.13	5895.81
452.31	6207.10
452.49	5907.51
452.68	5837.30
452.86	6120.50
453.05	6087.73
453.23	6141.57
453.42	5914.53
453.60	5980.07
453.78	6179.01
453.97	6125.18
454.15	6092.41
454.34	5746.02
454.52	6289.02
454.70	6078.37
454.89	6296.04
455.07	6073.69
455.26	6277.32
455.44	6127.52
455.62	6207.10
455.81	6441.15
455.99	6441.15
456.17	6394.34
456.36	6499.67
456.54	6417.75
456.73	6635.42
456.91	6537.12
457.09	6595.63
457.28	6771.17
457.46	6715.00
457.64	6780.53
457.83	6792.23
458.01	6642.44
458.19	6726.70
458.38	6871.81
458.56	6843.73
458.74	6649.46
458.93	6796.92
459.11	6993.52
459.29	7002.88
459.48	6960.75
459.66	6817.98
459.84	6942.03
460.03	6965.43
460.21	6970.12
460.39	6909.26
460.57	6850.75
460.76	6930.33
460.94	7059.06
461.12	7122.25
461.31	7061.40
461.49	7068.42
461.67	7082.46
461.85	7398.43
462.04	7344.60
462.22	7569.29
462.40	7307.15
462.59	7339.92
462.77	7508.44
462.95	7449.93
463.13	7297.79
463.32	7358.64
463.50	7311.83
463.68	7440.56
463.86	7487.37
464.05	7424.18
464.23	7384.39
464.41	7482.69
464.59	7342.26
464.78	7719.09
464.96	7559.93
465.14	7681.64
465.32	7683.98
465.50	7683.98
465.69	7922.71
465.87	7749.51
466.05	7709.72
466.23	7674.62
466.41	7721.43
466.60	7737.81
466.78	7707.38
466.96	7562.27
467.14	7892.29
467.32	7679.30
467.51	7962.50
467.69	7906.33
467.87	7882.92
468.05	7768.24
468.23	8037.40
468.41	7894.63
468.60	8013.99
468.78	8095.91
468.96	8149.75
469.14	8119.32
469.32	8102.93
469.50	7976.55
469.69	8236.35
469.87	8191.88
470.05	8353.37
470.23	8388.48
470.41	8416.57
470.59	8353.37
470.77	8421.25
470.95	8353.37
471.14	8718.50
471.32	8358.05
471.50	8617.85
471.68	8479.76
471.86	8664.66
472.04	8655.30
472.22	8882.33
472.40	8720.84
472.58	8762.97
472.77	8777.01
472.95	8999.36
473.13	9130.43
473.31	8767.65
473.49	8861.27
473.67	8961.91
473.85	9048.51
474.03	9221.71
474.21	9270.86
474.39	9210.01
474.57	9415.98
474.75	9427.68
474.93	9441.72
475.12	9308.31
475.30	9565.77
475.48	9212.35
475.66	9624.28
475.84	9476.83
476.02	9668.75
476.20	9448.74
476.38	9872.38
476.56	9935.57
476.74	9923.87
476.92	9998.77
477.10	9888.76
477.28	10160.27
477.46	10104.09
477.64	10111.11
477.82	10401.34
478.00	10572.20
478.18	10588.58
478.36	10574.54
478.54	10743.06
478.72	10714.97
478.90	10913.92
479.08	10878.81
479.26	11019.24
479.44	10906.90
479.62	10953.71
479.80	11208.83
479.98	11309.47
480.16	11424.15
480.34	11548.20
480.52	11499.05
480.70	11648.85
480.88	11468.62
481.06	11875.88
481.24	11775.24
481.41	11770.55
481.59	11939.07
481.77	12100.57
481.95	12320.58
482.13	12257.39
482.31	12248.02
482.49	12446.97
482.67	12624.85
482.85	12755.92
483.03	12954.87
483.21	12793.37
483.39	12854.22
483.57	12945.50
483.74	13226.37
483.92	13146.79
484.10	13303.60
484.28	13579.79
484.46	13774.05
484.64	13912.14
484.82	13621.92
485.00	13769.37
485.18	13877.04
485.35	14340.46
485.53	14090.02
485.71	14118.11
485.89	14565.15
486.07	14441.11
486.25	14663.46
486.43	14775.80
486.61	14647.07
486.78	15042.62
486.96	14939.64
487.14	15225.18
487.32	15105.82
487.50	15246.25
487.68	15695.63
487.85	15852.45
488.03	15901.60
488.21	15969.48
488.39	15847.77
488.57	16439.92
488.75	16243.32
488.92	16301.83
489.10	16587.38
489.28	16545.25
489.46	16748.87
489.64	16732.49
489.81	17135.06
489.99	17130.38
490.17	17240.39
490.35	17301.24
490.53	17322.30
490.70	17720.20
490.88	17535.29
491.06	18038.51
491.24	17839.56
491.41	17792.75
491.59	18148.51
491.77	17771.69
491.95	17923.82
492.13	18352.14
492.30	18574.49
492.48	18291.29
492.66	18691.52
492.84	18745.35
493.01	18815.57
493.19	19374.95
493.37	19248.57
493.54	19353.89
493.72	19459.21
493.90	19538.79
494.08	19693.27
494.25	19754.12
494.43	19859.45
494.61	20374.36
494.79	19971.79
494.96	20018.60
495.14	20119.24
495.32	20580.33
495.49	20297.13
495.67	20379.04
495.85	20680.97
496.02	20779.28
496.20	21097.59
496.38	21097.59
496.55	21214.62
496.73	21570.38
496.91	21544.63
497.09	21514.20
497.26	21628.89
497.44	21521.23
497.62	21593.78
497.79	22265.52
497.97	22157.85
498.14	22038.48
498.32	22202.32
498.50	22288.92
498.67	22567.45
498.85	22618.94
499.03	22625.96
499.20	22696.17
499.38	22970.02
499.56	22806.18
499.73	23096.41
499.91	23119.81
500.08	23431.10
500.26	23393.65
500.44	23105.77
500.61	23695.58
500.79	23192.37
500.97	23358.55
501.14	23960.06
501.32	23655.79
501.49	23789.20
501.67	23999.85
501.84	23999.85
502.02	23850.06
502.20	24140.29
502.37	24372.00
502.55	24238.59
502.72	24170.71
502.90	24364.98
503.07	24556.90
503.25	24917.34
503.43	24416.47
503.60	24748.82
503.78	24833.08
503.95	24919.68
504.13	25006.28
504.30	25191.19
504.48	25240.34
504.65	25652.27
504.83	25589.08
505.01	25610.14
505.18	25617.16
505.36	25790.36
505.53	25893.35
505.71	25802.07
505.88	26012.71
506.06	25928.45
506.23	26113.36
506.41	26176.55
506.58	26249.11
506.76	26115.70
506.93	26436.35
507.11	26223.36
507.28	26307.62
507.46	26434.01
507.63	26876.37
507.81	26567.42
507.98	26724.24
508.16	27080.00
508.33	27274.26
508.50	27545.76
508.68	27016.80
508.85	27159.58
509.03	27098.72
509.20	27515.34
509.38	27718.96
509.55	27541.08
509.73	27578.53
509.90	28048.98
510.08	27545.76
510.25	27630.02
510.42	27882.80
510.60	28020.89
510.77	28294.74
510.95	28519.43
511.12	27805.56
511.30	28201.11
511.47	28596.67
511.64	28472.62
511.82	28470.28
511.99	28397.72
512.17	28648.16
512.34	28659.86
512.51	28910.30
512.69	29259.04
512.86	29118.60
513.04	29326.91
513.21	28982.85
513.38	29125.63
513.56	29151.37
513.73	29401.81
513.90	29441.60
514.08	29514.16
514.25	29804.38
514.43	29582.03
514.60	29773.95
514.77	30010.35
514.95	30101.63
515.12	29579.69
515.29	29820.77
515.47	29930.77
515.64	29907.37
515.81	30000.99
515.99	30225.68
516.16	30618.89
516.33	30553.35
516.51	30508.88
516.68	30469.09
516.85	30635.27
517.03	30761.66
517.20	30726.55
517.37	31105.72
517.54	30668.04
517.72	30768.68
517.89	31229.77
518.06	31295.30
518.24	31012.10
518.41	30859.96
518.58	31147.85
518.75	31161.89
518.93	31594.89
519.10	31278.92
519.27	31597.23
519.45	31463.82
519.62	32151.94
519.79	32142.58
519.96	31777.45
520.14	31763.41
520.31	31552.76
520.48	31819.58
520.65	31943.63
520.83	32149.60
521.00	32470.25
521.17	32439.82
521.34	32400.04
521.52	32416.42
521.69	32493.66
521.86	32348.54
522.03	32730.05
522.20	32514.72
522.38	33273.06
522.55	33165.39
522.72	32884.53
522.89	33081.13
523.07	33621.80
523.24	32851.76
523.41	33748.18
523.58	32966.45
523.75	33516.47
523.92	33039.00
524.10	33703.71
524.27	33640.52
524.44	33680.31
524.61	33989.26
524.78	33710.74
524.96	34024.37
525.13	34075.86
525.30	34164.80
525.47	34099.26
525.64	34071.18
525.81	34101.61
525.98	34644.61
526.16	33895.64
526.33	34010.32
526.50	34637.59
526.67	34412.90
526.84	34579.07
527.01	34384.81
527.18	34492.47
527.36	34326.30
527.53	34749.93
527.70	34934.84
527.87	34946.54
528.04	34469.07
528.21	34735.89
528.38	35152.51
528.55	35068.25
528.72	35072.93
528.89	35253.15
529.07	35475.50
529.24	35131.44
529.41	35416.99
529.58	35243.79
529.75	35262.51
529.92	35419.33
530.09	35634.66
530.26	35276.55
530.43	36149.57
530.60	35241.45
530.77	35627.63
530.94	35765.73
531.11	35393.58
531.28	36053.61
531.46	35819.56
531.63	35721.26
531.80	35761.05
531.97	36119.15
532.14	36301.71
532.31	36336.82
532.48	36128.51
532.65	36465.55
532.82	36126.17
532.99	36388.31
533.16	36287.67
533.33	36718.32
533.50	36643.43
533.67	36645.77
533.84	36374.27
534.01	36587.25
534.18	36627.04
534.35	37003.87
534.52	36966.42
534.69	37289.42
534.86	36917.27
535.03	36800.24
535.20	37141.96
535.37	37230.90
535.54	37322.18
535.71	37237.92
535.88	37273.03
536.05	37617.09
536.22	37310.48
536.38	37102.17
536.55	37734.12
536.72	37394.74
536.89	37596.03
537.06	37633.47
537.23	37675.60
537.40	37675.60
537.57	37261.33
537.74	37816.04
537.91	37855.82
538.08	38005.62
538.25	37860.51
538.42	38199.88
538.59	37820.72
538.75	38005.62
538.92	38286.48
539.09	38263.08
539.26	38188.18
539.43	38033.71
539.60	37944.76
539.77	38607.14
539.94	38323.93
540.11	38171.80
540.28	38312.23
540.44	38670.33
540.61	38689.06
540.78	38321.59
540.95	38778.00
541.12	38721.82
541.29	38110.94
541.46	38319.25
541.62	38864.60
541.79	39264.83
541.96	38803.74
542.13	38714.80
542.30	38787.36
542.47	39063.54
542.63	39337.38
542.80	39175.89
542.97	39583.14
543.14	39470.79
543.31	39470.79
543.48	39552.71
543.64	39976.35
543.81	39590.16
543.98	39660.38
544.15	39473.13
544.32	39578.46
544.48	40254.87
544.65	39807.83
544.82	39828.90
544.99	39459.09
545.16	39627.61
545.32	39871.03
545.49	40306.37
545.66	40247.85
545.83	39782.09
546.00	40172.96
546.16	40243.17
546.33	40163.59
546.50	40287.64
546.67	40577.87
546.83	40011.46
547.00	39955.29
547.17	40264.24
547.34	40208.06
547.50	39957.63
547.67	40652.76
547.84	40835.33
548.00	40781.49
548.17	41036.61
548.34	40498.29
548.51	41282.37
548.67	40830.65
548.84	40840.01
549.01	40631.70
549.18	40753.41
549.34	40879.80
549.51	41429.82
549.68	41228.54
549.84	41045.97
550.01	40914.90
550.18	41151.30
550.34	41308.11
550.51	41399.40
550.68	40821.28
550.84	40982.78
551.01	41471.95
551.18	41394.71
551.34	41298.75
551.51	41532.81
551.68	41450.89
551.84	41071.72
552.01	41383.01
552.18	41195.77
552.34	41361.95
552.51	41308.11
552.68	41523.44
552.84	41493.02
553.01	41619.41
553.18	41549.19
553.34	42005.59
553.51	41773.88
553.67	41453.23
553.84	41834.74
554.01	41916.65
554.17	41668.56
554.34	42195.18
554.51	42153.05
554.67	42300.50
554.84	41954.10
555.00	42218.58
555.17	41577.28
555.33	42567.32
555.50	42199.86
555.67	42316.89
555.83	41968.15
556.00	42272.42
556.16	42618.81
556.33	42096.88
556.50	42480.72
556.66	42445.62
556.83	41937.72
556.99	42946.49
557.16	42504.13
557.32	42763.93
557.49	42829.46
557.65	42384.76
557.82	42356.67
557.98	42653.92
558.15	42389.44
558.32	42787.33
558.48	42663.28
558.65	42557.96
558.81	42726.48
558.98	42738.18
559.14	42553.28
559.31	42649.24
559.47	43096.28
559.64	42813.08
559.80	42953.51
559.97	42997.98
560.13	43178.20
560.30	42976.92
560.46	43002.66
560.63	42909.04
560.79	43091.60
560.96	43232.04
561.12	43243.74
561.29	43316.29
561.45	43374.81
561.61	43166.50
561.78	43372.47
561.94	43164.16
562.11	43318.64
562.27	43215.65
562.44	43578.43
562.60	43524.60
562.77	42862.23
562.93	43241.40
563.10	43531.62
563.26	43594.82
563.42	43667.37
563.59	43356.08
563.75	43164.16
563.92	43496.52
564.08	43227.35
564.24	43438.00
564.41	43487.15
564.57	43358.42
564.74	43753.97
564.90	43746.95
565.07	43414.60
565.23	43559.71
565.39	43639.29
565.56	43924.83
565.72	43470.77
565.88	43798.44
566.05	43704.82
566.21	43969.30
566.38	43690.78
566.54	43765.68
566.70	43800.79
566.87	43962.28
567.03	43562.05
567.19	43643.97
567.36	43529.28
567.52	43786.74
567.68	44076.97
567.85	43639.29
568.01	44102.71
568.17	43948.24
568.34	43966.96
568.50	43618.22
568.66	43667.37
568.83	43973.98
568.99	43442.68
569.15	44093.35
569.32	43796.10
569.48	44151.87
569.64	44280.60
569.81	44088.67
569.97	44158.89
570.13	44259.53
570.30	44179.95
570.46	44378.90
570.62	44154.21
570.78	43859.30
570.95	43835.89
571.11	44652.74
571.27	44367.20
571.43	43510.56
571.60	43849.94
571.76	44332.09
571.92	44208.04
572.09	43658.01
572.25	43920.15
572.41	44161.23
572.57	44577.84
572.74	44657.42
572.90	44430.39
573.06	44301.66
573.22	44498.26
573.38	44746.36
573.55	44446.77
573.71	44737.00
573.87	44409.32
574.03	44135.48
574.20	44690.19
574.36	44406.98
574.52	44842.32
574.68	44383.58
574.84	44563.80
575.01	44313.36
575.17	44863.39
575.33	44755.72
575.49	44280.60
575.65	44615.29
575.82	44561.46
575.98	44289.96
576.14	44741.68
576.30	44542.74
576.46	44549.76
576.62	44161.23
576.79	44526.35
576.95	44320.38
577.11	44601.25
577.27	44708.91
577.43	44348.47
577.59	44795.51
577.75	44439.75
577.92	44186.97
578.08	44694.87
578.24	44608.27
578.40	44692.53
578.56	44758.06
578.72	45102.12
578.88	44800.19
579.04	44575.50
579.21	44383.58
579.37	44617.63
579.53	44292.30
579.69	44320.38
579.85	44704.23
580.01	44671.46
580.17	44322.72
580.33	44767.43
580.49	44629.34
580.65	44722.96
580.82	44388.26
580.98	44811.90
581.14	44425.71
581.30	44580.18
581.46	44507.63
581.62	44453.79
581.78	44650.40
581.94	44713.59
582.10	44472.52
582.26	44868.07
582.42	44491.24
582.58	44708.91
582.74	44994.46
582.90	44842.32
583.06	45006.16
583.22	44795.51
583.38	45052.97
583.54	44751.04
583.70	45050.63
583.86	45048.29
584.02	44692.53
584.18	45500.01
584.34	44905.52
584.50	44816.58
584.66	45015.52
584.82	45055.31
584.98	44858.71
585.14	44926.58
585.30	44538.05
585.46	44847.00
585.62	44608.27
585.78	44514.65
585.94	44397.62
586.10	44587.21
586.26	44704.23
586.42	44903.18
586.58	44582.52
586.74	44428.05
586.90	44781.47
587.06	44884.45
587.22	45088.08
587.38	44914.88
587.54	44964.03
587.70	45188.72
587.86	45254.26
588.02	44865.73
588.18	44942.97
588.34	44924.24
588.49	44823.60
588.65	45013.18
588.81	44940.63
588.97	44823.60
589.13	45078.72
589.29	45141.91
589.45	45132.55
589.61	44926.58
589.77	45291.71
589.93	45081.06
590.08	45455.54
