SpectraSuite Data File
++++++++++++++++++++++++++++++++++++
Date: Fri Oct 25 11:34:21 EDT 2013
User: price-jones
Dark Spectrum Present: No
Reference Spectrum Present: No
Number of Sampled Component Spectra: 1
Spectrometers: USB2+H05261
Integration Time (usec): 100000 (USB2+H05261)
Spectra Averaged: 1 (USB2+H05261)
Boxcar Smoothing: 0 (USB2+H05261)
Correct for Electrical Dark: No (USB2+H05261)
Strobe/Lamp Enabled: No (USB2+H05261)
Correct for Detector Non-linearity: No (USB2+H05261)
Correct for Stray Light: No (USB2+H05261)
Number of Pixels in Processed Spectrum: 2048
>>>>>Begin Processed Spectral Data<<<<<
365.73	301.93
365.92	301.93
366.12	301.93
366.32	215.33
366.52	161.50
366.72	203.63
366.91	208.31
367.11	154.48
367.31	159.16
367.51	215.33
367.70	168.52
367.90	149.79
368.10	140.43
368.30	168.52
368.49	227.03
368.69	224.69
368.89	196.60
369.09	173.20
369.28	198.95
369.48	236.39
369.68	252.78
369.87	285.55
370.07	280.86
370.27	337.04
370.47	334.70
370.66	482.15
370.86	566.41
371.06	524.28
371.25	475.13
371.45	538.32
371.65	447.04
371.84	543.00
372.04	564.07
372.24	517.26
372.44	545.34
372.63	617.90
372.83	617.90
373.03	559.39
373.22	613.22
373.42	538.32
373.62	578.11
373.81	610.88
374.01	624.92
374.21	662.37
374.40	620.24
374.60	636.63
374.79	601.52
374.99	629.60
375.19	634.29
375.38	645.99
375.58	674.07
375.78	777.06
375.97	582.79
376.17	725.57
376.37	737.27
376.56	683.44
376.76	594.50
376.95	613.22
377.15	669.39
377.35	631.94
377.54	709.18
377.74	629.60
377.93	655.35
378.13	699.82
378.33	709.18
378.52	685.78
378.72	662.37
378.91	777.06
379.11	669.39
379.31	669.39
379.50	711.52
379.70	774.72
379.89	777.06
380.09	781.74
380.28	669.39
380.48	791.10
380.68	723.23
380.87	770.04
381.07	755.99
381.26	755.99
381.46	772.38
381.65	741.95
381.85	770.04
382.04	711.52
382.24	788.76
382.43	781.74
382.63	716.20
382.83	716.20
383.02	760.67
383.22	800.46
383.41	861.32
383.61	823.87
383.80	819.19
384.00	755.99
384.19	854.30
384.39	800.46
384.58	819.19
384.78	784.08
384.97	765.36
385.17	809.83
385.36	821.53
385.56	807.48
385.75	842.59
385.95	826.21
386.14	821.53
386.34	821.53
386.53	873.02
386.72	947.92
386.92	887.06
387.11	847.27
387.31	880.04
387.50	821.53
387.70	905.79
387.89	950.26
388.09	795.78
388.28	887.06
388.48	866.00
388.67	884.72
388.86	964.30
389.06	870.68
389.25	903.45
389.45	908.13
389.64	933.87
389.84	1008.77
390.03	887.06
390.22	964.30
390.42	964.30
390.61	952.60
390.81	947.92
391.00	1011.11
391.19	1071.97
391.39	945.58
391.58	922.17
391.78	966.64
391.97	994.73
392.16	1036.86
392.36	1034.52
392.55	1004.09
392.75	1086.01
392.94	1078.99
393.13	1046.22
393.33	945.58
393.52	1025.15
393.71	1104.73
393.91	994.73
394.10	1158.57
394.29	1097.71
394.49	1123.46
394.68	1090.69
394.88	1078.99
395.07	1076.65
395.26	1135.16
395.46	1217.08
395.65	1160.91
395.84	1203.04
396.04	1167.93
396.23	1226.44
396.42	1165.59
396.62	1078.99
396.81	1200.69
397.00	1233.46
397.19	1184.31
397.39	1137.50
397.58	1282.61
397.77	1165.59
397.97	1205.38
398.16	1198.35
398.35	1247.51
398.55	1196.01
398.74	1270.91
398.93	1310.70
399.12	1231.12
399.32	1289.64
399.51	1324.74
399.70	1226.44
399.90	1320.06
400.09	1317.72
400.28	1411.34
400.47	1306.02
400.67	1383.26
400.86	1341.13
401.05	1390.28
401.24	1385.60
401.44	1437.09
401.63	1413.68
401.82	1404.32
402.01	1322.40
402.21	1481.56
402.40	1423.05
402.59	1453.47
402.78	1521.35
402.97	1495.60
403.17	1500.28
403.36	1519.01
403.55	1451.13
403.74	1537.73
403.93	1460.49
404.13	1481.56
404.32	1554.12
404.51	1657.10
404.70	1544.75
404.89	1591.56
405.09	1750.72
405.28	1629.01
405.47	1654.76
405.66	1724.97
405.85	1682.85
406.05	1692.21
406.24	1746.04
406.43	1727.32
406.62	1727.32
406.81	1734.34
407.00	1818.60
407.20	1692.21
407.39	1685.19
407.58	1799.87
407.77	1877.11
407.96	1823.28
408.15	1827.96
408.34	1741.36
408.54	1856.04
408.73	1886.47
408.92	1877.11
409.11	1809.23
409.30	1991.80
409.49	1987.11
409.68	1933.28
409.87	1982.43
410.07	1963.71
410.26	1947.33
410.45	2101.80
410.64	2099.46
410.83	2122.87
411.02	2015.20
411.21	2036.27
411.40	2064.35
411.59	2087.76
411.78	2120.53
411.98	2200.10
412.17	2214.15
412.36	2237.55
412.55	2258.62
412.74	2249.25
412.93	2314.79
413.12	2218.83
413.31	2366.28
413.50	2293.72
413.69	2310.11
413.88	2579.27
414.07	2466.92
414.26	2352.24
414.45	2420.11
414.64	2466.92
414.83	2476.29
415.02	2448.20
415.22	2637.78
415.41	2633.10
415.60	2658.85
415.79	2675.23
415.98	2658.85
416.17	2633.10
416.36	2518.42
416.55	2672.89
416.74	2700.98
416.93	2722.04
417.12	2846.09
417.31	2729.06
417.50	2864.82
417.69	2991.20
417.88	2874.18
418.07	2832.05
418.26	2890.56
418.45	2810.98
418.64	2970.14
418.83	2864.82
419.02	2827.37
419.21	2918.65
419.39	3040.36
419.58	2949.08
419.77	2988.86
419.96	2956.10
420.15	3089.51
420.34	3035.67
420.53	3108.23
420.72	3021.63
420.91	3157.38
421.10	3023.97
421.29	3253.34
421.48	3225.26
421.67	3232.28
421.86	3178.45
422.05	3213.56
422.24	3323.56
422.43	3311.86
422.61	3236.96
422.80	3375.05
422.99	3325.90
423.18	3227.60
423.37	3410.16
423.56	3435.91
423.75	3248.66
423.94	3150.36
424.13	3117.59
424.32	3077.80
424.50	3293.13
424.69	3445.27
424.88	3412.50
425.07	3337.60
425.26	3314.20
425.45	3204.19
425.64	3337.60
425.83	3307.18
426.01	3353.99
426.20	3353.99
426.39	3328.24
426.58	3276.75
426.77	3449.95
426.96	3449.95
427.15	3417.18
427.33	3597.40
427.52	3447.61
427.71	3440.59
427.90	3412.50
428.09	3456.97
428.28	3358.67
428.46	3581.02
428.65	3517.83
428.84	3651.24
429.03	3667.62
429.22	3571.66
429.40	3641.87
429.59	3730.81
429.78	3564.64
429.97	3494.42
430.16	3669.96
430.34	3796.35
430.53	3660.60
430.72	3674.64
430.91	3920.40
431.10	3730.81
431.28	3878.27
431.47	3981.25
431.66	3896.99
431.85	3962.53
432.03	3960.19
432.22	4079.55
432.41	3936.78
432.60	3838.48
432.79	3929.76
432.97	3985.93
433.16	3936.78
433.35	4004.66
433.54	3960.19
433.72	3918.06
433.91	4044.45
434.10	4098.28
434.28	3967.21
434.47	4107.64
434.66	4191.90
434.85	4203.60
435.03	4161.47
435.22	4292.54
435.41	4257.43
435.59	4224.67
435.78	4318.29
435.97	4112.32
436.16	4161.47
436.34	4140.41
436.53	4198.92
436.72	4395.53
436.90	4395.53
437.09	4332.33
437.28	4231.69
437.46	4423.61
437.65	4470.42
437.84	4568.73
438.02	4454.04
438.21	4650.64
438.40	4407.23
438.58	4477.44
438.77	4814.48
438.96	4432.97
439.14	4650.64
439.33	4716.18
439.52	4770.01
439.70	4734.90
439.89	4795.76
440.08	4851.93
440.26	4880.02
440.45	4819.16
440.63	4978.32
440.82	4959.60
441.01	5062.58
441.19	5008.75
441.38	5006.41
441.57	5107.05
441.75	5165.56
441.94	5476.85
442.12	5303.65
442.31	5238.12
442.50	5380.89
442.68	5249.82
442.87	5390.25
443.05	5338.76
443.24	5294.29
443.43	5441.75
443.61	5432.38
443.80	5511.96
443.98	5380.89
444.17	5097.69
444.35	5423.02
444.54	5507.28
444.73	5371.53
444.91	5561.11
445.10	5500.26
445.28	5479.19
445.47	5315.36
445.65	5497.92
445.84	5607.92
446.02	5570.48
446.21	5563.45
446.39	5568.13
446.58	5565.79
446.77	5694.52
446.95	5275.57
447.14	5523.66
447.32	5645.37
447.51	5664.10
447.69	5605.58
447.88	5633.67
448.06	5540.05
448.25	5558.77
448.43	5565.79
448.62	5605.58
448.80	5750.70
448.99	5694.52
449.17	5825.59
449.36	5633.67
449.54	5806.87
449.73	5926.24
449.91	5799.85
450.10	5949.64
450.28	5909.85
450.46	6005.81
450.65	5755.38
450.83	5888.79
451.02	5905.17
451.20	5905.17
451.39	6047.94
451.57	5839.64
451.76	5802.19
451.94	6113.48
452.13	6111.14
452.31	6139.23
452.49	6078.37
452.68	6038.58
452.86	6057.31
453.05	6141.57
453.23	6197.74
453.42	6066.67
453.60	6204.76
453.78	6359.24
453.97	6101.78
454.15	6202.42
454.34	6141.57
454.52	6448.18
454.70	6321.79
454.89	6331.15
455.07	6338.17
455.26	6562.86
455.44	6478.60
455.62	6609.67
455.81	6640.10
455.99	6602.65
456.17	6658.82
456.36	6541.80
456.54	6567.54
456.73	6785.21
456.91	6773.51
457.09	6820.32
457.28	6995.86
457.46	6691.59
457.64	6963.09
457.83	6871.81
458.01	6841.39
458.19	7068.42
458.38	6759.47
458.56	6974.80
458.74	6904.58
458.93	6862.45
459.11	7073.10
459.29	6927.99
459.48	6972.46
459.66	7377.37
459.84	7138.63
460.03	7222.89
460.21	7148.00
460.39	7084.80
460.57	7267.36
460.76	7304.81
460.94	7267.36
461.12	7311.83
461.31	7321.20
461.49	7162.04
461.67	7375.03
461.85	7447.58
462.04	7489.71
462.22	7723.77
462.40	7470.99
462.59	7550.57
462.77	7595.04
462.95	7585.68
463.13	7592.70
463.32	7517.80
463.50	7602.06
463.68	7644.19
463.86	7660.57
464.05	7475.67
464.23	7695.68
464.41	7695.68
464.59	7571.63
464.78	7915.69
464.96	7632.49
465.14	7538.87
465.32	7843.14
465.50	7950.80
465.69	7943.78
465.87	7817.39
466.05	8006.97
466.23	8135.70
466.41	8011.65
466.60	8105.28
466.78	7997.61
466.96	7793.98
467.14	7805.69
467.32	8133.36
467.51	8135.70
467.69	7997.61
467.87	8018.68
468.05	8072.51
468.23	7934.42
468.41	8109.96
468.60	8175.49
468.78	8161.45
468.96	8276.13
469.14	8236.35
469.32	8486.78
469.50	8372.10
469.69	8119.32
469.87	8372.10
470.05	8428.27
470.23	8273.79
470.41	8573.38
470.59	8615.51
470.77	8421.25
470.95	8421.25
471.14	8573.38
471.32	8596.79
471.50	8769.99
471.68	8718.50
471.86	8847.22
472.04	8823.82
472.22	8975.95
472.40	8917.44
472.58	8830.84
472.77	9092.98
472.95	9132.77
473.13	9273.20
473.31	9202.99
473.49	8847.22
473.67	9217.03
473.85	9238.09
474.03	9617.26
474.21	9537.68
474.39	9633.64
474.57	9575.13
474.75	9596.20
474.93	9741.31
475.12	9659.39
475.30	9514.28
475.48	9507.26
475.66	9891.10
475.84	9830.25
476.02	9980.04
476.20	9916.85
476.38	9926.21
476.56	10057.28
476.74	10291.34
476.92	10246.87
477.10	10090.05
477.28	10560.50
477.46	10363.89
477.64	10401.34
477.82	10604.97
478.00	10820.30
478.18	10560.50
478.36	10754.76
478.54	10869.45
478.72	11061.37
478.90	11138.61
479.08	11293.08
479.26	11321.17
479.44	11300.11
479.62	11485.01
479.80	11571.61
479.98	11667.57
480.16	11573.95
480.34	11634.80
480.52	11964.82
480.70	11906.31
480.88	11786.94
481.06	12030.35
481.24	12112.27
481.41	12407.18
481.59	12414.20
481.77	12306.54
481.95	12458.67
482.13	12500.80
482.31	12449.31
482.49	12851.88
482.67	12936.14
482.85	13029.76
483.03	13408.93
483.21	13242.75
483.39	13593.83
483.57	13198.28
483.74	13322.33
483.92	13755.33
484.10	13422.97
484.28	13795.12
484.46	13965.98
484.64	14118.11
484.82	13855.97
485.00	14162.58
485.18	14534.73
485.35	14644.73
485.53	14408.34
485.71	14562.81
485.89	15119.86
486.07	15150.29
486.25	15183.06
486.43	15042.62
486.61	15169.01
486.78	15220.50
486.96	15412.43
487.14	15733.08
487.32	15477.96
487.50	16046.71
487.68	15896.92
487.85	15850.11
488.03	16018.63
488.21	16463.33
488.39	16383.75
488.57	16697.38
488.75	16585.04
488.92	16791.00
489.10	17032.08
489.28	17139.74
489.46	17334.01
489.64	17029.74
489.81	17514.23
489.99	17577.42
490.17	17549.34
490.35	17982.34
490.53	17926.16
490.70	18251.50
490.88	18202.35
491.06	18237.45
491.24	18328.74
491.41	18394.27
491.59	18483.21
491.77	18539.38
491.95	18890.46
492.13	18803.86
492.30	18904.51
492.48	18974.72
492.66	19007.49
492.84	19206.44
493.01	19477.94
493.19	19431.13
493.37	19826.68
493.54	19857.10
493.72	19824.34
493.90	19932.00
494.08	19686.25
494.25	20039.67
494.43	20219.89
494.61	20414.15
494.79	20582.67
494.96	20615.44
495.14	20905.66
495.32	20737.15
495.49	20943.11
495.67	21341.00
495.85	21406.54
496.02	21565.70
496.20	21600.80
496.38	21476.76
496.55	21818.47
496.73	22197.64
496.91	22132.11
497.09	21610.17
497.26	22288.92
497.44	22314.67
497.62	22506.59
497.79	22684.47
497.97	22345.09
498.14	22663.41
498.32	23009.81
498.50	22888.10
498.67	23068.32
498.85	22934.91
499.03	23187.69
499.20	23414.72
499.38	23601.96
499.56	23688.56
499.73	23826.65
499.91	23606.64
500.08	24067.73
500.26	23616.01
500.44	23784.52
500.61	24049.00
500.79	23728.35
500.97	24133.26
501.14	24493.71
501.32	24376.68
501.49	24531.15
501.67	24332.21
501.84	24870.53
502.02	24781.59
502.20	24971.18
502.37	25202.89
502.55	24765.21
502.72	24863.51
502.90	24821.38
503.07	24882.24
503.25	25060.12
503.43	25142.03
503.60	25523.54
503.78	25516.52
503.95	25553.97
504.13	25605.46
504.30	25886.32
504.48	25741.21
504.65	25914.41
504.83	25881.64
505.01	26080.59
505.18	26511.25
505.36	26443.37
505.53	26312.30
505.71	26520.61
505.88	26586.15
506.06	26221.02
506.23	26946.59
506.41	26525.29
506.58	26778.07
506.76	26661.04
506.93	27220.43
507.11	27035.53
507.28	26986.38
507.46	27676.83
507.63	27353.84
507.81	27342.14
507.98	27683.86
508.16	27159.58
508.33	27948.34
508.50	27618.32
508.68	27733.01
508.85	28154.30
509.03	28154.30
509.20	28252.61
509.38	28194.09
509.55	28149.62
509.73	28503.04
509.90	28271.33
510.08	28411.76
510.25	28503.04
510.42	28793.27
510.60	28924.34
510.77	28762.84
510.95	29003.92
511.12	28690.29
511.30	28968.81
511.47	29083.50
511.64	28980.51
511.82	29273.08
511.99	29268.40
512.17	29326.91
512.34	29312.87
512.51	29867.58
512.69	29762.25
512.86	30059.50
513.04	30141.42
513.21	30202.27
513.38	29860.55
513.56	30216.32
513.73	29883.96
513.90	30223.34
514.08	30323.98
514.25	30132.06
514.43	30387.18
514.60	30675.06
514.77	30810.81
514.95	30536.97
515.12	30810.81
515.29	30504.20
515.47	31019.12
515.64	30820.17
515.81	30939.54
515.99	31503.61
516.16	31241.47
516.33	31150.19
516.51	31379.56
516.68	31037.84
516.85	31264.88
517.03	31484.89
517.20	31529.36
517.37	31299.98
517.54	31931.93
517.72	31332.75
517.89	31840.65
518.06	31840.65
518.24	32072.36
518.41	31922.57
518.58	31871.07
518.75	31740.00
518.93	32217.47
519.10	32088.74
519.27	32336.84
519.45	32425.78
519.62	32638.77
519.79	32776.86
519.96	32477.27
520.14	32699.62
520.31	32641.11
520.48	32818.99
520.65	32842.40
520.83	33214.54
521.00	33542.22
521.17	33174.75
521.34	33233.27
521.52	33556.26
521.69	33347.95
521.86	33612.43
522.03	33560.94
522.20	33350.29
522.38	33593.71
522.55	33937.77
522.72	34040.75
522.89	33607.75
523.07	34342.68
523.24	33914.36
523.41	34405.88
523.58	33736.48
523.75	34356.72
523.92	33944.79
524.10	34204.59
524.27	34277.15
524.44	34696.10
524.61	34682.06
524.78	34504.18
524.96	35091.65
525.13	34501.84
525.30	34855.26
525.47	34778.02
525.64	35000.37
525.81	34873.98
525.98	35220.38
526.16	35370.18
526.33	35281.24
526.50	35644.02
526.67	35611.25
526.84	35761.05
527.01	35449.75
527.18	35395.92
527.36	35335.07
527.53	35793.81
527.70	35859.35
527.87	35660.40
528.04	36079.36
528.21	35845.30
528.38	35735.30
528.55	36308.73
528.72	35873.39
528.89	36004.46
529.07	35955.31
529.24	35381.88
529.41	36580.23
529.58	35957.65
529.75	36109.78
529.92	36114.47
530.09	36535.76
530.26	36336.82
530.43	36425.76
530.60	36222.13
530.77	36552.15
530.94	36701.94
531.11	36552.15
531.28	36673.85
531.46	37053.02
531.63	36767.48
531.80	36863.44
531.97	36996.85
532.14	36861.10
532.31	36992.17
532.48	37177.07
532.65	37612.41
532.82	37460.27
532.99	37352.61
533.16	36954.72
533.33	37495.38
533.50	37361.97
533.67	37551.56
533.84	36928.97
534.01	37666.24
534.18	37741.14
534.35	38157.75
534.52	37670.92
534.69	38204.56
534.86	37813.70
535.03	37848.80
535.20	38218.61
535.37	38031.36
535.54	38424.57
535.71	37972.85
535.88	38213.93
536.05	38431.60
536.22	38398.83
536.38	38211.59
536.55	38174.14
536.72	38836.51
536.89	38714.80
537.06	38459.68
537.23	38815.44
537.40	38321.59
537.57	38361.38
537.74	38426.92
537.91	38974.60
538.08	38885.66
538.25	38670.33
538.42	38398.83
538.59	39428.66
538.75	38775.66
538.92	39150.14
539.09	39208.65
539.26	39159.50
539.43	39082.27
539.60	39159.50
539.77	39143.12
539.94	39316.32
540.11	39391.22
540.28	39299.94
540.44	39407.60
540.61	38934.81
540.78	39718.89
540.95	39400.58
541.12	39555.05
541.29	39414.62
541.46	39873.37
541.62	39828.90
541.79	40013.80
541.96	39306.96
542.13	39739.96
542.30	39866.34
542.47	39899.11
542.63	40205.72
542.80	40112.10
542.97	40734.68
543.14	40514.67
543.31	40570.85
543.48	40222.11
543.64	40814.26
543.81	40797.88
543.98	40559.14
544.15	40872.78
544.32	40528.72
544.48	40788.52
544.65	40718.30
544.82	40886.82
544.99	40561.48
545.16	40313.39
545.32	40779.15
545.49	41181.73
545.66	41104.49
545.83	41036.61
546.00	41603.02
546.16	41221.52
546.33	41453.23
546.50	41017.89
546.67	41155.98
546.83	40989.80
547.00	40971.08
547.17	41528.13
547.34	41329.18
547.50	41394.71
547.67	41942.40
547.84	41383.01
548.00	41682.60
548.17	42178.79
548.34	41923.68
548.51	42351.99
548.67	42073.47
548.84	41537.49
549.01	41521.10
549.18	41776.22
549.34	42082.83
549.51	41965.81
549.68	42330.93
549.84	41565.57
550.01	42066.45
550.18	41998.57
550.34	42171.77
550.51	42183.48
550.68	42445.62
550.84	42129.64
551.01	42595.41
551.18	42017.30
551.34	42014.96
551.51	42665.63
551.68	42321.57
551.84	42405.83
552.01	42134.32
552.18	42314.55
552.34	42878.61
552.51	42401.14
552.68	42333.27
552.84	42326.25
553.01	42777.97
553.18	42607.11
553.34	42703.07
553.51	42754.57
553.67	42941.81
553.84	43084.58
554.01	43037.77
554.17	42588.39
554.34	43328.00
554.51	43049.47
554.67	43093.94
554.84	43217.99
555.00	42923.08
555.17	43047.13
555.33	43243.74
555.50	43054.15
555.67	43229.69
555.83	43232.04
556.00	43105.65
556.16	43901.43
556.33	43601.84
556.50	43278.85
556.66	43604.18
556.83	43416.94
556.99	43470.77
557.16	43679.08
557.32	43981.01
557.49	43833.55
557.65	43122.03
557.82	43828.87
557.98	43508.22
558.15	43908.45
558.32	43583.12
558.48	43732.91
558.65	43629.93
558.81	43894.41
558.98	43653.33
559.14	43533.96
559.31	44076.97
559.47	43922.49
559.64	44130.80
559.80	43655.67
559.97	43868.66
560.13	43667.37
560.30	43875.68
560.46	44128.46
560.63	43730.57
560.79	44870.41
560.96	44243.15
561.12	44626.99
561.29	44477.20
561.45	44198.68
561.61	43812.49
561.78	44374.22
561.94	44208.04
562.11	44144.84
562.27	44334.43
562.44	44460.82
562.60	44406.98
562.77	44912.54
562.93	44598.91
563.10	44652.74
563.26	44304.00
563.42	44659.76
563.59	44254.85
563.75	44065.27
563.92	44526.35
564.08	44170.59
564.24	44650.40
564.41	44552.10
564.57	44648.06
564.74	44563.80
564.90	44289.96
565.07	44191.65
565.23	44304.00
565.39	43962.28
565.56	45130.21
565.72	44315.70
565.88	44765.09
566.05	44821.26
566.21	44765.09
566.38	44505.29
566.54	45109.14
566.70	45268.30
566.87	44772.11
567.03	44556.78
567.19	44821.26
567.36	44947.65
567.52	44854.03
567.68	45067.02
567.85	44996.80
568.01	45179.36
568.17	44626.99
568.34	45371.28
568.50	45057.65
568.66	45202.77
568.83	45062.33
568.99	44823.60
569.15	45500.01
569.32	44898.50
569.48	45043.61
569.64	45478.95
569.81	45289.37
569.97	45261.28
570.13	45205.11
570.30	44987.44
570.46	44886.79
570.62	45460.23
570.78	45474.27
570.95	45139.57
571.11	45226.17
571.27	45109.14
571.43	45036.59
571.60	45151.27
571.76	45214.47
571.92	44910.20
572.09	45235.53
572.25	45214.47
572.41	45151.27
572.57	45055.31
572.74	45500.01
572.90	45113.83
573.06	45727.05
573.22	45331.50
573.38	45528.10
573.55	45153.62
573.71	45481.29
573.87	45720.02
574.03	45478.95
574.20	45794.92
574.36	45654.49
574.52	45375.97
574.68	45329.16
574.84	45855.78
575.01	45921.31
575.17	45921.31
575.33	45703.64
575.49	45254.26
575.65	45923.65
575.82	45804.28
575.98	45500.01
576.14	45820.67
576.30	45720.02
576.46	45418.10
576.62	45219.15
576.79	45368.94
576.95	44725.30
577.11	45633.42
577.27	45469.59
577.43	45631.08
577.59	45633.42
577.75	45626.40
577.92	45179.36
578.08	45820.67
578.24	45642.79
578.40	45876.84
578.56	45453.20
578.72	45542.14
578.88	45663.85
579.04	45549.17
579.21	45359.58
579.37	45560.87
579.53	45654.49
579.69	45429.80
579.85	45680.24
580.01	45694.28
580.17	45368.94
580.33	45797.26
580.49	45834.71
580.65	45954.08
580.82	45872.16
580.98	45944.72
581.14	45368.94
581.30	45804.28
581.46	45727.05
581.62	45703.64
581.78	45184.04
581.94	45940.04
582.10	45972.80
582.26	45970.46
582.42	45537.46
582.58	45902.59
582.74	45656.83
582.90	45872.16
583.06	45823.01
583.22	45221.49
583.38	45848.75
583.54	46021.95
583.70	45743.43
583.86	46075.79
584.02	45921.31
584.18	46110.89
584.34	46251.33
584.50	45921.31
584.66	45666.19
584.82	46045.36
584.98	45820.67
585.14	46050.04
585.30	46328.56
585.46	45811.31
585.62	46057.06
585.78	46384.74
585.94	45736.41
586.10	45986.85
586.26	46026.63
586.42	45535.12
586.58	45687.26
586.74	45975.14
586.90	45888.54
587.06	45595.98
587.22	46031.32
587.38	46064.08
587.54	46127.28
587.70	46258.35
587.86	45858.12
588.02	45783.22
588.18	46003.23
588.34	45560.87
588.49	46232.60
588.65	45867.48
588.81	46054.72
588.97	46298.14
589.13	46075.79
589.29	46052.38
589.45	46141.32
589.61	46284.09
589.77	45963.44
589.93	46031.32
590.08	46199.83
