SpectraSuite Data File
++++++++++++++++++++++++++++++++++++
Date: Fri Oct 25 10:43:17 EDT 2013
User: price-jones
Dark Spectrum Present: No
Reference Spectrum Present: No
Number of Sampled Component Spectra: 1
Spectrometers: USB2+H05261
Integration Time (usec): 100000 (USB2+H05261)
Spectra Averaged: 1 (USB2+H05261)
Boxcar Smoothing: 0 (USB2+H05261)
Correct for Electrical Dark: No (USB2+H05261)
Strobe/Lamp Enabled: No (USB2+H05261)
Correct for Detector Non-linearity: No (USB2+H05261)
Correct for Stray Light: No (USB2+H05261)
Number of Pixels in Processed Spectrum: 2048
>>>>>Begin Processed Spectral Data<<<<<
365.73	194.26
365.92	194.26
366.12	194.26
366.32	65.54
366.52	9.36
366.72	16.38
366.91	0.00
367.11	74.90
367.31	67.88
367.51	16.38
367.70	11.70
367.90	117.03
368.10	0.00
368.30	0.00
368.49	0.00
368.69	37.45
368.89	14.04
369.09	9.36
369.28	102.98
369.48	65.54
369.68	18.72
369.87	23.41
370.07	30.43
370.27	70.22
370.47	135.75
370.66	393.21
370.86	337.04
371.06	514.92
371.25	470.45
371.45	402.57
371.65	465.77
371.84	393.21
372.04	503.22
372.24	510.24
372.44	484.49
372.63	547.69
372.83	510.24
373.03	430.66
373.22	449.38
373.42	475.13
373.62	552.37
373.81	592.16
374.01	603.86
374.21	589.82
374.40	510.24
374.60	594.50
374.79	482.15
374.99	596.84
375.19	559.39
375.38	608.54
375.58	517.26
375.78	615.56
375.97	631.94
376.17	671.73
376.37	627.26
376.56	559.39
376.76	631.94
376.95	606.20
377.15	636.63
377.35	641.31
377.54	695.14
377.74	643.65
377.93	617.90
378.13	660.03
378.33	695.14
378.52	671.73
378.72	638.97
378.91	692.80
379.11	557.05
379.31	657.69
379.50	650.67
379.70	690.46
379.89	688.12
380.09	653.01
380.28	589.82
380.48	695.14
380.68	692.80
380.87	755.99
381.07	678.76
381.26	669.39
381.46	664.71
381.65	767.70
381.85	702.16
382.04	660.03
382.24	805.14
382.43	671.73
382.63	706.84
382.83	716.20
383.02	753.65
383.22	709.18
383.41	697.48
383.61	770.04
383.80	791.10
384.00	723.23
384.19	744.29
384.39	744.29
384.58	737.27
384.78	870.68
384.97	795.78
385.17	763.01
385.36	770.04
385.56	781.74
385.75	748.97
385.95	877.70
386.14	842.59
386.34	849.61
386.53	854.30
386.72	868.34
386.92	844.93
387.11	835.57
387.31	812.17
387.50	880.04
387.70	814.51
387.89	863.66
388.09	833.23
388.28	854.30
388.48	873.02
388.67	891.74
388.86	929.19
389.06	1029.84
389.25	1050.90
389.45	896.43
389.64	1001.75
389.84	968.98
390.03	973.66
390.22	1015.79
390.42	1060.26
390.61	999.41
390.81	999.41
391.00	1006.43
391.19	1139.84
391.39	1100.05
391.58	1055.58
391.78	978.34
391.97	1100.05
392.16	1067.28
392.36	1104.73
392.55	978.34
392.75	990.05
392.94	915.15
393.13	938.55
393.33	1083.67
393.52	1036.86
393.71	1097.71
393.91	1078.99
394.10	1083.67
394.29	1252.19
394.49	1221.76
394.68	1205.38
394.88	1200.69
395.07	1294.32
395.26	1198.35
395.46	1221.76
395.65	1165.59
395.84	1247.51
396.04	1315.38
396.23	1221.76
396.42	1156.22
396.62	1163.25
396.81	1172.61
397.00	1238.14
397.19	1376.24
397.39	1317.72
397.58	1383.26
397.77	1357.51
397.97	1315.38
398.16	1418.36
398.35	1554.12
398.55	1434.75
398.74	1476.88
398.93	1556.46
399.12	1483.90
399.32	1479.22
399.51	1469.86
399.70	1591.56
399.90	1537.73
400.09	1612.63
400.28	1617.31
400.47	1607.95
400.67	1713.27
400.86	1643.06
401.05	1537.73
401.24	1654.76
401.44	1582.20
401.63	1598.59
401.82	1720.29
402.01	1713.27
402.21	1708.59
402.40	1708.59
402.59	1734.34
402.78	1696.89
402.97	1605.61
403.17	1750.72
403.36	1858.39
403.55	1797.53
403.74	1818.60
403.93	1867.75
404.13	1884.13
404.32	1834.98
404.51	1816.26
404.70	1970.73
404.89	1893.49
405.09	1987.11
405.28	1947.33
405.47	1994.14
405.66	1881.79
405.85	2054.99
406.05	1933.28
406.24	1954.35
406.43	2010.52
406.62	1987.11
406.81	2071.37
407.00	2043.29
407.20	2019.88
407.39	2064.35
407.58	2111.16
407.77	2143.93
407.96	2113.50
408.15	2160.31
408.34	2265.64
408.54	2169.68
408.73	2307.77
408.92	2277.34
409.11	2209.47
409.30	2310.11
409.49	2300.75
409.68	2256.28
409.87	2298.41
410.07	2361.60
410.26	2331.17
410.45	2368.62
410.64	2385.01
410.83	2502.03
411.02	2448.20
411.21	2640.12
411.40	2525.44
411.59	2548.84
411.78	2593.31
411.98	2532.46
412.17	2637.78
412.36	2569.91
412.55	2612.04
412.74	2675.23
412.93	2754.81
413.12	2747.79
413.31	2874.18
413.50	2822.69
413.69	2939.71
413.88	2867.16
414.07	2846.09
414.26	2930.35
414.45	3030.99
414.64	2939.71
414.83	2942.05
415.02	3007.59
415.22	2958.44
415.41	2956.10
415.60	2979.50
415.79	3082.49
415.98	3176.11
416.17	3241.64
416.36	3272.07
416.55	3218.24
416.74	3251.00
416.93	3243.98
417.12	3293.13
417.31	3311.86
417.50	3295.47
417.69	3389.10
417.88	3389.10
418.07	3356.33
418.26	3396.12
418.45	3265.05
418.64	3384.41
418.83	3485.06
419.02	3616.13
419.21	3503.78
419.39	3559.95
419.58	3632.51
419.77	3501.44
419.96	3574.00
420.15	3660.60
420.34	3702.73
420.53	3709.75
420.72	3728.47
420.91	3693.37
421.10	3660.60
421.29	3852.52
421.48	3854.86
421.67	3929.76
421.86	3791.67
422.05	3838.48
422.24	3723.79
422.43	3887.63
422.61	3810.39
422.80	3859.54
422.99	3810.39
423.18	3950.82
423.37	3969.55
423.56	3999.98
423.75	3911.04
423.94	3789.33
424.13	3712.09
424.32	3805.71
424.50	3889.97
424.69	3990.61
424.88	4049.13
425.07	3953.16
425.26	3871.25
425.45	3901.67
425.64	3885.29
425.83	4056.15
426.01	4030.40
426.20	4011.68
426.39	3817.41
426.58	3969.55
426.77	3838.48
426.96	3997.64
427.15	3990.61
427.33	3946.14
427.52	3904.01
427.71	4098.28
427.90	4100.62
428.09	3997.64
428.28	4210.62
428.46	4084.23
428.65	4152.11
428.84	4259.78
429.03	4227.01
429.22	4063.17
429.40	4191.90
429.59	4114.66
429.78	3925.08
429.97	3871.25
430.16	3925.08
430.34	3969.55
430.53	4170.83
430.72	4016.36
430.91	4208.28
431.10	4238.71
431.28	4493.83
431.47	4599.15
431.66	4514.89
431.85	4592.13
432.03	4507.87
432.22	4739.58
432.41	4542.98
432.60	4847.25
432.79	4739.58
432.97	4880.02
433.16	4795.76
433.35	4535.96
433.54	4538.30
433.72	4510.21
433.91	4650.64
434.10	4648.30
434.28	4676.39
434.47	4868.31
434.66	4889.38
434.85	4849.59
435.03	4891.72
435.22	4795.76
435.41	5039.17
435.59	4905.76
435.78	5118.75
435.97	5128.11
436.16	5139.82
436.34	5071.94
436.53	5104.71
436.72	5268.55
436.90	4992.36
437.09	5151.52
437.28	5151.52
437.46	5266.21
437.65	5055.56
437.84	5167.90
438.02	5118.75
438.21	5205.35
438.40	5076.62
438.58	5277.91
438.77	5350.46
438.96	5298.97
439.14	5685.16
439.33	5523.66
439.52	5596.22
439.70	5708.57
439.89	5664.10
440.08	5535.37
440.26	5738.99
440.45	5589.20
440.63	5769.42
440.82	5956.66
441.01	5891.13
441.19	6010.50
441.38	6031.56
441.57	5991.77
441.75	6148.59
441.94	6218.80
442.12	6083.05
442.31	6274.98
442.50	6326.47
442.68	6181.35
442.87	6197.74
443.05	6282.00
443.24	6319.45
443.43	6506.69
443.61	6567.54
443.80	6532.44
443.98	6368.60
444.17	6244.55
444.35	6356.90
444.54	6670.53
444.73	6506.69
444.91	6375.62
445.10	6384.98
445.28	6427.11
445.47	6406.05
445.65	6251.57
445.84	6366.26
446.02	6604.99
446.21	6597.97
446.39	6579.25
446.58	6609.67
446.77	6497.33
446.95	6473.92
447.14	6595.63
447.32	6623.72
447.51	6729.04
447.69	6635.42
447.88	6640.10
448.06	6656.48
448.25	6647.12
448.43	6679.89
448.62	6698.61
448.80	6675.21
448.99	6867.13
449.17	6813.30
449.36	6726.70
449.54	7035.65
449.73	7056.72
449.91	7077.78
450.10	7335.24
450.28	7241.62
450.46	7260.34
450.65	7300.13
450.83	7049.69
451.02	7143.32
451.20	7171.40
451.39	7344.60
451.57	7178.42
451.76	7204.17
451.94	7232.26
452.13	7133.95
452.31	7155.02
452.49	7148.00
452.68	7166.72
452.86	7194.81
453.05	7145.66
453.23	7297.79
453.42	7222.89
453.60	7281.41
453.78	7335.24
453.97	7283.75
454.15	7293.11
454.34	7363.33
454.52	7454.61
454.70	7360.98
454.89	7442.90
455.07	7295.45
455.26	7590.36
455.44	7779.94
455.62	7672.28
455.81	7644.19
455.99	7772.92
456.17	7864.20
456.36	7899.31
456.54	7840.79
456.73	7943.78
456.91	8105.28
457.09	8013.99
457.28	8086.55
457.46	8025.70
457.64	7927.39
457.83	8058.46
458.01	8077.19
458.19	8187.19
458.38	8049.10
458.56	8109.96
458.74	8070.17
458.93	8215.28
459.11	8269.11
459.29	8388.48
459.48	7964.84
459.66	8332.31
459.84	8393.16
460.03	8606.15
460.21	8341.67
460.39	8542.96
460.57	8250.39
460.76	8674.03
460.94	8617.85
461.12	8549.98
461.31	8484.44
461.49	8585.08
461.67	8610.83
461.85	8685.73
462.04	8676.37
462.22	9338.74
462.40	8926.80
462.59	8980.64
462.77	8709.13
462.95	8968.93
463.13	8739.56
463.32	8870.63
463.50	8849.57
463.68	8945.53
463.86	8952.55
464.05	8872.97
464.23	9036.81
464.41	8835.52
464.59	8884.67
464.78	9144.47
464.96	9102.34
465.14	8915.10
465.32	9198.31
465.50	9207.67
465.69	9486.19
465.87	9226.39
466.05	9090.64
466.23	8856.59
466.41	9217.03
466.60	9287.25
466.78	9235.75
466.96	9135.11
467.14	9287.25
467.32	9233.41
467.51	9315.33
467.69	8957.23
467.87	9437.04
468.05	9530.66
468.23	9298.95
468.41	9282.56
468.60	9415.98
468.78	9441.72
468.96	9322.35
469.14	9652.37
469.32	9703.86
469.50	9554.07
469.69	9575.13
469.87	9708.54
470.05	9717.90
470.23	9687.48
470.41	9727.27
470.59	9984.73
470.77	9703.86
470.95	9951.96
471.14	10061.96
471.32	9853.66
471.50	10169.63
471.68	10235.16
471.86	10106.43
472.04	10244.52
472.22	10604.97
472.40	10099.41
472.58	10443.47
472.77	10548.79
472.95	10712.63
473.13	10684.55
473.31	10242.18
473.49	10527.73
473.67	10494.96
473.85	10485.60
474.03	10761.78
474.21	10850.72
474.39	10899.87
474.57	10902.22
474.75	11047.33
474.93	11103.50
475.12	11014.56
475.30	11124.57
475.48	11054.35
475.66	11178.40
475.84	11257.98
476.02	11351.60
476.20	11344.58
476.38	11424.15
476.56	11913.33
476.74	11763.53
476.92	11723.74
477.10	11634.80
477.28	11831.41
477.46	12006.95
477.64	11985.88
477.82	12400.16
478.00	12407.18
478.18	12559.31
478.36	12599.10
478.54	12645.91
478.72	12606.13
478.90	12793.37
479.08	13064.87
479.26	12950.18
479.44	12769.96
479.62	13076.57
479.80	13221.69
479.98	13504.89
480.16	13638.30
480.34	13486.17
480.52	13514.25
480.70	13507.23
480.88	13642.98
481.06	13795.12
481.24	13844.27
481.41	13879.38
481.59	14150.88
481.77	14244.50
481.95	14434.08
482.13	14501.96
482.31	14490.26
482.49	14878.79
482.67	14892.83
482.85	14839.00
483.03	14881.13
483.21	15147.95
483.39	15267.31
483.57	15115.18
483.74	15269.66
483.92	15587.97
484.10	15171.35
484.28	15894.58
484.46	15957.77
484.64	16339.28
484.82	16035.01
485.00	16173.10
485.18	16283.11
485.35	16226.93
485.53	16166.08
485.71	16240.98
485.89	16556.95
486.07	16290.13
486.25	16545.25
486.43	16868.24
486.61	16816.75
486.78	17050.80
486.96	17207.62
487.14	17745.94
487.32	17231.02
487.50	17860.63
487.68	17759.98
487.85	18218.73
488.03	18263.20
488.21	18298.31
488.39	18279.58
488.57	18621.30
488.75	18441.08
488.92	19161.97
489.10	19098.77
489.28	19353.89
489.46	19559.86
489.64	19431.13
489.81	20147.33
489.99	19864.13
490.17	20070.09
490.35	20493.73
490.53	20182.44
490.70	20252.66
490.88	20133.29
491.06	20844.81
491.24	20407.13
491.41	20664.59
491.59	20545.22
491.77	20734.81
491.95	20908.01
492.13	21010.99
492.30	21216.96
492.48	21671.02
492.66	21514.20
492.84	21617.19
493.01	22080.61
493.19	21724.85
493.37	22047.85
493.54	22260.84
493.72	22515.95
493.90	22157.85
494.08	22640.00
494.25	23220.45
494.43	23054.28
494.61	23339.82
494.79	23115.13
494.96	23381.95
495.14	23246.20
495.32	23740.05
495.49	23262.58
495.67	23723.67
495.85	23817.29
496.02	24130.92
496.20	24119.22
496.38	24259.65
496.55	24355.61
496.73	24961.81
496.91	24823.72
497.09	24762.87
497.26	24830.74
497.44	24900.96
497.62	25219.27
497.79	25008.62
497.97	24931.39
498.14	25727.17
498.32	25434.60
498.50	25511.84
498.67	25919.09
498.85	26022.08
499.03	25846.54
499.20	25736.53
499.38	26288.90
499.56	26204.64
499.73	26043.14
499.91	26256.13
500.08	26391.88
500.26	26342.73
500.44	26766.37
500.61	26764.03
500.79	26274.85
500.97	26670.40
501.14	26871.69
501.32	27091.70
501.49	26874.03
501.67	27278.94
501.84	27072.98
502.02	27229.79
502.20	27428.74
502.37	27601.94
502.55	27777.48
502.72	27861.74
502.90	27772.80
503.07	27903.87
503.25	27976.42
503.43	27924.93
503.60	28088.77
503.78	27798.54
503.95	28034.94
504.13	28486.66
504.30	28411.76
504.48	28329.84
504.65	28830.72
504.83	28882.21
505.01	28758.16
505.18	28950.09
505.36	29446.28
505.53	29359.68
505.71	29741.19
505.88	29387.77
506.06	29582.03
506.23	29509.47
506.41	28978.17
506.58	29476.71
506.76	29694.38
506.93	29813.74
507.11	29696.72
507.28	29848.85
507.46	29380.74
507.63	29797.36
507.81	30015.03
507.98	29766.93
508.16	29949.50
508.33	30000.99
508.50	30361.43
508.68	30323.98
508.85	30796.77
509.03	30710.17
509.20	30955.93
509.38	30639.95
509.55	31194.66
509.73	31117.42
509.90	30808.47
510.08	30962.95
510.25	31185.30
510.42	31267.22
510.60	31765.75
510.77	32030.23
510.95	31782.13
511.12	31529.36
511.30	32072.36
511.47	32147.26
511.64	32189.39
511.82	32184.71
511.99	32123.85
512.17	32477.27
512.34	32044.27
512.51	32320.46
512.69	32690.26
512.86	32842.40
513.04	32371.95
513.21	32472.59
513.38	32739.41
513.56	32708.99
513.73	32500.68
513.90	32828.35
514.08	32648.13
514.25	32884.53
514.43	32903.25
514.60	33254.33
514.77	33118.58
514.95	33397.10
515.12	33415.83
515.29	33174.75
515.47	33792.65
515.64	33507.11
515.81	33860.53
515.99	33612.43
516.16	33455.62
516.33	33469.66
516.51	33455.62
516.68	33256.67
516.85	33310.50
517.03	33500.09
517.20	33839.47
517.37	34389.49
517.54	34394.17
517.72	34197.57
517.89	33806.70
518.06	33855.85
518.24	33612.43
518.41	34391.83
518.58	34377.79
518.75	34508.86
518.93	34256.08
519.10	34106.29
519.27	34848.24
519.45	34672.70
519.62	35122.08
519.79	35199.32
519.96	35386.56
520.14	35126.76
520.31	34443.32
520.48	35414.65
520.65	35194.64
520.83	35147.82
521.00	35292.94
521.17	35225.06
521.34	35723.60
521.52	35854.67
521.69	36037.23
521.86	36163.62
522.03	36177.66
522.20	36140.21
522.38	35964.67
522.55	35992.76
522.72	36250.22
522.89	36140.21
523.07	36598.96
523.24	36453.84
523.41	36561.51
523.58	36327.45
523.75	36804.92
523.92	36652.79
524.10	36844.71
524.27	36863.44
524.44	37507.08
524.61	37240.26
524.78	37251.97
524.96	37275.37
525.13	37062.38
525.30	37490.70
525.47	37958.81
525.64	37673.26
525.81	36975.78
525.98	37226.22
526.16	36978.12
526.33	37095.15
526.50	36971.10
526.67	37305.80
526.84	36985.15
527.01	37034.30
527.18	37560.92
527.36	37631.13
527.53	37663.90
527.70	38286.48
527.87	38260.74
528.04	37858.17
528.21	38506.49
528.38	38054.77
528.55	38543.94
528.72	38738.21
528.89	38941.83
529.07	38653.95
529.24	37912.00
529.41	38806.08
529.58	38242.01
529.75	38721.82
529.92	38745.23
530.09	38906.73
530.26	39416.96
530.43	39206.31
530.60	38658.63
530.77	38787.36
530.94	39302.28
531.11	38937.15
531.28	39108.01
531.46	39225.04
531.63	39201.63
531.80	39126.74
531.97	39117.37
532.14	38974.60
532.31	38808.42
532.48	38930.13
532.65	39122.05
532.82	39779.74
532.99	39683.78
533.16	39229.72
533.33	39786.77
533.50	39529.31
533.67	39746.98
533.84	39508.24
534.01	39643.99
534.18	39241.42
534.35	40100.40
534.52	39782.09
534.69	40081.67
534.86	39833.58
535.03	39981.03
535.20	40226.79
535.37	40507.65
535.54	40804.90
535.71	40004.44
535.88	40430.41
536.05	40278.28
536.22	40545.10
536.38	40325.09
536.55	40931.29
536.72	40505.31
536.89	39988.05
537.06	40392.97
537.23	41123.21
537.40	40404.67
537.57	40589.57
537.74	40875.12
537.91	41104.49
538.08	41060.02
538.25	41106.83
538.42	41165.34
538.59	41612.38
538.75	40999.16
538.92	41020.23
539.09	41486.00
539.26	41247.26
539.43	40744.05
539.60	41375.99
539.77	40758.09
539.94	41167.68
540.11	41230.88
540.28	40987.46
540.44	41476.63
540.61	41294.07
540.78	40898.52
540.95	41116.19
541.12	41265.99
541.29	41031.93
541.46	41588.98
541.62	41507.06
541.79	41596.00
541.96	41102.15
542.13	41446.21
542.30	41467.27
542.47	41764.52
542.63	41710.69
542.80	41989.21
542.97	42277.10
543.14	42366.04
543.31	42120.28
543.48	42265.39
543.64	42651.58
543.81	42766.27
543.98	42265.39
544.15	42307.52
544.32	42363.70
544.48	43084.58
544.65	42735.84
544.82	42724.14
544.99	42274.76
545.16	42401.14
545.32	42127.30
545.49	42850.53
545.66	42941.81
545.83	42696.05
546.00	43044.79
546.16	42656.26
546.33	42674.99
546.50	42480.72
546.67	42838.83
546.83	42726.48
547.00	42792.01
547.17	43203.95
547.34	42550.94
547.50	43042.45
547.67	43164.16
547.84	43363.11
548.00	43107.99
548.17	43105.65
548.34	43540.99
548.51	43772.70
548.67	43629.93
548.84	43487.15
549.01	43304.59
549.18	43353.74
549.34	43384.17
549.51	43388.85
549.68	43423.96
549.84	43571.41
550.01	43688.44
550.18	42878.61
550.34	43592.48
550.51	43604.18
550.68	43681.42
550.84	43756.32
551.01	43887.39
551.18	43917.81
551.34	43484.81
551.51	44004.41
551.68	43934.20
551.84	43936.54
552.01	44198.68
552.18	43962.28
552.34	43328.00
552.51	44109.74
552.68	43845.26
552.84	43957.60
553.01	44074.63
553.18	43955.26
553.34	43627.59
553.51	44282.94
553.67	44088.67
553.84	44603.59
554.01	44353.15
554.17	44521.67
554.34	44444.43
554.51	44870.41
554.67	44634.02
554.84	44229.10
555.00	44364.85
555.17	44091.01
555.33	44608.27
555.50	44547.42
555.67	44259.53
555.83	44615.29
556.00	44385.92
556.16	44760.40
556.33	44718.28
556.50	44133.14
556.66	44573.16
556.83	44385.92
556.99	44645.72
557.16	44758.06
557.32	44568.48
557.49	44889.13
557.65	44294.64
557.82	44875.09
557.98	44509.97
558.15	44769.77
558.32	45228.51
558.48	44390.60
558.65	44547.42
558.81	44673.81
558.98	44409.32
559.14	44577.84
559.31	45118.51
559.47	44720.62
559.64	44938.29
559.80	44804.88
559.97	45031.91
560.13	44428.05
560.30	45338.52
560.46	44893.82
560.63	45294.05
560.79	45041.27
560.96	45471.93
561.12	45141.91
561.29	45212.13
561.45	45226.17
561.61	44830.62
561.78	44898.50
561.94	45036.59
562.11	44797.85
562.27	44816.58
562.44	45364.26
562.60	45357.24
562.77	45078.72
562.93	45415.76
563.10	45841.73
563.26	44947.65
563.42	45212.13
563.59	45116.17
563.75	45483.63
563.92	45631.08
564.08	45684.92
564.24	45422.78
564.41	45315.11
564.57	45427.46
564.74	45364.26
564.90	45254.26
565.07	45432.14
565.23	45860.46
565.39	45207.45
565.56	45546.82
565.72	45198.09
565.88	44989.78
566.05	45319.79
566.21	45064.67
566.38	45125.53
566.54	45216.81
566.70	45645.13
566.87	45553.85
567.03	46181.11
567.19	45984.51
567.36	45827.69
567.52	45240.21
567.68	45439.16
567.85	44783.81
568.01	45731.73
568.17	45347.88
568.34	46033.66
568.50	45200.43
568.66	45443.84
568.83	45432.14
568.99	45425.12
569.15	45764.49
569.32	45689.60
569.48	45326.81
569.64	45918.97
569.81	45649.81
569.97	45308.09
570.13	45727.05
570.30	45394.69
570.46	44596.57
570.62	45184.04
570.78	45268.30
570.95	45216.81
571.11	45406.39
571.27	45296.39
571.43	45467.25
571.60	45689.60
571.76	45731.73
571.92	45549.17
572.09	45710.66
572.25	46075.79
572.41	46183.45
572.57	45844.07
572.74	45961.10
572.90	45935.35
573.06	45813.65
573.22	45916.63
573.38	45855.78
573.55	45507.04
573.71	45710.66
573.87	45708.32
574.03	45684.92
574.20	45661.51
574.36	45401.71
574.52	45574.91
574.68	45670.87
574.84	45675.55
575.01	45666.19
575.17	45748.11
575.33	45591.30
575.49	45523.42
575.65	45588.95
575.82	45815.99
575.98	45315.11
576.14	46014.93
576.30	45858.12
576.46	45619.38
576.62	45724.71
576.79	45567.89
576.95	45282.34
577.11	45549.17
577.27	45797.26
577.43	45624.06
577.59	45521.08
577.75	45518.74
577.92	45521.08
578.08	45265.96
578.24	45799.60
578.40	45111.49
578.56	45663.85
578.72	45670.87
578.88	46103.87
579.04	45614.70
579.21	45455.54
579.37	45937.69
579.53	45645.13
579.69	45294.05
579.85	45565.55
580.01	45851.09
580.17	45731.73
580.33	46010.25
580.49	45902.59
580.65	46302.82
580.82	45574.91
580.98	45432.14
581.14	45521.08
581.30	45918.97
581.46	45984.51
581.62	45535.12
581.78	45867.48
581.94	46389.42
582.10	46176.43
582.26	46206.86
582.42	45666.19
582.58	45537.46
582.74	45963.44
582.90	45785.56
583.06	46092.17
583.22	45832.37
583.38	46192.81
583.54	45844.07
583.70	45935.35
583.86	46012.59
584.02	45301.07
584.18	45476.61
584.34	45951.74
584.50	45635.77
584.66	46005.57
584.82	45441.50
584.98	46295.80
585.14	45745.77
585.30	45652.15
585.46	45794.92
585.62	45361.92
585.78	45886.20
585.94	45036.59
586.10	45755.13
586.26	45724.71
586.42	45951.74
586.58	45696.62
586.74	45825.35
586.90	45429.80
587.06	45687.26
587.22	45801.94
587.38	45621.72
587.54	45649.81
587.70	45942.38
587.86	45570.23
588.02	45823.01
588.18	45886.20
588.34	45408.73
588.49	45085.74
588.65	45076.38
588.81	44928.92
588.97	45378.31
589.13	45352.56
589.29	45862.80
589.45	45188.72
589.61	45799.60
589.77	46227.92
589.93	45876.84
590.08	45801.94
