SpectraSuite Data File
++++++++++++++++++++++++++++++++++++
Date: Fri Oct 25 11:33:34 EDT 2013
User: price-jones
Dark Spectrum Present: No
Reference Spectrum Present: No
Number of Sampled Component Spectra: 1
Spectrometers: USB2+H05261
Integration Time (usec): 100000 (USB2+H05261)
Spectra Averaged: 1 (USB2+H05261)
Boxcar Smoothing: 0 (USB2+H05261)
Correct for Electrical Dark: No (USB2+H05261)
Strobe/Lamp Enabled: No (USB2+H05261)
Correct for Detector Non-linearity: No (USB2+H05261)
Correct for Stray Light: No (USB2+H05261)
Number of Pixels in Processed Spectrum: 2048
>>>>>Begin Processed Spectral Data<<<<<
365.73	290.23
365.92	290.23
366.12	290.23
366.32	194.26
366.52	191.92
366.72	205.97
366.91	166.18
367.11	217.67
367.31	110.01
367.51	201.29
367.70	189.58
367.90	156.82
368.10	149.79
368.30	135.75
368.49	95.96
368.69	114.69
368.89	250.44
369.09	224.69
369.28	212.99
369.48	159.16
369.68	236.39
369.87	245.76
370.07	210.65
370.27	322.99
370.47	330.02
370.66	526.62
370.86	472.79
371.06	535.98
371.25	606.20
371.45	491.51
371.65	564.07
371.84	592.16
372.04	543.00
372.24	578.11
372.44	578.11
372.63	550.03
372.83	601.52
373.03	638.97
373.22	566.41
373.42	578.11
373.62	641.31
373.81	655.35
374.01	653.01
374.21	608.54
374.40	685.78
374.60	608.54
374.79	603.86
374.99	645.99
375.19	648.33
375.38	734.93
375.58	617.90
375.78	720.88
375.97	624.92
376.17	681.10
376.37	641.31
376.56	678.76
376.76	671.73
376.95	599.18
377.15	653.01
377.35	657.69
377.54	763.01
377.74	690.46
377.93	685.78
378.13	744.29
378.33	781.74
378.52	772.38
378.72	688.12
378.91	748.97
379.11	732.59
379.31	648.33
379.50	653.01
379.70	819.19
379.89	716.20
380.09	772.38
380.28	699.82
380.48	741.95
380.68	720.88
380.87	692.80
381.07	828.55
381.26	755.99
381.46	777.06
381.65	800.46
381.85	800.46
382.04	786.42
382.24	795.78
382.43	807.48
382.63	826.21
382.83	805.14
383.02	821.53
383.22	807.48
383.41	767.70
383.61	833.23
383.80	854.30
384.00	957.28
384.19	851.96
384.39	863.66
384.58	763.01
384.78	856.64
384.97	793.44
385.17	854.30
385.36	826.21
385.56	847.27
385.75	821.53
385.95	833.23
386.14	840.25
386.34	844.93
386.53	851.96
386.72	739.61
386.92	840.25
387.11	880.04
387.31	842.59
387.50	896.43
387.70	875.36
387.89	875.36
388.09	919.83
388.28	903.45
388.48	887.06
388.67	889.40
388.86	887.06
389.06	947.92
389.25	957.28
389.45	992.39
389.64	898.77
389.84	940.90
390.03	887.06
390.22	990.05
390.42	990.05
390.61	933.87
390.81	933.87
391.00	971.32
391.19	952.60
391.39	973.66
391.58	1015.79
391.78	1001.75
391.97	966.64
392.16	954.94
392.36	1027.50
392.55	1034.52
392.75	1057.92
392.94	980.68
393.13	1046.22
393.33	1022.81
393.52	1020.47
393.71	1078.99
393.91	1081.33
394.10	1097.71
394.29	1055.58
394.49	1097.71
394.68	1048.56
394.88	1146.86
395.07	1118.78
395.26	1170.27
395.46	1132.82
395.65	1153.88
395.84	1104.73
396.04	1238.14
396.23	1233.46
396.42	1247.51
396.62	1249.85
396.81	1273.25
397.00	1242.82
397.19	1235.80
397.39	1263.89
397.58	1289.64
397.77	1198.35
397.97	1205.38
398.16	1277.93
398.35	1256.87
398.55	1205.38
398.74	1373.89
398.93	1320.06
399.12	1301.34
399.32	1266.23
399.51	1249.85
399.70	1387.94
399.90	1420.71
400.09	1242.82
400.28	1362.19
400.47	1350.49
400.67	1425.39
400.86	1348.15
401.05	1343.47
401.24	1387.94
401.44	1474.54
401.63	1399.64
401.82	1509.65
402.01	1406.66
402.21	1469.86
402.40	1413.68
402.59	1455.81
402.78	1401.98
402.97	1497.94
403.17	1650.08
403.36	1511.99
403.55	1535.39
403.74	1533.05
403.93	1605.61
404.13	1612.63
404.32	1584.54
404.51	1556.46
404.70	1619.65
404.89	1584.54
405.09	1694.55
405.28	1664.12
405.47	1703.91
405.66	1664.12
405.85	1739.02
406.05	1715.61
406.24	1750.72
406.43	1788.17
406.62	1778.81
406.81	1820.94
407.00	1776.47
407.20	1820.94
407.39	1802.21
407.58	1895.83
407.77	1790.51
407.96	1820.94
408.15	1823.28
408.34	1846.68
408.54	1923.92
408.73	1891.15
408.92	1898.17
409.11	1973.07
409.30	1935.62
409.49	1834.98
409.68	1994.14
409.87	2029.24
410.07	2003.50
410.26	2050.31
410.45	2031.58
410.64	2087.76
410.83	2139.25
411.02	2113.50
411.21	2167.34
411.40	2176.70
411.59	2141.59
411.78	2111.16
411.98	2155.63
412.17	2244.57
412.36	2265.64
412.55	2204.78
412.74	2300.75
412.93	2361.60
413.12	2387.35
413.31	2324.15
413.50	2312.45
413.69	2499.69
413.88	2483.31
414.07	2427.14
414.26	2452.88
414.45	2588.63
414.64	2469.27
414.83	2497.35
415.02	2576.93
415.22	2593.31
415.41	2609.70
415.60	2642.46
415.79	2600.34
415.98	2775.88
416.17	2726.72
416.36	2719.70
416.55	2736.09
416.74	2766.51
416.93	2750.13
417.12	2836.73
417.31	2885.88
417.50	2928.01
417.69	2963.12
417.88	2960.78
418.07	2920.99
418.26	2902.26
418.45	2974.82
418.64	3063.76
418.83	3042.70
419.02	3019.29
419.21	3152.70
419.39	3098.87
419.58	3066.10
419.77	3136.32
419.96	3087.17
420.15	3236.96
420.34	3218.24
420.53	3157.38
420.72	3363.35
420.91	3222.92
421.10	3194.83
421.29	3218.24
421.48	3084.83
421.67	3288.45
421.86	3119.93
422.05	3253.34
422.24	3108.23
422.43	3396.12
422.61	3386.76
422.80	3468.67
422.99	3358.67
423.18	3286.11
423.37	3489.74
423.56	3307.18
423.75	3290.79
423.94	3421.86
424.13	3220.58
424.32	3201.85
424.50	3468.67
424.69	3527.19
424.88	3452.29
425.07	3414.84
425.26	3372.71
425.45	3428.88
425.64	3473.36
425.83	3368.03
426.01	3522.51
426.20	3389.10
426.39	3295.47
426.58	3478.04
426.77	3541.23
426.96	3503.78
427.15	3524.85
427.33	3524.85
427.52	3449.95
427.71	3625.49
427.90	3550.59
428.09	3646.55
428.28	3826.78
428.46	3723.79
428.65	3569.32
428.84	3756.56
429.03	3749.54
429.22	3545.91
429.40	3700.39
429.59	3662.94
429.78	3658.26
429.97	3646.55
430.16	3672.30
430.34	3824.44
430.53	3873.59
430.72	3948.48
430.91	3798.69
431.10	3751.88
431.28	3864.22
431.47	3901.67
431.66	4044.45
431.85	4086.58
432.03	3943.80
432.22	4025.72
432.41	4065.51
432.60	4149.77
432.79	4124.02
432.97	4166.15
433.16	4035.08
433.35	4170.83
433.54	4147.43
433.72	4044.45
433.91	4205.94
434.10	4189.56
434.28	4100.62
434.47	4224.67
434.66	4369.78
434.85	4290.20
435.03	4329.99
435.22	4292.54
435.41	4334.67
435.59	4416.59
435.78	4273.82
435.97	4287.86
436.16	4383.82
436.34	4198.92
436.53	4407.23
436.72	4447.02
436.90	4372.12
437.09	4685.75
437.28	4393.19
437.46	4526.60
437.65	4505.53
437.84	4603.83
438.02	4636.60
438.21	4550.00
438.40	4582.77
438.58	4823.84
438.77	4795.76
438.96	4856.61
439.14	4868.31
439.33	4706.82
439.52	4978.32
439.70	4940.87
439.89	4828.53
440.08	4938.53
440.26	5004.07
440.45	5057.90
440.63	4961.94
440.82	5088.32
441.01	5179.61
441.19	5083.64
441.38	5322.38
441.57	5266.21
441.75	5214.71
441.94	5369.19
442.12	5425.36
442.31	5427.70
442.50	5383.23
442.68	5568.13
442.87	5329.40
443.05	5556.43
443.24	5394.93
443.43	5547.07
443.61	5584.52
443.80	5767.08
443.98	5423.02
444.17	5137.48
444.35	5533.03
444.54	5636.01
444.73	5528.35
444.91	5472.17
445.10	5469.83
445.28	5497.92
445.47	5713.25
445.65	5647.71
445.84	5762.40
446.02	5633.67
446.21	5785.80
446.39	5767.08
446.58	5682.82
446.77	5713.25
446.95	5535.37
447.14	5603.24
447.32	5675.80
447.51	5650.05
447.69	5820.91
447.88	5720.27
448.06	5778.78
448.25	5678.14
448.43	5771.76
448.62	5776.44
448.80	5806.87
448.99	5881.77
449.17	5907.51
449.36	5818.57
449.54	5954.32
449.73	6073.69
449.91	6099.44
450.10	6040.92
450.28	6157.95
450.46	6094.76
450.65	5963.68
450.83	6090.07
451.02	6143.91
451.20	6265.61
451.39	6150.93
451.57	6104.12
451.76	6127.52
451.94	6090.07
452.13	6361.58
452.31	6258.59
452.49	6256.25
452.68	6197.74
452.86	6438.81
453.05	6413.07
453.23	6368.60
453.42	6286.68
453.60	6232.85
453.78	6544.14
453.97	6253.91
454.15	6429.45
454.34	6317.11
454.52	6539.46
454.70	6565.20
454.89	6595.63
455.07	6663.51
455.26	6654.14
455.44	6719.68
455.62	6525.41
455.81	6682.23
455.99	6937.35
456.17	6766.49
456.36	6724.36
456.54	6768.83
456.73	6892.88
456.91	7002.88
457.09	7049.69
457.28	7023.95
457.46	7023.95
457.64	6991.18
457.83	7028.63
458.01	6998.20
458.19	7201.83
458.38	7047.35
458.56	7304.81
458.74	7281.41
458.93	7019.27
459.11	7314.17
459.29	7117.57
459.48	7332.90
459.66	7063.74
459.84	7234.60
460.03	7438.22
460.21	7475.67
460.39	7274.38
460.57	7316.51
460.76	7480.35
460.94	7414.82
461.12	7665.25
461.31	7515.46
461.49	7419.50
461.67	7307.15
461.85	7758.88
462.04	7639.51
462.22	7978.89
462.40	7712.07
462.59	7880.58
462.77	7637.17
462.95	7819.73
463.13	7742.49
463.32	7805.69
463.50	7833.77
463.68	7985.91
463.86	8025.70
464.05	7747.17
464.23	7927.39
464.41	7992.93
464.59	7882.92
464.78	8049.10
464.96	7939.10
465.14	8039.74
465.32	8060.80
465.50	8088.89
465.69	8028.04
465.87	7824.41
466.05	8018.68
466.23	8131.02
466.41	8198.90
466.60	8344.01
466.78	8147.40
466.96	8177.83
467.14	8133.36
467.32	8329.97
467.51	8393.16
467.69	8138.04
467.87	8477.42
468.05	8365.07
468.23	8449.33
468.41	8168.47
468.60	8360.39
468.78	8627.21
468.96	8552.32
469.14	8528.91
469.32	8512.53
469.50	8320.60
469.69	8741.90
469.87	8725.52
470.05	8636.58
470.23	8594.45
470.41	8945.53
470.59	8929.14
470.77	8940.85
470.95	8959.57
471.14	9076.60
471.32	8830.84
471.50	9085.96
471.68	8978.30
471.86	9064.89
472.04	9174.90
472.22	9338.74
472.40	9074.26
472.58	9193.62
472.77	9366.82
472.95	9509.60
473.13	9628.96
473.31	9371.50
473.49	9472.15
473.67	9425.34
473.85	9579.81
474.03	9654.71
474.21	9727.27
474.39	9790.46
474.57	9991.75
474.75	9940.26
474.93	9935.57
475.12	10026.86
475.30	9951.96
475.48	10043.24
475.66	10080.69
475.84	10101.75
476.02	10209.42
476.20	10129.84
476.38	10155.58
476.56	10794.55
476.74	10541.77
476.92	10352.19
477.10	10382.62
477.28	10871.79
477.46	10806.25
477.64	10934.98
477.82	10855.40
478.00	11131.59
478.18	11117.54
478.36	11449.90
478.54	11328.19
478.72	11372.66
478.90	11400.75
479.08	11772.89
479.26	11573.95
479.44	11812.68
479.62	11765.87
479.80	11969.50
479.98	12131.00
480.16	12159.08
480.34	12327.60
480.52	12156.74
480.70	12493.78
480.88	12060.78
481.06	12257.39
481.24	12238.66
481.41	12814.43
481.59	12856.56
481.77	12854.22
481.95	12989.97
482.13	13060.19
482.31	12872.95
482.49	13294.24
482.67	13249.77
482.85	13479.15
483.03	13441.70
483.21	13748.31
483.39	13818.52
483.57	13713.20
483.74	13720.22
483.92	13855.97
484.10	13973.00
484.28	13951.93
484.46	14520.68
484.64	14532.39
484.82	14588.56
485.00	14565.15
485.18	14808.57
485.35	15096.46
485.53	14888.15
485.71	15199.44
485.89	15246.25
486.07	15283.70
486.25	15360.94
486.43	15611.37
486.61	15822.02
486.78	15662.86
486.96	15819.68
487.14	16114.59
487.32	15929.69
487.50	16341.62
487.68	16308.85
487.85	16535.88
488.03	16711.42
488.21	16833.13
488.39	17106.98
488.57	16980.59
488.75	17289.54
488.92	17263.79
489.10	17645.30
489.28	17507.21
489.46	17907.44
489.64	17224.00
489.81	18097.02
489.99	17841.90
490.17	17783.39
490.35	18558.11
490.53	18569.81
490.70	18703.22
490.88	18455.12
491.06	18750.03
491.24	19147.92
491.41	19192.39
491.59	19073.03
491.77	19475.60
491.95	19407.72
492.13	19651.14
492.30	19499.00
492.48	19637.09
492.66	19742.42
492.84	19826.68
493.01	20100.52
493.19	20044.35
493.37	20355.64
493.54	20580.33
493.72	20580.33
493.90	20528.84
494.08	20893.96
494.25	20847.15
494.43	20896.30
494.61	21326.96
494.79	21443.99
494.96	21371.43
495.14	21448.67
495.32	21551.65
495.49	21785.71
495.67	21619.53
495.85	21916.78
496.02	22284.24
496.20	22436.38
496.38	22675.11
496.55	22576.81
496.73	23510.68
496.91	22827.24
497.09	22511.27
497.26	22972.36
497.44	22831.93
497.62	22974.70
497.79	23433.44
497.97	23372.59
498.14	23384.29
498.32	23754.10
498.50	23805.59
498.67	23875.80
498.85	23744.73
499.03	23955.38
499.20	24070.07
499.38	24004.53
499.56	24114.54
499.73	24353.27
499.91	24685.63
500.08	24772.23
500.26	24224.54
500.44	24765.21
500.61	24720.74
500.79	24680.95
500.97	24968.84
501.14	25273.10
501.32	25181.82
501.49	25233.32
501.67	25675.68
501.84	25486.09
502.02	25556.31
502.20	25607.80
502.37	25909.73
502.55	25689.72
502.72	26040.80
502.90	25867.60
503.07	25893.35
503.25	26054.84
503.43	25921.43
503.60	26256.13
503.78	26331.03
503.95	26831.90
504.13	26649.34
504.30	26632.96
504.48	26632.96
504.65	26684.45
504.83	26939.57
505.01	27175.96
505.18	26897.44
505.36	27201.71
505.53	27384.27
505.71	27321.07
505.88	27613.64
506.06	27721.30
506.23	27957.70
506.41	27431.08
506.58	27651.09
506.76	27718.96
506.93	27915.57
507.11	27931.95
507.28	28133.24
507.46	28182.39
507.63	28231.54
507.81	28119.20
507.98	28346.23
508.16	28425.81
508.33	28737.10
508.50	28912.64
508.68	28844.76
508.85	29099.88
509.03	28694.97
509.20	28837.74
509.38	29495.43
509.55	29254.36
509.73	29406.49
509.90	29329.25
510.08	29429.90
510.25	29792.68
510.42	29626.50
510.60	29692.04
510.77	29846.51
510.95	30148.44
511.12	29832.47
511.30	29902.68
511.47	30204.61
511.64	30614.21
511.82	30274.83
511.99	30312.28
512.17	30448.03
512.34	30464.41
512.51	30883.37
512.69	30326.32
512.86	30831.88
513.04	30925.50
513.21	31096.36
513.38	31012.10
513.56	31098.70
513.73	30815.49
513.90	31197.00
514.08	31342.11
514.25	31454.46
514.43	31505.95
514.60	31512.97
514.77	31873.42
514.95	31639.36
515.12	31838.31
515.29	31498.93
515.47	32088.74
515.64	32158.96
515.81	32280.67
515.99	32004.49
516.16	32350.88
516.33	32226.84
516.51	32353.23
516.68	32285.35
516.85	32608.34
517.03	32596.64
517.20	32561.53
517.37	32636.43
517.54	32816.65
517.72	32760.48
517.89	32643.45
518.06	33411.15
518.24	32746.44
518.41	32966.45
518.58	33343.27
518.75	33039.00
518.93	33179.43
519.10	33310.50
519.27	33666.27
519.45	33574.98
519.62	33383.06
519.79	33652.22
519.96	33734.14
520.14	33481.36
520.31	34022.03
520.48	33982.24
520.65	34253.74
520.83	34265.44
521.00	34316.93
521.17	34256.08
521.34	34284.17
521.52	34520.56
521.69	34707.80
521.86	34878.66
522.03	34583.76
522.20	34597.80
522.38	35274.21
522.55	35047.18
522.72	34696.10
522.89	34726.53
523.07	35164.21
523.24	35161.87
523.41	35365.49
523.58	35180.59
523.75	35468.48
523.92	35400.60
524.10	35559.76
524.27	35559.76
524.44	35409.96
524.61	35770.41
524.78	35775.09
524.96	35676.79
525.13	36009.14
525.30	36189.36
525.47	36264.26
525.64	36184.68
525.81	35943.61
525.98	36371.92
526.16	36327.45
526.33	36444.48
526.50	36055.95
526.67	36144.89
526.84	36648.11
527.01	36744.07
527.18	36788.54
527.36	36730.03
527.53	36811.95
527.70	36999.19
527.87	36964.08
528.04	36844.71
528.21	37022.59
528.38	36959.40
528.55	36980.46
528.72	37085.79
528.89	37055.36
529.07	37134.94
529.24	37109.19
529.41	37511.77
529.58	37050.68
529.75	37411.12
529.92	37773.91
530.09	37530.49
530.26	37766.88
530.43	37708.37
530.60	37675.60
530.77	37584.32
530.94	37837.10
531.11	37956.47
531.28	37930.72
531.46	38127.33
531.63	38155.41
531.80	37862.85
531.97	37986.89
532.14	37904.98
532.31	38211.59
532.48	38389.47
532.65	38562.67
532.82	38249.03
532.99	38717.14
533.16	38506.49
533.33	38799.06
533.50	38895.02
533.67	38850.55
533.84	38375.42
534.01	38852.89
534.18	39129.08
534.35	39374.83
534.52	39112.69
534.69	39187.59
534.86	39208.65
535.03	38993.32
535.20	39194.61
535.37	39112.69
535.54	40009.12
535.71	39365.47
535.88	39632.29
536.05	39615.91
536.22	39693.15
536.38	39828.90
536.55	39805.49
536.72	39391.22
536.89	39550.37
537.06	39796.13
537.23	40098.06
537.40	39791.45
537.57	39428.66
537.74	39665.06
537.91	40430.41
538.08	40018.48
538.25	39847.62
538.42	40051.25
538.59	40706.60
538.75	40222.11
538.92	40502.97
539.09	40142.53
539.26	40271.26
539.43	40416.37
539.60	40671.49
539.77	40268.92
539.94	40910.22
540.11	40837.67
540.28	40779.15
540.44	40994.48
540.61	40657.45
540.78	40360.20
540.95	40437.44
541.12	40533.40
541.29	41024.91
541.46	40889.16
541.62	41158.32
541.79	41528.13
541.96	40690.21
542.13	41038.95
542.30	40954.69
542.47	41486.00
542.63	41228.54
542.80	41511.74
542.97	42017.30
543.14	41855.80
543.31	41673.24
543.48	41226.20
543.64	42204.54
543.81	42162.41
543.98	42012.62
544.15	41518.76
544.32	42344.97
544.48	42550.94
544.65	41923.68
544.82	42447.96
544.99	41734.09
545.16	42239.65
545.32	42646.90
545.49	42698.39
545.66	42541.58
545.83	42316.89
546.00	42684.35
546.16	42422.21
546.33	42323.91
546.50	42356.67
546.67	42784.99
546.83	42401.14
547.00	42227.95
547.17	42494.77
547.34	43173.52
547.50	43393.53
547.67	43180.54
547.84	43136.07
548.00	43264.80
548.17	43566.73
548.34	42958.19
548.51	43601.84
548.67	42920.74
548.84	42993.30
549.01	42927.77
549.18	42967.55
549.34	43543.33
549.51	43416.94
549.68	43665.03
549.84	43344.38
550.01	43817.17
550.18	43129.05
550.34	43772.70
550.51	43679.08
550.68	43676.74
550.84	43243.74
551.01	43814.83
551.18	43882.70
551.34	44102.71
551.51	44076.97
551.68	43938.88
551.84	44004.41
552.01	43770.36
552.18	44076.97
552.34	43433.32
552.51	44304.00
552.68	43941.22
552.84	43571.41
553.01	44596.57
553.18	44210.38
553.34	43988.03
553.51	44170.59
553.67	44399.96
553.84	44900.84
554.01	44507.63
554.17	44261.87
554.34	44406.98
554.51	44671.46
554.67	44664.44
554.84	44809.56
555.00	44809.56
555.17	44428.05
555.33	44472.52
555.50	44460.82
555.67	44643.38
555.83	44619.97
556.00	45102.12
556.16	45219.15
556.33	44582.52
556.50	44720.62
556.66	45205.11
556.83	45062.33
556.99	44921.90
557.16	45291.71
557.32	45146.59
557.49	45076.38
557.65	44818.92
557.82	45055.31
557.98	45146.59
558.15	45090.42
558.32	44807.22
558.48	45017.86
558.65	45162.98
558.81	45392.35
558.98	45153.62
559.14	45282.34
559.31	45305.75
559.47	45244.90
559.64	45661.51
559.80	45572.57
559.97	45474.27
560.13	45502.35
560.30	45607.68
560.46	45783.22
560.63	45659.17
560.79	46061.74
560.96	45495.33
561.12	45820.67
561.29	45705.98
561.45	45567.89
561.61	45560.87
561.78	45776.20
561.94	45537.46
562.11	45652.15
562.27	45783.22
562.44	45385.33
562.60	45530.44
562.77	45968.12
562.93	45773.86
563.10	46085.15
563.26	45656.83
563.42	46010.25
563.59	45577.25
563.75	45572.57
563.92	46073.45
564.08	45825.35
564.24	46314.52
564.41	45961.10
564.57	46248.99
564.74	46181.11
564.90	45790.24
565.07	46127.28
565.23	45956.42
565.39	45977.48
565.56	46412.82
565.72	46108.55
565.88	46195.15
566.05	46050.04
566.21	46230.26
566.38	46108.55
566.54	46225.58
566.70	46279.41
566.87	46274.73
567.03	45567.89
567.19	46363.67
567.36	46241.96
567.52	46309.84
567.68	46829.44
567.85	46155.36
568.01	46614.11
568.17	46127.28
568.34	46511.13
568.50	46286.43
568.66	46223.24
568.83	46674.96
568.99	46160.05
569.15	46684.33
569.32	46581.34
569.48	46515.81
569.64	46841.14
569.81	46174.09
569.97	46691.35
570.13	46518.15
570.30	46539.21
570.46	46602.41
570.62	46710.07
570.78	47068.17
570.95	46789.65
571.11	46892.63
571.27	46550.91
571.43	46822.42
571.60	46775.61
571.76	46328.56
571.92	46822.42
572.09	46761.56
572.25	46693.69
572.41	46653.90
572.57	46651.56
572.74	47044.77
572.90	46777.95
573.06	46850.50
573.22	46747.52
573.38	46724.11
573.55	47131.37
573.71	47196.90
573.87	47220.31
574.03	46841.14
574.20	47138.39
574.36	46864.55
574.52	46838.80
574.68	46719.43
574.84	47236.69
575.01	47058.81
575.17	47206.26
575.33	46906.68
575.49	46707.73
575.65	47241.37
575.82	47292.86
575.98	46464.32
576.14	47304.57
576.30	47145.41
576.46	46930.08
576.62	46913.70
576.79	47030.72
576.95	46590.70
577.11	47325.63
577.27	47180.52
577.43	46623.47
577.59	47002.64
577.75	46920.72
577.92	46791.99
578.08	47107.96
578.24	47075.19
578.40	47267.12
578.56	47241.37
578.72	47229.67
578.88	46815.40
579.04	46728.80
579.21	46845.82
579.37	47213.29
579.53	47035.41
579.69	47110.30
579.85	46993.28
580.01	46965.19
580.17	47290.52
580.33	47009.66
580.49	47182.86
580.65	47143.07
580.82	46965.19
580.98	46796.67
581.14	46955.83
581.30	47777.36
581.46	47360.74
581.62	46763.90
581.78	47061.15
581.94	47477.77
582.10	47199.24
582.26	47037.75
582.42	47150.09
582.58	47126.69
582.74	47463.72
582.90	47110.30
583.06	47365.42
583.22	47227.33
583.38	47552.66
583.54	47299.89
583.70	47386.49
583.86	47342.02
584.02	47299.89
584.18	47524.58
584.34	47215.63
584.50	47428.62
584.66	47686.07
584.82	47323.29
584.98	47606.50
585.14	47524.58
585.30	46941.78
585.46	47653.31
585.62	47236.69
585.78	47026.04
585.94	47007.32
586.10	47480.11
586.26	47143.07
586.42	47257.76
586.58	47674.37
586.74	47749.27
586.90	47346.70
587.06	47182.86
587.22	47880.34
587.38	47178.18
587.54	47807.78
587.70	47648.63
587.86	47414.57
588.02	47367.76
588.18	47199.24
588.34	47246.05
588.49	47351.38
588.65	47187.54
588.81	47559.69
588.97	47262.44
589.13	47299.89
589.29	47693.10
589.45	47650.97
589.61	47702.46
589.77	47697.78
589.93	47468.40
590.08	47777.36
