SpectraSuite Data File
++++++++++++++++++++++++++++++++++++
Date: Fri Oct 25 10:47:24 EDT 2013
User: price-jones
Dark Spectrum Present: No
Reference Spectrum Present: No
Number of Sampled Component Spectra: 1
Spectrometers: USB2+H05261
Integration Time (usec): 100000 (USB2+H05261)
Spectra Averaged: 1 (USB2+H05261)
Boxcar Smoothing: 0 (USB2+H05261)
Correct for Electrical Dark: No (USB2+H05261)
Strobe/Lamp Enabled: No (USB2+H05261)
Correct for Detector Non-linearity: No (USB2+H05261)
Correct for Stray Light: No (USB2+H05261)
Number of Pixels in Processed Spectrum: 2048
>>>>>Begin Processed Spectral Data<<<<<
365.73	110.01
365.92	110.01
366.12	110.01
366.32	32.77
366.52	56.17
366.72	74.90
366.91	9.36
367.11	53.83
367.31	0.00
367.51	56.17
367.70	0.00
367.90	67.88
368.10	9.36
368.30	16.38
368.49	16.38
368.69	0.00
368.89	53.83
369.09	4.68
369.28	39.79
369.48	35.11
369.68	70.22
369.87	60.85
370.07	105.32
370.27	133.41
370.47	210.65
370.66	386.19
370.86	400.23
371.06	468.11
371.25	505.56
371.45	390.87
371.65	470.45
371.84	437.68
372.04	433.00
372.24	486.83
372.44	470.45
372.63	498.53
372.83	507.90
373.03	500.87
373.22	505.56
373.42	477.47
373.62	531.30
373.81	514.92
374.01	573.43
374.21	498.53
374.40	557.05
374.60	568.75
374.79	622.58
374.99	550.03
375.19	624.92
375.38	557.05
375.58	540.66
375.78	667.05
375.97	568.75
376.17	568.75
376.37	533.64
376.56	582.79
376.76	550.03
376.95	521.94
377.15	606.20
377.35	638.97
377.54	688.12
377.74	596.84
377.93	585.13
378.13	629.60
378.33	667.05
378.52	674.07
378.72	638.97
378.91	627.26
379.11	624.92
379.31	638.97
379.50	582.79
379.70	643.65
379.89	655.35
380.09	660.03
380.28	617.90
380.48	690.46
380.68	638.97
380.87	641.31
381.07	648.33
381.26	704.50
381.46	610.88
381.65	641.31
381.85	554.71
382.04	716.20
382.24	725.57
382.43	631.94
382.63	723.23
382.83	702.16
383.02	697.48
383.22	748.97
383.41	695.14
383.61	711.52
383.80	770.04
384.00	800.46
384.19	718.54
384.39	641.31
384.58	669.39
384.78	713.86
384.97	753.65
385.17	667.05
385.36	786.42
385.56	767.70
385.75	746.63
385.95	739.61
386.14	748.97
386.34	882.38
386.53	814.51
386.72	812.17
386.92	835.57
387.11	800.46
387.31	819.19
387.50	784.08
387.70	807.48
387.89	793.44
388.09	781.74
388.28	767.70
388.48	830.89
388.67	812.17
388.86	943.24
389.06	851.96
389.25	976.00
389.45	842.59
389.64	807.48
389.84	976.00
390.03	868.34
390.22	931.53
390.42	917.49
390.61	936.21
390.81	875.36
391.00	968.98
391.19	954.94
391.39	971.32
391.58	976.00
391.78	922.17
391.97	1041.54
392.16	940.90
392.36	1020.47
392.55	983.02
392.75	978.34
392.94	983.02
393.13	1032.18
393.33	945.58
393.52	1013.45
393.71	1064.94
393.91	1025.15
394.10	999.41
394.29	1011.11
394.49	1081.33
394.68	1146.86
394.88	1196.01
395.07	1200.69
395.26	1116.44
395.46	1118.78
395.65	1139.84
395.84	1109.41
396.04	1139.84
396.23	1088.35
396.42	1165.59
396.62	1074.31
396.81	1203.04
397.00	1137.50
397.19	1125.80
397.39	1214.74
397.58	1261.55
397.77	1240.48
397.97	1266.23
398.16	1301.34
398.35	1397.30
398.55	1294.32
398.74	1299.00
398.93	1306.02
399.12	1322.40
399.32	1345.81
399.51	1308.36
399.70	1350.49
399.90	1343.47
400.09	1437.09
400.28	1453.47
400.47	1481.56
400.67	1509.65
400.86	1481.56
401.05	1427.73
401.24	1551.78
401.44	1554.12
401.63	1502.62
401.82	1547.09
402.01	1401.98
402.21	1537.73
402.40	1526.03
402.59	1610.29
402.78	1547.09
402.97	1537.73
403.17	1561.14
403.36	1624.33
403.55	1636.03
403.74	1701.57
403.93	1617.31
404.13	1591.56
404.32	1739.02
404.51	1746.04
404.70	1703.91
404.89	1554.12
405.09	1804.55
405.28	1771.79
405.47	1666.46
405.66	1743.70
405.85	1776.47
406.05	1753.06
406.24	1767.10
406.43	1825.62
406.62	1898.17
406.81	1963.71
407.00	1825.62
407.20	1729.66
407.39	1790.51
407.58	1849.02
407.77	1968.39
407.96	1926.26
408.15	1970.73
408.34	1984.77
408.54	1870.09
408.73	1933.28
408.92	1973.07
409.11	2118.18
409.30	2113.50
409.49	2059.67
409.68	2139.25
409.87	2157.97
410.07	2008.18
410.26	2251.60
410.45	2183.72
410.64	2214.15
410.83	2258.62
411.02	2242.23
411.21	2256.28
411.40	2246.91
411.59	2296.07
411.78	2296.07
411.98	2157.97
412.17	2401.39
412.36	2410.75
412.55	2356.92
412.74	2452.88
412.93	2403.73
413.12	2429.48
413.31	2651.83
413.50	2541.82
413.69	2590.97
413.88	2581.61
414.07	2523.10
414.26	2590.97
414.45	2661.19
414.64	2700.98
414.83	2719.70
415.02	2693.96
415.22	2693.96
415.41	2829.71
415.60	2871.84
415.79	2803.96
415.98	2888.22
416.17	2855.45
416.36	2885.88
416.55	2860.13
416.74	2965.46
416.93	2986.52
417.12	2944.39
417.31	3023.97
417.50	2991.20
417.69	3033.33
417.88	3199.51
418.07	3136.32
418.26	3021.63
418.45	3021.63
418.64	3213.56
418.83	3145.68
419.02	3199.51
419.21	3337.60
419.39	3267.39
419.58	3220.58
419.77	3433.57
419.96	3267.39
420.15	3269.73
420.34	3440.59
420.53	3248.66
420.72	3426.54
420.91	3485.06
421.10	3438.25
421.29	3391.44
421.48	3344.63
421.67	3562.30
421.86	3487.40
422.05	3339.94
422.24	3421.86
422.43	3466.33
422.61	3489.74
422.80	3543.57
422.99	3583.36
423.18	3545.91
423.37	3742.52
423.56	3510.80
423.75	3529.53
423.94	3543.57
424.13	3377.39
424.32	3550.59
424.50	3623.15
424.69	3644.21
424.88	3669.96
425.07	3602.08
425.26	3620.81
425.45	3487.40
425.64	3765.92
425.83	3590.38
426.01	3611.45
426.20	3693.37
426.39	3662.94
426.58	3632.51
426.77	3644.21
426.96	3557.61
427.15	3672.30
427.33	3768.26
427.52	3702.73
427.71	3826.78
427.90	3819.75
428.09	3679.32
428.28	3840.82
428.46	3861.88
428.65	3611.45
428.84	3735.50
429.03	3859.54
429.22	3611.45
429.40	3943.80
429.59	3864.22
429.78	3613.79
429.97	3595.06
430.16	3817.41
430.34	3901.67
430.53	4051.47
430.72	3904.01
430.91	3922.74
431.10	3913.38
431.28	4079.55
431.47	4182.54
431.66	4280.84
431.85	4114.66
432.03	4252.75
432.22	4182.54
432.41	4161.47
432.60	4140.41
432.79	4159.13
432.97	4238.71
433.16	4318.29
433.35	4346.37
433.54	4290.20
433.72	4306.59
433.91	4411.91
434.10	4531.28
434.28	4409.57
434.47	4280.84
434.66	4411.91
434.85	4606.17
435.03	4599.15
435.22	4550.00
435.41	4678.73
435.59	4559.36
435.78	4662.35
435.97	4662.35
436.16	4622.56
436.34	4697.46
436.53	4664.69
436.72	4826.18
436.90	4514.89
437.09	4739.58
437.28	4704.48
437.46	4819.16
437.65	4762.99
437.84	4812.14
438.02	4762.99
438.21	4734.90
438.40	4734.90
438.58	4720.86
438.77	5018.11
438.96	4828.53
439.14	5008.75
439.33	5022.79
439.52	5207.69
439.70	5104.71
439.89	5153.86
440.08	5043.85
440.26	5043.85
440.45	5219.39
440.63	5434.72
440.82	5294.29
441.01	5411.32
441.19	5469.83
441.38	5612.60
441.57	5392.59
441.75	5572.82
441.94	5628.99
442.12	5806.87
442.31	5753.04
442.50	5650.05
442.68	5699.20
442.87	5717.93
443.05	5731.97
443.24	5806.87
443.43	5731.97
443.61	5888.79
443.80	5956.66
443.98	5699.20
444.17	5572.82
444.35	5944.96
444.54	6001.13
444.73	5942.62
444.91	5977.73
445.10	5898.15
445.28	5837.30
445.47	5720.27
445.65	5961.34
445.84	5856.02
446.02	6031.56
446.21	5984.75
446.39	5879.43
446.58	6071.35
446.77	5898.15
446.95	5832.62
447.14	6066.67
447.32	6148.59
447.51	6029.22
447.69	5970.71
447.88	6019.86
448.06	6050.28
448.25	6010.50
448.43	5996.45
448.62	6111.14
448.80	6122.84
448.99	6132.20
449.17	6186.04
449.36	6216.46
449.54	6310.08
449.73	6256.25
449.91	6478.60
450.10	6291.36
450.28	6544.14
450.46	6434.13
450.65	6504.35
450.83	6366.26
451.02	6509.03
451.20	6656.48
451.39	6450.52
451.57	6349.87
451.76	6541.80
451.94	6544.14
452.13	6527.75
452.31	6642.44
452.49	6450.52
452.68	6597.97
452.86	6614.35
453.05	6715.00
453.23	6581.59
453.42	6738.40
453.60	6750.10
453.78	6836.70
453.97	6502.01
454.15	6597.97
454.34	6789.89
454.52	6869.47
454.70	6820.32
454.89	6778.19
455.07	6986.50
455.26	6986.50
455.44	7005.22
455.62	6944.37
455.81	7056.72
455.99	7045.01
456.17	7215.87
456.36	7157.36
456.54	7012.24
456.73	7150.34
456.91	7279.07
457.09	7428.86
457.28	7517.80
457.46	7300.13
457.64	7393.75
457.83	7428.86
458.01	7187.79
458.19	7466.31
458.38	7377.37
458.56	7569.29
458.74	7496.74
458.93	7410.14
459.11	7583.34
459.29	7611.42
459.48	7599.72
459.66	7669.94
459.84	7524.82
460.03	7665.25
460.21	7606.74
460.39	7679.30
460.57	7826.75
460.76	7660.57
460.94	7852.50
461.12	7859.52
461.31	7852.50
461.49	7889.95
461.67	7819.73
461.85	7990.59
462.04	7948.46
462.22	8351.03
462.40	8175.49
462.59	8028.04
462.77	8098.25
462.95	8074.85
463.13	8159.11
463.32	8119.32
463.50	8116.98
463.68	8156.77
463.86	8252.73
464.05	8219.96
464.23	8121.66
464.41	8287.84
464.59	8126.34
464.78	8425.93
464.96	8226.98
465.14	8248.05
465.32	8402.52
465.50	8461.04
465.69	8578.06
465.87	8383.80
466.05	8484.44
466.23	8320.60
466.41	8290.18
466.60	8528.91
466.78	8301.88
466.96	8514.87
467.14	8533.59
467.32	8664.66
467.51	8737.22
467.69	8390.82
467.87	8456.36
468.05	8636.58
468.23	8695.09
468.41	8531.25
468.60	8564.02
468.78	8549.98
468.96	8676.37
469.14	8692.75
469.32	8903.40
469.50	8547.64
469.69	8828.50
469.87	8926.80
470.05	8891.70
470.23	9242.78
470.41	9174.90
470.59	9137.45
470.77	9095.32
470.95	9137.45
471.14	9329.38
471.32	9029.79
471.50	9261.50
471.68	9423.00
471.86	9444.06
472.04	9455.76
472.22	9834.93
472.40	9324.69
472.58	9544.70
472.77	9453.42
472.95	9701.52
473.13	9996.43
473.31	9809.19
473.49	9502.58
473.67	9699.18
473.85	9848.97
474.03	10195.37
474.21	9877.06
474.39	10211.76
474.57	9975.36
474.75	10076.01
474.93	10171.97
475.12	10186.01
475.30	10384.96
475.48	10150.90
475.66	10270.27
475.84	10443.47
476.02	10464.54
476.20	10546.45
476.38	10675.18
476.56	10888.17
476.74	10916.26
476.92	10590.92
477.10	10668.16
477.28	10864.77
477.46	11056.69
477.64	11318.83
477.82	11559.91
478.00	11555.22
478.18	11372.66
478.36	11503.73
478.54	11623.10
478.72	11784.60
478.90	12049.08
479.08	11796.30
479.26	11899.28
479.44	12173.13
479.62	12189.51
479.80	12105.25
479.98	12301.86
480.16	12386.12
480.34	12446.97
480.52	12552.29
480.70	12580.38
480.88	12592.08
481.06	12571.02
481.24	12727.83
481.41	12964.23
481.59	13025.08
481.77	12971.25
481.95	13362.12
482.13	13191.26
482.31	13114.02
482.49	14001.08
482.67	13294.24
482.85	13823.20
483.03	14057.26
483.21	14136.84
483.39	14132.15
483.57	14120.45
483.74	14391.95
483.92	14478.55
484.10	14288.97
484.28	14649.41
484.46	14712.61
484.64	15030.92
484.82	14843.68
485.00	15049.64
485.18	15400.72
485.35	15269.66
485.53	15152.63
485.71	15154.97
485.89	15531.80
486.07	15414.77
486.25	15487.32
486.43	15578.61
486.61	15815.00
486.78	15807.98
486.96	16290.13
487.14	16301.83
487.32	16271.40
487.50	16734.83
487.68	16669.30
487.85	17069.53
488.03	17022.72
488.21	17224.00
488.39	17212.30
488.57	17341.03
488.75	17226.34
488.92	17764.67
489.10	17757.64
489.28	17790.41
489.46	17951.91
489.64	17745.94
489.81	18593.22
489.99	18691.52
490.17	18773.44
490.35	18752.37
490.53	18579.17
490.70	18803.86
490.88	18733.65
491.06	19159.63
491.24	19410.06
491.41	19222.82
491.59	19496.66
491.77	19379.64
491.95	19435.81
492.13	19721.35
492.30	20067.75
492.48	20086.48
492.66	20034.99
492.84	20306.49
493.01	20393.09
493.19	20217.55
493.37	20755.87
493.54	20854.17
493.72	20819.07
493.90	20828.43
494.08	21048.44
494.25	21343.35
494.43	21750.60
494.61	21495.48
494.79	21699.11
494.96	21727.19
495.14	21638.25
495.32	22113.38
495.49	22300.62
495.67	22258.49
495.85	22356.80
496.02	22408.29
496.20	22640.00
496.38	22679.79
496.55	22951.29
496.73	23314.08
496.91	23058.96
497.09	22998.10
497.26	23194.71
497.44	23267.27
497.62	23033.21
497.79	23651.11
497.97	23672.18
498.14	23433.44
498.32	23924.96
498.50	24046.66
498.67	24142.63
498.85	23866.44
499.03	24484.34
499.20	24498.39
499.38	24259.65
499.56	24704.35
499.73	24584.99
499.91	24563.92
500.08	24755.85
500.26	24474.98
500.44	24746.48
500.61	24926.71
500.79	25186.50
500.97	25170.12
501.14	25376.09
501.32	25696.74
501.49	25067.14
501.67	25680.36
501.84	25692.06
502.02	25675.68
502.20	25907.39
502.37	26003.35
502.55	26015.05
502.72	25989.31
502.90	26054.84
503.07	26342.73
503.25	26103.99
503.43	26239.75
503.60	26480.82
503.78	26501.89
503.95	26520.61
504.13	26588.49
504.30	26647.00
504.48	26459.76
504.65	26965.31
504.83	27056.59
505.01	27187.66
505.18	27154.90
505.36	27686.20
505.53	27262.56
505.71	27791.52
505.88	27592.58
506.06	27391.29
506.23	27449.80
506.41	27454.48
506.58	27927.27
506.76	27775.14
506.93	28121.54
507.11	27887.48
507.28	28231.54
507.46	28453.89
507.63	28313.46
507.81	28568.58
507.98	28067.70
508.16	28222.18
508.33	28467.94
508.50	28444.53
508.68	28711.35
508.85	29170.10
509.03	28900.94
509.20	29144.35
509.38	28851.78
509.55	29254.36
509.73	28996.90
509.90	29394.79
510.08	29303.51
510.25	29425.22
510.42	29600.76
510.60	29425.22
510.77	30047.80
510.95	29837.15
511.12	29851.19
511.30	29984.60
511.47	30148.44
511.64	30338.02
511.82	30120.35
511.99	30438.67
512.17	30483.14
512.34	30532.29
512.51	30632.93
512.69	30754.64
512.86	30618.89
513.04	31002.74
513.21	30644.63
513.38	30824.86
513.56	30836.56
513.73	30948.90
513.90	31126.78
514.08	31164.23
514.25	31082.31
514.43	31208.70
514.60	31365.52
514.77	31243.81
514.95	31807.88
515.12	31037.84
515.29	31894.48
515.47	31534.04
515.64	31672.13
515.81	31449.78
515.99	32102.79
516.16	31892.14
516.33	32180.03
516.51	32435.14
516.68	31611.28
516.85	31814.90
517.03	32044.27
517.20	32371.95
517.37	32053.64
517.54	32362.59
517.72	32472.59
517.89	32273.65
518.06	32479.61
518.24	32254.92
518.41	32662.18
518.58	32374.29
518.75	32479.61
518.93	32917.29
519.10	33099.86
519.27	33149.01
519.45	33303.48
519.62	33495.41
519.79	33172.41
519.96	33429.87
520.14	34019.69
520.31	33560.94
520.48	33612.43
520.65	33656.90
520.83	34181.18
521.00	34082.88
521.17	33619.46
521.34	34087.56
521.52	34057.14
521.69	34057.14
521.86	34141.39
522.03	34052.45
522.20	34408.22
522.38	34368.43
522.55	34375.45
522.72	34539.29
522.89	34251.40
523.07	34513.54
523.24	34586.10
523.41	34911.43
523.58	34305.23
523.75	35063.57
523.92	35093.99
524.10	34925.47
524.27	35323.36
524.44	34920.79
524.61	35402.94
524.78	35599.55
524.96	35442.73
525.13	35723.60
525.30	35452.09
525.47	35615.93
525.64	35578.48
525.81	35990.42
525.98	35559.76
526.16	35667.42
526.33	35747.00
526.50	35735.30
526.67	35225.06
526.84	35917.86
527.01	35409.96
527.18	35229.74
527.36	36257.24
527.53	36077.02
527.70	36332.14
527.87	36474.91
528.04	36755.77
528.21	36421.08
528.38	36013.82
528.55	36493.63
528.72	36840.03
528.89	36755.77
529.07	36980.46
529.24	36680.88
529.41	36825.99
529.58	36538.10
529.75	36552.15
529.92	36931.31
530.09	36957.06
530.26	37163.03
530.43	37418.14
530.60	36786.20
530.77	37474.32
530.94	37556.24
531.11	37184.09
531.28	37757.52
531.46	37542.19
531.63	37593.68
531.80	37357.29
531.97	37179.41
532.14	37598.37
532.31	37043.66
532.48	37415.80
532.65	37579.64
532.82	37696.67
532.99	37947.11
533.16	37095.15
533.33	37860.51
533.50	38307.55
533.67	38075.84
533.84	37916.68
534.01	38373.08
534.18	38139.03
534.35	38756.93
534.52	37944.76
534.69	38216.27
534.86	38534.58
535.03	38333.29
535.20	38340.32
535.37	38745.23
535.54	38925.45
535.71	38761.61
535.88	38567.35
536.05	38557.99
536.22	38873.96
536.38	38808.42
536.55	38941.83
536.72	38859.91
536.89	38682.03
537.06	38665.65
537.23	39260.15
537.40	39049.50
537.57	39201.63
537.74	39145.46
537.91	39342.06
538.08	39491.86
538.25	39201.63
538.42	39145.46
538.59	39679.10
538.75	38904.38
538.92	39374.83
539.09	39487.18
539.26	39636.97
539.43	39496.54
539.60	39819.53
539.77	39433.35
539.94	39388.88
540.11	39526.97
540.28	39683.78
540.44	39400.58
540.61	39599.52
540.78	39494.20
540.95	39817.19
541.12	39840.60
541.29	39229.72
541.46	39981.03
541.62	39931.88
541.79	40451.48
541.96	39627.61
542.13	39948.26
542.30	40367.22
542.47	39711.87
542.63	40130.83
542.80	40369.56
542.97	41024.91
543.14	41048.32
543.31	40566.16
543.48	40804.90
543.64	41015.55
543.81	41036.61
543.98	40842.35
544.15	41043.63
544.32	40549.78
544.48	40694.89
544.65	40601.27
544.82	41130.23
544.99	40882.14
545.16	40914.90
545.32	40865.75
545.49	41413.44
545.66	41017.89
545.83	41364.29
546.00	41713.03
546.16	41729.41
546.33	41242.58
546.50	40856.39
546.67	41790.27
546.83	40950.01
547.00	40994.48
547.17	41450.89
547.34	41490.68
547.50	41619.41
547.67	41493.02
547.84	41755.16
548.00	41773.88
548.17	41572.60
548.34	41914.31
548.51	42148.37
548.67	42220.92
548.84	42057.09
549.01	42134.32
549.18	42071.13
549.34	42092.19
549.51	42494.77
549.68	42181.13
549.84	42110.92
550.01	42307.52
550.18	42209.22
550.34	42281.78
550.51	42146.03
550.68	41970.49
550.84	41570.25
551.01	42454.98
551.18	42141.35
551.34	42356.67
551.51	42148.37
551.68	42183.48
551.84	42590.73
552.01	42682.01
552.18	42810.74
552.34	42286.46
552.51	42328.59
552.68	42621.16
552.84	42902.02
553.01	42810.74
553.18	42682.01
553.34	42820.10
553.51	42426.89
553.67	43054.15
553.84	42738.18
554.01	43150.12
554.17	42976.92
554.34	43007.34
554.51	43213.31
554.67	43297.57
554.84	42962.87
555.00	42902.02
555.17	42775.63
555.33	43393.53
555.50	43349.06
555.67	43019.05
555.83	43112.67
556.00	43267.14
556.16	43548.01
556.33	43105.65
556.50	43281.19
556.66	43306.93
556.83	43264.80
556.99	43847.60
557.16	43573.75
557.32	43620.56
557.49	43636.95
557.65	42862.23
557.82	43580.78
557.98	43063.52
558.15	43679.08
558.32	43594.82
558.48	43346.72
558.65	43166.50
558.81	43208.63
558.98	43531.62
559.14	43491.83
559.31	43629.93
559.47	43519.92
559.64	43995.05
559.80	43969.30
559.97	43922.49
560.13	43344.38
560.30	43473.11
560.46	43990.37
560.63	43920.15
560.79	43831.21
560.96	43882.70
561.12	43550.35
561.29	43922.49
561.45	43973.98
561.61	44025.48
561.78	43852.28
561.94	43548.01
562.11	43831.21
562.27	43882.70
562.44	43819.51
562.60	43990.37
562.77	44250.17
562.93	43775.04
563.10	44222.08
563.26	43899.09
563.42	44304.00
563.59	43922.49
563.75	43966.96
563.92	44676.15
564.08	44102.71
564.24	44460.82
564.41	44348.47
564.57	44215.06
564.74	43988.03
564.90	44191.65
565.07	44355.49
565.23	43948.24
565.39	43985.69
565.56	44217.40
565.72	44023.14
565.88	44767.43
566.05	44072.29
566.21	44231.44
566.38	44289.96
566.54	44067.61
566.70	44556.78
566.87	44421.03
567.03	44336.77
567.19	44807.22
567.36	44388.26
567.52	44292.30
567.68	44868.07
567.85	44748.70
568.01	44250.17
568.17	44383.58
568.34	45027.23
568.50	44432.73
568.66	44292.30
568.83	44552.10
568.99	44313.36
569.15	44163.57
569.32	44198.68
569.48	44329.75
569.64	44594.23
569.81	44769.77
569.97	44306.34
570.13	44477.20
570.30	44336.77
570.46	44446.77
570.62	44112.08
570.78	44177.61
570.95	44271.23
571.11	44907.86
571.27	44624.65
571.43	44985.10
571.60	44507.63
571.76	44619.97
571.92	44460.82
572.09	44676.15
572.25	44308.68
572.41	45052.97
572.57	44657.42
572.74	44734.66
572.90	44964.03
573.06	44865.73
573.22	44528.69
573.38	44608.27
573.55	44392.94
573.71	44926.58
573.87	44713.59
574.03	44437.41
574.20	44751.04
574.36	45027.23
574.52	45043.61
574.68	44516.99
574.84	45118.51
575.01	44692.53
575.17	44678.49
575.33	44940.63
575.49	44931.26
575.65	45036.59
575.82	45125.53
575.98	44931.26
576.14	45069.36
576.30	44788.49
576.46	44769.77
576.62	44582.52
576.79	44643.38
576.95	44809.56
577.11	44903.18
577.27	45127.87
577.43	44851.69
577.59	44854.03
577.75	44655.08
577.92	44566.14
578.08	44437.41
578.24	44463.16
578.40	44694.87
578.56	44954.67
578.72	44783.81
578.88	45148.93
579.04	44624.65
579.21	44921.90
579.37	44725.30
579.53	44645.72
579.69	44554.44
579.85	44753.38
580.01	45106.80
580.17	45024.89
580.33	44959.35
580.49	44737.00
580.65	44973.39
580.82	44898.50
580.98	44722.96
581.14	44596.57
581.30	45170.00
581.46	44849.35
581.62	44776.79
581.78	44912.54
581.94	45125.53
582.10	44577.84
582.26	44907.86
582.42	44811.90
582.58	44856.37
582.74	44641.04
582.90	44795.51
583.06	44917.22
583.22	44910.20
583.38	44779.13
583.54	45071.70
583.70	44575.50
583.86	45127.87
584.02	45036.59
584.18	44966.37
584.34	45141.91
584.50	45177.02
584.66	44875.09
584.82	44781.47
584.98	45134.89
585.14	44896.16
585.30	44868.07
585.46	44362.51
585.62	44788.49
585.78	44914.88
585.94	44610.61
586.10	45141.91
586.26	45319.79
586.42	44830.62
586.58	44802.53
586.74	44563.80
586.90	44783.81
587.06	44800.19
587.22	45120.85
587.38	44697.21
587.54	45420.44
587.70	45146.59
587.86	44949.99
588.02	44886.79
588.18	44982.76
588.34	44481.88
588.49	44472.52
588.65	44641.04
588.81	44861.05
588.97	44474.86
589.13	44837.64
589.29	44577.84
589.45	44935.95
589.61	44870.41
589.77	45392.35
589.93	44886.79
590.08	45432.14
590.24	45155.96
