SpectraSuite Data File
++++++++++++++++++++++++++++++++++++
Date: Fri Oct 25 10:43:20 EDT 2013
User: price-jones
Dark Spectrum Present: No
Reference Spectrum Present: No
Number of Sampled Component Spectra: 1
Spectrometers: USB2+H05261
Integration Time (usec): 100000 (USB2+H05261)
Spectra Averaged: 1 (USB2+H05261)
Boxcar Smoothing: 0 (USB2+H05261)
Correct for Electrical Dark: No (USB2+H05261)
Strobe/Lamp Enabled: No (USB2+H05261)
Correct for Detector Non-linearity: No (USB2+H05261)
Correct for Stray Light: No (USB2+H05261)
Number of Pixels in Processed Spectrum: 2048
>>>>>Begin Processed Spectral Data<<<<<
365.73	131.07
365.92	131.07
366.12	131.07
366.32	9.36
366.52	30.43
366.72	49.15
366.91	105.32
367.11	0.00
367.31	0.00
367.51	18.72
367.70	0.00
367.90	30.43
368.10	11.70
368.30	0.00
368.49	9.36
368.69	77.24
368.89	79.58
369.09	18.72
369.28	72.56
369.48	102.98
369.68	32.77
369.87	95.96
370.07	88.94
370.27	131.07
370.47	138.09
370.66	390.87
370.86	479.81
371.06	421.30
371.25	528.96
371.45	456.40
371.65	418.96
371.84	456.40
372.04	486.83
372.24	437.68
372.44	498.53
372.63	519.60
372.83	475.13
373.03	491.51
373.22	517.26
373.42	557.05
373.62	514.92
373.81	482.15
374.01	561.73
374.21	503.22
374.40	533.64
374.60	599.18
374.79	617.90
374.99	564.07
375.19	613.22
375.38	524.28
375.58	589.82
375.78	613.22
375.97	589.82
376.17	676.41
376.37	615.56
376.56	533.64
376.76	568.75
376.95	608.54
377.15	645.99
377.35	674.07
377.54	617.90
377.74	643.65
377.93	718.54
378.13	678.76
378.33	662.37
378.52	671.73
378.72	669.39
378.91	688.12
379.11	613.22
379.31	650.67
379.50	629.60
379.70	676.41
379.89	641.31
380.09	739.61
380.28	617.90
380.48	716.20
380.68	716.20
380.87	699.82
381.07	699.82
381.26	662.37
381.46	683.44
381.65	725.57
381.85	739.61
382.04	772.38
382.24	683.44
382.43	732.59
382.63	718.54
382.83	645.99
383.02	788.76
383.22	702.16
383.41	650.67
383.61	711.52
383.80	802.80
384.00	748.97
384.19	765.36
384.39	835.57
384.58	800.46
384.78	805.14
384.97	786.42
385.17	716.20
385.36	849.61
385.56	844.93
385.75	837.91
385.95	837.91
386.14	884.72
386.34	800.46
386.53	903.45
386.72	854.30
386.92	877.70
387.11	868.34
387.31	912.81
387.50	830.89
387.70	952.60
387.89	896.43
388.09	912.81
388.28	882.38
388.48	833.23
388.67	894.08
388.86	917.49
389.06	926.85
389.25	912.81
389.45	908.13
389.64	873.02
389.84	978.34
390.03	980.68
390.22	947.92
390.42	1029.84
390.61	940.90
390.81	1029.84
391.00	1034.52
391.19	1167.93
391.39	1088.35
391.58	987.71
391.78	1055.58
391.97	1130.48
392.16	1032.18
392.36	1067.28
392.55	940.90
392.75	1008.77
392.94	983.02
393.13	980.68
393.33	985.37
393.52	990.05
393.71	1228.78
393.91	1029.84
394.10	1095.37
394.29	1163.25
394.49	1086.01
394.68	1207.72
394.88	1261.55
395.07	1320.06
395.26	1301.34
395.46	1240.48
395.65	1214.74
395.84	1247.51
396.04	1203.04
396.23	1167.93
396.42	1184.31
396.62	1172.61
396.81	1221.76
397.00	1205.38
397.19	1303.68
397.39	1284.95
397.58	1331.76
397.77	1409.00
397.97	1420.71
398.16	1399.64
398.35	1469.86
398.55	1437.09
398.74	1378.58
398.93	1589.22
399.12	1507.30
399.32	1493.26
399.51	1404.32
399.70	1593.90
399.90	1568.16
400.09	1610.29
400.28	1689.87
400.47	1624.33
400.67	1511.99
400.86	1713.27
401.05	1734.34
401.24	1652.42
401.44	1703.91
401.63	1699.23
401.82	1631.35
402.01	1764.76
402.21	1652.42
402.40	1832.64
402.59	1612.63
402.78	1781.15
402.97	1703.91
403.17	1781.15
403.36	1727.32
403.55	1746.04
403.74	1842.00
403.93	1795.19
404.13	1900.52
404.32	1912.22
404.51	1863.07
404.70	1966.05
404.89	1788.17
405.09	1949.67
405.28	1902.86
405.47	1874.77
405.66	1891.15
405.85	1926.26
406.05	1923.92
406.24	1975.41
406.43	2008.18
406.62	1996.48
406.81	2090.10
407.00	2043.29
407.20	2120.53
407.39	2118.18
407.58	2031.58
407.77	2118.18
407.96	2289.04
408.15	2176.70
408.34	2200.10
408.54	2310.11
408.73	2284.36
408.92	2370.96
409.11	2181.38
409.30	2282.02
409.49	2223.51
409.68	2267.98
409.87	2204.78
410.07	2326.49
410.26	2377.98
410.45	2363.94
410.64	2389.69
410.83	2541.82
411.02	2427.14
411.21	2551.18
411.40	2511.39
411.59	2581.61
411.78	2642.46
411.98	2527.78
412.17	2630.76
412.36	2616.72
412.55	2698.64
412.74	2731.41
412.93	2602.68
413.12	2693.96
413.31	2841.41
413.50	2759.49
413.69	2829.71
413.88	2890.56
414.07	2710.34
414.26	2916.31
414.45	2869.50
414.64	2850.77
414.83	2963.12
415.02	3014.61
415.22	3082.49
415.41	3066.10
415.60	3185.47
415.79	3030.99
415.98	3302.50
416.17	3283.77
416.36	3185.47
416.55	3218.24
416.74	3258.03
416.93	3187.81
417.12	3307.18
417.31	3332.92
417.50	3255.69
417.69	3445.27
417.88	3499.10
418.07	3339.94
418.26	3424.20
418.45	3440.59
418.64	3494.42
418.83	3445.27
419.02	3424.20
419.21	3583.36
419.39	3618.47
419.58	3405.48
419.77	3492.08
419.96	3660.60
420.15	3613.79
420.34	3749.54
420.53	3684.00
420.72	3845.50
420.91	3904.01
421.10	3721.45
421.29	3826.78
421.48	3824.44
421.67	3838.48
421.86	3798.69
422.05	3723.79
422.24	3880.61
422.43	3702.73
422.61	3892.31
422.80	3920.40
422.99	3838.48
423.18	4018.70
423.37	3864.22
423.56	3861.88
423.75	3817.41
423.94	3854.86
424.13	3758.90
424.32	3763.58
424.50	3999.98
424.69	4102.96
424.88	4030.40
425.07	3955.51
425.26	3822.09
425.45	3915.72
425.64	3822.09
425.83	3875.93
426.01	4035.08
426.20	4016.36
426.39	3974.23
426.58	3873.59
426.77	3896.99
426.96	3983.59
427.15	3878.27
427.33	4044.45
427.52	4140.41
427.71	4133.39
427.90	4037.42
428.09	4170.83
428.28	4142.75
428.46	4128.70
428.65	4084.23
428.84	4222.33
429.03	4196.58
429.22	4182.54
429.40	4201.26
429.59	4177.86
429.78	4072.53
429.97	3803.37
430.16	3915.72
430.34	4170.83
430.53	4238.71
430.72	4201.26
430.91	4154.45
431.10	4217.65
431.28	4533.62
431.47	4538.30
431.66	4526.60
431.85	4608.51
432.03	4652.98
432.22	4730.22
432.41	4610.86
432.60	4727.88
432.79	4758.31
432.97	4732.56
433.16	4631.92
433.35	4645.96
433.54	4547.66
433.72	4636.60
433.91	4550.00
434.10	4706.82
434.28	4685.75
434.47	4819.16
434.66	4858.95
434.85	4917.47
435.03	4947.89
435.22	4919.81
435.41	5144.50
435.59	5107.05
435.78	5277.91
435.97	5114.07
436.16	5069.60
436.34	5085.98
436.53	5121.09
436.72	5081.30
436.90	5055.56
437.09	5097.69
437.28	5093.01
437.46	5057.90
437.65	5231.10
437.84	5097.69
438.02	5074.28
438.21	5242.80
438.40	5067.26
438.58	5394.93
438.77	5401.96
438.96	5423.02
439.14	5551.75
439.33	5518.98
439.52	5577.50
439.70	5650.05
439.89	5610.26
440.08	5610.26
440.26	5486.22
440.45	5586.86
440.63	5685.16
440.82	6015.18
441.01	5874.74
441.19	5776.44
441.38	6066.67
441.57	5949.64
441.75	6141.57
441.94	6230.51
442.12	6157.95
442.31	6413.07
442.50	6253.91
442.68	6375.62
442.87	6111.14
443.05	6382.64
443.24	6291.36
443.43	6422.43
443.61	6319.45
443.80	6731.38
443.98	6289.02
444.17	6190.72
444.35	6569.88
444.54	6562.86
444.73	6443.49
444.91	6359.24
445.10	6525.41
445.28	6413.07
445.47	6267.95
445.65	6417.75
445.84	6356.90
446.02	6403.71
446.21	6417.75
446.39	6621.38
446.58	6539.46
446.77	6544.14
446.95	6569.88
447.14	6427.11
447.32	6895.22
447.51	6738.40
447.69	6623.72
447.88	6670.53
448.06	6553.50
448.25	6612.01
448.43	6736.06
448.62	6604.99
448.80	6590.95
448.99	6801.60
449.17	6822.66
449.36	6829.68
449.54	6815.64
449.73	7112.89
449.91	7056.72
450.10	7103.53
450.28	7225.23
450.46	7171.40
450.65	7082.46
450.83	6958.41
451.02	7206.51
451.20	7342.26
451.39	7033.31
451.57	7073.10
451.76	7239.28
451.94	7274.38
452.13	7365.67
452.31	7133.95
452.49	6920.96
452.68	7288.43
452.86	7112.89
453.05	7358.64
453.23	7410.14
453.42	7192.47
453.60	7314.17
453.78	7339.92
453.97	7194.81
454.15	7485.03
454.34	7325.88
454.52	7520.14
454.70	7562.27
454.89	7440.56
455.07	7606.74
455.26	7599.72
455.44	7683.98
455.62	7639.51
455.81	7590.36
455.99	7850.16
456.17	7637.17
456.36	8030.38
456.54	7871.22
456.73	7829.09
456.91	8028.04
457.09	8025.70
457.28	8074.85
457.46	7733.13
457.64	8060.80
457.83	7995.27
458.01	7936.76
458.19	8009.31
458.38	7990.59
458.56	8255.07
458.74	8280.82
458.93	8109.96
459.11	8147.40
459.29	8079.53
459.48	8215.28
459.66	8081.87
459.84	8297.20
460.03	8461.04
460.21	8446.99
460.39	8425.93
460.57	8456.36
460.76	8512.53
460.94	8493.80
461.12	8355.71
461.31	8596.79
461.49	8601.47
461.67	8877.65
461.85	8753.60
462.04	8669.34
462.22	9320.01
462.40	8870.63
462.59	8905.74
462.77	8891.70
462.95	8854.25
463.13	8751.26
463.32	8851.91
463.50	8821.48
463.68	9090.64
463.86	9011.06
464.05	8830.84
464.23	8968.93
464.41	9043.83
464.59	8805.10
464.78	9067.24
464.96	8891.70
465.14	8992.34
465.32	9076.60
465.50	9064.89
465.69	9373.85
465.87	9240.44
466.05	9174.90
466.23	9193.62
466.41	8959.57
466.60	9139.79
466.78	9022.77
466.96	9114.05
467.14	9270.86
467.32	9385.55
467.51	9284.91
467.69	9329.38
467.87	9336.40
468.05	9465.13
468.23	9362.14
468.41	9284.91
468.60	9394.91
468.78	9514.28
468.96	9458.10
469.14	9554.07
469.32	9809.19
469.50	9390.23
469.69	9895.78
469.87	9600.88
470.05	9825.57
470.23	9743.65
470.41	9734.29
470.59	9781.10
470.77	9895.78
470.95	9933.23
471.14	10141.54
471.32	9977.70
471.50	10312.40
471.68	10193.03
471.86	10204.74
472.04	10291.34
472.22	10530.07
472.40	9933.23
472.58	10410.70
472.77	10310.06
472.95	10436.45
473.13	10630.71
473.31	10459.85
473.49	10413.04
473.67	10455.17
473.85	10836.68
474.03	10867.11
474.21	10719.65
474.39	11056.69
474.57	10956.05
474.75	11063.71
474.93	11019.24
475.12	11265.00
475.30	11108.18
475.48	11124.57
475.66	11386.71
475.84	11197.12
476.02	11536.50
476.20	11330.53
476.38	11492.03
476.56	11681.61
476.74	11693.32
476.92	11459.26
477.10	12025.67
477.28	12147.38
477.46	11871.20
477.64	12046.74
477.82	12395.48
478.00	12608.47
478.18	12444.63
478.36	12297.17
478.54	12786.35
478.72	12564.00
478.90	12863.58
479.08	13008.70
479.26	13102.32
479.44	12837.84
479.62	13343.39
479.80	13231.05
479.98	13238.07
480.16	13446.38
480.34	13523.62
480.52	13706.18
480.70	13493.19
480.88	13472.12
481.06	13907.46
481.24	14001.08
481.41	14148.54
481.59	14242.16
481.77	14497.28
481.95	14342.80
482.13	14291.31
482.31	14562.81
482.49	14787.50
482.67	14920.92
482.85	14965.39
483.03	15138.58
483.21	15047.30
483.39	15234.55
483.57	15435.83
483.74	15272.00
483.92	15559.88
484.10	15592.65
484.28	15768.19
484.46	15985.86
484.64	16559.29
484.82	15917.98
485.00	16051.39
485.18	16053.73
485.35	16301.83
485.53	15882.88
485.71	16208.21
485.89	16112.25
486.07	16620.14
486.25	16657.59
486.43	17013.35
486.61	17291.88
486.78	17177.19
486.96	17228.68
487.14	17371.46
487.32	17490.82
487.50	17965.95
487.68	18164.90
487.85	18324.05
488.03	18347.46
488.21	18352.14
488.39	18401.29
488.57	18448.10
488.75	18778.12
488.92	19157.28
489.10	19241.54
489.28	19131.54
489.46	19559.86
489.64	19665.18
489.81	20189.46
489.99	20196.48
490.17	19936.68
490.35	20486.71
490.53	19885.19
490.70	20276.06
490.88	20549.90
491.06	20582.67
491.24	20753.53
491.41	20592.03
491.59	20376.70
491.77	20435.22
491.95	20636.50
492.13	20999.29
492.30	21806.77
492.48	21261.43
492.66	21603.14
492.84	21968.27
493.01	22019.76
493.19	22026.78
493.37	22216.36
493.54	22291.26
493.72	22424.67
493.90	22340.41
494.08	22537.02
494.25	22574.47
494.43	23019.17
494.61	23262.58
494.79	23321.10
494.96	23335.14
495.14	23283.65
495.32	23372.59
495.49	23388.97
495.67	23758.78
495.85	24023.26
496.02	24053.69
496.20	24109.86
496.38	24144.97
496.55	24332.21
496.73	24856.49
496.91	24542.86
497.09	25111.61
497.26	24699.67
497.44	24971.18
497.62	25284.81
497.79	24910.32
497.97	24954.79
498.14	25387.79
498.32	25689.72
498.50	25734.19
498.67	26008.03
498.85	25254.38
499.03	25797.38
499.20	25874.62
499.38	26490.18
499.56	26199.96
499.73	26256.13
499.91	26274.85
500.08	26705.51
500.26	26099.31
500.44	26443.37
500.61	26384.86
500.79	26541.68
500.97	26775.73
501.14	26731.26
501.32	27096.38
501.49	27056.59
501.67	27147.87
501.84	27379.59
502.02	27276.60
502.20	27075.32
502.37	27669.81
502.55	27201.71
502.72	28098.13
502.90	27491.93
503.07	28325.16
503.25	27889.82
503.43	27913.23
503.60	27875.78
503.78	27615.98
503.95	28060.68
504.13	28013.87
504.30	28322.82
504.48	28285.37
504.65	28732.42
504.83	28577.94
505.01	29097.54
505.18	28697.31
505.36	28987.53
505.53	29092.86
505.71	29816.08
505.88	29418.19
506.06	29240.31
506.23	29699.06
506.41	29432.24
506.58	29383.09
506.76	29638.20
506.93	29825.45
507.11	29610.12
507.28	29832.47
507.46	29600.76
507.63	29778.64
507.81	29926.09
507.98	30127.38
508.16	30017.37
508.33	30078.22
508.50	30625.91
508.68	30319.30
508.85	30923.16
509.03	30881.03
509.20	31065.93
509.38	31161.89
509.55	31164.23
509.73	30820.17
509.90	31281.26
510.08	31030.82
510.25	31288.28
510.42	30953.58
510.60	31328.07
510.77	31639.36
510.95	32070.02
511.12	32011.51
511.30	31761.07
511.47	31917.89
511.64	32278.33
511.82	32329.82
511.99	31887.46
512.17	32264.28
512.34	31756.39
512.51	32472.59
512.69	32931.34
512.86	32278.33
513.04	32882.19
513.21	32400.04
513.38	32142.58
513.56	32868.14
513.73	32477.27
513.90	32781.54
514.08	32854.10
514.25	32744.09
514.43	32793.25
514.60	33083.47
514.77	33153.69
514.95	33415.83
515.12	33111.56
515.29	33233.27
515.47	33956.49
515.64	33574.98
515.81	33509.45
515.99	33638.18
516.16	33434.55
516.33	33186.46
516.51	33474.34
516.68	33251.99
516.85	32896.23
517.03	33422.85
517.20	33584.35
517.37	34122.67
517.54	34206.93
517.72	33954.15
517.89	33804.36
518.06	34000.96
518.24	34213.95
518.41	34169.48
518.58	34164.80
518.75	34295.87
518.93	34384.81
519.10	34305.23
519.27	34836.53
519.45	34799.08
519.62	35021.44
519.79	35185.27
519.96	35255.49
520.14	35180.59
520.31	35063.57
520.48	35452.09
520.65	34991.01
520.83	35489.54
521.00	35798.49
521.17	35730.62
521.34	35927.22
521.52	35754.02
521.69	35892.12
521.86	36062.97
522.03	36404.69
522.20	35894.46
522.38	36210.43
522.55	36353.20
522.72	36105.10
522.89	36053.61
523.07	36149.57
523.24	36627.04
523.41	36795.56
523.58	36259.58
523.75	36830.67
523.92	37022.59
524.10	36818.97
524.27	37036.64
524.44	37144.30
524.61	37504.74
524.78	37380.70
524.96	37069.40
525.13	37539.85
525.30	37514.11
525.47	37141.96
525.64	37200.47
525.81	37661.56
525.98	37141.96
526.16	37186.43
526.33	37092.81
526.50	37109.19
526.67	37029.62
526.84	37144.30
527.01	37397.08
527.18	37837.10
527.36	38010.30
527.53	38103.92
527.70	38246.69
527.87	37972.85
528.04	37750.50
528.21	38256.06
528.38	37923.70
528.55	38600.12
528.72	38609.48
528.89	38557.99
529.07	38368.40
529.24	38401.17
529.41	38473.73
529.58	38216.27
529.75	38955.88
529.92	38986.30
530.09	38649.27
530.26	38637.56
530.43	38909.07
530.60	38738.21
530.77	38429.26
530.94	39419.30
531.11	39377.17
531.28	38780.34
531.46	39580.80
531.63	39077.58
531.80	39512.92
531.97	39077.58
532.14	39068.22
532.31	39077.58
532.48	39283.55
532.65	39388.88
532.82	39321.00
532.99	39248.44
533.16	39232.06
533.33	39550.37
533.50	40065.29
533.67	39840.60
533.84	39831.24
534.01	39775.06
534.18	39945.92
534.35	40315.73
534.52	39414.62
534.69	40596.59
534.86	40601.27
535.03	40203.38
535.20	40266.58
535.37	40755.75
535.54	40444.46
535.71	40154.23
535.88	40563.82
536.05	40484.25
536.22	40617.66
536.38	40652.76
536.55	40039.54
536.72	40573.19
536.89	40011.46
537.06	40727.66
537.23	40722.98
537.40	40526.38
537.57	40535.74
537.74	40786.18
537.91	41177.04
538.08	41120.87
538.25	40659.79
538.42	40886.82
538.59	41113.85
538.75	40926.61
538.92	41193.43
539.09	41170.02
539.26	40980.44
539.43	41378.33
539.60	41137.26
539.77	41256.62
539.94	40980.44
540.11	41060.02
540.28	41268.33
540.44	41375.99
540.61	41139.60
540.78	41024.91
540.95	41464.93
541.12	41343.22
541.29	41041.29
541.46	41574.94
541.62	41663.88
541.79	41696.64
541.96	41401.74
542.13	42127.30
542.30	41563.23
542.47	41546.85
542.63	41432.16
542.80	41701.32
542.97	41998.57
543.14	41823.03
543.31	42202.20
543.48	42314.55
543.64	42272.42
543.81	42483.06
543.98	42466.68
544.15	42302.84
544.32	42492.43
544.48	43037.77
544.65	42593.07
544.82	42775.63
544.99	42171.77
545.16	42543.92
545.32	42813.08
545.49	42958.19
545.66	43056.50
545.83	42946.49
546.00	42887.98
546.16	42806.06
546.33	42887.98
546.50	42611.79
546.67	43124.37
546.83	42548.60
547.00	43096.28
547.17	42883.30
547.34	42787.33
547.50	42813.08
547.67	43643.97
547.84	43405.23
548.00	43124.37
548.17	43477.79
548.34	43416.94
548.51	43606.52
548.67	43597.16
548.84	43349.06
549.01	43683.76
549.18	43662.69
549.34	43564.39
549.51	42930.11
549.68	43222.67
549.84	43435.66
550.01	43665.03
550.18	43503.54
550.34	43973.98
550.51	43803.13
550.68	43625.25
550.84	43257.78
551.01	43119.69
551.18	43496.52
551.34	43681.42
551.51	43964.62
551.68	44261.87
551.84	43828.87
552.01	43463.75
552.18	44051.22
552.34	43512.90
552.51	44219.74
552.68	43973.98
552.84	44109.74
553.01	44030.16
553.18	43913.13
553.34	44233.78
553.51	43849.94
553.67	44203.36
553.84	44556.78
554.01	44311.02
554.17	44568.48
554.34	44484.22
554.51	44280.60
554.67	44498.26
554.84	44341.45
555.00	44201.02
555.17	44418.69
555.33	44657.42
555.50	44165.91
555.67	44238.47
555.83	44486.56
556.00	44329.75
556.16	44657.42
556.33	44751.04
556.50	44722.96
556.66	44774.45
556.83	44451.45
556.99	44502.95
557.16	45146.59
557.32	44285.28
557.49	44933.60
557.65	44198.68
557.82	44524.01
557.98	44940.63
558.15	44648.06
558.32	44823.60
558.48	44566.14
558.65	44877.43
558.81	44453.79
558.98	44903.18
559.14	44907.86
559.31	45001.48
559.47	44584.86
559.64	44933.60
559.80	44800.19
559.97	44914.88
560.13	44931.26
560.30	45045.95
560.46	45099.78
560.63	45240.21
560.79	45326.81
560.96	45184.04
561.12	44847.00
561.29	45139.57
561.45	45118.51
561.61	44919.56
561.78	45074.04
561.94	44786.15
562.11	44795.51
562.27	44849.35
562.44	44945.31
562.60	45516.40
562.77	45684.92
562.93	45265.96
563.10	45366.60
563.26	45406.39
563.42	45661.51
563.59	45038.93
563.75	44989.78
563.92	45549.17
564.08	45635.77
564.24	45413.41
564.41	45270.64
564.57	45439.16
564.74	45500.01
564.90	45092.76
565.07	45057.65
565.23	45153.62
565.39	45368.94
565.56	45413.41
565.72	45069.36
565.88	45319.79
566.05	45251.92
566.21	45177.02
566.38	45333.84
566.54	45326.81
566.70	45858.12
566.87	45661.51
567.03	45284.68
567.19	46295.80
567.36	46106.21
567.52	45450.86
567.68	45865.14
567.85	45151.27
568.01	45315.11
568.17	45640.45
568.34	45488.31
568.50	45399.37
568.66	45647.47
568.83	45635.77
568.99	45282.34
569.15	45729.39
569.32	45518.74
569.48	45815.99
569.64	45888.54
569.81	45471.93
569.97	45556.19
570.13	45656.83
570.30	45315.11
570.46	45130.21
570.62	44975.73
570.78	45448.52
570.95	45268.30
571.11	45565.55
571.27	45434.48
571.43	45600.66
571.60	45673.21
571.76	45001.48
571.92	45607.68
572.09	45741.09
572.25	45815.99
572.41	45558.53
572.57	46033.66
572.74	46157.70
572.90	46169.41
573.06	46164.73
573.22	45195.74
573.38	45827.69
573.55	45219.15
573.71	45848.75
573.87	45895.56
574.03	45542.14
574.20	45698.96
574.36	45298.73
574.52	46052.38
574.68	45591.30
574.84	45827.69
575.01	45521.08
575.17	45434.48
575.33	45579.59
575.49	45621.72
575.65	45670.87
575.82	45818.33
575.98	45359.58
576.14	45677.90
576.30	45806.62
576.46	45771.52
576.62	45617.04
576.79	45848.75
576.95	45439.16
577.11	45780.88
577.27	45586.61
577.43	45979.82
577.59	45830.03
577.75	45563.21
577.92	45462.57
578.08	45336.18
578.24	45549.17
578.40	45572.57
578.56	45467.25
578.72	45897.91
578.88	45897.91
579.04	45722.37
579.21	45282.34
579.37	45766.84
579.53	45551.51
579.69	45436.82
579.85	45921.31
580.01	45968.12
580.17	45890.88
580.33	46225.58
580.49	46033.66
580.65	45876.84
580.82	45701.30
580.98	45787.90
581.14	45666.19
581.30	45827.69
581.46	46026.63
581.62	45778.54
581.78	45867.48
581.94	46239.62
582.10	45837.05
582.26	45865.14
582.42	45675.55
582.58	45851.09
582.74	45705.98
582.90	46066.42
583.06	46122.60
583.22	45717.68
583.38	45883.86
583.54	46045.36
583.70	45979.82
583.86	45457.88
584.02	45647.47
584.18	46066.42
584.34	45830.03
584.50	45820.67
584.66	45879.18
584.82	45420.44
584.98	46019.61
585.14	46036.00
585.30	45530.44
585.46	45380.65
585.62	45647.47
585.78	46131.96
585.94	45492.99
586.10	45280.00
586.26	45776.20
586.42	45570.23
586.58	46295.80
586.74	45904.93
586.90	46017.27
587.06	45661.51
587.22	46064.08
587.38	45872.16
587.54	46085.15
587.70	46258.35
587.86	45755.13
588.02	45900.25
588.18	45656.83
588.34	45724.71
588.49	45174.68
588.65	45624.06
588.81	45291.71
588.97	45579.59
589.13	45495.33
589.29	45691.94
589.45	45612.36
589.61	45226.17
589.77	46251.33
589.93	45801.94
590.08	45991.53
