SpectraSuite Data File
++++++++++++++++++++++++++++++++++++
Date: Fri Oct 25 10:48:22 EDT 2013
User: price-jones
Dark Spectrum Present: No
Reference Spectrum Present: No
Number of Sampled Component Spectra: 1
Spectrometers: USB2+H05261
Integration Time (usec): 100000 (USB2+H05261)
Spectra Averaged: 1 (USB2+H05261)
Boxcar Smoothing: 0 (USB2+H05261)
Correct for Electrical Dark: No (USB2+H05261)
Strobe/Lamp Enabled: No (USB2+H05261)
Correct for Detector Non-linearity: No (USB2+H05261)
Correct for Stray Light: No (USB2+H05261)
Number of Pixels in Processed Spectrum: 2048
>>>>>Begin Processed Spectral Data<<<<<
365.73	248.10
365.92	248.10
366.12	248.10
366.32	42.13
366.52	14.04
366.72	88.94
366.91	53.83
367.11	56.17
367.31	21.06
367.51	46.81
367.70	42.13
367.90	102.98
368.10	91.28
368.30	39.79
368.49	32.77
368.69	105.32
368.89	14.04
369.09	39.79
369.28	175.54
369.48	32.77
369.68	140.43
369.87	138.09
370.07	98.30
370.27	147.45
370.47	210.65
370.66	437.68
370.86	461.09
371.06	468.11
371.25	442.36
371.45	425.98
371.65	416.62
371.84	465.77
372.04	470.45
372.24	561.73
372.44	514.92
372.63	552.37
372.83	547.69
373.03	561.73
373.22	585.13
373.42	568.75
373.62	491.51
373.81	538.32
374.01	573.43
374.21	507.90
374.40	620.24
374.60	538.32
374.79	603.86
374.99	524.28
375.19	615.56
375.38	657.69
375.58	599.18
375.78	634.29
375.97	599.18
376.17	739.61
376.37	575.77
376.56	641.31
376.76	559.39
376.95	669.39
377.15	748.97
377.35	688.12
377.54	622.58
377.74	601.52
377.93	594.50
378.13	660.03
378.33	711.52
378.52	636.63
378.72	718.54
378.91	730.25
379.11	547.69
379.31	669.39
379.50	685.78
379.70	699.82
379.89	854.30
380.09	683.44
380.28	706.84
380.48	662.37
380.68	723.23
380.87	720.88
381.07	746.63
381.26	800.46
381.46	767.70
381.65	849.61
381.85	753.65
382.04	725.57
382.24	704.50
382.43	718.54
382.63	751.31
382.83	748.97
383.02	725.57
383.22	734.93
383.41	767.70
383.61	835.57
383.80	835.57
384.00	772.38
384.19	772.38
384.39	802.80
384.58	814.51
384.78	777.06
384.97	905.79
385.17	814.51
385.36	830.89
385.56	828.55
385.75	741.95
385.95	861.32
386.14	854.30
386.34	884.72
386.53	880.04
386.72	833.23
386.92	912.81
387.11	856.64
387.31	936.21
387.50	844.93
387.70	854.30
387.89	926.85
388.09	849.61
388.28	950.26
388.48	966.64
388.67	889.40
388.86	884.72
389.06	966.64
389.25	997.07
389.45	1046.22
389.64	978.34
389.84	1057.92
390.03	1001.75
390.22	1027.50
390.42	1104.73
390.61	1104.73
390.81	1086.01
391.00	1125.80
391.19	1078.99
391.39	1036.86
391.58	1034.52
391.78	1001.75
391.97	990.05
392.16	1151.54
392.36	1027.50
392.55	1078.99
392.75	1034.52
392.94	1062.60
393.13	1046.22
393.33	961.96
393.52	1018.13
393.71	1053.24
393.91	1139.84
394.10	1025.15
394.29	1179.63
394.49	1219.42
394.68	1151.54
394.88	1200.69
395.07	1245.16
395.26	1188.99
395.46	1282.61
395.65	1268.57
395.84	1144.52
396.04	1291.98
396.23	1177.29
396.42	1261.55
396.62	1212.40
396.81	1186.65
397.00	1310.70
397.19	1270.91
397.39	1277.93
397.58	1296.66
397.77	1397.30
397.97	1390.28
398.16	1383.26
398.35	1404.32
398.55	1462.83
398.74	1521.35
398.93	1572.84
399.12	1547.09
399.32	1467.52
399.51	1582.20
399.70	1596.25
399.90	1549.43
400.09	1533.05
400.28	1643.06
400.47	1551.78
400.67	1631.35
400.86	1692.21
401.05	1600.93
401.24	1624.33
401.44	1753.06
401.63	1762.42
401.82	1699.23
402.01	1668.80
402.21	1724.97
402.40	1703.91
402.59	1734.34
402.78	1755.40
402.97	1802.21
403.17	1811.57
403.36	1790.51
403.55	1820.94
403.74	1860.73
403.93	1886.47
404.13	1788.17
404.32	1888.81
404.51	1987.11
404.70	1949.67
404.89	1926.26
405.09	1888.81
405.28	1956.69
405.47	1952.01
405.66	1947.33
405.85	1996.48
406.05	2073.71
406.24	1961.37
406.43	2019.88
406.62	2174.36
406.81	2038.61
407.00	2120.53
407.20	2073.71
407.39	2190.74
407.58	2087.76
407.77	2172.02
407.96	2150.95
408.15	2275.00
408.34	2328.83
408.54	2249.25
408.73	2246.91
408.92	2188.40
409.11	2314.79
409.30	2216.49
409.49	2167.34
409.68	2279.68
409.87	2246.91
410.07	2392.03
410.26	2326.49
410.45	2354.58
410.64	2459.90
410.83	2523.10
411.02	2506.71
411.21	2544.16
411.40	2499.69
411.59	2567.57
411.78	2537.14
411.98	2581.61
412.17	2633.10
412.36	2799.28
412.55	2722.04
412.74	2806.30
412.93	2836.73
413.12	2729.06
413.31	2911.63
413.50	2754.81
413.69	2752.47
413.88	2939.71
414.07	2864.82
414.26	2946.73
414.45	2993.55
414.64	2963.12
414.83	3054.40
415.02	3000.57
415.22	3101.21
415.41	3052.06
415.60	2988.86
415.79	3208.87
415.98	3332.92
416.17	3323.56
416.36	3129.30
416.55	3187.81
416.74	3353.99
416.93	3171.43
417.12	3236.96
417.31	3295.47
417.50	3353.99
417.69	3449.95
417.88	3506.12
418.07	3449.95
418.26	3400.80
418.45	3403.14
418.64	3602.08
418.83	3637.19
419.02	3431.23
419.21	3555.27
419.39	3599.74
419.58	3417.18
419.77	3536.55
419.96	3618.47
420.15	3660.60
420.34	3672.30
420.53	3950.82
420.72	3784.65
420.91	3815.07
421.10	3922.74
421.29	3857.20
421.48	3723.79
421.67	3892.31
421.86	3829.12
422.05	3728.47
422.24	3691.02
422.43	3777.62
422.61	3906.35
422.80	3983.59
422.99	3899.33
423.18	3896.99
423.37	3941.46
423.56	4056.15
423.75	3866.56
423.94	3728.47
424.13	3728.47
424.32	3749.54
424.50	3847.84
424.69	3995.29
424.88	3974.23
425.07	3899.33
425.26	3737.84
425.45	3810.39
425.64	3983.59
425.83	3850.18
426.01	4060.83
426.20	3918.06
426.39	4088.92
426.58	3990.61
426.77	3948.48
426.96	3955.51
427.15	3941.46
427.33	4018.70
427.52	4058.49
427.71	4156.79
427.90	4079.55
428.09	4119.34
428.28	4189.56
428.46	3988.27
428.65	4203.60
428.84	4170.83
429.03	4198.92
429.22	4168.49
429.40	4074.87
429.59	4170.83
429.78	3974.23
429.97	3904.01
430.16	3960.19
430.34	4194.24
430.53	4166.15
430.72	4140.41
430.91	4358.08
431.10	4400.21
431.28	4428.29
431.47	4779.37
431.66	4692.77
431.85	4716.18
432.03	4601.49
432.22	4720.86
432.41	4631.92
432.60	4702.14
432.79	4594.47
432.97	4732.56
433.16	4711.50
433.35	4676.39
433.54	4669.37
433.72	4865.97
433.91	4552.34
434.10	4720.86
434.28	4765.33
434.47	4847.25
434.66	4938.53
434.85	4999.38
435.03	4898.74
435.22	4865.97
435.41	5167.90
435.59	5078.96
435.78	5020.45
435.97	5097.69
436.16	5041.51
436.34	4985.34
436.53	5074.28
436.72	5224.08
436.90	5135.14
437.09	5266.21
437.28	5163.22
437.46	5214.71
437.65	5252.16
437.84	5203.01
438.02	5043.85
438.21	5228.76
438.40	5109.39
438.58	5341.10
438.77	5371.53
438.96	5413.66
439.14	5479.19
439.33	5633.67
439.52	5647.71
439.70	5689.84
439.89	5652.39
440.08	5542.39
440.26	5617.29
440.45	5729.63
440.63	5865.38
440.82	5987.09
441.01	5797.51
441.19	5771.76
441.38	5858.36
441.57	6087.73
441.75	6183.70
441.94	6260.93
442.12	6190.72
442.31	6387.32
442.50	6380.30
442.68	6237.53
442.87	6380.30
443.05	6143.91
443.24	6345.19
443.43	6310.08
443.61	6263.27
443.80	6635.42
443.98	6270.30
444.17	6232.85
444.35	6499.67
444.54	6677.55
444.73	6509.03
444.91	6469.24
445.10	6403.71
445.28	6296.04
445.47	6434.13
445.65	6317.11
445.84	6553.50
446.02	6480.94
446.21	6509.03
446.39	6527.75
446.58	6654.14
446.77	6661.16
446.95	6497.33
447.14	6658.82
447.32	6663.51
447.51	6574.56
447.69	6637.76
447.88	6562.86
448.06	6590.95
448.25	6677.55
448.43	6633.08
448.62	6637.76
448.80	6754.79
448.99	6686.91
449.17	6839.05
449.36	6705.63
449.54	7012.24
449.73	7059.06
449.91	7009.90
450.10	7138.63
450.28	7391.41
450.46	7066.08
450.65	7077.78
450.83	7337.58
451.02	7126.93
451.20	7159.70
451.39	7178.42
451.57	7117.57
451.76	7007.56
451.94	7307.15
452.13	7162.04
452.31	7227.57
452.49	7131.61
452.68	7290.77
452.86	7143.32
453.05	7176.08
453.23	7389.07
453.42	7325.88
453.60	7431.20
453.78	7262.68
453.97	7492.05
454.15	7323.54
454.34	7236.94
454.52	7433.54
454.70	7510.78
454.89	7578.65
455.07	7688.66
455.26	7456.95
455.44	7611.42
455.62	7669.94
455.81	7812.71
455.99	7826.75
456.17	7779.94
456.36	7854.84
456.54	7843.14
456.73	7805.69
456.91	8219.96
457.09	8098.25
457.28	8072.51
457.46	7960.16
457.64	8241.03
457.83	8215.28
458.01	8084.21
458.19	8215.28
458.38	8133.36
458.56	8201.24
458.74	8269.11
458.93	8189.53
459.11	8044.42
459.29	8105.28
459.48	8421.25
459.66	8301.88
459.84	8360.39
460.03	8367.42
460.21	8442.31
460.39	8407.20
460.57	8355.71
460.76	8444.65
460.94	8702.11
461.12	8545.30
461.31	8582.74
461.49	8578.06
461.67	8751.26
461.85	8720.84
462.04	8758.28
462.22	9137.45
462.40	8929.14
462.59	8772.33
462.77	8807.44
462.95	8896.38
463.13	8798.07
463.32	8870.63
463.50	9139.79
463.68	9046.17
463.86	8908.08
464.05	8784.03
464.23	8727.86
464.41	8959.57
464.59	8982.98
464.78	9008.72
464.96	9029.79
465.14	9015.74
465.32	9158.52
465.50	9188.94
465.69	9294.27
465.87	9118.73
466.05	9228.73
466.23	9179.58
466.41	9444.06
466.60	9205.33
466.78	9256.82
466.96	9186.60
467.14	9137.45
467.32	9341.08
467.51	9362.14
467.69	9111.71
467.87	9394.91
468.05	9589.17
468.23	9514.28
468.41	9387.89
468.60	9390.23
468.78	9535.34
468.96	9516.62
469.14	9668.75
469.32	9830.25
469.50	9394.91
469.69	9694.50
469.87	9540.02
470.05	9853.66
470.23	9774.08
470.41	9764.72
470.59	9741.31
470.77	9916.85
470.95	9846.63
471.14	10148.56
471.32	10078.35
471.50	10239.84
471.68	10310.06
471.86	10061.96
472.04	10352.19
472.22	10724.33
472.40	10417.72
472.58	10218.78
472.77	10305.38
472.95	10621.35
473.13	10888.17
473.31	10539.43
473.49	10546.45
473.67	10619.01
473.85	10682.20
474.03	10785.19
474.21	10682.20
474.39	10986.47
474.57	11098.82
474.75	11061.37
474.93	10857.75
475.12	11042.65
475.30	11126.91
475.48	11353.94
475.66	11389.05
475.84	11613.74
476.02	11449.90
476.20	11370.32
476.38	11564.59
476.56	11698.00
476.74	11910.99
476.92	11578.63
477.10	11793.96
477.28	12241.00
477.46	11901.62
477.64	12166.10
477.82	12343.99
478.00	12709.11
478.18	12367.39
478.36	12512.50
478.54	12664.64
478.72	12856.56
478.90	12908.05
479.08	12884.65
479.26	12973.59
479.44	13231.05
479.62	13310.63
479.80	13317.65
479.98	13331.69
480.16	13554.04
480.34	13554.04
480.52	13750.65
480.70	13961.30
480.88	13659.37
481.06	13741.29
481.24	14057.26
481.41	14235.14
481.59	14366.21
481.77	14377.91
481.95	14342.80
482.13	14574.52
482.31	14544.09
482.49	14614.30
482.67	14757.08
482.85	14815.59
483.03	15044.96
483.21	15344.55
483.39	15150.29
483.57	15454.56
483.74	15452.22
483.92	15578.61
484.10	15346.89
484.28	15819.68
484.46	16044.37
484.64	16196.51
484.82	16166.08
485.00	16152.04
485.18	16526.52
485.35	16582.70
485.53	16381.41
485.71	16240.98
485.89	16706.74
486.07	16365.03
486.25	16884.62
486.43	17076.55
486.61	17156.13
486.78	17369.12
486.96	17432.31
487.14	17818.50
487.32	17687.43
487.50	17837.22
487.68	18033.83
487.85	18321.71
488.03	18338.10
488.21	18555.77
488.39	18712.58
488.57	18633.00
488.75	18941.96
488.92	19080.05
489.10	19276.65
489.28	19337.51
489.46	19824.34
489.64	19576.24
489.81	20081.80
489.99	20046.69
490.17	20142.65
490.35	20147.33
490.53	20126.27
490.70	20269.04
490.88	20704.38
491.06	20849.49
491.24	20617.78
491.41	20786.30
491.59	20938.43
491.77	20751.19
491.95	21120.99
492.13	21298.88
492.30	21298.88
492.48	21490.80
492.66	21699.11
492.84	21785.71
493.01	22073.59
493.19	21785.71
493.37	22225.73
493.54	22270.20
493.72	22757.03
493.90	22504.25
494.08	22860.01
494.25	23384.29
494.43	23288.33
494.61	23335.14
494.79	23468.55
494.96	22874.06
495.14	23349.18
495.32	23393.65
495.49	23798.57
495.67	24130.92
495.85	23920.28
496.02	24273.70
496.20	24348.59
496.38	24393.06
496.55	24554.56
496.73	25113.95
496.91	24552.22
497.09	25076.50
497.26	24994.58
497.44	24847.13
497.62	24959.47
497.79	25261.40
497.97	25247.36
498.14	25076.50
498.32	25832.49
498.50	25413.54
498.67	26047.82
498.85	26103.99
499.03	26679.77
499.20	26366.13
499.38	26279.54
499.56	26623.59
499.73	26635.30
499.91	26263.15
500.08	26572.10
500.26	26501.89
500.44	26621.25
500.61	26600.19
500.79	26565.08
500.97	26993.40
501.14	27309.37
501.32	27260.22
501.49	27295.33
501.67	27194.68
501.84	27356.18
502.02	27517.68
502.20	27784.50
502.37	27936.63
502.55	27555.13
502.72	28147.28
502.90	28020.89
503.07	27967.06
503.25	28060.68
503.43	28404.74
503.60	28102.81
503.78	28119.20
503.95	28463.25
504.13	28723.05
504.30	28636.45
504.48	28987.53
504.65	29120.95
504.83	29006.26
505.01	29046.05
505.18	29083.50
505.36	29504.79
505.53	29273.08
505.71	29675.65
505.88	29570.33
506.06	29738.85
506.23	29741.19
506.41	29734.17
506.58	29823.11
506.76	30066.52
506.93	30174.19
507.11	30251.42
507.28	30256.11
507.46	29975.24
507.63	30202.27
507.81	30235.04
507.98	30307.60
508.16	30754.64
508.33	30843.58
508.50	30866.98
508.68	30958.27
508.85	31325.73
509.03	30988.69
509.20	31112.74
509.38	31349.14
509.55	31374.88
509.73	31536.38
509.90	31489.57
510.08	31459.14
510.25	31545.74
510.42	31409.99
510.60	31723.62
510.77	31817.24
510.95	32088.74
511.12	32016.19
511.30	31945.97
511.47	32250.24
511.64	32608.34
511.82	32418.76
511.99	32458.55
512.17	32503.02
512.34	32259.60
512.51	33156.03
512.69	32783.88
512.86	32959.42
513.04	33076.45
513.21	32924.32
513.38	33167.73
513.56	33010.92
513.73	33067.09
513.90	33013.26
514.08	32884.53
514.25	33338.59
514.43	33172.41
514.60	33362.00
514.77	33710.74
514.95	33614.77
515.12	33797.34
515.29	33572.64
515.47	34298.21
515.64	34223.31
515.81	33652.22
515.99	33947.13
516.16	33799.68
516.33	33525.83
516.51	33792.65
516.68	33596.05
516.85	33818.40
517.03	33706.05
517.20	34134.37
517.37	34424.60
517.54	34466.73
517.72	34656.31
517.89	34265.44
518.06	34436.30
518.24	34059.48
518.41	34284.17
518.58	34508.86
518.75	34710.14
518.93	34913.77
519.10	35185.27
519.27	35475.50
519.45	35115.06
519.62	35318.68
519.79	35803.17
519.96	35211.02
520.14	35721.26
520.31	35304.64
520.48	35810.20
520.65	35456.78
520.83	36460.87
521.00	35810.20
521.17	35789.13
521.34	36236.17
521.52	36484.27
521.69	35896.80
521.86	36503.00
522.03	36556.83
522.20	36622.36
522.38	36416.40
522.55	36603.64
522.72	36486.61
522.89	36533.42
523.07	36964.08
523.24	36947.70
523.41	36950.04
523.58	36830.67
523.75	37467.30
523.92	37420.48
524.10	37282.39
524.27	37436.87
524.44	37528.15
524.61	37628.79
524.78	37600.71
524.96	37670.92
525.13	37727.10
525.30	38094.56
525.47	38139.03
525.64	37715.39
525.81	37745.82
525.98	37834.76
526.16	37640.50
526.33	37570.28
526.50	38099.24
526.67	37460.27
526.84	38045.41
527.01	37851.14
527.18	37846.46
527.36	38220.95
527.53	38132.01
527.70	38382.45
527.87	38691.40
528.04	38813.10
528.21	38651.61
528.38	38799.06
528.55	38923.11
528.72	38773.31
528.89	39213.34
529.07	38794.38
529.24	39056.52
529.41	38817.78
529.58	38562.67
529.75	39072.90
529.92	39257.81
530.09	39463.77
530.26	39395.90
530.43	39487.18
530.60	39625.27
530.77	39433.35
530.94	39962.31
531.11	39068.22
531.28	39449.73
531.46	39789.11
531.63	39906.13
531.80	39533.99
531.97	39962.31
532.14	39487.18
532.31	39344.41
532.48	39913.16
532.65	40177.64
532.82	39938.90
532.99	40126.14
533.16	40116.78
533.33	39761.02
533.50	40552.12
533.67	39878.05
533.84	39913.16
534.01	40416.37
534.18	40304.02
534.35	40711.28
534.52	40219.77
534.69	40254.87
534.86	40662.13
535.03	40392.97
535.20	40737.02
535.37	41151.30
535.54	41057.68
535.71	40678.51
535.88	40704.26
536.05	40905.54
536.22	40804.90
536.38	40959.38
536.55	40971.08
536.72	41031.93
536.89	40624.68
537.06	40982.78
537.23	41188.75
537.40	41212.15
537.57	41680.26
537.74	41476.63
537.91	41804.31
538.08	41598.34
538.25	41273.01
538.42	41406.42
538.59	41846.44
538.75	41429.82
538.92	41399.40
539.09	41600.68
539.26	41804.31
539.43	41455.57
539.60	41366.63
539.77	41792.61
539.94	41773.88
540.11	41371.31
540.28	42061.77
540.44	41811.33
540.61	41717.71
540.78	41462.59
540.95	41654.51
541.12	41808.99
541.29	41982.19
541.46	42031.34
541.62	42113.26
541.79	42328.59
541.96	41937.72
542.13	42375.40
542.30	42471.36
542.47	42054.75
542.63	42377.74
542.80	42155.39
542.97	42714.78
543.14	42887.98
543.31	42848.19
543.48	43007.34
543.64	43545.67
543.81	43592.48
543.98	42948.83
544.15	42506.47
544.32	43316.29
544.48	43257.78
544.65	42719.46
544.82	43491.83
544.99	43140.75
545.16	43096.28
545.32	43168.84
545.49	43353.74
545.66	43269.48
545.83	43576.09
546.00	43491.83
546.16	43885.04
546.33	43517.58
546.50	42920.74
546.67	42967.55
546.83	43227.35
547.00	43098.62
547.17	43934.20
547.34	43681.42
547.50	43395.87
547.67	43988.03
547.84	43796.10
548.00	43894.41
548.17	44079.31
548.34	43749.29
548.51	43908.45
548.67	44194.00
548.84	43894.41
549.01	44058.24
549.18	44062.93
549.34	44060.58
549.51	44727.64
549.68	44217.40
549.84	44486.56
550.01	44168.25
550.18	43873.34
550.34	44472.52
550.51	44378.90
550.68	43943.56
550.84	44142.50
551.01	44360.17
551.18	44189.31
551.34	44140.16
551.51	44299.32
551.68	44715.93
551.84	44715.93
552.01	44493.58
552.18	44334.43
552.34	44011.43
552.51	44531.03
552.68	44524.01
552.84	44446.77
553.01	44973.39
553.18	44861.05
553.34	44432.73
553.51	44641.04
553.67	45111.49
553.84	45436.82
554.01	45591.30
554.17	45710.66
554.34	45207.45
554.51	45443.84
554.67	45434.48
554.84	44954.67
555.00	44825.94
555.17	44835.30
555.33	45212.13
555.50	44999.14
555.67	45074.04
555.83	45214.47
556.00	45034.25
556.16	45694.28
556.33	45296.39
556.50	45272.98
556.66	45556.19
556.83	45036.59
556.99	44924.24
557.16	45221.49
557.32	45364.26
557.49	45296.39
557.65	45170.00
557.82	44982.76
557.98	45031.91
558.15	45738.75
558.32	45212.13
558.48	45563.21
558.65	45294.05
558.81	45319.79
558.98	45483.63
559.14	45448.52
559.31	45457.88
559.47	45411.07
559.64	45375.97
559.80	45832.37
559.97	45595.98
560.13	45392.35
560.30	45619.38
560.46	45518.74
560.63	46108.55
560.79	45923.65
560.96	45567.89
561.12	45780.88
561.29	45684.92
561.45	45509.38
561.61	46129.62
561.78	45673.21
561.94	45818.33
562.11	45361.92
562.27	46052.38
562.44	45518.74
562.60	45862.80
562.77	45977.48
562.93	45937.69
563.10	46295.80
563.26	45947.06
563.42	46419.84
563.59	46026.63
563.75	46103.87
563.92	45703.64
564.08	45752.79
564.24	46377.72
564.41	46157.70
564.57	46038.34
564.74	45818.33
564.90	46258.35
565.07	46021.95
565.23	46003.23
565.39	45949.40
565.56	46277.07
565.72	45858.12
565.88	46246.65
566.05	46028.98
566.21	46190.47
566.38	45757.47
566.54	46150.68
566.70	46600.07
566.87	46562.62
567.03	46153.02
567.19	46340.27
567.36	45977.48
567.52	46188.13
567.68	46618.79
567.85	46335.59
568.01	46143.66
568.17	45818.33
568.34	46101.53
568.50	46213.88
568.66	46279.41
568.83	46326.22
568.99	46185.79
569.15	46052.38
569.32	46113.23
569.48	46206.86
569.64	46281.75
569.81	46464.32
569.97	45958.76
570.13	45909.61
570.30	46057.06
570.46	46038.34
570.62	46026.63
570.78	45942.38
570.95	46185.79
571.11	46642.20
571.27	46403.46
571.43	46101.53
571.60	46319.20
571.76	46218.56
571.92	46160.05
572.09	46543.89
572.25	46628.15
572.41	46323.88
572.57	46670.28
572.74	47164.14
572.90	46270.05
573.06	46445.59
573.22	46394.10
573.38	46216.22
573.55	46457.29
573.71	46588.36
573.87	46380.06
574.03	46405.80
574.20	46607.09
574.36	46639.86
574.52	46316.86
574.68	46291.12
574.84	46391.76
575.01	46291.12
575.17	46354.31
575.33	46106.21
575.49	46351.97
575.65	46663.26
575.82	46857.52
575.98	46689.01
576.14	46660.92
576.30	46560.28
576.46	46403.46
576.62	46127.28
576.79	46471.34
576.95	45972.80
577.11	46504.10
577.27	46681.98
577.43	46454.95
577.59	46557.94
577.75	46366.01
577.92	45986.85
578.08	46543.89
578.24	46316.86
578.40	46155.36
578.56	46260.69
578.72	46291.12
578.88	46426.87
579.04	46658.58
579.21	46307.50
579.37	46417.50
579.53	46295.80
579.69	46241.96
579.85	46810.71
580.01	46653.90
580.17	46735.82
580.33	46717.09
580.49	46841.14
580.65	46824.76
580.82	46663.26
580.98	46302.82
581.14	46417.50
581.30	46974.55
581.46	46618.79
581.62	46951.15
581.78	46307.50
581.94	47061.15
582.10	46562.62
582.26	46604.75
582.42	46443.25
582.58	46841.14
582.74	46349.63
582.90	46719.43
583.06	46632.83
583.22	46335.59
583.38	46703.05
583.54	46824.76
583.70	46218.56
583.86	46602.41
584.02	46403.46
584.18	47004.98
584.34	46646.88
584.50	46417.50
584.66	46176.43
584.82	46466.66
584.98	46714.75
585.14	46218.56
585.30	46497.08
585.46	46731.14
585.62	46298.14
585.78	46651.56
585.94	46199.83
586.10	46232.60
586.26	46560.28
586.42	46777.95
586.58	46791.99
586.74	46471.34
586.90	46820.08
587.06	46773.27
587.22	47016.68
587.38	46494.74
587.54	46635.17
587.70	46698.37
587.86	46892.63
588.02	46639.86
588.18	46948.81
588.34	46604.75
588.49	46326.22
588.65	45893.22
588.81	46026.63
588.97	46195.15
589.13	46583.68
589.29	46429.21
589.45	46436.23
589.61	46492.40
589.77	46899.65
589.93	46611.77
