SpectraSuite Data File
++++++++++++++++++++++++++++++++++++
Date: Fri Oct 25 11:34:12 EDT 2013
User: price-jones
Dark Spectrum Present: No
Reference Spectrum Present: No
Number of Sampled Component Spectra: 1
Spectrometers: USB2+H05261
Integration Time (usec): 100000 (USB2+H05261)
Spectra Averaged: 1 (USB2+H05261)
Boxcar Smoothing: 0 (USB2+H05261)
Correct for Electrical Dark: No (USB2+H05261)
Strobe/Lamp Enabled: No (USB2+H05261)
Correct for Detector Non-linearity: No (USB2+H05261)
Correct for Stray Light: No (USB2+H05261)
Number of Pixels in Processed Spectrum: 2048
>>>>>Begin Processed Spectral Data<<<<<
365.73	241.08
365.92	241.08
366.12	241.08
366.32	159.16
366.52	196.60
366.72	212.99
366.91	117.03
367.11	152.13
367.31	168.52
367.51	187.24
367.70	140.43
367.90	217.67
368.10	159.16
368.30	205.97
368.49	128.73
368.69	250.44
368.89	189.58
369.09	196.60
369.28	241.08
369.48	138.09
369.68	231.71
369.87	236.39
370.07	273.84
370.27	299.59
370.47	383.85
370.66	557.05
370.86	526.62
371.06	575.77
371.25	552.37
371.45	503.22
371.65	592.16
371.84	594.50
372.04	514.92
372.24	543.00
372.44	559.39
372.63	617.90
372.83	655.35
373.03	524.28
373.22	543.00
373.42	615.56
373.62	596.84
373.81	631.94
374.01	676.41
374.21	645.99
374.40	650.67
374.60	667.05
374.79	697.48
374.99	699.82
375.19	645.99
375.38	634.29
375.58	617.90
375.78	631.94
375.97	620.24
376.17	601.52
376.37	645.99
376.56	685.78
376.76	683.44
376.95	727.91
377.15	610.88
377.35	669.39
377.54	704.50
377.74	603.86
377.93	685.78
378.13	713.86
378.33	706.84
378.52	697.48
378.72	662.37
378.91	720.88
379.11	716.20
379.31	683.44
379.50	620.24
379.70	699.82
379.89	746.63
380.09	613.22
380.28	674.07
380.48	727.91
380.68	805.14
380.87	739.61
381.07	746.63
381.26	798.12
381.46	753.65
381.65	781.74
381.85	711.52
382.04	685.78
382.24	706.84
382.43	720.88
382.63	823.87
382.83	765.36
383.02	772.38
383.22	800.46
383.41	751.31
383.61	821.53
383.80	844.93
384.00	847.27
384.19	826.21
384.39	772.38
384.58	821.53
384.78	814.51
384.97	870.68
385.17	793.44
385.36	784.08
385.56	819.19
385.75	823.87
385.95	819.19
386.14	828.55
386.34	842.59
386.53	795.78
386.72	851.96
386.92	889.40
387.11	938.55
387.31	887.06
387.50	912.81
387.70	917.49
387.89	901.11
388.09	849.61
388.28	873.02
388.48	922.17
388.67	987.71
388.86	884.72
389.06	863.66
389.25	978.34
389.45	957.28
389.64	894.08
389.84	968.98
390.03	936.21
390.22	947.92
390.42	861.32
390.61	833.23
390.81	931.53
391.00	945.58
391.19	959.62
391.39	961.96
391.58	994.73
391.78	966.64
391.97	1015.79
392.16	1011.11
392.36	1018.13
392.55	1043.88
392.75	954.94
392.94	1008.77
393.13	1053.24
393.33	1053.24
393.52	1025.15
393.71	1088.35
393.91	1032.18
394.10	1083.67
394.29	1109.41
394.49	1086.01
394.68	1109.41
394.88	1139.84
395.07	1198.35
395.26	1102.39
395.46	1109.41
395.65	1210.06
395.84	1153.88
396.04	1163.25
396.23	1196.01
396.42	1228.78
396.62	1184.31
396.81	1203.04
397.00	1093.03
397.19	1146.86
397.39	1270.91
397.58	1294.32
397.77	1188.99
397.97	1261.55
398.16	1327.08
398.35	1282.61
398.55	1338.79
398.74	1240.48
398.93	1259.21
399.12	1273.25
399.32	1280.27
399.51	1266.23
399.70	1320.06
399.90	1324.74
400.09	1336.45
400.28	1291.98
400.47	1341.13
400.67	1399.64
400.86	1441.77
401.05	1427.73
401.24	1343.47
401.44	1418.36
401.63	1397.30
401.82	1425.39
402.01	1409.00
402.21	1418.36
402.40	1411.34
402.59	1497.94
402.78	1511.99
402.97	1472.20
403.17	1507.30
403.36	1490.92
403.55	1547.09
403.74	1584.54
403.93	1640.72
404.13	1591.56
404.32	1596.25
404.51	1521.35
404.70	1636.03
404.89	1605.61
405.09	1610.29
405.28	1603.27
405.47	1631.35
405.66	1519.01
405.85	1680.50
406.05	1629.01
406.24	1673.48
406.43	1685.19
406.62	1778.81
406.81	1823.28
407.00	1762.42
407.20	1689.87
407.39	1743.70
407.58	1809.23
407.77	1781.15
407.96	1790.51
408.15	1818.60
408.34	1842.00
408.54	1954.35
408.73	1877.11
408.92	1858.39
409.11	2008.18
409.30	1891.15
409.49	1912.22
409.68	2003.50
409.87	2064.35
410.07	2050.31
410.26	2066.69
410.45	1933.28
410.64	1956.69
410.83	2057.33
411.02	2064.35
411.21	2143.93
411.40	2031.58
411.59	2101.80
411.78	2216.49
411.98	2160.31
412.17	2176.70
412.36	2279.68
412.55	2235.21
412.74	2377.98
412.93	2256.28
413.12	2239.89
413.31	2459.90
413.50	2333.51
413.69	2275.00
413.88	2406.07
414.07	2443.52
414.26	2511.39
414.45	2534.80
414.64	2527.78
414.83	2609.70
415.02	2569.91
415.22	2523.10
415.41	2546.50
415.60	2586.29
415.79	2654.17
415.98	2736.09
416.17	2656.51
416.36	2663.53
416.55	2628.42
416.74	2766.51
416.93	2722.04
417.12	2719.70
417.31	2803.96
417.50	2661.19
417.69	2808.64
417.88	2867.16
418.07	2876.52
418.26	2850.77
418.45	2911.63
418.64	3030.99
418.83	3068.44
419.02	2949.08
419.21	2937.37
419.39	3047.38
419.58	2946.73
419.77	2972.48
419.96	3112.91
420.15	3070.78
420.34	3183.13
420.53	3122.27
420.72	3183.13
420.91	3176.11
421.10	3131.64
421.29	3213.56
421.48	3173.77
421.67	3157.38
421.86	3222.92
422.05	3253.34
422.24	3227.60
422.43	3276.75
422.61	3169.09
422.80	3218.24
422.99	3330.58
423.18	3356.33
423.37	3375.05
423.56	3445.27
423.75	3419.52
423.94	3325.90
424.13	3162.06
424.32	3173.77
424.50	3295.47
424.69	3353.99
424.88	3337.60
425.07	3351.65
425.26	3365.69
425.45	3323.56
425.64	3215.90
425.83	3407.82
426.01	3396.12
426.20	3438.25
426.39	3445.27
426.58	3496.76
426.77	3332.92
426.96	3438.25
427.15	3463.99
427.33	3410.16
427.52	3461.65
427.71	3517.83
427.90	3574.00
428.09	3541.23
428.28	3494.42
428.46	3492.08
428.65	3559.95
428.84	3730.81
429.03	3779.97
429.22	3538.89
429.40	3700.39
429.59	3716.77
429.78	3590.38
429.97	3583.36
430.16	3714.43
430.34	3714.43
430.53	3763.58
430.72	3768.26
430.91	3761.24
431.10	3754.22
431.28	3960.19
431.47	3922.74
431.66	3948.48
431.85	3920.40
432.03	3957.85
432.22	3955.51
432.41	3967.21
432.60	3829.12
432.79	3868.91
432.97	3936.78
433.16	4011.68
433.35	4077.21
433.54	4056.15
433.72	4107.64
433.91	4212.96
434.10	4095.94
434.28	4042.11
434.47	4077.21
434.66	4194.24
434.85	4264.46
435.03	4337.01
435.22	4243.39
435.41	4461.06
435.59	4224.67
435.78	4351.06
435.97	4311.27
436.16	4234.03
436.34	4313.61
436.53	4451.70
436.72	4519.57
436.90	4262.12
437.09	4322.97
437.28	4257.43
437.46	4381.48
437.65	4372.12
437.84	4531.28
438.02	4575.75
438.21	4468.08
438.40	4437.66
438.58	4601.49
438.77	4627.24
438.96	4652.98
439.14	4739.58
439.33	4727.88
439.52	4849.59
439.70	4840.23
439.89	4994.70
440.08	4947.89
440.26	4915.12
440.45	4765.33
440.63	4954.91
440.82	5064.92
441.01	5046.20
441.19	4933.85
441.38	4971.30
441.57	5109.39
441.75	5076.62
441.94	5254.50
442.12	5107.05
442.31	5263.86
442.50	5114.07
442.68	5313.02
442.87	5294.29
443.05	5287.27
443.24	5486.22
443.43	5420.68
443.61	5521.32
443.80	5582.18
443.98	5287.27
444.17	5170.24
444.35	5380.89
444.54	5535.37
444.73	5359.83
444.91	5486.22
445.10	5390.25
445.28	5437.06
445.47	5507.28
445.65	5448.77
445.84	5741.33
446.02	5628.99
446.21	5526.00
446.39	5542.39
446.58	5572.82
446.77	5682.82
446.95	5420.68
447.14	5753.04
447.32	5570.48
447.51	5558.77
447.69	5547.07
447.88	5589.20
448.06	5607.92
448.25	5518.98
448.43	5776.44
448.62	5551.75
448.80	5589.20
448.99	5762.40
449.17	5743.67
449.36	5685.16
449.54	5935.60
449.73	5940.28
449.91	5951.98
450.10	6106.46
450.28	5928.58
450.46	6029.22
450.65	5998.79
450.83	5977.73
451.02	6069.01
451.20	6101.78
451.39	6017.52
451.57	5916.87
451.76	6080.71
451.94	6080.71
452.13	6085.39
452.31	6057.31
452.49	6209.44
452.68	6134.54
452.86	6092.41
453.05	6277.32
453.23	6253.91
453.42	6183.70
453.60	6080.71
453.78	6340.51
453.97	6125.18
454.15	6148.59
454.34	6284.34
454.52	6274.98
454.70	6340.51
454.89	6466.90
455.07	6546.48
455.26	6459.88
455.44	6434.13
455.62	6534.78
455.81	6558.18
455.99	6654.14
456.17	6677.55
456.36	6558.18
456.54	6555.84
456.73	6642.44
456.91	6691.59
457.09	6808.62
457.28	7098.84
457.46	6855.43
457.64	6834.36
457.83	6855.43
458.01	6766.49
458.19	6951.39
458.38	6846.07
458.56	7054.37
458.74	6939.69
458.93	7098.84
459.11	7185.44
459.29	6909.26
459.48	7005.22
459.66	7002.88
459.84	7042.67
460.03	7325.88
460.21	7222.89
460.39	7070.76
460.57	7169.06
460.76	7391.41
460.94	7241.62
461.12	7356.30
461.31	7328.22
461.49	7485.03
461.67	7419.50
461.85	7372.69
462.04	7424.18
462.22	7939.10
462.40	7410.14
462.59	7555.25
462.77	7524.82
462.95	7676.96
463.13	7566.95
463.32	7676.96
463.50	7747.17
463.68	7779.94
463.86	7595.04
464.05	7508.44
464.23	7618.44
464.41	7793.98
464.59	7503.76
464.78	7889.95
464.96	7777.60
465.14	7573.97
465.32	7761.22
465.50	7920.37
465.69	7960.16
465.87	7964.84
466.05	7763.56
466.23	7887.61
466.41	7901.65
466.60	8109.96
466.78	8032.72
466.96	8124.00
467.14	7913.35
467.32	8018.68
467.51	8271.45
467.69	7918.03
467.87	8002.29
468.05	8142.72
468.23	7815.05
468.41	8032.72
468.60	8334.65
468.78	8402.52
468.96	8306.56
469.14	8297.20
469.32	8461.04
469.50	8074.85
469.69	8620.19
469.87	8755.94
470.05	8613.17
470.23	8603.81
470.41	8606.15
470.59	8617.85
470.77	8510.19
470.95	8547.64
471.14	8926.80
471.32	8674.03
471.50	8772.33
471.68	8868.29
471.86	9081.28
472.04	8844.88
472.22	9001.70
472.40	8971.27
472.58	8973.61
472.77	8975.95
472.95	8919.78
473.13	9069.58
473.31	9064.89
473.49	9146.81
473.67	9217.03
473.85	9387.89
474.03	9334.06
474.21	9511.94
474.39	9521.30
474.57	9334.06
474.75	9509.60
474.93	9603.22
475.12	9682.80
475.30	9799.82
475.48	9837.27
475.66	9837.27
475.84	9731.95
476.02	9891.10
476.20	9848.97
476.38	10061.96
476.56	10211.76
476.74	10373.25
476.92	9994.09
477.10	10258.57
477.28	10354.53
477.46	10565.18
477.64	10452.83
477.82	10719.65
478.00	10927.96
478.18	10796.89
478.36	10808.59
478.54	11009.88
478.72	10836.68
478.90	11073.07
479.08	11232.23
479.26	11302.45
479.44	11452.24
479.62	11176.06
479.80	11468.62
479.98	11716.72
480.16	11903.96
480.34	11906.31
480.52	11950.78
480.70	12006.95
480.88	11817.36
481.06	11810.34
481.24	12142.70
481.41	12351.01
481.59	12418.88
481.77	12287.81
481.95	12444.63
482.13	12556.97
482.31	12716.13
482.49	12959.55
482.67	12823.80
482.85	13081.25
483.03	13050.83
483.21	13149.13
483.39	13437.02
483.57	13444.04
483.74	13446.38
483.92	13862.99
484.10	13537.66
484.28	14045.55
484.46	13940.23
484.64	14483.24
484.82	14019.81
485.00	14265.57
485.18	14518.34
485.35	14759.42
485.53	14345.14
485.71	14544.09
485.89	15274.34
486.07	15037.94
486.25	14747.72
486.43	14757.08
486.61	15051.99
486.78	15480.30
486.96	15370.30
487.14	15761.17
487.32	15489.67
487.50	15906.28
487.68	15751.81
487.85	16327.58
488.03	16276.09
488.21	16552.27
488.39	16418.86
488.57	16472.69
488.75	16545.25
488.92	16898.67
489.10	16964.20
489.28	17130.38
489.46	17469.76
489.64	17275.49
489.81	17881.69
489.99	17729.56
490.17	17879.35
490.35	17975.31
490.53	18108.72
490.70	18164.90
490.88	17989.36
491.06	18448.10
491.24	18448.10
491.41	18331.08
491.59	18808.54
491.77	18661.09
491.95	18904.51
492.13	18981.74
492.30	19159.63
492.48	19288.35
492.66	19075.37
492.84	19213.46
493.01	19520.07
493.19	19323.46
493.37	20072.43
493.54	19831.36
493.72	19747.10
493.90	20060.73
494.08	19932.00
494.25	20119.24
494.43	20409.47
494.61	20524.16
494.79	20610.76
494.96	20594.37
495.14	20957.16
495.32	21092.91
495.49	21165.46
495.67	21181.85
495.85	21521.23
496.02	21561.02
496.20	21521.23
496.38	21823.16
496.55	21722.51
496.73	22258.49
496.91	22199.98
497.09	22125.08
497.26	22321.69
497.44	22401.27
497.62	22773.41
497.79	22895.12
497.97	22700.86
498.14	22597.87
498.32	23030.87
498.50	22958.31
498.67	23379.61
498.85	23438.12
499.03	23264.92
499.20	23442.81
499.38	23679.20
499.56	23564.51
499.73	23475.57
499.91	24002.19
500.08	24086.45
500.26	23807.93
500.44	24322.85
500.61	24369.66
500.79	23791.55
500.97	23868.78
501.14	24493.71
501.32	24687.97
501.49	24507.75
501.67	24329.87
501.84	24608.39
502.02	24840.11
502.20	25170.12
502.37	25057.78
502.55	24830.74
502.72	24989.90
502.90	25312.89
503.07	25142.03
503.25	25132.67
503.43	25151.40
503.60	25661.63
503.78	25460.35
503.95	25509.50
504.13	25678.02
504.30	25706.10
504.48	25963.56
504.65	26094.63
504.83	25956.54
505.01	26445.71
505.18	26263.15
505.36	26448.05
505.53	26340.39
505.71	26878.71
505.88	26841.26
506.06	26679.77
506.23	27084.68
506.41	27058.93
506.58	27332.78
506.76	26885.73
506.93	26899.78
507.11	27028.51
507.28	27501.29
507.46	27590.24
507.63	27615.98
507.81	27751.73
507.98	27789.18
508.16	27789.18
508.33	27889.82
508.50	27948.34
508.68	27798.54
508.85	28133.24
509.03	28566.24
509.20	28151.96
509.38	28491.34
509.55	28301.76
509.73	28208.14
509.90	28353.25
510.08	28531.13
510.25	28531.13
510.42	29127.97
510.60	29008.60
510.77	29340.96
510.95	29291.80
511.12	28788.59
511.30	29347.98
511.47	29060.09
511.64	29167.76
511.82	29333.93
511.99	29436.92
512.17	29682.67
512.34	29516.50
512.51	29582.03
512.69	30061.84
512.86	29511.81
513.04	29874.60
513.21	30096.95
513.38	30075.88
513.56	30471.43
513.73	30139.08
513.90	30700.81
514.08	30068.86
514.25	30522.93
514.43	30747.62
514.60	30930.18
514.77	30539.31
514.95	31178.28
515.12	30742.94
515.29	31267.22
515.47	31194.66
515.64	31505.95
515.81	31056.57
515.99	31164.23
516.16	31608.93
516.33	31302.32
516.51	31803.20
516.68	31461.48
516.85	31564.46
517.03	31503.61
517.20	31594.89
517.37	31747.03
517.54	31772.77
517.72	32154.28
517.89	32002.14
518.06	31906.18
518.24	32018.53
518.41	31831.29
518.58	32093.43
518.75	32098.11
518.93	32444.51
519.10	32645.79
519.27	32545.15
519.45	32659.84
519.62	32849.42
519.79	32978.15
519.96	32842.40
520.14	32835.38
520.31	32563.87
520.48	33158.37
520.65	33369.02
520.83	33507.11
521.00	33670.95
521.17	33558.60
521.34	33844.15
521.52	33687.33
521.69	33280.08
521.86	33818.40
522.03	33687.33
522.20	33736.48
522.38	34052.45
522.55	34038.41
522.72	34471.41
522.89	34157.78
523.07	34291.19
523.24	34206.93
523.41	34380.13
523.58	34246.72
523.75	34967.60
523.92	34307.57
524.10	34843.56
524.27	34436.30
524.44	34586.10
524.61	34792.06
524.78	34974.63
524.96	34958.24
525.13	34801.43
525.30	35309.32
525.47	35196.98
525.64	35026.12
525.81	35328.05
525.98	35688.49
526.16	35522.31
526.33	34822.49
526.50	35353.79
526.67	35576.14
526.84	35267.19
527.01	35548.06
527.18	35796.15
527.36	35428.69
527.53	35534.01
527.70	36133.19
527.87	36114.47
528.04	35896.80
528.21	36105.10
528.38	35868.71
528.55	36872.80
528.72	36212.77
528.89	36048.93
529.07	35821.90
529.24	36271.28
529.41	36203.41
529.58	36442.14
529.75	36027.87
529.92	36388.31
530.09	37055.36
530.26	37003.87
530.43	37006.21
530.60	36390.65
530.77	36589.59
530.94	36870.46
531.11	36814.29
531.28	36779.18
531.46	37083.45
531.63	37036.64
531.80	37055.36
531.97	37127.92
532.14	36793.22
532.31	37345.59
532.48	37649.86
532.65	37483.68
532.82	37427.51
532.99	37401.76
533.16	37497.72
533.33	37689.65
533.50	37427.51
533.67	37888.59
533.84	37120.90
534.01	37769.22
534.18	37640.50
534.35	37958.81
534.52	38054.77
534.69	37907.32
534.86	38639.90
535.03	38335.63
535.20	38174.14
535.37	38256.06
535.54	38733.53
535.71	38375.42
535.88	38541.60
536.05	38408.19
536.22	38911.41
536.38	38518.20
536.55	38288.82
536.72	39051.84
536.89	38487.77
537.06	38785.02
537.23	38946.51
537.40	38841.19
537.57	38665.65
537.74	39047.16
537.91	39459.09
538.08	39154.82
538.25	38667.99
538.42	38691.40
538.59	39311.64
538.75	38946.51
538.92	39477.82
539.09	39381.85
539.26	39299.94
539.43	39395.90
539.60	39969.33
539.77	39580.80
539.94	39606.55
540.11	39281.21
540.28	39580.80
540.44	39372.49
540.61	39871.03
540.78	39658.04
540.95	39772.72
541.12	39772.72
541.29	39646.33
541.46	39782.09
541.62	39548.03
541.79	40175.30
541.96	39725.91
542.13	39950.60
542.30	40404.67
542.47	40350.84
542.63	40142.53
542.80	40751.07
542.97	40643.40
543.14	40706.60
543.31	40727.66
543.48	40596.59
543.64	41064.70
543.81	41251.94
543.98	40596.59
544.15	41090.44
544.32	40985.12
544.48	41137.26
544.65	41127.89
544.82	41385.35
544.99	40456.16
545.16	41411.10
545.32	41502.38
545.49	41368.97
545.66	41294.07
545.83	41397.06
546.00	41659.20
546.16	41193.43
546.33	41469.61
546.50	41301.09
546.67	41694.30
546.83	41387.69
547.00	41539.83
547.17	41436.84
547.34	41137.26
547.50	41893.25
547.67	42347.31
547.84	41720.05
548.00	41989.21
548.17	42136.66
548.34	42164.75
548.51	41937.72
548.67	41935.38
548.84	42178.79
549.01	42117.94
549.18	41811.33
549.34	42328.59
549.51	42433.91
549.68	42459.66
549.84	41603.02
550.01	42506.47
550.18	42375.40
550.34	42518.17
550.51	42520.51
550.68	42277.10
550.84	42141.35
551.01	42572.00
551.18	42887.98
551.34	42309.86
551.51	42782.65
551.68	43072.88
551.84	42581.37
552.01	42707.76
552.18	42611.79
552.34	42433.91
552.51	42876.27
552.68	42747.54
552.84	42478.38
553.01	42817.76
553.18	42850.53
553.34	42916.06
553.51	43093.94
553.67	43030.75
553.84	43239.06
554.01	42925.42
554.17	43501.20
554.34	43154.80
554.51	43213.31
554.67	43543.33
554.84	43304.59
555.00	43295.23
555.17	43070.54
555.33	43615.88
555.50	43473.11
555.67	43346.72
555.83	43501.20
556.00	43681.42
556.16	43718.87
556.33	43779.72
556.50	43578.43
556.66	43969.30
556.83	43840.57
556.99	44020.80
557.16	43751.63
557.32	43674.40
557.49	43995.05
557.65	43562.05
557.82	43632.27
557.98	44030.16
558.15	44074.63
558.32	43746.95
558.48	43931.86
558.65	43775.04
558.81	43847.60
558.98	44119.10
559.14	43744.61
559.31	44109.74
559.47	43714.19
559.64	43943.56
559.80	44034.84
559.97	44542.74
560.13	43398.21
560.30	44322.72
560.46	44584.86
560.63	44320.38
560.79	43868.66
560.96	44208.04
561.12	44657.42
561.29	44495.92
561.45	44519.33
561.61	44570.82
561.78	43988.03
561.94	44172.93
562.11	44060.58
562.27	44402.30
562.44	44378.90
562.60	44741.68
562.77	44582.52
562.93	44676.15
563.10	44725.30
563.26	44816.58
563.42	44910.20
563.59	44411.67
563.75	44694.87
563.92	44388.26
564.08	44531.03
564.24	45024.89
564.41	44577.84
564.57	44704.23
564.74	44711.25
564.90	44795.51
565.07	44973.39
565.23	44980.42
565.39	44641.04
565.56	45034.25
565.72	44868.07
565.88	44959.35
566.05	44781.47
566.21	44891.48
566.38	45139.57
566.54	44879.77
566.70	44687.85
566.87	45570.23
567.03	45081.06
567.19	45184.04
567.36	45287.03
567.52	45162.98
567.68	45153.62
567.85	45125.53
568.01	45694.28
568.17	44671.46
568.34	45280.00
568.50	45727.05
568.66	44718.28
568.83	45158.30
568.99	45265.96
569.15	44844.66
569.32	45130.21
569.48	45312.77
569.64	45406.39
569.81	45656.83
569.97	45544.48
570.13	45460.23
570.30	44809.56
570.46	45378.31
570.62	45354.90
570.78	45656.83
570.95	45368.94
571.11	45975.14
571.27	45134.89
571.43	45542.14
571.60	45500.01
571.76	45544.48
571.92	45766.84
572.09	45289.37
572.25	45677.90
572.41	45488.31
572.57	45741.09
572.74	46047.70
572.90	45357.24
573.06	45799.60
573.22	45617.04
573.38	45970.46
573.55	45605.34
573.71	46024.29
573.87	45556.19
574.03	45223.83
574.20	46232.60
574.36	45759.81
574.52	45724.71
574.68	45514.06
574.84	45900.25
575.01	45916.63
575.17	45984.51
575.33	45900.25
575.49	45495.33
575.65	45497.67
575.82	46021.95
575.98	45584.27
576.14	46064.08
576.30	46078.13
576.46	45914.29
576.62	45450.86
576.79	46036.00
576.95	45411.07
577.11	45865.14
577.27	46038.34
577.43	45757.47
577.59	46010.25
577.75	45600.66
577.92	45413.41
578.08	45923.65
578.24	45804.28
578.40	46155.36
578.56	46052.38
578.72	45975.14
578.88	46108.55
579.04	46363.67
579.21	45666.19
579.37	45823.01
579.53	46195.15
579.69	45588.95
579.85	46223.24
580.01	45663.85
580.17	45509.38
580.33	46073.45
580.49	45979.82
580.65	46288.77
580.82	46117.92
580.98	45925.99
581.14	45581.93
581.30	46155.36
581.46	46169.41
581.62	45855.78
581.78	45904.93
581.94	46146.00
582.10	45823.01
582.26	46157.70
582.42	46213.88
582.58	45965.78
582.74	46075.79
582.90	46019.61
583.06	46298.14
583.22	46178.77
583.38	46284.09
583.54	46092.17
583.70	46153.02
583.86	46054.72
584.02	45769.18
584.18	46211.54
584.34	45888.54
584.50	46607.09
584.66	46153.02
584.82	46096.85
584.98	46483.04
585.14	46375.37
585.30	46019.61
585.46	45996.21
585.62	46129.62
585.78	46024.29
585.94	45584.27
586.10	45694.28
586.26	46038.34
586.42	46356.65
586.58	46637.51
586.74	46288.77
586.90	45717.68
587.06	46117.92
587.22	46731.14
587.38	45921.31
587.54	46487.72
587.70	46478.36
587.86	46555.60
588.02	45998.55
588.18	46658.58
588.34	45954.08
588.49	46258.35
588.65	46148.34
588.81	46092.17
588.97	46417.50
589.13	46241.96
589.29	46557.94
589.45	46497.08
589.61	46543.89
589.77	46639.86
589.93	46319.20
590.08	46595.38
