SpectraSuite Data File
++++++++++++++++++++++++++++++++++++
Date: Fri Oct 25 11:33:45 EDT 2013
User: price-jones
Dark Spectrum Present: No
Reference Spectrum Present: No
Number of Sampled Component Spectra: 1
Spectrometers: USB2+H05261
Integration Time (usec): 100000 (USB2+H05261)
Spectra Averaged: 1 (USB2+H05261)
Boxcar Smoothing: 0 (USB2+H05261)
Correct for Electrical Dark: No (USB2+H05261)
Strobe/Lamp Enabled: No (USB2+H05261)
Correct for Detector Non-linearity: No (USB2+H05261)
Correct for Stray Light: No (USB2+H05261)
Number of Pixels in Processed Spectrum: 2048
>>>>>Begin Processed Spectral Data<<<<<
365.73	299.59
365.92	299.59
366.12	299.59
366.32	205.97
366.52	133.41
366.72	252.78
366.91	166.18
367.11	100.64
367.31	152.13
367.51	173.20
367.70	189.58
367.90	161.50
368.10	156.82
368.30	147.45
368.49	142.77
368.69	189.58
368.89	215.33
369.09	140.43
369.28	145.11
369.48	205.97
369.68	341.72
369.87	234.05
370.07	278.52
370.27	278.52
370.47	283.20
370.66	430.66
370.86	503.22
371.06	524.28
371.25	521.94
371.45	538.32
371.65	550.03
371.84	521.94
372.04	575.77
372.24	552.37
372.44	561.73
372.63	620.24
372.83	608.54
373.03	531.30
373.22	599.18
373.42	592.16
373.62	596.84
373.81	629.60
374.01	709.18
374.21	566.41
374.40	578.11
374.60	554.71
374.79	606.20
374.99	634.29
375.19	566.41
375.38	662.37
375.58	650.67
375.78	741.95
375.97	599.18
376.17	746.63
376.37	641.31
376.56	653.01
376.76	664.71
376.95	718.54
377.15	650.67
377.35	734.93
377.54	702.16
377.74	676.41
377.93	692.80
378.13	692.80
378.33	739.61
378.52	674.07
378.72	727.91
378.91	793.44
379.11	702.16
379.31	760.67
379.50	758.33
379.70	671.73
379.89	781.74
380.09	681.10
380.28	690.46
380.48	725.57
380.68	676.41
380.87	720.88
381.07	699.82
381.26	720.88
381.46	741.95
381.65	737.27
381.85	772.38
382.04	732.59
382.24	793.44
382.43	788.76
382.63	706.84
382.83	725.57
383.02	844.93
383.22	842.59
383.41	844.93
383.61	774.72
383.80	849.61
384.00	784.08
384.19	828.55
384.39	779.40
384.58	807.48
384.78	823.87
384.97	795.78
385.17	734.93
385.36	805.14
385.56	814.51
385.75	809.83
385.95	854.30
386.14	819.19
386.34	788.76
386.53	835.57
386.72	877.70
386.92	889.40
387.11	898.77
387.31	882.38
387.50	868.34
387.70	887.06
387.89	823.87
388.09	964.30
388.28	884.72
388.48	889.40
388.67	919.83
388.86	973.66
389.06	940.90
389.25	915.15
389.45	978.34
389.64	905.79
389.84	994.73
390.03	1022.81
390.22	947.92
390.42	968.98
390.61	1027.50
390.81	1025.15
391.00	1039.20
391.19	1036.86
391.39	1015.79
391.58	1069.62
391.78	1135.16
391.97	1053.24
392.16	1081.33
392.36	1062.60
392.55	1116.44
392.75	1071.97
392.94	1104.73
393.13	990.05
393.33	1086.01
393.52	1069.62
393.71	1214.74
393.91	1071.97
394.10	1128.14
394.29	1111.75
394.49	1083.67
394.68	1153.88
394.88	1160.91
395.07	1088.35
395.26	1188.99
395.46	1163.25
395.65	1235.80
395.84	1111.75
396.04	1184.31
396.23	1221.76
396.42	1200.69
396.62	1287.29
396.81	1294.32
397.00	1186.65
397.19	1287.29
397.39	1205.38
397.58	1242.82
397.77	1324.74
397.97	1259.21
398.16	1228.78
398.35	1224.10
398.55	1263.89
398.74	1289.64
398.93	1313.04
399.12	1348.15
399.32	1282.61
399.51	1336.45
399.70	1348.15
399.90	1277.93
400.09	1348.15
400.28	1444.11
400.47	1296.66
400.67	1364.53
400.86	1453.47
401.05	1462.83
401.24	1458.15
401.44	1420.71
401.63	1530.71
401.82	1453.47
402.01	1481.56
402.21	1544.75
402.40	1533.05
402.59	1444.11
402.78	1572.84
402.97	1535.39
403.17	1490.92
403.36	1558.80
403.55	1547.09
403.74	1493.26
403.93	1481.56
404.13	1575.18
404.32	1640.72
404.51	1640.72
404.70	1682.85
404.89	1605.61
405.09	1689.87
405.28	1687.53
405.47	1685.19
405.66	1778.81
405.85	1724.97
406.05	1720.29
406.24	1668.80
406.43	1788.17
406.62	1806.89
406.81	1797.53
407.00	1781.15
407.20	1839.66
407.39	1856.04
407.58	1870.09
407.77	1867.75
407.96	1921.58
408.15	1802.21
408.34	1926.26
408.54	1746.04
408.73	1935.62
408.92	1947.33
409.11	1933.28
409.30	1930.94
409.49	2010.52
409.68	2029.24
409.87	2026.90
410.07	1991.80
410.26	1942.64
410.45	1998.82
410.64	2092.44
410.83	2127.55
411.02	2115.84
411.21	2237.55
411.40	2190.74
411.59	2230.53
411.78	2176.70
411.98	2251.60
412.17	2282.02
412.36	2204.78
412.55	2392.03
412.74	2471.61
412.93	2392.03
413.12	2363.94
413.31	2558.21
413.50	2359.26
413.69	2363.94
413.88	2516.08
414.07	2450.54
414.26	2527.78
414.45	2499.69
414.64	2628.42
414.83	2551.18
415.02	2686.94
415.22	2597.99
415.41	2670.55
415.60	2773.53
415.79	2717.36
415.98	2747.79
416.17	2743.11
416.36	2747.79
416.55	2715.02
416.74	2841.41
416.93	2860.13
417.12	2801.62
417.31	2984.18
417.50	2850.77
417.69	3066.10
417.88	2909.29
418.07	2890.56
418.26	2916.31
418.45	2946.73
418.64	3033.33
418.83	2967.80
419.02	3047.38
419.21	3094.19
419.39	3082.49
419.58	3148.02
419.77	3040.36
419.96	3152.70
420.15	3241.64
420.34	3183.13
420.53	3314.20
420.72	3199.51
420.91	3253.34
421.10	3255.69
421.29	3229.94
421.48	3389.10
421.67	3269.73
421.86	3164.40
422.05	3454.63
422.24	3449.95
422.43	3379.73
422.61	3377.39
422.80	3330.58
422.99	3501.44
423.18	3311.86
423.37	3574.00
423.56	3297.81
423.75	3407.82
423.94	3405.48
424.13	3122.27
424.32	3288.45
424.50	3398.46
424.69	3492.08
424.88	3574.00
425.07	3471.01
425.26	3454.63
425.45	3471.01
425.64	3407.82
425.83	3459.31
426.01	3480.38
426.20	3337.60
426.39	3419.52
426.58	3442.93
426.77	3487.40
426.96	3419.52
427.15	3524.85
427.33	3691.02
427.52	3581.02
427.71	3627.83
427.90	3674.64
428.09	3674.64
428.28	3770.60
428.46	3735.50
428.65	3576.34
428.84	3789.33
429.03	3843.16
429.22	3576.34
429.40	3805.71
429.59	3686.34
429.78	3669.96
429.97	3737.84
430.16	3885.29
430.34	3822.09
430.53	3962.53
430.72	3805.71
430.91	3866.56
431.10	3962.53
431.28	3978.91
431.47	3885.29
431.66	4161.47
431.85	3857.20
432.03	4025.72
432.22	4039.76
432.41	4037.42
432.60	4074.87
432.79	4121.68
432.97	4184.88
433.16	4163.81
433.35	4070.19
433.54	4245.73
433.72	4236.37
433.91	4210.62
434.10	4273.82
434.28	4109.98
434.47	4311.27
434.66	4283.18
434.85	4161.47
435.03	4229.35
435.22	4353.40
435.41	4437.66
435.59	4283.18
435.78	4355.74
435.97	4353.40
436.16	4432.97
436.34	4432.97
436.53	4482.13
436.72	4582.77
436.90	4461.06
437.09	4601.49
437.28	4566.39
437.46	4594.47
437.65	4531.28
437.84	4718.52
438.02	4486.81
438.21	4685.75
438.40	4493.83
438.58	4695.11
438.77	4849.59
438.96	4802.78
439.14	4922.15
439.33	4926.83
439.52	4807.46
439.70	4835.55
439.89	5036.83
440.08	4985.34
440.26	5081.30
440.45	5083.64
440.63	5055.56
440.82	5329.40
441.01	5179.61
441.19	5231.10
441.38	5240.46
441.57	5296.63
441.75	5294.29
441.94	5383.23
442.12	5394.93
442.31	5401.96
442.50	5474.51
442.68	5558.77
442.87	5343.44
443.05	5500.26
443.24	5570.48
443.43	5619.63
443.61	5607.92
443.80	5607.92
443.98	5624.31
444.17	5420.68
444.35	5600.90
444.54	5624.31
444.73	5696.86
444.91	5535.37
445.10	5668.78
445.28	5624.31
445.47	5540.05
445.65	5668.78
445.84	5687.50
446.02	5785.80
446.21	5731.97
446.39	5671.12
446.58	5701.54
446.77	5790.49
446.95	5570.48
447.14	5830.27
447.32	5853.68
447.51	5832.62
447.69	5788.14
447.88	5846.66
448.06	5708.57
448.25	5722.61
448.43	5830.27
448.62	5877.09
448.80	5755.38
448.99	5872.40
449.17	5844.32
449.36	5998.79
449.54	5853.68
449.73	6202.42
449.91	6083.05
450.10	6031.56
450.28	6069.01
450.46	6169.65
450.65	6113.48
450.83	6106.46
451.02	6239.87
451.20	6200.08
451.39	6284.34
451.57	6148.59
451.76	6127.52
451.94	6104.12
452.13	6366.26
452.31	6207.10
452.49	6207.10
452.68	6258.59
452.86	6216.46
453.05	6483.28
453.23	6431.79
453.42	6246.89
453.60	6366.26
453.78	6352.21
453.97	6338.17
454.15	6359.24
454.34	6420.09
454.52	6576.91
454.70	6537.12
454.89	6518.39
455.07	6682.23
455.26	6719.68
455.44	6773.51
455.62	6705.63
455.81	6565.20
455.99	6787.55
456.17	6930.33
456.36	6733.72
456.54	6913.94
456.73	6981.82
456.91	6984.16
457.09	6836.70
457.28	7056.72
457.46	6953.73
457.64	7049.69
457.83	7183.10
458.01	7140.97
458.19	7222.89
458.38	7045.01
458.56	7258.00
458.74	7180.76
458.93	7155.02
459.11	7215.87
459.29	7225.23
459.48	7267.36
459.66	7112.89
459.84	7449.93
460.03	7403.11
460.21	7379.71
460.39	7293.11
460.57	7456.95
460.76	7452.27
460.94	7538.87
461.12	7517.80
461.31	7485.03
461.49	7543.55
461.67	7588.02
461.85	7639.51
462.04	7723.77
462.22	8051.44
462.40	7789.30
462.59	7772.92
462.77	7726.11
462.95	7812.71
463.13	7709.72
463.32	8002.29
463.50	7831.43
463.68	8065.49
463.86	7845.48
464.05	7985.91
464.23	8044.42
464.41	8032.72
464.59	7761.22
464.78	8121.66
464.96	7981.23
465.14	7990.59
465.32	8086.55
465.50	8224.64
465.69	8255.07
465.87	8182.51
466.05	8257.41
466.23	8241.03
466.41	8334.65
466.60	8549.98
466.78	8311.24
466.96	8276.13
467.14	8236.35
467.32	8269.11
467.51	8400.18
467.69	8203.58
467.87	8360.39
468.05	8388.48
468.23	8322.94
468.41	8318.26
468.60	8439.97
468.78	8468.06
468.96	8409.54
469.14	8503.17
469.32	8638.92
469.50	8435.29
469.69	8652.96
469.87	8952.55
470.05	8842.54
470.23	8898.72
470.41	8725.52
470.59	8919.78
470.77	8816.80
470.95	8894.04
471.14	8987.66
471.32	8863.61
471.50	9118.73
471.68	9181.92
471.86	9247.46
472.04	9102.34
472.22	9289.59
472.40	8898.72
472.58	9324.69
472.77	9380.87
472.95	9415.98
473.13	9579.81
473.31	9324.69
473.49	9357.46
473.67	9446.40
473.85	9530.66
474.03	9661.73
474.21	9783.44
474.39	10068.98
474.57	9923.87
474.75	9891.10
474.93	10012.81
475.12	10019.83
475.30	10150.90
475.48	9973.02
475.66	10052.60
475.84	10024.51
476.02	10394.32
476.20	10286.65
476.38	10356.87
476.56	10635.39
476.74	10429.43
476.92	10504.32
477.10	10462.19
477.28	10693.91
477.46	10846.04
477.64	10977.11
477.82	10892.85
478.00	10995.84
478.18	11140.95
478.36	11229.89
478.54	11255.64
478.72	11276.70
478.90	11344.58
479.08	11566.93
479.26	11723.74
479.44	11698.00
479.62	11660.55
479.80	11866.52
479.98	11859.49
480.16	12294.83
480.34	12070.14
480.52	12306.54
480.70	12341.64
480.88	12180.15
481.06	12573.36
481.24	12360.37
481.41	12348.67
481.59	12674.00
481.77	12922.10
481.95	12840.18
482.13	13130.41
482.31	13146.79
482.49	13600.85
482.67	13392.55
482.85	13392.55
483.03	13584.47
483.21	13696.82
483.39	13635.96
483.57	13851.29
483.74	13930.87
483.92	13860.65
484.10	14003.43
484.28	14443.45
484.46	14583.88
484.64	14890.49
484.82	14513.66
485.00	14771.12
485.18	14869.42
485.35	15309.44
485.53	14953.68
485.71	15098.80
485.89	15384.34
486.07	15559.88
486.25	15616.05
486.43	15419.45
486.61	15728.40
486.78	16065.44
486.96	15943.73
487.14	16137.99
487.32	16175.44
487.50	16505.46
487.68	16219.91
487.85	16886.97
488.03	16662.27
488.21	17071.87
488.39	17011.01
488.57	17579.76
488.75	17270.81
488.92	17387.84
489.10	17514.23
489.28	17685.09
489.46	17853.61
489.64	17813.82
489.81	18288.95
489.99	18097.02
490.17	17951.91
490.35	18728.97
490.53	18588.53
490.70	18703.22
490.88	18431.72
491.06	18927.91
491.24	18808.54
491.41	19227.50
491.59	19176.01
491.77	19190.05
491.95	19201.76
492.13	19836.04
492.30	19896.89
492.48	19700.29
492.66	19873.49
492.84	19936.68
493.01	20355.64
493.19	20259.68
493.37	20421.17
493.54	20311.17
493.72	20592.03
493.90	20716.08
494.08	20814.38
494.25	20961.84
494.43	21315.26
494.61	21301.22
494.79	21198.23
494.96	21490.80
495.14	21441.65
495.32	21813.79
495.49	21635.91
495.67	21806.77
495.85	22139.13
496.02	22139.13
496.20	22431.69
496.38	22522.98
496.55	22232.75
496.73	23019.17
496.91	22719.58
497.09	22867.03
497.26	22644.68
497.44	22934.91
497.62	23431.10
497.79	23339.82
497.97	23442.81
498.14	23749.42
498.32	23889.85
498.50	23906.23
498.67	23871.12
498.85	24060.71
499.03	24259.65
499.20	23800.91
499.38	24369.66
499.56	24411.79
499.73	24566.26
499.91	24465.62
500.08	24657.54
500.26	24397.74
500.44	24870.53
500.61	24713.72
500.79	24596.69
500.97	25074.16
501.14	25390.13
501.32	25331.62
501.49	25701.42
501.67	25289.49
501.84	25895.69
502.02	25572.69
502.20	25886.32
502.37	25577.37
502.55	25867.60
502.72	25687.38
502.90	25919.09
503.07	25984.63
503.25	26019.74
503.43	25773.98
503.60	26419.97
503.78	26684.45
503.95	26438.69
504.13	26284.22
504.30	26789.77
504.48	26869.35
504.65	26813.18
504.83	26632.96
505.01	26951.27
505.18	27096.38
505.36	27529.38
505.53	27393.63
505.71	27300.01
505.88	27700.24
506.06	27187.66
506.23	27962.38
506.41	27798.54
506.58	28016.21
506.76	27735.35
506.93	28135.58
507.11	28147.28
507.28	28163.67
507.46	28563.90
507.63	28453.89
507.81	28601.35
507.98	28177.71
508.16	28849.44
508.33	28603.69
508.50	28503.04
508.68	28804.97
508.85	29149.03
509.03	29046.05
509.20	29041.37
509.38	29500.11
509.55	29008.60
509.73	29315.21
509.90	29280.10
510.08	29291.80
510.25	29839.49
510.42	29415.85
510.60	29844.17
510.77	29935.45
510.95	30106.31
511.12	30082.91
511.30	30129.72
511.47	30223.34
511.64	30293.55
511.82	30827.20
511.99	30473.78
512.17	30410.58
512.34	30958.27
512.51	30909.11
512.69	30820.17
512.86	31002.74
513.04	31349.14
513.21	30923.16
513.38	31206.36
513.56	31248.49
513.73	31007.42
513.90	31260.20
514.08	31232.11
514.25	31484.89
514.43	31456.80
514.60	31597.23
514.77	31391.26
514.95	31730.64
515.12	31679.15
515.29	31665.11
515.47	32093.43
515.64	32247.90
515.81	32154.28
515.99	31819.58
516.16	32849.42
516.33	32488.98
516.51	32538.13
516.68	32252.58
516.85	32496.00
517.03	32587.28
517.20	33013.26
517.37	33031.98
517.54	32723.03
517.72	32980.49
517.89	33083.47
518.06	32999.21
518.24	32835.38
518.41	33401.79
518.58	33500.09
518.75	32891.55
518.93	33488.38
519.10	33301.14
519.27	33303.48
519.45	33530.51
519.62	33912.02
519.79	33757.55
519.96	33680.31
520.14	33837.12
520.31	33975.22
520.48	33951.81
520.65	33951.81
520.83	34375.45
521.00	34567.37
521.17	34309.91
521.34	34274.80
521.52	34146.08
521.69	34733.55
521.86	34859.94
522.03	34717.17
522.20	34976.97
522.38	35342.09
522.55	35079.95
522.72	35117.40
522.89	35311.66
523.07	35784.45
523.24	35086.97
523.41	35206.34
523.58	35290.60
523.75	35510.61
523.92	35461.46
524.10	35508.27
524.27	35938.93
524.44	36250.22
524.61	36006.80
524.78	35524.65
524.96	35775.09
525.13	36584.91
525.30	36481.93
525.47	36201.07
525.64	36126.17
525.81	36432.78
525.98	36788.54
526.16	36091.06
526.33	36629.38
526.50	36374.27
526.67	36683.22
526.84	36503.00
527.01	36624.70
527.18	36744.07
527.36	37132.60
527.53	36854.08
527.70	37488.36
527.87	37144.30
528.04	36882.16
528.21	37195.79
528.38	37385.38
528.55	37457.93
528.72	36877.48
528.89	37191.11
529.07	37221.54
529.24	37251.97
529.41	37764.54
529.58	37729.44
529.75	37593.68
529.92	37134.94
530.09	37331.54
530.26	37773.91
530.43	38033.71
530.60	37656.88
530.77	37816.04
530.94	37586.66
531.11	38417.55
531.28	37827.74
531.46	38197.54
531.63	38075.84
531.80	37996.26
531.97	38143.71
532.14	38340.32
532.31	38466.70
532.48	38731.18
532.65	38476.07
532.82	38735.87
532.99	38850.55
533.16	38747.57
533.33	38878.64
533.50	38490.11
533.67	38850.55
533.84	39255.46
534.01	39035.45
534.18	38698.42
534.35	39428.66
534.52	38829.49
534.69	39524.63
534.86	39196.95
535.03	39005.03
535.20	39665.06
535.37	39810.17
535.54	39735.27
535.71	39220.36
535.88	39669.74
536.05	39693.15
536.22	39531.65
536.38	39800.81
536.55	39943.58
536.72	40147.21
536.89	39697.83
537.06	39798.47
537.23	40006.78
537.40	39739.96
537.57	39896.77
537.74	40275.94
537.91	40294.66
538.08	40128.48
538.25	39861.66
538.42	40250.19
538.59	40280.62
538.75	40271.26
538.92	40673.83
539.09	40891.50
539.26	40584.89
539.43	40720.64
539.60	40973.42
539.77	40238.49
539.94	41144.28
540.11	41151.30
540.28	40730.00
540.44	40748.73
540.61	40563.82
540.78	40474.88
540.95	41336.20
541.12	41113.85
541.29	40666.81
541.46	41109.17
541.62	41446.21
541.79	41242.58
541.96	40561.48
542.13	41230.88
542.30	41502.38
542.47	41289.39
542.63	41481.31
542.80	41649.83
542.97	42209.22
543.14	42279.44
543.31	41701.32
543.48	42188.16
543.64	42532.22
543.81	41935.38
543.98	41818.35
544.15	41991.55
544.32	42419.87
544.48	42583.71
544.65	42241.99
544.82	42436.25
544.99	42157.73
545.16	42569.66
545.32	42277.10
545.49	42721.80
545.66	42539.24
545.83	42412.85
546.00	43192.25
546.16	42824.78
546.33	42541.58
546.50	42459.66
546.67	43007.34
546.83	42473.70
547.00	42911.38
547.17	42663.28
547.34	42873.93
547.50	42981.60
547.67	43243.74
547.84	43061.18
548.00	43325.66
548.17	43374.81
548.34	43533.96
548.51	43363.11
548.67	43353.74
548.84	43665.03
549.01	43166.50
549.18	43311.61
549.34	43372.47
549.51	43454.39
549.68	43735.25
549.84	43515.24
550.01	43775.04
550.18	43505.88
550.34	43608.86
550.51	43709.50
550.68	43725.89
550.84	43650.99
551.01	43772.70
551.18	43700.14
551.34	43615.88
551.51	44060.58
551.68	43892.07
551.84	43786.74
552.01	43681.42
552.18	43962.28
552.34	43906.11
552.51	43831.21
552.68	43665.03
552.84	44275.91
553.01	43856.96
553.18	44114.42
553.34	44334.43
553.51	44250.17
553.67	44645.72
553.84	44383.58
554.01	44357.83
554.17	44554.44
554.34	44678.49
554.51	44383.58
554.67	44472.52
554.84	44786.15
555.00	44182.29
555.17	44706.57
555.33	45153.62
555.50	44495.92
555.67	44844.66
555.83	44968.71
556.00	45081.06
556.16	45687.26
556.33	44842.32
556.50	44851.69
556.66	44999.14
556.83	44973.39
556.99	45329.16
557.16	45368.94
557.32	45155.96
557.49	45067.02
557.65	44783.81
557.82	45081.06
557.98	44800.19
558.15	44975.73
558.32	45525.76
558.48	45282.34
558.65	45359.58
558.81	45352.56
558.98	45205.11
559.14	45043.61
559.31	45373.63
559.47	45162.98
559.64	45359.58
559.80	45701.30
559.97	45497.67
560.13	45130.21
560.30	45610.02
560.46	45591.30
560.63	45841.73
560.79	45366.60
560.96	45865.14
561.12	45839.39
561.29	46054.72
561.45	45750.45
561.61	45160.64
561.78	45284.68
561.94	45731.73
562.11	45757.47
562.27	45624.06
562.44	45968.12
562.60	45998.55
562.77	46136.64
562.93	45914.29
563.10	46066.42
563.26	45944.72
563.42	46078.13
563.59	45975.14
563.75	45799.60
563.92	45588.95
564.08	46225.58
564.24	46412.82
564.41	46150.68
564.57	46408.14
564.74	46202.18
564.90	46110.89
565.07	46033.66
565.23	45947.06
565.39	46258.35
565.56	46394.10
565.72	46307.50
565.88	46223.24
566.05	46052.38
566.21	46321.54
566.38	46293.46
566.54	46447.93
566.70	46309.84
566.87	46728.80
567.03	46263.03
567.19	46642.20
567.36	46040.68
567.52	46368.35
567.68	46560.28
567.85	46363.67
568.01	46447.93
568.17	46384.74
568.34	46714.75
568.50	46398.78
568.66	46588.36
568.83	46941.78
568.99	46464.32
569.15	46347.29
569.32	46806.03
569.48	46550.91
569.64	46593.04
569.81	46452.61
569.97	47016.68
570.13	46672.62
570.30	46167.07
570.46	46810.71
570.62	46693.69
570.78	46843.48
570.95	46651.56
571.11	46611.77
571.27	46513.47
571.43	46817.74
571.60	47077.54
571.76	46660.92
571.92	46539.21
572.09	46527.51
572.25	46593.04
572.41	46766.24
572.57	46309.84
572.74	47508.19
572.90	46822.42
573.06	46850.50
573.22	47426.28
573.38	47079.88
573.55	47386.49
573.71	47271.80
573.87	47248.39
574.03	46698.37
574.20	47021.36
574.36	47100.94
574.52	47138.39
574.68	46717.09
574.84	46939.44
575.01	47421.59
575.17	47140.73
575.33	47107.96
575.49	47323.29
575.65	47386.49
575.82	46939.44
575.98	46817.74
576.14	47194.56
576.30	47152.43
576.46	47068.17
576.62	46923.06
576.79	47320.95
576.95	46897.31
577.11	46873.91
577.27	47302.23
577.43	47269.46
577.59	47026.04
577.75	47061.15
577.92	46490.06
578.08	47058.81
578.24	46827.10
578.40	47173.50
578.56	47407.55
578.72	47220.31
578.88	47192.22
579.04	47002.64
579.21	47283.50
579.37	46986.25
579.53	47508.19
579.69	47327.97
579.85	47122.01
580.01	47611.18
580.17	47227.33
580.33	47196.90
580.49	47337.33
580.65	47129.03
580.82	47222.65
580.98	47409.89
581.14	47007.32
581.30	47461.38
581.46	47477.77
581.62	46883.27
581.78	47182.86
581.94	47367.76
582.10	47114.98
582.26	47374.78
582.42	47395.85
582.58	47323.29
582.74	47468.40
582.90	47391.17
583.06	47583.09
583.22	46834.12
583.38	47529.26
583.54	47327.97
583.70	47372.44
583.86	47402.87
584.02	47400.53
584.18	47779.70
584.34	47220.31
584.50	47400.53
584.66	48027.79
584.82	47529.26
584.98	47796.08
585.14	47643.94
585.30	47147.75
585.46	47374.78
585.62	47185.20
585.78	47508.19
585.94	47086.90
586.10	47398.19
586.26	46927.74
586.42	47210.95
586.58	47807.78
586.74	47449.68
586.90	47002.64
587.06	47531.60
587.22	47510.53
587.38	47124.35
587.54	47789.06
587.70	47367.76
587.86	47840.55
588.02	47264.78
588.18	47503.51
588.34	47562.03
588.49	47365.42
588.65	47459.04
588.81	47629.90
588.97	47859.27
589.13	47372.44
589.29	47409.89
589.45	47901.40
589.61	47744.59
589.77	47620.54
589.93	47861.61
