SpectraSuite Data File
++++++++++++++++++++++++++++++++++++
Date: Fri Oct 25 11:22:33 EDT 2013
User: price-jones
Dark Spectrum Present: No
Reference Spectrum Present: No
Number of Sampled Component Spectra: 1
Spectrometers: USB2+H05261
Integration Time (usec): 100000 (USB2+H05261)
Spectra Averaged: 1 (USB2+H05261)
Boxcar Smoothing: 0 (USB2+H05261)
Correct for Electrical Dark: No (USB2+H05261)
Strobe/Lamp Enabled: No (USB2+H05261)
Correct for Detector Non-linearity: No (USB2+H05261)
Correct for Stray Light: No (USB2+H05261)
Number of Pixels in Processed Spectrum: 2048
>>>>>Begin Processed Spectral Data<<<<<
365.73	231.71
365.92	231.71
366.12	231.71
366.32	184.90
366.52	142.77
366.72	140.43
366.91	81.92
367.11	84.26
367.31	88.94
367.51	100.64
367.70	88.94
367.90	173.20
368.10	140.43
368.30	138.09
368.49	147.45
368.69	117.03
368.89	147.45
369.09	142.77
369.28	154.48
369.48	177.88
369.68	196.60
369.87	208.31
370.07	175.54
370.27	259.80
370.47	348.74
370.66	620.24
370.86	575.77
371.06	695.14
371.25	688.12
371.45	587.47
371.65	667.05
371.84	606.20
372.04	697.48
372.24	753.65
372.44	732.59
372.63	741.95
372.83	821.53
373.03	758.33
373.22	702.16
373.42	676.41
373.62	744.29
373.81	784.08
374.01	767.70
374.21	809.83
374.40	809.83
374.60	887.06
374.79	779.40
374.99	772.38
375.19	793.44
375.38	826.21
375.58	849.61
375.78	936.21
375.97	924.51
376.17	898.77
376.37	875.36
376.56	833.23
376.76	863.66
376.95	844.93
377.15	873.02
377.35	851.96
377.54	894.08
377.74	882.38
377.93	866.00
378.13	933.87
378.33	971.32
378.52	901.11
378.72	901.11
378.91	959.62
379.11	884.72
379.31	912.81
379.50	891.74
379.70	896.43
379.89	1057.92
380.09	938.55
380.28	1029.84
380.48	1076.65
380.68	959.62
380.87	915.15
381.07	1064.94
381.26	1048.56
381.46	992.39
381.65	1069.62
381.85	1018.13
382.04	1011.11
382.24	1013.45
382.43	1015.79
382.63	1060.26
382.83	1064.94
383.02	1095.37
383.22	1088.35
383.41	1083.67
383.61	1057.92
383.80	1196.01
384.00	1158.57
384.19	1128.14
384.39	1128.14
384.58	1057.92
384.78	1109.41
384.97	1156.22
385.17	1111.75
385.36	1184.31
385.56	1181.97
385.75	1217.08
385.95	1231.12
386.14	1231.12
386.34	1158.57
386.53	1160.91
386.72	1259.21
386.92	1254.53
387.11	1184.31
387.31	1228.78
387.50	1270.91
387.70	1282.61
387.89	1186.65
388.09	1235.80
388.28	1287.29
388.48	1345.81
388.67	1301.34
388.86	1327.08
389.06	1350.49
389.25	1404.32
389.45	1376.24
389.64	1294.32
389.84	1451.13
390.03	1416.02
390.22	1362.19
390.42	1327.08
390.61	1338.79
390.81	1357.51
391.00	1406.66
391.19	1444.11
391.39	1511.99
391.58	1551.78
391.78	1540.07
391.97	1528.37
392.16	1446.45
392.36	1500.28
392.55	1575.18
392.75	1577.52
392.94	1502.62
393.13	1476.88
393.33	1528.37
393.52	1542.41
393.71	1603.27
393.91	1495.60
394.10	1519.01
394.29	1584.54
394.49	1650.08
394.68	1586.88
394.88	1682.85
395.07	1764.76
395.26	1680.50
395.46	1556.46
395.65	1666.46
395.84	1682.85
396.04	1689.87
396.23	1741.36
396.42	1710.93
396.62	1734.34
396.81	1722.63
397.00	1790.51
397.19	1746.04
397.39	1830.30
397.58	1804.55
397.77	1809.23
397.97	1802.21
398.16	1956.69
398.35	1834.98
398.55	1900.52
398.74	2003.50
398.93	1977.75
399.12	1947.33
399.32	2024.56
399.51	1933.28
399.70	2094.78
399.90	1982.43
400.09	2033.93
400.28	2099.46
400.47	2104.14
400.67	2169.68
400.86	1944.99
401.05	2148.61
401.24	2094.78
401.44	2235.21
401.63	2270.32
401.82	2136.91
402.01	2134.57
402.21	2115.84
402.40	2153.29
402.59	2282.02
402.78	2200.10
402.97	2279.68
403.17	2303.09
403.36	2239.89
403.55	2310.11
403.74	2349.90
403.93	2361.60
404.13	2427.14
404.32	2427.14
404.51	2354.58
404.70	2396.71
404.89	2438.84
405.09	2574.59
405.28	2424.80
405.47	2532.46
405.66	2574.59
405.85	2581.61
406.05	2471.61
406.24	2532.46
406.43	2677.57
406.62	2544.16
406.81	2572.25
407.00	2619.06
407.20	2658.85
407.39	2670.55
407.58	2761.83
407.77	2848.43
407.96	2787.58
408.15	2801.62
408.34	2729.06
408.54	2801.62
408.73	2803.96
408.92	2885.88
409.11	2913.97
409.30	2967.80
409.49	2850.77
409.68	3016.95
409.87	3014.61
410.07	2998.23
410.26	3103.55
410.45	2993.55
410.64	3150.36
410.83	3033.33
411.02	3204.19
411.21	3133.98
411.40	3241.64
411.59	3283.77
411.78	3297.81
411.98	3180.79
412.17	3300.16
412.36	3232.28
412.55	3412.50
412.74	3412.50
412.93	3389.10
413.12	3433.57
413.31	3510.80
413.50	3524.85
413.69	3527.19
413.88	3566.98
414.07	3566.98
414.26	3709.75
414.45	3751.88
414.64	3665.28
414.83	3859.54
415.02	3815.07
415.22	3857.20
415.41	3889.97
415.60	3943.80
415.79	3941.46
415.98	3950.82
416.17	3892.31
416.36	3955.51
416.55	4196.58
416.74	4194.24
416.93	4112.32
417.12	4203.60
417.31	4362.76
417.50	4095.94
417.69	4224.67
417.88	4294.88
418.07	4269.14
418.26	4301.90
418.45	4320.63
418.64	4542.98
418.83	4547.66
419.02	4493.83
419.21	4435.32
419.39	4571.07
419.58	4528.94
419.77	4559.36
419.96	4704.48
420.15	4711.50
420.34	4716.18
420.53	4571.07
420.72	4669.37
420.91	4636.60
421.10	4760.65
421.29	4793.42
421.48	4755.97
421.67	4880.02
421.86	4772.35
422.05	4943.21
422.24	4915.12
422.43	5006.41
422.61	5111.73
422.80	4943.21
422.99	4954.91
423.18	5203.01
423.37	5207.69
423.56	5074.28
423.75	5069.60
423.94	4795.76
424.13	4622.56
424.32	4770.01
424.50	5076.62
424.69	5076.62
424.88	5116.41
425.07	4905.76
425.26	4905.76
425.45	5109.39
425.64	5041.51
425.83	4961.94
426.01	5111.73
426.20	5022.79
426.39	5022.79
426.58	4999.38
426.77	5076.62
426.96	5184.29
427.15	5074.28
427.33	5275.57
427.52	5123.43
427.71	5327.06
427.90	5432.38
428.09	5472.17
428.28	5481.53
428.46	5394.93
428.65	5446.43
428.84	5554.09
429.03	5767.08
429.22	5502.60
429.40	5483.88
429.59	5577.50
429.78	5411.32
429.97	5462.81
430.16	5713.25
430.34	5692.18
430.53	5685.16
430.72	5743.67
430.91	5738.99
431.10	5668.78
431.28	5879.43
431.47	5722.61
431.66	5841.98
431.85	5806.87
432.03	5912.19
432.22	5853.68
432.41	6008.16
432.60	6115.82
432.79	5933.26
432.97	5877.09
433.16	6005.81
433.35	6118.16
433.54	6061.99
433.72	6101.78
433.91	6174.33
434.10	6153.27
434.28	6134.54
434.47	6394.34
434.66	6389.66
434.85	6368.60
435.03	6286.68
435.22	6246.89
435.41	6399.02
435.59	6487.96
435.78	6427.11
435.97	6527.75
436.16	6518.39
436.34	6527.75
436.53	6537.12
436.72	6455.20
436.90	6483.28
437.09	6817.98
437.28	6546.48
437.46	6670.53
437.65	6726.70
437.84	6836.70
438.02	6825.00
438.21	6963.09
438.40	6750.10
438.58	7063.74
438.77	7140.97
438.96	6972.46
439.14	7129.27
439.33	7145.66
439.52	7358.64
439.70	7403.11
439.89	7417.16
440.08	7454.61
440.26	7431.20
440.45	7566.95
440.63	7569.29
440.82	7747.17
441.01	7529.50
441.19	7655.89
441.38	7836.11
441.57	7728.45
441.75	7791.64
441.94	8212.94
442.12	8053.78
442.31	8114.64
442.50	8084.21
442.68	8105.28
442.87	8042.08
443.05	8224.64
443.24	8313.58
443.43	8292.52
443.61	8294.86
443.80	8631.90
443.98	8124.00
444.17	7953.14
444.35	8336.99
444.54	8479.76
444.73	8301.88
444.91	8269.11
445.10	8601.47
445.28	8276.13
445.47	8266.77
445.65	8402.52
445.84	8512.53
446.02	8627.21
446.21	8454.02
446.39	8454.02
446.58	8517.21
446.77	8589.77
446.95	8416.57
447.14	8547.64
447.32	8727.86
447.51	8601.47
447.69	8470.40
447.88	8608.49
448.06	8367.42
448.25	8454.02
448.43	8615.51
448.62	8545.30
448.80	8671.68
448.99	8683.39
449.17	8940.85
449.36	8795.73
449.54	9109.36
449.73	9018.08
449.91	8982.98
450.10	9116.39
450.28	9254.48
450.46	9008.72
450.65	9083.62
450.83	9174.90
451.02	9130.43
451.20	9263.84
451.39	9207.67
451.57	9341.08
451.76	9298.95
451.94	9184.26
452.13	9680.46
452.31	9322.35
452.49	9191.28
452.68	9315.33
452.86	9518.96
453.05	9600.88
453.23	9525.98
453.42	9376.19
453.60	9507.26
453.78	9900.47
453.97	9537.68
454.15	9652.37
454.34	9650.03
454.52	9685.14
454.70	9760.03
454.89	9769.40
455.07	9839.61
455.26	9942.60
455.44	10146.22
455.62	9905.15
455.81	10073.67
455.99	10251.55
456.17	10263.25
456.36	10202.40
456.54	10101.75
456.73	10225.80
456.91	10569.86
457.09	10731.36
457.28	10874.13
457.46	10335.81
457.64	10696.25
457.83	10759.44
458.01	10518.37
458.19	10967.75
458.38	10663.48
458.56	10719.65
458.74	10822.64
458.93	10839.02
459.11	10925.62
459.29	10871.79
459.48	11009.88
459.66	10965.41
459.84	10965.41
460.03	11131.59
460.21	11164.36
460.39	11112.86
460.57	11052.01
460.76	11115.20
460.94	11405.43
461.12	11477.99
461.31	11337.56
461.49	11403.09
461.67	11328.19
461.85	11744.81
462.04	11304.79
462.22	12037.38
462.40	11859.49
462.59	11695.66
462.77	11477.99
462.95	11777.58
463.13	11679.27
463.32	11681.61
463.50	11922.69
463.68	11880.56
463.86	11871.20
464.05	11899.28
464.23	11695.66
464.41	11861.84
464.59	11875.88
464.78	12257.39
464.96	12189.51
465.14	12002.27
465.32	12395.48
465.50	12294.83
465.69	12271.43
465.87	12250.36
466.05	12343.99
466.23	12432.93
466.41	12580.38
466.60	12762.94
466.78	12367.39
466.96	12428.24
467.14	12566.34
467.32	12624.85
467.51	12608.47
467.69	12379.09
467.87	12491.44
468.05	12739.54
468.23	12493.78
468.41	12594.42
468.60	12755.92
468.78	12814.43
468.96	12542.93
469.14	13067.21
469.32	13212.32
469.50	13020.40
469.69	13125.72
469.87	13130.41
470.05	13268.50
470.23	13095.30
470.41	13287.22
470.59	13404.25
470.77	13275.52
470.95	13385.52
471.14	13736.60
471.32	13383.18
471.50	13877.04
471.68	13760.01
471.86	13781.07
472.04	13659.37
472.22	14424.72
472.40	13827.88
472.58	14075.98
472.77	14024.49
472.95	14083.00
473.13	14679.84
473.31	14202.37
473.49	14237.48
473.67	14335.78
473.85	14721.97
474.03	14995.81
474.21	14785.16
474.39	14939.64
474.57	14869.42
474.75	14911.55
474.93	15201.78
475.12	15178.37
475.30	15424.13
475.48	15051.99
475.66	15536.48
475.84	15550.52
476.02	15712.02
476.20	15641.80
476.38	15971.82
476.56	16130.97
476.74	16020.97
476.92	16079.48
477.10	15805.64
477.28	16355.66
477.46	16086.50
477.64	16470.35
477.82	16823.77
478.00	17308.26
478.18	16889.31
478.36	17486.14
478.54	17099.95
478.72	17668.70
478.90	17830.20
479.08	17518.91
479.26	18169.58
479.44	18036.17
479.62	17984.68
479.80	18380.23
479.98	18345.12
480.16	18649.39
480.34	18726.63
480.52	18888.12
480.70	18789.82
480.88	18670.45
481.06	18923.23
481.24	18885.78
481.41	19477.94
481.59	19658.16
481.77	19932.00
481.95	20140.31
482.13	20042.01
482.31	19836.04
482.49	21034.39
482.67	20308.83
482.85	20790.98
483.03	20739.49
483.21	21231.00
483.39	20968.86
483.57	21104.61
483.74	21673.36
483.92	21546.97
484.10	21472.07
484.28	21879.33
484.46	22239.77
484.64	22684.47
484.82	22195.30
485.00	22593.19
485.18	22986.40
485.35	23250.88
485.53	23037.89
485.71	23197.05
485.89	23819.63
486.07	23653.45
486.25	23590.26
486.43	23866.44
486.61	24175.39
486.78	24297.10
486.96	24732.44
487.14	24915.00
487.32	24952.45
487.50	25123.31
487.68	25177.14
487.85	25493.12
488.03	25738.87
488.21	26274.85
488.39	25841.85
488.57	26473.80
488.75	26270.17
488.92	26492.52
489.10	26951.27
489.28	26967.65
489.46	27538.74
489.64	27328.10
489.81	28046.64
489.99	27718.96
490.17	28442.19
490.35	28491.34
490.53	28479.64
490.70	29132.65
490.88	28779.23
491.06	29167.76
491.24	28985.19
491.41	29472.03
491.59	29577.35
491.77	29586.71
491.95	30052.48
492.13	30150.78
492.30	30366.11
492.48	30426.96
492.66	30560.37
492.84	30857.62
493.01	30981.67
493.19	31042.53
493.37	31016.78
493.54	31735.32
493.72	31693.19
493.90	31630.00
494.08	32208.11
494.25	32182.37
494.43	32512.38
494.61	32507.70
494.79	32856.44
494.96	32783.88
495.14	33193.48
495.32	33235.61
495.49	33666.27
495.67	33483.70
495.85	34099.26
496.02	34321.62
496.20	34134.37
496.38	34504.18
496.55	34323.96
496.73	35475.50
496.91	34852.92
497.09	34873.98
497.26	35674.45
497.44	35012.07
497.62	35927.22
497.79	36004.46
497.97	35969.35
498.14	36158.94
498.32	37188.77
498.50	36678.54
498.67	36994.51
498.85	37085.79
499.03	37097.49
499.20	37315.16
499.38	37757.52
499.56	37687.31
499.73	37710.71
499.91	37991.58
500.08	38223.29
500.26	37715.39
500.44	38202.22
500.61	38391.81
500.79	38307.55
500.97	38698.42
501.14	39431.01
501.32	39084.61
501.49	38932.47
501.67	39498.88
501.84	39154.82
502.02	39665.06
502.20	39517.60
502.37	40144.87
502.55	39323.34
502.72	40053.59
502.90	40023.16
503.07	39922.52
503.25	40437.44
503.43	40327.43
503.60	40830.65
503.78	40498.29
503.95	40891.50
504.13	41268.33
504.30	40954.69
504.48	40919.59
504.65	41125.55
504.83	41996.23
505.01	41968.15
505.18	42092.19
505.36	42377.74
505.53	41942.40
505.71	42033.68
505.88	42258.37
506.06	41736.43
506.23	42614.13
506.41	42698.39
506.58	42445.62
506.76	43143.09
506.93	42962.87
507.11	42841.17
507.28	43065.86
507.46	43409.92
507.63	43475.45
507.81	43550.35
507.98	43655.67
508.16	43669.72
508.33	43931.86
508.50	44016.11
508.68	44392.94
508.85	44615.29
509.03	44669.12
509.20	44744.02
509.38	44669.12
509.55	44877.43
509.73	45209.79
509.90	45364.26
510.08	45254.26
510.25	44821.26
510.42	45380.65
510.60	45401.71
510.77	45691.94
510.95	46127.28
511.12	45928.33
511.30	45820.67
511.47	45956.42
511.64	45813.65
511.82	46532.19
511.99	46167.07
512.17	46354.31
512.34	46120.26
512.51	46759.22
512.69	46609.43
512.86	46625.81
513.04	47147.75
513.21	47407.55
513.38	46892.63
513.56	47587.77
513.73	47400.53
513.90	47660.33
514.08	47484.79
514.25	47775.02
514.43	47620.54
514.60	47870.98
514.77	48119.07
514.95	47936.51
515.12	48311.00
515.29	48470.15
515.47	48605.91
515.64	48479.52
515.81	48149.50
515.99	48722.93
516.16	48828.26
516.33	48940.60
516.51	48903.15
516.68	49074.01
516.85	49202.74
517.03	49287.00
517.20	49450.84
517.37	48975.71
517.54	49420.41
517.72	49621.70
517.89	49600.63
518.06	49958.73
518.24	49858.09
518.41	49617.02
518.58	49977.46
518.75	49724.68
518.93	50351.94
519.10	50057.04
519.27	50253.64
519.45	49996.18
519.62	50887.93
519.79	50497.06
519.96	50569.61
520.14	50773.24
520.31	50557.91
520.48	50958.14
520.65	50745.15
520.83	51152.41
521.00	51313.90
521.17	50981.55
521.34	51267.09
521.52	51337.31
521.69	51091.55
521.86	51927.13
522.03	51599.45
522.20	51576.04
522.38	51810.10
522.55	51714.14
522.72	51690.73
522.89	51877.97
523.07	52130.75
523.24	51765.63
523.41	52048.83
523.58	52051.17
523.75	52664.39
523.92	52182.24
524.10	52552.05
524.27	52245.44
524.44	52313.31
524.61	52495.88
524.78	52643.33
524.96	52437.36
525.13	52748.65
525.30	52935.90
525.47	53223.78
525.64	52844.62
525.81	53013.13
525.98	53125.48
526.16	53240.17
526.33	53055.26
526.50	53343.15
526.67	53209.74
526.84	53256.55
527.01	52818.87
527.18	53102.07
527.36	53282.30
527.53	53710.61
527.70	53928.28
527.87	53876.79
528.04	53549.12
528.21	53593.59
528.38	53698.91
528.55	54087.44
528.72	53834.66
528.89	53961.05
529.07	53916.58
529.24	53794.87
529.41	54248.94
529.58	54024.25
529.75	54174.04
529.92	54122.55
530.09	54562.57
530.26	54480.65
530.43	54482.99
530.60	54319.15
530.77	54433.84
530.94	54663.21
531.11	54721.72
531.28	54569.59
531.46	54623.42
531.63	54630.44
531.80	54600.02
531.97	54567.25
532.14	54761.51
532.31	54721.72
532.48	54747.47
532.65	54890.24
532.82	54747.47
532.99	55054.08
533.16	55014.29
533.33	55267.07
533.50	55421.55
533.67	55426.23
533.84	55185.15
534.01	55077.49
534.18	55346.65
534.35	55365.37
534.52	55430.91
534.69	55508.14
534.86	55545.59
535.03	55611.13
535.20	55725.81
535.37	55852.20
535.54	55819.44
535.71	55484.74
535.88	55749.22
536.05	55737.52
536.22	55882.63
536.38	56140.09
536.55	56027.74
536.72	56079.24
536.89	56149.45
537.06	56060.51
537.23	56137.75
537.40	55920.08
537.57	56238.39
537.74	56095.62
537.91	56119.02
538.08	55992.64
538.25	55929.44
538.42	56158.81
538.59	56554.36
538.75	56334.35
538.92	56573.09
539.09	56769.69
539.26	56439.68
539.43	56692.46
539.60	56657.35
539.77	56526.28
539.94	56828.21
540.11	56725.22
540.28	56882.04
540.44	56783.74
540.61	56844.59
540.78	56748.63
540.95	56837.57
541.12	56800.12
541.29	57043.54
541.46	57045.88
541.62	57027.15
541.79	57052.90
541.96	56582.45
542.13	56783.74
542.30	57052.90
542.47	57378.23
542.63	57118.43
542.80	57256.53
542.97	57436.75
543.14	57434.41
543.31	57492.92
543.48	57525.69
543.64	57801.87
543.81	57572.50
543.98	57427.38
544.15	57963.37
544.32	57876.77
544.48	57911.88
544.65	57614.63
544.82	57694.21
544.99	57670.80
545.16	57785.49
545.32	57642.71
545.49	57745.70
545.66	58122.52
545.83	57794.85
546.00	57977.41
546.16	57932.94
546.33	57883.79
546.50	57965.71
546.67	58110.82
546.83	58089.76
547.00	58356.58
547.17	58085.07
547.34	58092.10
547.50	58440.84
547.67	58319.13
547.84	58204.44
548.00	58564.88
548.17	58539.14
548.34	58178.70
548.51	58621.06
548.67	58705.32
548.84	58457.22
549.01	58492.33
549.18	58597.65
549.34	58419.77
549.51	58508.71
549.68	58770.85
549.84	58534.46
550.01	58997.88
550.18	58522.76
550.34	58951.07
550.51	58904.26
550.68	58845.75
550.84	58597.65
551.01	58915.96
551.18	58745.11
551.34	58911.28
551.51	58850.43
551.68	58777.87
551.84	58838.73
552.01	58831.71
552.18	58997.88
552.34	58997.88
552.51	59313.86
552.68	58859.79
552.84	59047.04
553.01	59089.16
553.18	59105.55
553.34	58967.46
553.51	58946.39
553.67	59128.95
553.84	59348.96
554.01	59341.94
554.17	59143.00
554.34	59531.53
554.51	59260.02
554.67	59449.61
554.84	59295.13
555.00	59465.99
555.17	59124.27
555.33	59468.33
555.50	59400.46
555.67	59463.65
555.83	59468.33
556.00	59540.89
556.16	59751.54
556.33	59756.22
556.50	59648.55
556.66	59599.40
556.83	59433.22
556.99	59800.69
557.16	59887.29
557.32	59786.64
557.49	59955.16
557.65	59693.02
557.82	59845.16
557.98	59660.26
558.15	59561.95
558.32	59828.77
558.48	59835.80
558.65	59924.74
558.81	59667.28
558.98	59852.18
559.14	60186.88
559.31	59887.29
559.47	59882.61
559.64	60013.68
559.80	60074.53
559.97	60163.47
560.13	59994.95
560.30	60119.00
560.46	59990.27
560.63	59913.03
560.79	60114.32
560.96	60191.56
561.12	60233.69
561.29	60088.57
561.45	60367.10
561.61	60245.39
561.78	60189.22
561.94	60163.47
562.11	60137.72
562.27	60107.30
562.44	60205.60
562.60	60214.96
562.77	60376.46
562.93	60196.24
563.10	60488.80
563.26	60123.68
563.42	60285.18
563.59	60376.46
563.75	60322.63
563.92	60308.58
564.08	60348.37
564.24	60495.83
564.41	60420.93
564.57	60434.97
564.74	60554.34
564.90	60537.96
565.07	60570.72
565.23	60439.65
565.39	60301.56
565.56	60343.69
565.72	60397.52
565.88	60523.91
566.05	60439.65
566.21	60399.86
566.38	60507.53
566.54	60566.04
566.70	60678.39
566.87	60842.23
567.03	60374.12
567.19	60914.78
567.36	60825.84
567.52	60624.56
567.68	61132.45
567.85	60762.65
568.01	60755.63
568.17	60601.15
568.34	60624.56
568.50	60725.20
568.66	60540.30
568.83	60697.11
568.99	60692.43
569.15	60704.13
569.32	60701.79
569.48	60552.00
569.64	60907.76
569.81	60734.56
569.97	60685.41
570.13	60575.40
570.30	60816.48
570.46	60774.35
570.62	60846.91
570.78	60739.24
570.95	60711.16
571.11	60963.93
571.27	60860.95
571.43	60970.96
571.60	61120.75
571.76	60835.20
571.92	61120.75
572.09	60907.76
572.25	60743.92
572.41	60732.22
572.57	60882.02
572.74	61104.37
572.90	60954.57
573.06	60865.63
573.22	60928.83
573.38	61024.79
573.55	60893.72
573.71	61298.63
573.87	61160.54
574.03	60685.41
574.20	60963.93
574.36	60867.97
574.52	61095.00
574.68	60938.19
574.84	61055.21
575.01	61043.51
575.17	61052.87
575.33	60952.23
575.49	61031.81
575.65	60999.04
575.82	61190.97
575.98	61125.43
576.14	61055.21
576.30	61195.65
576.46	60996.70
576.62	61116.07
576.79	61099.68
576.95	61078.62
577.11	61151.18
577.27	61357.14
577.43	61151.18
577.59	60999.04
577.75	61057.56
577.92	61083.30
578.08	61066.92
578.24	61087.98
578.40	61186.28
578.56	61293.95
578.72	61254.16
578.88	61160.54
579.04	61268.20
579.21	61055.21
579.37	61446.08
579.53	61375.87
579.69	61305.65
579.85	61104.37
580.01	61155.86
580.17	60889.04
580.33	61310.33
580.49	61406.30
580.65	61188.63
580.82	61272.88
580.98	61155.86
581.14	61111.39
581.30	61251.82
581.46	60973.30
581.62	61118.41
581.78	61214.37
581.94	61354.80
582.10	61064.58
582.26	61261.18
582.42	61036.49
582.58	61167.56
582.74	61139.47
582.90	61200.33
583.06	61303.31
583.22	61155.86
583.38	61286.93
583.54	61324.38
583.70	61453.11
583.86	61422.68
584.02	61120.75
584.18	61305.65
584.34	61244.80
584.50	61160.54
584.66	61254.16
584.82	61134.79
584.98	61212.03
585.14	61331.40
585.30	61249.48
585.46	61385.23
585.62	61607.58
585.78	61499.92
585.94	61235.44
586.10	61113.73
586.26	61200.33
586.42	61520.98
586.58	61513.96
586.74	61268.20
586.90	61371.19
587.06	61546.73
587.22	61619.28
587.38	61303.31
587.54	61415.66
587.70	61626.31
587.86	61319.70
588.02	61478.85
588.18	61443.74
588.34	61378.21
588.49	61307.99
