SpectraSuite Data File
++++++++++++++++++++++++++++++++++++
Date: Fri Oct 25 10:47:43 EDT 2013
User: price-jones
Dark Spectrum Present: No
Reference Spectrum Present: No
Number of Sampled Component Spectra: 1
Spectrometers: USB2+H05261
Integration Time (usec): 100000 (USB2+H05261)
Spectra Averaged: 1 (USB2+H05261)
Boxcar Smoothing: 0 (USB2+H05261)
Correct for Electrical Dark: No (USB2+H05261)
Strobe/Lamp Enabled: No (USB2+H05261)
Correct for Detector Non-linearity: No (USB2+H05261)
Correct for Stray Light: No (USB2+H05261)
Number of Pixels in Processed Spectrum: 2048
>>>>>Begin Processed Spectral Data<<<<<
365.73	156.82
365.92	156.82
366.12	156.82
366.32	11.70
366.52	32.77
366.72	91.28
366.91	53.83
367.11	65.54
367.31	0.00
367.51	42.13
367.70	32.77
367.90	32.77
368.10	2.34
368.30	49.15
368.49	0.00
368.69	39.79
368.89	58.51
369.09	21.06
369.28	42.13
369.48	131.07
369.68	56.17
369.87	49.15
370.07	74.90
370.27	138.09
370.47	194.26
370.66	334.70
370.86	463.43
371.06	496.19
371.25	390.87
371.45	458.74
371.65	477.47
371.84	444.70
372.04	468.11
372.24	484.49
372.44	400.23
372.63	491.51
372.83	402.57
373.03	505.56
373.22	470.45
373.42	491.51
373.62	512.58
373.81	493.85
374.01	587.47
374.21	610.88
374.40	528.96
374.60	554.71
374.79	503.22
374.99	564.07
375.19	552.37
375.38	535.98
375.58	575.77
375.78	568.75
375.97	585.13
376.17	711.52
376.37	582.79
376.56	564.07
376.76	571.09
376.95	575.77
377.15	678.76
377.35	671.73
377.54	559.39
377.74	648.33
377.93	580.45
378.13	624.92
378.33	702.16
378.52	617.90
378.72	636.63
378.91	624.92
379.11	571.09
379.31	683.44
379.50	578.11
379.70	655.35
379.89	667.05
380.09	650.67
380.28	564.07
380.48	624.92
380.68	589.82
380.87	557.05
381.07	660.03
381.26	692.80
381.46	615.56
381.65	648.33
381.85	638.97
382.04	641.31
382.24	727.91
382.43	683.44
382.63	641.31
382.83	716.20
383.02	763.01
383.22	741.95
383.41	763.01
383.61	688.12
383.80	744.29
384.00	716.20
384.19	758.33
384.39	873.02
384.58	830.89
384.78	732.59
384.97	772.38
385.17	753.65
385.36	737.27
385.56	763.01
385.75	814.51
385.95	755.99
386.14	772.38
386.34	779.40
386.53	744.29
386.72	772.38
386.92	840.25
387.11	854.30
387.31	842.59
387.50	821.53
387.70	784.08
387.89	765.36
388.09	866.00
388.28	805.14
388.48	812.17
388.67	919.83
388.86	877.70
389.06	844.93
389.25	985.37
389.45	849.61
389.64	844.93
389.84	940.90
390.03	966.64
390.22	936.21
390.42	915.15
390.61	889.40
390.81	868.34
391.00	1013.45
391.19	950.26
391.39	997.07
391.58	1083.67
391.78	952.60
391.97	805.14
392.16	915.15
392.36	1001.75
392.55	940.90
392.75	933.87
392.94	987.71
393.13	936.21
393.33	1057.92
393.52	1015.79
393.71	1029.84
393.91	1057.92
394.10	1006.43
394.29	1090.69
394.49	1006.43
394.68	1111.75
394.88	1102.39
395.07	1132.82
395.26	1095.37
395.46	1109.41
395.65	1083.67
395.84	1130.48
396.04	1081.33
396.23	1146.86
396.42	1081.33
396.62	1160.91
396.81	1132.82
397.00	1114.10
397.19	1228.78
397.39	1205.38
397.58	1259.21
397.77	1156.22
397.97	1200.69
398.16	1238.14
398.35	1268.57
398.55	1273.25
398.74	1280.27
398.93	1392.62
399.12	1228.78
399.32	1301.34
399.51	1334.11
399.70	1343.47
399.90	1355.17
400.09	1472.20
400.28	1385.60
400.47	1334.11
400.67	1364.53
400.86	1420.71
401.05	1460.49
401.24	1502.62
401.44	1448.79
401.63	1441.77
401.82	1423.05
402.01	1500.28
402.21	1521.35
402.40	1610.29
402.59	1519.01
402.78	1619.65
402.97	1554.12
403.17	1521.35
403.36	1589.22
403.55	1643.06
403.74	1577.52
403.93	1621.99
404.13	1619.65
404.32	1626.67
404.51	1699.23
404.70	1631.35
404.89	1621.99
405.09	1806.89
405.28	1781.15
405.47	1600.93
405.66	1713.27
405.85	1638.38
406.05	1753.06
406.24	1764.76
406.43	1785.83
406.62	1909.88
406.81	1774.13
407.00	1827.96
407.20	1816.26
407.39	1811.57
407.58	1914.56
407.77	1877.11
407.96	1907.54
408.15	1947.33
408.34	1877.11
408.54	1975.41
408.73	1984.77
408.92	1886.47
409.11	2033.93
409.30	2029.24
409.49	1994.14
409.68	2085.42
409.87	1970.73
410.07	1900.52
410.26	2038.61
410.45	2080.74
410.64	2129.89
410.83	2157.97
411.02	2174.36
411.21	2258.62
411.40	2221.17
411.59	2338.20
411.78	2282.02
411.98	2249.25
412.17	2249.25
412.36	2277.34
412.55	2401.39
412.74	2476.29
412.93	2296.07
413.12	2436.50
413.31	2513.74
413.50	2473.95
413.69	2459.90
413.88	2558.21
414.07	2499.69
414.26	2649.49
414.45	2574.59
414.64	2520.76
414.83	2588.63
415.02	2799.28
415.22	2750.13
415.41	2738.43
415.60	2766.51
415.79	2780.56
415.98	2827.37
416.17	2874.18
416.36	2785.24
416.55	2789.92
416.74	2935.03
416.93	3009.93
417.12	2899.92
417.31	2857.79
417.50	2888.22
417.69	3026.31
417.88	3000.57
418.07	2949.08
418.26	2995.89
418.45	3040.36
418.64	3204.19
418.83	3171.43
419.02	3213.56
419.21	3152.70
419.39	3155.04
419.58	3103.55
419.77	3117.59
419.96	3229.94
420.15	3220.58
420.34	3309.52
420.53	3332.92
420.72	3375.05
420.91	3265.05
421.10	3368.03
421.29	3368.03
421.48	3358.67
421.67	3379.73
421.86	3391.44
422.05	3396.12
422.24	3272.07
422.43	3337.60
422.61	3410.16
422.80	3424.20
422.99	3468.67
423.18	3433.57
423.37	3562.30
423.56	3503.78
423.75	3597.40
423.94	3405.48
424.13	3204.19
424.32	3253.34
424.50	3536.55
424.69	3618.47
424.88	3641.87
425.07	3552.93
425.26	3480.38
425.45	3471.01
425.64	3517.83
425.83	3517.83
426.01	3513.14
426.20	3566.98
426.39	3426.54
426.58	3527.19
426.77	3712.09
426.96	3574.00
427.15	3613.79
427.33	3662.94
427.52	3681.66
427.71	3665.28
427.90	3669.96
428.09	3831.46
428.28	3833.80
428.46	3667.62
428.65	3735.50
428.84	3896.99
429.03	3794.01
429.22	3712.09
429.40	3735.50
429.59	3637.19
429.78	3627.83
429.97	3618.47
430.16	3782.31
430.34	3850.18
430.53	3845.50
430.72	3840.82
430.91	3875.93
431.10	3894.65
431.28	4046.79
431.47	4161.47
431.66	4187.22
431.85	4044.45
432.03	4121.68
432.22	4088.92
432.41	4187.22
432.60	4262.12
432.79	4098.28
432.97	4222.33
433.16	4241.05
433.35	4119.34
433.54	4241.05
433.72	4236.37
433.91	4241.05
434.10	4379.14
434.28	4194.24
434.47	4250.41
434.66	4526.60
434.85	4376.80
435.03	4425.95
435.22	4341.69
435.41	4610.86
435.59	4601.49
435.78	4535.96
435.97	4484.47
436.16	4599.15
436.34	4456.38
436.53	4620.22
436.72	4795.76
436.90	4517.23
437.09	4587.45
437.28	4507.87
437.46	4617.88
437.65	4652.98
437.84	4620.22
438.02	4634.26
438.21	4777.03
438.40	4603.83
438.58	4812.14
438.77	4931.51
438.96	4807.46
439.14	5013.43
439.33	5064.92
439.52	4826.18
439.70	4926.83
439.89	5015.77
440.08	5151.52
440.26	5247.48
440.45	5280.25
440.63	5158.54
440.82	5329.40
441.01	5432.38
441.19	5416.00
441.38	5444.09
441.57	5383.23
441.75	5453.45
441.94	5493.24
442.12	5488.56
442.31	5650.05
442.50	5561.11
442.68	5537.71
442.87	5547.07
443.05	5727.29
443.24	5687.50
443.43	5584.52
443.61	5741.33
443.80	5706.23
443.98	5469.83
444.17	5521.32
444.35	5837.30
444.54	5989.43
444.73	5757.72
444.91	6047.94
445.10	5933.26
445.28	5968.37
445.47	5633.67
445.65	5738.99
445.84	5603.24
446.02	5937.94
446.21	5846.66
446.39	5863.04
446.58	5980.07
446.77	5694.52
446.95	5825.59
447.14	5811.55
447.32	6022.20
447.51	6003.47
447.69	6017.52
447.88	5982.41
448.06	5856.02
448.25	5970.71
448.43	5951.98
448.62	5926.24
448.80	5844.32
448.99	6012.84
449.17	6054.97
449.36	6120.50
449.54	6256.25
449.73	6214.12
449.91	6263.27
450.10	6359.24
450.28	6232.85
450.46	6438.81
450.65	6352.21
450.83	6466.90
451.02	6408.39
451.20	6319.45
451.39	6382.64
451.57	6555.84
451.76	6375.62
451.94	6342.85
452.13	6443.49
452.31	6359.24
452.49	6415.41
452.68	6445.84
452.86	6319.45
453.05	6429.45
453.23	6464.56
453.42	6490.31
453.60	6387.32
453.78	6651.80
453.97	6637.76
454.15	6656.48
454.34	6441.15
454.52	6792.23
454.70	6724.36
454.89	6796.92
455.07	6775.85
455.26	6895.22
455.44	6745.42
455.62	6789.89
455.81	6937.35
455.99	6740.74
456.17	7002.88
456.36	6787.55
456.54	6951.39
456.73	7026.29
456.91	7173.74
457.09	7052.03
457.28	7328.22
457.46	7143.32
457.64	7325.88
457.83	7400.77
458.01	7281.41
458.19	7398.43
458.38	7220.55
458.56	7543.55
458.74	7353.96
458.93	7276.73
459.11	7260.34
459.29	7339.92
459.48	7478.01
459.66	7375.03
459.84	7492.05
460.03	7557.59
460.21	7702.70
460.39	7559.93
460.57	7494.40
460.76	7660.57
460.94	7709.72
461.12	7541.21
461.31	7712.07
461.49	7899.31
461.67	7660.57
461.85	7756.54
462.04	7681.64
462.22	8168.47
462.40	7892.29
462.59	7990.59
462.77	7950.80
462.95	8046.76
463.13	8175.49
463.32	7992.93
463.50	8105.28
463.68	7920.37
463.86	8196.56
464.05	7962.50
464.23	8173.15
464.41	8215.28
464.59	7850.16
464.78	8053.78
464.96	8182.51
465.14	8215.28
465.32	8231.66
465.50	8393.16
465.69	8456.36
465.87	8269.11
466.05	8348.69
466.23	8334.65
466.41	8229.32
466.60	8535.93
466.78	8304.22
466.96	8149.75
467.14	8280.82
467.32	8664.66
467.51	8430.61
467.69	8329.97
467.87	8631.90
468.05	8596.79
468.23	8505.51
468.41	8552.32
468.60	8489.12
468.78	8554.66
468.96	8472.74
469.14	8578.06
469.32	8861.27
469.50	8643.60
469.69	8650.62
469.87	8945.53
470.05	8777.01
470.23	8650.62
470.41	8805.10
470.59	8987.66
470.77	8798.07
470.95	8868.29
471.14	9029.79
471.32	9029.79
471.50	9104.68
471.68	9158.52
471.86	9221.71
472.04	9282.56
472.22	9408.95
472.40	9259.16
472.58	9320.01
472.77	9387.89
472.95	9610.24
473.13	9785.78
473.31	9584.49
473.49	9390.23
473.67	9549.39
473.85	9643.01
474.03	9839.61
474.21	9940.26
474.39	10157.92
474.57	9820.89
474.75	10143.88
474.93	10033.88
475.12	10253.89
475.30	10029.20
475.48	10148.56
475.66	10216.44
475.84	10164.95
476.02	10387.30
476.20	10436.45
476.38	10511.35
476.56	10684.55
476.74	10462.19
476.92	10576.88
477.10	10665.82
477.28	10583.90
477.46	10787.53
477.64	10803.91
477.82	11094.14
478.00	11351.60
478.18	11185.42
478.36	11227.55
478.54	11499.05
478.72	11578.63
478.90	11623.10
479.08	11887.58
479.26	11679.27
479.44	11927.37
479.62	11934.39
479.80	12037.38
479.98	12091.21
480.16	12414.20
480.34	11861.84
480.52	12613.15
480.70	12751.24
480.88	12177.81
481.06	12442.29
481.24	12526.55
481.41	12652.94
481.59	12847.20
481.77	12819.11
481.95	13132.75
482.13	13202.96
482.31	12863.58
482.49	13322.33
482.67	13352.76
482.85	13411.27
483.03	13446.38
483.21	13706.18
483.39	13935.55
483.57	14005.77
483.74	14066.62
483.92	14188.33
484.10	14129.81
484.28	14420.04
484.46	14466.85
484.64	14677.50
484.82	14450.47
485.00	14967.73
485.18	14965.39
485.35	14801.55
485.53	15019.22
485.71	15194.76
485.89	15314.13
486.07	15035.60
486.25	15140.93
486.43	15440.51
486.61	15714.36
486.78	15616.05
486.96	15861.81
487.14	16233.96
487.32	16154.38
487.50	16493.76
487.68	16540.57
487.85	16723.13
488.03	16912.71
488.21	16788.66
488.39	17025.06
488.57	17046.12
488.75	17249.75
488.92	17455.72
489.10	17427.63
489.28	17717.86
489.46	17928.50
489.64	17970.63
489.81	18349.80
489.99	18328.74
490.17	18127.45
490.35	18874.08
490.53	18625.98
490.70	18567.47
490.88	18965.36
491.06	18958.34
491.24	18871.74
491.41	18766.42
491.59	19117.50
491.77	18953.66
491.95	19353.89
492.13	19447.51
492.30	19496.66
492.48	19756.46
492.66	19894.55
492.84	19683.91
493.01	20161.37
493.19	20051.37
493.37	20397.77
493.54	20402.45
493.72	20341.60
493.90	20657.57
494.08	20889.28
494.25	20968.86
494.43	21284.83
494.61	21317.60
494.79	21153.76
494.96	21034.39
495.14	21394.84
495.32	21860.60
495.49	21497.82
495.67	21799.75
495.85	21928.48
496.02	22209.34
496.20	22436.38
496.38	22136.79
496.55	22726.60
496.73	22998.10
496.91	22139.13
497.09	22752.35
497.26	23094.07
497.44	23063.64
497.62	23192.37
497.79	22958.31
497.97	23276.63
498.14	23501.32
498.32	23480.25
498.50	23693.24
498.67	23852.40
498.85	23693.24
499.03	24034.96
499.20	24013.90
499.38	24357.96
499.56	24229.23
499.73	24009.22
499.91	24425.83
500.08	24699.67
500.26	24130.92
500.44	24802.66
500.61	24271.36
500.79	24559.24
500.97	24753.51
501.14	25200.55
501.32	25071.82
501.49	24933.73
501.67	25326.94
501.84	25242.68
502.02	25319.92
502.20	25872.28
502.37	25755.26
502.55	25575.03
502.72	25741.21
502.90	25813.77
503.07	25645.25
503.25	26174.21
503.43	25556.31
503.60	26005.69
503.78	26398.90
503.95	26122.72
504.13	26260.81
504.30	26251.45
504.48	26354.43
504.65	26689.13
504.83	26417.63
505.01	27290.65
505.18	27002.76
505.36	26960.63
505.53	26890.41
505.71	27152.55
505.88	27379.59
506.06	27508.32
506.23	27220.43
506.41	26906.80
506.58	27466.19
506.76	27749.39
506.93	27594.92
507.11	27440.44
507.28	27985.79
507.46	27491.93
507.63	27419.38
507.81	28163.67
507.98	27751.73
508.16	27934.29
508.33	28524.11
508.50	28208.14
508.68	27887.48
508.85	29008.60
509.03	28706.67
509.20	28943.06
509.38	28802.63
509.55	29053.07
509.73	28926.68
509.90	29118.60
510.08	29247.33
510.25	28907.96
510.42	28945.41
510.60	29097.54
510.77	29153.71
510.95	29263.72
511.12	29266.06
511.30	29591.39
511.47	29958.86
511.64	30377.81
511.82	30157.80
511.99	29560.97
512.17	29977.58
512.34	29729.48
512.51	29956.52
512.69	30185.89
512.86	30403.56
513.04	30616.55
513.21	30415.26
513.38	30609.53
513.56	30459.73
513.73	30494.84
513.90	30558.03
514.08	30614.21
514.25	30759.32
514.43	30859.96
514.60	31028.48
514.77	31096.36
514.95	31185.30
515.12	31168.91
515.29	30874.01
515.47	31257.85
515.64	31763.41
515.81	31379.56
515.99	31744.69
516.16	31646.38
516.33	31555.10
516.51	31655.75
516.68	31438.08
516.85	31182.96
517.03	31524.68
517.20	31763.41
517.37	31747.03
517.54	32137.90
517.72	32088.74
517.89	32385.99
518.06	32191.73
518.24	31943.63
518.41	32360.25
518.58	32107.47
518.75	31929.59
518.93	32507.70
519.10	32732.39
519.27	32568.55
519.45	32989.85
519.62	33149.01
519.79	33069.43
519.96	33109.22
520.14	33010.92
520.31	32964.10
520.48	33291.78
520.65	33237.95
520.83	33443.91
521.00	33439.23
521.17	33914.36
521.34	33472.00
521.52	33965.85
521.69	33890.96
521.86	33972.88
522.03	33670.95
522.20	33830.10
522.38	33837.12
522.55	34333.32
522.72	33947.13
522.89	33928.41
523.07	33855.85
523.24	34071.18
523.41	34850.58
523.58	34096.92
523.75	34927.81
523.92	34338.00
524.10	35040.16
524.27	34436.30
524.44	35049.52
524.61	34920.79
524.78	35042.50
524.96	35166.55
525.13	35178.25
525.30	35161.87
525.47	35442.73
525.64	35353.79
525.81	35255.49
525.98	35154.85
526.16	35498.91
526.33	35260.17
526.50	35625.29
526.67	35175.91
526.84	35386.56
527.01	35192.30
527.18	35096.33
527.36	36053.61
527.53	35613.59
527.70	36711.30
527.87	36493.63
528.04	36088.72
528.21	36175.32
528.38	35761.05
528.55	36154.26
528.72	36367.24
528.89	36421.08
529.07	36107.44
529.24	36320.43
529.41	36739.39
529.58	36294.69
529.75	36285.33
529.92	36737.05
530.09	36957.06
530.26	36327.45
530.43	36613.00
530.60	36690.24
530.77	36666.83
530.94	36816.63
531.11	36465.55
531.28	37022.59
531.46	36863.44
531.63	37804.33
531.80	36795.56
531.97	36961.74
532.14	37251.97
532.31	37270.69
532.48	37083.45
532.65	37322.18
532.82	36961.74
532.99	37626.45
533.16	37500.06
533.33	37486.02
533.50	37673.26
533.67	37656.88
533.84	37329.20
534.01	37776.25
534.18	37846.46
534.35	38312.23
534.52	37635.81
534.69	38302.87
534.86	38447.98
535.03	37736.46
535.20	38298.19
535.37	38127.33
535.54	38085.20
535.71	38265.42
535.88	38136.69
536.05	38476.07
536.22	38579.05
536.38	38494.79
536.55	38146.05
536.72	38291.16
536.89	38029.02
537.06	38499.47
537.23	38632.88
537.40	38815.44
537.57	38965.24
537.74	38291.16
537.91	39131.42
538.08	38763.95
538.25	38731.18
538.42	38820.13
538.59	39117.37
538.75	38787.36
538.92	39019.07
539.09	39072.90
539.26	39456.75
539.43	39285.89
539.60	39557.39
539.77	39112.69
539.94	39241.42
540.11	39210.99
540.28	38782.68
540.44	39412.28
540.61	39400.58
540.78	39166.52
540.95	39000.35
541.12	39370.15
541.29	39587.82
541.46	39559.73
541.62	39512.92
541.79	39849.96
541.96	39732.93
542.13	39342.06
542.30	39613.57
542.47	40016.14
542.63	40069.97
542.80	39842.94
542.97	40222.11
543.14	40339.13
543.31	40659.79
543.48	40612.98
543.64	41001.50
543.81	40547.44
543.98	40598.93
544.15	40023.16
544.32	40905.54
544.48	40844.69
544.65	40465.52
544.82	40643.40
544.99	40219.77
545.16	40545.10
545.32	40844.69
545.49	41209.81
545.66	40854.05
545.83	41022.57
546.00	41261.30
546.16	41020.23
546.33	40744.05
546.50	40456.16
546.67	40875.12
546.83	40341.47
547.00	41113.85
547.17	40994.48
547.34	41191.09
547.50	41043.63
547.67	41638.13
547.84	41450.89
548.00	41474.29
548.17	41698.98
548.34	41195.77
548.51	41298.75
548.67	41832.39
548.84	41380.67
549.01	41474.29
549.18	41357.27
549.34	41675.58
549.51	41497.70
549.68	42064.11
549.84	41593.66
550.01	41769.20
550.18	41825.37
550.34	41528.13
550.51	41844.10
550.68	41776.22
550.84	41457.91
551.01	42040.70
551.18	42012.62
551.34	42405.83
551.51	41858.14
551.68	42036.02
551.84	42148.37
552.01	42017.30
552.18	42066.45
552.34	41909.63
552.51	42148.37
552.68	41858.14
552.84	42188.16
553.01	42873.93
553.18	42415.19
553.34	42443.27
553.51	42019.64
553.67	42143.69
553.84	42665.63
554.01	42721.80
554.17	42464.34
554.34	43077.56
554.51	42546.26
554.67	42803.72
554.84	42777.97
555.00	42520.51
555.17	42583.71
555.33	42852.87
555.50	42623.50
555.67	42986.28
555.83	42869.25
556.00	43337.36
556.16	43332.68
556.33	43112.67
556.50	42782.65
556.66	43220.33
556.83	42213.90
556.99	43037.77
557.16	43356.08
557.32	42815.42
557.49	43124.37
557.65	43159.48
557.82	42696.05
557.98	42911.38
558.15	43171.18
558.32	43264.80
558.48	43075.22
558.65	42930.11
558.81	42899.68
558.98	43365.45
559.14	43222.67
559.31	43363.11
559.47	43068.20
559.64	43536.30
559.80	43370.13
559.97	43646.31
560.13	43248.42
560.30	43234.38
560.46	43365.45
560.63	42981.60
560.79	43700.14
560.96	43756.32
561.12	43676.74
561.29	43849.94
561.45	43311.61
561.61	43274.16
561.78	43285.87
561.94	43793.76
562.11	43269.48
562.27	43426.30
562.44	43643.97
562.60	43320.98
562.77	43353.74
562.93	43742.27
563.10	43629.93
563.26	43927.17
563.42	44011.43
563.59	43433.32
563.75	43775.04
563.92	43632.27
564.08	43899.09
564.24	43847.60
564.41	43627.59
564.57	43540.99
564.74	43473.11
564.90	44243.15
565.07	43941.22
565.23	43608.86
565.39	43859.30
565.56	43807.81
565.72	44060.58
565.88	44109.74
566.05	44107.40
566.21	43842.92
566.38	43576.09
566.54	43910.79
566.70	44453.79
566.87	44636.36
567.03	43817.17
567.19	44261.87
567.36	44287.62
567.52	44023.14
567.68	44678.49
567.85	44137.82
568.01	44058.24
568.17	44065.27
568.34	44091.01
568.50	43966.96
568.66	43985.69
568.83	44479.54
568.99	43878.02
569.15	44327.41
569.32	44158.89
569.48	43655.67
569.64	44832.96
569.81	44048.88
569.97	43936.54
570.13	44236.12
570.30	44144.84
570.46	44055.90
570.62	44350.81
570.78	43714.19
570.95	44238.47
571.11	44411.67
571.27	44119.10
571.43	44109.74
571.60	44170.59
571.76	44219.74
571.92	44062.93
572.09	44182.29
572.25	43791.42
572.41	44266.55
572.57	44781.47
572.74	44816.58
572.90	44528.69
573.06	44449.11
573.22	44519.33
573.38	44437.41
573.55	44212.72
573.71	44231.44
573.87	44507.63
574.03	44088.67
574.20	44322.72
574.36	44432.73
574.52	44591.89
574.68	44369.54
574.84	44414.01
575.01	44573.16
575.17	44676.15
575.33	44474.86
575.49	43988.03
575.65	44271.23
575.82	44552.10
575.98	44580.18
576.14	44926.58
576.30	44219.74
576.46	44388.26
576.62	43821.85
576.79	44179.95
576.95	44055.90
577.11	44023.14
577.27	44608.27
577.43	44264.21
577.59	44687.85
577.75	44626.99
577.92	44399.96
578.08	44439.75
578.24	44397.62
578.40	44095.69
578.56	44395.28
578.72	44491.24
578.88	44659.76
579.04	44842.32
579.21	44327.41
579.37	44570.82
579.53	44699.55
579.69	44444.43
579.85	44538.05
580.01	44563.80
580.17	44758.06
580.33	45071.70
580.49	44662.10
580.65	44912.54
580.82	44753.38
580.98	44444.43
581.14	44521.67
581.30	44566.14
581.46	44542.74
581.62	44739.34
581.78	44467.84
581.94	44648.06
582.10	44128.46
582.26	45155.96
582.42	44858.71
582.58	44533.37
582.74	44715.93
582.90	44568.48
583.06	44741.68
583.22	44746.36
583.38	44491.24
583.54	44748.70
583.70	44481.88
583.86	44753.38
584.02	44376.56
584.18	44414.01
584.34	44329.75
584.50	44729.98
584.66	44816.58
584.82	44528.69
584.98	45059.99
585.14	44423.37
585.30	44556.78
585.46	44594.23
585.62	44320.38
585.78	44500.61
585.94	44432.73
586.10	44285.28
586.26	44533.37
586.42	44566.14
586.58	44835.30
586.74	44619.97
586.90	44376.56
587.06	44444.43
587.22	44451.45
587.38	44465.50
587.54	45010.84
587.70	44612.95
587.86	45050.63
588.02	45233.19
588.18	44926.58
588.34	44739.34
588.49	44605.93
588.65	44392.94
588.81	44449.11
588.97	44828.28
589.13	44636.36
589.29	44484.22
589.45	44542.74
589.61	44666.78
589.77	45193.40
589.93	45221.49
590.08	45212.13
590.24	45162.98
