SpectraSuite Data File
++++++++++++++++++++++++++++++++++++
Date: Fri Oct 25 11:33:49 EDT 2013
User: price-jones
Dark Spectrum Present: No
Reference Spectrum Present: No
Number of Sampled Component Spectra: 1
Spectrometers: USB2+H05261
Integration Time (usec): 100000 (USB2+H05261)
Spectra Averaged: 1 (USB2+H05261)
Boxcar Smoothing: 0 (USB2+H05261)
Correct for Electrical Dark: No (USB2+H05261)
Strobe/Lamp Enabled: No (USB2+H05261)
Correct for Detector Non-linearity: No (USB2+H05261)
Correct for Stray Light: No (USB2+H05261)
Number of Pixels in Processed Spectrum: 2048
>>>>>Begin Processed Spectral Data<<<<<
365.73	283.20
365.92	283.20
366.12	283.20
366.32	222.35
366.52	175.54
366.72	208.31
366.91	175.54
367.11	194.26
367.31	119.37
367.51	231.71
367.70	168.52
367.90	201.29
368.10	236.39
368.30	163.84
368.49	147.45
368.69	203.63
368.89	140.43
369.09	140.43
369.28	210.65
369.48	140.43
369.68	198.95
369.87	231.71
370.07	180.22
370.27	276.18
370.47	271.50
370.66	477.47
370.86	540.66
371.06	512.58
371.25	557.05
371.45	557.05
371.65	528.96
371.84	535.98
372.04	545.34
372.24	547.69
372.44	615.56
372.63	615.56
372.83	531.30
373.03	643.65
373.22	528.96
373.42	681.10
373.62	648.33
373.81	610.88
374.01	634.29
374.21	662.37
374.40	669.39
374.60	676.41
374.79	650.67
374.99	690.46
375.19	704.50
375.38	631.94
375.58	653.01
375.78	655.35
375.97	683.44
376.17	678.76
376.37	636.63
376.56	706.84
376.76	620.24
376.95	690.46
377.15	669.39
377.35	734.93
377.54	627.26
377.74	603.86
377.93	667.05
378.13	781.74
378.33	760.67
378.52	746.63
378.72	713.86
378.91	709.18
379.11	706.84
379.31	730.25
379.50	730.25
379.70	744.29
379.89	765.36
380.09	767.70
380.28	732.59
380.48	763.01
380.68	730.25
380.87	723.23
381.07	765.36
381.26	837.91
381.46	809.83
381.65	758.33
381.85	777.06
382.04	730.25
382.24	800.46
382.43	823.87
382.63	763.01
382.83	784.08
383.02	814.51
383.22	809.83
383.41	870.68
383.61	802.80
383.80	842.59
384.00	844.93
384.19	795.78
384.39	870.68
384.58	788.76
384.78	821.53
384.97	828.55
385.17	826.21
385.36	894.08
385.56	777.06
385.75	800.46
385.95	755.99
386.14	849.61
386.34	828.55
386.53	849.61
386.72	793.44
386.92	868.34
387.11	908.13
387.31	889.40
387.50	837.91
387.70	870.68
387.89	856.64
388.09	903.45
388.28	887.06
388.48	861.32
388.67	912.81
388.86	936.21
389.06	976.00
389.25	976.00
389.45	910.47
389.64	952.60
389.84	917.49
390.03	966.64
390.22	961.96
390.42	901.11
390.61	940.90
390.81	901.11
391.00	910.47
391.19	1015.79
391.39	966.64
391.58	968.98
391.78	971.32
391.97	1121.12
392.16	1053.24
392.36	1050.90
392.55	992.39
392.75	1006.43
392.94	1015.79
393.13	1064.94
393.33	1111.75
393.52	1109.41
393.71	1090.69
393.91	1062.60
394.10	1149.20
394.29	1029.84
394.49	1046.22
394.68	1160.91
394.88	1142.18
395.07	1158.57
395.26	1088.35
395.46	1149.20
395.65	1186.65
395.84	1191.33
396.04	1177.29
396.23	1153.88
396.42	1170.27
396.62	1151.54
396.81	1315.38
397.00	1217.08
397.19	1282.61
397.39	1177.29
397.58	1245.16
397.77	1261.55
397.97	1212.40
398.16	1301.34
398.35	1259.21
398.55	1327.08
398.74	1275.59
398.93	1299.00
399.12	1306.02
399.32	1324.74
399.51	1277.93
399.70	1357.51
399.90	1329.42
400.09	1406.66
400.28	1315.38
400.47	1327.08
400.67	1413.68
400.86	1334.11
401.05	1439.43
401.24	1554.12
401.44	1406.66
401.63	1401.98
401.82	1497.94
402.01	1523.69
402.21	1509.65
402.40	1497.94
402.59	1526.03
402.78	1551.78
402.97	1514.33
403.17	1544.75
403.36	1582.20
403.55	1586.88
403.74	1558.80
403.93	1554.12
404.13	1626.67
404.32	1544.75
404.51	1605.61
404.70	1584.54
404.89	1661.78
405.09	1671.14
405.28	1607.95
405.47	1617.31
405.66	1757.74
405.85	1713.27
406.05	1722.63
406.24	1654.76
406.43	1706.25
406.62	1717.95
406.81	1792.85
407.00	1795.19
407.20	1804.55
407.39	1888.81
407.58	1884.13
407.77	1933.28
407.96	1879.45
408.15	1858.39
408.34	1877.11
408.54	1902.86
408.73	1900.52
408.92	1884.13
409.11	1930.94
409.30	1886.47
409.49	2031.58
409.68	2024.56
409.87	2143.93
410.07	2059.67
410.26	2087.76
410.45	2099.46
410.64	2085.42
410.83	2120.53
411.02	2207.13
411.21	2078.40
411.40	2204.78
411.59	2286.70
411.78	2136.91
411.98	2216.49
412.17	2246.91
412.36	2296.07
412.55	2209.47
412.74	2291.38
412.93	2333.51
413.12	2300.75
413.31	2455.22
413.50	2424.80
413.69	2443.52
413.88	2417.77
414.07	2511.39
414.26	2408.41
414.45	2490.33
414.64	2572.25
414.83	2445.86
415.02	2684.59
415.22	2544.16
415.41	2579.27
415.60	2675.23
415.79	2679.91
415.98	2684.59
416.17	2679.91
416.36	2761.83
416.55	2712.68
416.74	2726.72
416.93	2780.56
417.12	2696.30
417.31	2855.45
417.50	2951.42
417.69	2937.37
417.88	2949.08
418.07	2986.52
418.26	2972.48
418.45	2869.50
418.64	3096.53
418.83	3157.38
419.02	3063.76
419.21	3122.27
419.39	3089.51
419.58	3131.64
419.77	3101.21
419.96	3171.43
420.15	3178.45
420.34	3253.34
420.53	3222.92
420.72	3337.60
420.91	3218.24
421.10	3262.71
421.29	3346.97
421.48	3342.28
421.67	3335.26
421.86	3452.29
422.05	3349.31
422.24	3356.33
422.43	3323.56
422.61	3428.88
422.80	3452.29
422.99	3431.23
423.18	3463.99
423.37	3407.82
423.56	3389.10
423.75	3442.93
423.94	3524.85
424.13	3094.19
424.32	3258.03
424.50	3421.86
424.69	3524.85
424.88	3510.80
425.07	3471.01
425.26	3478.04
425.45	3234.62
425.64	3405.48
425.83	3478.04
426.01	3468.67
426.20	3515.48
426.39	3473.36
426.58	3559.95
426.77	3527.19
426.96	3644.21
427.15	3604.42
427.33	3566.98
427.52	3571.66
427.71	3634.85
427.90	3749.54
428.09	3581.02
428.28	3770.60
428.46	3700.39
428.65	3609.11
428.84	3733.15
429.03	3754.22
429.22	3695.71
429.40	3625.49
429.59	3761.24
429.78	3625.49
429.97	3679.32
430.16	3641.87
430.34	3810.39
430.53	3751.88
430.72	3962.53
430.91	3845.50
431.10	3904.01
431.28	3801.03
431.47	3934.44
431.66	3974.23
431.85	3957.85
432.03	3964.87
432.22	4173.18
432.41	4051.47
432.60	4025.72
432.79	4079.55
432.97	4133.39
433.16	4037.42
433.35	4138.07
433.54	4147.43
433.72	4121.68
433.91	4271.48
434.10	4271.48
434.28	4203.60
434.47	4210.62
434.66	4257.43
434.85	4145.09
435.03	4203.60
435.22	4383.82
435.41	4442.34
435.59	4322.97
435.78	4418.93
435.97	4437.66
436.16	4334.67
436.34	4337.01
436.53	4468.08
436.72	4489.15
436.90	4376.80
437.09	4418.93
437.28	4442.34
437.46	4498.51
437.65	4444.68
437.84	4631.92
438.02	4608.51
438.21	4655.33
438.40	4615.54
438.58	4887.04
438.77	4713.84
438.96	4788.74
439.14	4973.64
439.33	4926.83
439.52	4919.81
439.70	5050.88
439.89	4924.49
440.08	4966.62
440.26	5067.26
440.45	4873.00
440.63	5102.37
440.82	5214.71
441.01	5219.39
441.19	5186.63
441.38	5291.95
441.57	5280.25
441.75	5226.42
441.94	5343.44
442.12	5322.38
442.31	5535.37
442.50	5523.66
442.68	5465.15
442.87	5376.21
443.05	5600.90
443.24	5617.29
443.43	5490.90
443.61	5607.92
443.80	5619.63
443.98	5570.48
444.17	5287.27
444.35	5689.84
444.54	5696.86
444.73	5673.46
444.91	5715.59
445.10	5446.43
445.28	5694.52
445.47	5490.90
445.65	5703.89
445.84	5692.18
446.02	5888.79
446.21	5650.05
446.39	5834.96
446.58	5865.38
446.77	5678.14
446.95	5497.92
447.14	5638.35
447.32	5956.66
447.51	5867.72
447.69	5837.30
447.88	5785.80
448.06	5893.47
448.25	5654.73
448.43	5675.80
448.62	5675.80
448.80	5659.42
448.99	5717.93
449.17	5973.05
449.36	5940.28
449.54	6019.86
449.73	6155.61
449.91	6186.04
450.10	6022.20
450.28	6073.69
450.46	6094.76
450.65	6125.18
450.83	6094.76
451.02	6122.84
451.20	6356.90
451.39	6312.42
451.57	6129.86
451.76	6036.24
451.94	6033.90
452.13	6396.68
452.31	6263.27
452.49	6141.57
452.68	6282.00
452.86	6235.19
453.05	6445.84
453.23	6523.07
453.42	6153.27
453.60	6253.91
453.78	6476.26
453.97	6368.60
454.15	6328.81
454.34	6490.31
454.52	6497.33
454.70	6513.71
454.89	6778.19
455.07	6586.27
455.26	6750.10
455.44	6682.23
455.62	6829.68
455.81	6604.99
455.99	6834.36
456.17	6703.29
456.36	6815.64
456.54	6757.13
456.73	6895.22
456.91	7035.65
457.09	7035.65
457.28	7080.12
457.46	6939.69
457.64	6930.33
457.83	7108.21
458.01	7026.29
458.19	7204.17
458.38	7260.34
458.56	7016.93
458.74	7192.47
458.93	7246.30
459.11	7316.51
459.29	7201.83
459.48	7119.91
459.66	7229.91
459.84	7176.08
460.03	7473.33
460.21	7351.62
460.39	7351.62
460.57	7389.07
460.76	7595.04
460.94	7480.35
461.12	7527.16
461.31	7585.68
461.49	7419.50
461.67	7616.10
461.85	7644.19
462.04	7660.57
462.22	8016.33
462.40	7772.92
462.59	7812.71
462.77	7744.83
462.95	7808.03
463.13	7728.45
463.32	7702.70
463.50	7953.14
463.68	7929.74
463.86	8088.89
464.05	7585.68
464.23	7988.25
464.41	8077.19
464.59	7749.51
464.78	8051.44
464.96	7873.56
465.14	7906.33
465.32	7995.27
465.50	8304.22
465.69	8219.96
465.87	8180.17
466.05	8070.17
466.23	8149.75
466.41	8369.76
466.60	8292.52
466.78	8189.53
466.96	8308.90
467.14	8161.45
467.32	8238.69
467.51	8512.53
467.69	8161.45
467.87	8229.32
468.05	8428.27
468.23	8180.17
468.41	8367.42
468.60	8147.40
468.78	8355.71
468.96	8540.61
469.14	8526.57
469.32	8882.33
469.50	8486.78
469.69	8650.62
469.87	8814.46
470.05	8585.08
470.23	8723.18
470.41	8816.80
470.59	8861.27
470.77	8978.30
470.95	8814.46
471.14	8915.10
471.32	8903.40
471.50	8922.12
471.68	9102.34
471.86	9032.13
472.04	9198.31
472.22	9399.59
472.40	9158.52
472.58	9217.03
472.77	9334.06
472.95	9245.12
473.13	9635.99
473.31	9432.36
473.49	9287.25
473.67	9312.99
473.85	9549.39
474.03	9708.54
474.21	9675.77
474.39	9745.99
474.57	9696.84
474.75	9944.94
474.93	9806.84
475.12	9916.85
475.30	9926.21
475.48	9977.70
475.66	10181.33
475.84	10169.63
476.02	10143.88
476.20	10338.15
476.38	10253.89
476.56	10537.09
476.74	10548.79
476.92	10438.79
477.10	10399.00
477.28	10689.23
477.46	10988.82
477.64	10635.39
477.82	10986.47
478.00	10885.83
478.18	11176.06
478.36	11124.57
478.54	11248.61
478.72	11255.64
478.90	11538.84
479.08	11683.95
479.26	11822.05
479.44	11630.12
479.62	11646.51
479.80	12156.74
479.98	11922.69
480.16	12334.62
480.34	12133.34
480.52	12442.29
480.70	12229.30
480.88	12301.86
481.06	12299.52
481.24	12276.11
481.41	12582.72
481.59	12760.60
481.77	12589.74
481.95	12837.84
482.13	12989.97
482.31	13254.45
482.49	13303.60
482.67	13247.43
482.85	13411.27
483.03	13568.09
483.21	13607.87
483.39	13696.82
483.57	13621.92
483.74	13811.50
483.92	14083.00
484.10	13715.54
484.28	14115.77
484.46	14368.55
484.64	14906.87
484.82	14319.40
485.00	14642.39
485.18	14754.74
485.35	15136.24
485.53	14986.45
485.71	15283.70
485.89	15323.49
486.07	15159.65
486.25	15529.45
486.43	15482.64
486.61	15686.27
486.78	15756.49
486.96	15906.28
487.14	16102.89
487.32	15969.48
487.50	16446.94
487.68	16453.97
487.85	16737.17
488.03	16762.92
488.21	16819.09
488.39	17011.01
488.57	17011.01
488.75	17495.50
488.92	17273.15
489.10	17593.81
489.28	17811.48
489.46	17666.36
489.64	17776.37
489.81	18061.91
489.99	17874.67
490.17	18195.32
490.35	18422.36
490.53	18527.68
490.70	18696.20
490.88	18635.35
491.06	18899.83
491.24	18778.12
491.41	19126.86
491.59	19012.17
491.77	19178.35
491.95	19571.56
492.13	19461.55
492.30	19281.33
492.48	19674.54
492.66	19683.91
492.84	19683.91
493.01	20212.87
493.19	20453.94
493.37	20100.52
493.54	20409.47
493.72	20896.30
493.90	20428.20
494.08	21088.23
494.25	20840.13
494.43	21156.10
494.61	20863.54
494.79	21308.24
494.96	21336.32
495.14	21434.63
495.32	21661.66
495.49	21860.60
495.67	22078.27
495.85	21788.05
496.02	22052.53
496.20	22464.46
496.38	22616.60
496.55	22448.08
496.73	22813.20
496.91	22422.33
497.09	22630.64
497.26	22672.77
497.44	22747.67
497.62	22981.72
497.79	23255.56
497.97	23190.03
498.14	23400.68
498.32	23611.32
498.50	23740.05
498.67	23861.76
498.85	23611.32
499.03	23737.71
499.20	24130.92
499.38	24421.15
499.56	24498.39
499.73	24484.34
499.91	24294.76
500.08	24805.00
500.26	24423.49
500.44	24589.67
500.61	24643.50
500.79	24676.27
500.97	24987.56
501.14	25455.67
501.32	25088.20
501.49	25355.02
501.67	25521.20
501.84	25706.10
502.02	25317.57
502.20	25504.82
502.37	25813.77
502.55	25755.26
502.72	25933.14
502.90	26096.97
503.07	25984.63
503.25	26270.17
503.43	26267.83
503.60	26522.95
503.78	26387.20
503.95	26324.01
504.13	26590.83
504.30	26684.45
504.48	26855.31
504.65	26698.49
504.83	27405.33
505.01	27199.37
505.18	26895.10
505.36	27061.27
505.53	27386.61
505.71	27154.90
505.88	27070.64
506.06	27030.85
506.23	27981.10
506.41	26977.01
506.58	27559.81
506.76	27658.11
506.93	27590.24
507.11	27693.22
507.28	28156.64
507.46	28212.82
507.63	28177.71
507.81	28226.86
507.98	28215.16
508.16	28512.41
508.33	28638.80
508.50	28762.84
508.68	28861.15
508.85	28713.69
509.03	28559.22
509.20	29053.07
509.38	28503.04
509.55	29085.84
509.73	29291.80
509.90	29263.72
510.08	29523.52
510.25	29385.43
510.42	29593.73
510.60	29467.34
510.77	29890.98
510.95	29855.87
511.12	29457.98
511.30	29937.79
511.47	30057.16
511.64	30045.46
511.82	30384.83
511.99	30003.33
512.17	30384.83
512.34	30263.13
512.51	30817.83
512.69	30740.60
512.86	30637.61
513.04	30635.27
513.21	31140.83
513.38	30995.71
513.56	31267.22
513.73	31108.06
513.90	31482.55
514.08	30895.07
514.25	31431.05
514.43	31351.48
514.60	31676.81
514.77	31641.70
514.95	31391.26
515.12	31388.92
515.29	31632.34
515.47	31934.27
515.64	31896.82
515.81	31955.33
515.99	31943.63
516.16	32428.12
516.33	31985.76
516.51	32767.50
516.68	32378.97
516.85	32545.15
517.03	32704.31
517.20	32863.46
517.37	32666.86
517.54	32954.74
517.72	32411.74
517.89	33036.66
518.06	33097.52
518.24	32975.81
518.41	33113.90
518.58	32849.42
518.75	33291.78
518.93	33226.24
519.10	33092.83
519.27	33841.81
519.45	33619.46
519.62	33687.33
519.79	33322.21
519.96	33502.43
520.14	33958.83
520.31	33434.55
520.48	34134.37
520.65	34263.10
520.83	34246.72
521.00	34565.03
521.17	34314.59
521.34	34251.40
521.52	34082.88
521.69	34560.35
521.86	34778.02
522.03	34749.93
522.20	34806.11
522.38	34913.77
522.55	35150.17
522.72	35070.59
522.89	35077.61
523.07	35646.36
523.24	35068.25
523.41	34998.03
523.58	35218.04
523.75	35723.60
523.92	34958.24
524.10	35435.71
524.27	35452.09
524.44	35395.92
524.61	35817.22
524.78	35716.58
524.96	36208.09
525.13	36112.13
525.30	36400.01
525.47	36168.30
525.64	36048.93
525.81	36030.21
525.98	36282.98
526.16	36233.83
526.33	35997.44
526.50	36531.08
526.67	36521.72
526.84	36601.30
527.01	36610.66
527.18	36559.17
527.36	36636.41
527.53	36973.44
527.70	37008.55
527.87	37043.66
528.04	36893.86
528.21	36849.39
528.38	37151.32
528.55	37139.62
528.72	37223.88
528.89	37434.53
529.07	37167.71
529.24	37242.60
529.41	37586.66
529.58	37399.42
529.75	37656.88
529.92	37713.05
530.09	37724.75
530.26	37380.70
530.43	37904.98
530.60	37741.14
530.77	37750.50
530.94	37804.33
531.11	37886.25
531.28	37727.10
531.46	37839.44
531.63	38253.72
531.80	37940.08
531.97	38876.30
532.14	38237.33
532.31	38223.29
532.48	38700.76
532.65	38960.56
532.82	38382.45
532.99	38827.15
533.16	38735.87
533.33	38850.55
533.50	38850.55
533.67	38548.62
533.84	38513.52
534.01	38794.38
534.18	38527.56
534.35	39407.60
534.52	38604.80
534.69	39206.31
534.86	39323.34
535.03	39164.18
535.20	39372.49
535.37	38972.26
535.54	39363.13
535.71	39435.69
535.88	39789.11
536.05	39213.34
536.22	39798.47
536.38	39828.90
536.55	39796.13
536.72	39536.33
536.89	39625.27
537.06	39679.10
537.23	39796.13
537.40	39512.92
537.57	39894.43
537.74	39985.71
537.91	39885.07
538.08	39952.94
538.25	39662.72
538.42	40009.12
538.59	40332.11
538.75	40161.25
538.92	40362.54
539.09	40507.65
539.26	40685.53
539.43	40514.67
539.60	40692.55
539.77	40350.84
539.94	40828.30
540.11	41078.74
540.28	41043.63
540.44	40816.60
540.61	40268.92
540.78	40451.48
540.95	40835.33
541.12	41017.89
541.29	40655.11
541.46	41165.34
541.62	41071.72
541.79	41375.99
541.96	40926.61
542.13	40556.80
542.30	40701.92
542.47	41399.40
542.63	41020.23
542.80	41378.33
542.97	41759.84
543.14	42003.25
543.31	41865.16
543.48	41694.30
543.64	41907.29
543.81	42019.64
543.98	41546.85
544.15	41853.46
544.32	41942.40
544.48	41968.15
544.65	41968.15
544.82	42307.52
544.99	41998.57
545.16	42265.39
545.32	42216.24
545.49	42366.04
545.66	42747.54
545.83	42541.58
546.00	42316.89
546.16	42710.10
546.33	42515.83
546.50	42457.32
546.67	42724.14
546.83	42162.41
547.00	42763.93
547.17	42873.93
547.34	42803.72
547.50	43068.20
547.67	43421.62
547.84	43023.73
548.00	42906.70
548.17	43489.49
548.34	43063.52
548.51	43566.73
548.67	42997.98
548.84	43077.56
549.01	43276.51
549.18	42656.26
549.34	43091.60
549.51	43707.16
549.68	43643.97
549.84	43438.00
550.01	43538.65
550.18	43274.16
550.34	43229.69
550.51	44018.46
550.68	44027.82
550.84	43164.16
551.01	44198.68
551.18	43613.54
551.34	43831.21
551.51	43995.05
551.68	43620.56
551.84	43688.44
552.01	43548.01
552.18	44086.33
552.34	43709.50
552.51	43716.53
552.68	43952.92
552.84	43962.28
553.01	43807.81
553.18	43782.06
553.34	44196.34
553.51	44201.02
553.67	44304.00
553.84	44048.88
554.01	44369.54
554.17	44383.58
554.34	44797.85
554.51	44172.93
554.67	44339.11
554.84	44835.30
555.00	44516.99
555.17	44184.63
555.33	44999.14
555.50	44383.58
555.67	44315.70
555.83	44643.38
556.00	44755.72
556.16	45394.69
556.33	45031.91
556.50	44804.88
556.66	44823.60
556.83	44694.87
556.99	45003.82
557.16	44959.35
557.32	45132.55
557.49	45006.16
557.65	44374.22
557.82	44940.63
557.98	44912.54
558.15	45172.34
558.32	45099.78
558.48	45249.58
558.65	45464.91
558.81	45249.58
558.98	44849.35
559.14	45280.00
559.31	45530.44
559.47	44776.79
559.64	45294.05
559.80	45333.84
559.97	45464.91
560.13	44727.64
560.30	45649.81
560.46	45727.05
560.63	45574.91
560.79	45862.80
560.96	45610.02
561.12	45844.07
561.29	45741.09
561.45	45762.15
561.61	45846.41
561.78	45090.42
561.94	45673.21
562.11	45371.28
562.27	45668.53
562.44	45635.77
562.60	45897.91
562.77	45928.33
562.93	45542.14
563.10	45965.78
563.26	45722.37
563.42	46129.62
563.59	46284.09
563.75	45605.34
563.92	45904.93
564.08	45900.25
564.24	45914.29
564.41	45656.83
564.57	46410.48
564.74	45778.54
564.90	46089.83
565.07	46129.62
565.23	46192.81
565.39	45923.65
565.56	45982.16
565.72	46248.99
565.88	46080.47
566.05	46312.18
566.21	46038.34
566.38	46204.52
566.54	46012.59
566.70	46323.88
566.87	45949.40
567.03	45752.79
567.19	46522.83
567.36	46043.02
567.52	46253.67
567.68	46344.95
567.85	46663.26
568.01	46426.87
568.17	46810.71
568.34	46520.49
568.50	46419.84
568.66	46267.71
568.83	46309.84
568.99	46918.38
569.15	46511.13
569.32	46263.03
569.48	46092.17
569.64	46937.10
569.81	46806.03
569.97	46635.17
570.13	46761.56
570.30	46209.20
570.46	46389.42
570.62	46564.96
570.78	46770.93
570.95	46323.88
571.11	46700.71
571.27	46604.75
571.43	46618.79
571.60	46527.51
571.76	46101.53
571.92	46574.32
572.09	46658.58
572.25	46595.38
572.41	46417.50
572.57	46499.42
572.74	47105.62
572.90	46618.79
573.06	46658.58
573.22	46518.15
573.38	47030.72
573.55	46670.28
573.71	46913.70
573.87	46871.57
574.03	46761.56
574.20	47077.54
574.36	46476.02
574.52	46960.51
574.68	46918.38
574.84	47423.93
575.01	47213.29
575.17	46892.63
575.33	46937.10
575.49	46714.75
575.65	47157.11
575.82	46838.80
575.98	46995.62
576.14	46990.94
576.30	47681.39
576.46	47056.47
576.62	47023.70
576.79	47222.65
576.95	46366.01
577.11	47178.18
577.27	47054.13
577.43	47133.71
577.59	46831.78
577.75	46639.86
577.92	47023.70
578.08	47107.96
578.24	46904.34
578.40	47297.55
578.56	47452.02
578.72	47365.42
578.88	47157.11
579.04	47199.24
579.21	47175.84
579.37	47246.05
579.53	47569.05
579.69	46880.93
579.85	47393.51
580.01	47079.88
580.17	47026.04
580.33	46955.83
580.49	47377.12
580.65	46843.48
580.82	47302.23
580.98	46909.02
581.14	46871.57
581.30	47189.88
581.46	46913.70
581.62	47075.19
581.78	46829.44
581.94	46946.47
582.10	47409.89
582.26	47213.29
582.42	47114.98
582.58	47405.21
582.74	47119.66
582.90	47002.64
583.06	47278.82
583.22	47100.94
583.38	47555.00
583.54	47459.04
583.70	47061.15
583.86	47402.87
584.02	47349.04
584.18	47583.09
584.34	47234.35
584.50	47187.54
584.66	47217.97
584.82	47655.65
584.98	47604.16
585.14	47571.39
585.30	47107.96
585.46	47452.02
585.62	47295.21
585.78	47576.07
585.94	47210.95
586.10	47313.93
586.26	46932.42
586.42	47028.38
586.58	47241.37
586.74	47515.22
586.90	47028.38
587.06	47091.58
587.22	46981.57
587.38	47255.42
587.54	47629.90
587.70	47730.54
587.86	47302.23
588.02	47473.09
588.18	47510.53
588.34	47276.48
588.49	47187.54
588.65	47171.16
588.81	47430.96
588.97	47732.89
589.13	47243.71
589.29	47269.46
589.45	47646.29
589.61	47901.40
589.77	47999.71
589.93	47365.42
590.08	47440.32
