SpectraSuite Data File
++++++++++++++++++++++++++++++++++++
Date: Fri Oct 25 11:22:54 EDT 2013
User: price-jones
Dark Spectrum Present: No
Reference Spectrum Present: No
Number of Sampled Component Spectra: 1
Spectrometers: USB2+H05261
Integration Time (usec): 100000 (USB2+H05261)
Spectra Averaged: 1 (USB2+H05261)
Boxcar Smoothing: 0 (USB2+H05261)
Correct for Electrical Dark: No (USB2+H05261)
Strobe/Lamp Enabled: No (USB2+H05261)
Correct for Detector Non-linearity: No (USB2+H05261)
Correct for Stray Light: No (USB2+H05261)
Number of Pixels in Processed Spectrum: 2048
>>>>>Begin Processed Spectral Data<<<<<
365.73	238.73
365.92	238.73
366.12	238.73
366.32	159.16
366.52	107.66
366.72	135.75
366.91	149.79
367.11	147.45
367.31	88.94
367.51	77.24
367.70	93.62
367.90	152.13
368.10	91.28
368.30	121.71
368.49	121.71
368.69	180.22
368.89	156.82
369.09	149.79
369.28	154.48
369.48	105.32
369.68	154.48
369.87	194.26
370.07	210.65
370.27	248.10
370.47	259.80
370.66	564.07
370.86	688.12
371.06	671.73
371.25	671.73
371.45	676.41
371.65	704.50
371.84	678.76
372.04	718.54
372.24	657.69
372.44	688.12
372.63	791.10
372.83	858.98
373.03	737.27
373.22	723.23
373.42	821.53
373.62	781.74
373.81	807.48
374.01	695.14
374.21	847.27
374.40	723.23
374.60	828.55
374.79	821.53
374.99	854.30
375.19	863.66
375.38	842.59
375.58	770.04
375.78	889.40
375.97	858.98
376.17	866.00
376.37	826.21
376.56	821.53
376.76	873.02
376.95	842.59
377.15	840.25
377.35	866.00
377.54	840.25
377.74	880.04
377.93	924.51
378.13	901.11
378.33	894.08
378.52	901.11
378.72	973.66
378.91	866.00
379.11	1011.11
379.31	931.53
379.50	901.11
379.70	901.11
379.89	938.55
380.09	931.53
380.28	917.49
380.48	917.49
380.68	933.87
380.87	1039.20
381.07	1053.24
381.26	1020.47
381.46	1043.88
381.65	1090.69
381.85	990.05
382.04	1001.75
382.24	1029.84
382.43	1008.77
382.63	1039.20
382.83	1100.05
383.02	1130.48
383.22	1116.44
383.41	1074.31
383.61	1076.65
383.80	1146.86
384.00	1121.12
384.19	1100.05
384.39	1067.28
384.58	1078.99
384.78	1125.80
384.97	1100.05
385.17	1151.54
385.36	1165.59
385.56	1196.01
385.75	1238.14
385.95	1163.25
386.14	1142.18
386.34	1231.12
386.53	1170.27
386.72	1142.18
386.92	1249.85
387.11	1249.85
387.31	1287.29
387.50	1191.33
387.70	1270.91
387.89	1186.65
388.09	1299.00
388.28	1273.25
388.48	1249.85
388.67	1317.72
388.86	1242.82
389.06	1329.42
389.25	1331.76
389.45	1413.68
389.64	1310.70
389.84	1294.32
390.03	1355.17
390.22	1387.94
390.42	1448.79
390.61	1465.18
390.81	1273.25
391.00	1439.43
391.19	1413.68
391.39	1394.96
391.58	1462.83
391.78	1362.19
391.97	1504.96
392.16	1507.30
392.36	1486.24
392.55	1556.46
392.75	1483.90
392.94	1605.61
393.13	1591.56
393.33	1502.62
393.52	1556.46
393.71	1579.86
393.91	1631.35
394.10	1640.72
394.29	1572.84
394.49	1631.35
394.68	1666.46
394.88	1654.76
395.07	1605.61
395.26	1689.87
395.46	1659.44
395.65	1753.06
395.84	1657.10
396.04	1856.04
396.23	1811.57
396.42	1753.06
396.62	1727.32
396.81	1689.87
397.00	1762.42
397.19	1806.89
397.39	1778.81
397.58	1930.94
397.77	1790.51
397.97	1729.66
398.16	1832.64
398.35	1933.28
398.55	1949.67
398.74	1905.20
398.93	1989.46
399.12	1895.83
399.32	1942.64
399.51	1919.24
399.70	1987.11
399.90	1968.39
400.09	1956.69
400.28	2148.61
400.47	2036.27
400.67	2157.97
400.86	2148.61
401.05	2080.74
401.24	2045.63
401.44	2141.59
401.63	2160.31
401.82	2120.53
402.01	2118.18
402.21	2139.25
402.40	2113.50
402.59	2190.74
402.78	2202.44
402.97	2235.21
403.17	2176.70
403.36	2246.91
403.55	2366.28
403.74	2377.98
403.93	2452.88
404.13	2389.69
404.32	2387.35
404.51	2354.58
404.70	2349.90
404.89	2471.61
405.09	2480.97
405.28	2387.35
405.47	2476.29
405.66	2466.92
405.85	2495.01
406.05	2565.23
406.24	2487.99
406.43	2647.15
406.62	2616.72
406.81	2780.56
407.00	2593.31
407.20	2553.52
407.39	2736.09
407.58	2691.62
407.77	2750.13
407.96	2745.45
408.15	2822.69
408.34	2717.36
408.54	2778.22
408.73	2740.77
408.92	2892.90
409.11	2785.24
409.30	2813.32
409.49	2970.14
409.68	2899.92
409.87	2986.52
410.07	2939.71
410.26	3007.59
410.45	2974.82
410.64	3117.59
410.83	3094.19
411.02	2984.18
411.21	3148.02
411.40	3112.91
411.59	3091.85
411.78	3056.74
411.98	3183.13
412.17	3187.81
412.36	3293.13
412.55	3442.93
412.74	3414.84
412.93	3428.88
413.12	3337.60
413.31	3758.90
413.50	3550.59
413.69	3588.04
413.88	3660.60
414.07	3684.00
414.26	3588.04
414.45	3620.81
414.64	3742.52
414.83	3702.73
415.02	3808.05
415.22	3873.59
415.41	3887.63
415.60	3815.07
415.79	3936.78
415.98	3962.53
416.17	4002.32
416.36	4007.00
416.55	3904.01
416.74	4044.45
416.93	3981.25
417.12	4105.30
417.31	4142.75
417.50	4320.63
417.69	4503.19
417.88	4369.78
418.07	4245.73
418.26	4390.84
418.45	4388.50
418.64	4372.12
418.83	4379.14
419.02	4472.76
419.21	4573.41
419.39	4568.73
419.58	4571.07
419.77	4479.79
419.96	4449.36
420.15	4655.33
420.34	4737.24
420.53	4627.24
420.72	4793.42
420.91	4702.14
421.10	4760.65
421.29	4826.18
421.48	4741.93
421.67	4777.03
421.86	4870.65
422.05	4812.14
422.24	5001.72
422.43	4957.25
422.61	4870.65
422.80	4828.53
422.99	4945.55
423.18	4877.68
423.37	5008.75
423.56	4924.49
423.75	5093.01
423.94	4891.72
424.13	4648.30
424.32	4931.51
424.50	5036.83
424.69	5242.80
424.88	5018.11
425.07	5078.96
425.26	4947.89
425.45	4936.19
425.64	4884.70
425.83	5041.51
426.01	5055.56
426.20	5018.11
426.39	5069.60
426.58	5102.37
426.77	5242.80
426.96	5224.08
427.15	5149.18
427.33	5254.50
427.52	5123.43
427.71	5401.96
427.90	5055.56
428.09	5228.76
428.28	5408.98
428.46	5427.70
428.65	5378.55
428.84	5600.90
429.03	5699.20
429.22	5469.83
429.40	5406.64
429.59	5593.88
429.78	5558.77
429.97	5296.63
430.16	5460.47
430.34	5645.37
430.53	5591.54
430.72	5743.67
430.91	5619.63
431.10	5610.26
431.28	5830.27
431.47	5818.57
431.66	5851.34
431.85	5959.00
432.03	6064.33
432.22	6031.56
432.41	6050.28
432.60	5893.47
432.79	6118.16
432.97	6078.37
433.16	6160.29
433.35	5905.17
433.54	6167.31
433.72	6012.84
433.91	6134.54
434.10	6155.61
434.28	6153.27
434.47	6193.06
434.66	6195.40
434.85	6415.41
435.03	6380.30
435.22	6258.59
435.41	6499.67
435.59	6604.99
435.78	6347.53
435.97	6614.35
436.16	6590.95
436.34	6483.28
436.53	6478.60
436.72	6707.98
436.90	6586.27
437.09	6771.17
437.28	6527.75
437.46	6700.95
437.65	6700.95
437.84	6747.76
438.02	6679.89
438.21	6796.92
438.40	6813.30
438.58	6991.18
438.77	7094.16
438.96	7077.78
439.14	7225.23
439.33	7218.21
439.52	7236.94
439.70	7073.10
439.89	7424.18
440.08	7442.90
440.26	7316.51
440.45	7456.95
440.63	7639.51
440.82	7456.95
441.01	7620.78
441.19	7597.38
441.38	7765.90
441.57	7779.94
441.75	7808.03
441.94	7939.10
442.12	8093.57
442.31	8126.34
442.50	8028.04
442.68	8009.31
442.87	8159.11
443.05	8217.62
443.24	8369.76
443.43	8168.47
443.61	8308.90
443.80	8472.74
443.98	8060.80
444.17	7999.95
444.35	8372.10
444.54	8554.66
444.73	8322.94
444.91	8388.48
445.10	8449.33
445.28	8290.18
445.47	8358.05
445.65	8212.94
445.84	8325.29
446.02	8489.12
446.21	8444.65
446.39	8351.03
446.58	8519.55
446.77	8430.61
446.95	8229.32
447.14	8411.89
447.32	8601.47
447.51	8585.08
447.69	8353.37
447.88	8388.48
448.06	8549.98
448.25	8723.18
448.43	8652.96
448.62	8631.90
448.80	8526.57
448.99	8748.92
449.17	8690.41
449.36	8664.66
449.54	9137.45
449.73	9067.24
449.91	9186.60
450.10	9055.53
450.28	9130.43
450.46	9107.02
450.65	8978.30
450.83	9053.19
451.02	9217.03
451.20	9195.96
451.39	9291.93
451.57	9263.84
451.76	9085.96
451.94	9181.92
452.13	9341.08
452.31	9359.80
452.49	9406.61
452.68	9486.19
452.86	9420.66
453.05	9624.28
453.23	9514.28
453.42	9523.64
453.60	9493.21
453.78	9863.02
453.97	9612.58
454.15	9514.28
454.34	9640.67
454.52	9905.15
454.70	9696.84
454.89	9802.16
455.07	9958.98
455.26	10036.22
455.44	10281.97
455.62	9947.28
455.81	10012.81
455.99	10104.09
456.17	10085.37
456.36	10108.77
456.54	10253.89
456.73	10235.16
456.91	10434.11
457.09	10586.24
457.28	10712.63
457.46	10321.76
457.64	10651.78
457.83	10696.25
458.01	10494.96
458.19	10930.30
458.38	10738.38
458.56	10974.77
458.74	10733.70
458.93	10616.67
459.11	10810.93
459.29	10829.66
459.48	10904.56
459.66	10963.07
459.84	10773.49
460.03	11255.64
460.21	11302.45
460.39	11105.84
460.57	10801.57
460.76	11129.25
460.94	11236.91
461.12	11246.27
461.31	11206.48
461.49	11316.49
461.67	11171.38
461.85	11496.71
462.04	11332.87
462.22	11744.81
462.40	11466.28
462.59	11515.44
462.77	11466.28
462.95	11611.40
463.13	11740.13
463.32	11616.08
463.50	12030.35
463.68	11910.99
463.86	11740.13
464.05	11641.82
464.23	11784.60
464.41	11812.68
464.59	11630.12
464.78	12374.41
464.96	12053.76
465.14	11754.17
465.32	12266.75
465.50	12175.47
465.69	12336.96
465.87	12184.83
466.05	12255.04
466.23	12175.47
466.41	12587.40
466.60	12648.26
466.78	12287.81
466.96	12301.86
467.14	12325.26
467.32	12615.49
467.51	12662.30
467.69	12411.86
467.87	12739.54
468.05	12718.47
468.23	12650.60
468.41	12727.83
468.60	12978.27
468.78	12809.75
468.96	12662.30
469.14	12908.05
469.32	13193.60
469.50	12545.27
469.69	13240.41
469.87	13116.36
470.05	12992.31
470.23	13273.18
470.41	13357.44
470.59	13455.74
470.77	13343.39
470.95	13493.19
471.14	13528.30
471.32	13348.08
471.50	13603.19
471.68	13790.44
471.86	13692.13
472.04	13935.55
472.22	14169.60
472.40	13909.80
472.58	13947.25
472.77	14118.11
472.95	14216.41
473.13	14677.50
473.31	14075.98
473.49	14300.67
473.67	14295.99
473.85	14483.24
474.03	14834.32
474.21	14670.48
474.39	14766.44
474.57	15054.33
474.75	14972.41
474.93	14871.76
475.12	15049.64
475.30	15222.84
475.48	15129.22
475.66	15513.07
475.84	15321.15
476.02	15470.94
476.20	15803.30
476.38	16100.55
476.56	16161.40
476.74	16060.76
476.92	16037.35
477.10	16013.95
477.28	16416.52
477.46	16238.64
477.64	16622.48
477.82	16774.62
478.00	17167.83
478.18	16821.43
478.36	17177.19
478.54	17282.52
478.72	17207.62
478.90	17357.41
479.08	17729.56
479.26	18132.13
479.44	17858.29
479.62	17954.25
479.80	18307.67
479.98	18616.62
480.16	18546.40
480.34	18359.16
480.52	18752.37
480.70	18675.13
480.88	18827.27
481.06	18876.42
481.24	19063.66
481.41	19236.86
481.59	19218.14
481.77	19688.59
481.95	19646.46
482.13	19948.39
482.31	19702.63
482.49	20510.11
482.67	20346.28
482.85	20711.40
483.03	20844.81
483.21	20788.64
483.39	21282.49
483.57	21369.09
483.74	21240.36
483.92	21851.24
484.10	21333.98
484.28	21942.52
484.46	22249.13
484.64	22532.34
484.82	22118.06
485.00	22478.50
485.18	22576.81
485.35	22984.06
485.53	23061.30
485.71	23381.95
485.89	23714.31
486.07	23742.39
486.25	23688.56
486.43	24243.27
486.61	24339.23
486.78	24056.03
486.96	24360.30
487.14	24973.52
487.32	25057.78
487.50	25331.62
487.68	25053.09
487.85	25631.21
488.03	25699.08
488.21	25867.60
488.39	25731.85
488.57	26106.34
488.75	26569.76
488.92	26815.52
489.10	26614.23
489.28	26953.61
489.46	27101.06
489.64	27372.57
489.81	27770.46
489.99	27864.08
490.17	28086.43
490.35	28037.28
490.53	28247.93
490.70	28400.06
490.88	28123.88
491.06	29139.67
491.24	28912.64
491.41	29076.48
491.59	29806.72
491.77	29764.59
491.95	30061.84
492.13	29785.66
492.30	30504.20
492.48	30206.95
492.66	30588.46
492.84	31044.87
493.01	31075.29
493.19	30899.75
493.37	31241.47
493.54	31243.81
493.72	31531.70
493.90	31938.95
494.08	31817.24
494.25	32327.48
494.43	32634.09
494.61	32716.01
494.79	32645.79
494.96	32865.80
495.14	33294.12
495.32	33448.60
495.49	33441.57
495.67	33448.60
495.85	34150.76
496.02	33886.28
496.20	34291.19
496.38	34464.39
496.55	34693.76
496.73	34817.81
496.91	34740.57
497.09	35093.99
497.26	35180.59
497.44	34911.43
497.62	35344.43
497.79	36442.14
497.97	35803.17
498.14	36168.30
498.32	36318.09
498.50	36378.95
498.67	36795.56
498.85	36793.22
499.03	37034.30
499.20	36978.12
499.38	37287.07
499.56	37097.49
499.73	37181.75
499.91	37493.04
500.08	37893.27
500.26	37680.28
500.44	37748.16
500.61	38476.07
500.79	38300.53
500.97	38675.01
501.14	38644.59
501.32	38909.07
501.49	38705.44
501.67	39093.97
501.84	39325.68
502.02	39035.45
502.20	39611.23
502.37	39189.93
502.55	39782.09
502.72	39711.87
502.90	39592.50
503.07	39826.56
503.25	39786.77
503.43	39992.73
503.60	40517.01
503.78	40421.05
503.95	40790.86
504.13	40779.15
504.30	40999.16
504.48	40964.06
504.65	41268.33
504.83	41319.82
505.01	41390.03
505.18	41720.05
505.36	42536.90
505.53	41525.78
505.71	41895.59
505.88	41879.21
506.06	41970.49
506.23	42330.93
506.41	42110.92
506.58	42307.52
506.76	42471.36
506.93	42639.88
507.11	43084.58
507.28	43063.52
507.46	42920.74
507.63	43466.09
507.81	43438.00
507.98	43056.50
508.16	43770.36
508.33	44016.11
508.50	43936.54
508.68	43686.10
508.85	44416.35
509.03	43966.96
509.20	44107.40
509.38	44353.15
509.55	44987.44
509.73	44964.03
509.90	44809.56
510.08	44814.24
510.25	44917.22
510.42	45099.78
510.60	45277.66
510.77	45233.19
510.95	45942.38
511.12	45354.90
511.30	45490.65
511.47	45993.87
511.64	45736.41
511.82	46330.90
511.99	46253.67
512.17	46541.55
512.34	46110.89
512.51	46829.44
512.69	46810.71
512.86	46483.04
513.04	46946.47
513.21	46712.41
513.38	47327.97
513.56	47264.78
513.73	47012.00
513.90	47428.62
514.08	47182.86
514.25	47672.03
514.43	47674.37
514.60	47489.47
514.77	47805.44
514.95	48123.75
515.12	47826.51
515.29	47950.56
515.47	48193.97
515.64	48285.25
515.81	48282.91
515.99	48247.80
516.16	48842.30
516.33	48615.27
516.51	48783.79
516.68	48732.29
516.85	48666.76
517.03	49106.78
517.20	49504.67
517.37	49268.28
517.54	49120.82
517.72	49422.75
517.89	49282.32
518.06	49659.15
518.24	49399.35
518.41	49633.40
518.58	49411.05
518.75	49825.32
518.93	49514.03
519.10	49338.49
519.27	49876.82
519.45	49794.90
519.62	50419.82
519.79	50286.41
519.96	50122.57
520.14	50679.62
520.31	50674.94
520.48	50578.98
520.65	50740.47
520.83	51000.27
521.00	50880.91
521.17	50705.37
521.34	51257.73
521.52	51138.36
521.69	51166.45
521.86	51615.83
522.03	51400.50
522.20	51473.06
522.38	51903.72
522.55	51655.62
522.72	51606.47
522.89	51557.32
523.07	52121.39
523.24	51955.21
523.41	51978.62
523.58	51877.97
523.75	52341.40
523.92	51973.94
524.10	52140.11
524.27	52435.02
524.44	52479.49
524.61	52596.52
524.78	52238.42
524.96	52526.30
525.13	52711.20
525.30	52650.35
525.47	53085.69
525.64	52526.30
525.81	52662.05
525.98	52790.78
526.16	52891.43
526.33	52956.96
526.50	53279.96
526.67	53202.72
526.84	53202.72
527.01	53041.22
527.18	53113.78
527.36	53265.91
527.53	53223.78
527.70	53539.75
527.87	53769.13
528.04	53598.27
528.21	53635.72
528.38	53822.96
528.55	54101.48
528.72	53649.76
528.89	53780.83
529.07	53787.85
529.24	53598.27
529.41	54049.99
529.58	53715.29
529.75	53577.20
529.92	53794.87
530.09	54230.21
530.26	54059.35
530.43	54157.66
530.60	54288.73
530.77	54309.79
530.94	54328.52
531.11	54354.26
531.28	54260.64
531.46	54710.02
531.63	54281.70
531.80	54518.10
531.97	54698.32
532.14	54749.81
532.31	54887.90
532.48	54988.55
532.65	54920.67
532.82	54494.69
532.99	54801.30
533.16	55086.85
533.33	55178.13
533.50	55358.35
533.67	55068.12
533.84	55023.65
534.01	54899.61
534.18	54927.69
534.35	55435.59
534.52	55487.08
534.69	55580.70
534.86	55641.56
535.03	55105.57
535.20	55437.93
535.37	55716.45
535.54	55629.85
535.71	55393.46
535.88	55884.97
536.05	55709.43
536.22	55721.13
536.38	55908.38
536.55	55833.48
536.72	55779.65
536.89	55466.02
537.06	55753.90
537.23	55910.72
537.40	56039.45
537.57	55992.64
537.74	55840.50
537.91	56130.73
538.08	56299.25
538.25	55784.33
538.42	56107.32
538.59	56376.48
538.75	55903.70
538.92	56329.67
539.09	56479.47
539.26	56334.35
539.43	56573.09
539.60	56603.52
539.77	56278.18
539.94	56678.41
540.11	56549.68
540.28	56694.80
540.44	56640.96
540.61	56463.08
540.78	56472.45
540.95	56589.47
541.12	56619.90
541.29	56746.29
541.46	56790.76
541.62	56659.69
541.79	56788.42
541.96	56580.11
542.13	56863.32
542.30	56631.60
542.47	57123.11
542.63	57130.14
542.80	57125.46
542.97	57535.05
543.14	57368.87
543.31	57338.44
543.48	57347.81
543.64	57829.96
543.81	57434.41
543.98	57567.82
544.15	57408.66
544.32	57586.54
544.48	57855.70
544.65	57577.18
544.82	57621.65
544.99	57413.34
545.16	57680.16
545.32	57626.33
545.49	57851.02
545.66	57951.66
545.83	57949.32
546.00	57783.15
546.16	57900.17
546.33	57827.62
546.50	57883.79
546.67	57930.60
546.83	57628.67
547.00	57886.13
547.17	57986.77
547.34	58028.90
547.50	58152.95
547.67	58323.81
547.84	58403.39
548.00	58384.66
548.17	58501.69
548.34	58340.19
548.51	58209.12
548.67	58541.48
548.84	58506.37
549.01	58277.00
549.18	58464.24
549.34	58422.11
549.51	58361.26
549.68	58487.65
549.84	58588.29
550.01	58543.82
550.18	58548.50
550.34	58541.48
550.51	58845.75
550.68	58543.82
550.84	58546.16
551.01	58997.88
551.18	58473.60
551.34	58759.15
551.51	58843.41
551.68	58494.67
551.84	58784.90
552.01	58705.32
552.18	58798.94
552.34	58908.94
552.51	59077.46
552.68	58717.02
552.84	59042.35
553.01	59035.33
553.18	59025.97
553.34	58986.18
553.51	58960.44
553.67	58934.69
553.84	59248.32
554.01	59210.87
554.17	59260.02
554.34	59208.53
554.51	59180.45
554.67	59161.72
554.84	59131.29
555.00	59421.52
555.17	59138.32
555.33	59276.41
555.50	59086.82
555.67	59004.91
555.83	59164.06
556.00	59299.81
556.16	59512.80
556.33	59384.07
556.50	59407.48
556.66	59547.91
556.83	59309.18
556.99	59725.79
557.16	59533.87
557.32	59456.63
557.49	59760.90
557.65	59564.29
557.82	59524.50
557.98	59454.29
558.15	59503.44
558.32	59533.87
558.48	59627.49
558.65	59643.87
558.81	59833.46
558.98	59732.81
559.14	59824.09
559.31	59880.27
559.47	59805.37
559.64	59966.87
559.80	59929.42
559.97	59889.63
560.13	59882.61
560.30	59898.99
560.46	59966.87
560.63	59929.42
560.79	59997.29
560.96	59992.61
561.12	60203.26
561.29	60140.07
561.45	60074.53
561.61	59859.20
561.78	60081.55
561.94	59922.40
562.11	59994.95
562.27	60102.62
562.44	60130.70
562.60	60250.07
562.77	60149.43
562.93	59875.58
563.10	60163.47
563.26	60090.91
563.42	60385.82
563.59	60142.41
563.75	60327.31
563.92	60287.52
564.08	60170.49
564.24	60425.61
564.41	60329.65
564.57	60374.12
564.74	60299.22
564.90	60404.55
565.07	60320.29
565.23	60406.89
565.39	60355.39
565.56	60346.03
565.72	60430.29
565.88	60434.97
566.05	60268.79
566.21	60360.08
566.38	60355.39
566.54	60495.83
566.70	60463.06
566.87	60626.90
567.03	60439.65
567.19	60575.40
567.36	60783.71
567.52	60507.53
567.68	60673.71
567.85	60612.85
568.01	60566.04
568.17	60355.39
568.34	60821.16
568.50	60495.83
568.66	60514.55
568.83	60732.22
568.99	60413.91
569.15	60631.58
569.32	60570.72
569.48	60521.57
569.64	60757.97
569.81	60828.18
569.97	60617.53
570.13	60584.77
570.30	60615.19
570.46	60795.42
570.62	60788.39
570.78	60743.92
570.95	60823.50
571.11	60844.57
571.27	60631.58
571.43	60811.80
571.60	60879.67
571.76	60786.05
571.92	60849.25
572.09	60795.42
572.25	60725.20
572.41	60647.96
572.57	60563.70
572.74	60945.21
572.90	60633.92
573.06	60938.19
573.22	60905.42
573.38	60701.79
573.55	60811.80
573.71	61001.38
573.87	60722.86
574.03	60912.44
574.20	60874.99
574.36	60734.56
574.52	60865.63
574.68	60793.07
574.84	60931.17
575.01	61006.06
575.17	61090.32
575.33	60867.97
575.49	60685.41
575.65	60963.93
575.82	61099.68
575.98	61015.43
576.14	61062.24
576.30	60910.10
576.46	60914.78
576.62	60907.76
576.79	60900.74
576.95	60776.69
577.11	61186.28
577.27	60900.74
577.43	60963.93
577.59	61027.13
577.75	61048.19
577.92	60926.49
578.08	60844.57
578.24	61027.13
578.40	61059.90
578.56	61116.07
578.72	60992.02
578.88	61279.91
579.04	61235.44
579.21	61228.41
579.37	61279.91
579.53	61270.54
579.69	60966.27
579.85	60954.57
580.01	60999.04
580.17	60996.70
580.33	61188.63
580.49	61221.39
580.65	61174.58
580.82	60907.76
580.98	60963.93
581.14	60882.02
581.30	61057.56
581.46	61090.32
581.62	61073.94
581.78	61212.03
581.94	61361.82
582.10	61123.09
582.26	61073.94
582.42	61118.41
582.58	61197.99
582.74	61263.52
582.90	61434.38
583.06	61144.16
583.22	61064.58
583.38	61347.78
583.54	61020.11
583.70	61193.31
583.86	61209.69
584.02	60914.78
584.18	61219.05
584.34	61174.58
584.50	61085.64
584.66	60938.19
584.82	61006.06
584.98	61071.60
585.14	61286.93
585.30	61062.24
585.46	60914.78
585.62	61219.05
585.78	61340.76
585.94	60912.44
586.10	61188.63
586.26	61380.55
586.42	61427.36
586.58	61048.19
586.74	61230.75
586.90	61212.03
587.06	61116.07
587.22	61378.21
587.38	61202.67
587.54	61357.14
587.70	61441.40
587.86	61209.69
588.02	61352.46
588.18	61453.11
588.34	61233.10
588.49	61333.74
