SpectraSuite Data File
++++++++++++++++++++++++++++++++++++
Date: Fri Oct 25 10:43:20 EDT 2013
User: price-jones
Dark Spectrum Present: No
Reference Spectrum Present: No
Number of Sampled Component Spectra: 1
Spectrometers: USB2+H05261
Integration Time (usec): 100000 (USB2+H05261)
Spectra Averaged: 1 (USB2+H05261)
Boxcar Smoothing: 0 (USB2+H05261)
Correct for Electrical Dark: No (USB2+H05261)
Strobe/Lamp Enabled: No (USB2+H05261)
Correct for Detector Non-linearity: No (USB2+H05261)
Correct for Stray Light: No (USB2+H05261)
Number of Pixels in Processed Spectrum: 2048
>>>>>Begin Processed Spectral Data<<<<<
365.73	184.90
365.92	184.90
366.12	184.90
366.32	28.09
366.52	44.47
366.72	60.85
366.91	70.22
367.11	0.00
367.31	0.00
367.51	0.00
367.70	0.00
367.90	7.02
368.10	11.70
368.30	56.17
368.49	56.17
368.69	91.28
368.89	30.43
369.09	88.94
369.28	42.13
369.48	74.90
369.68	56.17
369.87	114.69
370.07	107.66
370.27	133.41
370.47	135.75
370.66	407.25
370.86	437.68
371.06	435.34
371.25	533.64
371.45	465.77
371.65	393.21
371.84	421.30
372.04	503.22
372.24	519.60
372.44	433.00
372.63	552.37
372.83	503.22
373.03	458.74
373.22	456.40
373.42	475.13
373.62	479.81
373.81	498.53
374.01	543.00
374.21	552.37
374.40	528.96
374.60	531.30
374.79	526.62
374.99	507.90
375.19	557.05
375.38	599.18
375.58	550.03
375.78	589.82
375.97	585.13
376.17	660.03
376.37	561.73
376.56	622.58
376.76	601.52
376.95	601.52
377.15	650.67
377.35	540.66
377.54	592.16
377.74	671.73
377.93	641.31
378.13	627.26
378.33	610.88
378.52	624.92
378.72	634.29
378.91	615.56
379.11	585.13
379.31	645.99
379.50	578.11
379.70	692.80
379.89	706.84
380.09	655.35
380.28	702.16
380.48	690.46
380.68	723.23
380.87	730.25
381.07	669.39
381.26	751.31
381.46	748.97
381.65	713.86
381.85	678.76
382.04	695.14
382.24	737.27
382.43	692.80
382.63	669.39
382.83	702.16
383.02	800.46
383.22	669.39
383.41	720.88
383.61	828.55
383.80	744.29
384.00	763.01
384.19	786.42
384.39	767.70
384.58	786.42
384.78	788.76
384.97	786.42
385.17	791.10
385.36	760.67
385.56	835.57
385.75	725.57
385.95	795.78
386.14	748.97
386.34	889.40
386.53	847.27
386.72	877.70
386.92	842.59
387.11	959.62
387.31	929.19
387.50	933.87
387.70	917.49
387.89	894.08
388.09	863.66
388.28	971.32
388.48	828.55
388.67	851.96
388.86	889.40
389.06	976.00
389.25	938.55
389.45	959.62
389.64	919.83
389.84	973.66
390.03	1004.09
390.22	1060.26
390.42	917.49
390.61	999.41
390.81	1029.84
391.00	1032.18
391.19	1018.13
391.39	1039.20
391.58	1057.92
391.78	1029.84
391.97	1015.79
392.16	1104.73
392.36	1062.60
392.55	992.39
392.75	1001.75
392.94	985.37
393.13	1046.22
393.33	1104.73
393.52	968.98
393.71	1088.35
393.91	1036.86
394.10	1114.10
394.29	1107.07
394.49	1181.97
394.68	1200.69
394.88	1203.04
395.07	1121.12
395.26	1235.80
395.46	1188.99
395.65	1287.29
395.84	1315.38
396.04	1289.64
396.23	1165.59
396.42	1179.63
396.62	1217.08
396.81	1170.27
397.00	1233.46
397.19	1200.69
397.39	1320.06
397.58	1397.30
397.77	1387.94
397.97	1420.71
398.16	1469.86
398.35	1413.68
398.55	1411.34
398.74	1551.78
398.93	1547.09
399.12	1385.60
399.32	1519.01
399.51	1444.11
399.70	1561.14
399.90	1619.65
400.09	1490.92
400.28	1654.76
400.47	1507.30
400.67	1617.31
400.86	1689.87
401.05	1701.57
401.24	1673.48
401.44	1586.88
401.63	1741.36
401.82	1741.36
402.01	1753.06
402.21	1645.40
402.40	1692.21
402.59	1696.89
402.78	1692.21
402.97	1825.62
403.17	1764.76
403.36	1802.21
403.55	1825.62
403.74	1874.77
403.93	1858.39
404.13	1839.66
404.32	1839.66
404.51	1905.20
404.70	1858.39
404.89	1884.13
405.09	2017.54
405.28	1949.67
405.47	1998.82
405.66	1954.35
405.85	1914.56
406.05	1928.60
406.24	1947.33
406.43	1944.99
406.62	2099.46
406.81	2111.16
407.00	1959.03
407.20	2076.06
407.39	2078.40
407.58	2064.35
407.77	2223.51
407.96	2214.15
408.15	2221.17
408.34	2211.81
408.54	2270.32
408.73	2211.81
408.92	2216.49
409.11	2471.61
409.30	2317.13
409.49	2312.45
409.68	2354.58
409.87	2232.87
410.07	2267.98
410.26	2249.25
410.45	2422.45
410.64	2328.83
410.83	2487.99
411.02	2532.46
411.21	2415.43
411.40	2642.46
411.59	2562.89
411.78	2637.78
411.98	2583.95
412.17	2726.72
412.36	2609.70
412.55	2567.57
412.74	2665.87
412.93	2827.37
413.12	2743.11
413.31	2846.09
413.50	2836.73
413.69	2885.88
413.88	2913.97
414.07	2827.37
414.26	2895.24
414.45	2853.11
414.64	3045.04
414.83	3052.06
415.02	2984.18
415.22	3084.83
415.41	2993.55
415.60	3077.80
415.79	3075.46
415.98	3148.02
416.17	3206.53
416.36	3246.32
416.55	3222.92
416.74	3232.28
416.93	3215.90
417.12	3239.30
417.31	3318.88
417.50	3349.31
417.69	3447.61
417.88	3440.59
418.07	3361.01
418.26	3454.63
418.45	3550.59
418.64	3566.98
418.83	3534.21
419.02	3440.59
419.21	3417.18
419.39	3627.83
419.58	3421.86
419.77	3522.51
419.96	3726.13
420.15	3698.05
420.34	3737.84
420.53	3854.86
420.72	3765.92
420.91	3702.73
421.10	3705.07
421.29	3859.54
421.48	3770.60
421.67	3908.69
421.86	3672.30
422.05	3822.09
422.24	3644.21
422.43	3810.39
422.61	3808.05
422.80	3922.74
422.99	3894.65
423.18	3868.91
423.37	4121.68
423.56	4105.30
423.75	4072.53
423.94	3740.18
424.13	3648.90
424.32	3845.50
424.50	3955.51
424.69	4004.66
424.88	3934.44
425.07	3934.44
425.26	3705.07
425.45	3866.56
425.64	3948.48
425.83	3927.42
426.01	4067.85
426.20	3995.29
426.39	4088.92
426.58	3871.25
426.77	3747.20
426.96	4105.30
427.15	3976.57
427.33	4077.21
427.52	4067.85
427.71	4131.05
427.90	4009.34
428.09	4081.89
428.28	4184.88
428.46	4175.52
428.65	4152.11
428.84	4180.20
429.03	4262.12
429.22	4016.36
429.40	3983.59
429.59	3967.21
429.78	3861.88
429.97	3871.25
430.16	3983.59
430.34	4273.82
430.53	4229.35
430.72	4194.24
430.91	4159.13
431.10	4418.93
431.28	4482.13
431.47	4603.83
431.66	4779.37
431.85	4538.30
432.03	4505.53
432.22	4526.60
432.41	4746.61
432.60	4531.28
432.79	4699.80
432.97	4767.67
433.16	4690.43
433.35	4716.18
433.54	4786.40
433.72	4634.26
433.91	4617.88
434.10	4760.65
434.28	4786.40
434.47	4751.29
434.66	4849.59
434.85	4809.80
435.03	5078.96
435.22	4770.01
435.41	5022.79
435.59	4959.60
435.78	4961.94
435.97	5128.11
436.16	5135.14
436.34	5107.05
436.53	5039.17
436.72	5121.09
436.90	4997.04
437.09	5102.37
437.28	5100.03
437.46	5233.44
437.65	5088.32
437.84	5085.98
438.02	5081.30
438.21	5142.16
438.40	5097.69
438.58	5371.53
438.77	5458.13
438.96	5547.07
439.14	5518.98
439.33	5490.90
439.52	5591.54
439.70	5647.71
439.89	5643.03
440.08	5722.61
440.26	5537.71
440.45	5729.63
440.63	5561.11
440.82	5830.27
441.01	5809.21
441.19	5909.85
441.38	5966.03
441.57	6242.21
441.75	6080.71
441.94	6090.07
442.12	6090.07
442.31	6427.11
442.50	6417.75
442.68	6300.72
442.87	6284.34
443.05	6265.61
443.24	6319.45
443.43	6387.32
443.61	6492.65
443.80	6562.86
443.98	6431.79
444.17	6289.02
444.35	6590.95
444.54	6417.75
444.73	6604.99
444.91	6471.58
445.10	6317.11
445.28	6473.92
445.47	6328.81
445.65	6509.03
445.84	6464.56
446.02	6487.96
446.21	6452.86
446.39	6410.73
446.58	6597.97
446.77	6785.21
446.95	6581.59
447.14	6593.29
447.32	6754.79
447.51	6726.70
447.69	6459.88
447.88	6649.46
448.06	6562.86
448.25	6644.78
448.43	6539.46
448.62	6670.53
448.80	6796.92
448.99	6810.96
449.17	6682.23
449.36	6726.70
449.54	7026.29
449.73	7169.06
449.91	7133.95
450.10	7080.12
450.28	7262.68
450.46	7236.94
450.65	7258.00
450.83	7258.00
451.02	7082.46
451.20	7290.77
451.39	7370.35
451.57	7272.04
451.76	7204.17
451.94	7164.38
452.13	7253.32
452.31	7140.97
452.49	7056.72
452.68	7267.36
452.86	7087.14
453.05	7164.38
453.23	7227.57
453.42	7197.15
453.60	7087.14
453.78	7529.50
453.97	7384.39
454.15	7391.41
454.34	7232.26
454.52	7660.57
454.70	7323.54
454.89	7417.16
455.07	7452.27
455.26	7655.89
455.44	7660.57
455.62	7758.88
455.81	7721.43
455.99	7765.90
456.17	7864.20
456.36	7824.41
456.54	7868.88
456.73	7829.09
456.91	8217.62
457.09	8060.80
457.28	8180.17
457.46	8156.77
457.64	8149.75
457.83	7901.65
458.01	7810.37
458.19	8231.66
458.38	8035.06
458.56	8262.09
458.74	8278.47
458.93	8159.11
459.11	8252.73
459.29	8177.83
459.48	8126.34
459.66	8124.00
459.84	8095.91
460.03	8393.16
460.21	8400.18
460.39	8365.07
460.57	8557.00
460.76	8528.91
460.94	8458.70
461.12	8624.87
461.31	8575.72
461.49	8774.67
461.67	8643.60
461.85	8905.74
462.04	8865.95
462.22	9172.56
462.40	8844.88
462.59	8835.52
462.77	8947.87
462.95	9053.19
463.13	8734.88
463.32	8774.67
463.50	8978.30
463.68	9055.53
463.86	8905.74
464.05	8774.67
464.23	8980.64
464.41	8945.53
464.59	8641.26
464.78	9167.88
464.96	9252.14
465.14	9036.81
465.32	9036.81
465.50	9167.88
465.69	9259.16
465.87	8964.25
466.05	9090.64
466.23	9071.92
466.41	9174.90
466.60	9312.99
466.78	9125.75
466.96	9188.94
467.14	9184.26
467.32	9149.15
467.51	9420.66
467.69	9060.21
467.87	9348.10
468.05	9387.89
468.23	9453.42
468.41	9423.00
468.60	9547.05
468.78	9420.66
468.96	9584.49
469.14	9575.13
469.32	9694.50
469.50	9540.02
469.69	9448.74
469.87	9776.42
470.05	9720.24
470.23	9703.86
470.41	9820.89
470.59	9926.21
470.77	9832.59
470.95	9860.68
471.14	10097.07
471.32	9858.34
471.50	10108.77
471.68	10193.03
471.86	10228.14
472.04	10370.91
472.22	10455.17
472.40	10120.48
472.58	10497.30
472.77	10345.17
472.95	10661.14
473.13	10899.87
473.31	10623.69
473.49	10352.19
473.67	10427.09
473.85	10569.86
474.03	10834.34
474.21	10750.08
474.39	10881.15
474.57	10958.39
474.75	11037.97
474.93	11056.69
475.12	10977.11
475.30	11176.06
475.48	11201.80
475.66	11110.52
475.84	11185.42
476.02	11204.14
476.20	11304.79
476.38	11485.01
476.56	12081.85
476.74	11765.87
476.92	11651.19
477.10	11683.95
477.28	11868.86
477.46	11873.54
477.64	12030.35
477.82	12285.47
478.00	12564.00
478.18	12451.65
478.36	12393.14
478.54	12571.02
478.72	12643.57
478.90	12821.45
479.08	13142.11
479.26	13151.47
479.44	13048.49
479.62	13214.66
479.80	13142.11
479.98	13027.42
480.16	13401.91
480.34	13577.45
480.52	13792.78
480.70	13778.73
480.88	13687.45
481.06	13757.67
481.24	13973.00
481.41	14090.02
481.59	14452.81
481.77	14113.43
481.95	14347.48
482.13	14228.12
482.31	14438.76
482.49	14675.16
482.67	14953.68
482.85	15002.83
483.03	14977.09
483.21	15159.65
483.39	15335.19
483.57	15456.90
483.74	15520.09
483.92	15548.18
484.10	15477.96
484.28	15845.43
484.46	16142.67
484.64	16262.04
484.82	15955.43
485.00	16051.39
485.18	16278.43
485.35	16252.68
485.53	16074.80
485.71	15847.77
485.89	16470.35
486.07	16470.35
486.25	16425.88
486.43	16870.58
486.61	16863.56
486.78	17312.94
486.96	17081.23
487.14	17568.06
487.32	17687.43
487.50	17930.84
487.68	18150.85
487.85	18146.17
488.03	18230.43
488.21	18644.71
488.39	18225.75
488.57	18724.29
488.75	18860.04
488.92	19094.09
489.10	19440.49
489.28	19328.14
489.46	19838.38
489.64	19295.38
489.81	19910.94
489.99	20163.72
490.17	20236.27
490.35	20362.66
490.53	20444.58
490.70	20362.66
490.88	20318.19
491.06	20772.25
491.24	20755.87
491.41	20545.22
491.59	20613.10
491.77	20582.67
491.95	20886.94
492.13	21254.40
492.30	21296.53
492.48	21788.05
492.66	21673.36
492.84	21727.19
493.01	22029.12
493.19	21766.98
493.37	22127.42
493.54	22101.68
493.72	22569.79
493.90	22501.91
494.08	22675.11
494.25	22881.08
494.43	22792.14
494.61	23204.07
494.79	23255.56
494.96	23082.36
495.14	23344.50
495.32	23440.47
495.49	23466.21
495.67	23758.78
495.85	23723.67
496.02	23992.83
496.20	24161.35
496.38	23974.11
496.55	24208.16
496.73	24816.70
496.91	24718.40
497.09	24587.33
497.26	24797.98
497.44	25055.43
497.62	24554.56
497.79	25036.71
497.97	24968.84
498.14	25565.67
498.32	25577.37
498.50	25420.56
498.67	25984.63
498.85	25813.77
499.03	26134.42
499.20	25956.54
499.38	26029.10
499.56	26059.52
499.73	26335.71
499.91	26302.94
500.08	26611.89
500.26	25979.95
500.44	26429.33
500.61	26445.71
500.79	26169.53
500.97	26726.58
501.14	26780.41
501.32	26850.63
501.49	27206.39
501.67	27182.98
501.84	27363.20
502.02	27269.58
502.20	27414.69
502.37	27517.68
502.55	27412.35
502.72	27515.34
502.90	27814.93
503.07	27903.87
503.25	27857.06
503.43	27655.77
503.60	28140.26
503.78	27866.42
503.95	27934.29
504.13	28212.82
504.30	28510.07
504.48	28570.92
504.65	28432.83
504.83	28631.77
505.01	29167.76
505.18	28648.16
505.36	29373.72
505.53	29277.76
505.71	29582.03
505.88	29844.17
506.06	29315.21
506.23	29350.32
506.41	29277.76
506.58	29640.54
506.76	29804.38
506.93	29788.00
507.11	29773.95
507.28	29977.58
507.46	29387.77
507.63	29956.52
507.81	29823.11
507.98	29940.13
508.16	30188.23
508.33	30281.85
508.50	30541.65
508.68	30738.26
508.85	31023.80
509.03	30934.86
509.20	30958.27
509.38	31199.34
509.55	31374.88
509.73	31192.32
509.90	31096.36
510.08	31318.71
510.25	31454.46
510.42	31035.50
510.60	31304.67
510.77	31749.37
510.95	31873.42
511.12	31915.54
511.30	31807.88
511.47	31943.63
511.64	32299.39
511.82	32191.73
511.99	31749.37
512.17	32336.84
512.34	32151.94
512.51	32547.49
512.69	32809.63
512.86	32339.18
513.04	32348.54
513.21	32535.79
513.38	32706.65
513.56	32608.34
513.73	32680.90
513.90	33008.58
514.08	32790.91
514.25	32844.74
514.43	32606.00
514.60	32849.42
514.77	32919.63
514.95	33560.94
515.12	33399.44
515.29	33460.30
515.47	33493.07
515.64	34071.18
515.81	33659.24
515.99	33610.09
516.16	33546.90
516.33	33177.09
516.51	33399.44
516.68	32936.02
516.85	33050.70
517.03	33408.81
517.20	33949.47
517.37	33949.47
517.54	34485.45
517.72	33989.26
517.89	33780.95
518.06	33621.80
518.24	33865.21
518.41	34045.43
518.58	34462.05
518.75	34417.58
518.93	34829.51
519.10	34543.97
519.27	34850.58
519.45	34801.43
519.62	34710.14
519.79	34911.43
519.96	35129.10
520.14	35412.31
520.31	35021.44
520.48	35335.07
520.65	35061.22
520.83	35739.98
521.00	35534.01
521.17	35941.27
521.34	35962.33
521.52	35875.73
521.69	36149.57
521.86	36041.91
522.03	36191.70
522.20	35859.35
522.38	35892.12
522.55	36381.29
522.72	36224.47
522.89	35709.55
523.07	36371.92
523.24	36313.41
523.41	36713.64
523.58	36348.52
523.75	37125.58
523.92	37022.59
524.10	36816.63
524.27	36835.35
524.44	36886.84
524.61	37244.94
524.78	36893.86
524.96	37411.12
525.13	37315.16
525.30	37436.87
525.47	37394.74
525.64	37502.40
525.81	37376.01
525.98	37373.67
526.16	37081.11
526.33	36823.65
526.50	37483.68
526.67	36685.56
526.84	37027.28
527.01	36987.49
527.18	37207.50
527.36	38057.11
527.53	38263.08
527.70	38237.33
527.87	37677.94
528.04	37738.80
528.21	38518.20
528.38	38139.03
528.55	38670.33
528.72	38295.85
528.89	38328.61
529.07	38464.36
529.24	38445.64
529.41	38616.50
529.58	38834.17
529.75	38550.96
529.92	39028.43
530.09	39044.82
530.26	38852.89
530.43	38775.66
530.60	38972.26
530.77	38920.77
530.94	38916.09
531.11	38834.17
531.28	39227.38
531.46	39145.46
531.63	39452.07
531.80	39086.95
531.97	39419.30
532.14	39564.42
532.31	38986.30
532.48	38789.70
532.65	39306.96
532.82	39367.81
532.99	39683.78
533.16	39784.43
533.33	39669.74
533.50	39950.60
533.67	39456.75
533.84	39653.36
534.01	39447.39
534.18	39533.99
534.35	40423.39
534.52	40318.07
534.69	40161.25
534.86	40374.24
535.03	39885.07
535.20	40217.43
535.37	40730.00
535.54	40519.35
535.71	40336.79
535.88	40545.10
536.05	40545.10
536.22	40704.26
536.38	40549.78
536.55	40575.53
536.72	40264.24
536.89	40065.29
537.06	40568.51
537.23	40935.97
537.40	40751.07
537.57	41228.54
537.74	40648.08
537.91	40514.67
538.08	40935.97
538.25	41366.63
538.42	40535.74
538.59	40863.41
538.75	40554.46
538.92	41340.88
539.09	41017.89
539.26	40861.07
539.43	41591.32
539.60	41467.27
539.77	41261.30
539.94	41345.56
540.11	41207.47
540.28	41172.36
540.44	41301.09
540.61	41202.79
540.78	41439.18
540.95	41647.49
541.12	40861.07
541.29	41525.78
541.46	41607.70
541.62	41490.68
541.79	41869.84
541.96	41130.23
542.13	41380.67
542.30	41518.76
542.47	42092.19
542.63	41865.16
542.80	41844.10
542.97	42199.86
543.14	42384.76
543.31	42218.58
543.48	42288.80
543.64	42838.83
543.81	42749.88
543.98	42380.08
544.15	42618.81
544.32	42672.65
544.48	43107.99
544.65	42349.65
544.82	42398.80
544.99	42218.58
545.16	42777.97
545.32	42895.00
545.49	42567.32
545.66	43459.07
545.83	43091.60
546.00	42686.69
546.16	43196.93
546.33	42576.69
546.50	42323.91
546.67	43143.09
546.83	42363.70
547.00	43009.68
547.17	42972.24
547.34	43086.92
547.50	43257.78
547.67	43051.81
547.84	43351.40
548.00	43325.66
548.17	43402.89
548.34	43180.54
548.51	43927.17
548.67	43559.71
548.84	43826.53
549.01	43159.48
549.18	43428.64
549.34	43648.65
549.51	43395.87
549.68	43798.44
549.84	43753.97
550.01	43735.25
550.18	43885.04
550.34	43777.38
550.51	43800.79
550.68	44034.84
550.84	43414.60
551.01	43739.93
551.18	43686.10
551.34	43662.69
551.51	43772.70
551.68	44406.98
551.84	43721.21
552.01	43725.89
552.18	43765.68
552.34	43751.63
552.51	44093.35
552.68	43941.22
552.84	44287.62
553.01	44428.05
553.18	43941.22
553.34	43709.50
553.51	44053.56
553.67	44112.08
553.84	44704.23
554.01	44535.71
554.17	44893.82
554.34	44652.74
554.51	44460.82
554.67	44737.00
554.84	44222.08
555.00	44327.41
555.17	44226.76
555.33	44542.74
555.50	44369.54
555.67	44582.52
555.83	44442.09
556.00	44399.96
556.16	44788.49
556.33	44573.16
556.50	44748.70
556.66	44575.50
556.83	44343.79
556.99	44708.91
557.16	44847.00
557.32	44617.63
557.49	44872.75
557.65	44697.21
557.82	44451.45
557.98	44636.36
558.15	44968.71
558.32	45331.50
558.48	44718.28
558.65	44727.64
558.81	44336.77
558.98	45003.82
559.14	44886.79
559.31	44769.77
559.47	44837.64
559.64	45289.37
559.80	44509.97
559.97	44935.95
560.13	44444.43
560.30	44685.51
560.46	45008.50
560.63	45338.52
560.79	44973.39
560.96	45081.06
561.12	44802.53
561.29	45097.44
561.45	45120.85
561.61	45191.06
561.78	45144.25
561.94	44577.84
562.11	44809.56
562.27	45076.38
562.44	45535.12
562.60	45811.31
562.77	44884.45
562.93	45200.43
563.10	45261.28
563.26	45244.90
563.42	45392.35
563.59	45242.56
563.75	45148.93
563.92	45272.98
564.08	45478.95
564.24	45748.11
564.41	45123.19
564.57	45535.12
564.74	45460.23
564.90	45394.69
565.07	45478.95
565.23	45530.44
565.39	45581.93
565.56	45216.81
565.72	44935.95
565.88	45181.70
566.05	44856.37
566.21	45511.72
566.38	45076.38
566.54	45628.74
566.70	45663.85
566.87	45607.68
567.03	45844.07
567.19	46199.83
567.36	45972.80
567.52	45539.80
567.68	45546.82
567.85	45734.07
568.01	45478.95
568.17	45558.53
568.34	45528.10
568.50	45104.46
568.66	45504.70
568.83	45904.93
568.99	45572.57
569.15	45558.53
569.32	45375.97
569.48	45258.94
569.64	46059.40
569.81	45654.49
569.97	45500.01
570.13	45572.57
570.30	45331.50
570.46	45329.16
570.62	45270.64
570.78	45284.68
570.95	45282.34
571.11	45628.74
571.27	45127.87
571.43	45357.24
571.60	45720.02
571.76	45724.71
571.92	45705.98
572.09	45815.99
572.25	45794.92
572.41	45790.24
572.57	45359.58
572.74	45874.50
572.90	46024.29
573.06	45928.33
573.22	45574.91
573.38	45387.67
573.55	45617.04
573.71	45617.04
573.87	45691.94
574.03	45844.07
574.20	45839.39
574.36	45586.61
574.52	45724.71
574.68	45738.75
574.84	45818.33
575.01	45612.36
575.17	45584.27
575.33	45282.34
575.49	45542.14
575.65	45918.97
575.82	45851.09
575.98	45345.54
576.14	46010.25
576.30	45830.03
576.46	45846.41
576.62	45858.12
576.79	45350.22
576.95	45846.41
577.11	45595.98
577.27	45401.71
577.43	45713.00
577.59	45848.75
577.75	45408.73
577.92	45649.81
578.08	45551.51
578.24	45731.73
578.40	45668.53
578.56	45708.32
578.72	45544.48
578.88	45900.25
579.04	45801.94
579.21	45727.05
579.37	45574.91
579.53	45823.01
579.69	45769.18
579.85	46000.89
580.01	46005.57
580.17	45785.56
580.33	45537.46
580.49	45668.53
580.65	45982.16
580.82	45467.25
580.98	45595.98
581.14	45172.34
581.30	45949.40
581.46	45656.83
581.62	45830.03
581.78	45656.83
581.94	46340.27
582.10	46040.68
582.26	46284.09
582.42	45804.28
582.58	45928.33
582.74	45935.35
582.90	45954.08
583.06	46085.15
583.22	45663.85
583.38	46230.26
583.54	46326.22
583.70	45790.24
583.86	45567.89
584.02	45874.50
584.18	45628.74
584.34	46087.49
584.50	46169.41
584.66	46319.20
584.82	45565.55
584.98	46052.38
585.14	45965.78
585.30	45457.88
585.46	45841.73
585.62	45546.82
585.78	45991.53
585.94	45275.32
586.10	45727.05
586.26	45614.70
586.42	45991.53
586.58	46043.02
586.74	45827.69
586.90	45666.19
587.06	45944.72
587.22	45844.07
587.38	45785.56
587.54	45703.64
587.70	45860.46
587.86	45893.22
588.02	46003.23
588.18	46267.71
588.34	45865.14
588.49	45514.06
588.65	45361.92
588.81	45350.22
588.97	45404.05
589.13	45207.45
589.29	45235.53
589.45	45558.53
589.61	45319.79
589.77	45961.10
589.93	46031.32
