SpectraSuite Data File
++++++++++++++++++++++++++++++++++++
Date: Fri Oct 25 11:25:16 EDT 2013
User: price-jones
Dark Spectrum Present: No
Reference Spectrum Present: No
Number of Sampled Component Spectra: 1
Spectrometers: USB2+H05261
Integration Time (usec): 100000 (USB2+H05261)
Spectra Averaged: 1 (USB2+H05261)
Boxcar Smoothing: 0 (USB2+H05261)
Correct for Electrical Dark: No (USB2+H05261)
Strobe/Lamp Enabled: No (USB2+H05261)
Correct for Detector Non-linearity: No (USB2+H05261)
Correct for Stray Light: No (USB2+H05261)
Number of Pixels in Processed Spectrum: 2048
>>>>>Begin Processed Spectral Data<<<<<
365.73	264.48
365.92	264.48
366.12	264.48
366.32	107.66
366.52	112.35
366.72	198.95
366.91	163.84
367.11	112.35
367.31	117.03
367.51	140.43
367.70	93.62
367.90	140.43
368.10	159.16
368.30	175.54
368.49	149.79
368.69	210.65
368.89	191.92
369.09	166.18
369.28	196.60
369.48	182.56
369.68	189.58
369.87	196.60
370.07	222.35
370.27	266.82
370.47	315.97
370.66	517.26
370.86	594.50
371.06	653.01
371.25	655.35
371.45	671.73
371.65	739.61
371.84	739.61
372.04	650.67
372.24	706.84
372.44	669.39
372.63	779.40
372.83	798.12
373.03	730.25
373.22	704.50
373.42	711.52
373.62	760.67
373.81	847.27
374.01	786.42
374.21	847.27
374.40	894.08
374.60	887.06
374.79	828.55
374.99	819.19
375.19	779.40
375.38	866.00
375.58	842.59
375.78	802.80
375.97	863.66
376.17	959.62
376.37	910.47
376.56	821.53
376.76	875.36
376.95	873.02
377.15	837.91
377.35	910.47
377.54	961.96
377.74	910.47
377.93	908.13
378.13	938.55
378.33	917.49
378.52	922.17
378.72	917.49
378.91	945.58
379.11	901.11
379.31	952.60
379.50	898.77
379.70	919.83
379.89	842.59
380.09	957.28
380.28	1008.77
380.48	987.71
380.68	950.26
380.87	978.34
381.07	997.07
381.26	1004.09
381.46	1043.88
381.65	1034.52
381.85	1067.28
382.04	1027.50
382.24	1076.65
382.43	1064.94
382.63	1025.15
382.83	1001.75
383.02	1076.65
383.22	1088.35
383.41	1046.22
383.61	1174.95
383.80	1104.73
384.00	1179.63
384.19	1207.72
384.39	1139.84
384.58	1081.33
384.78	1116.44
384.97	1139.84
385.17	1116.44
385.36	1172.61
385.56	1156.22
385.75	1231.12
385.95	1118.78
386.14	1217.08
386.34	1128.14
386.53	1226.44
386.72	1231.12
386.92	1177.29
387.11	1188.99
387.31	1128.14
387.50	1224.10
387.70	1165.59
387.89	1259.21
388.09	1306.02
388.28	1277.93
388.48	1256.87
388.67	1284.95
388.86	1261.55
389.06	1355.17
389.25	1336.45
389.45	1263.89
389.64	1320.06
389.84	1343.47
390.03	1338.79
390.22	1313.04
390.42	1446.45
390.61	1383.26
390.81	1327.08
391.00	1299.00
391.19	1343.47
391.39	1448.79
391.58	1453.47
391.78	1362.19
391.97	1458.15
392.16	1439.43
392.36	1521.35
392.55	1528.37
392.75	1474.54
392.94	1575.18
393.13	1558.80
393.33	1579.86
393.52	1507.30
393.71	1575.18
393.91	1589.22
394.10	1610.29
394.29	1596.25
394.49	1561.14
394.68	1645.40
394.88	1657.10
395.07	1703.91
395.26	1650.08
395.46	1680.50
395.65	1736.68
395.84	1724.97
396.04	1832.64
396.23	1722.63
396.42	1764.76
396.62	1729.66
396.81	1732.00
397.00	1729.66
397.19	1769.44
397.39	1762.42
397.58	1863.07
397.77	1696.89
397.97	1830.30
398.16	1767.10
398.35	1867.75
398.55	1846.68
398.74	1952.01
398.93	1914.56
399.12	1984.77
399.32	1851.36
399.51	1895.83
399.70	1970.73
399.90	1994.14
400.09	2022.22
400.28	2003.50
400.47	2019.88
400.67	2115.84
400.86	1994.14
401.05	2078.40
401.24	2099.46
401.44	2186.06
401.63	2122.87
401.82	2083.08
402.01	2071.37
402.21	2146.27
402.40	2197.76
402.59	2228.19
402.78	2146.27
402.97	2169.68
403.17	2204.78
403.36	2197.76
403.55	2246.91
403.74	2347.56
403.93	2370.96
404.13	2333.51
404.32	2342.88
404.51	2422.45
404.70	2352.24
404.89	2396.71
405.09	2471.61
405.28	2490.33
405.47	2403.73
405.66	2499.69
405.85	2480.97
406.05	2553.52
406.24	2450.54
406.43	2597.99
406.62	2621.40
406.81	2710.34
407.00	2497.35
407.20	2602.68
407.39	2504.37
407.58	2612.04
407.77	2640.12
407.96	2759.49
408.15	2679.91
408.34	2656.51
408.54	2754.81
408.73	2722.04
408.92	2860.13
409.11	2778.22
409.30	2799.28
409.49	2925.67
409.68	2862.48
409.87	2862.48
410.07	3014.61
410.26	2965.46
410.45	3000.57
410.64	2944.39
410.83	3213.56
411.02	3091.85
411.21	2995.89
411.40	3185.47
411.59	3162.06
411.78	3276.75
411.98	3229.94
412.17	3323.56
412.36	3258.03
412.55	3335.26
412.74	3304.84
412.93	3337.60
413.12	3339.94
413.31	3440.59
413.50	3442.93
413.69	3407.82
413.88	3541.23
414.07	3564.64
414.26	3618.47
414.45	3653.58
414.64	3695.71
414.83	3822.09
415.02	3826.78
415.22	3723.79
415.41	3882.95
415.60	3735.50
415.79	3894.65
415.98	3850.18
416.17	3946.14
416.36	4016.36
416.55	3992.95
416.74	4025.72
416.93	3999.98
417.12	4093.60
417.31	4124.02
417.50	4014.02
417.69	4320.63
417.88	4234.03
418.07	4362.76
418.26	4175.52
418.45	4266.80
418.64	4353.40
418.83	4559.36
419.02	4449.36
419.21	4484.47
419.39	4470.42
419.58	4526.60
419.77	4332.33
419.96	4489.15
420.15	4451.70
420.34	4624.90
420.53	4582.77
420.72	4582.77
420.91	4671.71
421.10	4631.92
421.29	4755.97
421.48	4779.37
421.67	4671.71
421.86	4781.71
422.05	4662.35
422.24	4631.92
422.43	4793.42
422.61	4880.02
422.80	4957.25
422.99	4781.71
423.18	4919.81
423.37	4908.10
423.56	4854.27
423.75	4856.61
423.94	4873.00
424.13	4521.92
424.32	4753.63
424.50	4966.62
424.69	4994.70
424.88	5135.14
425.07	4980.66
425.26	4947.89
425.45	4870.65
425.64	4830.87
425.83	4978.32
426.01	5081.30
426.20	4964.28
426.39	5001.72
426.58	4896.40
426.77	4910.44
426.96	5163.22
427.15	5088.32
427.33	5095.35
427.52	5160.88
427.71	5170.24
427.90	5331.74
428.09	5291.95
428.28	5376.21
428.46	5437.06
428.65	5142.16
428.84	5476.85
429.03	5504.94
429.22	5268.55
429.40	5406.64
429.59	5380.89
429.78	5263.86
429.97	5074.28
430.16	5469.83
430.34	5612.60
430.53	5628.99
430.72	5596.22
430.91	5664.10
431.10	5523.66
431.28	5675.80
431.47	5633.67
431.66	5741.33
431.85	5685.16
432.03	5769.42
432.22	6115.82
432.41	5764.74
432.60	5834.96
432.79	5944.96
432.97	5928.58
433.16	6026.88
433.35	5956.66
433.54	6045.60
433.72	6143.91
433.91	5977.73
434.10	6265.61
434.28	5919.21
434.47	6061.99
434.66	6181.35
434.85	6150.93
435.03	6153.27
435.22	6207.10
435.41	6417.75
435.59	6431.79
435.78	6342.85
435.97	6523.07
436.16	6296.04
436.34	6272.64
436.53	6548.82
436.72	6609.67
436.90	6441.15
437.09	6537.12
437.28	6415.41
437.46	6466.90
437.65	6473.92
437.84	6794.58
438.02	6516.05
438.21	6794.58
438.40	6665.85
438.58	6789.89
438.77	7012.24
438.96	6899.90
439.14	7150.34
439.33	7091.82
439.52	7136.29
439.70	7066.08
439.89	7389.07
440.08	7405.46
440.26	7386.73
440.45	7330.56
440.63	7342.26
440.82	7534.18
441.01	7470.99
441.19	7728.45
441.38	7698.02
441.57	7667.60
441.75	7786.96
441.94	7948.46
442.12	7793.98
442.31	7990.59
442.50	8053.78
442.68	7932.08
442.87	7939.10
443.05	8135.70
443.24	8121.66
443.43	8032.72
443.61	8159.11
443.80	8365.07
443.98	8032.72
444.17	7943.78
444.35	8084.21
444.54	8219.96
444.73	8065.49
444.91	8212.94
445.10	8475.08
445.28	8114.64
445.47	8257.41
445.65	8194.22
445.84	8308.90
446.02	8578.06
446.21	8306.56
446.39	8353.37
446.58	8336.99
446.77	8482.10
446.95	8243.37
447.14	8362.73
447.32	8425.93
447.51	8346.35
447.69	8152.09
447.88	8346.35
448.06	8461.04
448.25	8620.19
448.43	8416.57
448.62	8362.73
448.80	8503.17
448.99	8442.31
449.17	8617.85
449.36	8465.72
449.54	8809.78
449.73	8858.93
449.91	8950.21
450.10	8959.57
450.28	8994.68
450.46	8812.12
450.65	8999.36
450.83	9142.13
451.02	8917.44
451.20	9146.81
451.39	9027.45
451.57	8933.82
451.76	8975.95
451.94	9149.15
452.13	9415.98
452.31	9282.56
452.49	9167.88
452.68	9254.48
452.86	9270.86
453.05	9256.82
453.23	9479.17
453.42	9287.25
453.60	9315.33
453.78	9614.92
453.97	9373.85
454.15	9451.08
454.34	9394.91
454.52	9633.64
454.70	9556.41
454.89	9638.33
455.07	9790.46
455.26	9858.34
455.44	9771.74
455.62	9912.17
455.81	9568.11
455.99	9884.08
456.17	9870.04
456.36	9879.40
456.54	10162.61
456.73	10274.95
456.91	10438.79
457.09	10162.61
457.28	10345.17
457.46	10281.97
457.64	10434.11
457.83	10462.19
458.01	10377.94
458.19	10768.80
458.38	10249.21
458.56	10396.66
458.74	10623.69
458.93	10745.40
459.11	10619.01
459.29	10855.40
459.48	10740.72
459.66	10963.07
459.84	10752.42
460.03	11033.29
460.21	10743.06
460.39	10817.96
460.57	10862.43
460.76	11147.97
460.94	11124.57
461.12	11077.76
461.31	10979.45
461.49	11112.86
461.67	11066.05
461.85	11653.53
462.04	11211.17
462.22	11843.11
462.40	11407.77
462.59	11241.59
462.77	11283.72
462.95	11529.48
463.13	11513.10
463.32	11604.38
463.50	11630.12
463.68	11918.01
463.86	11789.28
464.05	11400.75
464.23	11508.41
464.41	11625.44
464.59	11499.05
464.78	12053.76
464.96	11983.54
465.14	11817.36
465.32	12002.27
465.50	12182.49
465.69	11880.56
465.87	12070.14
466.05	11852.47
466.23	12339.30
466.41	12105.25
466.60	12224.62
466.78	12184.83
466.96	12044.40
467.14	12365.05
467.32	12198.87
467.51	12423.56
467.69	12259.73
467.87	12355.69
468.05	12482.08
468.23	12219.94
468.41	12533.57
468.60	12624.85
468.78	12652.94
468.96	12430.59
469.14	12657.62
469.32	12587.40
469.50	12578.04
469.69	12971.25
469.87	12919.76
470.05	12954.87
470.23	12723.15
470.41	13046.15
470.59	13284.88
470.77	13268.50
470.95	13160.83
471.14	13437.02
471.32	12929.12
471.50	13666.39
471.68	13345.73
471.86	13565.74
472.04	13706.18
472.22	13937.89
472.40	13699.16
472.58	13603.19
472.77	13891.08
472.95	13942.57
473.13	14380.25
473.31	14094.71
473.49	14052.58
473.67	13944.91
473.85	14314.72
474.03	14600.26
474.21	14244.50
474.39	14696.22
474.57	14623.67
474.75	14834.32
474.93	14899.85
475.12	14967.73
475.30	14885.81
475.48	14906.87
475.66	15012.20
475.84	15040.28
476.02	15145.61
476.20	15452.22
476.38	15510.73
476.56	15665.21
476.74	15976.50
476.92	15527.11
477.10	15866.49
477.28	16313.53
477.46	16383.75
477.64	16444.60
477.82	16257.36
478.00	16762.92
478.18	16479.71
478.36	16783.98
478.54	16940.80
478.72	16901.01
478.90	17221.66
479.08	17420.61
479.26	17565.72
479.44	17722.54
479.62	17734.24
479.80	18050.21
479.98	17816.16
480.16	18298.31
480.34	18167.24
480.52	18384.91
480.70	18274.90
480.88	18349.80
481.06	18946.64
481.24	18588.53
481.41	19028.56
481.59	19094.09
481.77	19183.03
481.95	19494.32
482.13	19288.35
482.31	19751.78
482.49	20065.41
482.67	20093.50
482.85	20257.34
483.03	20648.21
483.21	20460.96
483.39	20622.46
483.57	20720.76
483.74	21111.63
483.92	21266.11
484.10	20910.35
484.28	21553.99
484.46	21724.85
484.64	22288.92
484.82	21991.67
485.00	22038.48
485.18	22871.72
485.35	22728.94
485.53	22623.62
485.71	23129.17
485.89	23538.77
486.07	23094.07
486.25	23042.57
486.43	23454.51
486.61	24046.66
486.78	23864.10
486.96	23985.81
487.14	24467.96
487.32	24212.84
487.50	24748.82
487.68	24924.36
487.85	25179.48
488.03	25172.46
488.21	25378.43
488.39	25970.58
488.57	25762.28
488.75	25909.73
488.92	26511.25
489.10	26546.36
489.28	26328.69
489.46	27197.02
489.64	27101.06
489.81	27442.78
489.99	27782.16
490.17	27735.35
490.35	27859.40
490.53	28161.33
490.70	27934.29
490.88	27948.34
491.06	28664.54
491.24	28842.42
491.41	28790.93
491.59	29439.26
491.77	29020.30
491.95	29069.45
492.13	29563.31
492.30	29708.42
492.48	29757.57
492.66	30050.14
492.84	29879.28
493.01	30326.32
493.19	30721.87
493.37	30998.06
493.54	30911.46
493.72	31538.72
493.90	31124.44
494.08	31393.61
494.25	31772.77
494.43	31756.39
494.61	31974.06
494.79	32301.73
494.96	32594.30
495.14	32620.05
495.32	32816.65
495.49	32744.09
495.67	33247.31
495.85	32861.12
496.02	33439.23
496.20	34012.66
496.38	33532.86
496.55	33928.41
496.73	34635.25
496.91	34190.55
497.09	34328.64
497.26	34553.33
497.44	34410.56
497.62	35297.62
497.79	35887.43
497.97	35119.74
498.14	35920.20
498.32	35763.39
498.50	35929.56
498.67	35967.01
498.85	35894.46
499.03	36236.17
499.20	36430.44
499.38	36790.88
499.56	36807.26
499.73	37041.32
499.91	37413.46
500.08	37111.53
500.26	37324.52
500.44	37514.11
500.61	37378.36
500.79	37352.61
500.97	37577.30
501.14	38218.61
501.32	38019.66
501.49	38227.97
501.67	38576.71
501.84	38607.14
502.02	38490.11
502.20	38967.58
502.37	39302.28
502.55	39014.39
502.72	39489.52
502.90	39316.32
503.07	39276.53
503.25	39681.44
503.43	39213.34
503.60	40053.59
503.78	39817.19
503.95	40210.40
504.13	39679.10
504.30	40549.78
504.48	39922.52
504.65	40025.50
504.83	40973.42
505.01	41015.55
505.18	40851.71
505.36	41338.54
505.53	41106.83
505.71	41160.66
505.88	41530.47
506.06	41572.60
506.23	41844.10
506.41	41460.25
506.58	41701.32
506.76	41797.29
506.93	41879.21
507.11	41783.24
507.28	42059.43
507.46	42497.11
507.63	42546.26
507.81	42784.99
507.98	42621.16
508.16	42717.12
508.33	43044.79
508.50	43522.26
508.68	43243.74
508.85	43496.52
509.03	43835.89
509.20	43414.60
509.38	43494.18
509.55	44095.69
509.73	44294.64
509.90	44212.72
510.08	44631.68
510.25	44137.82
510.42	44322.72
510.60	44692.53
510.77	45102.12
510.95	45331.50
511.12	44739.34
511.30	45050.63
511.47	45338.52
511.64	44783.81
511.82	46078.13
511.99	45329.16
512.17	45436.82
512.34	45202.77
512.51	45797.26
512.69	46288.77
512.86	45998.55
513.04	46328.56
513.21	46246.65
513.38	46689.01
513.56	46621.13
513.73	46117.92
513.90	46536.87
514.08	46466.66
514.25	47182.86
514.43	47250.74
514.60	47234.35
514.77	47072.85
514.95	47529.26
515.12	47243.71
515.29	47185.20
515.47	47522.24
515.64	47943.53
515.81	47934.17
515.99	48100.35
516.16	47957.58
516.33	48423.34
516.51	48559.09
516.68	47913.11
516.85	48149.50
517.03	48788.47
517.20	48914.86
517.37	48687.82
517.54	48374.19
517.72	48545.05
517.89	48837.62
518.06	49038.90
518.24	49066.99
518.41	48575.48
518.58	49420.41
518.75	48917.20
518.93	49308.07
519.10	49382.96
519.27	49581.91
519.45	49340.83
519.62	49696.59
519.79	49780.85
519.96	49808.94
520.14	49783.19
520.31	49720.00
520.48	50312.16
520.65	50176.40
520.83	50473.65
521.00	50160.02
521.17	50167.04
521.34	50578.98
521.52	50670.26
521.69	50686.64
521.86	50927.72
522.03	50822.39
522.20	51105.60
522.38	51295.18
522.55	51388.80
522.72	51082.19
522.89	50824.73
523.07	51505.83
523.24	51262.41
523.41	51372.42
523.58	50969.85
523.75	52009.04
523.92	51690.73
524.10	51877.97
524.27	51793.71
524.44	51627.54
524.61	51861.59
524.78	51533.92
524.96	51817.12
525.13	51744.56
525.30	52051.17
525.47	52285.23
525.64	52397.57
525.81	52402.25
525.98	52467.79
526.16	52296.93
526.33	52376.51
526.50	52720.57
526.67	52479.49
526.84	52416.30
527.01	52662.05
527.18	52605.88
527.36	52739.29
527.53	53052.92
527.70	53102.07
527.87	53097.39
528.04	53109.10
528.21	53162.93
528.38	53001.43
528.55	53525.71
528.72	53186.33
528.89	53230.80
529.07	52940.58
529.24	53165.27
529.41	53326.77
529.58	53408.68
529.75	53504.65
529.92	53689.55
530.09	53619.33
530.26	53932.96
530.43	53822.96
530.60	53694.23
530.77	53319.74
530.94	53886.15
531.11	53792.53
531.28	54014.88
531.46	53986.80
531.63	54183.40
531.80	53954.03
531.97	54122.55
532.14	54309.79
532.31	54134.25
532.48	54536.82
532.65	54326.17
532.82	54335.54
532.99	54724.07
533.16	54398.73
533.33	54686.62
533.50	54768.54
533.67	54714.70
533.84	54391.71
534.01	54747.47
534.18	54890.24
534.35	55072.81
534.52	55011.95
534.69	55126.64
534.86	55281.11
535.03	54787.26
535.20	55056.42
535.37	55346.65
535.54	55313.88
535.71	54913.65
535.88	55152.38
536.05	55569.00
536.22	55348.99
536.38	55515.17
536.55	55426.23
536.72	55449.63
536.89	55316.22
537.06	55274.09
537.23	55826.46
537.40	55346.65
537.57	55559.64
537.74	55496.44
537.91	55587.72
538.08	55491.76
538.25	55618.15
538.42	55838.16
538.59	55868.59
538.75	55430.91
538.92	55852.20
539.09	56137.75
539.26	56116.68
539.43	56013.70
539.60	56207.97
539.77	56041.79
539.94	56287.54
540.11	56154.13
540.28	56147.11
540.44	56280.52
540.61	56182.22
540.78	56002.00
540.95	56170.52
541.12	56081.58
541.29	56100.30
541.46	56280.52
541.62	56554.36
541.79	56640.96
541.96	55983.27
542.13	56369.46
542.30	56411.59
542.47	56912.47
542.63	56582.45
542.80	56760.33
542.97	57102.05
543.14	56856.29
543.31	57183.97
543.48	57212.06
543.64	57198.01
543.81	57043.54
543.98	57368.87
544.15	57036.51
544.32	57296.31
544.48	57354.83
544.65	57230.78
544.82	57469.51
544.99	57010.77
545.16	57408.66
545.32	57179.29
545.49	57691.86
545.66	57462.49
545.83	57551.43
546.00	57385.25
546.16	57574.84
546.33	57305.68
546.50	57155.88
546.67	57471.85
546.83	57345.47
547.00	57605.26
547.17	57635.69
547.34	57682.50
547.50	57872.09
547.67	57888.47
547.84	57710.59
548.00	57794.85
548.17	58054.65
548.34	58145.93
548.51	58073.37
548.67	58181.04
548.84	57963.37
549.01	57916.56
549.18	57902.51
549.34	57958.69
549.51	58272.32
549.68	58169.33
549.84	58155.29
550.01	58274.66
550.18	58176.36
550.34	58326.15
550.51	58342.53
550.68	58234.87
550.84	58061.67
551.01	58550.84
551.18	58354.24
551.34	58401.05
551.51	58314.45
551.68	58504.03
551.84	58272.32
552.01	58436.16
552.18	58506.37
552.34	58342.53
552.51	58574.25
552.68	58361.26
552.84	58443.18
553.01	58845.75
553.18	58712.34
553.34	58431.47
553.51	58260.62
553.67	58553.18
553.84	58834.05
554.01	58735.74
554.17	58845.75
554.34	58794.26
554.51	58822.34
554.67	58965.12
554.84	58834.05
555.00	58908.94
555.17	58876.18
555.33	58897.24
555.50	58740.42
555.67	58745.11
555.83	58873.84
556.00	59025.97
556.16	59267.05
556.33	59140.66
556.50	59199.17
556.66	59152.36
556.83	58913.62
556.99	59271.73
557.16	59372.37
557.32	59133.63
557.49	59440.24
557.65	59058.74
557.82	58887.88
557.98	59150.02
558.15	59255.34
558.32	59344.28
558.48	59234.28
558.65	59208.53
558.81	59573.66
558.98	59264.70
559.14	59573.66
559.31	59508.12
559.47	59517.48
559.64	59435.56
559.80	59367.69
559.97	59646.21
560.13	59451.95
560.30	59489.40
560.46	59512.80
560.63	59419.18
560.79	59746.86
560.96	59686.00
561.12	59597.06
561.29	59501.10
561.45	59646.21
561.61	59561.95
561.78	59625.15
561.94	59592.38
562.11	59627.49
562.27	59793.67
562.44	59709.41
562.60	59838.14
562.77	59929.42
562.93	59592.38
563.10	59906.01
563.26	59704.73
563.42	60004.31
563.59	59891.97
563.75	59936.44
563.92	59784.30
564.08	59842.82
564.24	60009.00
564.41	60058.15
564.57	60069.85
564.74	59917.71
564.90	59936.44
565.07	59959.84
565.23	59936.44
565.39	60065.17
565.56	59990.27
565.72	60037.08
565.88	60107.30
566.05	59997.29
566.21	60093.25
566.38	59938.78
566.54	60020.70
566.70	60341.35
566.87	60404.55
567.03	60046.44
567.19	60331.99
567.36	60072.19
567.52	60107.30
567.68	60395.18
567.85	60055.81
568.01	60271.14
568.17	60046.44
568.34	60186.88
568.50	60444.33
568.66	60233.69
568.83	60306.24
568.99	59934.10
569.15	60282.84
569.32	60238.37
569.48	60339.01
569.64	60343.69
569.81	60247.73
569.97	60449.02
570.13	60374.12
570.30	60261.77
570.46	60196.24
570.62	60374.12
570.78	60376.46
570.95	60191.56
571.11	60470.08
571.27	60395.18
571.43	60362.42
571.60	60446.68
571.76	60470.08
571.92	60458.38
572.09	60261.77
572.25	60245.39
572.41	60481.78
572.57	60348.37
572.74	60708.82
572.90	60556.68
573.06	60568.38
573.22	60488.80
573.38	60537.96
573.55	60566.04
573.71	60526.25
573.87	60498.17
574.03	60465.40
574.20	60664.35
574.36	60460.72
574.52	60589.45
574.68	60662.00
574.84	60769.67
575.01	60584.77
575.17	60465.40
575.33	60451.36
575.49	60523.91
575.65	60449.02
575.82	60610.51
575.98	60633.92
576.14	60753.29
576.30	60772.01
576.46	60638.60
576.62	60671.37
576.79	60732.22
576.95	60460.72
577.11	60603.49
577.27	60570.72
577.43	60638.60
577.59	60509.87
577.75	60755.63
577.92	60374.12
578.08	60692.43
578.24	60430.29
578.40	60903.08
578.56	60750.94
578.72	60781.37
578.88	60935.85
579.04	60963.93
579.21	60781.37
579.37	60886.70
579.53	60877.33
579.69	60446.68
579.85	60645.62
580.01	60507.53
580.17	60818.82
580.33	60767.33
580.49	60800.10
580.65	60907.76
580.82	60666.69
580.98	60505.19
581.14	60739.24
581.30	61020.11
581.46	60654.98
581.62	60757.97
581.78	60516.89
581.94	60956.91
582.10	60697.11
582.26	60540.30
582.42	60722.86
582.58	60811.80
582.74	60729.88
582.90	60659.66
583.06	60870.31
583.22	60570.72
583.38	60816.48
583.54	60788.39
583.70	60767.33
583.86	60949.89
584.02	60781.37
584.18	60835.20
584.34	60912.44
584.50	60666.69
584.66	60662.00
584.82	60484.12
584.98	61020.11
585.14	60959.25
585.30	60596.47
585.46	60746.26
585.62	60823.50
585.78	61165.22
585.94	60722.86
586.10	60942.87
586.26	60900.74
586.42	60858.61
586.58	60926.49
586.74	60903.08
586.90	60788.39
587.06	60837.54
587.22	60856.27
587.38	60807.12
587.54	60982.66
587.70	61205.01
587.86	61080.96
588.02	60959.25
588.18	60999.04
588.34	60846.91
588.49	60933.51
