SpectraSuite Data File
++++++++++++++++++++++++++++++++++++
Date: Fri Oct 25 11:33:55 EDT 2013
User: price-jones
Dark Spectrum Present: No
Reference Spectrum Present: No
Number of Sampled Component Spectra: 1
Spectrometers: USB2+H05261
Integration Time (usec): 100000 (USB2+H05261)
Spectra Averaged: 1 (USB2+H05261)
Boxcar Smoothing: 0 (USB2+H05261)
Correct for Electrical Dark: No (USB2+H05261)
Strobe/Lamp Enabled: No (USB2+H05261)
Correct for Detector Non-linearity: No (USB2+H05261)
Correct for Stray Light: No (USB2+H05261)
Number of Pixels in Processed Spectrum: 2048
>>>>>Begin Processed Spectral Data<<<<<
365.73	250.44
365.92	250.44
366.12	250.44
366.32	229.37
366.52	145.11
366.72	191.92
366.91	194.26
367.11	121.71
367.31	191.92
367.51	95.96
367.70	201.29
367.90	128.73
368.10	182.56
368.30	198.95
368.49	159.16
368.69	220.01
368.89	236.39
369.09	182.56
369.28	229.37
369.48	194.26
369.68	131.07
369.87	311.29
370.07	285.55
370.27	255.12
370.47	355.76
370.66	547.69
370.86	514.92
371.06	517.26
371.25	552.37
371.45	465.77
371.65	528.96
371.84	594.50
372.04	547.69
372.24	645.99
372.44	531.30
372.63	575.77
372.83	585.13
373.03	615.56
373.22	594.50
373.42	655.35
373.62	587.47
373.81	643.65
374.01	699.82
374.21	695.14
374.40	610.88
374.60	664.71
374.79	638.97
374.99	702.16
375.19	617.90
375.38	685.78
375.58	653.01
375.78	599.18
375.97	653.01
376.17	751.31
376.37	622.58
376.56	655.35
376.76	603.86
376.95	643.65
377.15	727.91
377.35	662.37
377.54	723.23
377.74	732.59
377.93	713.86
378.13	758.33
378.33	688.12
378.52	692.80
378.72	734.93
378.91	676.41
379.11	697.48
379.31	671.73
379.50	702.16
379.70	704.50
379.89	758.33
380.09	727.91
380.28	725.57
380.48	720.88
380.68	723.23
380.87	732.59
381.07	741.95
381.26	753.65
381.46	821.53
381.65	753.65
381.85	723.23
382.04	791.10
382.24	732.59
382.43	755.99
382.63	763.01
382.83	774.72
383.02	741.95
383.22	819.19
383.41	774.72
383.61	840.25
383.80	812.17
384.00	828.55
384.19	833.23
384.39	805.14
384.58	798.12
384.78	791.10
384.97	866.00
385.17	915.15
385.36	856.64
385.56	819.19
385.75	793.44
385.95	828.55
386.14	840.25
386.34	880.04
386.53	915.15
386.72	866.00
386.92	880.04
387.11	924.51
387.31	882.38
387.50	880.04
387.70	840.25
387.89	891.74
388.09	854.30
388.28	945.58
388.48	833.23
388.67	961.96
388.86	873.02
389.06	889.40
389.25	1001.75
389.45	997.07
389.64	903.45
389.84	1011.11
390.03	943.24
390.22	976.00
390.42	924.51
390.61	910.47
390.81	940.90
391.00	987.71
391.19	1081.33
391.39	1097.71
391.58	1057.92
391.78	908.13
391.97	1025.15
392.16	1128.14
392.36	987.71
392.55	1104.73
392.75	1050.90
392.94	1001.75
393.13	1081.33
393.33	1167.93
393.52	1067.28
393.71	1062.60
393.91	1064.94
394.10	978.34
394.29	1067.28
394.49	1102.39
394.68	1097.71
394.88	1114.10
395.07	990.05
395.26	1128.14
395.46	1137.50
395.65	1200.69
395.84	1205.38
396.04	1153.88
396.23	1170.27
396.42	1128.14
396.62	1252.19
396.81	1231.12
397.00	1172.61
397.19	1261.55
397.39	1165.59
397.58	1207.72
397.77	1196.01
397.97	1247.51
398.16	1240.48
398.35	1231.12
398.55	1205.38
398.74	1369.21
398.93	1299.00
399.12	1275.59
399.32	1212.40
399.51	1287.29
399.70	1345.81
399.90	1313.04
400.09	1348.15
400.28	1383.26
400.47	1357.51
400.67	1444.11
400.86	1355.17
401.05	1446.45
401.24	1430.07
401.44	1420.71
401.63	1404.32
401.82	1490.92
402.01	1486.24
402.21	1465.18
402.40	1584.54
402.59	1437.09
402.78	1425.39
402.97	1502.62
403.17	1547.09
403.36	1425.39
403.55	1551.78
403.74	1579.86
403.93	1556.46
404.13	1645.40
404.32	1563.48
404.51	1544.75
404.70	1650.08
404.89	1584.54
405.09	1715.61
405.28	1589.22
405.47	1619.65
405.66	1727.32
405.85	1666.46
406.05	1694.55
406.24	1732.00
406.43	1652.42
406.62	1771.79
406.81	1790.51
407.00	1799.87
407.20	1774.13
407.39	1760.08
407.58	1837.32
407.77	1872.43
407.96	1895.83
408.15	1849.02
408.34	1790.51
408.54	1949.67
408.73	1893.49
408.92	1884.13
409.11	1898.17
409.30	1919.24
409.49	1930.94
409.68	2073.71
409.87	2017.54
410.07	1935.62
410.26	2024.56
410.45	2045.63
410.64	2062.01
410.83	2115.84
411.02	2064.35
411.21	2057.33
411.40	2176.70
411.59	2221.17
411.78	2176.70
411.98	2279.68
412.17	2232.87
412.36	2275.00
412.55	2352.24
412.74	2335.85
412.93	2427.14
413.12	2249.25
413.31	2427.14
413.50	2265.64
413.69	2389.69
413.88	2331.17
414.07	2466.92
414.26	2434.16
414.45	2464.58
414.64	2448.20
414.83	2588.63
415.02	2534.80
415.22	2665.87
415.41	2583.95
415.60	2649.49
415.79	2752.47
415.98	2626.08
416.17	2705.66
416.36	2729.06
416.55	2722.04
416.74	2761.83
416.93	2754.81
417.12	2740.77
417.31	2787.58
417.50	2918.65
417.69	2855.45
417.88	2974.82
418.07	2761.83
418.26	2932.69
418.45	2986.52
418.64	3014.61
418.83	2946.73
419.02	3038.02
419.21	2939.71
419.39	3215.90
419.58	3042.70
419.77	3045.04
419.96	3052.06
420.15	3101.21
420.34	3049.72
420.53	3164.40
420.72	3187.81
420.91	3119.93
421.10	3133.98
421.29	3192.49
421.48	3246.32
421.67	3204.19
421.86	3157.38
422.05	3260.37
422.24	3382.07
422.43	3363.35
422.61	3356.33
422.80	3393.78
422.99	3293.13
423.18	3251.00
423.37	3375.05
423.56	3449.95
423.75	3410.16
423.94	3255.69
424.13	3112.91
424.32	3241.64
424.50	3375.05
424.69	3529.53
424.88	3531.87
425.07	3372.71
425.26	3316.54
425.45	3342.28
425.64	3293.13
425.83	3456.97
426.01	3424.20
426.20	3501.44
426.39	3571.66
426.58	3534.21
426.77	3307.18
426.96	3531.87
427.15	3431.23
427.33	3485.06
427.52	3492.08
427.71	3555.27
427.90	3529.53
428.09	3625.49
428.28	3665.28
428.46	3768.26
428.65	3571.66
428.84	3716.77
429.03	3887.63
429.22	3522.51
429.40	3789.33
429.59	3676.98
429.78	3693.37
429.97	3536.55
430.16	3749.54
430.34	3672.30
430.53	3852.52
430.72	3803.37
430.91	3819.75
431.10	3833.80
431.28	3955.51
431.47	3810.39
431.66	3927.42
431.85	4095.94
432.03	3929.76
432.22	3920.40
432.41	3948.48
432.60	4109.98
432.79	3988.27
432.97	3967.21
433.16	4023.38
433.35	4035.08
433.54	4081.89
433.72	4191.90
433.91	4219.99
434.10	4140.41
434.28	4135.73
434.47	4285.52
434.66	4283.18
434.85	4210.62
435.03	4320.63
435.22	4285.52
435.41	4337.01
435.59	4332.33
435.78	4285.52
435.97	4400.21
436.16	4533.62
436.34	4430.63
436.53	4278.50
436.72	4552.34
436.90	4423.61
437.09	4484.47
437.28	4447.02
437.46	4491.49
437.65	4444.68
437.84	4559.36
438.02	4521.92
438.21	4484.47
438.40	4428.29
438.58	4765.33
438.77	4826.18
438.96	4608.51
439.14	4734.90
439.33	4957.25
439.52	4882.36
439.70	4933.85
439.89	5090.67
440.08	4910.44
440.26	4973.64
440.45	4924.49
440.63	5104.71
440.82	4999.38
441.01	5064.92
441.19	5296.63
441.38	5205.35
441.57	5142.16
441.75	5193.65
441.94	5453.45
442.12	5263.86
442.31	5378.55
442.50	5451.11
442.68	5362.17
442.87	5289.61
443.05	5291.95
443.24	5558.77
443.43	5399.62
443.61	5542.39
443.80	5734.31
443.98	5540.05
444.17	5247.48
444.35	5593.88
444.54	5647.71
444.73	5549.41
444.91	5626.65
445.10	5598.56
445.28	5444.09
445.47	5551.75
445.65	5460.47
445.84	5584.52
446.02	5551.75
446.21	5706.23
446.39	5570.48
446.58	5685.16
446.77	5701.54
446.95	5568.13
447.14	5731.97
447.32	5706.23
447.51	5748.36
447.69	5593.88
447.88	5593.88
448.06	5867.72
448.25	5706.23
448.43	5968.37
448.62	5734.31
448.80	5668.78
448.99	5940.28
449.17	5863.04
449.36	5809.21
449.54	5884.11
449.73	5912.19
449.91	6040.92
450.10	6134.54
450.28	6101.78
450.46	5996.45
450.65	6008.16
450.83	5959.00
451.02	6169.65
451.20	6073.69
451.39	6174.33
451.57	6209.44
451.76	5970.71
451.94	6129.86
452.13	6242.21
452.31	6160.29
452.49	6136.88
452.68	6244.55
452.86	6038.58
453.05	6286.68
453.23	6492.65
453.42	6139.23
453.60	6242.21
453.78	6506.69
453.97	6361.58
454.15	6384.98
454.34	6333.49
454.52	6387.32
454.70	6359.24
454.89	6497.33
455.07	6387.32
455.26	6717.34
455.44	6560.52
455.62	6621.38
455.81	6614.35
455.99	6614.35
456.17	6616.69
456.36	6600.31
456.54	6553.50
456.73	6935.01
456.91	6766.49
457.09	6883.52
457.28	7150.34
457.46	6904.58
457.64	7101.19
457.83	7080.12
458.01	6820.32
458.19	7241.62
458.38	6967.77
458.56	7124.59
458.74	7199.49
458.93	7150.34
459.11	7136.29
459.29	7126.93
459.48	7248.64
459.66	7337.58
459.84	7197.15
460.03	7438.22
460.21	7379.71
460.39	7276.73
460.57	7211.19
460.76	7365.67
460.94	7489.71
461.12	7492.05
461.31	7377.37
461.49	7360.98
461.67	7487.37
461.85	7693.34
462.04	7466.31
462.22	8032.72
462.40	7454.61
462.59	7836.11
462.77	7632.49
462.95	7791.64
463.13	7705.04
463.32	7775.26
463.50	7758.88
463.68	7915.69
463.86	7826.75
464.05	7655.89
464.23	7751.85
464.41	7948.46
464.59	7793.98
464.78	8194.22
464.96	7988.25
465.14	7742.49
465.32	8074.85
465.50	7939.10
465.69	7999.95
465.87	8292.52
466.05	7978.89
466.23	8095.91
466.41	8184.85
466.60	8147.40
466.78	8175.49
466.96	8067.83
467.14	8121.66
467.32	8063.15
467.51	8205.92
467.69	8152.09
467.87	8339.33
468.05	8351.03
468.23	8248.05
468.41	8236.35
468.60	8344.01
468.78	8390.82
468.96	8425.93
469.14	8514.87
469.32	8554.66
469.50	8348.69
469.69	8688.07
469.87	8730.20
470.05	8606.15
470.23	8547.64
470.41	8617.85
470.59	8898.72
470.77	8671.68
470.95	8765.31
471.14	8798.07
471.32	8533.59
471.50	8788.71
471.68	8854.25
471.86	8933.82
472.04	9057.87
472.22	9111.71
472.40	9240.44
472.58	9156.18
472.77	9202.99
472.95	9350.44
473.13	9584.49
473.31	9334.06
473.49	9369.16
473.67	9305.97
473.85	9467.47
474.03	9731.95
474.21	9666.41
474.39	9666.41
474.57	9575.13
474.75	10003.45
474.93	9743.65
475.12	9837.27
475.30	10108.77
475.48	10001.11
475.66	10052.60
475.84	9942.60
476.02	10209.42
476.20	10120.48
476.38	10125.16
476.56	10469.22
476.74	10485.60
476.92	10410.70
477.10	10382.62
477.28	10565.18
477.46	10644.76
477.64	10794.55
477.82	10911.58
478.00	11080.10
478.18	10827.32
478.36	11150.31
478.54	11272.02
478.72	11152.65
478.90	11286.06
479.08	11304.79
479.26	11353.94
479.44	11426.50
479.62	11723.74
479.80	11798.64
479.98	11967.16
480.16	12020.99
480.34	12004.61
480.52	12100.57
480.70	12133.34
480.88	11983.54
481.06	12231.64
481.24	12191.85
481.41	12608.47
481.59	12341.64
481.77	12723.15
481.95	12940.82
482.13	12800.39
482.31	12964.23
482.49	13177.22
482.67	13071.89
482.85	13291.90
483.03	13118.70
483.21	13554.04
483.39	13858.31
483.57	13668.73
483.74	13816.18
483.92	13675.75
484.10	13743.63
484.28	14230.46
484.46	14221.10
484.64	14611.96
484.82	14328.76
485.00	14518.34
485.18	14761.76
485.35	14871.76
485.53	14841.34
485.71	15035.60
485.89	15262.63
486.07	15129.22
486.25	15211.14
486.43	15187.74
486.61	15531.80
486.78	15634.78
486.96	15831.38
487.14	15840.75
487.32	16011.60
487.50	16067.78
487.68	16257.36
487.85	16336.94
488.03	16521.84
488.21	16599.08
488.39	16739.51
488.57	16844.84
488.75	16795.68
488.92	17584.44
489.10	17219.32
489.28	17497.84
489.46	17617.21
489.64	17568.06
489.81	17802.11
489.99	17972.97
490.17	17928.50
490.35	18162.56
490.53	18300.65
490.70	18602.58
490.88	18448.10
491.06	18518.32
491.24	18761.73
491.41	18609.60
491.59	19047.28
491.77	19082.39
491.95	19218.14
492.13	19466.24
492.30	19569.22
492.48	19606.67
492.66	19573.90
492.84	19662.84
493.01	20240.95
493.19	20002.22
493.37	20290.10
493.54	19936.68
493.72	20271.38
493.90	20430.54
494.08	20758.21
494.25	20856.51
494.43	20493.73
494.61	21181.85
494.79	21128.02
494.96	20905.66
495.14	21181.85
495.32	21546.97
495.49	21565.70
495.67	21598.46
495.85	21748.26
496.02	22153.17
496.20	21825.50
496.38	22258.49
496.55	21759.96
496.73	22494.89
496.91	22291.26
497.09	22181.26
497.26	22773.41
497.44	23058.96
497.62	22897.46
497.79	22972.36
497.97	23084.70
498.14	23211.09
498.32	23651.11
498.50	23566.85
498.67	23601.96
498.85	23550.47
499.03	23920.28
499.20	23990.49
499.38	23985.81
499.56	24479.66
499.73	23946.02
499.91	23957.72
500.08	24666.91
500.26	24336.89
500.44	24645.84
500.61	24503.07
500.79	24702.01
500.97	25120.97
501.14	24884.58
501.32	24959.47
501.49	24950.11
501.67	25048.41
501.84	25163.10
502.02	25645.25
502.20	25455.67
502.37	25373.75
502.55	25390.13
502.72	25624.18
502.90	25336.30
503.07	25727.17
503.25	25778.66
503.43	25891.01
503.60	26345.07
503.78	26080.59
503.95	25972.92
504.13	26396.56
504.30	26499.55
504.48	26483.16
504.65	26466.78
504.83	26642.32
505.01	26785.09
505.18	26745.30
505.36	27269.58
505.53	27061.27
505.71	27349.16
505.88	27138.51
506.06	27021.48
506.23	27180.64
506.41	27204.05
506.58	27566.83
506.76	27775.14
506.93	27786.84
507.11	27501.29
507.28	27871.10
507.46	27564.49
507.63	28006.85
507.81	28046.64
507.98	27714.28
508.16	28416.44
508.33	28079.41
508.50	28250.27
508.68	28804.97
508.85	28680.92
509.03	28493.68
509.20	28858.81
509.38	28816.68
509.55	29001.58
509.73	29240.31
509.90	28900.94
510.08	29076.48
510.25	29298.83
510.42	29621.82
510.60	29415.85
510.77	29944.81
510.95	29642.88
511.12	29652.25
511.30	29525.86
511.47	29776.30
511.64	29954.18
511.82	30272.49
511.99	30167.16
512.17	30476.12
512.34	30206.95
512.51	30380.15
512.69	30501.86
512.86	30312.28
513.04	30616.55
513.21	30368.45
513.38	30703.15
513.56	31030.82
513.73	31002.74
513.90	30902.09
514.08	30918.48
514.25	30766.34
514.43	30714.85
514.60	31098.70
514.77	31271.90
514.95	31737.66
515.12	31447.44
515.29	31452.12
515.47	31728.30
515.64	31871.07
515.81	31637.02
515.99	31728.30
516.16	31798.52
516.33	31786.82
516.51	32594.30
516.68	31695.53
516.85	31831.29
517.03	32369.61
517.20	32425.78
517.37	32144.92
517.54	32697.28
517.72	32538.13
517.89	32582.60
518.06	32638.77
518.24	32308.76
518.41	32613.02
518.58	32727.71
518.75	32594.30
518.93	33062.41
519.10	32694.94
519.27	33151.35
519.45	33362.00
519.62	33319.87
519.79	33441.57
519.96	32851.76
520.14	33708.40
520.31	33689.67
520.48	33752.87
520.65	33792.65
520.83	34031.39
521.00	33802.02
521.17	33886.28
521.34	34122.67
521.52	34368.43
521.69	34092.24
521.86	34501.84
522.03	34293.53
522.20	34569.71
522.38	34609.50
522.55	34703.12
522.72	34263.10
522.89	34684.40
523.07	34925.47
523.24	34974.63
523.41	35285.92
523.58	34803.77
523.75	35007.39
523.92	34974.63
524.10	35314.00
524.27	35173.57
524.44	35470.82
524.61	35180.59
524.78	35578.48
524.96	35721.26
525.13	36114.47
525.30	35885.09
525.47	35779.77
525.64	35564.44
525.81	36137.87
525.98	35950.63
526.16	35824.24
526.33	35807.86
526.50	36268.94
526.67	35803.17
526.84	36151.91
527.01	36072.34
527.18	35744.66
527.36	36458.52
527.53	36144.89
527.70	36725.35
527.87	36428.10
528.04	36610.66
528.21	36627.04
528.38	36531.08
528.55	36872.80
528.72	36727.69
528.89	36486.61
529.07	36648.11
529.24	36959.40
529.41	37483.68
529.58	37160.69
529.75	36666.83
529.92	37251.97
530.09	37420.48
530.26	37230.90
530.43	37689.65
530.60	37425.17
530.77	37219.20
530.94	37464.96
531.11	37722.41
531.28	37467.30
531.46	37589.00
531.63	37448.57
531.80	37942.42
531.97	38057.11
532.14	38092.22
532.31	38148.39
532.48	37677.94
532.65	38752.25
532.82	38265.42
532.99	37982.21
533.16	38075.84
533.33	38560.33
533.50	38703.10
533.67	38181.16
533.84	38143.71
534.01	38782.68
534.18	38457.34
534.35	38792.04
534.52	38794.38
534.69	38543.94
534.86	39241.42
535.03	38663.31
535.20	38742.89
535.37	38948.85
535.54	39023.75
535.71	38909.07
535.88	39681.44
536.05	39065.88
536.22	39405.26
536.38	39538.67
536.55	39306.96
536.72	39339.72
536.89	39489.52
537.06	39569.10
537.23	39655.70
537.40	39428.66
537.57	39395.90
537.74	39325.68
537.91	39807.83
538.08	39779.74
538.25	39754.00
538.42	40018.48
538.59	39957.63
538.75	40002.10
538.92	39974.01
539.09	39988.05
539.26	39985.71
539.43	39856.98
539.60	39812.51
539.77	40027.84
539.94	40451.48
540.11	39938.90
540.28	40334.45
540.44	40285.30
540.61	40531.06
540.78	40231.47
540.95	40807.24
541.12	40203.38
541.29	40517.01
541.46	40428.07
541.62	40336.79
541.79	40950.01
541.96	40133.17
542.13	40648.08
542.30	40849.37
542.47	40788.52
542.63	40760.43
542.80	41120.87
542.97	41120.87
543.14	41233.22
543.31	41404.08
543.48	41308.11
543.64	41612.38
543.81	41720.05
543.98	41462.59
544.15	41315.14
544.32	41720.05
544.48	41673.24
544.65	42019.64
544.82	42040.70
544.99	41504.72
545.16	41736.43
545.32	41698.98
545.49	42361.36
545.66	42293.48
545.83	42305.18
546.00	42679.67
546.16	41935.38
546.33	41839.42
546.50	41940.06
546.67	42298.16
546.83	41717.71
547.00	42312.20
547.17	42459.66
547.34	42316.89
547.50	42684.35
547.67	42740.52
547.84	42309.86
548.00	42852.87
548.17	42895.00
548.34	42377.74
548.51	43070.54
548.67	42941.81
548.84	42808.40
549.01	42902.02
549.18	42824.78
549.34	42981.60
549.51	42653.92
549.68	43185.22
549.84	42953.51
550.01	43194.59
550.18	42962.87
550.34	43353.74
550.51	43377.15
550.68	43529.28
550.84	43002.66
551.01	43419.28
551.18	43529.28
551.34	43243.74
551.51	43210.97
551.68	43262.46
551.84	43920.15
552.01	43133.73
552.18	43459.07
552.34	43278.85
552.51	43639.29
552.68	43643.97
552.84	43765.68
553.01	43765.68
553.18	43634.61
553.34	43716.53
553.51	43751.63
553.67	43913.13
553.84	43775.04
554.01	44147.18
554.17	44210.38
554.34	44308.68
554.51	44060.58
554.67	44165.91
554.84	44713.59
555.00	43929.51
555.17	43714.19
555.33	44362.51
555.50	44105.06
555.67	43882.70
555.83	44505.29
556.00	44741.68
556.16	44938.29
556.33	44502.95
556.50	44453.79
556.66	44584.86
556.83	44357.83
556.99	44755.72
557.16	44423.37
557.32	45013.18
557.49	44954.67
557.65	44088.67
557.82	44856.37
557.98	45116.17
558.15	44821.26
558.32	44767.43
558.48	44474.86
558.65	44741.68
558.81	44825.94
558.98	44954.67
559.14	44849.35
559.31	44765.09
559.47	44893.82
559.64	44767.43
559.80	45027.23
559.97	44886.79
560.13	44917.22
560.30	44996.80
560.46	44985.10
560.63	44912.54
560.79	45106.80
560.96	45158.30
561.12	45275.32
561.29	44884.45
561.45	44580.18
561.61	45251.92
561.78	45031.91
561.94	45605.34
562.11	45123.19
562.27	45324.47
562.44	45392.35
562.60	45265.96
562.77	45834.71
562.93	45481.29
563.10	45783.22
563.26	45284.68
563.42	45698.96
563.59	45340.86
563.75	45207.45
563.92	45476.61
564.08	45308.09
564.24	45741.09
564.41	45537.46
564.57	45443.84
564.74	45605.34
564.90	45705.98
565.07	45605.34
565.23	45574.91
565.39	45469.59
565.56	45956.42
565.72	45701.30
565.88	45605.34
566.05	45621.72
566.21	45851.09
566.38	45928.33
566.54	45713.00
566.70	46157.70
566.87	46014.93
567.03	45221.49
567.19	45485.97
567.36	45975.14
567.52	46082.81
567.68	46309.84
567.85	45820.67
568.01	46190.47
568.17	45811.31
568.34	45947.06
568.50	46314.52
568.66	45748.11
568.83	45935.35
568.99	46256.01
569.15	46340.27
569.32	45727.05
569.48	46124.94
569.64	46536.87
569.81	46513.47
569.97	46490.06
570.13	46117.92
570.30	46078.13
570.46	45970.46
570.62	46366.01
570.78	46291.12
570.95	46291.12
571.11	46148.34
571.27	46274.73
571.43	46309.84
571.60	46377.72
571.76	45947.06
571.92	46110.89
572.09	46082.81
572.25	45794.92
572.41	46092.17
572.57	46356.65
572.74	46508.79
572.90	46590.70
573.06	46843.48
573.22	46188.13
573.38	46302.82
573.55	46637.51
573.71	47215.63
573.87	46993.28
574.03	46408.14
574.20	46742.84
574.36	46707.73
574.52	47089.24
574.68	46258.35
574.84	46859.87
575.01	46363.67
575.17	46351.97
575.33	47110.30
575.49	46260.69
575.65	46927.74
575.82	46782.63
575.98	46368.35
576.14	46368.35
576.30	46806.03
576.46	46513.47
576.62	46122.60
576.79	46677.30
576.95	46127.28
577.11	46436.23
577.27	46450.27
577.43	46190.47
577.59	46726.46
577.75	46691.35
577.92	46550.91
578.08	46681.98
578.24	46766.24
578.40	46770.93
578.56	46721.77
578.72	46707.73
578.88	46845.82
579.04	46478.36
579.21	46747.52
579.37	46635.17
579.53	46887.95
579.69	46855.18
579.85	46342.61
580.01	46869.23
580.17	46625.81
580.33	46712.41
580.49	46588.36
580.65	47014.34
580.82	46897.31
580.98	46698.37
581.14	46309.84
581.30	46504.10
581.46	46579.00
581.62	47061.15
581.78	46426.87
581.94	46925.40
582.10	46768.58
582.26	46955.83
582.42	46995.62
582.58	47007.32
582.74	46866.89
582.90	46962.85
583.06	46857.52
583.22	47084.56
583.38	47243.71
583.54	46686.67
583.70	46724.11
583.86	47224.99
584.02	46754.54
584.18	47269.46
584.34	46892.63
584.50	47086.90
584.66	47428.62
584.82	46799.01
584.98	47276.48
585.14	46873.91
585.30	46658.58
585.46	47220.31
585.62	46965.19
585.78	47248.39
585.94	46581.34
586.10	47346.70
586.26	46909.02
586.42	46890.29
586.58	47358.40
586.74	47103.28
586.90	46436.23
587.06	47077.54
587.22	47180.52
587.38	46925.40
587.54	47098.60
587.70	47304.57
587.86	47110.30
588.02	47033.07
588.18	46618.79
588.34	47342.02
588.49	47091.58
588.65	47037.75
588.81	47051.79
588.97	47091.58
589.13	47206.26
589.29	47250.74
589.45	47377.12
589.61	47147.75
589.77	47143.07
589.93	47105.62
590.08	47358.40
