SpectraSuite Data File
++++++++++++++++++++++++++++++++++++
Date: Fri Oct 25 10:48:33 EDT 2013
User: price-jones
Dark Spectrum Present: No
Reference Spectrum Present: No
Number of Sampled Component Spectra: 1
Spectrometers: USB2+H05261
Integration Time (usec): 100000 (USB2+H05261)
Spectra Averaged: 1 (USB2+H05261)
Boxcar Smoothing: 0 (USB2+H05261)
Correct for Electrical Dark: No (USB2+H05261)
Strobe/Lamp Enabled: No (USB2+H05261)
Correct for Detector Non-linearity: No (USB2+H05261)
Correct for Stray Light: No (USB2+H05261)
Number of Pixels in Processed Spectrum: 2048
>>>>>Begin Processed Spectral Data<<<<<
365.73	175.54
365.92	175.54
366.12	175.54
366.32	74.90
366.52	74.90
366.72	32.77
366.91	100.64
367.11	0.00
367.31	51.49
367.51	0.00
367.70	44.47
367.90	46.81
368.10	98.30
368.30	46.81
368.49	32.77
368.69	81.92
368.89	63.19
369.09	84.26
369.28	70.22
369.48	86.60
369.68	39.79
369.87	95.96
370.07	81.92
370.27	187.24
370.47	187.24
370.66	425.98
370.86	465.77
371.06	484.49
371.25	510.24
371.45	484.49
371.65	493.85
371.84	449.38
372.04	482.15
372.24	416.62
372.44	524.28
372.63	550.03
372.83	554.71
373.03	524.28
373.22	519.60
373.42	559.39
373.62	535.98
373.81	645.99
374.01	622.58
374.21	479.81
374.40	571.09
374.60	655.35
374.79	545.34
374.99	531.30
375.19	648.33
375.38	643.65
375.58	545.34
375.78	641.31
375.97	664.71
376.17	650.67
376.37	653.01
376.56	645.99
376.76	629.60
376.95	671.73
377.15	683.44
377.35	671.73
377.54	685.78
377.74	643.65
377.93	669.39
378.13	699.82
378.33	695.14
378.52	695.14
378.72	737.27
378.91	660.03
379.11	566.41
379.31	660.03
379.50	758.33
379.70	688.12
379.89	784.08
380.09	723.23
380.28	760.67
380.48	657.69
380.68	767.70
380.87	699.82
381.07	725.57
381.26	837.91
381.46	685.78
381.65	781.74
381.85	835.57
382.04	720.88
382.24	816.85
382.43	739.61
382.63	746.63
382.83	737.27
383.02	774.72
383.22	851.96
383.41	784.08
383.61	770.04
383.80	795.78
384.00	851.96
384.19	777.06
384.39	821.53
384.58	847.27
384.78	763.01
384.97	957.28
385.17	844.93
385.36	858.98
385.56	821.53
385.75	835.57
385.95	882.38
386.14	926.85
386.34	814.51
386.53	837.91
386.72	828.55
386.92	891.74
387.11	889.40
387.31	994.73
387.50	936.21
387.70	866.00
387.89	898.77
388.09	938.55
388.28	854.30
388.48	1057.92
388.67	961.96
388.86	999.41
389.06	1064.94
389.25	1107.07
389.45	1006.43
389.64	1055.58
389.84	994.73
390.03	971.32
390.22	1015.79
390.42	973.66
390.61	1018.13
390.81	1076.65
391.00	1123.46
391.19	1074.31
391.39	1088.35
391.58	1060.26
391.78	1114.10
391.97	1177.29
392.16	1093.03
392.36	1137.50
392.55	1018.13
392.75	1083.67
392.94	1053.24
393.13	1071.97
393.33	1111.75
393.52	1107.07
393.71	1217.08
393.91	1184.31
394.10	1142.18
394.29	1214.74
394.49	1219.42
394.68	1233.46
394.88	1214.74
395.07	1291.98
395.26	1310.70
395.46	1261.55
395.65	1322.40
395.84	1259.21
396.04	1240.48
396.23	1254.53
396.42	1313.04
396.62	1284.95
396.81	1284.95
397.00	1238.14
397.19	1308.36
397.39	1371.55
397.58	1448.79
397.77	1483.90
397.97	1502.62
398.16	1418.36
398.35	1547.09
398.55	1439.43
398.74	1565.82
398.93	1565.82
399.12	1469.86
399.32	1561.14
399.51	1544.75
399.70	1640.72
399.90	1598.59
400.09	1636.03
400.28	1682.85
400.47	1614.97
400.67	1666.46
400.86	1671.14
401.05	1661.78
401.24	1682.85
401.44	1797.53
401.63	1853.70
401.82	1776.47
402.01	1795.19
402.21	1816.26
402.40	1839.66
402.59	1863.07
402.78	1827.96
402.97	1802.21
403.17	1837.32
403.36	1853.70
403.55	1937.96
403.74	1975.41
403.93	1834.98
404.13	2111.16
404.32	1863.07
404.51	1891.15
404.70	1884.13
404.89	2073.71
405.09	2010.52
405.28	2047.97
405.47	2080.74
405.66	2108.82
405.85	2054.99
406.05	2078.40
406.24	2017.54
406.43	2104.14
406.62	2193.08
406.81	2277.34
407.00	2176.70
407.20	2125.21
407.39	2246.91
407.58	2228.19
407.77	2176.70
407.96	2284.36
408.15	2328.83
408.34	2186.06
408.54	2331.17
408.73	2368.62
408.92	2513.74
409.11	2420.11
409.30	2359.26
409.49	2420.11
409.68	2457.56
409.87	2382.67
410.07	2422.45
410.26	2413.09
410.45	2492.67
410.64	2520.76
410.83	2572.25
411.02	2672.89
411.21	2689.28
411.40	2658.85
411.59	2726.72
411.78	2750.13
411.98	2642.46
412.17	2780.56
412.36	2775.88
412.55	2761.83
412.74	2825.03
412.93	2759.49
413.12	2839.07
413.31	2909.29
413.50	2874.18
413.69	2981.84
413.88	2878.86
414.07	2963.12
414.26	3038.02
414.45	3150.36
414.64	3136.32
414.83	3052.06
415.02	3157.38
415.22	3124.62
415.41	3204.19
415.60	3201.85
415.79	3311.86
415.98	3330.58
416.17	3447.61
416.36	3403.14
416.55	3288.45
416.74	3370.37
416.93	3234.62
417.12	3520.17
417.31	3407.82
417.50	3538.89
417.69	3487.40
417.88	3574.00
418.07	3396.12
418.26	3494.42
418.45	3564.64
418.64	3726.13
418.83	3765.92
419.02	3609.11
419.21	3789.33
419.39	3637.19
419.58	3747.20
419.77	3684.00
419.96	3791.67
420.15	3784.65
420.34	3896.99
420.53	3936.78
420.72	3988.27
420.91	3999.98
421.10	3896.99
421.29	4051.47
421.48	3948.48
421.67	4138.07
421.86	3880.61
422.05	3882.95
422.24	4032.74
422.43	4016.36
422.61	3983.59
422.80	4095.94
422.99	4051.47
423.18	4189.56
423.37	4086.58
423.56	4021.04
423.75	4056.15
423.94	4081.89
424.13	3992.95
424.32	3967.21
424.50	4161.47
424.69	4126.36
424.88	4196.58
425.07	4112.32
425.26	3992.95
425.45	3946.14
425.64	4168.49
425.83	4102.96
426.01	4152.11
426.20	4177.86
426.39	4264.46
426.58	4035.08
426.77	4093.60
426.96	4205.94
427.15	4086.58
427.33	4243.39
427.52	4028.06
427.71	4283.18
427.90	4098.28
428.09	4250.41
428.28	4344.03
428.46	4278.50
428.65	4250.41
428.84	4507.87
429.03	4458.72
429.22	4292.54
429.40	4269.14
429.59	4245.73
429.78	4035.08
429.97	3969.55
430.16	4212.96
430.34	4187.22
430.53	4198.92
430.72	4475.10
430.91	4456.38
431.10	4411.91
431.28	4578.09
431.47	4706.82
431.66	4901.08
431.85	4748.95
432.03	4674.05
432.22	4699.80
432.41	4699.80
432.60	4865.97
432.79	4889.38
432.97	4840.23
433.16	4741.93
433.35	4685.75
433.54	4755.97
433.72	4821.50
433.91	4755.97
434.10	5032.15
434.28	4884.70
434.47	4905.76
434.66	5064.92
434.85	5289.61
435.03	5041.51
435.22	4987.68
435.41	5238.12
435.59	5111.73
435.78	5210.03
435.97	5385.57
436.16	5156.20
436.34	5371.53
436.53	5348.12
436.72	5427.70
436.90	5273.23
437.09	5380.89
437.28	5137.48
437.46	5359.83
437.65	5399.62
437.84	5359.83
438.02	5242.80
438.21	5207.69
438.40	5219.39
438.58	5413.66
438.77	5617.29
438.96	5582.18
439.14	5673.46
439.33	5977.73
439.52	5877.09
439.70	5942.62
439.89	5919.21
440.08	5912.19
440.26	5860.70
440.45	5846.66
440.63	5837.30
440.82	6143.91
441.01	6022.20
441.19	6251.57
441.38	6377.96
441.57	6338.17
441.75	6284.34
441.94	6485.62
442.12	6328.81
442.31	6574.56
442.50	6661.16
442.68	6609.67
442.87	6401.37
443.05	6649.46
443.24	6633.08
443.43	6644.78
443.61	6668.19
443.80	6794.58
443.98	6602.65
444.17	6448.18
444.35	6656.48
444.54	6918.62
444.73	6759.47
444.91	6565.20
445.10	6555.84
445.28	6679.89
445.47	6621.38
445.65	6670.53
445.84	6801.60
446.02	6967.77
446.21	6862.45
446.39	6724.36
446.58	6876.49
446.77	6813.30
446.95	6693.93
447.14	6789.89
447.32	7047.35
447.51	7026.29
447.69	6841.39
447.88	6736.06
448.06	7150.34
448.25	7000.54
448.43	6871.81
448.62	7108.21
448.80	6963.09
448.99	7119.91
449.17	7115.23
449.36	6850.75
449.54	7073.10
449.73	7356.30
449.91	7250.98
450.10	7290.77
450.28	7459.29
450.46	7424.18
450.65	7487.37
450.83	7440.56
451.02	7379.71
451.20	7480.35
451.39	7508.44
451.57	7283.75
451.76	7452.27
451.94	7307.15
452.13	7499.08
452.31	7442.90
452.49	7302.47
452.68	7534.18
452.86	7412.48
453.05	7501.42
453.23	7602.06
453.42	7588.02
453.60	7653.55
453.78	7616.10
453.97	7705.04
454.15	7482.69
454.34	7431.20
454.52	7674.62
454.70	7602.06
454.89	7756.54
455.07	7864.20
455.26	7747.17
455.44	7831.43
455.62	8002.29
455.81	7971.86
455.99	8102.93
456.17	8154.43
456.36	7911.01
456.54	8278.47
456.73	8219.96
456.91	8341.67
457.09	8255.07
457.28	8423.59
457.46	8329.97
457.64	8409.54
457.83	8063.15
458.01	8215.28
458.19	8402.52
458.38	8430.61
458.56	8475.08
458.74	8386.14
458.93	8446.99
459.11	8507.85
459.29	8542.96
459.48	8559.34
459.66	8531.25
459.84	8549.98
460.03	8798.07
460.21	8629.56
460.39	8870.63
460.57	8879.99
460.76	8887.01
460.94	8971.27
461.12	8919.78
461.31	8842.54
461.49	8779.35
461.67	8964.25
461.85	9071.92
462.04	9067.24
462.22	9696.84
462.40	9451.08
462.59	9177.24
462.77	9390.23
462.95	9383.21
463.13	9233.41
463.32	9191.28
463.50	9156.18
463.68	9394.91
463.86	9371.50
464.05	9186.60
464.23	9245.12
464.41	9465.13
464.59	9041.49
464.78	9502.58
464.96	9275.54
465.14	9392.57
465.32	9525.98
465.50	9612.58
465.69	9495.55
465.87	9612.58
466.05	9612.58
466.23	9453.42
466.41	9338.74
466.60	9673.43
466.78	9214.69
466.96	9376.19
467.14	9516.62
467.32	9881.74
467.51	9584.49
467.69	9408.95
467.87	9603.22
468.05	9722.59
468.23	9673.43
468.41	9654.71
468.60	9614.92
468.78	9848.97
468.96	9834.93
469.14	9905.15
469.32	10171.97
469.50	9834.93
469.69	10012.81
469.87	10101.75
470.05	10167.29
470.23	10242.18
470.41	10061.96
470.59	10352.19
470.77	10200.05
470.95	10244.52
471.14	10305.38
471.32	10448.15
471.50	10525.39
471.68	10626.03
471.86	10534.75
472.04	10679.86
472.22	11037.97
472.40	10698.59
472.58	10693.91
472.77	10665.82
472.95	10792.21
473.13	11229.89
473.31	10754.76
473.49	11037.97
473.67	10946.69
473.85	10967.75
474.03	11323.51
474.21	11103.50
474.39	11250.96
474.57	11419.47
474.75	11688.64
474.93	11562.25
475.12	11482.67
475.30	11850.13
475.48	11784.60
475.66	11639.48
475.84	11550.54
476.02	11744.81
476.20	11950.78
476.38	12042.06
476.56	12252.70
476.74	12131.00
476.92	12123.98
477.10	12367.39
477.28	12491.44
477.46	12517.18
477.64	12549.95
477.82	12678.68
478.00	12943.16
478.18	12994.65
478.36	13111.68
478.54	13266.16
478.72	12996.99
478.90	13212.32
479.08	13432.33
479.26	13558.72
479.44	13345.73
479.62	13619.58
479.80	13970.66
479.98	13989.38
480.16	14193.01
480.34	13942.57
480.52	14120.45
480.70	14176.62
480.88	14188.33
481.06	14373.23
481.24	14345.14
481.41	14752.40
481.59	14813.25
481.77	15044.96
481.95	14995.81
482.13	15103.48
482.31	15035.60
482.49	15468.60
482.67	15503.71
482.85	15454.56
483.03	15234.55
483.21	15939.05
483.39	15822.02
483.57	15789.25
483.74	16058.42
483.92	15960.11
484.10	16182.46
484.28	16245.66
484.46	16669.30
484.64	16884.62
484.82	16411.84
485.00	16542.91
485.18	16798.02
485.35	16882.28
485.53	16755.90
485.71	16638.87
485.89	16945.48
486.07	16746.53
486.25	17296.56
486.43	17303.58
486.61	17439.33
486.78	17745.94
486.96	17642.96
487.14	18192.98
487.32	18050.21
487.50	18225.75
487.68	18656.41
487.85	19014.51
488.03	19000.47
488.21	19445.17
488.39	18925.57
488.57	19232.18
488.75	19548.15
488.92	19583.26
489.10	19754.12
489.28	20053.71
489.46	20123.93
489.64	20191.80
489.81	20196.48
489.99	20655.23
490.17	20568.63
490.35	21069.50
490.53	20842.47
490.70	21219.30
490.88	21294.19
491.06	21207.59
491.24	21341.00
491.41	21350.37
491.59	21661.66
491.77	21530.59
491.95	21589.10
492.13	21844.22
492.30	22127.42
492.48	22340.41
492.66	22216.36
492.84	22515.95
493.01	22710.22
493.19	22394.25
493.37	22771.07
493.54	22787.46
493.72	23028.53
493.90	23232.16
494.08	23747.08
494.25	23906.23
494.43	23587.92
494.61	24201.14
494.79	24180.07
494.96	24261.99
495.14	24437.53
495.32	24687.97
495.49	24329.87
495.67	24496.05
495.85	24727.76
496.02	24833.08
496.20	25025.01
496.38	24844.79
496.55	25003.94
496.73	25556.31
496.91	25296.51
497.09	25661.63
497.26	25818.45
497.44	25633.55
497.62	25942.50
497.79	25682.70
497.97	26162.51
498.14	26113.36
498.32	26120.38
498.50	26691.47
498.67	26810.84
498.85	26644.66
499.03	26962.97
499.20	27180.64
499.38	26635.30
499.56	26923.18
499.73	27061.27
499.91	27510.66
500.08	27800.88
500.26	27044.89
500.44	27503.64
500.61	27412.35
500.79	27372.57
500.97	27534.06
501.14	28177.71
501.32	28056.00
501.49	27552.79
501.67	28020.89
501.84	28144.94
502.02	28268.99
502.20	28226.86
502.37	28437.51
502.55	28919.66
502.72	28575.60
502.90	28809.65
503.07	29207.55
503.25	28849.44
503.43	28395.38
503.60	28910.30
503.78	28964.13
503.95	29237.97
504.13	29090.52
504.30	29586.71
504.48	29352.66
504.65	29677.99
504.83	29792.68
505.01	29970.56
505.18	30125.04
505.36	30232.70
505.53	30066.52
505.71	30424.62
505.88	30492.50
506.06	30188.23
506.23	30370.79
506.41	30249.08
506.58	30436.33
506.76	30536.97
506.93	30951.24
507.11	30745.28
507.28	30735.92
507.46	31047.21
507.63	30857.62
507.81	30902.09
507.98	31030.82
508.16	31168.91
508.33	31648.72
508.50	31496.59
508.68	31641.70
508.85	31915.54
509.03	31864.05
509.20	31814.90
509.38	31931.93
509.55	32161.30
509.73	32046.62
509.90	32315.78
510.08	32364.93
510.25	32563.87
510.42	32425.78
510.60	32442.17
510.77	32549.83
510.95	32734.73
511.12	32708.99
511.30	32868.14
511.47	32868.14
511.64	33064.75
511.82	33446.26
511.99	32996.87
512.17	33366.68
512.34	33233.27
512.51	33251.99
512.69	33352.63
512.86	33464.98
513.04	33809.04
513.21	33926.07
513.38	33642.86
513.56	33872.23
513.73	33865.21
513.90	34015.01
514.08	33776.27
514.25	34117.99
514.43	34260.76
514.60	34232.68
514.77	34279.49
514.95	34593.12
515.12	34499.50
515.29	34724.19
515.47	34864.62
515.64	35185.27
515.81	34651.63
515.99	34581.42
516.16	34199.91
516.33	34724.19
516.51	34433.96
516.68	34401.19
516.85	34340.34
517.03	34237.36
517.20	34759.30
517.37	35166.55
517.54	35496.56
517.72	35456.78
517.89	34962.92
518.06	34775.68
518.24	35093.99
518.41	35178.25
518.58	35613.59
518.75	35339.75
518.93	35679.13
519.10	35597.21
519.27	36236.17
519.45	35658.06
519.62	36044.25
519.79	36018.50
519.96	36371.92
520.14	36690.24
520.31	35962.33
520.48	36360.22
520.65	36510.02
520.83	36708.96
521.00	36914.93
521.17	37036.64
521.34	37301.12
521.52	37237.92
521.69	37254.31
521.86	37656.88
522.03	36943.02
522.20	37558.58
522.38	37497.72
522.55	37642.84
522.72	37303.46
522.89	36999.19
523.07	37553.90
523.24	37104.51
523.41	38326.27
523.58	37745.82
523.75	38335.63
523.92	38307.55
524.10	38693.74
524.27	38274.78
524.44	38321.59
524.61	38195.20
524.78	38272.44
524.96	38267.76
525.13	38274.78
525.30	38354.36
525.47	39288.23
525.64	38721.82
525.81	38550.96
525.98	38054.77
526.16	38527.56
526.33	38302.87
526.50	38345.00
526.67	38227.97
526.84	37982.21
527.01	38588.41
527.18	38934.81
527.36	39241.42
527.53	39278.87
527.70	39257.81
527.87	39477.82
528.04	39140.78
528.21	39529.31
528.38	39711.87
528.55	39974.01
528.72	39552.71
528.89	40355.52
529.07	39744.64
529.24	39672.08
529.41	39908.47
529.58	39714.21
529.75	39505.90
529.92	39915.50
530.09	39929.54
530.26	40144.87
530.43	40470.20
530.60	40371.90
530.77	40540.42
530.94	40643.40
531.11	40179.98
531.28	40554.46
531.46	40734.68
531.63	40282.96
531.80	40285.30
531.97	39929.54
532.14	40699.58
532.31	39948.26
532.48	40512.33
532.65	40465.52
532.82	40832.99
532.99	40816.60
533.16	40992.14
533.33	41174.70
533.50	41216.83
533.67	41191.09
533.84	41289.39
534.01	41111.51
534.18	41085.76
534.35	41394.71
534.52	41029.59
534.69	41446.21
534.86	41640.47
535.03	41244.92
535.20	41855.80
535.37	42227.95
535.54	42057.09
535.71	41696.64
535.88	42202.20
536.05	41701.32
536.22	41638.13
536.38	41509.40
536.55	41787.92
536.72	41972.83
536.89	41127.89
537.06	41794.95
537.23	42178.79
537.40	42148.37
537.57	41893.25
537.74	42150.71
537.91	42387.10
538.08	42623.50
538.25	42134.32
538.42	42361.36
538.59	42677.33
538.75	42279.44
538.92	42625.84
539.09	42359.02
539.26	42260.71
539.43	42330.93
539.60	42553.28
539.77	42410.51
539.94	42792.01
540.11	42347.31
540.28	42522.85
540.44	42497.11
540.61	42609.45
540.78	42667.97
540.95	42789.67
541.12	42775.63
541.29	42237.31
541.46	42700.73
541.62	42997.98
541.79	42848.19
541.96	42813.08
542.13	42981.60
542.30	42944.15
542.47	43122.03
542.63	43473.11
542.80	43283.53
542.97	43707.16
543.14	43756.32
543.31	43931.86
543.48	43941.22
543.64	43941.22
543.81	43803.13
543.98	43873.34
544.15	43746.95
544.32	43690.78
544.48	44203.36
544.65	43988.03
544.82	44215.06
544.99	43981.01
545.16	43533.96
545.32	43915.47
545.49	44388.26
545.66	44418.69
545.83	44304.00
546.00	44793.17
546.16	44076.97
546.33	43985.69
546.50	43608.86
546.67	43796.10
546.83	43973.98
547.00	44346.13
547.17	44460.82
547.34	44215.06
547.50	44460.82
547.67	44289.96
547.84	44491.24
548.00	44697.21
548.17	45006.16
548.34	44692.53
548.51	44825.94
548.67	44975.73
548.84	45104.46
549.01	45034.25
549.18	45078.72
549.34	44872.75
549.51	45272.98
549.68	44863.39
549.84	45059.99
550.01	44917.22
550.18	44699.55
550.34	45120.85
550.51	45017.86
550.68	45144.25
550.84	44601.25
551.01	45209.79
551.18	44725.30
551.34	45092.76
551.51	45111.49
551.68	45474.27
551.84	45251.92
552.01	45155.96
552.18	44851.69
552.34	45209.79
552.51	45139.57
552.68	44985.10
552.84	45111.49
553.01	45551.51
553.18	45258.94
553.34	45193.40
553.51	45645.13
553.67	45708.32
553.84	45579.59
554.01	45605.34
554.17	45764.49
554.34	45865.14
554.51	45879.18
554.67	46059.40
554.84	46316.86
555.00	45558.53
555.17	45619.38
555.33	45741.09
555.50	46089.83
555.67	45989.19
555.83	45748.11
556.00	45841.73
556.16	46099.19
556.33	46089.83
556.50	45933.01
556.66	46192.81
556.83	45705.98
556.99	46036.00
557.16	46096.85
557.32	46342.61
557.49	45720.02
557.65	45916.63
557.82	46314.52
557.98	46197.49
558.15	46174.09
558.32	46092.17
558.48	46061.74
558.65	46028.98
558.81	46237.28
558.98	45944.72
559.14	46164.73
559.31	46295.80
559.47	46562.62
559.64	46358.99
559.80	46384.74
559.97	46433.89
560.13	46188.13
560.30	46323.88
560.46	46422.19
560.63	46611.77
560.79	46698.37
560.96	47143.07
561.12	46253.67
561.29	46366.01
561.45	46916.04
561.61	46742.84
561.78	46560.28
561.94	46457.29
562.11	46541.55
562.27	46211.54
562.44	46731.14
562.60	46469.00
562.77	46831.78
562.93	46553.26
563.10	46621.13
563.26	46380.06
563.42	46836.46
563.59	46560.28
563.75	46693.69
563.92	46780.29
564.08	46801.35
564.24	46934.76
564.41	46450.27
564.57	46827.10
564.74	46747.52
564.90	46534.53
565.07	46976.89
565.23	46871.57
565.39	46759.22
565.56	46665.60
565.72	46532.19
565.88	46759.22
566.05	46443.25
566.21	46969.87
566.38	46569.64
566.54	47014.34
566.70	47103.28
566.87	47086.90
567.03	47145.41
567.19	47285.84
567.36	47009.66
567.52	47140.73
567.68	46958.17
567.85	47007.32
568.01	47028.38
568.17	46728.80
568.34	47154.77
568.50	46628.15
568.66	46625.81
568.83	47213.29
568.99	46939.44
569.15	47105.62
569.32	46363.67
569.48	46717.09
569.64	46791.99
569.81	47082.22
569.97	46775.61
570.13	46777.95
570.30	46459.63
570.46	46497.08
570.62	46373.03
570.78	46227.92
570.95	46850.50
571.11	46899.65
571.27	46892.63
571.43	46773.27
571.60	47206.26
571.76	47040.09
571.92	47356.06
572.09	46965.19
572.25	47065.83
572.41	46660.92
572.57	47306.91
572.74	47576.07
572.90	47028.38
573.06	46932.42
573.22	47171.16
573.38	47276.48
573.55	47138.39
573.71	47538.62
573.87	46756.88
574.03	46848.16
574.20	47044.77
574.36	46810.71
574.52	47030.72
574.68	47480.11
574.84	47117.32
575.01	46981.57
575.17	46927.74
575.33	47255.42
575.49	47061.15
575.65	47217.97
575.82	47042.43
575.98	47000.30
576.14	47152.43
576.30	47208.61
576.46	47133.71
576.62	47070.51
576.79	47114.98
576.95	46887.95
577.11	47133.71
577.27	47206.26
577.43	47164.14
577.59	46742.84
577.75	46848.16
577.92	46902.00
578.08	46691.35
578.24	46827.10
578.40	47110.30
578.56	46953.49
578.72	47124.35
578.88	47173.50
579.04	46918.38
579.21	47264.78
579.37	47281.16
579.53	47257.76
579.69	46698.37
579.85	47224.99
580.01	46501.76
580.17	47430.96
580.33	47292.86
580.49	47442.66
580.65	47398.19
580.82	46997.96
580.98	46838.80
581.14	47227.33
581.30	47262.44
581.46	46967.53
581.62	46981.57
581.78	47107.96
581.94	47583.09
582.10	47456.70
582.26	47704.80
582.42	47117.32
582.58	47356.06
582.74	47026.04
582.90	47196.90
583.06	47189.88
583.22	47667.35
583.38	47285.84
583.54	47344.36
583.70	47058.81
583.86	47285.84
584.02	46773.27
584.18	47325.63
584.34	47023.70
584.50	47302.23
584.66	47054.13
584.82	46894.97
584.98	47304.57
585.14	47224.99
585.30	47016.68
585.46	47545.64
585.62	47009.66
585.78	47313.93
585.94	46813.05
586.10	47082.22
586.26	46752.20
586.42	47452.02
586.58	47365.42
586.74	47077.54
586.90	47271.80
587.06	46981.57
587.22	47482.45
587.38	46997.96
587.54	47452.02
587.70	47365.42
587.86	47349.04
588.02	47435.64
588.18	47138.39
588.34	47098.60
588.49	46852.84
588.65	46637.51
588.81	46473.68
588.97	46740.50
589.13	46639.86
589.29	46717.09
589.45	47110.30
589.61	46965.19
589.77	47302.23
