SpectraSuite Data File
++++++++++++++++++++++++++++++++++++
Date: Fri Oct 25 10:44:16 EDT 2013
User: price-jones
Dark Spectrum Present: No
Reference Spectrum Present: No
Number of Sampled Component Spectra: 1
Spectrometers: USB2+H05261
Integration Time (usec): 100000 (USB2+H05261)
Spectra Averaged: 1 (USB2+H05261)
Boxcar Smoothing: 0 (USB2+H05261)
Correct for Electrical Dark: No (USB2+H05261)
Strobe/Lamp Enabled: No (USB2+H05261)
Correct for Detector Non-linearity: No (USB2+H05261)
Correct for Stray Light: No (USB2+H05261)
Number of Pixels in Processed Spectrum: 2048
>>>>>Begin Processed Spectral Data<<<<<
365.73	98.30
365.92	98.30
366.12	98.30
366.32	46.81
366.52	23.41
366.72	67.88
366.91	67.88
367.11	37.45
367.31	28.09
367.51	30.43
367.70	56.17
367.90	30.43
368.10	0.00
368.30	21.06
368.49	42.13
368.69	39.79
368.89	65.54
369.09	65.54
369.28	63.19
369.48	32.77
369.68	60.85
369.87	84.26
370.07	124.05
370.27	72.56
370.47	215.33
370.66	386.19
370.86	447.04
371.06	449.38
371.25	409.59
371.45	372.15
371.65	468.11
371.84	475.13
372.04	493.85
372.24	407.25
372.44	465.77
372.63	554.71
372.83	484.49
373.03	475.13
373.22	489.17
373.42	486.83
373.62	641.31
373.81	568.75
374.01	559.39
374.21	568.75
374.40	582.79
374.60	606.20
374.79	617.90
374.99	498.53
375.19	571.09
375.38	510.24
375.58	627.26
375.78	596.84
375.97	669.39
376.17	613.22
376.37	601.52
376.56	610.88
376.76	561.73
376.95	552.37
377.15	589.82
377.35	568.75
377.54	617.90
377.74	641.31
377.93	622.58
378.13	676.41
378.33	692.80
378.52	606.20
378.72	624.92
378.91	758.33
379.11	566.41
379.31	704.50
379.50	657.69
379.70	676.41
379.89	695.14
380.09	662.37
380.28	653.01
380.48	641.31
380.68	683.44
380.87	702.16
381.07	800.46
381.26	739.61
381.46	688.12
381.65	716.20
381.85	641.31
382.04	688.12
382.24	690.46
382.43	739.61
382.63	657.69
382.83	660.03
383.02	709.18
383.22	770.04
383.41	767.70
383.61	760.67
383.80	798.12
384.00	809.83
384.19	779.40
384.39	685.78
384.58	812.17
384.78	823.87
384.97	828.55
385.17	772.38
385.36	720.88
385.56	765.36
385.75	727.91
385.95	802.80
386.14	814.51
386.34	755.99
386.53	833.23
386.72	819.19
386.92	812.17
387.11	858.98
387.31	875.36
387.50	805.14
387.70	844.93
387.89	833.23
388.09	898.77
388.28	802.80
388.48	968.98
388.67	1004.09
388.86	910.47
389.06	929.19
389.25	980.68
389.45	1041.54
389.64	994.73
389.84	1022.81
390.03	1048.56
390.22	966.64
390.42	915.15
390.61	987.71
390.81	945.58
391.00	1071.97
391.19	1238.14
391.39	1046.22
391.58	1086.01
391.78	1125.80
391.97	1086.01
392.16	1057.92
392.36	1008.77
392.55	1048.56
392.75	990.05
392.94	1006.43
393.13	945.58
393.33	1071.97
393.52	1048.56
393.71	1067.28
393.91	1130.48
394.10	1114.10
394.29	1224.10
394.49	1200.69
394.68	1254.53
394.88	1226.44
395.07	1294.32
395.26	1242.82
395.46	1240.48
395.65	1238.14
395.84	1280.27
396.04	1299.00
396.23	1170.27
396.42	1156.22
396.62	1167.93
396.81	1217.08
397.00	1146.86
397.19	1301.34
397.39	1275.59
397.58	1338.79
397.77	1369.21
397.97	1383.26
398.16	1362.19
398.35	1488.58
398.55	1535.39
398.74	1432.41
398.93	1514.33
399.12	1493.26
399.32	1465.18
399.51	1514.33
399.70	1493.26
399.90	1472.20
400.09	1572.84
400.28	1558.80
400.47	1687.53
400.67	1755.40
400.86	1572.84
401.05	1612.63
401.24	1701.57
401.44	1694.55
401.63	1818.60
401.82	1818.60
402.01	1713.27
402.21	1776.47
402.40	1732.00
402.59	1776.47
402.78	1755.40
402.97	1736.68
403.17	1706.25
403.36	1764.76
403.55	1771.79
403.74	1893.49
403.93	1940.30
404.13	1928.60
404.32	1811.57
404.51	1874.77
404.70	1987.11
404.89	1898.17
405.09	1984.77
405.28	1942.64
405.47	1942.64
405.66	2001.16
405.85	1984.77
406.05	2001.16
406.24	1930.94
406.43	2043.29
406.62	2092.44
406.81	2092.44
407.00	2087.76
407.20	2069.03
407.39	2054.99
407.58	2132.23
407.77	2214.15
407.96	2157.97
408.15	2139.25
408.34	2242.23
408.54	2333.51
408.73	2305.43
408.92	2361.60
409.11	2260.96
409.30	2424.80
409.49	2303.09
409.68	2253.94
409.87	2363.94
410.07	2408.41
410.26	2399.05
410.45	2450.54
410.64	2436.50
410.83	2544.16
411.02	2586.29
411.21	2530.12
411.40	2537.14
411.59	2553.52
411.78	2595.65
411.98	2548.84
412.17	2719.70
412.36	2619.06
412.55	2546.50
412.74	2637.78
412.93	2715.02
413.12	2773.53
413.31	2848.43
413.50	2773.53
413.69	2839.07
413.88	2904.60
414.07	2836.73
414.26	2942.05
414.45	3030.99
414.64	2916.31
414.83	3066.10
415.02	2958.44
415.22	3063.76
415.41	3145.68
415.60	3110.57
415.79	3199.51
415.98	3386.76
416.17	3248.66
416.36	3316.54
416.55	3253.34
416.74	3206.53
416.93	3307.18
417.12	3389.10
417.31	3293.13
417.50	3258.03
417.69	3494.42
417.88	3442.93
418.07	3435.91
418.26	3438.25
418.45	3379.73
418.64	3529.53
418.83	3630.17
419.02	3524.85
419.21	3590.38
419.39	3623.15
419.58	3606.77
419.77	3574.00
419.96	3761.24
420.15	3606.77
420.34	3644.21
420.53	3829.12
420.72	3655.92
420.91	3864.22
421.10	3730.81
421.29	3967.21
421.48	3756.56
421.67	3899.33
421.86	3695.71
422.05	3822.09
422.24	3676.98
422.43	3878.27
422.61	3789.33
422.80	3999.98
422.99	3915.72
423.18	3882.95
423.37	4095.94
423.56	3985.93
423.75	3988.27
423.94	3833.80
424.13	3618.47
424.32	3840.82
424.50	3920.40
424.69	4065.51
424.88	4018.70
425.07	3915.72
425.26	3850.18
425.45	3901.67
425.64	3995.29
425.83	4007.00
426.01	4011.68
426.20	4058.49
426.39	4079.55
426.58	4030.40
426.77	3915.72
426.96	4014.02
427.15	3957.85
427.33	4196.58
427.52	4058.49
427.71	4107.64
427.90	4194.24
428.09	4091.26
428.28	4184.88
428.46	4156.79
428.65	4086.58
428.84	4135.73
429.03	4280.84
429.22	4128.70
429.40	4107.64
429.59	4131.05
429.78	4025.72
429.97	3978.91
430.16	3936.78
430.34	4128.70
430.53	4182.54
430.72	4276.16
430.91	4084.23
431.10	4329.99
431.28	4552.34
431.47	4697.46
431.66	4559.36
431.85	4521.92
432.03	4613.20
432.22	4592.13
432.41	4587.45
432.60	4737.24
432.79	4575.75
432.97	4919.81
433.16	4737.24
433.35	4620.22
433.54	4704.48
433.72	4615.54
433.91	4692.77
434.10	4774.69
434.28	4631.92
434.47	4727.88
434.66	4971.30
434.85	5041.51
435.03	4896.40
435.22	4931.51
435.41	5151.52
435.59	5041.51
435.78	5067.26
435.97	5224.08
436.16	5069.60
436.34	5200.67
436.53	5107.05
436.72	5357.49
436.90	4992.36
437.09	5188.97
437.28	5013.43
437.46	5214.71
437.65	5160.88
437.84	5228.76
438.02	5121.09
438.21	5041.51
438.40	5107.05
438.58	5380.89
438.77	5296.63
438.96	5439.40
439.14	5589.20
439.33	5502.60
439.52	5563.45
439.70	5584.52
439.89	5699.20
440.08	5650.05
440.26	5570.48
440.45	5530.69
440.63	5877.09
440.82	6026.88
441.01	5989.43
441.19	6040.92
441.38	6150.93
441.57	6071.35
441.75	6099.44
441.94	6223.48
442.12	6073.69
442.31	6359.24
442.50	6235.19
442.68	6139.23
442.87	6190.72
443.05	6345.19
443.24	6462.22
443.43	6462.22
443.61	6410.73
443.80	6785.21
443.98	6410.73
444.17	6162.63
444.35	6612.01
444.54	6473.92
444.73	6445.84
444.91	6471.58
445.10	6361.58
445.28	6408.39
445.47	6459.88
445.65	6434.13
445.84	6560.52
446.02	6757.13
446.21	6492.65
446.39	6562.86
446.58	6630.74
446.77	6593.29
446.95	6473.92
447.14	6817.98
447.32	6890.54
447.51	6775.85
447.69	6733.72
447.88	6553.50
448.06	6668.19
448.25	6619.04
448.43	6874.15
448.62	6724.36
448.80	6764.15
448.99	6722.02
449.17	6810.96
449.36	6761.81
449.54	6986.50
449.73	6991.18
449.91	7171.40
450.10	7190.13
450.28	7101.19
450.46	7304.81
450.65	7162.04
450.83	7246.30
451.02	7178.42
451.20	7279.07
451.39	7222.89
451.57	7328.22
451.76	7096.50
451.94	7246.30
452.13	7267.36
452.31	7365.67
452.49	7194.81
452.68	7279.07
452.86	7342.26
453.05	7328.22
453.23	7304.81
453.42	7314.17
453.60	7227.57
453.78	7351.62
453.97	7531.84
454.15	7339.92
454.34	7316.51
454.52	7510.78
454.70	7669.94
454.89	7639.51
455.07	7623.12
455.26	7695.68
455.44	7686.32
455.62	7686.32
455.81	7712.07
455.99	7824.41
456.17	7728.45
456.36	7850.16
456.54	7868.88
456.73	7988.25
456.91	8259.75
457.09	8004.63
457.28	8290.18
457.46	8039.74
457.64	8013.99
457.83	8175.49
458.01	8056.12
458.19	8348.69
458.38	8079.53
458.56	8257.41
458.74	8271.45
458.93	8126.34
459.11	8196.56
459.29	8196.56
459.48	8184.85
459.66	8416.57
459.84	8475.08
460.03	8683.39
460.21	8336.99
460.39	8571.04
460.57	8580.40
460.76	8669.34
460.94	8564.02
461.12	8603.81
461.31	8676.37
461.49	8681.05
461.67	8325.29
461.85	8716.16
462.04	8842.54
462.22	8990.00
462.40	9057.87
462.59	8823.82
462.77	9055.53
462.95	9036.81
463.13	8971.27
463.32	9020.42
463.50	9020.42
463.68	9085.96
463.86	8936.17
464.05	8835.52
464.23	8924.46
464.41	9041.49
464.59	8819.14
464.78	9097.66
464.96	9139.79
465.14	9067.24
465.32	9144.47
465.50	9310.65
465.69	9301.29
465.87	9043.83
466.05	9121.07
466.23	9373.85
466.41	9172.56
466.60	9369.16
466.78	9006.38
466.96	9212.35
467.14	9338.74
467.32	9352.78
467.51	9420.66
467.69	9348.10
467.87	9392.57
468.05	9490.87
468.23	9444.06
468.41	9380.87
468.60	9591.52
468.78	9886.42
468.96	9628.96
469.14	9783.44
469.32	9699.18
469.50	9504.92
469.69	9839.61
469.87	9895.78
470.05	9844.29
470.23	9657.05
470.41	10061.96
470.59	9998.77
470.77	9940.26
470.95	9886.42
471.14	10029.20
471.32	9947.28
471.50	10244.52
471.68	10370.91
471.86	10478.58
472.04	10408.36
472.22	10616.67
472.40	10300.70
472.58	10544.11
472.77	10583.90
472.95	10530.07
473.13	10927.96
473.31	10544.11
473.49	10537.09
473.67	10574.54
473.85	10927.96
474.03	10939.66
474.21	10902.22
474.39	11009.88
474.57	10897.53
474.75	11044.99
474.93	11215.85
475.12	11066.05
475.30	11389.05
475.48	11082.44
475.66	11283.72
475.84	11363.30
476.02	11529.48
476.20	11482.67
476.38	11660.55
476.56	11599.70
476.74	11770.55
476.92	11878.22
477.10	11683.95
477.28	11950.78
477.46	12079.50
477.64	12343.99
477.82	12390.80
478.00	12648.26
478.18	12559.31
478.36	12526.55
478.54	12772.30
478.72	12779.32
478.90	13057.85
479.08	13132.75
479.26	13104.66
479.44	13336.37
479.62	13039.12
479.80	13121.04
479.98	13357.44
480.16	13715.54
480.34	13650.00
480.52	13844.27
480.70	13598.51
480.88	13532.98
481.06	13846.61
481.24	13930.87
481.41	14314.72
481.59	14310.04
481.77	14260.88
481.95	14541.75
482.13	14593.24
482.31	14413.02
482.49	14904.53
482.67	14820.27
482.85	14792.19
483.03	15094.11
483.21	15133.90
483.39	15379.66
483.57	15283.70
483.74	15274.34
483.92	15527.11
484.10	15295.40
484.28	15730.74
484.46	16149.70
484.64	16035.01
484.82	15992.88
485.00	16133.31
485.18	16697.38
485.35	16418.86
485.53	16322.90
485.71	16428.22
485.89	16505.46
486.07	16521.84
486.25	16758.24
486.43	16861.22
486.61	17261.45
486.78	17458.06
486.96	17649.98
487.14	17507.21
487.32	17795.09
487.50	18181.28
487.68	18111.07
487.85	18164.90
488.03	18633.00
488.21	18836.63
488.39	18464.49
488.57	18618.96
488.75	18813.23
488.92	18948.98
489.10	19508.37
489.28	19234.52
489.46	19723.69
489.64	19527.09
489.81	20023.28
489.99	19932.00
490.17	20348.62
490.35	20472.67
490.53	20177.76
490.70	20585.01
490.88	20348.62
491.06	20833.11
491.24	20634.16
491.41	20893.96
491.59	20980.56
491.77	20751.19
491.95	21041.42
492.13	21366.75
492.30	21680.38
492.48	21762.30
492.66	21766.98
492.84	21708.47
493.01	22185.94
493.19	22050.19
493.37	22181.26
493.54	22207.00
493.72	22635.32
493.90	22787.46
494.08	22906.82
494.25	23264.92
494.43	23068.32
494.61	23400.68
494.79	23414.72
494.96	23328.12
495.14	23379.61
495.32	23800.91
495.49	23850.06
495.67	23765.80
495.85	24053.69
496.02	24236.25
496.20	24423.49
496.38	24664.57
496.55	24306.46
496.73	25434.60
496.91	24858.83
497.09	24854.15
497.26	24992.24
497.44	25027.35
497.62	25158.42
497.79	25404.17
497.97	25294.17
498.14	25348.00
498.32	25537.59
498.50	25560.99
498.67	25991.65
498.85	25706.10
499.03	26141.44
499.20	26487.84
499.38	26256.13
499.56	26225.70
499.73	26960.63
499.91	26852.97
500.08	26780.41
500.26	26157.83
500.44	26621.25
500.61	26789.77
500.79	26888.07
500.97	27236.81
501.14	27269.58
501.32	27140.85
501.49	27072.98
501.67	27351.50
501.84	27182.98
502.02	27042.55
502.20	27620.66
502.37	27803.22
502.55	27758.75
502.72	28149.62
502.90	27915.57
503.07	28121.54
503.25	28210.48
503.43	27946.00
503.60	27967.06
503.78	28285.37
503.95	28231.54
504.13	28723.05
504.30	28828.38
504.48	28517.09
504.65	29022.64
504.83	28563.90
505.01	29322.23
505.18	29305.85
505.36	29666.29
505.53	29455.64
505.71	29713.10
505.88	29572.67
506.06	29446.28
506.23	29790.34
506.41	29689.70
506.58	29729.48
506.76	29881.62
506.93	30300.58
507.11	30258.45
507.28	29947.15
507.46	30082.91
507.63	30066.52
507.81	30157.80
507.98	30075.88
508.16	30160.14
508.33	30639.95
508.50	30953.58
508.68	31143.17
508.85	31353.82
509.03	31047.21
509.20	31225.09
509.38	31171.25
509.55	31321.05
509.73	31409.99
509.90	31204.02
510.08	31459.14
510.25	31201.68
510.42	31592.55
510.60	32123.85
510.77	31391.26
510.95	32020.87
511.12	31850.01
511.30	32287.69
511.47	32114.49
511.64	32156.62
511.82	32374.29
511.99	32231.52
512.17	32222.16
512.34	32201.09
512.51	32627.07
512.69	32739.41
512.86	32762.82
513.04	32898.57
513.21	33305.82
513.38	32467.91
513.56	33097.52
513.73	32535.79
513.90	33081.13
514.08	33053.05
514.25	32964.10
514.43	33319.87
514.60	33443.91
514.77	33074.11
514.95	33579.67
515.12	33333.91
515.29	33750.52
515.47	33996.28
515.64	34108.63
515.81	33963.51
515.99	33638.18
516.16	33516.47
516.33	33397.10
516.51	33649.88
516.68	33137.30
516.85	33450.94
517.03	33626.48
517.20	33940.11
517.37	34113.31
517.54	34536.94
517.72	34492.47
517.89	34106.29
518.06	34050.11
518.24	34298.21
518.41	33968.19
518.58	34888.03
518.75	34455.03
518.93	34995.69
519.10	34881.00
519.27	35084.63
519.45	34930.16
519.62	35405.28
519.79	35131.44
519.96	35309.32
520.14	35515.29
520.31	35325.71
520.48	35611.25
520.65	35594.87
520.83	36198.73
521.00	36189.36
521.17	35796.15
521.34	36275.96
521.52	36491.29
521.69	36210.43
521.86	36112.13
522.03	36414.05
522.20	36339.16
522.38	36243.20
522.55	36470.23
522.72	36334.48
522.89	36589.59
523.07	36840.03
523.24	36701.94
523.41	37099.83
523.58	36882.16
523.75	37062.38
523.92	37191.11
524.10	37261.33
524.27	37631.13
524.44	37228.56
524.61	37516.45
524.78	37928.38
524.96	37830.08
525.13	37961.15
525.30	37649.86
525.47	37935.40
525.64	37539.85
525.81	37801.99
525.98	37926.04
526.16	37448.57
526.33	37455.59
526.50	37713.05
526.67	37266.01
526.84	37305.80
527.01	37347.93
527.18	37816.04
527.36	38022.00
527.53	38347.34
527.70	38501.81
527.87	38305.21
528.04	38770.97
528.21	38192.86
528.38	38436.28
528.55	38998.01
528.72	38775.66
528.89	38981.62
529.07	38911.41
529.24	38520.54
529.41	39358.45
529.58	39194.61
529.75	38412.87
529.92	39140.78
530.09	39210.99
530.26	39342.06
530.43	39370.15
530.60	39009.71
530.77	38972.26
530.94	39725.91
531.11	39524.63
531.28	39393.56
531.46	39800.81
531.63	39517.60
531.80	39377.17
531.97	39782.09
532.14	39349.09
532.31	39564.42
532.48	39491.86
532.65	39714.21
532.82	39622.93
532.99	40168.27
533.16	39578.46
533.33	40320.41
533.50	40280.62
533.67	40350.84
533.84	40140.19
534.01	40268.92
534.18	39927.20
534.35	40481.91
534.52	40414.03
534.69	40491.27
534.86	40610.64
535.03	40631.70
535.20	40982.78
535.37	40903.20
535.54	41127.89
535.71	40842.35
535.88	41134.92
536.05	40617.66
536.22	41193.43
536.38	41228.54
536.55	40849.37
536.72	40627.02
536.89	40662.13
537.06	41055.34
537.23	41174.70
537.40	41200.45
537.57	40725.32
537.74	40730.00
537.91	41535.15
538.08	41181.73
538.25	40652.76
538.42	41631.11
538.59	41607.70
538.75	41132.57
538.92	41165.34
539.09	42005.59
539.26	41649.83
539.43	41441.53
539.60	41411.10
539.77	41137.26
539.94	41577.28
540.11	41193.43
540.28	41331.52
540.44	41750.48
540.61	41291.73
540.78	41865.16
540.95	41357.27
541.12	41462.59
541.29	41949.42
541.46	42033.68
541.62	41984.53
541.79	41801.97
541.96	42045.38
542.13	41900.27
542.30	42197.52
542.47	41909.63
542.63	42029.00
542.80	42794.36
542.97	42312.20
543.14	42815.42
543.31	42850.53
543.48	42979.26
543.64	43164.16
543.81	42827.12
543.98	43063.52
544.15	42703.07
544.32	43473.11
544.48	43543.33
544.65	43061.18
544.82	42820.10
544.99	42518.17
545.16	43381.83
545.32	42623.50
545.49	43653.33
545.66	43625.25
545.83	43351.40
546.00	43859.30
546.16	43253.10
546.33	43126.71
546.50	43255.44
546.67	43402.89
546.83	43360.76
547.00	43409.92
547.17	42934.79
547.34	43225.01
547.50	43330.34
547.67	44039.52
547.84	43360.76
548.00	43852.28
548.17	44208.04
548.34	43810.15
548.51	43896.75
548.67	43948.24
548.84	43943.56
549.01	43613.54
549.18	43665.03
549.34	44105.06
549.51	44683.17
549.68	43999.73
549.84	44453.79
550.01	43992.71
550.18	43936.54
550.34	43936.54
550.51	44069.95
550.68	44006.75
550.84	43913.13
551.01	44353.15
551.18	43880.36
551.34	44418.69
551.51	44807.22
551.68	44474.86
551.84	44236.12
552.01	44039.52
552.18	44547.42
552.34	44142.50
552.51	44858.71
552.68	44212.72
552.84	44549.76
553.01	44598.91
553.18	44381.24
553.34	44460.82
553.51	44311.02
553.67	44676.15
553.84	44919.56
554.01	44797.85
554.17	44713.59
554.34	44603.59
554.51	44694.87
554.67	45071.70
554.84	44711.25
555.00	44762.75
555.17	44739.34
555.33	44645.72
555.50	45116.17
555.67	45298.73
555.83	44854.03
556.00	44692.53
556.16	45563.21
556.33	45184.04
556.50	44624.65
556.66	45027.23
556.83	44460.82
556.99	45200.43
557.16	45301.07
557.32	45516.40
557.49	45158.30
557.65	44980.42
557.82	45277.66
557.98	45120.85
558.15	45708.32
558.32	45340.86
558.48	45352.56
558.65	45436.82
558.81	44830.62
558.98	44910.20
559.14	45230.85
559.31	45167.66
559.47	45050.63
559.64	46080.47
559.80	45471.93
559.97	45256.60
560.13	45523.42
560.30	45244.90
560.46	45476.61
560.63	45745.77
560.79	45886.20
560.96	45790.24
561.12	45102.12
561.29	45467.25
561.45	45853.44
561.61	45380.65
561.78	45418.10
561.94	45483.63
562.11	45254.26
562.27	45570.23
562.44	45605.34
562.60	45886.20
562.77	46096.85
562.93	45691.94
563.10	46232.60
563.26	45427.46
563.42	45776.20
563.59	45708.32
563.75	45942.38
563.92	45759.81
564.08	46017.27
564.24	45886.20
564.41	45785.56
564.57	45925.99
564.74	45670.87
564.90	45713.00
565.07	45806.62
565.23	45787.90
565.39	45464.91
565.56	45820.67
565.72	45645.13
565.88	45670.87
566.05	45888.54
566.21	45883.86
566.38	45539.80
566.54	46223.24
566.70	46021.95
566.87	46227.92
567.03	45755.13
567.19	46241.96
567.36	46192.81
567.52	45713.00
567.68	45743.43
567.85	45689.60
568.01	46305.16
568.17	45979.82
568.34	46174.09
568.50	46237.28
568.66	45553.85
568.83	46129.62
568.99	45441.50
569.15	45757.47
569.32	45497.67
569.48	45326.81
569.64	45902.59
569.81	45921.31
569.97	45965.78
570.13	46010.25
570.30	45975.14
570.46	45605.34
570.62	45851.09
570.78	45457.88
570.95	45701.30
571.11	46007.91
571.27	46169.41
571.43	45855.78
571.60	45694.28
571.76	45448.52
571.92	46007.91
572.09	46483.04
572.25	45965.78
572.41	45771.52
572.57	46167.07
572.74	46183.45
572.90	46358.99
573.06	46110.89
573.22	46021.95
573.38	45823.01
573.55	45865.14
573.71	46099.19
573.87	46363.67
574.03	46057.06
574.20	46146.00
574.36	46323.88
574.52	46298.14
574.68	46211.54
574.84	46319.20
575.01	45872.16
575.17	45914.29
575.33	45642.79
575.49	45970.46
575.65	46344.95
575.82	46312.18
575.98	45855.78
576.14	46501.76
576.30	46534.53
576.46	45778.54
576.62	46298.14
576.79	46089.83
576.95	45858.12
577.11	46131.96
577.27	46199.83
577.43	45918.97
577.59	45862.80
577.75	45855.78
577.92	45694.28
578.08	46164.73
578.24	46286.43
578.40	45904.93
578.56	46092.17
578.72	45977.48
578.88	46625.81
579.04	46085.15
579.21	46047.70
579.37	46466.66
579.53	45656.83
579.69	45785.56
579.85	46157.70
580.01	46169.41
580.17	46101.53
580.33	46511.13
580.49	46248.99
580.65	46686.67
580.82	46543.89
580.98	46309.84
581.14	46370.69
581.30	46373.03
581.46	46349.63
581.62	46571.98
581.78	46478.36
581.94	46766.24
582.10	46239.62
582.26	46515.81
582.42	46340.27
582.58	46520.49
582.74	46028.98
582.90	46316.86
583.06	46689.01
583.22	46387.08
583.38	47058.81
583.54	46494.74
583.70	46138.98
583.86	46366.01
584.02	46363.67
584.18	46267.71
584.34	46274.73
584.50	46302.82
584.66	46429.21
584.82	46153.02
584.98	46504.10
585.14	46366.01
585.30	46361.33
585.46	46232.60
585.62	46267.71
585.78	46124.94
585.94	45947.06
586.10	46241.96
586.26	46314.52
586.42	46314.52
586.58	46021.95
586.74	46869.23
586.90	46239.62
587.06	46054.72
587.22	46438.57
587.38	46422.19
587.54	46483.04
587.70	46391.76
587.86	46220.90
588.02	46829.44
588.18	46377.72
588.34	45869.82
588.49	45488.31
588.65	45804.28
588.81	45469.59
588.97	46314.52
589.13	45696.62
589.29	46000.89
589.45	46277.07
589.61	46082.81
589.77	46040.68
589.93	46199.83
