SpectraSuite Data File
++++++++++++++++++++++++++++++++++++
Date: Fri Oct 25 11:23:38 EDT 2013
User: price-jones
Dark Spectrum Present: No
Reference Spectrum Present: No
Number of Sampled Component Spectra: 1
Spectrometers: USB2+H05261
Integration Time (usec): 100000 (USB2+H05261)
Spectra Averaged: 1 (USB2+H05261)
Boxcar Smoothing: 0 (USB2+H05261)
Correct for Electrical Dark: No (USB2+H05261)
Strobe/Lamp Enabled: No (USB2+H05261)
Correct for Detector Non-linearity: No (USB2+H05261)
Correct for Stray Light: No (USB2+H05261)
Number of Pixels in Processed Spectrum: 2048
>>>>>Begin Processed Spectral Data<<<<<
365.73	243.42
365.92	243.42
366.12	243.42
366.32	70.22
366.52	117.03
366.72	170.86
366.91	159.16
367.11	163.84
367.31	152.13
367.51	107.66
367.70	95.96
367.90	147.45
368.10	124.05
368.30	147.45
368.49	84.26
368.69	110.01
368.89	142.77
369.09	187.24
369.28	248.10
369.48	166.18
369.68	156.82
369.87	173.20
370.07	212.99
370.27	114.69
370.47	435.34
370.66	596.84
370.86	603.86
371.06	711.52
371.25	732.59
371.45	643.65
371.65	617.90
371.84	601.52
372.04	662.37
372.24	748.97
372.44	690.46
372.63	786.42
372.83	711.52
373.03	664.71
373.22	709.18
373.42	793.44
373.62	755.99
373.81	772.38
374.01	681.10
374.21	774.72
374.40	807.48
374.60	851.96
374.79	837.91
374.99	753.65
375.19	805.14
375.38	753.65
375.58	807.48
375.78	866.00
375.97	898.77
376.17	863.66
376.37	922.17
376.56	835.57
376.76	840.25
376.95	805.14
377.15	887.06
377.35	936.21
377.54	842.59
377.74	833.23
377.93	943.24
378.13	912.81
378.33	938.55
378.52	961.96
378.72	924.51
378.91	992.39
379.11	964.30
379.31	1011.11
379.50	926.85
379.70	924.51
379.89	929.19
380.09	961.96
380.28	929.19
380.48	1027.50
380.68	1004.09
380.87	992.39
381.07	1013.45
381.26	947.92
381.46	1022.81
381.65	1029.84
381.85	1086.01
382.04	992.39
382.24	1104.73
382.43	1020.47
382.63	1076.65
382.83	1041.54
383.02	1123.46
383.22	1083.67
383.41	1121.12
383.61	1097.71
383.80	1022.81
384.00	1142.18
384.19	1135.16
384.39	1158.57
384.58	1097.71
384.78	1069.62
384.97	1165.59
385.17	1139.84
385.36	1144.52
385.56	1153.88
385.75	1090.69
385.95	1291.98
386.14	1214.74
386.34	1156.22
386.53	1228.78
386.72	1231.12
386.92	1238.14
387.11	1303.68
387.31	1193.67
387.50	1240.48
387.70	1289.64
387.89	1331.76
388.09	1369.21
388.28	1336.45
388.48	1299.00
388.67	1345.81
388.86	1299.00
389.06	1289.64
389.25	1284.95
389.45	1301.34
389.64	1373.89
389.84	1392.62
390.03	1418.36
390.22	1308.36
390.42	1423.05
390.61	1416.02
390.81	1401.98
391.00	1434.75
391.19	1357.51
391.39	1439.43
391.58	1462.83
391.78	1511.99
391.97	1476.88
392.16	1488.58
392.36	1467.52
392.55	1502.62
392.75	1540.07
392.94	1565.82
393.13	1509.65
393.33	1533.05
393.52	1444.11
393.71	1579.86
393.91	1565.82
394.10	1657.10
394.29	1678.16
394.49	1626.67
394.68	1659.44
394.88	1600.93
395.07	1722.63
395.26	1703.91
395.46	1720.29
395.65	1724.97
395.84	1661.78
396.04	1804.55
396.23	1687.53
396.42	1736.68
396.62	1790.51
396.81	1710.93
397.00	1762.42
397.19	1739.02
397.39	1846.68
397.58	1767.10
397.77	1837.32
397.97	1909.88
398.16	1820.94
398.35	1900.52
398.55	1968.39
398.74	1874.77
398.93	1926.26
399.12	1860.73
399.32	1834.98
399.51	2047.97
399.70	1968.39
399.90	1968.39
400.09	1994.14
400.28	2008.18
400.47	2090.10
400.67	2115.84
400.86	2066.69
401.05	2134.57
401.24	2106.48
401.44	2043.29
401.63	2181.38
401.82	2193.08
402.01	2190.74
402.21	2190.74
402.40	2237.55
402.59	2242.23
402.78	2181.38
402.97	2235.21
403.17	2216.49
403.36	2338.20
403.55	2331.17
403.74	2300.75
403.93	2436.50
404.13	2396.71
404.32	2228.19
404.51	2293.72
404.70	2314.79
404.89	2455.22
405.09	2480.97
405.28	2466.92
405.47	2441.18
405.66	2541.82
405.85	2537.14
406.05	2462.24
406.24	2424.80
406.43	2609.70
406.62	2658.85
406.81	2700.98
407.00	2609.70
407.20	2597.99
407.39	2588.63
407.58	2752.47
407.77	2670.55
407.96	2738.43
408.15	2818.00
408.34	2703.32
408.54	2771.19
408.73	2836.73
408.92	2773.53
409.11	2829.71
409.30	2806.30
409.49	2965.46
409.68	2991.20
409.87	2984.18
410.07	2878.86
410.26	2930.35
410.45	3023.97
410.64	3009.93
410.83	3155.04
411.02	3269.73
411.21	3211.22
411.40	3026.31
411.59	3178.45
411.78	3293.13
411.98	3190.15
412.17	3375.05
412.36	3260.37
412.55	3349.31
412.74	3375.05
412.93	3304.84
413.12	3346.97
413.31	3637.19
413.50	3438.25
413.69	3501.44
413.88	3524.85
414.07	3695.71
414.26	3588.04
414.45	3679.32
414.64	3786.99
414.83	3651.24
415.02	3751.88
415.22	3786.99
415.41	3796.35
415.60	3929.76
415.79	3894.65
415.98	3904.01
416.17	4021.04
416.36	3936.78
416.55	3882.95
416.74	4032.74
416.93	4011.68
417.12	4091.26
417.31	4252.75
417.50	4177.86
417.69	4329.99
417.88	4201.26
418.07	4276.16
418.26	4250.41
418.45	4477.44
418.64	4550.00
418.83	4278.50
419.02	4470.42
419.21	4533.62
419.39	4348.72
419.58	4601.49
419.77	4451.70
419.96	4547.66
420.15	4631.92
420.34	4650.64
420.53	4601.49
420.72	4669.37
420.91	4676.39
421.10	4798.10
421.29	4791.08
421.48	4880.02
421.67	4816.82
421.86	4725.54
422.05	4727.88
422.24	4777.03
422.43	4809.80
422.61	4983.00
422.80	4844.91
422.99	4945.55
423.18	4868.31
423.37	5064.92
423.56	4898.74
423.75	4978.32
423.94	4837.89
424.13	4784.06
424.32	4755.97
424.50	5032.15
424.69	5156.20
424.88	5146.84
425.07	5004.07
425.26	4926.83
425.45	4924.49
425.64	4924.49
425.83	5022.79
426.01	5064.92
426.20	5095.35
426.39	5057.90
426.58	5179.61
426.77	5001.72
426.96	5123.43
427.15	5123.43
427.33	5221.74
427.52	5195.99
427.71	5329.40
427.90	5334.08
428.09	5259.18
428.28	5448.77
428.46	5420.68
428.65	5444.09
428.84	5380.89
429.03	5406.64
429.22	5439.40
429.40	5465.15
429.59	5502.60
429.78	5401.96
429.97	5224.08
430.16	5607.92
430.34	5706.23
430.53	5818.57
430.72	5767.08
430.91	5673.46
431.10	5682.82
431.28	5858.36
431.47	5853.68
431.66	5778.78
431.85	5717.93
432.03	5750.70
432.22	6153.27
432.41	5846.66
432.60	5994.11
432.79	6040.92
432.97	6040.92
433.16	6155.61
433.35	5923.90
433.54	6083.05
433.72	6200.08
433.91	6186.04
434.10	6071.35
434.28	6260.93
434.47	6305.40
434.66	6239.87
434.85	6314.77
435.03	6434.13
435.22	6272.64
435.41	6389.66
435.59	6277.32
435.78	6534.78
435.97	6420.09
436.16	6427.11
436.34	6373.28
436.53	6586.27
436.72	6574.56
436.90	6492.65
437.09	6562.86
437.28	6555.84
437.46	6731.38
437.65	6623.72
437.84	6899.90
438.02	6778.19
438.21	6686.91
438.40	6778.19
438.58	7054.37
438.77	7255.66
438.96	7040.33
439.14	6972.46
439.33	7037.99
439.52	7255.66
439.70	7236.94
439.89	7513.12
440.08	7300.13
440.26	7171.40
440.45	7421.84
440.63	7424.18
440.82	7613.76
441.01	7492.05
441.19	7564.61
441.38	7815.05
441.57	7754.19
441.75	7868.88
441.94	8013.99
442.12	7957.82
442.31	8121.66
442.50	8126.34
442.68	8156.77
442.87	8011.65
443.05	8145.06
443.24	8404.86
443.43	7955.48
443.61	8205.92
443.80	8372.10
443.98	8119.32
444.17	7838.45
444.35	8131.02
444.54	8414.23
444.73	8461.04
444.91	8219.96
445.10	8439.97
445.28	8339.33
445.47	8217.62
445.65	8175.49
445.84	8421.25
446.02	8531.25
446.21	8290.18
446.39	8470.40
446.58	8339.33
446.77	8601.47
446.95	8217.62
447.14	8482.10
447.32	8404.86
447.51	8554.66
447.69	8344.01
447.88	8535.93
448.06	8528.91
448.25	8578.06
448.43	8608.49
448.62	8542.96
448.80	8423.59
448.99	8912.76
449.17	8692.75
449.36	8732.54
449.54	8858.93
449.73	8872.97
449.91	8975.95
450.10	8865.95
450.28	9006.38
450.46	9013.40
450.65	9092.98
450.83	9210.01
451.02	9160.86
451.20	9184.26
451.39	9160.86
451.57	9242.78
451.76	9128.09
451.94	9291.93
452.13	9355.12
452.31	9327.03
452.49	9146.81
452.68	9415.98
452.86	9404.27
453.05	9577.47
453.23	9460.45
453.42	9329.38
453.60	9399.59
453.78	9614.92
453.97	9502.58
454.15	9481.51
454.34	9516.62
454.52	9736.63
454.70	9722.59
454.89	9767.06
455.07	9806.84
455.26	9809.19
455.44	9860.68
455.62	9966.00
455.81	10045.58
455.99	9975.36
456.17	10146.22
456.36	10019.83
456.54	10249.21
456.73	9968.34
456.91	10534.75
457.09	10431.77
457.28	10576.88
457.46	10548.79
457.64	10380.28
457.83	10363.89
458.01	10399.00
458.19	10714.97
458.38	10457.51
458.56	10808.59
458.74	10668.16
458.93	10934.98
459.11	10693.91
459.29	10808.59
459.48	10665.82
459.66	10846.04
459.84	10974.77
460.03	10974.77
460.21	10986.47
460.39	11073.07
460.57	11283.72
460.76	11241.59
460.94	11265.00
461.12	11124.57
461.31	11318.83
461.49	11019.24
461.67	11150.31
461.85	11452.24
462.04	11257.98
462.22	11414.79
462.40	11604.38
462.59	11641.82
462.77	11265.00
462.95	11857.15
463.13	11545.86
463.32	11435.86
463.50	11763.53
463.68	11796.30
463.86	11892.26
464.05	11459.26
464.23	11819.71
464.41	11859.49
464.59	11653.53
464.78	12177.81
464.96	12032.69
465.14	11819.71
465.32	12133.34
465.50	12084.19
465.69	12182.49
465.87	12248.02
466.05	12126.32
466.23	12355.69
466.41	12245.68
466.60	12486.76
466.78	12013.97
466.96	12152.06
467.14	12266.75
467.32	12435.27
467.51	12526.55
467.69	12215.26
467.87	12472.71
468.05	12531.23
468.23	12475.06
468.41	12334.62
468.60	12566.34
468.78	12697.41
468.96	12678.68
469.14	12915.08
469.32	13118.70
469.50	12723.15
469.69	12999.34
469.87	12966.57
470.05	13097.64
470.23	13252.11
470.41	12945.50
470.59	13282.54
470.77	13099.98
470.95	13425.31
471.14	13509.57
471.32	12989.97
471.50	13668.73
471.68	13415.95
471.86	13537.66
472.04	13752.99
472.22	14059.60
472.40	13989.38
472.58	13947.25
472.77	14083.00
472.95	14235.14
473.13	14738.35
473.31	14178.97
473.49	14157.90
473.67	14434.08
473.85	14333.44
474.03	14623.67
474.21	14675.16
474.39	15012.20
474.57	14689.20
474.75	15133.90
474.93	14930.28
475.12	14953.68
475.30	15487.32
475.48	15021.56
475.66	15426.47
475.84	15000.49
476.02	15529.45
476.20	15321.15
476.38	15709.68
476.56	15889.90
476.74	16074.80
476.92	15833.72
477.10	15693.29
477.28	16271.40
477.46	16465.67
477.64	16194.17
477.82	16348.64
478.00	16800.37
478.18	16943.14
478.36	16760.58
478.54	17064.85
478.72	17228.68
478.90	17261.45
479.08	17479.12
479.26	17734.24
479.44	17795.09
479.62	17745.94
479.80	17841.90
479.98	18436.40
480.16	18394.27
480.34	18366.18
480.52	18485.55
480.70	18773.44
480.88	18682.16
481.06	18892.80
481.24	18572.15
481.41	18904.51
481.59	19278.99
481.77	19843.06
481.95	19571.56
482.13	19871.15
482.31	19793.91
482.49	20664.59
482.67	20212.87
482.85	20477.35
483.03	20680.97
483.21	20868.22
483.39	21039.08
483.57	20851.83
483.74	21219.30
483.92	21408.88
484.10	21568.04
484.28	21855.92
484.46	22244.45
484.64	22382.54
484.82	22017.42
485.00	22555.74
485.18	22904.48
485.35	23009.81
485.53	22881.08
485.71	23346.84
485.89	23297.69
486.07	23302.37
486.25	23517.70
486.43	23627.71
486.61	23676.86
486.78	23880.49
486.96	24245.61
487.14	24957.13
487.32	24758.19
487.50	25111.61
487.68	25188.85
487.85	25064.80
488.03	25727.17
488.21	25668.66
488.39	26181.23
488.57	25919.09
488.75	26377.84
488.92	26593.17
489.10	26522.95
489.28	26859.99
489.46	27426.40
489.64	27199.37
489.81	27669.81
489.99	27730.67
490.17	28030.26
490.35	28369.63
490.53	28294.74
490.70	28379.00
490.88	28479.64
491.06	28709.01
491.24	29287.12
491.41	28978.17
491.59	29425.22
491.77	29263.72
491.95	29645.23
492.13	30380.15
492.30	30150.78
492.48	29991.62
492.66	29834.81
492.84	30494.84
493.01	30710.17
493.19	30665.70
493.37	30604.84
493.54	31431.05
493.72	31318.71
493.90	31295.30
494.08	31885.12
494.25	31845.33
494.43	31929.59
494.61	32411.74
494.79	32849.42
494.96	32627.07
495.14	32945.38
495.32	33504.77
495.49	33268.37
495.67	33486.04
495.85	33472.00
496.02	33851.17
496.20	34227.99
496.38	34333.32
496.55	34377.79
496.73	35049.52
496.91	34728.87
497.09	34845.90
497.26	35292.94
497.44	35377.20
497.62	35442.73
497.79	35901.48
497.97	35419.33
498.14	36062.97
498.32	36130.85
498.50	36254.90
498.67	36385.97
498.85	36739.39
499.03	36657.47
499.20	37266.01
499.38	37347.93
499.56	37074.09
499.73	37364.31
499.91	37329.20
500.08	37610.07
500.26	37764.54
500.44	37406.44
500.61	37809.01
500.79	38333.29
500.97	38146.05
501.14	38820.13
501.32	38824.81
501.49	38691.40
501.67	39117.37
501.84	39332.70
502.02	38653.95
502.20	39330.36
502.37	39168.87
502.55	39416.96
502.72	39316.32
502.90	39842.94
503.07	39379.51
503.25	39828.90
503.43	39686.12
503.60	40140.19
503.78	40130.83
503.95	40091.04
504.13	40552.12
504.30	40767.45
504.48	40608.29
504.65	41090.44
504.83	41069.38
505.01	41158.32
505.18	41347.90
505.36	41546.85
505.53	41598.34
505.71	41556.21
505.88	42190.50
506.06	41528.13
506.23	42272.42
506.41	42176.45
506.58	42234.97
506.76	41933.04
506.93	42424.55
507.11	42286.46
507.28	42342.63
507.46	43086.92
507.63	42909.04
507.81	43370.13
507.98	42930.11
508.16	43393.53
508.33	43636.95
508.50	43725.89
508.68	43536.30
508.85	43765.68
509.03	44013.77
509.20	44371.88
509.38	44435.07
509.55	44809.56
509.73	44318.04
509.90	44367.20
510.08	44336.77
510.25	44900.84
510.42	44957.01
510.60	45048.29
510.77	45523.42
510.95	45469.59
511.12	45240.21
511.30	45312.77
511.47	45544.48
511.64	45645.13
511.82	46028.98
511.99	45670.87
512.17	46223.24
512.34	45888.54
512.51	46574.32
512.69	46089.83
512.86	46527.51
513.04	46831.78
513.21	46588.36
513.38	47124.35
513.56	46721.77
513.73	47124.35
513.90	47274.14
514.08	47232.01
514.25	47538.62
514.43	47559.69
514.60	47337.33
514.77	47503.51
514.95	47377.12
515.12	47381.80
515.29	47227.33
515.47	48385.89
515.64	48193.97
515.81	48222.06
515.99	48208.01
516.16	48509.94
516.33	48678.46
516.51	48933.58
516.68	48622.29
516.85	48491.22
517.03	49137.21
517.20	49216.78
517.37	49240.19
517.54	49055.29
517.72	49029.54
517.89	49265.94
518.06	49389.98
518.24	49055.29
518.41	49631.06
518.58	49453.18
518.75	49113.80
518.93	49689.57
519.10	49794.90
519.27	50068.74
519.45	49724.68
519.62	49954.05
519.79	49865.11
519.96	49998.52
520.14	50609.40
520.31	50197.47
520.48	50429.18
520.65	50763.88
520.83	50857.50
521.00	50670.26
521.17	50663.24
521.34	50609.40
521.52	50684.30
521.69	50639.83
521.86	51119.64
522.03	51107.94
522.20	51423.91
522.38	51627.54
522.55	51435.61
522.72	51302.20
522.89	51690.73
523.07	51952.87
523.24	51622.86
523.41	51751.59
523.58	51824.14
523.75	51821.80
523.92	51695.41
524.10	51894.36
524.27	52037.13
524.44	51999.68
524.61	52156.50
524.78	52453.75
524.96	52151.82
525.13	52428.00
525.30	52734.61
525.47	52638.65
525.64	52781.42
525.81	52657.37
525.98	53001.43
526.16	52804.83
526.33	52725.25
526.50	53153.57
526.67	52753.33
526.84	53144.20
527.01	52940.58
527.18	52966.32
527.36	52842.27
527.53	53078.67
527.70	53586.57
527.87	53499.97
528.04	53415.71
528.21	53506.99
528.38	53380.60
528.55	53736.36
528.72	53420.39
528.89	53794.87
529.07	53396.98
529.24	53247.19
529.41	53675.51
529.58	53607.63
529.75	53642.74
529.92	53815.94
530.09	53867.43
530.26	53872.11
530.43	54138.93
530.60	54323.83
530.77	53923.60
530.94	54199.79
531.11	54078.08
531.28	54047.65
531.46	54190.42
531.63	54372.99
531.80	54054.67
531.97	54468.95
532.14	54499.37
532.31	54459.58
532.48	54522.78
532.65	54724.07
532.82	54426.82
532.99	54782.58
533.16	54550.87
533.33	54838.75
533.50	55117.28
533.67	54782.58
533.84	54831.73
534.01	54862.16
534.18	55011.95
534.35	55269.41
534.52	55114.94
534.69	55292.82
534.86	55255.37
535.03	55538.57
535.20	55332.60
535.37	55278.77
535.54	55327.92
535.71	55426.23
535.88	55531.55
536.05	55271.75
536.22	55676.66
536.38	55636.87
536.55	55728.16
536.72	55517.51
536.89	55686.03
537.06	55732.84
537.23	56051.15
537.40	55655.60
537.57	55882.63
537.74	55959.87
537.91	55952.85
538.08	55945.83
538.25	55971.57
538.42	55891.99
538.59	56278.18
538.75	55849.86
538.92	56072.21
539.09	56217.33
539.26	56449.04
539.43	56100.30
539.60	56243.07
539.77	56189.24
539.94	56442.02
540.11	56542.66
540.28	56554.36
540.44	56502.87
540.61	56535.64
540.78	56514.58
540.95	56568.41
541.12	56385.85
541.29	56435.00
541.46	56439.68
541.62	56783.74
541.79	56671.39
541.96	56451.38
542.13	56657.35
542.30	56748.63
542.47	56837.57
542.63	56914.81
542.80	56800.12
542.97	57078.64
543.14	57467.17
543.31	57085.67
543.48	57193.33
543.64	57429.72
543.81	57392.28
543.98	57460.15
544.15	57406.32
544.32	57689.52
544.48	57799.53
544.65	57249.50
544.82	57340.78
544.99	57331.42
545.16	57687.18
545.32	57609.95
545.49	57715.27
545.66	57961.03
545.83	57904.85
546.00	57701.23
546.16	57602.92
546.33	57584.20
546.50	57574.84
546.67	57869.75
546.83	57504.62
547.00	57769.10
547.17	57963.37
547.34	57708.25
547.50	58129.54
547.67	58279.34
547.84	58045.29
548.00	58087.42
548.17	58131.89
548.34	57961.03
548.51	58377.64
548.67	58382.32
548.84	58211.46
549.01	58255.93
549.18	58244.23
549.34	58354.24
549.51	58515.73
549.68	58602.33
549.84	58164.65
550.01	58597.65
550.18	58255.93
550.34	58328.49
550.51	58637.44
550.68	58583.61
550.84	58370.62
551.01	58738.08
551.18	58461.90
551.34	58562.54
551.51	58824.68
551.68	58810.64
551.84	58679.57
552.01	58759.15
552.18	58937.03
552.34	58590.63
552.51	58698.30
552.68	58752.13
552.84	58717.02
553.01	58993.20
553.18	58904.26
553.34	58904.26
553.51	58773.19
553.67	58997.88
553.84	58960.44
554.01	59077.46
554.17	59063.42
554.34	59189.81
554.51	59100.87
554.67	59124.27
554.84	59018.95
555.00	58967.46
555.17	58822.34
555.33	58925.33
555.50	59018.95
555.67	59271.73
555.83	59208.53
556.00	59276.41
556.16	59323.22
556.33	59545.57
556.50	59267.05
556.66	59402.80
556.83	59121.93
556.99	59540.89
557.16	59620.47
557.32	59629.83
557.49	59655.57
557.65	59484.72
557.82	59526.84
557.98	59133.63
558.15	59433.22
558.32	59386.41
558.48	59316.20
558.65	59671.96
558.81	59594.72
558.98	59639.19
559.14	59655.57
559.31	59777.28
559.47	59770.26
559.64	59908.35
559.80	59920.05
559.97	59833.46
560.13	59557.27
560.30	59929.42
560.46	59777.28
560.63	59910.69
560.79	59873.24
560.96	60088.57
561.12	59842.82
561.29	60032.40
561.45	59936.44
561.61	59955.16
561.78	59971.55
561.94	60130.70
562.11	59868.56
562.27	59910.69
562.44	60111.98
562.60	60329.65
562.77	60030.06
562.93	59866.22
563.10	60065.17
563.26	59908.35
563.42	60353.05
563.59	59999.63
563.75	60018.36
563.92	59997.29
564.08	59997.29
564.24	60229.01
564.41	60135.38
564.57	60371.78
564.74	60072.19
564.90	60238.37
565.07	60142.41
565.23	59971.55
565.39	60081.55
565.56	60135.38
565.72	60231.35
565.88	60285.18
566.05	60350.71
566.21	60116.66
566.38	60477.10
566.54	60364.76
566.70	60544.98
566.87	60563.70
567.03	60088.57
567.19	60427.95
567.36	60303.90
567.52	60364.76
567.68	60587.11
567.85	60303.90
568.01	60615.19
568.17	60287.52
568.34	60310.92
568.50	60465.40
568.66	60395.18
568.83	60390.50
568.99	60395.18
569.15	60364.76
569.32	60308.58
569.48	60441.99
569.64	60519.23
569.81	60680.73
569.97	60720.52
570.13	60495.83
570.30	60498.17
570.46	60739.24
570.62	60694.77
570.78	60552.00
570.95	60556.68
571.11	60568.38
571.27	60486.46
571.43	60767.33
571.60	60877.33
571.76	60521.57
571.92	60594.13
572.09	60612.85
572.25	60690.09
572.41	60662.00
572.57	60959.25
572.74	60893.72
572.90	60739.24
573.06	60886.70
573.22	60589.45
573.38	60753.29
573.55	60631.58
573.71	60867.97
573.87	60755.63
574.03	60626.90
574.20	60753.29
574.36	60657.32
574.52	60975.64
574.68	60809.46
574.84	60704.13
575.01	60743.92
575.17	60851.59
575.33	60750.94
575.49	60664.35
575.65	60734.56
575.82	60764.99
575.98	60952.23
576.14	60963.93
576.30	61066.92
576.46	60821.16
576.62	60898.40
576.79	60814.14
576.95	60699.45
577.11	60856.27
577.27	61034.15
577.43	60959.25
577.59	60654.98
577.75	60788.39
577.92	60683.07
578.08	60914.78
578.24	60816.48
578.40	60963.93
578.56	61017.77
578.72	60919.46
578.88	61095.00
579.04	61031.81
579.21	60893.72
579.37	60989.68
579.53	61169.90
579.69	60860.95
579.85	60893.72
580.01	61020.11
580.17	60835.20
580.33	60907.76
580.49	61029.47
580.65	61052.87
580.82	61031.81
580.98	60825.84
581.14	60821.16
581.30	60985.00
581.46	60870.31
581.62	60886.70
581.78	61020.11
581.94	60999.04
582.10	61008.40
582.26	60928.83
582.42	60917.12
582.58	61055.21
582.74	61062.24
582.90	61141.81
583.06	61130.11
583.22	60860.95
583.38	60980.32
583.54	61050.53
583.70	61024.79
583.86	61024.79
584.02	61099.68
584.18	61216.71
584.34	61118.41
584.50	61197.99
584.66	60889.04
584.82	61085.64
584.98	61230.75
585.14	61123.09
585.30	60896.06
585.46	61188.63
585.62	61197.99
585.78	61307.99
585.94	60982.66
586.10	61064.58
586.26	61097.34
586.42	61052.87
586.58	61272.88
586.74	61123.09
586.90	60762.65
587.06	61015.43
587.22	61181.60
587.38	61003.72
587.54	61193.31
587.70	61240.12
587.86	61270.54
588.02	61052.87
588.18	61228.41
588.34	61195.65
588.49	61137.13
