SpectraSuite Data File
++++++++++++++++++++++++++++++++++++
Date: Fri Oct 25 11:26:40 EDT 2013
User: price-jones
Dark Spectrum Present: No
Reference Spectrum Present: No
Number of Sampled Component Spectra: 1
Spectrometers: USB2+H05261
Integration Time (usec): 100000 (USB2+H05261)
Spectra Averaged: 1 (USB2+H05261)
Boxcar Smoothing: 0 (USB2+H05261)
Correct for Electrical Dark: No (USB2+H05261)
Strobe/Lamp Enabled: No (USB2+H05261)
Correct for Detector Non-linearity: No (USB2+H05261)
Correct for Stray Light: No (USB2+H05261)
Number of Pixels in Processed Spectrum: 2048
>>>>>Begin Processed Spectral Data<<<<<
365.73	250.44
365.92	250.44
366.12	250.44
366.32	175.54
366.52	98.30
366.72	180.22
366.91	182.56
367.11	215.33
367.31	131.07
367.51	114.69
367.70	159.16
367.90	161.50
368.10	220.01
368.30	152.13
368.49	163.84
368.69	201.29
368.89	180.22
369.09	201.29
369.28	84.26
369.48	170.86
369.68	175.54
369.87	205.97
370.07	187.24
370.27	205.97
370.47	337.04
370.66	589.82
370.86	589.82
371.06	681.10
371.25	704.50
371.45	585.13
371.65	631.94
371.84	671.73
372.04	685.78
372.24	753.65
372.44	732.59
372.63	725.57
372.83	753.65
373.03	774.72
373.22	744.29
373.42	751.31
373.62	858.98
373.81	821.53
374.01	802.80
374.21	826.21
374.40	784.08
374.60	945.58
374.79	795.78
374.99	901.11
375.19	854.30
375.38	866.00
375.58	844.93
375.78	877.70
375.97	819.19
376.17	940.90
376.37	802.80
376.56	940.90
376.76	1022.81
376.95	868.34
377.15	894.08
377.35	997.07
377.54	985.37
377.74	877.70
377.93	954.94
378.13	1053.24
378.33	987.71
378.52	931.53
378.72	1004.09
378.91	978.34
379.11	940.90
379.31	943.24
379.50	943.24
379.70	1071.97
379.89	1048.56
380.09	1001.75
380.28	1025.15
380.48	973.66
380.68	992.39
380.87	971.32
381.07	1074.31
381.26	1055.58
381.46	1081.33
381.65	1029.84
381.85	1020.47
382.04	1060.26
382.24	1062.60
382.43	1093.03
382.63	1062.60
382.83	1097.71
383.02	1128.14
383.22	1144.52
383.41	1132.82
383.61	1207.72
383.80	1142.18
384.00	1071.97
384.19	1233.46
384.39	1165.59
384.58	1153.88
384.78	1163.25
384.97	1200.69
385.17	1156.22
385.36	1078.99
385.56	1228.78
385.75	1151.54
385.95	1277.93
386.14	1214.74
386.34	1205.38
386.53	1217.08
386.72	1252.19
386.92	1181.97
387.11	1228.78
387.31	1385.60
387.50	1200.69
387.70	1301.34
387.89	1327.08
388.09	1259.21
388.28	1299.00
388.48	1294.32
388.67	1390.28
388.86	1327.08
389.06	1430.07
389.25	1313.04
389.45	1359.85
389.64	1376.24
389.84	1364.53
390.03	1469.86
390.22	1376.24
390.42	1411.34
390.61	1317.72
390.81	1306.02
391.00	1467.52
391.19	1446.45
391.39	1453.47
391.58	1441.77
391.78	1465.18
391.97	1577.52
392.16	1401.98
392.36	1563.48
392.55	1469.86
392.75	1542.41
392.94	1528.37
393.13	1507.30
393.33	1586.88
393.52	1570.50
393.71	1614.97
393.91	1633.69
394.10	1500.28
394.29	1589.22
394.49	1514.33
394.68	1659.44
394.88	1727.32
395.07	1664.12
395.26	1715.61
395.46	1706.25
395.65	1781.15
395.84	1638.38
396.04	1748.38
396.23	1797.53
396.42	1837.32
396.62	1851.36
396.81	1797.53
397.00	1842.00
397.19	1750.72
397.39	1799.87
397.58	1884.13
397.77	1757.74
397.97	1867.75
398.16	1853.70
398.35	2008.18
398.55	1844.34
398.74	1867.75
398.93	1970.73
399.12	1977.75
399.32	1827.96
399.51	1984.77
399.70	1959.03
399.90	1961.37
400.09	2017.54
400.28	2155.63
400.47	2099.46
400.67	2155.63
400.86	2043.29
401.05	2015.20
401.24	2174.36
401.44	2132.23
401.63	2073.71
401.82	2127.55
402.01	2031.58
402.21	2157.97
402.40	2296.07
402.59	2335.85
402.78	2263.30
402.97	2263.30
403.17	2216.49
403.36	2413.09
403.55	2289.04
403.74	2452.88
403.93	2417.77
404.13	2394.37
404.32	2394.37
404.51	2286.70
404.70	2499.69
404.89	2413.09
405.09	2511.39
405.28	2490.33
405.47	2541.82
405.66	2509.05
405.85	2513.74
406.05	2525.44
406.24	2605.02
406.43	2567.57
406.62	2614.38
406.81	2651.83
407.00	2597.99
407.20	2607.36
407.39	2738.43
407.58	2799.28
407.77	2771.19
407.96	2635.44
408.15	2815.66
408.34	2768.85
408.54	2843.75
408.73	2689.28
408.92	2726.72
409.11	2925.67
409.30	2949.08
409.49	2958.44
409.68	2888.22
409.87	3042.70
410.07	3000.57
410.26	3005.25
410.45	3042.70
410.64	3105.89
410.83	3124.62
411.02	3033.33
411.21	3148.02
411.40	3148.02
411.59	3215.90
411.78	3199.51
411.98	3220.58
412.17	3335.26
412.36	3377.39
412.55	3325.90
412.74	3372.71
412.93	3386.76
413.12	3281.43
413.31	3557.61
413.50	3475.70
413.69	3648.90
413.88	3595.06
414.07	3669.96
414.26	3569.32
414.45	3644.21
414.64	3747.20
414.83	3833.80
415.02	3915.72
415.22	3861.88
415.41	3824.44
415.60	3866.56
415.79	3981.25
415.98	3927.42
416.17	4014.02
416.36	3971.89
416.55	3999.98
416.74	4053.81
416.93	4177.86
417.12	4114.66
417.31	4140.41
417.50	4135.73
417.69	4327.65
417.88	4269.14
418.07	4283.18
418.26	4395.53
418.45	4414.25
418.64	4561.70
418.83	4477.44
419.02	4409.57
419.21	4580.43
419.39	4596.81
419.58	4507.87
419.77	4582.77
419.96	4634.26
420.15	4638.94
420.34	4671.71
420.53	4683.41
420.72	4657.67
420.91	4669.37
421.10	4779.37
421.29	4826.18
421.48	4755.97
421.67	4858.95
421.86	4748.95
422.05	4730.22
422.24	4781.71
422.43	4868.31
422.61	4999.38
422.80	5100.03
422.99	4826.18
423.18	4954.91
423.37	5107.05
423.56	5013.43
423.75	5114.07
423.94	4959.60
424.13	4765.33
424.32	4784.06
424.50	5022.79
424.69	5111.73
424.88	4933.85
425.07	4814.48
425.26	4896.40
425.45	4926.83
425.64	4929.17
425.83	5102.37
426.01	5034.49
426.20	5036.83
426.39	5142.16
426.58	5078.96
426.77	4985.34
426.96	5273.23
427.15	5200.67
427.33	5313.02
427.52	5219.39
427.71	5289.61
427.90	5151.52
428.09	5308.34
428.28	5401.96
428.46	5448.77
428.65	5453.45
428.84	5509.62
429.03	5493.24
429.22	5481.53
429.40	5413.66
429.59	5675.80
429.78	5341.10
429.97	5338.76
430.16	5607.92
430.34	5741.33
430.53	5785.80
430.72	5769.42
430.91	5755.38
431.10	5764.74
431.28	5799.85
431.47	5804.53
431.66	5973.05
431.85	5832.62
432.03	5954.32
432.22	5912.19
432.41	5959.00
432.60	5818.57
432.79	6010.50
432.97	5944.96
433.16	6066.67
433.35	6122.84
433.54	6176.67
433.72	6019.86
433.91	6143.91
434.10	6150.93
434.28	6050.28
434.47	6342.85
434.66	6113.48
434.85	6129.86
435.03	6211.78
435.22	6267.95
435.41	6450.52
435.59	6420.09
435.78	6396.68
435.97	6630.74
436.16	6368.60
436.34	6525.41
436.53	6560.52
436.72	6614.35
436.90	6420.09
437.09	6682.23
437.28	6471.58
437.46	6530.09
437.65	6619.04
437.84	6794.58
438.02	6803.94
438.21	6885.86
438.40	6857.77
438.58	6942.03
438.77	6944.37
438.96	7028.63
439.14	7124.59
439.33	7171.40
439.52	7419.50
439.70	7332.90
439.89	7396.09
440.08	7531.84
440.26	7337.58
440.45	7255.66
440.63	7508.44
440.82	7566.95
441.01	7499.08
441.19	7510.78
441.38	7772.92
441.57	7674.62
441.75	7817.39
441.94	7943.78
442.12	7995.27
442.31	7922.71
442.50	8088.89
442.68	7983.57
442.87	7955.48
443.05	8231.66
443.24	8273.79
443.43	8152.09
443.61	8276.13
443.80	8320.60
443.98	8187.19
444.17	7768.24
444.35	8184.85
444.54	8414.23
444.73	8421.25
444.91	8273.79
445.10	8549.98
445.28	8421.25
445.47	8395.50
445.65	8425.93
445.84	8526.57
446.02	8355.71
446.21	8538.27
446.39	8348.69
446.58	8458.70
446.77	8496.14
446.95	8353.37
447.14	8535.93
447.32	8690.41
447.51	8767.65
447.69	8498.49
447.88	8617.85
448.06	8491.46
448.25	8580.40
448.43	8678.71
448.62	8716.16
448.80	8557.00
448.99	8725.52
449.17	8844.88
449.36	8559.34
449.54	8987.66
449.73	9043.83
449.91	9013.40
450.10	9029.79
450.28	9172.56
450.46	8966.59
450.65	9015.74
450.83	9202.99
451.02	9057.87
451.20	9434.70
451.39	9116.39
451.57	9092.98
451.76	9078.94
451.94	9301.29
452.13	9376.19
452.31	9554.07
452.49	9191.28
452.68	9528.32
452.86	9385.55
453.05	9465.13
453.23	9352.78
453.42	9460.45
453.60	9488.53
453.78	9696.84
453.97	9495.55
454.15	9891.10
454.34	9584.49
454.52	9783.44
454.70	9647.69
454.89	9846.63
455.07	9804.50
455.26	9771.74
455.44	9956.64
455.62	9973.02
455.81	10012.81
455.99	10164.95
456.17	10104.09
456.36	10122.82
456.54	10249.21
456.73	10429.43
456.91	10551.14
457.09	10368.57
457.28	10485.60
457.46	10246.87
457.64	10565.18
457.83	10448.15
458.01	10422.41
458.19	10949.03
458.38	10677.52
458.56	10761.78
458.74	10464.54
458.93	10743.06
459.11	10848.38
459.29	10862.43
459.48	10829.66
459.66	10817.96
459.84	11098.82
460.03	11040.31
460.21	11049.67
460.39	11105.84
460.57	11176.06
460.76	11309.47
460.94	11351.60
461.12	11147.97
461.31	11307.13
461.49	11122.23
461.67	11253.30
461.85	11562.25
462.04	11180.74
462.22	11653.53
462.40	11595.01
462.59	11529.48
462.77	11260.32
462.95	11712.04
463.13	11669.91
463.32	11761.19
463.50	11728.42
463.68	11805.66
463.86	11915.67
464.05	11627.78
464.23	11960.14
464.41	12072.48
464.59	11690.98
464.78	12173.13
464.96	12070.14
465.14	11892.26
465.32	12159.08
465.50	12187.17
465.69	12196.53
465.87	12243.34
466.05	12030.35
466.23	12208.23
466.41	12512.50
466.60	12325.26
466.78	12219.94
466.96	12262.07
467.14	12372.07
467.32	12657.62
467.51	12524.21
467.69	12287.81
467.87	12545.27
468.05	12524.21
468.23	12435.27
468.41	12526.55
468.60	12657.62
468.78	12697.41
468.96	12725.49
469.14	12781.67
469.32	12978.27
469.50	12652.94
469.69	12915.08
469.87	13104.66
470.05	13263.82
470.23	13114.02
470.41	13167.85
470.59	13357.44
470.77	13296.58
470.95	13118.70
471.14	13469.78
471.32	13205.30
471.50	13736.60
471.68	13507.23
471.86	13745.97
472.04	13654.69
472.22	14193.01
472.40	13760.01
472.58	13944.91
472.77	14033.85
472.95	14083.00
473.13	14312.38
473.31	14403.66
473.49	14361.53
473.67	14279.61
473.85	14368.55
474.03	14689.20
474.21	14635.37
474.39	14693.88
474.57	14693.88
474.75	14890.49
474.93	15098.80
475.12	14953.68
475.30	15510.73
475.48	14960.70
475.66	15229.87
475.84	15201.78
476.02	15433.49
476.20	15707.34
476.38	15822.02
476.56	16121.61
476.74	16023.31
476.92	15948.41
477.10	15941.39
477.28	16332.26
477.46	16123.95
477.64	16327.58
477.82	16830.79
478.00	17542.32
478.18	17076.55
478.36	17193.58
478.54	17167.83
478.72	17242.73
478.90	17488.48
479.08	17575.08
479.26	17586.79
479.44	17855.95
479.62	17888.71
479.80	18183.62
479.98	18363.84
480.16	18796.84
480.34	18593.22
480.52	18827.27
480.70	18705.56
480.88	18780.46
481.06	18768.76
481.24	18864.72
481.41	19091.75
481.59	19489.64
481.77	19601.99
481.95	19461.55
482.13	19840.72
482.31	19730.72
482.49	20624.80
482.67	20552.24
482.85	20442.24
483.03	20847.15
483.21	20851.83
483.39	21315.26
483.57	21104.61
483.74	21254.40
483.92	21549.31
484.10	21263.77
484.28	21757.62
484.46	22115.72
484.64	22515.95
484.82	22398.93
485.00	22347.44
485.18	22750.01
485.35	23459.19
485.53	22892.78
485.71	23187.69
485.89	23543.45
486.07	23653.45
486.25	23452.17
486.43	23627.71
486.61	24079.43
486.78	24177.73
486.96	24198.80
487.14	24769.89
487.32	24950.11
487.50	24905.64
487.68	25064.80
487.85	25228.63
488.03	25546.95
488.21	25874.62
488.39	26176.55
488.57	25930.80
488.75	26394.22
488.92	26525.29
489.10	26558.06
489.28	27007.44
489.46	27391.29
489.64	26930.20
489.81	27723.65
489.99	27412.35
490.17	27730.67
490.35	28470.28
490.53	28322.82
490.70	28652.84
490.88	28238.56
491.06	28790.93
491.24	29048.39
491.41	29305.85
491.59	29228.61
491.77	29394.79
491.95	29663.95
492.13	29596.07
492.30	30071.20
492.48	29958.86
492.66	30504.20
492.84	30553.35
493.01	30824.86
493.19	30693.79
493.37	31129.12
493.54	31140.83
493.72	31983.42
493.90	31608.93
494.08	32002.14
494.25	32013.85
494.43	32254.92
494.61	33024.96
494.79	32762.82
494.96	32802.61
495.14	33050.70
495.32	33715.42
495.49	33050.70
495.67	33312.84
495.85	33301.14
496.02	34143.74
496.20	34375.45
496.38	33813.72
496.55	34225.65
496.73	35196.98
496.91	34602.48
497.09	35112.72
497.26	35049.52
497.44	34944.20
497.62	35562.10
497.79	35615.93
497.97	35269.53
498.14	36376.61
498.32	36472.57
498.50	36582.57
498.67	36694.92
498.85	36793.22
499.03	36861.10
499.20	36538.10
499.38	36900.89
499.56	37240.26
499.73	37507.08
499.91	37502.40
500.08	37469.64
500.26	37977.53
500.44	37876.89
500.61	37972.85
500.79	37886.25
500.97	38323.93
501.14	38443.30
501.32	38698.42
501.49	38932.47
501.67	38738.21
501.84	39442.71
502.02	38843.53
502.20	39058.86
502.37	39426.32
502.55	39264.83
502.72	39658.04
502.90	39744.64
503.07	39758.68
503.25	39964.65
503.43	39924.86
503.60	40149.55
503.78	40261.90
503.95	40821.28
504.13	40933.63
504.30	40776.81
504.48	40690.21
504.65	40905.54
504.83	40938.31
505.01	41509.40
505.18	41116.19
505.36	41322.16
505.53	41347.90
505.71	41773.88
505.88	41797.29
506.06	41914.31
506.23	42452.64
506.41	41876.86
506.58	42075.81
506.76	42415.19
506.93	43007.34
507.11	42520.51
507.28	42829.46
507.46	42948.83
507.63	42995.64
507.81	43515.24
507.98	43248.42
508.16	43466.09
508.33	43550.35
508.50	43920.15
508.68	44025.48
508.85	44107.40
509.03	43943.56
509.20	43772.70
509.38	44547.42
509.55	44575.50
509.73	44474.86
509.90	45001.48
510.08	44233.78
510.25	44935.95
510.42	45153.62
510.60	45378.31
510.77	45216.81
510.95	45991.53
511.12	44949.99
511.30	45771.52
511.47	45436.82
511.64	45677.90
511.82	46546.23
511.99	46286.43
512.17	46312.18
512.34	46197.49
512.51	46223.24
512.69	46862.21
512.86	46698.37
513.04	46852.84
513.21	46787.31
513.38	46941.78
513.56	47470.75
513.73	46787.31
513.90	47512.88
514.08	47208.61
514.25	47325.63
514.43	47597.13
514.60	47896.72
514.77	47796.08
514.95	48055.88
515.12	48018.43
515.29	47721.18
515.47	47929.49
515.64	48278.23
515.81	48109.71
515.99	48318.02
516.16	48577.82
516.33	48753.36
516.51	48872.73
516.68	48722.93
516.85	48683.14
517.03	48985.07
517.20	49141.89
517.37	49069.33
517.54	48992.09
517.72	49109.12
517.89	49289.34
518.06	49071.67
518.24	49333.81
518.41	49507.01
518.58	49394.67
518.75	49308.07
518.93	49624.04
519.10	49729.36
519.27	49958.73
519.45	49450.84
519.62	50241.94
519.79	50075.76
519.96	50094.49
520.14	50333.22
520.31	50024.27
520.48	50958.14
520.65	50312.16
520.83	50740.47
521.00	50951.12
521.17	50815.37
521.34	50712.39
521.52	50913.67
521.69	51208.58
521.86	51147.73
522.03	51248.37
522.20	51592.43
522.38	51615.83
522.55	51351.35
522.72	51669.67
522.89	51360.72
523.07	52144.80
523.24	51686.05
523.41	51973.94
523.58	51356.03
523.75	51894.36
523.92	51728.18
524.10	52030.11
524.27	52062.88
524.44	52100.32
524.61	52465.45
524.78	52224.37
524.96	52477.15
525.13	52310.97
525.30	52376.51
525.47	52800.15
525.64	52617.58
525.81	52942.92
525.98	52861.00
526.16	52774.40
526.33	52711.20
526.50	53284.64
526.67	52896.11
526.84	53130.16
527.01	52685.46
527.18	53081.01
527.36	53291.66
527.53	53441.45
527.70	53404.00
527.87	53338.47
528.04	53284.64
528.21	53511.67
528.38	53530.39
528.55	53668.48
528.72	53542.10
528.89	53736.36
529.07	53558.48
529.24	53432.09
529.41	54003.18
529.58	53888.49
529.75	53820.62
529.92	53787.85
530.09	53965.73
530.26	54010.20
530.43	54047.65
530.60	54049.99
530.77	54099.14
530.94	54073.40
531.11	54279.36
531.28	54199.79
531.46	54284.04
531.63	54152.97
531.80	54124.89
531.97	54635.13
532.14	54457.24
532.31	54391.71
532.48	54672.57
532.65	54801.30
532.82	54602.36
532.99	54885.56
533.16	54501.71
533.33	54901.95
533.50	54911.31
533.67	54731.09
533.84	54698.32
534.01	55035.36
534.18	55175.79
534.35	55341.97
534.52	55262.39
534.69	55278.77
534.86	55545.59
535.03	55040.04
535.20	55433.25
535.37	55412.18
535.54	55648.58
535.71	55543.25
535.88	55444.95
536.05	55800.71
536.22	55613.47
536.38	55412.18
536.55	55536.23
536.72	55552.62
536.89	55625.17
537.06	55742.20
537.23	55763.26
537.40	56030.08
537.57	55594.74
537.74	55686.03
537.91	55924.76
538.08	56133.07
538.25	55735.18
538.42	56112.00
538.59	56313.29
538.75	56051.15
538.92	56205.62
539.09	56126.05
539.26	56130.73
539.43	56137.75
539.60	56346.06
539.77	56413.93
539.94	56624.58
540.11	56591.81
540.28	56460.74
540.44	56512.23
540.61	56615.22
540.78	56619.90
540.95	56432.66
541.12	56636.28
541.29	56566.07
541.46	56701.82
541.62	56765.01
541.79	56694.80
541.96	56624.58
542.13	56879.70
542.30	56708.84
542.47	57132.48
542.63	56994.39
542.80	57148.86
542.97	57111.41
543.14	57382.91
543.31	57029.49
543.48	57392.28
543.64	57586.54
543.81	57455.47
543.98	57434.41
544.15	57301.00
544.32	57656.76
544.48	57794.85
544.65	57289.29
544.82	57542.07
544.99	57565.48
545.16	57408.66
545.32	57677.82
545.49	57846.34
545.66	57619.31
545.83	57741.02
546.00	57879.11
546.16	57841.66
546.33	57888.47
546.50	57773.78
546.67	57762.08
546.83	57602.92
547.00	57811.23
547.17	58038.26
547.34	57797.19
547.50	58171.67
547.67	58213.80
547.84	57970.39
548.00	58082.73
548.17	58248.91
548.34	57897.83
548.51	58300.40
548.67	58274.66
548.84	58192.74
549.01	58272.32
549.18	58454.88
549.34	58216.14
549.51	58298.06
549.68	58321.47
549.84	58546.16
550.01	58569.57
550.18	58417.43
550.34	58351.90
550.51	58590.63
550.68	58422.11
550.84	58405.73
551.01	58766.17
551.18	58632.76
551.34	58705.32
551.51	58784.90
551.68	58646.80
551.84	58578.93
552.01	58564.88
552.18	58759.15
552.34	58410.41
552.51	58855.11
552.68	58738.08
552.84	58871.49
553.01	58990.86
553.18	58948.73
553.34	59290.45
553.51	58843.41
553.67	58955.75
553.84	59056.40
554.01	59037.67
554.17	58965.12
554.34	59157.04
554.51	58827.02
554.67	59245.98
554.84	59210.87
555.00	59114.91
555.17	59135.98
555.33	59077.46
555.50	59119.59
555.67	58901.92
555.83	59077.46
556.00	59348.96
556.16	59402.80
556.33	59386.41
556.50	59278.75
556.66	59409.82
556.83	59157.04
556.99	59498.76
557.16	59620.47
557.32	59547.91
557.49	59608.76
557.65	59285.77
557.82	59494.08
557.98	59311.52
558.15	59625.15
558.32	59686.00
558.48	59327.90
558.65	59554.93
558.81	59594.72
558.98	59660.26
559.14	59828.77
559.31	59777.28
559.47	59796.01
559.64	59697.70
559.80	59711.75
559.97	59922.40
560.13	59627.49
560.30	59487.06
560.46	59896.65
560.63	60079.21
560.79	59807.71
560.96	59875.58
561.12	59868.56
561.29	59903.67
561.45	60079.21
561.61	59842.82
561.78	59906.01
561.94	59877.93
562.11	59870.90
562.27	59840.48
562.44	59910.69
562.60	59985.59
562.77	60186.88
562.93	59877.93
563.10	60156.45
563.26	60018.36
563.42	60465.40
563.59	60198.58
563.75	60053.47
563.92	60044.10
564.08	60238.37
564.24	60224.32
564.41	60289.86
564.57	60104.96
564.74	60257.09
564.90	60207.94
565.07	60229.01
565.23	60154.11
565.39	60170.49
565.56	60254.75
565.72	60299.22
565.88	60034.74
566.05	60126.02
566.21	60374.12
566.38	60411.57
566.54	60406.89
566.70	60315.61
566.87	60238.37
567.03	60346.03
567.19	60544.98
567.36	60383.48
567.52	60348.37
567.68	60706.47
567.85	60369.44
568.01	60598.81
568.17	60589.45
568.34	60430.29
568.50	60369.44
568.66	60484.12
568.83	60425.61
568.99	60364.76
569.15	60425.61
569.32	60523.91
569.48	60434.97
569.64	60750.94
569.81	60573.06
569.97	60341.35
570.13	60687.75
570.30	60552.00
570.46	60481.78
570.62	60736.90
570.78	60697.11
570.95	60575.40
571.11	60598.81
571.27	60432.63
571.43	60669.03
571.60	60678.39
571.76	60664.35
571.92	60617.53
572.09	60706.47
572.25	60589.45
572.41	60718.18
572.57	60767.33
572.74	60872.65
572.90	60498.17
573.06	60821.16
573.22	60837.54
573.38	60734.56
573.55	60893.72
573.71	61120.75
573.87	60863.29
574.03	60425.61
574.20	60851.59
574.36	60631.58
574.52	60811.80
574.68	60818.82
574.84	60968.61
575.01	61078.62
575.17	60772.01
575.33	60701.79
575.49	60762.65
575.65	60687.75
575.82	60877.33
575.98	60952.23
576.14	61279.91
576.30	60980.32
576.46	60968.61
576.62	60837.54
576.79	60970.96
576.95	60629.24
577.11	60743.92
577.27	60905.42
577.43	60968.61
577.59	60662.00
577.75	60846.91
577.92	60580.09
578.08	60952.23
578.24	61008.40
578.40	60987.34
578.56	61111.39
578.72	60891.38
578.88	61113.73
579.04	61048.19
579.21	61013.08
579.37	60985.00
579.53	61162.88
579.69	60748.60
579.85	60905.42
580.01	60860.95
580.17	60865.63
580.33	60992.02
580.49	61186.28
580.65	61017.77
580.82	61116.07
580.98	61057.56
581.14	61078.62
581.30	61038.83
581.46	61130.11
581.62	61097.34
581.78	60914.78
581.94	60933.51
582.10	60975.64
582.26	60966.27
582.42	60942.87
582.58	61109.05
582.74	61106.71
582.90	60975.64
583.06	61020.11
583.22	60835.20
583.38	61172.24
583.54	60863.29
583.70	61015.43
583.86	61087.98
584.02	60877.33
584.18	61378.21
584.34	61254.16
584.50	60994.36
584.66	60977.98
584.82	60940.53
584.98	61244.80
585.14	61254.16
585.30	61024.79
585.46	61097.34
585.62	61071.60
585.78	61235.44
585.94	60914.78
586.10	60947.55
586.26	60900.74
586.42	61059.90
586.58	60963.93
586.74	61130.11
586.90	60921.80
587.06	61123.09
587.22	61242.46
587.38	61197.99
587.54	61052.87
587.70	61221.39
587.86	61066.92
588.02	60952.23
588.18	61354.80
588.34	60985.00
