SpectraSuite Data File
++++++++++++++++++++++++++++++++++++
Date: Fri Oct 25 11:33:26 EDT 2013
User: price-jones
Dark Spectrum Present: No
Reference Spectrum Present: No
Number of Sampled Component Spectra: 1
Spectrometers: USB2+H05261
Integration Time (usec): 100000 (USB2+H05261)
Spectra Averaged: 1 (USB2+H05261)
Boxcar Smoothing: 0 (USB2+H05261)
Correct for Electrical Dark: No (USB2+H05261)
Strobe/Lamp Enabled: No (USB2+H05261)
Correct for Detector Non-linearity: No (USB2+H05261)
Correct for Stray Light: No (USB2+H05261)
Number of Pixels in Processed Spectrum: 2048
>>>>>Begin Processed Spectral Data<<<<<
365.73	266.82
365.92	266.82
366.12	266.82
366.32	215.33
366.52	201.29
366.72	227.03
366.91	145.11
367.11	184.90
367.31	147.45
367.51	220.01
367.70	224.69
367.90	252.78
368.10	138.09
368.30	175.54
368.49	140.43
368.69	154.48
368.89	142.77
369.09	243.42
369.28	133.41
369.48	166.18
369.68	248.10
369.87	212.99
370.07	212.99
370.27	266.82
370.47	330.02
370.66	519.60
370.86	592.16
371.06	540.66
371.25	603.86
371.45	557.05
371.65	517.26
371.84	550.03
372.04	608.54
372.24	648.33
372.44	596.84
372.63	627.26
372.83	641.31
373.03	610.88
373.22	594.50
373.42	559.39
373.62	606.20
373.81	662.37
374.01	641.31
374.21	624.92
374.40	657.69
374.60	671.73
374.79	615.56
374.99	650.67
375.19	634.29
375.38	664.71
375.58	669.39
375.78	636.63
375.97	627.26
376.17	699.82
376.37	685.78
376.56	702.16
376.76	641.31
376.95	676.41
377.15	725.57
377.35	706.84
377.54	608.54
377.74	699.82
377.93	627.26
378.13	681.10
378.33	683.44
378.52	671.73
378.72	636.63
378.91	753.65
379.11	725.57
379.31	702.16
379.50	622.58
379.70	667.05
379.89	748.97
380.09	739.61
380.28	763.01
380.48	786.42
380.68	763.01
380.87	711.52
381.07	786.42
381.26	823.87
381.46	697.48
381.65	739.61
381.85	751.31
382.04	779.40
382.24	807.48
382.43	788.76
382.63	821.53
382.83	758.33
383.02	800.46
383.22	798.12
383.41	828.55
383.61	800.46
383.80	842.59
384.00	847.27
384.19	828.55
384.39	791.10
384.58	753.65
384.78	781.74
384.97	866.00
385.17	851.96
385.36	826.21
385.56	821.53
385.75	891.74
385.95	798.12
386.14	807.48
386.34	821.53
386.53	798.12
386.72	915.15
386.92	875.36
387.11	868.34
387.31	894.08
387.50	898.77
387.70	917.49
387.89	868.34
388.09	952.60
388.28	924.51
388.48	842.59
388.67	973.66
388.86	903.45
389.06	990.05
389.25	922.17
389.45	912.81
389.64	952.60
389.84	950.26
390.03	1011.11
390.22	1102.39
390.42	903.45
390.61	992.39
390.81	945.58
391.00	947.92
391.19	994.73
391.39	1013.45
391.58	1011.11
391.78	1013.45
391.97	1006.43
392.16	1006.43
392.36	1128.14
392.55	1081.33
392.75	1048.56
392.94	997.07
393.13	1053.24
393.33	1097.71
393.52	1100.05
393.71	1090.69
393.91	1090.69
394.10	1022.81
394.29	1039.20
394.49	1036.86
394.68	1095.37
394.88	1116.44
395.07	1174.95
395.26	1118.78
395.46	1193.67
395.65	1198.35
395.84	1249.85
396.04	1240.48
396.23	1177.29
396.42	1174.95
396.62	1228.78
396.81	1355.17
397.00	1196.01
397.19	1252.19
397.39	1231.12
397.58	1256.87
397.77	1193.67
397.97	1301.34
398.16	1217.08
398.35	1259.21
398.55	1252.19
398.74	1219.42
398.93	1284.95
399.12	1291.98
399.32	1327.08
399.51	1409.00
399.70	1385.60
399.90	1425.39
400.09	1334.11
400.28	1416.02
400.47	1359.85
400.67	1364.53
400.86	1352.83
401.05	1460.49
401.24	1394.96
401.44	1411.34
401.63	1404.32
401.82	1364.53
402.01	1390.28
402.21	1401.98
402.40	1474.54
402.59	1509.65
402.78	1504.96
402.97	1565.82
403.17	1460.49
403.36	1577.52
403.55	1591.56
403.74	1645.40
403.93	1732.00
404.13	1633.69
404.32	1629.01
404.51	1661.78
404.70	1614.97
404.89	1650.08
405.09	1633.69
405.28	1652.42
405.47	1706.25
405.66	1708.59
405.85	1636.03
406.05	1687.53
406.24	1724.97
406.43	1827.96
406.62	1724.97
406.81	1788.17
407.00	1720.29
407.20	1675.82
407.39	1799.87
407.58	1856.04
407.77	1874.77
407.96	1816.26
408.15	1977.75
408.34	1832.64
408.54	1891.15
408.73	2031.58
408.92	1877.11
409.11	2036.27
409.30	1996.48
409.49	1959.03
409.68	2059.67
409.87	2054.99
410.07	1975.41
410.26	2108.82
410.45	2113.50
410.64	2143.93
410.83	2146.27
411.02	2106.48
411.21	2174.36
411.40	2148.61
411.59	2277.34
411.78	2258.62
411.98	2160.31
412.17	2172.02
412.36	2298.41
412.55	2319.47
412.74	2375.64
412.93	2413.09
413.12	2260.96
413.31	2480.97
413.50	2237.55
413.69	2434.16
413.88	2422.45
414.07	2509.05
414.26	2499.69
414.45	2511.39
414.64	2502.03
414.83	2544.16
415.02	2576.93
415.22	2574.59
415.41	2609.70
415.60	2665.87
415.79	2759.49
415.98	2738.43
416.17	2729.06
416.36	2740.77
416.55	2787.58
416.74	2867.16
416.93	2820.35
417.12	2839.07
417.31	2916.31
417.50	2860.13
417.69	2984.18
417.88	2937.37
418.07	2963.12
418.26	2920.99
418.45	2930.35
418.64	3009.93
418.83	3136.32
419.02	3133.98
419.21	3152.70
419.39	3117.59
419.58	3103.55
419.77	3103.55
419.96	3218.24
420.15	3206.53
420.34	3213.56
420.53	3162.06
420.72	3269.73
420.91	3197.17
421.10	3286.11
421.29	3375.05
421.48	3241.64
421.67	3309.52
421.86	3222.92
422.05	3421.86
422.24	3302.50
422.43	3461.65
422.61	3382.07
422.80	3421.86
422.99	3433.57
423.18	3489.74
423.37	3391.44
423.56	3342.28
423.75	3389.10
423.94	3260.37
424.13	3185.47
424.32	3283.77
424.50	3428.88
424.69	3524.85
424.88	3604.42
425.07	3550.59
425.26	3398.46
425.45	3494.42
425.64	3461.65
425.83	3449.95
426.01	3403.14
426.20	3538.89
426.39	3489.74
426.58	3487.40
426.77	3414.84
426.96	3672.30
427.15	3574.00
427.33	3543.57
427.52	3508.46
427.71	3583.36
427.90	3665.28
428.09	3648.90
428.28	3620.81
428.46	3808.05
428.65	3524.85
428.84	3749.54
429.03	3871.25
429.22	3674.64
429.40	3597.40
429.59	3763.58
429.78	3686.34
429.97	3763.58
430.16	3927.42
430.34	3929.76
430.53	3922.74
430.72	3887.63
430.91	3871.25
431.10	3908.69
431.28	3976.57
431.47	3939.12
431.66	3995.29
431.85	3943.80
432.03	3999.98
432.22	4042.11
432.41	4018.70
432.60	4046.79
432.79	4074.87
432.97	4182.54
433.16	4212.96
433.35	4124.02
433.54	4177.86
433.72	4166.15
433.91	4250.41
434.10	4107.64
434.28	4215.30
434.47	4208.28
434.66	4334.67
434.85	4248.07
435.03	4311.27
435.22	4301.90
435.41	4493.83
435.59	4407.23
435.78	4496.17
435.97	4435.32
436.16	4360.42
436.34	4493.83
436.53	4531.28
436.72	4526.60
436.90	4472.76
437.09	4507.87
437.28	4524.26
437.46	4484.47
437.65	4528.94
437.84	4627.24
438.02	4650.64
438.21	4938.53
438.40	4615.54
438.58	4873.00
438.77	4983.00
438.96	4751.29
439.14	4880.02
439.33	4926.83
439.52	4814.48
439.70	4809.80
439.89	5076.62
440.08	4957.25
440.26	4992.36
440.45	5102.37
440.63	5158.54
440.82	5238.12
441.01	5055.56
441.19	5252.16
441.38	5163.22
441.57	5317.70
441.75	5266.21
441.94	5420.68
442.12	5376.21
442.31	5408.98
442.50	5490.90
442.68	5364.51
442.87	5509.62
443.05	5462.81
443.24	5549.41
443.43	5490.90
443.61	5673.46
443.80	5650.05
443.98	5488.56
444.17	5245.14
444.35	5547.07
444.54	5776.44
444.73	5682.82
444.91	5703.89
445.10	5568.13
445.28	5490.90
445.47	5659.42
445.65	5834.96
445.84	5846.66
446.02	5750.70
446.21	5631.33
446.39	5760.06
446.58	5816.23
446.77	5685.16
446.95	5589.20
447.14	5771.76
447.32	5830.27
447.51	5755.38
447.69	5769.42
447.88	5724.95
448.06	5757.72
448.25	5717.93
448.43	5891.13
448.62	5923.90
448.80	5926.24
448.99	6061.99
449.17	5746.02
449.36	5706.23
449.54	5935.60
449.73	6090.07
449.91	6113.48
450.10	6047.94
450.28	6083.05
450.46	6296.04
450.65	6031.56
450.83	6277.32
451.02	6214.12
451.20	6221.14
451.39	6340.51
451.57	6200.08
451.76	6200.08
451.94	6258.59
452.13	6298.38
452.31	6375.62
452.49	6134.54
452.68	6317.11
452.86	6445.84
453.05	6506.69
453.23	6569.88
453.42	6356.90
453.60	6392.00
453.78	6436.47
453.97	6504.35
454.15	6349.87
454.34	6480.94
454.52	6588.61
454.70	6651.80
454.89	6607.33
455.07	6689.25
455.26	6626.06
455.44	6817.98
455.62	6672.87
455.81	6717.34
455.99	6876.49
456.17	6775.85
456.36	6867.13
456.54	6890.54
456.73	6853.09
456.91	7009.90
457.09	7101.19
457.28	7052.03
457.46	6963.09
457.64	7091.82
457.83	7117.57
458.01	7087.14
458.19	7246.30
458.38	7045.01
458.56	7342.26
458.74	7199.49
458.93	7073.10
459.11	7286.09
459.29	7290.77
459.48	7246.30
459.66	7276.73
459.84	7358.64
460.03	7667.60
460.21	7449.93
460.39	7328.22
460.57	7468.65
460.76	7440.56
460.94	7433.54
461.12	7585.68
461.31	7440.56
461.49	7527.16
461.67	7342.26
461.85	7791.64
462.04	7623.12
462.22	8002.29
462.40	7772.92
462.59	7871.22
462.77	7744.83
462.95	7908.67
463.13	7878.24
463.32	7845.48
463.50	7742.49
463.68	7843.14
463.86	8037.40
464.05	8025.70
464.23	7793.98
464.41	8262.09
464.59	8063.15
464.78	8196.56
464.96	8072.51
465.14	7742.49
465.32	7943.78
465.50	8299.54
465.69	8257.41
465.87	8212.94
466.05	8051.44
466.23	8215.28
466.41	8236.35
466.60	8524.23
466.78	8201.24
466.96	8175.49
467.14	8283.16
467.32	8421.25
467.51	8297.20
467.69	8051.44
467.87	8262.09
468.05	8500.83
468.23	8238.69
468.41	8430.61
468.60	8629.56
468.78	8470.40
468.96	8493.80
469.14	8627.21
469.32	8769.99
469.50	8454.02
469.69	8807.44
469.87	8718.50
470.05	8683.39
470.23	8849.57
470.41	8746.58
470.59	9069.58
470.77	8901.06
470.95	8898.72
471.14	9114.05
471.32	8784.03
471.50	9172.56
471.68	9043.83
471.86	9179.58
472.04	9214.69
472.22	9135.11
472.40	9123.41
472.58	9308.31
472.77	9439.38
472.95	9558.75
473.13	9628.96
473.31	9280.22
473.49	9305.97
473.67	9275.54
473.85	9394.91
474.03	9762.37
474.21	9907.49
474.39	10026.86
474.57	9760.03
474.75	9886.42
474.93	10026.86
475.12	9968.34
475.30	9973.02
475.48	9973.02
475.66	9996.43
475.84	10249.21
476.02	10279.63
476.20	10178.99
476.38	10413.04
476.56	10649.44
476.74	10768.80
476.92	10464.54
477.10	10616.67
477.28	10789.87
477.46	10670.50
477.64	10869.45
477.82	11073.07
478.00	11463.94
478.18	11154.99
478.36	11485.01
478.54	11403.09
478.72	11314.15
478.90	11293.08
479.08	11683.95
479.26	11726.08
479.44	11749.49
479.62	11679.27
479.80	11777.58
479.98	12353.35
480.16	12400.16
480.34	12353.35
480.52	12327.60
480.70	12313.56
480.88	12142.70
481.06	12386.12
481.24	12585.06
481.41	12512.50
481.59	12896.35
481.77	12933.80
481.95	12924.44
482.13	13004.02
482.31	13076.57
482.49	13626.60
482.67	13380.84
482.85	13633.62
483.03	13516.59
483.21	13884.06
483.39	13853.63
483.57	13942.57
483.74	14157.90
483.92	14120.45
484.10	13987.04
484.28	14317.06
484.46	14513.66
484.64	14696.22
484.82	14504.30
485.00	14831.97
485.18	14941.98
485.35	15272.00
485.53	15019.22
485.71	14981.77
485.89	15585.63
486.07	15489.67
486.25	15461.58
486.43	15613.71
486.61	15566.90
486.78	16123.95
486.96	15983.52
487.14	16145.02
487.32	16093.52
487.50	16339.28
487.68	16538.23
487.85	16678.66
488.03	16685.68
488.21	16996.97
488.39	17181.87
488.57	17139.74
488.75	17205.28
488.92	17610.19
489.10	17647.64
489.28	17907.44
489.46	18136.81
489.64	17514.23
489.81	18361.50
489.99	18356.82
490.17	18155.54
490.35	18534.70
490.53	18780.46
490.70	18867.06
490.88	18478.53
491.06	19197.07
491.24	19016.85
491.41	19178.35
491.59	19531.77
491.77	19623.05
491.95	19761.14
492.13	19985.83
492.30	19946.05
492.48	19892.21
492.66	20135.63
492.84	19632.41
493.01	20381.38
493.19	19995.20
493.37	20641.18
493.54	20673.95
493.72	20620.12
493.90	20620.12
494.08	20975.88
494.25	21132.70
494.43	21413.56
494.61	21135.04
494.79	21312.92
494.96	21507.18
495.14	21668.68
495.32	21909.75
495.49	21720.17
495.67	22256.15
495.85	21947.20
496.02	22401.27
496.20	22368.50
496.38	22682.13
496.55	22534.68
496.73	23140.88
496.91	22719.58
497.09	23037.89
497.26	23152.58
497.44	22909.16
497.62	23365.57
497.79	23510.68
497.97	23592.60
498.14	23789.20
498.32	23681.54
498.50	23978.79
498.67	24016.24
498.85	23927.30
499.03	24072.41
499.20	24383.70
499.38	24196.46
499.56	24133.26
499.73	24706.70
499.91	24814.36
500.08	24716.06
500.26	24725.42
500.44	24900.96
500.61	24964.15
500.79	25106.93
500.97	25151.40
501.14	25563.33
501.32	25813.77
501.49	25525.88
501.67	25507.16
501.84	25809.09
502.02	25654.61
502.20	25678.02
502.37	26209.32
502.55	25905.05
502.72	26405.92
502.90	26015.05
503.07	25991.65
503.25	26239.75
503.43	26321.66
503.60	26747.64
503.78	26808.50
503.95	26801.47
504.13	26567.42
504.30	26668.06
504.48	26948.93
504.65	27194.68
504.83	27225.11
505.01	27225.11
505.18	27105.74
505.36	27873.44
505.53	27489.59
505.71	27686.20
505.88	27711.94
506.06	27679.18
506.23	27978.76
506.41	27505.98
506.58	27941.32
506.76	28034.94
506.93	28325.16
507.11	27995.15
507.28	28404.74
507.46	28568.58
507.63	28456.23
507.81	28631.77
507.98	28208.14
508.16	28381.34
508.33	28814.34
508.50	28734.76
508.68	28985.19
508.85	28896.25
509.03	29244.99
509.20	28879.87
509.38	29593.73
509.55	29638.20
509.73	29591.39
509.90	29797.36
510.08	29668.63
510.25	29673.31
510.42	30382.49
510.60	29951.84
510.77	30260.79
510.95	30279.51
511.12	30003.33
511.30	29780.98
511.47	30464.41
511.64	30478.46
511.82	30445.69
511.99	30328.66
512.17	30712.51
512.34	30733.57
512.51	30841.24
512.69	31283.60
512.86	30827.20
513.04	31246.15
513.21	31307.01
513.38	31274.24
513.56	31463.82
513.73	30506.54
513.90	31555.10
514.08	31072.95
514.25	31555.10
514.43	31522.34
514.60	31913.20
514.77	31587.87
514.95	31931.93
515.12	31695.53
515.29	31744.69
515.47	31964.70
515.64	32271.31
515.81	31985.76
515.99	32189.39
516.16	32849.42
516.33	32411.74
516.51	32783.88
516.68	32692.60
516.85	32620.05
517.03	33174.75
517.20	33083.47
517.37	32847.08
517.54	32924.32
517.72	33357.32
517.89	33216.88
518.06	33259.01
518.24	33228.59
518.41	33001.55
518.58	33123.26
518.75	33488.38
518.93	33706.05
519.10	33347.95
519.27	33689.67
519.45	33855.85
519.62	34143.74
519.79	34029.05
519.96	33617.11
520.14	33979.90
520.31	33755.21
520.48	34022.03
520.65	34340.34
520.83	34466.73
521.00	34852.92
521.17	34810.79
521.34	34820.15
521.52	34747.59
521.69	34548.65
521.86	34855.26
522.03	34588.44
522.20	35030.80
522.38	35346.77
522.55	35337.41
522.72	35124.42
522.89	35337.41
523.07	35812.54
523.24	35601.89
523.41	35646.36
523.58	35662.74
523.75	35871.05
523.92	35557.42
524.10	35646.36
524.27	36034.89
524.44	35253.15
524.61	35997.44
524.78	36098.08
524.96	36219.79
525.13	36503.00
525.30	36589.59
525.47	36545.12
525.64	36294.69
525.81	36610.66
525.98	36320.43
526.16	36549.81
526.33	36598.96
526.50	36804.92
526.67	36519.38
526.84	36636.41
527.01	36664.49
527.18	36744.07
527.36	36992.17
527.53	36978.12
527.70	37270.69
527.87	37464.96
528.04	37357.29
528.21	37251.97
528.38	37041.32
528.55	37745.82
528.72	37785.61
528.89	37521.13
529.07	37345.59
529.24	37553.90
529.41	37624.11
529.58	37481.34
529.75	37860.51
529.92	37900.29
530.09	37778.59
530.26	37888.59
530.43	38003.28
530.60	37982.21
530.77	37989.24
530.94	38242.01
531.11	38052.43
531.28	38092.22
531.46	38450.32
531.63	38686.71
531.80	38237.33
531.97	38831.83
532.14	38639.90
532.31	38529.90
532.48	39068.22
532.65	39000.35
532.82	38412.87
532.99	39000.35
533.16	38876.30
533.33	39349.09
533.50	39070.56
533.67	39318.66
533.84	38618.84
534.01	39313.98
534.18	39168.87
534.35	39580.80
534.52	39428.66
534.69	39957.63
534.86	39342.06
535.03	39304.62
535.20	39573.78
535.37	39660.38
535.54	39529.31
535.71	39608.89
535.88	39962.31
536.05	39489.52
536.22	39931.88
536.38	39866.34
536.55	39613.57
536.72	39695.49
536.89	40039.54
537.06	40067.63
537.23	40133.17
537.40	40084.01
537.57	39938.90
537.74	39812.51
537.91	39892.09
538.08	40662.13
538.25	39901.45
538.42	40547.44
538.59	40891.50
538.75	40847.03
538.92	40905.54
539.09	40945.33
539.26	40746.39
539.43	40825.96
539.60	40816.60
539.77	40718.30
539.94	41144.28
540.11	40844.69
540.28	41013.21
540.44	40783.83
540.61	40942.99
540.78	41219.17
540.95	41364.29
541.12	41345.56
541.29	41038.95
541.46	41390.03
541.62	41521.10
541.79	41453.23
541.96	41209.81
542.13	41666.22
542.30	41186.41
542.47	41418.12
542.63	41741.11
542.80	41469.61
542.97	41986.87
543.14	41876.86
543.31	41794.95
543.48	42080.49
543.64	42639.88
543.81	42527.53
543.98	42265.39
544.15	42328.59
544.32	42431.57
544.48	42796.70
544.65	42689.03
544.82	42529.87
544.99	42623.50
545.16	42314.55
545.32	42480.72
545.49	42895.00
545.66	43278.85
545.83	42745.20
546.00	42990.96
546.16	42850.53
546.33	42918.40
546.50	42799.04
546.67	43033.09
546.83	42462.00
547.00	42815.42
547.17	42995.64
547.34	42693.71
547.50	43339.70
547.67	43222.67
547.84	43033.09
548.00	44009.09
548.17	43569.07
548.34	43379.49
548.51	43847.60
548.67	43332.68
548.84	43239.06
549.01	43744.61
549.18	43358.42
549.34	43636.95
549.51	43597.16
549.68	43842.92
549.84	43676.74
550.01	43655.67
550.18	43576.09
550.34	43730.57
550.51	44002.07
550.68	43777.38
550.84	43475.45
551.01	44147.18
551.18	43859.30
551.34	43969.30
551.51	44156.55
551.68	43957.60
551.84	44149.53
552.01	43934.20
552.18	44039.52
552.34	43761.00
552.51	44339.11
552.68	43693.12
552.84	44465.50
553.01	44470.18
553.18	44315.70
553.34	44634.02
553.51	44254.85
553.67	44334.43
553.84	44926.58
554.01	44753.38
554.17	44673.81
554.34	44692.53
554.51	44839.98
554.67	45027.23
554.84	44781.47
555.00	44891.48
555.17	44725.30
555.33	45069.36
555.50	44739.34
555.67	45113.83
555.83	44863.39
556.00	45130.21
556.16	45467.25
556.33	45244.90
556.50	44861.05
556.66	45670.87
556.83	44884.45
556.99	45624.06
557.16	45645.13
557.32	45762.15
557.49	45516.40
557.65	44940.63
557.82	45785.56
557.98	45244.90
558.15	45628.74
558.32	45500.01
558.48	45158.30
558.65	45125.53
558.81	45448.52
558.98	45668.53
559.14	45102.12
559.31	45422.78
559.47	45591.30
559.64	45467.25
559.80	45738.75
559.97	45584.27
560.13	45397.03
560.30	45862.80
560.46	45500.01
560.63	45638.11
560.79	45759.81
560.96	45895.56
561.12	45682.58
561.29	46204.52
561.45	46007.91
561.61	45911.95
561.78	45537.46
561.94	45729.39
562.11	45801.94
562.27	46138.98
562.44	46337.93
562.60	46073.45
562.77	45986.85
562.93	46068.76
563.10	46546.23
563.26	46127.28
563.42	46487.72
563.59	45670.87
563.75	46021.95
563.92	45811.31
564.08	46148.34
564.24	46415.16
564.41	46178.77
564.57	46143.66
564.74	46253.67
564.90	46101.53
565.07	46225.58
565.23	46202.18
565.39	46260.69
565.56	46433.89
565.72	46333.24
565.88	46473.68
566.05	46253.67
566.21	46443.25
566.38	46663.26
566.54	46770.93
566.70	47002.64
566.87	46445.59
567.03	46192.81
567.19	46398.78
567.36	46209.20
567.52	46827.10
567.68	46735.82
567.85	46791.99
568.01	47035.41
568.17	46806.03
568.34	46848.16
568.50	46880.93
568.66	46527.51
568.83	46721.77
568.99	46831.78
569.15	46866.89
569.32	46707.73
569.48	46398.78
569.64	47098.60
569.81	47063.49
569.97	46604.75
570.13	47192.22
570.30	46270.05
570.46	46916.04
570.62	47061.15
570.78	47145.41
570.95	46829.44
571.11	46794.33
571.27	47150.09
571.43	46770.93
571.60	47210.95
571.76	46319.20
571.92	46775.61
572.09	46756.88
572.25	47061.15
572.41	46543.89
572.57	47519.90
572.74	47653.31
572.90	47203.92
573.06	47480.11
573.22	47482.45
573.38	47634.58
573.55	46993.28
573.71	47660.33
573.87	47477.77
574.03	47384.15
574.20	47618.20
574.36	47470.75
574.52	47386.49
574.68	47145.41
574.84	47372.44
575.01	47409.89
575.17	47419.25
575.33	47421.59
575.49	47131.37
575.65	47473.09
575.82	47260.10
575.98	47100.94
576.14	47517.56
576.30	47449.68
576.46	47192.22
576.62	47122.01
576.79	47255.42
576.95	47103.28
577.11	47047.11
577.27	47311.59
577.43	47374.78
577.59	47423.93
577.75	47271.80
577.92	47047.11
578.08	47124.35
578.24	47426.28
578.40	47714.16
578.56	47456.70
578.72	47452.02
578.88	47344.36
579.04	47405.21
579.21	47421.59
579.37	47770.33
579.53	47445.00
579.69	47615.86
579.85	47594.79
580.01	47395.85
580.17	47299.89
580.33	47278.82
580.49	47501.17
580.65	47608.84
580.82	47580.75
580.98	47166.48
581.14	47227.33
581.30	47672.03
581.46	47510.53
581.62	47454.36
581.78	47112.64
581.94	47421.59
582.10	47765.65
582.26	47800.76
582.42	47246.05
582.58	47679.05
582.74	47414.57
582.90	47407.55
583.06	47849.91
583.22	47564.37
583.38	47203.92
583.54	47379.46
583.70	47662.67
583.86	47852.25
584.02	47674.37
584.18	48236.10
584.34	47969.28
584.50	47379.46
584.66	48072.26
584.82	47957.58
584.98	48233.76
585.14	47913.11
585.30	47255.42
585.46	47791.40
585.62	47592.45
585.78	47852.25
585.94	47445.00
586.10	47615.86
586.26	47765.65
586.42	47524.58
586.58	47835.87
586.74	47367.76
586.90	47643.94
587.06	47318.61
587.22	47913.11
587.38	47562.03
587.54	47840.55
587.70	47744.59
587.86	47037.75
588.02	47861.61
588.18	48002.05
588.34	47690.76
588.49	47765.65
588.65	47487.13
588.81	47655.65
588.97	47973.96
589.13	47433.30
589.29	47519.90
589.45	47725.86
589.61	47669.69
589.77	48109.71
589.93	48144.82
590.08	48090.99
