SpectraSuite Data File
++++++++++++++++++++++++++++++++++++
Date: Fri Oct 25 11:33:33 EDT 2013
User: price-jones
Dark Spectrum Present: No
Reference Spectrum Present: No
Number of Sampled Component Spectra: 1
Spectrometers: USB2+H05261
Integration Time (usec): 100000 (USB2+H05261)
Spectra Averaged: 1 (USB2+H05261)
Boxcar Smoothing: 0 (USB2+H05261)
Correct for Electrical Dark: No (USB2+H05261)
Strobe/Lamp Enabled: No (USB2+H05261)
Correct for Detector Non-linearity: No (USB2+H05261)
Correct for Stray Light: No (USB2+H05261)
Number of Pixels in Processed Spectrum: 2048
>>>>>Begin Processed Spectral Data<<<<<
365.73	306.61
365.92	306.61
366.12	306.61
366.32	159.16
366.52	198.95
366.72	264.48
366.91	241.08
367.11	189.58
367.31	173.20
367.51	215.33
367.70	131.07
367.90	180.22
368.10	140.43
368.30	196.60
368.49	184.90
368.69	224.69
368.89	198.95
369.09	196.60
369.28	297.25
369.48	222.35
369.68	262.14
369.87	285.55
370.07	304.27
370.27	337.04
370.47	383.85
370.66	411.93
370.86	512.58
371.06	510.24
371.25	589.82
371.45	528.96
371.65	589.82
371.84	514.92
372.04	528.96
372.24	622.58
372.44	589.82
372.63	589.82
372.83	655.35
373.03	538.32
373.22	610.88
373.42	610.88
373.62	641.31
373.81	643.65
374.01	571.09
374.21	620.24
374.40	627.26
374.60	732.59
374.79	737.27
374.99	641.31
375.19	702.16
375.38	650.67
375.58	709.18
375.78	638.97
375.97	613.22
376.17	741.95
376.37	664.71
376.56	730.25
376.76	660.03
376.95	660.03
377.15	692.80
377.35	610.88
377.54	734.93
377.74	690.46
377.93	674.07
378.13	695.14
378.33	723.23
378.52	753.65
378.72	711.52
378.91	685.78
379.11	702.16
379.31	711.52
379.50	725.57
379.70	760.67
379.89	713.86
380.09	765.36
380.28	713.86
380.48	800.46
380.68	723.23
380.87	770.04
381.07	704.50
381.26	812.17
381.46	800.46
381.65	781.74
381.85	713.86
382.04	711.52
382.24	786.42
382.43	772.38
382.63	763.01
382.83	746.63
383.02	786.42
383.22	819.19
383.41	748.97
383.61	774.72
383.80	816.85
384.00	748.97
384.19	812.17
384.39	844.93
384.58	802.80
384.78	866.00
384.97	805.14
385.17	821.53
385.36	861.32
385.56	863.66
385.75	837.91
385.95	851.96
386.14	856.64
386.34	800.46
386.53	915.15
386.72	816.85
386.92	880.04
387.11	880.04
387.31	887.06
387.50	940.90
387.70	966.64
387.89	929.19
388.09	891.74
388.28	952.60
388.48	1001.75
388.67	947.92
388.86	926.85
389.06	936.21
389.25	983.02
389.45	978.34
389.64	978.34
389.84	926.85
390.03	929.19
390.22	1088.35
390.42	952.60
390.61	1053.24
390.81	1015.79
391.00	1022.81
391.19	1048.56
391.39	1006.43
391.58	1039.20
391.78	1071.97
391.97	983.02
392.16	997.07
392.36	1029.84
392.55	1071.97
392.75	1057.92
392.94	1090.69
393.13	1088.35
393.33	1090.69
393.52	1020.47
393.71	1050.90
393.91	1095.37
394.10	1039.20
394.29	1074.31
394.49	1090.69
394.68	1111.75
394.88	1086.01
395.07	1142.18
395.26	1142.18
395.46	1146.86
395.65	1116.44
395.84	1210.06
396.04	1217.08
396.23	1153.88
396.42	1125.80
396.62	1219.42
396.81	1217.08
397.00	1181.97
397.19	1254.53
397.39	1188.99
397.58	1263.89
397.77	1217.08
397.97	1196.01
398.16	1249.85
398.35	1352.83
398.55	1256.87
398.74	1259.21
398.93	1205.38
399.12	1235.80
399.32	1383.26
399.51	1313.04
399.70	1259.21
399.90	1362.19
400.09	1277.93
400.28	1324.74
400.47	1350.49
400.67	1497.94
400.86	1364.53
401.05	1425.39
401.24	1369.21
401.44	1462.83
401.63	1439.43
401.82	1483.90
402.01	1362.19
402.21	1441.77
402.40	1483.90
402.59	1462.83
402.78	1427.73
402.97	1451.13
403.17	1500.28
403.36	1493.26
403.55	1572.84
403.74	1600.93
403.93	1579.86
404.13	1610.29
404.32	1579.86
404.51	1626.67
404.70	1638.38
404.89	1544.75
405.09	1673.48
405.28	1614.97
405.47	1682.85
405.66	1724.97
405.85	1633.69
406.05	1694.55
406.24	1762.42
406.43	1750.72
406.62	1797.53
406.81	1844.34
407.00	1809.23
407.20	1689.87
407.39	1664.12
407.58	1874.77
407.77	1820.94
407.96	1849.02
408.15	1907.54
408.34	1830.30
408.54	1933.28
408.73	1867.75
408.92	1879.45
409.11	1968.39
409.30	2047.97
409.49	1949.67
409.68	2104.14
409.87	2008.18
410.07	2059.67
410.26	1975.41
410.45	2071.37
410.64	1968.39
410.83	2211.81
411.02	2033.93
411.21	2246.91
411.40	2139.25
411.59	2087.76
411.78	2202.44
411.98	2195.42
412.17	2230.53
412.36	2258.62
412.55	2307.77
412.74	2366.28
412.93	2312.45
413.12	2260.96
413.31	2504.37
413.50	2342.88
413.69	2506.71
413.88	2408.41
414.07	2464.58
414.26	2502.03
414.45	2483.31
414.64	2520.76
414.83	2647.15
415.02	2595.65
415.22	2656.51
415.41	2595.65
415.60	2637.78
415.79	2703.32
415.98	2876.52
416.17	2705.66
416.36	2787.58
416.55	2857.79
416.74	2738.43
416.93	2925.67
417.12	2953.76
417.31	2796.94
417.50	2890.56
417.69	3000.57
417.88	2878.86
418.07	2967.80
418.26	2942.05
418.45	3068.44
418.64	3059.08
418.83	3157.38
419.02	3080.14
419.21	3047.38
419.39	3122.27
419.58	3026.31
419.77	2967.80
419.96	3143.34
420.15	3098.87
420.34	3066.10
420.53	3162.06
420.72	3253.34
420.91	3112.91
421.10	3150.36
421.29	3267.39
421.48	3234.62
421.67	3286.11
421.86	3302.50
422.05	3466.33
422.24	3283.77
422.43	3265.05
422.61	3344.63
422.80	3499.10
422.99	3370.37
423.18	3501.44
423.37	3475.70
423.56	3304.84
423.75	3372.71
423.94	3377.39
424.13	3222.92
424.32	3243.98
424.50	3356.33
424.69	3686.34
424.88	3597.40
425.07	3459.31
425.26	3403.14
425.45	3410.16
425.64	3478.04
425.83	3396.12
426.01	3449.95
426.20	3459.31
426.39	3599.74
426.58	3503.78
426.77	3550.59
426.96	3520.17
427.15	3566.98
427.33	3424.20
427.52	3496.76
427.71	3623.15
427.90	3709.75
428.09	3709.75
428.28	3714.43
428.46	3660.60
428.65	3651.24
428.84	3861.88
429.03	3810.39
429.22	3639.53
429.40	3709.75
429.59	3740.18
429.78	3698.05
429.97	3660.60
430.16	3754.22
430.34	3784.65
430.53	3981.25
430.72	3857.20
430.91	3840.82
431.10	3889.97
431.28	3939.12
431.47	3985.93
431.66	3943.80
431.85	3936.78
432.03	3920.40
432.22	4004.66
432.41	4070.19
432.60	4154.45
432.79	4065.51
432.97	4095.94
433.16	4201.26
433.35	4112.32
433.54	4128.70
433.72	4149.77
433.91	4142.75
434.10	4227.01
434.28	4229.35
434.47	4287.86
434.66	4297.22
434.85	4374.46
435.03	4390.84
435.22	4262.12
435.41	4430.63
435.59	4465.74
435.78	4322.97
435.97	4407.23
436.16	4308.93
436.34	4505.53
436.53	4341.69
436.72	4587.45
436.90	4440.00
437.09	4587.45
437.28	4390.84
437.46	4442.34
437.65	4561.70
437.84	4503.19
438.02	4627.24
438.21	4734.90
438.40	4620.22
438.58	4840.23
438.77	4786.40
438.96	4781.71
439.14	4929.17
439.33	4983.00
439.52	4912.78
439.70	4863.63
439.89	5050.88
440.08	5188.97
440.26	4961.94
440.45	4847.25
440.63	5008.75
440.82	5226.42
441.01	4966.62
441.19	5203.01
441.38	5207.69
441.57	5186.63
441.75	5310.68
441.94	5355.15
442.12	5408.98
442.31	5418.34
442.50	5509.62
442.68	5275.57
442.87	5383.23
443.05	5439.40
443.24	5589.20
443.43	5579.84
443.61	5479.19
443.80	5661.76
443.98	5453.45
444.17	5245.14
444.35	5460.47
444.54	5764.74
444.73	5612.60
444.91	5631.33
445.10	5645.37
445.28	5614.95
445.47	5598.56
445.65	5593.88
445.84	5738.99
446.02	5837.30
446.21	5753.04
446.39	5577.50
446.58	5750.70
446.77	5689.84
446.95	5568.13
447.14	5856.02
447.32	5692.18
447.51	5636.01
447.69	5720.27
447.88	5692.18
448.06	5757.72
448.25	5748.36
448.43	5851.34
448.62	5738.99
448.80	5706.23
448.99	5970.71
449.17	5940.28
449.36	5895.81
449.54	6061.99
449.73	5949.64
449.91	6031.56
450.10	6136.88
450.28	6160.29
450.46	6008.16
450.65	6052.63
450.83	6094.76
451.02	6104.12
451.20	6108.80
451.39	6195.40
451.57	6094.76
451.76	6230.51
451.94	6209.44
452.13	6228.17
452.31	6284.34
452.49	6211.78
452.68	6183.70
452.86	6317.11
453.05	6413.07
453.23	6504.35
453.42	6328.81
453.60	6260.93
453.78	6539.46
453.97	6415.41
454.15	6387.32
454.34	6422.43
454.52	6670.53
454.70	6370.94
454.89	6375.62
455.07	6478.60
455.26	6679.89
455.44	6686.91
455.62	6637.76
455.81	6733.72
455.99	6743.08
456.17	6869.47
456.36	6724.36
456.54	6825.00
456.73	6913.94
456.91	6946.71
457.09	6956.07
457.28	7052.03
457.46	7059.06
457.64	7023.95
457.83	7183.10
458.01	7171.40
458.19	7145.66
458.38	7056.72
458.56	7176.08
458.74	7063.74
458.93	7126.93
459.11	7377.37
459.29	7335.24
459.48	7386.73
459.66	7258.00
459.84	7197.15
460.03	7492.05
460.21	7524.82
460.39	7407.80
460.57	7391.41
460.76	7466.31
460.94	7613.76
461.12	7541.21
461.31	7524.82
461.49	7363.33
461.67	7662.91
461.85	7728.45
462.04	7529.50
462.22	7936.76
462.40	7590.36
462.59	7665.25
462.77	7538.87
462.95	7765.90
463.13	7740.15
463.32	7662.91
463.50	7779.94
463.68	7918.03
463.86	8074.85
464.05	7826.75
464.23	7829.09
464.41	7936.76
464.59	7850.16
464.78	8215.28
464.96	8142.72
465.14	7948.46
465.32	7974.21
465.50	8037.40
465.69	8142.72
465.87	8051.44
466.05	8147.40
466.23	8222.30
466.41	8112.30
466.60	8250.39
466.78	8355.71
466.96	8175.49
467.14	7953.14
467.32	8362.73
467.51	8580.40
467.69	8175.49
467.87	8409.54
468.05	8372.10
468.23	8049.10
468.41	8215.28
468.60	8594.45
468.78	8320.60
468.96	8421.25
469.14	8648.28
469.32	8592.11
469.50	8458.70
469.69	8737.22
469.87	8720.84
470.05	8669.34
470.23	8896.38
470.41	8571.04
470.59	8856.59
470.77	8903.40
470.95	8936.17
471.14	9069.58
471.32	8798.07
471.50	9114.05
471.68	9020.42
471.86	9160.86
472.04	9327.03
472.22	9226.39
472.40	9025.11
472.58	9191.28
472.77	9275.54
472.95	9242.78
473.13	9584.49
473.31	9509.60
473.49	9547.05
473.67	9378.53
473.85	9415.98
474.03	9811.53
474.21	9549.39
474.39	9781.10
474.57	9685.14
474.75	9867.70
474.93	9970.68
475.12	9741.31
475.30	10218.78
475.48	10141.54
475.66	9888.76
475.84	10061.96
476.02	9930.89
476.20	10256.23
476.38	10396.66
476.56	10661.14
476.74	10642.42
476.92	10696.25
477.10	10382.62
477.28	10677.52
477.46	10761.78
477.64	10714.97
477.82	10927.96
478.00	11077.76
478.18	11335.21
478.36	11164.36
478.54	11440.54
478.72	11314.15
478.90	11602.04
479.08	11541.18
479.26	11662.89
479.44	11585.65
479.62	11749.49
479.80	11847.79
479.98	11850.13
480.16	12187.17
480.34	12072.48
480.52	12233.98
480.70	12283.13
480.88	11990.56
481.06	12290.15
481.24	12636.55
481.41	12795.71
481.59	12739.54
481.77	12786.35
481.95	12727.83
482.13	13158.49
482.31	12982.95
482.49	13242.75
482.67	13434.68
482.85	13205.30
483.03	13259.13
483.21	13561.06
483.39	13788.10
483.57	13530.64
483.74	14190.67
483.92	13973.00
484.10	13776.39
484.28	14204.71
484.46	14450.47
484.64	14611.96
484.82	14403.66
485.00	14560.47
485.18	14974.75
485.35	15051.99
485.53	14857.72
485.71	15054.33
485.89	15206.46
486.07	15440.51
486.25	15426.47
486.43	15594.99
486.61	15585.63
486.78	15791.59
486.96	15555.20
487.14	15719.04
487.32	16203.53
487.50	16173.10
487.68	16475.03
487.85	16582.70
488.03	16800.37
488.21	17149.11
488.39	16863.56
488.57	17294.22
488.75	17219.32
488.92	17387.84
489.10	17568.06
489.28	17886.37
489.46	17785.73
489.64	17834.88
489.81	18218.73
489.99	18221.07
490.17	18537.04
490.35	18396.61
490.53	18274.90
490.70	18775.78
490.88	18607.26
491.06	18918.55
491.24	19108.13
491.41	19108.13
491.59	19218.14
491.77	19021.53
491.95	19344.53
492.13	19637.09
492.30	19655.82
492.48	19796.25
492.66	19747.10
492.84	20109.88
493.01	19903.92
493.19	19749.44
493.37	20065.41
493.54	20355.64
493.72	20411.81
493.90	20355.64
494.08	20961.84
494.25	20947.79
494.43	20975.88
494.61	20966.52
494.79	21460.37
494.96	21149.08
495.14	21465.05
495.32	21481.44
495.49	21626.55
495.67	21696.77
495.85	21626.55
496.02	22338.07
496.20	22342.75
496.38	22319.35
496.55	22506.59
496.73	22955.97
496.91	22501.91
497.09	22686.81
497.26	22890.44
497.44	22452.76
497.62	23080.02
497.79	23466.21
497.97	23187.69
498.14	23688.56
498.32	23651.11
498.50	23756.44
498.67	23997.51
498.85	23728.35
499.03	24297.10
499.20	24451.58
499.38	24224.54
499.56	24041.98
499.73	24280.72
499.91	24657.54
500.08	24725.42
500.26	24470.30
500.44	25034.37
500.61	24917.34
500.79	24694.99
500.97	25090.54
501.14	25193.53
501.32	25593.76
501.49	25184.16
501.67	25369.07
501.84	25275.45
502.02	25486.09
502.20	25640.57
502.37	26080.59
502.55	25521.20
502.72	25806.75
502.90	25914.41
503.07	25680.36
503.25	25930.80
503.43	25858.24
503.60	26384.86
503.78	26380.18
503.95	26513.59
504.13	26438.69
504.30	26441.03
504.48	26419.97
504.65	26792.11
504.83	27129.15
505.01	27054.25
505.18	27021.48
505.36	27119.79
505.53	27140.85
505.71	27562.15
505.88	27414.69
506.06	27199.37
506.23	27576.19
506.41	27681.52
506.58	27541.08
506.76	27927.27
506.93	28411.76
507.11	27969.40
507.28	28259.63
507.46	28158.99
507.63	28170.69
507.81	28189.41
507.98	27908.55
508.16	28371.97
508.33	28886.89
508.50	28985.19
508.68	28959.45
508.85	29060.09
509.03	28748.80
509.20	29036.69
509.38	29160.73
509.55	29219.25
509.73	28959.45
509.90	29310.53
510.08	29422.87
510.25	29663.95
510.42	29343.30
510.60	29542.24
510.77	29715.44
510.95	30139.08
511.12	30096.95
511.30	29633.52
511.47	29954.18
511.64	30031.41
511.82	30258.45
511.99	30197.59
512.17	30387.18
512.34	30543.99
512.51	30747.62
512.69	30686.76
512.86	30436.33
513.04	30850.60
513.21	30871.67
513.38	31260.20
513.56	30843.58
513.73	30993.37
513.90	31206.36
514.08	31136.15
514.25	31414.67
514.43	31215.72
514.60	31749.37
514.77	31821.92
514.95	31505.95
515.12	31826.60
515.29	31882.78
515.47	31887.46
515.64	31936.61
515.81	31824.26
515.99	31892.14
516.16	32421.10
516.33	32191.73
516.51	32271.31
516.68	32011.51
516.85	32254.92
517.03	32524.08
517.20	33261.35
517.37	32477.27
517.54	33046.02
517.72	32767.50
517.89	32987.51
518.06	32851.76
518.24	33273.06
518.41	33158.37
518.58	32797.93
518.75	33207.52
518.93	33048.36
519.10	33525.83
519.27	33507.11
519.45	33574.98
519.62	33476.68
519.79	33546.90
519.96	33614.77
520.14	33912.02
520.31	33509.45
520.48	33851.17
520.65	34253.74
520.83	34274.80
521.00	34333.32
521.17	34354.38
521.34	34139.05
521.52	34768.66
521.69	34134.37
521.86	34422.26
522.03	35105.70
522.20	35061.22
522.38	35328.05
522.55	35030.80
522.72	34822.49
522.89	35005.05
523.07	35351.45
523.24	35204.00
523.41	35028.46
523.58	35433.37
523.75	35531.67
523.92	35318.68
524.10	35250.81
524.27	35372.52
524.44	35655.72
524.61	35557.42
524.78	36030.21
524.96	35833.60
525.13	35864.03
525.30	35983.40
525.47	36109.78
525.64	35964.67
525.81	36238.51
525.98	36500.65
526.16	36034.89
526.33	36617.68
526.50	36737.05
526.67	36217.45
526.84	36769.82
527.01	36648.11
527.18	36559.17
527.36	36921.95
527.53	36730.03
527.70	37532.83
527.87	37050.68
528.04	37202.82
528.21	36921.95
528.38	36870.46
528.55	37008.55
528.72	37020.25
528.89	37081.11
529.07	37834.76
529.24	37324.52
529.41	37411.12
529.58	37523.47
529.75	37500.06
529.92	37074.09
530.09	37294.10
530.26	37785.61
530.43	37574.96
530.60	37443.89
530.77	37464.96
530.94	37516.45
531.11	37949.45
531.28	37834.76
531.46	37628.79
531.63	38103.92
531.80	38199.88
531.97	38628.20
532.14	38176.48
532.31	38391.81
532.48	38391.81
532.65	38763.95
532.82	38157.75
532.99	38555.64
533.16	38408.19
533.33	38373.08
533.50	38469.04
533.67	38871.62
533.84	39241.42
534.01	38707.78
534.18	38829.49
534.35	38946.51
534.52	39143.12
534.69	39655.70
534.86	39201.63
535.03	39154.82
535.20	39477.82
535.37	39840.60
535.54	39412.28
535.71	39510.58
535.88	39498.88
536.05	39428.66
536.22	39707.19
536.38	39751.66
536.55	39807.83
536.72	39917.84
536.89	39922.52
537.06	39756.34
537.23	40472.54
537.40	39751.66
537.57	39662.72
537.74	39901.45
537.91	40252.53
538.08	40304.02
538.25	39725.91
538.42	39826.56
538.59	40446.80
538.75	40137.85
538.92	40627.02
539.09	40559.14
539.26	40329.77
539.43	40444.46
539.60	40624.68
539.77	40517.01
539.94	41256.62
540.11	40683.19
540.28	40957.03
540.44	40835.33
540.61	40928.95
540.78	40802.56
540.95	40797.88
541.12	40711.28
541.29	40774.47
541.46	40774.47
541.62	40821.28
541.79	41748.14
541.96	40793.20
542.13	40828.30
542.30	41029.59
542.47	41343.22
542.63	41390.03
542.80	41338.54
542.97	41755.16
543.14	41841.76
543.31	41855.80
543.48	41958.78
543.64	42361.36
543.81	42038.36
543.98	41783.24
544.15	41710.69
544.32	41923.68
544.48	42288.80
544.65	42223.26
544.82	42260.71
544.99	42176.45
545.16	42216.24
545.32	42366.04
545.49	42525.19
545.66	42899.68
545.83	42642.22
546.00	42660.94
546.16	42375.40
546.33	42373.06
546.50	42164.75
546.67	42508.81
546.83	42190.50
547.00	42541.58
547.17	42740.52
547.34	42609.45
547.50	43084.58
547.67	43430.98
547.84	42726.48
548.00	43051.81
548.17	43157.14
548.34	43320.98
548.51	43028.41
548.67	43377.15
548.84	43058.84
549.01	43168.84
549.18	43515.24
549.34	43924.83
549.51	43416.94
549.68	43555.03
549.84	43229.69
550.01	43578.43
550.18	43187.56
550.34	43517.58
550.51	43531.62
550.68	43501.20
550.84	43583.12
551.01	43445.02
551.18	43388.85
551.34	43749.29
551.51	43636.95
551.68	43744.61
551.84	43700.14
552.01	43639.29
552.18	43583.12
552.34	43723.55
552.51	44016.11
552.68	43868.66
552.84	44137.82
553.01	44634.02
553.18	44208.04
553.34	44327.41
553.51	43580.78
553.67	44388.26
553.84	44151.87
554.01	44311.02
554.17	44327.41
554.34	44273.57
554.51	43941.22
554.67	45069.36
554.84	44388.26
555.00	44949.99
555.17	44416.35
555.33	44610.61
555.50	44362.51
555.67	44238.47
555.83	44605.93
556.00	44980.42
556.16	45666.19
556.33	44697.21
556.50	44966.37
556.66	44680.83
556.83	44570.82
556.99	44835.30
557.16	45048.29
557.32	45059.99
557.49	44914.88
557.65	44933.60
557.82	45045.95
557.98	45427.46
558.15	45055.31
558.32	45146.59
558.48	44933.60
558.65	44996.80
558.81	45289.37
558.98	44926.58
559.14	45235.53
559.31	44685.51
559.47	45078.72
559.64	45415.76
559.80	45200.43
559.97	45916.63
560.13	45567.89
560.30	45333.84
560.46	45935.35
560.63	45603.00
560.79	45942.38
560.96	45989.19
561.12	45848.75
561.29	45794.92
561.45	45911.95
561.61	45921.31
561.78	45586.61
561.94	45464.91
562.11	45614.70
562.27	45684.92
562.44	45874.50
562.60	45844.07
562.77	45598.32
562.93	45406.39
563.10	45928.33
563.26	45743.43
563.42	46316.86
563.59	45635.77
563.75	45647.47
563.92	45813.65
564.08	45755.13
564.24	46291.12
564.41	45876.84
564.57	45851.09
564.74	45998.55
564.90	46333.24
565.07	45773.86
565.23	46157.70
565.39	46113.23
565.56	46007.91
565.72	46010.25
565.88	46286.43
566.05	46150.68
566.21	46085.15
566.38	46007.91
566.54	46553.26
566.70	46136.64
566.87	46160.05
567.03	46153.02
567.19	46850.50
567.36	46380.06
567.52	46160.05
567.68	46583.68
567.85	46663.26
568.01	46571.98
568.17	46504.10
568.34	46663.26
568.50	46244.30
568.66	46307.50
568.83	46258.35
568.99	46382.40
569.15	46546.23
569.32	46560.28
569.48	46497.08
569.64	46768.58
569.81	46445.59
569.97	46583.68
570.13	46597.73
570.30	46150.68
570.46	46611.77
570.62	46885.61
570.78	46813.05
570.95	46548.57
571.11	46866.89
571.27	46557.94
571.43	46719.43
571.60	46843.48
571.76	46712.41
571.92	46330.90
572.09	46965.19
572.25	46375.37
572.41	46384.74
572.57	46831.78
572.74	47283.50
572.90	46859.87
573.06	47119.66
573.22	46749.86
573.38	47339.68
573.55	47161.79
573.71	47393.51
573.87	46845.82
574.03	46756.88
574.20	47112.64
574.36	46632.83
574.52	47117.32
574.68	47068.17
574.84	47201.58
575.01	47070.51
575.17	47365.42
575.33	46967.53
575.49	46955.83
575.65	46820.08
575.82	47423.93
575.98	46595.38
576.14	47140.73
576.30	47215.63
576.46	47222.65
576.62	47351.38
576.79	46948.81
576.95	46623.47
577.11	46703.05
577.27	46967.53
577.43	47107.96
577.59	47150.09
577.75	47040.09
577.92	46876.25
578.08	46995.62
578.24	47559.69
578.40	47402.87
578.56	47068.17
578.72	47384.15
578.88	46773.27
579.04	46871.57
579.21	46909.02
579.37	47260.10
579.53	47349.04
579.69	46967.53
579.85	47063.49
580.01	46906.68
580.17	47217.97
580.33	47400.53
580.49	47194.56
580.65	47641.60
580.82	47126.69
580.98	46981.57
581.14	46941.78
581.30	47035.41
581.46	47037.75
581.62	47241.37
581.78	47044.77
581.94	47433.30
582.10	47093.92
582.26	47182.86
582.42	47407.55
582.58	47187.54
582.74	47327.97
582.90	47430.96
583.06	47288.18
583.22	47016.68
583.38	47210.95
583.54	47459.04
583.70	47487.13
583.86	47494.15
584.02	46864.55
584.18	47697.78
584.34	47711.82
584.50	47304.57
584.66	47512.88
584.82	46934.76
584.98	47477.77
585.14	47407.55
585.30	47239.03
585.46	47215.63
585.62	47009.66
585.78	47564.37
585.94	47079.88
586.10	47091.58
586.26	47306.91
586.42	47374.78
586.58	47611.18
586.74	47154.77
586.90	47353.72
587.06	47332.65
587.22	47552.66
587.38	47365.42
587.54	47494.15
587.70	47388.83
587.86	47461.38
588.02	47105.62
588.18	47267.12
588.34	47545.64
588.49	46988.60
588.65	47026.04
588.81	47377.12
588.97	47388.83
589.13	47248.39
589.29	47437.98
589.45	48154.18
589.61	47767.99
589.77	47833.53
589.93	47655.65
