SpectraSuite Data File
++++++++++++++++++++++++++++++++++++
Date: Fri Oct 25 11:33:53 EDT 2013
User: price-jones
Dark Spectrum Present: No
Reference Spectrum Present: No
Number of Sampled Component Spectra: 1
Spectrometers: USB2+H05261
Integration Time (usec): 100000 (USB2+H05261)
Spectra Averaged: 1 (USB2+H05261)
Boxcar Smoothing: 0 (USB2+H05261)
Correct for Electrical Dark: No (USB2+H05261)
Strobe/Lamp Enabled: No (USB2+H05261)
Correct for Detector Non-linearity: No (USB2+H05261)
Correct for Stray Light: No (USB2+H05261)
Number of Pixels in Processed Spectrum: 2048
>>>>>Begin Processed Spectral Data<<<<<
365.73	262.14
365.92	262.14
366.12	262.14
366.32	203.63
366.52	227.03
366.72	259.80
366.91	142.77
367.11	152.13
367.31	191.92
367.51	138.09
367.70	205.97
367.90	173.20
368.10	189.58
368.30	152.13
368.49	140.43
368.69	220.01
368.89	149.79
369.09	220.01
369.28	196.60
369.48	217.67
369.68	191.92
369.87	163.84
370.07	231.71
370.27	290.23
370.47	376.83
370.66	449.38
370.86	500.87
371.06	472.79
371.25	582.79
371.45	528.96
371.65	528.96
371.84	575.77
372.04	538.32
372.24	550.03
372.44	489.17
372.63	580.45
372.83	645.99
373.03	582.79
373.22	643.65
373.42	650.67
373.62	643.65
373.81	645.99
374.01	683.44
374.21	606.20
374.40	589.82
374.60	643.65
374.79	594.50
374.99	664.71
375.19	627.26
375.38	589.82
375.58	589.82
375.78	655.35
375.97	688.12
376.17	725.57
376.37	606.20
376.56	622.58
376.76	627.26
376.95	681.10
377.15	643.65
377.35	664.71
377.54	685.78
377.74	713.86
377.93	690.46
378.13	674.07
378.33	720.88
378.52	683.44
378.72	720.88
378.91	716.20
379.11	692.80
379.31	662.37
379.50	690.46
379.70	697.48
379.89	727.91
380.09	760.67
380.28	718.54
380.48	667.05
380.68	720.88
380.87	751.31
381.07	723.23
381.26	765.36
381.46	751.31
381.65	781.74
381.85	770.04
382.04	774.72
382.24	772.38
382.43	699.82
382.63	823.87
382.83	777.06
383.02	816.85
383.22	777.06
383.41	786.42
383.61	767.70
383.80	861.32
384.00	746.63
384.19	777.06
384.39	861.32
384.58	873.02
384.78	870.68
384.97	863.66
385.17	912.81
385.36	840.25
385.56	788.76
385.75	891.74
385.95	844.93
386.14	898.77
386.34	805.14
386.53	866.00
386.72	858.98
386.92	880.04
387.11	791.10
387.31	919.83
387.50	875.36
387.70	919.83
387.89	978.34
388.09	877.70
388.28	922.17
388.48	954.94
388.67	976.00
388.86	887.06
389.06	938.55
389.25	938.55
389.45	858.98
389.64	1011.11
389.84	987.71
390.03	987.71
390.22	1022.81
390.42	973.66
390.61	943.24
390.81	997.07
391.00	950.26
391.19	1043.88
391.39	973.66
391.58	976.00
391.78	997.07
391.97	1043.88
392.16	849.61
392.36	1020.47
392.55	1027.50
392.75	1083.67
392.94	1039.20
393.13	1041.54
393.33	994.73
393.52	1032.18
393.71	1153.88
393.91	1088.35
394.10	1109.41
394.29	1020.47
394.49	1053.24
394.68	1114.10
394.88	1074.31
395.07	1200.69
395.26	1104.73
395.46	1181.97
395.65	1247.51
395.84	1135.16
396.04	1153.88
396.23	1172.61
396.42	1203.04
396.62	1181.97
396.81	1228.78
397.00	1165.59
397.19	1331.76
397.39	1233.46
397.58	1139.84
397.77	1228.78
397.97	1282.61
398.16	1259.21
398.35	1170.27
398.55	1336.45
398.74	1254.53
398.93	1254.53
399.12	1270.91
399.32	1306.02
399.51	1235.80
399.70	1380.92
399.90	1249.85
400.09	1383.26
400.28	1486.24
400.47	1392.62
400.67	1418.36
400.86	1427.73
401.05	1371.55
401.24	1392.62
401.44	1390.28
401.63	1409.00
401.82	1516.67
402.01	1441.77
402.21	1434.75
402.40	1469.86
402.59	1371.55
402.78	1455.81
402.97	1565.82
403.17	1467.52
403.36	1500.28
403.55	1563.48
403.74	1582.20
403.93	1633.69
404.13	1619.65
404.32	1547.09
404.51	1591.56
404.70	1591.56
404.89	1584.54
405.09	1636.03
405.28	1582.20
405.47	1736.68
405.66	1743.70
405.85	1666.46
406.05	1710.93
406.24	1783.49
406.43	1741.36
406.62	1797.53
406.81	1799.87
407.00	1734.34
407.20	1668.80
407.39	1816.26
407.58	1825.62
407.77	1902.86
407.96	1928.60
408.15	1739.02
408.34	1842.00
408.54	1916.90
408.73	1902.86
408.92	1867.75
409.11	1898.17
409.30	1982.43
409.49	2015.20
409.68	2043.29
409.87	1963.71
410.07	1991.80
410.26	1961.37
410.45	2001.16
410.64	2136.91
410.83	2012.86
411.02	2003.50
411.21	2125.21
411.40	2024.56
411.59	2258.62
411.78	2111.16
411.98	2209.47
412.17	2237.55
412.36	2223.51
412.55	2338.20
412.74	2338.20
412.93	2293.72
413.12	2321.81
413.31	2408.41
413.50	2431.82
413.69	2403.73
413.88	2504.37
414.07	2424.80
414.26	2356.92
414.45	2438.84
414.64	2476.29
414.83	2525.44
415.02	2593.31
415.22	2642.46
415.41	2635.44
415.60	2658.85
415.79	2644.81
415.98	2827.37
416.17	2745.45
416.36	2752.47
416.55	2698.64
416.74	2745.45
416.93	2825.03
417.12	2806.30
417.31	2885.88
417.50	2881.20
417.69	2991.20
417.88	2799.28
418.07	2740.77
418.26	2771.19
418.45	3009.93
418.64	3096.53
418.83	2986.52
419.02	2953.76
419.21	3070.78
419.39	3171.43
419.58	3192.49
419.77	3145.68
419.96	3091.85
420.15	3201.85
420.34	3215.90
420.53	3220.58
420.72	3155.04
420.91	3199.51
421.10	3428.88
421.29	3372.71
421.48	3124.62
421.67	3190.15
421.86	3262.71
422.05	3295.47
422.24	3234.62
422.43	3414.84
422.61	3353.99
422.80	3461.65
422.99	3370.37
423.18	3428.88
423.37	3421.86
423.56	3475.70
423.75	3482.72
423.94	3276.75
424.13	3180.79
424.32	3293.13
424.50	3515.48
424.69	3452.29
424.88	3440.59
425.07	3344.63
425.26	3456.97
425.45	3398.46
425.64	3431.23
425.83	3482.72
426.01	3515.48
426.20	3351.65
426.39	3419.52
426.58	3438.25
426.77	3379.73
426.96	3585.70
427.15	3536.55
427.33	3442.93
427.52	3492.08
427.71	3588.04
427.90	3571.66
428.09	3667.62
428.28	3639.53
428.46	3796.35
428.65	3667.62
428.84	3634.85
429.03	3761.24
429.22	3538.89
429.40	3653.58
429.59	3873.59
429.78	3667.62
429.97	3749.54
430.16	3784.65
430.34	3934.44
430.53	3843.16
430.72	3927.42
430.91	3768.26
431.10	3864.22
431.28	3934.44
431.47	3941.46
431.66	4016.36
431.85	3997.64
432.03	4021.04
432.22	3969.55
432.41	4063.17
432.60	4035.08
432.79	4023.38
432.97	4058.49
433.16	4025.72
433.35	4173.18
433.54	4046.79
433.72	4236.37
433.91	4044.45
434.10	4219.99
434.28	4046.79
434.47	4161.47
434.66	4231.69
434.85	4369.78
435.03	4365.10
435.22	4198.92
435.41	4369.78
435.59	4283.18
435.78	4355.74
435.97	4308.93
436.16	4409.57
436.34	4470.42
436.53	4461.06
436.72	4475.10
436.90	4430.63
437.09	4615.54
437.28	4374.46
437.46	4526.60
437.65	4505.53
437.84	4542.98
438.02	4601.49
438.21	4554.68
438.40	4603.83
438.58	4755.97
438.77	4669.37
438.96	4865.97
439.14	4898.74
439.33	4662.35
439.52	4905.76
439.70	5008.75
439.89	4943.21
440.08	4844.91
440.26	5078.96
440.45	4987.68
440.63	5036.83
440.82	5167.90
441.01	5174.92
441.19	5275.57
441.38	4947.89
441.57	5252.16
441.75	5317.70
441.94	5359.83
442.12	5380.89
442.31	5408.98
442.50	5420.68
442.68	5345.78
442.87	5406.64
443.05	5549.41
443.24	5504.94
443.43	5472.17
443.61	5682.82
443.80	5769.42
443.98	5390.25
444.17	5397.28
444.35	5551.75
444.54	5682.82
444.73	5495.58
444.91	5495.58
445.10	5626.65
445.28	5724.95
445.47	5654.73
445.65	5650.05
445.84	5685.16
446.02	5640.69
446.21	5741.33
446.39	5706.23
446.58	5710.91
446.77	5722.61
446.95	5542.39
447.14	5678.14
447.32	5689.84
447.51	5694.52
447.69	5696.86
447.88	5776.44
448.06	5790.49
448.25	5795.17
448.43	5825.59
448.62	5930.92
448.80	5949.64
448.99	5928.58
449.17	5966.03
449.36	5907.51
449.54	5921.56
449.73	5902.83
449.91	6083.05
450.10	5865.38
450.28	6066.67
450.46	6106.46
450.65	5996.45
450.83	6125.18
451.02	6143.91
451.20	6232.85
451.39	6267.95
451.57	6183.70
451.76	6104.12
451.94	6232.85
452.13	6272.64
452.31	6092.41
452.49	5989.43
452.68	6310.08
452.86	6431.79
453.05	6303.06
453.23	6394.34
453.42	6260.93
453.60	6216.46
453.78	6368.60
453.97	6331.15
454.15	6342.85
454.34	6179.01
454.52	6593.29
454.70	6375.62
454.89	6504.35
455.07	6387.32
455.26	6525.41
455.44	6548.82
455.62	6572.22
455.81	6539.46
455.99	6511.37
456.17	6888.20
456.36	6726.70
456.54	6881.18
456.73	6768.83
456.91	6810.96
457.09	7035.65
457.28	7201.83
457.46	6902.24
457.64	7248.64
457.83	7225.23
458.01	6988.84
458.19	7204.17
458.38	6977.14
458.56	7148.00
458.74	7056.72
458.93	6956.07
459.11	7136.29
459.29	7169.06
459.48	7349.28
459.66	7176.08
459.84	7119.91
460.03	7375.03
460.21	7339.92
460.39	7499.08
460.57	7295.45
460.76	7609.08
460.94	7475.67
461.12	7541.21
461.31	7515.46
461.49	7452.27
461.67	7480.35
461.85	7485.03
462.04	7510.78
462.22	8004.63
462.40	7808.03
462.59	7634.83
462.77	7864.20
462.95	7679.30
463.13	7590.36
463.32	7873.56
463.50	7801.01
463.68	7850.16
463.86	7885.26
464.05	7791.64
464.23	7744.83
464.41	7819.73
464.59	7714.41
464.78	7957.82
464.96	8006.97
465.14	7875.90
465.32	8121.66
465.50	8067.83
465.69	8201.24
465.87	7999.95
466.05	8332.31
466.23	8278.47
466.41	8081.87
466.60	8418.91
466.78	7892.29
466.96	8264.43
467.14	8128.68
467.32	8409.54
467.51	8344.01
467.69	8147.40
467.87	8154.43
468.05	8311.24
468.23	8212.94
468.41	8325.29
468.60	8264.43
468.78	8463.38
468.96	8552.32
469.14	8500.83
469.32	8652.96
469.50	8465.72
469.69	8620.19
469.87	8617.85
470.05	8884.67
470.23	8751.26
470.41	8814.46
470.59	8809.78
470.77	8769.99
470.95	8842.54
471.14	8980.64
471.32	8865.95
471.50	9048.51
471.68	8908.08
471.86	9184.26
472.04	9041.49
472.22	9270.86
472.40	9050.85
472.58	9221.71
472.77	9401.93
472.95	9371.50
473.13	9692.16
473.31	9198.31
473.49	9184.26
473.67	9481.51
473.85	9479.17
474.03	9535.34
474.21	9846.63
474.39	9879.40
474.57	9760.03
474.75	9764.72
474.93	10050.26
475.12	9851.31
475.30	10073.67
475.48	10087.71
475.66	9905.15
475.84	10047.92
476.02	10256.23
476.20	10326.44
476.38	10218.78
476.56	10340.49
476.74	10569.86
476.92	10532.41
477.10	10038.56
477.28	10780.51
477.46	10841.36
477.64	10738.38
477.82	10927.96
478.00	11044.99
478.18	11000.52
478.36	11286.06
478.54	11304.79
478.72	11194.78
478.90	11545.86
479.08	11613.74
479.26	11475.65
479.44	11545.86
479.62	11817.36
479.80	11899.28
479.98	11929.71
480.16	11960.14
480.34	12030.35
480.52	12107.59
480.70	12379.09
480.88	12285.47
481.06	12430.59
481.24	12482.08
481.41	12437.61
481.59	12627.19
481.77	12858.90
481.95	12865.92
482.13	13048.49
482.31	12826.14
482.49	13336.37
482.67	13357.44
482.85	13661.71
483.03	13853.63
483.21	13624.26
483.39	13535.32
483.57	13769.37
483.74	13933.21
483.92	13989.38
484.10	13837.25
484.28	14064.28
484.46	14256.20
484.64	14682.18
484.82	14574.52
485.00	14991.13
485.18	14878.79
485.35	14937.30
485.53	14946.66
485.71	15061.35
485.89	15328.17
486.07	15183.06
486.25	15473.28
486.43	15550.52
486.61	15499.03
486.78	15700.31
486.96	15740.10
487.14	15885.22
487.32	16037.35
487.50	16271.40
487.68	16498.44
487.85	16353.32
488.03	16622.48
488.21	17151.45
488.39	16896.33
488.57	17233.36
488.75	17233.36
488.92	17359.75
489.10	17542.32
489.28	17467.42
489.46	17708.49
489.64	17635.94
489.81	17996.38
489.99	18092.34
490.17	17994.04
490.35	18382.57
490.53	18382.57
490.70	18665.77
490.88	18508.96
491.06	18555.77
491.24	18815.57
491.41	19054.30
491.59	19063.66
491.77	18888.12
491.95	19447.51
492.13	19697.95
492.30	19585.60
492.48	19627.73
492.66	19480.28
492.84	19796.25
493.01	20002.22
493.19	20034.99
493.37	20013.92
493.54	20388.41
493.72	20589.69
493.90	20662.25
494.08	20657.57
494.25	21128.02
494.43	20908.01
494.61	21205.25
494.79	21301.22
494.96	21099.93
495.14	21394.84
495.32	21422.92
495.49	21799.75
495.67	21551.65
495.85	21832.52
496.02	22057.21
496.20	22045.51
496.38	22195.30
496.55	22164.87
496.73	22904.48
496.91	22370.84
497.09	22836.61
497.26	22834.27
497.44	22544.04
497.62	23087.04
497.79	23344.50
497.97	23159.60
498.14	23351.52
498.32	23903.89
498.50	23616.01
498.67	23721.33
498.85	23711.97
499.03	23683.88
499.20	23957.72
499.38	24329.87
499.56	24292.42
499.73	24376.68
499.91	24308.80
500.08	24418.81
500.26	24713.72
500.44	24671.59
500.61	24793.29
500.79	24776.91
500.97	25081.18
501.14	25132.67
501.32	25146.72
501.49	25149.06
501.67	25544.61
501.84	25476.73
502.02	25158.42
502.20	25483.75
502.37	25848.88
502.55	25549.29
502.72	25546.95
502.90	25827.81
503.07	25678.02
503.25	26235.06
503.43	25694.40
503.60	25958.88
503.78	26174.21
503.95	26324.01
504.13	26232.72
504.30	26415.29
504.48	26441.03
504.65	26431.67
504.83	27040.21
505.01	27150.21
505.18	26871.69
505.36	27307.03
505.53	26707.85
505.71	26993.40
505.88	27108.08
506.06	27398.31
506.23	27365.54
506.41	27283.62
506.58	27585.55
506.76	27489.59
506.93	27850.03
507.11	28091.11
507.28	28077.07
507.46	28538.15
507.63	28257.29
507.81	28582.62
507.98	27854.72
508.16	28168.35
508.33	28329.84
508.50	28287.71
508.68	28402.40
508.85	28659.86
509.03	28669.22
509.20	28889.23
509.38	29282.44
509.55	29057.75
509.73	29149.03
509.90	29083.50
510.08	29383.09
510.25	29778.64
510.42	29205.20
510.60	29883.96
510.77	29991.62
510.95	30136.74
511.12	29783.32
511.30	29560.97
511.47	30391.86
511.64	30054.82
511.82	30632.93
511.99	29895.66
512.17	30319.30
512.34	30120.35
512.51	30569.74
512.69	30656.34
512.86	30700.81
513.04	31087.00
513.21	30602.50
513.38	30654.00
513.56	30820.17
513.73	31030.82
513.90	31241.47
514.08	31094.02
514.25	31344.45
514.43	31768.09
514.60	31285.94
514.77	31211.04
514.95	31489.57
515.12	31283.60
515.29	31332.75
515.47	31632.34
515.64	31445.10
515.81	31571.49
515.99	31847.67
516.16	32245.56
516.33	32088.74
516.51	32168.32
516.68	32074.70
516.85	31934.27
517.03	32603.66
517.20	32650.47
517.37	32268.97
517.54	32704.31
517.72	32741.75
517.89	32606.00
518.06	32966.45
518.24	33029.64
518.41	32954.74
518.58	33322.21
518.75	32662.18
518.93	33549.24
519.10	33083.47
519.27	32980.49
519.45	33394.76
519.62	33397.10
519.79	33663.93
519.96	33457.96
520.14	33846.49
520.31	33062.41
520.48	33860.53
520.65	34094.58
520.83	34253.74
521.00	34080.54
521.17	34504.18
521.34	34342.68
521.52	34101.61
521.69	34340.34
521.86	34328.64
522.03	34515.88
522.20	34759.30
522.38	34836.53
522.55	34937.18
522.72	34965.26
522.89	34995.69
523.07	34960.58
523.24	35000.37
523.41	35035.48
523.58	34785.04
523.75	35363.15
523.92	35267.19
524.10	35536.35
524.27	35271.87
524.44	35416.99
524.61	35419.33
524.78	35849.99
524.96	35723.60
525.13	35688.49
525.30	36055.95
525.47	36039.57
525.64	35641.68
525.81	36030.21
525.98	35747.00
526.16	36037.23
526.33	35868.71
526.50	36257.24
526.67	36154.26
526.84	36086.38
527.01	36484.27
527.18	36418.74
527.36	36645.77
527.53	36327.45
527.70	36704.28
527.87	37071.75
528.04	36416.40
528.21	36699.60
528.38	36503.00
528.55	36741.73
528.72	36907.91
528.89	36769.82
529.07	37053.02
529.24	36767.48
529.41	37364.31
529.58	37123.24
529.75	37425.17
529.92	37593.68
530.09	37329.20
530.26	37406.44
530.43	37448.57
530.60	37167.71
530.77	37378.36
530.94	37214.52
531.11	37640.50
531.28	37734.12
531.46	37750.50
531.63	38066.47
531.80	38031.36
531.97	38270.10
532.14	38300.53
532.31	38073.49
532.48	38188.18
532.65	38272.44
532.82	38127.33
532.99	38373.08
533.16	38265.42
533.33	38174.14
533.50	38686.71
533.67	38710.12
533.84	38345.00
534.01	38649.27
534.18	38880.98
534.35	38962.90
534.52	39119.71
534.69	39157.16
534.86	39058.86
535.03	38979.28
535.20	39086.95
535.37	39199.29
535.54	39215.68
535.71	39218.02
535.88	39435.69
536.05	39409.94
536.22	39466.11
536.38	39690.80
536.55	39136.10
536.72	39082.27
536.89	39405.26
537.06	39861.66
537.23	39716.55
537.40	39208.65
537.57	39599.52
537.74	39861.66
537.91	39969.33
538.08	39737.62
538.25	39793.79
538.42	39849.96
538.59	40187.00
538.75	39690.80
538.92	40081.67
539.09	40765.11
539.26	40371.90
539.43	39927.20
539.60	40114.44
539.77	40364.88
539.94	40622.34
540.11	40804.90
540.28	40414.03
540.44	40313.39
540.61	40650.42
540.78	40385.94
540.95	40907.88
541.12	40399.99
541.29	40545.10
541.46	40772.13
541.62	40861.07
541.79	41179.39
541.96	40680.85
542.13	40680.85
542.30	40706.60
542.47	41017.89
542.63	41289.39
542.80	41378.33
542.97	41490.68
543.14	41926.02
543.31	41507.06
543.48	42122.62
543.64	41794.95
543.81	41937.72
543.98	41724.73
544.15	41406.42
544.32	42256.03
544.48	41776.22
544.65	41773.88
544.82	42639.88
544.99	42073.47
545.16	42073.47
545.32	41703.67
545.49	42799.04
545.66	43002.66
545.83	42246.67
546.00	42251.35
546.16	42593.07
546.33	42330.93
546.50	42181.13
546.67	42403.49
546.83	42096.88
547.00	42176.45
547.17	42258.37
547.34	42429.23
547.50	43000.32
547.67	43351.40
547.84	42838.83
548.00	42632.86
548.17	43005.00
548.34	42995.64
548.51	43093.94
548.67	42820.10
548.84	43290.55
549.01	43098.62
549.18	42857.55
549.34	42705.41
549.51	43388.85
549.68	43475.45
549.84	43107.99
550.01	43423.96
550.18	43037.77
550.34	43545.67
550.51	43484.81
550.68	43407.58
550.84	43236.72
551.01	43536.30
551.18	43278.85
551.34	43435.66
551.51	43508.22
551.68	43171.18
551.84	43330.34
552.01	43475.45
552.18	43749.29
552.34	43606.52
552.51	43791.42
552.68	43632.27
552.84	43803.13
553.01	43695.46
553.18	43662.69
553.34	43620.56
553.51	43966.96
553.67	43903.77
553.84	44144.84
554.01	43856.96
554.17	44746.36
554.34	44371.88
554.51	44095.69
554.67	44807.22
554.84	44271.23
555.00	44304.00
555.17	44083.99
555.33	44601.25
555.50	44182.29
555.67	44212.72
555.83	44708.91
556.00	44711.25
556.16	44795.51
556.33	44374.22
556.50	44299.32
556.66	44765.09
556.83	44371.88
556.99	45289.37
557.16	45099.78
557.32	44800.19
557.49	45102.12
557.65	44779.13
557.82	45205.11
557.98	44823.60
558.15	44603.59
558.32	45034.25
558.48	44414.01
558.65	44631.68
558.81	44762.75
558.98	44992.12
559.14	45001.48
559.31	44928.92
559.47	45184.04
559.64	45429.80
559.80	45446.18
559.97	45366.60
560.13	44858.71
560.30	45184.04
560.46	45574.91
560.63	45954.08
560.79	45518.74
560.96	45635.77
561.12	45673.21
561.29	45282.34
561.45	45490.65
561.61	45359.58
561.78	45069.36
561.94	45581.93
562.11	45411.07
562.27	45673.21
562.44	45862.80
562.60	45567.89
562.77	45666.19
562.93	45235.53
563.10	45823.01
563.26	45343.20
563.42	45703.64
563.59	45694.28
563.75	45460.23
563.92	45624.06
564.08	46272.39
564.24	46003.23
564.41	45724.71
564.57	45518.74
564.74	45778.54
564.90	45516.40
565.07	45539.80
565.23	45951.74
565.39	45710.66
565.56	46560.28
565.72	45464.91
565.88	46237.28
566.05	45909.61
566.21	45947.06
566.38	45823.01
566.54	46101.53
566.70	46218.56
566.87	46162.39
567.03	45741.09
567.19	46066.42
567.36	46237.28
567.52	46153.02
567.68	46092.17
567.85	45780.88
568.01	46117.92
568.17	45918.97
568.34	46902.00
568.50	46122.60
568.66	45972.80
568.83	45874.50
568.99	46373.03
569.15	46274.73
569.32	46347.29
569.48	46408.14
569.64	46581.34
569.81	46480.70
569.97	46373.03
570.13	46735.82
570.30	45832.37
570.46	46335.59
570.62	46075.79
570.78	46438.57
570.95	46487.72
571.11	46885.61
571.27	46146.00
571.43	46532.19
571.60	46520.49
571.76	46307.50
571.92	46031.32
572.09	46218.56
572.25	46078.13
572.41	46485.38
572.57	46513.47
572.74	47122.01
572.90	46452.61
573.06	46607.09
573.22	46937.10
573.38	46906.68
573.55	46742.84
573.71	46539.21
573.87	46862.21
574.03	46850.50
574.20	46843.48
574.36	46590.70
574.52	46909.02
574.68	46693.69
574.84	47107.96
575.01	46382.40
575.17	46705.39
575.33	46864.55
575.49	46415.16
575.65	47051.79
575.82	46960.51
575.98	46763.90
576.14	46628.15
576.30	47192.22
576.46	47047.11
576.62	46607.09
576.79	47086.90
576.95	46836.46
577.11	46834.12
577.27	46663.26
577.43	46913.70
577.59	46714.75
577.75	46794.33
577.92	45961.10
578.08	46590.70
578.24	46689.01
578.40	47351.38
578.56	47068.17
578.72	46721.77
578.88	46773.27
579.04	47009.66
579.21	46852.84
579.37	46899.65
579.53	47044.77
579.69	46621.13
579.85	46583.68
580.01	46630.49
580.17	46555.60
580.33	46878.59
580.49	47250.74
580.65	47299.89
580.82	46845.82
580.98	46801.35
581.14	46609.43
581.30	46410.48
581.46	47004.98
581.62	47044.77
581.78	46632.83
581.94	47129.03
582.10	46801.35
582.26	47047.11
582.42	47234.35
582.58	47505.85
582.74	46930.08
582.90	47051.79
583.06	47267.12
583.22	46869.23
583.38	46794.33
583.54	46770.93
583.70	47150.09
583.86	47283.50
584.02	47136.05
584.18	47297.55
584.34	47164.14
584.50	47271.80
584.66	46890.29
584.82	47079.88
584.98	47566.71
585.14	47524.58
585.30	47576.07
585.46	47049.45
585.62	47131.37
585.78	47503.51
585.94	46965.19
586.10	47124.35
586.26	47093.92
586.42	47281.16
586.58	47299.89
586.74	46883.27
586.90	46878.59
587.06	46988.60
587.22	47257.76
587.38	47356.06
587.54	47585.43
587.70	47419.25
587.86	47395.85
588.02	46958.17
588.18	47257.76
588.34	46890.29
588.49	47384.15
588.65	47334.99
588.81	47365.42
588.97	47388.83
589.13	47086.90
589.29	47037.75
589.45	47276.48
589.61	47470.75
589.77	47695.44
589.93	47489.47
590.08	47395.85
