SpectraSuite Data File
++++++++++++++++++++++++++++++++++++
Date: Fri Oct 25 11:26:40 EDT 2013
User: price-jones
Dark Spectrum Present: No
Reference Spectrum Present: No
Number of Sampled Component Spectra: 1
Spectrometers: USB2+H05261
Integration Time (usec): 100000 (USB2+H05261)
Spectra Averaged: 1 (USB2+H05261)
Boxcar Smoothing: 0 (USB2+H05261)
Correct for Electrical Dark: No (USB2+H05261)
Strobe/Lamp Enabled: No (USB2+H05261)
Correct for Detector Non-linearity: No (USB2+H05261)
Correct for Stray Light: No (USB2+H05261)
Number of Pixels in Processed Spectrum: 2048
>>>>>Begin Processed Spectral Data<<<<<
365.73	227.03
365.92	227.03
366.12	227.03
366.32	203.63
366.52	142.77
366.72	121.71
366.91	98.30
367.11	100.64
367.31	142.77
367.51	191.92
367.70	170.86
367.90	126.39
368.10	142.77
368.30	152.13
368.49	93.62
368.69	196.60
368.89	163.84
369.09	142.77
369.28	126.39
369.48	191.92
369.68	152.13
369.87	196.60
370.07	210.65
370.27	241.08
370.47	311.29
370.66	580.45
370.86	671.73
371.06	629.60
371.25	746.63
371.45	699.82
371.65	702.16
371.84	645.99
372.04	692.80
372.24	706.84
372.44	669.39
372.63	723.23
372.83	641.31
373.03	732.59
373.22	723.23
373.42	798.12
373.62	704.50
373.81	847.27
374.01	840.25
374.21	819.19
374.40	807.48
374.60	800.46
374.79	854.30
374.99	833.23
375.19	828.55
375.38	870.68
375.58	891.74
375.78	856.64
375.97	835.57
376.17	915.15
376.37	856.64
376.56	884.72
376.76	844.93
376.95	945.58
377.15	922.17
377.35	854.30
377.54	863.66
377.74	917.49
377.93	922.17
378.13	908.13
378.33	947.92
378.52	903.45
378.72	994.73
378.91	971.32
379.11	842.59
379.31	877.70
379.50	1018.13
379.70	980.68
379.89	959.62
380.09	997.07
380.28	983.02
380.48	980.68
380.68	896.43
380.87	915.15
381.07	1048.56
381.26	1057.92
381.46	1027.50
381.65	966.64
381.85	1076.65
382.04	1015.79
382.24	1060.26
382.43	1118.78
382.63	1083.67
382.83	1064.94
383.02	1114.10
383.22	1184.31
383.41	1057.92
383.61	1088.35
383.80	1179.63
384.00	1032.18
384.19	1118.78
384.39	1100.05
384.58	1121.12
384.78	1214.74
384.97	1238.14
385.17	1142.18
385.36	1170.27
385.56	1188.99
385.75	1247.51
385.95	1268.57
386.14	1303.68
386.34	1130.48
386.53	1210.06
386.72	1233.46
386.92	1233.46
387.11	1268.57
387.31	1369.21
387.50	1240.48
387.70	1172.61
387.89	1303.68
388.09	1390.28
388.28	1231.12
388.48	1322.40
388.67	1373.89
388.86	1359.85
389.06	1362.19
389.25	1352.83
389.45	1315.38
389.64	1327.08
389.84	1299.00
390.03	1425.39
390.22	1409.00
390.42	1306.02
390.61	1352.83
390.81	1514.33
391.00	1427.73
391.19	1472.20
391.39	1472.20
391.58	1495.60
391.78	1476.88
391.97	1535.39
392.16	1453.47
392.36	1575.18
392.55	1481.56
392.75	1509.65
392.94	1556.46
393.13	1577.52
393.33	1551.78
393.52	1605.61
393.71	1523.69
393.91	1624.33
394.10	1544.75
394.29	1575.18
394.49	1614.97
394.68	1596.25
394.88	1626.67
395.07	1675.82
395.26	1739.02
395.46	1771.79
395.65	1675.82
395.84	1741.36
396.04	1736.68
396.23	1781.15
396.42	1706.25
396.62	1809.23
396.81	1830.30
397.00	1774.13
397.19	1753.06
397.39	1923.92
397.58	1764.76
397.77	1872.43
397.97	1827.96
398.16	1804.55
398.35	1881.79
398.55	1825.62
398.74	1956.69
398.93	2036.27
399.12	1935.62
399.32	1956.69
399.51	1982.43
399.70	1991.80
399.90	1921.58
400.09	2099.46
400.28	1975.41
400.47	2024.56
400.67	2069.03
400.86	2052.65
401.05	2038.61
401.24	2146.27
401.44	2132.23
401.63	2113.50
401.82	2125.21
402.01	2260.96
402.21	2148.61
402.40	2167.34
402.59	2209.47
402.78	2253.94
402.97	2267.98
403.17	2218.83
403.36	2293.72
403.55	2338.20
403.74	2441.18
403.93	2289.04
404.13	2326.49
404.32	2441.18
404.51	2523.10
404.70	2499.69
404.89	2382.67
405.09	2443.52
405.28	2509.05
405.47	2607.36
405.66	2532.46
405.85	2520.76
406.05	2579.27
406.24	2581.61
406.43	2487.99
406.62	2668.21
406.81	2698.64
407.00	2686.94
407.20	2588.63
407.39	2623.74
407.58	2686.94
407.77	2881.20
407.96	2920.99
408.15	2827.37
408.34	2656.51
408.54	2803.96
408.73	2848.43
408.92	2832.05
409.11	2899.92
409.30	3049.72
409.49	2850.77
409.68	2916.31
409.87	2913.97
410.07	3038.02
410.26	3098.87
410.45	3000.57
410.64	2984.18
410.83	3035.67
411.02	3251.00
411.21	3323.56
411.40	3119.93
411.59	3272.07
411.78	3197.17
411.98	3171.43
412.17	3318.88
412.36	3309.52
412.55	3449.95
412.74	3459.31
412.93	3323.56
413.12	3391.44
413.31	3492.08
413.50	3501.44
413.69	3400.80
413.88	3571.66
414.07	3475.70
414.26	3712.09
414.45	3744.86
414.64	3700.39
414.83	3592.72
415.02	3786.99
415.22	3939.12
415.41	3915.72
415.60	3854.86
415.79	3878.27
415.98	3974.23
416.17	3988.27
416.36	3925.08
416.55	4081.89
416.74	4046.79
416.93	4070.19
417.12	4203.60
417.31	4145.09
417.50	4259.78
417.69	4236.37
417.88	4205.94
418.07	4315.95
418.26	4472.76
418.45	4362.76
418.64	4550.00
418.83	4601.49
419.02	4442.34
419.21	4582.77
419.39	4519.57
419.58	4414.25
419.77	4470.42
419.96	4505.53
420.15	4657.67
420.34	4692.77
420.53	4671.71
420.72	4760.65
420.91	4765.33
421.10	4725.54
421.29	4805.12
421.48	4851.93
421.67	4828.53
421.86	4795.76
422.05	4791.08
422.24	4858.95
422.43	4912.78
422.61	4957.25
422.80	5020.45
422.99	4863.63
423.18	5022.79
423.37	5116.41
423.56	5039.17
423.75	4975.98
423.94	4842.57
424.13	4617.88
424.32	4943.21
424.50	5057.90
424.69	5270.89
424.88	5146.84
425.07	4849.59
425.26	4975.98
425.45	4997.04
425.64	5060.24
425.83	5055.56
426.01	4964.28
426.20	5090.67
426.39	4999.38
426.58	5123.43
426.77	5039.17
426.96	5200.67
427.15	5153.86
427.33	5303.65
427.52	5240.46
427.71	5364.51
427.90	5247.48
428.09	5334.08
428.28	5427.70
428.46	5441.75
428.65	5207.69
428.84	5643.03
429.03	5563.45
429.22	5493.24
429.40	5448.77
429.59	5593.88
429.78	5373.87
429.97	5327.06
430.16	5535.37
430.34	5703.89
430.53	5738.99
430.72	5755.38
430.91	5722.61
431.10	5689.84
431.28	5935.60
431.47	5802.19
431.66	5966.03
431.85	5916.87
432.03	5947.30
432.22	6087.73
432.41	6083.05
432.60	5788.14
432.79	5984.75
432.97	6083.05
433.16	6003.47
433.35	5949.64
433.54	6076.03
433.72	6181.35
433.91	6136.88
434.10	6174.33
434.28	6202.42
434.47	6277.32
434.66	6282.00
434.85	6279.66
435.03	6235.19
435.22	6326.47
435.41	6511.37
435.59	6410.73
435.78	6565.20
435.97	6562.86
436.16	6562.86
436.34	6448.18
436.53	6399.02
436.72	6562.86
436.90	6441.15
437.09	6593.29
437.28	6518.39
437.46	6600.31
437.65	6637.76
437.84	6813.30
438.02	6733.72
438.21	6817.98
438.40	6647.12
438.58	7108.21
438.77	7101.19
438.96	7014.59
439.14	7227.57
439.33	7293.11
439.52	7276.73
439.70	7262.68
439.89	7449.93
440.08	7417.16
440.26	7410.14
440.45	7344.60
440.63	7637.17
440.82	7660.57
441.01	7492.05
441.19	7599.72
441.38	7763.56
441.57	7784.62
441.75	7882.92
441.94	8098.25
442.12	7969.52
442.31	8112.30
442.50	8203.58
442.68	7939.10
442.87	8079.53
443.05	8226.98
443.24	8266.77
443.43	8194.22
443.61	8234.00
443.80	8404.86
443.98	8234.00
444.17	8044.42
444.35	8327.63
444.54	8423.59
444.73	8416.57
444.91	8294.86
445.10	8402.52
445.28	8409.54
445.47	8414.23
445.65	8489.12
445.84	8695.09
446.02	8468.06
446.21	8479.76
446.39	8273.79
446.58	8589.77
446.77	8676.37
446.95	8346.35
447.14	8446.99
447.32	8636.58
447.51	8615.51
447.69	8444.65
447.88	8557.00
448.06	8557.00
448.25	8404.86
448.43	8486.78
448.62	8657.64
448.80	8564.02
448.99	8744.24
449.17	8786.37
449.36	8795.73
449.54	9006.38
449.73	9046.17
449.91	9217.03
450.10	8971.27
450.28	9378.53
450.46	9238.09
450.65	8898.72
450.83	9231.07
451.02	9116.39
451.20	9385.55
451.39	9275.54
451.57	9146.81
451.76	9062.55
451.94	9188.94
452.13	9357.46
452.31	9483.85
452.49	9242.78
452.68	9680.46
452.86	9511.94
453.05	9483.85
453.23	9451.08
453.42	9446.40
453.60	9343.42
453.78	9582.15
453.97	9554.07
454.15	9727.27
454.34	9565.77
454.52	9745.99
454.70	9664.07
454.89	9657.05
455.07	9942.60
455.26	9811.53
455.44	9961.32
455.62	9956.64
455.81	9877.06
455.99	9888.76
456.17	10066.64
456.36	9956.64
456.54	9987.07
456.73	10260.91
456.91	10523.05
457.09	10485.60
457.28	10626.03
457.46	10225.80
457.64	10581.56
457.83	10691.57
458.01	10513.69
458.19	10572.20
458.38	10637.73
458.56	10855.40
458.74	10726.68
458.93	10740.72
459.11	10787.53
459.29	10736.04
459.48	10920.94
459.66	10958.39
459.84	11257.98
460.03	11206.48
460.21	11349.26
460.39	11269.68
460.57	11073.07
460.76	11321.17
460.94	11276.70
461.12	11236.91
461.31	11108.18
461.49	11068.39
461.67	11056.69
461.85	11485.01
462.04	11370.32
462.22	11705.02
462.40	11651.19
462.59	11424.15
462.77	11508.41
462.95	11618.42
463.13	11639.48
463.32	11798.64
463.50	11854.81
463.68	11784.60
463.86	11845.45
464.05	11681.61
464.23	11571.61
464.41	11962.48
464.59	11873.54
464.78	12393.14
464.96	12131.00
465.14	11899.28
465.32	12152.06
465.50	12290.15
465.69	12077.16
465.87	12381.43
466.05	12126.32
466.23	12053.76
466.41	12320.58
466.60	12774.64
466.78	12100.57
466.96	12161.42
467.14	12362.71
467.32	12519.53
467.51	12596.76
467.69	12182.49
467.87	12531.23
468.05	12954.87
468.23	12594.42
468.41	12505.48
468.60	12720.81
468.78	12781.67
468.96	12666.98
469.14	12849.54
469.32	12943.16
469.50	12542.93
469.69	12978.27
469.87	13050.83
470.05	13118.70
470.23	13327.01
470.41	13298.92
470.59	13301.26
470.77	13291.90
470.95	13387.86
471.14	13853.63
471.32	13104.66
471.50	13652.34
471.68	13549.36
471.86	13628.94
472.04	13846.61
472.22	13944.91
472.40	13696.82
472.58	13792.78
472.77	14164.92
472.95	14345.14
473.13	14628.35
473.31	13935.55
473.49	14169.60
473.67	14333.44
473.85	14410.68
474.03	14850.70
474.21	14611.96
474.39	14867.08
474.57	14853.04
474.75	14799.21
474.93	15192.42
475.12	15037.94
475.30	15129.22
475.48	15199.44
475.66	15379.66
475.84	15030.92
476.02	15468.60
476.20	15594.99
476.38	16044.37
476.56	16252.68
476.74	15939.05
476.92	16350.98
477.10	15985.86
477.28	16273.74
477.46	16084.16
477.64	16409.50
477.82	16350.98
478.00	16882.28
478.18	16812.07
478.36	17071.87
478.54	17172.51
478.72	17238.05
478.90	17341.03
479.08	17563.38
479.26	17750.62
479.44	17675.73
479.62	18092.34
479.80	17937.87
479.98	18314.69
480.16	18518.32
480.34	18045.53
480.52	18611.94
480.70	18967.70
480.88	18499.59
481.06	18981.74
481.24	19197.07
481.41	19400.70
481.59	19293.04
481.77	19744.76
481.95	19775.19
482.13	19831.36
482.31	19857.10
482.49	20400.11
482.67	20477.35
482.85	20367.34
483.03	20776.94
483.21	20844.81
483.39	21455.69
483.57	21125.68
483.74	21216.96
483.92	21642.93
484.10	21584.42
484.28	21647.61
484.46	22204.66
484.64	22377.86
484.82	22216.36
485.00	22508.93
485.18	22602.55
485.35	22852.99
485.53	23033.21
485.71	23007.47
485.89	23632.39
486.07	23400.68
486.25	23718.99
486.43	23623.03
486.61	23674.52
486.78	24247.95
486.96	24257.31
487.14	24306.46
487.32	24669.25
487.50	25078.84
487.68	25575.03
487.85	25366.73
488.03	25563.33
488.21	25694.40
488.39	25900.37
488.57	26047.82
488.75	26555.72
488.92	26546.36
489.10	26827.22
489.28	26719.56
489.46	26972.33
489.64	26991.06
489.81	27763.43
489.99	27669.81
490.17	27971.74
490.35	28477.30
490.53	28357.93
490.70	28580.28
490.88	28545.17
491.06	28849.44
491.24	29001.58
491.41	28987.53
491.59	29312.87
491.77	29350.32
491.95	29818.42
492.13	30080.56
492.30	30263.13
492.48	29743.53
492.66	30375.47
492.84	30338.02
493.01	30803.79
493.19	30663.36
493.37	31449.78
493.54	31058.91
493.72	31672.13
493.90	31948.31
494.08	31791.50
494.25	32130.87
494.43	32360.25
494.61	32510.04
494.79	32856.44
494.96	32498.34
495.14	33263.69
495.32	33439.23
495.49	33228.59
495.67	33558.60
495.85	33792.65
496.02	33724.78
496.20	34291.19
496.38	34155.44
496.55	34136.71
496.73	35154.85
496.91	34398.85
497.09	35391.24
497.26	35075.27
497.44	35192.30
497.62	35456.78
497.79	36257.24
497.97	35498.91
498.14	35805.52
498.32	36149.57
498.50	36318.09
498.67	37029.62
498.85	36402.35
499.03	36797.90
499.20	37071.75
499.38	36886.84
499.56	37415.80
499.73	37605.39
499.91	37525.81
500.08	37834.76
500.26	37598.37
500.44	37818.38
500.61	38134.35
500.79	37993.92
500.97	38473.73
501.14	38677.35
501.32	38707.78
501.49	38752.25
501.67	38998.01
501.84	39241.42
502.02	38845.87
502.20	38937.15
502.37	39035.45
502.55	39255.46
502.72	39831.24
502.90	39587.82
503.07	39629.95
503.25	39845.28
503.43	39871.03
503.60	40336.79
503.78	40451.48
503.95	40533.40
504.13	40725.32
504.30	40582.55
504.48	41006.19
504.65	41207.47
504.83	41010.87
505.01	41207.47
505.18	41404.08
505.36	41794.95
505.53	41315.14
505.71	42066.45
505.88	41958.78
506.06	41984.53
506.23	42188.16
506.41	41970.49
506.58	42330.93
506.76	42408.17
506.93	42504.13
507.11	42593.07
507.28	42965.21
507.46	42677.33
507.63	43030.75
507.81	43358.42
507.98	43009.68
508.16	43232.04
508.33	43285.87
508.50	43920.15
508.68	43828.87
508.85	44055.90
509.03	43892.07
509.20	43489.49
509.38	44744.02
509.55	44362.51
509.73	44575.50
509.90	44322.72
510.08	44470.18
510.25	44694.87
510.42	45184.04
510.60	45294.05
510.77	45310.43
510.95	45244.90
511.12	45090.42
511.30	45387.67
511.47	45645.13
511.64	45591.30
511.82	46010.25
511.99	45925.99
512.17	46157.70
512.34	45975.14
512.51	46513.47
512.69	46852.84
512.86	46836.46
513.04	46569.64
513.21	47138.39
513.38	46677.30
513.56	47105.62
513.73	47042.43
513.90	47182.86
514.08	46897.31
514.25	47320.95
514.43	47803.10
514.60	47885.02
514.77	47782.04
514.95	48030.13
515.12	47751.61
515.29	47980.98
515.47	47828.85
515.64	48339.08
515.81	47856.93
515.99	48683.14
516.16	48516.96
516.33	48626.97
516.51	48610.59
516.68	48500.58
516.85	48514.62
517.03	48985.07
517.20	49230.83
517.37	48694.85
517.54	49158.27
517.72	49228.49
517.89	49333.81
518.06	49179.34
518.24	49399.35
518.41	49621.70
518.58	49382.96
518.75	49663.83
518.93	49785.54
519.10	49799.58
519.27	49986.82
519.45	49851.07
519.62	49900.22
519.79	49993.84
519.96	50003.20
520.14	50679.62
520.31	50181.09
520.48	50663.24
520.65	50728.77
520.83	50607.06
521.00	50674.94
521.17	50717.07
521.34	50997.93
521.52	51044.74
521.69	51004.95
521.86	51243.69
522.03	51161.77
522.20	51372.42
522.38	51639.24
522.55	51494.13
522.72	51622.86
522.89	51653.28
523.07	51356.03
523.24	51545.62
523.41	51906.06
523.58	51559.66
523.75	51803.08
523.92	51992.66
524.10	51992.66
524.27	51849.89
524.44	51938.83
524.61	52381.19
524.78	52062.88
524.96	52189.27
525.13	52360.12
525.30	52601.20
525.47	52575.45
525.64	52669.08
525.81	52917.17
525.98	52587.16
526.16	52767.38
526.33	52755.68
526.50	52903.13
526.67	52942.92
526.84	53071.65
527.01	53090.37
527.18	53116.12
527.36	53202.72
527.53	53148.88
527.70	53439.11
527.87	53609.97
528.04	53385.28
528.21	53769.13
528.38	53764.45
528.55	53659.12
528.72	53626.35
528.89	53801.89
529.07	53279.96
529.24	53399.32
529.41	53757.42
529.58	53670.82
529.75	53792.53
529.92	53975.09
530.09	54059.35
530.26	54138.93
530.43	54012.54
530.60	53855.73
530.77	53848.71
530.94	54045.31
531.11	54108.50
531.28	54293.41
531.46	54272.34
531.63	54209.15
531.80	54363.62
531.97	54581.29
532.14	54822.37
532.31	54695.98
532.48	54742.79
532.65	54770.88
532.82	54595.34
532.99	54841.09
533.16	54686.62
533.33	54946.42
533.50	55009.61
533.67	55042.38
533.84	54710.02
534.01	54981.52
534.18	55004.93
534.35	55557.30
534.52	54878.54
534.69	55187.49
534.86	55393.46
535.03	55409.84
535.20	55405.16
535.37	55557.30
535.54	55508.14
535.71	55341.97
535.88	55395.80
536.05	55847.52
536.22	55697.73
536.38	55688.37
536.55	55587.72
536.72	55606.45
536.89	55655.60
537.06	55952.85
537.23	55884.97
537.40	55664.96
537.57	55990.30
537.74	55751.56
537.91	56317.97
538.08	55877.95
538.25	55831.14
538.42	56055.83
538.59	56144.77
538.75	56144.77
538.92	56268.82
539.09	56322.65
539.26	56257.12
539.43	56432.66
539.60	56528.62
539.77	56406.91
539.94	56896.08
540.11	56374.14
540.28	56465.42
540.44	56697.14
540.61	56573.09
540.78	56528.62
540.95	56435.00
541.12	56552.02
541.29	56573.09
541.46	56865.66
541.62	56636.28
541.79	56701.82
541.96	56563.73
542.13	56865.66
542.30	56711.18
542.47	57062.26
542.63	56961.62
542.80	56975.66
542.97	56978.00
543.14	57476.54
543.31	57275.25
543.48	57097.37
543.64	57513.98
543.81	57509.30
543.98	57371.21
544.15	57539.73
544.32	57434.41
544.48	57659.10
544.65	57474.20
544.82	57598.24
544.99	57420.36
545.16	57535.05
545.32	57733.99
545.49	57666.12
545.66	57787.83
545.83	57839.32
546.00	57907.19
546.16	57668.46
546.33	57574.84
546.50	57663.78
546.67	57846.34
546.83	57701.23
547.00	58040.60
547.17	57764.42
547.34	57829.96
547.50	57939.96
547.67	57998.48
547.84	58110.82
548.00	58237.21
548.17	58298.06
548.34	58150.61
548.51	58305.09
548.67	58410.41
548.84	58487.65
549.01	58174.02
549.18	58314.45
549.34	58429.13
549.51	58504.03
549.68	58337.85
549.84	58513.39
550.01	58576.59
550.18	58440.84
550.34	58607.01
550.51	58665.53
550.68	58602.33
550.84	58312.11
551.01	58452.54
551.18	58555.52
551.34	58564.88
551.51	58852.77
551.68	58805.96
551.84	58506.37
552.01	58424.45
552.18	58810.64
552.34	58532.12
552.51	58777.87
552.68	58628.08
552.84	58857.45
553.01	58890.22
553.18	58677.23
553.34	58925.33
553.51	59051.72
553.67	59032.99
553.84	59025.97
554.01	58939.37
554.17	59140.66
554.34	59021.29
554.51	58939.37
554.67	59264.70
554.84	59068.10
555.00	59107.89
555.17	59164.06
555.33	59288.11
555.50	58932.35
555.67	59061.08
555.83	59316.20
556.00	59164.06
556.16	59671.96
556.33	59400.46
556.50	59222.58
556.66	59620.47
556.83	59199.17
556.99	59405.14
557.16	59576.00
557.32	59531.53
557.49	59725.79
557.65	59484.72
557.82	59498.76
557.98	59601.74
558.15	59461.31
558.32	59758.56
558.48	59735.15
558.65	59477.69
558.81	59587.70
558.98	59578.34
559.14	59711.75
559.31	59767.92
559.47	59793.67
559.64	59777.28
559.80	59793.67
559.97	59746.86
560.13	59814.73
560.30	59655.57
560.46	59875.58
560.63	59936.44
560.79	59870.90
560.96	60161.13
561.12	59763.24
561.29	60158.79
561.45	59880.27
561.61	59821.75
561.78	59742.17
561.94	59688.34
562.11	59781.96
562.27	59936.44
562.44	60102.62
562.60	60123.68
562.77	60097.94
562.93	60009.00
563.10	60247.73
563.26	60119.00
563.42	60287.52
563.59	60236.03
563.75	59931.76
563.92	60009.00
564.08	60247.73
564.24	60514.55
564.41	60296.88
564.57	60175.17
564.74	60116.66
564.90	60200.92
565.07	60271.14
565.23	60055.81
565.39	60102.62
565.56	60369.44
565.72	60196.24
565.88	60369.44
566.05	60144.75
566.21	60226.66
566.38	60458.38
566.54	60470.08
566.70	60409.23
566.87	60409.23
567.03	60310.92
567.19	60671.37
567.36	60339.01
567.52	60392.84
567.68	60683.07
567.85	60463.06
568.01	60631.58
568.17	60514.55
568.34	60336.67
568.50	60559.02
568.66	60425.61
568.83	60544.98
568.99	60664.35
569.15	60280.50
569.32	60727.54
569.48	60271.14
569.64	60477.10
569.81	60662.00
569.97	60336.67
570.13	60650.30
570.30	60456.04
570.46	60516.89
570.62	60514.55
570.78	60498.17
570.95	60434.97
571.11	60547.32
571.27	60458.38
571.43	60544.98
571.60	60566.04
571.76	60608.17
571.92	60610.51
572.09	60491.15
572.25	60767.33
572.41	60659.66
572.57	60685.41
572.74	60830.52
572.90	60544.98
573.06	60659.66
573.22	60741.58
573.38	60851.59
573.55	60612.85
573.71	60903.08
573.87	60793.07
574.03	60729.88
574.20	60708.82
574.36	60720.52
574.52	60804.78
574.68	60886.70
574.84	60818.82
575.01	60853.93
575.17	60849.25
575.33	60580.09
575.49	60856.27
575.65	60746.26
575.82	60818.82
575.98	60903.08
576.14	60858.61
576.30	61080.96
576.46	60729.88
576.62	60853.93
576.79	60800.10
576.95	60889.04
577.11	60772.01
577.27	60889.04
577.43	60912.44
577.59	60839.89
577.75	60830.52
577.92	60830.52
578.08	60772.01
578.24	60959.25
578.40	61020.11
578.56	61195.65
578.72	60676.05
578.88	61102.03
579.04	61003.72
579.21	60882.02
579.37	61230.75
579.53	61186.28
579.69	60872.65
579.85	60687.75
580.01	60949.89
580.17	60954.57
580.33	61031.81
580.49	61109.05
580.65	61233.10
580.82	60987.34
580.98	60898.40
581.14	60947.55
581.30	61038.83
581.46	61095.00
581.62	61038.83
581.78	61034.15
581.94	61048.19
582.10	61010.74
582.26	61001.38
582.42	60673.71
582.58	61160.54
582.74	60970.96
582.90	61052.87
583.06	61109.05
583.22	61015.43
583.38	60839.89
583.54	60900.74
583.70	61006.06
583.86	61172.24
584.02	61038.83
584.18	61144.16
584.34	61003.72
584.50	61024.79
584.66	60853.93
584.82	60802.44
584.98	61277.57
585.14	61104.37
585.30	60968.61
585.46	61446.08
585.62	61090.32
585.78	61116.07
585.94	60800.10
586.10	61272.88
586.26	61031.81
586.42	61293.95
586.58	61270.54
586.74	61165.22
586.90	61336.08
587.06	61041.17
587.22	61286.93
587.38	61134.79
587.54	61378.21
587.70	61275.22
587.86	61286.93
588.02	61080.96
588.18	61497.58
588.34	61141.81
588.49	61190.97
