SpectraSuite Data File
++++++++++++++++++++++++++++++++++++
Date: Fri Oct 25 10:47:40 EDT 2013
User: price-jones
Dark Spectrum Present: No
Reference Spectrum Present: No
Number of Sampled Component Spectra: 1
Spectrometers: USB2+H05261
Integration Time (usec): 100000 (USB2+H05261)
Spectra Averaged: 1 (USB2+H05261)
Boxcar Smoothing: 0 (USB2+H05261)
Correct for Electrical Dark: No (USB2+H05261)
Strobe/Lamp Enabled: No (USB2+H05261)
Correct for Detector Non-linearity: No (USB2+H05261)
Correct for Stray Light: No (USB2+H05261)
Number of Pixels in Processed Spectrum: 2048
>>>>>Begin Processed Spectral Data<<<<<
365.73	196.60
365.92	196.60
366.12	196.60
366.32	35.11
366.52	0.00
366.72	58.51
366.91	0.00
367.11	30.43
367.31	37.45
367.51	98.30
367.70	49.15
367.90	86.60
368.10	23.41
368.30	46.81
368.49	67.88
368.69	67.88
368.89	58.51
369.09	56.17
369.28	72.56
369.48	79.58
369.68	44.47
369.87	37.45
370.07	88.94
370.27	110.01
370.47	252.78
370.66	376.83
370.86	358.10
371.06	458.74
371.25	575.77
371.45	449.38
371.65	442.36
371.84	409.59
372.04	451.72
372.24	540.66
372.44	573.43
372.63	533.64
372.83	557.05
373.03	526.62
373.22	437.68
373.42	557.05
373.62	566.41
373.81	463.43
374.01	491.51
374.21	615.56
374.40	514.92
374.60	587.47
374.79	573.43
374.99	622.58
375.19	552.37
375.38	538.32
375.58	603.86
375.78	711.52
375.97	552.37
376.17	582.79
376.37	617.90
376.56	568.75
376.76	585.13
376.95	589.82
377.15	688.12
377.35	702.16
377.54	624.92
377.74	638.97
377.93	645.99
378.13	606.20
378.33	671.73
378.52	528.96
378.72	582.79
378.91	610.88
379.11	688.12
379.31	657.69
379.50	624.92
379.70	734.93
379.89	624.92
380.09	631.94
380.28	615.56
380.48	720.88
380.68	669.39
380.87	650.67
381.07	685.78
381.26	683.44
381.46	655.35
381.65	676.41
381.85	683.44
382.04	688.12
382.24	727.91
382.43	744.29
382.63	629.60
382.83	702.16
383.02	720.88
383.22	730.25
383.41	685.78
383.61	667.05
383.80	704.50
384.00	751.31
384.19	695.14
384.39	816.85
384.58	781.74
384.78	807.48
384.97	748.97
385.17	791.10
385.36	688.12
385.56	802.80
385.75	730.25
385.95	795.78
386.14	877.70
386.34	699.82
386.53	844.93
386.72	823.87
386.92	847.27
387.11	849.61
387.31	763.01
387.50	809.83
387.70	861.32
387.89	751.31
388.09	826.21
388.28	917.49
388.48	868.34
388.67	966.64
388.86	964.30
389.06	870.68
389.25	922.17
389.45	873.02
389.64	936.21
389.84	901.11
390.03	889.40
390.22	910.47
390.42	983.02
390.61	964.30
390.81	922.17
391.00	957.28
391.19	1067.28
391.39	912.81
391.58	903.45
391.78	950.26
391.97	987.71
392.16	1018.13
392.36	971.32
392.55	929.19
392.75	1011.11
392.94	978.34
393.13	931.53
393.33	997.07
393.52	1008.77
393.71	1109.41
393.91	1034.52
394.10	1100.05
394.29	1064.94
394.49	1050.90
394.68	1008.77
394.88	1102.39
395.07	1102.39
395.26	1097.71
395.46	1214.74
395.65	1067.28
395.84	1114.10
396.04	1144.52
396.23	1132.82
396.42	1163.25
396.62	1095.37
396.81	1135.16
397.00	1174.95
397.19	1114.10
397.39	1263.89
397.58	1174.95
397.77	1259.21
397.97	1287.29
398.16	1282.61
398.35	1254.53
398.55	1235.80
398.74	1275.59
398.93	1324.74
399.12	1336.45
399.32	1214.74
399.51	1425.39
399.70	1483.90
399.90	1401.98
400.09	1376.24
400.28	1502.62
400.47	1465.18
400.67	1481.56
400.86	1486.24
401.05	1521.35
401.24	1533.05
401.44	1582.20
401.63	1563.48
401.82	1453.47
402.01	1544.75
402.21	1549.43
402.40	1465.18
402.59	1472.20
402.78	1514.33
402.97	1497.94
403.17	1687.53
403.36	1640.72
403.55	1659.44
403.74	1586.88
403.93	1664.12
404.13	1626.67
404.32	1600.93
404.51	1685.19
404.70	1685.19
404.89	1652.42
405.09	1783.49
405.28	1659.44
405.47	1706.25
405.66	1799.87
405.85	1792.85
406.05	1753.06
406.24	1776.47
406.43	1830.30
406.62	1891.15
406.81	1909.88
407.00	1872.43
407.20	1858.39
407.39	1914.56
407.58	1933.28
407.77	1982.43
407.96	1909.88
408.15	1998.82
408.34	1944.99
408.54	1961.37
408.73	1926.26
408.92	2064.35
409.11	2101.80
409.30	1987.11
409.49	2087.76
409.68	2094.78
409.87	2012.86
410.07	2047.97
410.26	2186.06
410.45	2150.95
410.64	2209.47
410.83	2143.93
411.02	2239.89
411.21	2228.19
411.40	2265.64
411.59	2242.23
411.78	2380.32
411.98	2370.96
412.17	2342.88
412.36	2452.88
412.55	2385.01
412.74	2401.39
412.93	2537.14
413.12	2443.52
413.31	2527.78
413.50	2588.63
413.69	2523.10
413.88	2555.86
414.07	2630.76
414.26	2768.85
414.45	2679.91
414.64	2710.34
414.83	2693.96
415.02	2829.71
415.22	2778.22
415.41	2764.17
415.60	2736.09
415.79	2754.81
415.98	2878.86
416.17	2825.03
416.36	2874.18
416.55	2822.69
416.74	2871.84
416.93	2841.41
417.12	2967.80
417.31	2967.80
417.50	2984.18
417.69	3096.53
417.88	3019.29
418.07	3141.00
418.26	3016.95
418.45	3040.36
418.64	3185.47
418.83	3215.90
419.02	3215.90
419.21	3314.20
419.39	3417.18
419.58	3274.41
419.77	3288.45
419.96	3243.98
420.15	3325.90
420.34	3316.54
420.53	3428.88
420.72	3386.76
420.91	3475.70
421.10	3442.93
421.29	3517.83
421.48	3400.80
421.67	3478.04
421.86	3492.08
422.05	3389.10
422.24	3433.57
422.43	3529.53
422.61	3496.76
422.80	3578.68
422.99	3557.61
423.18	3487.40
423.37	3585.70
423.56	3517.83
423.75	3527.19
423.94	3574.00
424.13	3300.16
424.32	3410.16
424.50	3461.65
424.69	3571.66
424.88	3665.28
425.07	3639.53
425.26	3536.55
425.45	3602.08
425.64	3641.87
425.83	3494.42
426.01	3604.42
426.20	3772.94
426.39	3632.51
426.58	3641.87
426.77	3517.83
426.96	3604.42
427.15	3693.37
427.33	3653.58
427.52	3691.02
427.71	3749.54
427.90	3763.58
428.09	3770.60
428.28	3892.31
428.46	3819.75
428.65	3836.14
428.84	3808.05
429.03	3868.91
429.22	3698.05
429.40	3758.90
429.59	3934.44
429.78	3705.07
429.97	3637.19
430.16	3730.81
430.34	3789.33
430.53	3854.86
430.72	3939.12
430.91	3896.99
431.10	3882.95
431.28	4107.64
431.47	4243.39
431.66	3992.95
431.85	4037.42
432.03	4180.20
432.22	4329.99
432.41	4147.43
432.60	4243.39
432.79	4306.59
432.97	4315.95
433.16	4325.31
433.35	4273.82
433.54	4241.05
433.72	4358.08
433.91	4355.74
434.10	4397.87
434.28	4278.50
434.47	4346.37
434.66	4416.59
434.85	4386.16
435.03	4468.08
435.22	4498.51
435.41	4660.01
435.59	4702.14
435.78	4674.05
435.97	4718.52
436.16	4725.54
436.34	4601.49
436.53	4587.45
436.72	4816.82
436.90	4545.32
437.09	4734.90
437.28	4582.77
437.46	4482.13
437.65	4627.24
437.84	4678.73
438.02	4641.28
438.21	4716.18
438.40	4751.29
438.58	4842.57
438.77	4905.76
438.96	4812.14
439.14	4910.44
439.33	5153.86
439.52	5137.48
439.70	5130.45
439.89	5172.58
440.08	5135.14
440.26	5284.93
440.45	5100.03
440.63	5322.38
440.82	5376.21
441.01	5315.36
441.19	5362.17
441.38	5472.17
441.57	5575.16
441.75	5631.33
441.94	5631.33
442.12	5717.93
442.31	5666.44
442.50	5713.25
442.68	5863.04
442.87	5827.93
443.05	5675.80
443.24	5844.32
443.43	5788.14
443.61	5790.49
443.80	5991.77
443.98	5790.49
444.17	5685.16
444.35	5973.05
444.54	6129.86
444.73	5771.76
444.91	5863.04
445.10	5982.41
445.28	5858.36
445.47	5858.36
445.65	5874.74
445.84	5806.87
446.02	5893.47
446.21	5837.30
446.39	5909.85
446.58	5984.75
446.77	5977.73
446.95	5884.11
447.14	6040.92
447.32	6040.92
447.51	5968.37
447.69	5996.45
447.88	5895.81
448.06	6111.14
448.25	6054.97
448.43	6118.16
448.62	6129.86
448.80	6146.25
448.99	6064.33
449.17	6239.87
449.36	5975.39
449.54	6291.36
449.73	6195.40
449.91	6441.15
450.10	6427.11
450.28	6354.55
450.46	6590.95
450.65	6560.52
450.83	6480.94
451.02	6492.65
451.20	6452.86
451.39	6523.07
451.57	6420.09
451.76	6377.96
451.94	6729.04
452.13	6548.82
452.31	6597.97
452.49	6525.41
452.68	6544.14
452.86	6569.88
453.05	6567.54
453.23	6616.69
453.42	6506.69
453.60	6600.31
453.78	6892.88
453.97	6682.23
454.15	6534.78
454.34	6642.44
454.52	6782.87
454.70	6853.09
454.89	6932.67
455.07	6942.03
455.26	6923.30
455.44	7014.59
455.62	7045.01
455.81	6965.43
455.99	6991.18
456.17	7140.97
456.36	6874.15
456.54	7037.99
456.73	7281.41
456.91	7389.07
457.09	7250.98
457.28	7360.98
457.46	7122.25
457.64	7393.75
457.83	7269.70
458.01	7307.15
458.19	7353.96
458.38	7321.20
458.56	7417.16
458.74	7426.52
458.93	7459.29
459.11	7424.18
459.29	7686.32
459.48	7552.91
459.66	7604.40
459.84	7686.32
460.03	7712.07
460.21	7836.11
460.39	7728.45
460.57	7543.55
460.76	7805.69
460.94	7878.24
461.12	7604.40
461.31	7815.05
461.49	7812.71
461.67	7702.70
461.85	8056.12
462.04	7941.44
462.22	8334.65
462.40	8161.45
462.59	8114.64
462.77	8006.97
462.95	8006.97
463.13	8002.29
463.32	8028.04
463.50	8180.17
463.68	8016.33
463.86	8154.43
464.05	8060.80
464.23	8116.98
464.41	8461.04
464.59	8189.53
464.78	8430.61
464.96	8119.32
465.14	8140.38
465.32	8308.90
465.50	8376.78
465.69	8428.27
465.87	8437.63
466.05	8283.16
466.23	8336.99
466.41	8650.62
466.60	8681.05
466.78	8477.42
466.96	8388.48
467.14	8596.79
467.32	8667.00
467.51	8496.14
467.69	8381.46
467.87	8486.78
468.05	8725.52
468.23	8650.62
468.41	8482.10
468.60	8652.96
468.78	8624.87
468.96	8882.33
469.14	8802.75
469.32	9071.92
469.50	8739.56
469.69	8947.87
469.87	8833.18
470.05	8959.57
470.23	9041.49
470.41	9032.13
470.59	9069.58
470.77	8992.34
470.95	9043.83
471.14	9146.81
471.32	9060.21
471.50	9329.38
471.68	9193.62
471.86	9521.30
472.04	9570.45
472.22	9509.60
472.40	9338.74
472.58	9525.98
472.77	9657.05
472.95	9514.28
473.13	10012.81
473.31	9762.37
473.49	9617.26
473.67	9619.60
473.85	9605.56
474.03	9921.53
474.21	9792.80
474.39	10054.94
474.57	9905.15
474.75	10202.40
474.93	10260.91
475.12	10157.92
475.30	10387.30
475.48	10284.31
475.66	10298.36
475.84	10270.27
476.02	10366.23
476.20	10335.81
476.38	10607.31
476.56	10850.72
476.74	10965.41
476.92	10829.66
477.10	10670.50
477.28	11023.92
477.46	11023.92
477.64	11014.56
477.82	11035.63
478.00	11447.56
478.18	11339.90
478.36	11482.67
478.54	11681.61
478.72	11538.84
478.90	11695.66
479.08	11819.71
479.26	12133.34
479.44	12020.99
479.62	12276.11
479.80	12297.17
479.98	12238.66
480.16	12566.34
480.34	12535.91
480.52	12573.36
480.70	12439.95
480.88	12425.90
481.06	12571.02
481.24	12791.03
481.41	13092.96
481.59	13144.45
481.77	13064.87
481.95	13275.52
482.13	13481.49
482.31	13500.21
482.49	13577.45
482.67	13500.21
482.85	13769.37
483.03	13844.27
483.21	14204.71
483.39	14167.26
483.57	14139.18
483.74	14539.41
483.92	14270.25
484.10	14146.20
484.28	14445.79
484.46	14656.43
484.64	15033.26
484.82	14745.38
485.00	14920.92
485.18	14956.02
485.35	15339.87
485.53	15002.83
485.71	15094.11
485.89	15484.98
486.07	15377.32
486.25	15492.01
486.43	15515.41
486.61	15751.81
486.78	15843.09
486.96	16226.93
487.14	16229.27
487.32	16596.74
487.50	16528.86
487.68	16706.74
487.85	17085.91
488.03	17090.59
488.21	17261.45
488.39	17109.32
488.57	17287.20
488.75	17326.99
488.92	17277.83
489.10	17745.94
489.28	17902.76
489.46	18132.13
489.64	18059.57
489.81	18642.37
489.99	18504.28
490.17	18759.39
490.35	18951.32
490.53	18892.80
490.70	19194.73
490.88	18913.87
491.06	19204.10
491.24	19262.61
491.41	19374.95
491.59	19068.34
491.77	19307.08
491.95	19337.51
492.13	19779.87
492.30	19749.44
492.48	19824.34
492.66	20063.07
492.84	20098.18
493.01	20414.15
493.19	20243.29
493.37	20739.49
493.54	20893.96
493.72	20985.24
493.90	20957.16
494.08	21287.17
494.25	21315.26
494.43	21298.88
494.61	21579.74
494.79	21745.92
494.96	21593.78
495.14	21762.30
495.32	22080.61
495.49	21841.88
495.67	22288.92
495.85	22134.45
496.02	22429.35
496.20	22551.06
496.38	22279.56
496.55	22649.36
496.73	23381.95
496.91	23063.64
497.09	22693.83
497.26	23456.85
497.44	23335.14
497.62	23316.42
497.79	23513.02
497.97	23161.94
498.14	23641.75
498.32	23821.97
498.50	23819.63
498.67	24313.48
498.85	23953.04
499.03	24191.78
499.20	24297.10
499.38	24645.84
499.56	24606.05
499.73	24692.65
499.91	24608.39
500.08	24847.13
500.26	24474.98
500.44	24891.60
500.61	24610.73
500.79	25055.43
500.97	25261.40
501.14	25270.76
501.32	25333.96
501.49	25261.40
501.67	25530.56
501.84	25542.27
502.02	25479.07
502.20	25841.85
502.37	25914.41
502.55	25703.76
502.72	25820.79
502.90	25813.77
503.07	26050.16
503.25	26403.58
503.43	26302.94
503.60	26291.24
503.78	26675.09
503.95	26190.59
504.13	26347.41
504.30	26829.56
504.48	26625.93
504.65	26862.33
504.83	27040.21
505.01	27349.16
505.18	26757.00
505.36	27274.26
505.53	27222.77
505.71	27770.46
505.88	27786.84
506.06	27445.12
506.23	27625.34
506.41	27555.13
506.58	27559.81
506.76	27988.13
506.93	28170.69
507.11	28027.92
507.28	28615.39
507.46	28156.64
507.63	28297.08
507.81	27999.83
507.98	28058.34
508.16	28453.89
508.33	28379.00
508.50	28786.25
508.68	29013.28
508.85	29490.75
509.03	29060.09
509.20	28940.72
509.38	29273.08
509.55	29186.48
509.73	29270.74
509.90	29081.16
510.08	29235.63
510.25	29605.44
510.42	29516.50
510.60	29862.90
510.77	29692.04
510.95	29628.84
511.12	29855.87
511.30	29748.21
511.47	30206.95
511.64	30237.38
511.82	30127.38
511.99	30305.26
512.17	30174.19
512.34	30263.13
512.51	30497.18
512.69	30579.10
512.86	30625.91
513.04	31285.94
513.21	30686.76
513.38	30941.88
513.56	30590.80
513.73	30813.15
513.90	31103.38
514.08	30874.01
514.25	31213.38
514.43	31419.35
514.60	31145.51
514.77	31250.83
514.95	31723.62
515.12	31035.50
515.29	31512.97
515.47	31695.53
515.64	31747.03
515.81	31775.11
515.99	31931.93
516.16	31534.04
516.33	31775.11
516.51	31599.57
516.68	31751.71
516.85	31557.44
517.03	32226.84
517.20	32428.12
517.37	32409.40
517.54	32568.55
517.72	32397.70
517.89	32093.43
518.06	32446.85
518.24	32617.71
518.41	32407.06
518.58	32121.51
518.75	32774.52
518.93	33017.94
519.10	32830.69
519.27	33139.65
519.45	32774.52
519.62	33064.75
519.79	33354.97
519.96	33469.66
520.14	33846.49
520.31	33343.27
520.48	33645.20
520.65	33778.61
520.83	33411.15
521.00	33839.47
521.17	33530.51
521.34	34113.31
521.52	33982.24
521.69	33921.38
521.86	34108.63
522.03	34497.16
522.20	33851.17
522.38	34494.82
522.55	34525.24
522.72	34525.24
522.89	34462.05
523.07	34576.73
523.24	34717.17
523.41	34459.71
523.58	34852.92
523.75	35054.20
523.92	34824.83
524.10	34953.56
524.27	34948.88
524.44	35351.45
524.61	35381.88
524.78	35534.01
524.96	35531.67
525.13	35562.10
525.30	35615.93
525.47	35875.73
525.64	35861.69
525.81	35531.67
525.98	35814.88
526.16	35416.99
526.33	35756.36
526.50	36077.02
526.67	35388.90
526.84	35793.81
527.01	35707.21
527.18	36116.81
527.36	35845.30
527.53	36161.28
527.70	36727.69
527.87	36444.48
528.04	36065.31
528.21	36400.01
528.38	36123.83
528.55	36474.91
528.72	36421.08
528.89	36884.50
529.07	36774.50
529.24	36594.28
529.41	37125.58
529.58	36870.46
529.75	36966.42
529.92	36926.63
530.09	37074.09
530.26	36924.29
530.43	36938.33
530.60	36816.63
530.77	37083.45
530.94	37645.18
531.11	37226.22
531.28	37703.69
531.46	37495.38
531.63	37633.47
531.80	37343.25
531.97	37408.78
532.14	37013.23
532.31	36961.74
532.48	37324.52
532.65	37919.02
532.82	37979.87
532.99	38117.96
533.16	37799.65
533.33	37954.13
533.50	38225.63
533.67	38256.06
533.84	37909.66
534.01	38188.18
534.18	37876.89
534.35	38354.36
534.52	37883.91
534.69	38153.07
534.86	38782.68
535.03	38787.36
535.20	38520.54
535.37	38995.67
535.54	38974.60
535.71	38471.39
535.88	38588.41
536.05	38710.12
536.22	38794.38
536.38	39096.31
536.55	38756.93
536.72	38473.73
536.89	38721.82
537.06	38885.66
537.23	39079.92
537.40	38642.24
537.57	39082.27
537.74	38976.94
537.91	39833.58
538.08	39505.90
538.25	38951.20
538.42	39267.17
538.59	39164.18
538.75	38916.09
538.92	38768.63
539.09	39416.96
539.26	39431.01
539.43	39330.36
539.60	39395.90
539.77	39814.85
539.94	39414.62
540.11	39821.87
540.28	39522.29
540.44	39660.38
540.61	39739.96
540.78	39625.27
540.95	39948.26
541.12	39824.22
541.29	39697.83
541.46	39945.92
541.62	39772.72
541.79	39742.30
541.96	40034.86
542.13	39913.16
542.30	39700.17
542.47	40313.39
542.63	40098.06
542.80	40500.63
542.97	40407.01
543.14	40996.82
543.31	40760.43
543.48	40439.78
543.64	41167.68
543.81	41188.75
543.98	40807.24
544.15	40818.94
544.32	40914.90
544.48	41209.81
544.65	40811.92
544.82	41282.37
544.99	40549.78
545.16	40999.16
545.32	40891.50
545.49	41684.94
545.66	41198.11
545.83	41111.51
546.00	41340.88
546.16	41083.42
546.33	41120.87
546.50	40870.43
546.67	41383.01
546.83	41198.11
547.00	41062.36
547.17	41228.54
547.34	41673.24
547.50	41474.29
547.67	42080.49
547.84	41888.57
548.00	42124.96
548.17	41794.95
548.34	41673.24
548.51	41893.25
548.67	42031.34
548.84	41759.84
549.01	41949.42
549.18	41631.11
549.34	41642.81
549.51	41687.28
549.68	42080.49
549.84	41977.51
550.01	42082.83
550.18	42249.01
550.34	41785.58
550.51	42351.99
550.68	41935.38
550.84	41652.17
551.01	42480.72
551.18	42213.90
551.34	42309.86
551.51	42246.67
551.68	42340.29
551.84	42389.44
552.01	41989.21
552.18	42302.84
552.34	42532.22
552.51	42466.68
552.68	42639.88
552.84	42443.27
553.01	42820.10
553.18	42717.12
553.34	42597.75
553.51	42377.74
553.67	42597.75
553.84	42967.55
554.01	42932.45
554.17	43082.24
554.34	43351.40
554.51	42841.17
554.67	42895.00
554.84	42679.67
555.00	43302.25
555.17	42789.67
555.33	42976.92
555.50	43189.91
555.67	42871.59
555.83	42691.37
556.00	42794.36
556.16	43470.77
556.33	43323.32
556.50	43512.90
556.66	43047.13
556.83	43063.52
556.99	43248.42
557.16	43920.15
557.32	43288.21
557.49	43297.57
557.65	43044.79
557.82	43215.65
557.98	43271.82
558.15	43173.52
558.32	43285.87
558.48	43356.08
558.65	43672.06
558.81	43693.12
558.98	43564.39
559.14	43243.74
559.31	43768.02
559.47	43852.28
559.64	43423.96
559.80	43728.23
559.97	43763.34
560.13	43634.61
560.30	43723.55
560.46	43620.56
560.63	43615.88
560.79	43910.79
560.96	44032.50
561.12	43945.90
561.29	44243.15
561.45	43849.94
561.61	43854.62
561.78	44027.82
561.94	43400.55
562.11	43594.82
562.27	43978.67
562.44	43770.36
562.60	44119.10
562.77	43786.74
562.93	43819.51
563.10	44194.00
563.26	43887.39
563.42	43772.70
563.59	44044.20
563.75	44247.83
563.92	44048.88
564.08	44327.41
564.24	44060.58
564.41	44474.86
564.57	44257.19
564.74	44224.42
564.90	44509.97
565.07	44360.17
565.23	43938.88
565.39	44067.61
565.56	44123.78
565.72	44397.62
565.88	44245.49
566.05	43573.75
566.21	44156.55
566.38	43878.02
566.54	44425.71
566.70	44184.63
566.87	44477.20
567.03	44322.72
567.19	44720.62
567.36	43922.49
567.52	43990.37
567.68	44474.86
567.85	44304.00
568.01	44524.01
568.17	44079.31
568.34	44428.05
568.50	43882.70
568.66	44385.92
568.83	44126.12
568.99	44605.93
569.15	44081.65
569.32	44144.84
569.48	44009.09
569.64	44671.46
569.81	44098.03
569.97	44156.55
570.13	44219.74
570.30	44271.23
570.46	44186.97
570.62	44238.47
570.78	44149.53
570.95	44378.90
571.11	44655.08
571.27	44465.50
571.43	44545.08
571.60	44119.10
571.76	44741.68
571.92	44535.71
572.09	44439.75
572.25	44240.81
572.41	44737.00
572.57	44701.89
572.74	45165.32
572.90	44732.32
573.06	44538.05
573.22	44704.23
573.38	44697.21
573.55	44203.36
573.71	44755.72
573.87	44526.35
574.03	43978.67
574.20	44406.98
574.36	44538.05
574.52	44715.93
574.68	44877.43
574.84	44921.90
575.01	44421.03
575.17	44540.39
575.33	44774.45
575.49	44545.08
575.65	44516.99
575.82	44938.29
575.98	44966.37
576.14	44945.31
576.30	44758.06
576.46	44542.74
576.62	44816.58
576.79	44580.18
576.95	44023.14
577.11	44357.83
577.27	44524.01
577.43	44832.96
577.59	44591.89
577.75	44725.30
577.92	44491.24
578.08	44619.97
578.24	43999.73
578.40	44294.64
578.56	44987.44
578.72	44580.18
578.88	44765.09
579.04	44671.46
579.21	44734.66
579.37	44732.32
579.53	44713.59
579.69	44423.37
579.85	44655.08
580.01	44521.67
580.17	44814.24
580.33	44992.12
580.49	44952.33
580.65	44872.75
580.82	44947.65
580.98	44687.85
581.14	44563.80
581.30	45125.53
581.46	44549.76
581.62	44641.04
581.78	44535.71
581.94	45226.17
582.10	44662.10
582.26	44488.90
582.42	44788.49
582.58	44734.66
582.74	44889.13
582.90	45242.56
583.06	44973.39
583.22	44999.14
583.38	45017.86
583.54	44706.57
583.70	44428.05
583.86	44584.86
584.02	44615.29
584.18	45137.23
584.34	44690.19
584.50	45029.57
584.66	44910.20
584.82	44687.85
584.98	44877.43
585.14	45165.32
585.30	44839.98
585.46	44650.40
585.62	44500.61
585.78	44968.71
585.94	44329.75
586.10	44945.31
586.26	44989.78
586.42	45244.90
586.58	45125.53
586.74	45085.74
586.90	44533.37
587.06	44774.45
587.22	44919.56
587.38	44589.55
587.54	45247.24
587.70	45200.43
587.86	44793.17
588.02	45123.19
588.18	44907.86
588.34	44587.21
588.49	44495.92
588.65	44809.56
588.81	44488.90
588.97	44980.42
589.13	44978.07
589.29	44835.30
589.45	44844.66
589.61	45034.25
589.77	45137.23
589.93	44875.09
590.08	45170.00
590.24	44957.01
