SpectraSuite Data File
++++++++++++++++++++++++++++++++++++
Date: Fri Oct 25 11:22:54 EDT 2013
User: price-jones
Dark Spectrum Present: No
Reference Spectrum Present: No
Number of Sampled Component Spectra: 1
Spectrometers: USB2+H05261
Integration Time (usec): 100000 (USB2+H05261)
Spectra Averaged: 1 (USB2+H05261)
Boxcar Smoothing: 0 (USB2+H05261)
Correct for Electrical Dark: No (USB2+H05261)
Strobe/Lamp Enabled: No (USB2+H05261)
Correct for Detector Non-linearity: No (USB2+H05261)
Correct for Stray Light: No (USB2+H05261)
Number of Pixels in Processed Spectrum: 2048
>>>>>Begin Processed Spectral Data<<<<<
365.73	248.10
365.92	248.10
366.12	248.10
366.32	133.41
366.52	124.05
366.72	128.73
366.91	86.60
367.11	117.03
367.31	107.66
367.51	49.15
367.70	53.83
367.90	222.35
368.10	98.30
368.30	98.30
368.49	138.09
368.69	168.52
368.89	119.37
369.09	53.83
369.28	114.69
369.48	121.71
369.68	283.20
369.87	203.63
370.07	126.39
370.27	262.14
370.47	292.57
370.66	674.07
370.86	594.50
371.06	716.20
371.25	660.03
371.45	676.41
371.65	683.44
371.84	683.44
372.04	660.03
372.24	746.63
372.44	669.39
372.63	706.84
372.83	695.14
373.03	702.16
373.22	781.74
373.42	870.68
373.62	847.27
373.81	844.93
374.01	795.78
374.21	812.17
374.40	746.63
374.60	770.04
374.79	760.67
374.99	847.27
375.19	837.91
375.38	791.10
375.58	805.14
375.78	891.74
375.97	849.61
376.17	910.47
376.37	795.78
376.56	870.68
376.76	896.43
376.95	880.04
377.15	943.24
377.35	950.26
377.54	922.17
377.74	1004.09
377.93	875.36
378.13	901.11
378.33	873.02
378.52	919.83
378.72	968.98
378.91	940.90
379.11	980.68
379.31	985.37
379.50	992.39
379.70	1060.26
379.89	966.64
380.09	882.38
380.28	961.96
380.48	971.32
380.68	929.19
380.87	1053.24
381.07	940.90
381.26	1086.01
381.46	1036.86
381.65	1048.56
381.85	1048.56
382.04	1130.48
382.24	1069.62
382.43	1034.52
382.63	1060.26
382.83	1069.62
383.02	1142.18
383.22	1076.65
383.41	1086.01
383.61	1172.61
383.80	1226.44
384.00	1050.90
384.19	1118.78
384.39	1160.91
384.58	1198.35
384.78	1153.88
384.97	1172.61
385.17	1205.38
385.36	1135.16
385.56	1142.18
385.75	1179.63
385.95	1142.18
386.14	1170.27
386.34	1287.29
386.53	1170.27
386.72	1144.52
386.92	1228.78
387.11	1284.95
387.31	1273.25
387.50	1174.95
387.70	1282.61
387.89	1149.20
388.09	1364.53
388.28	1247.51
388.48	1291.98
388.67	1228.78
388.86	1376.24
389.06	1284.95
389.25	1289.64
389.45	1287.29
389.64	1409.00
389.84	1366.87
390.03	1385.60
390.22	1315.38
390.42	1378.58
390.61	1364.53
390.81	1348.15
391.00	1448.79
391.19	1394.96
391.39	1385.60
391.58	1385.60
391.78	1383.26
391.97	1462.83
392.16	1523.69
392.36	1570.50
392.55	1500.28
392.75	1540.07
392.94	1502.62
393.13	1558.80
393.33	1430.07
393.52	1521.35
393.71	1572.84
393.91	1654.76
394.10	1636.03
394.29	1659.44
394.49	1577.52
394.68	1699.23
394.88	1650.08
395.07	1699.23
395.26	1614.97
395.46	1727.32
395.65	1661.78
395.84	1760.08
396.04	1769.44
396.23	1706.25
396.42	1610.29
396.62	1804.55
396.81	1832.64
397.00	1764.76
397.19	1860.73
397.39	1874.77
397.58	1942.64
397.77	1799.87
397.97	1809.23
398.16	1846.68
398.35	1959.03
398.55	1907.54
398.74	1998.82
398.93	2001.16
399.12	1937.96
399.32	2012.86
399.51	1914.56
399.70	2069.03
399.90	1947.33
400.09	2001.16
400.28	2069.03
400.47	2031.58
400.67	2143.93
400.86	2167.34
401.05	2092.44
401.24	2150.95
401.44	2043.29
401.63	2160.31
401.82	2150.95
402.01	2111.16
402.21	2216.49
402.40	2256.28
402.59	2352.24
402.78	2228.19
402.97	2246.91
403.17	2218.83
403.36	2253.94
403.55	2314.79
403.74	2385.01
403.93	2293.72
404.13	2286.70
404.32	2349.90
404.51	2462.24
404.70	2502.03
404.89	2359.26
405.09	2478.63
405.28	2396.71
405.47	2396.71
405.66	2502.03
405.85	2595.65
406.05	2544.16
406.24	2609.70
406.43	2581.61
406.62	2586.29
406.81	2740.77
407.00	2640.12
407.20	2569.91
407.39	2565.23
407.58	2719.70
407.77	2778.22
407.96	2801.62
408.15	2855.45
408.34	2715.02
408.54	2705.66
408.73	2827.37
408.92	2911.63
409.11	2850.77
409.30	2977.16
409.49	2897.58
409.68	2857.79
409.87	2953.76
410.07	3026.31
410.26	3082.49
410.45	3108.23
410.64	3075.46
410.83	3094.19
411.02	3108.23
411.21	3194.83
411.40	3087.17
411.59	3199.51
411.78	3131.64
411.98	3279.09
412.17	3335.26
412.36	3349.31
412.55	3342.28
412.74	3375.05
412.93	3419.52
413.12	3428.88
413.31	3501.44
413.50	3424.20
413.69	3487.40
413.88	3557.61
414.07	3651.24
414.26	3735.50
414.45	3758.90
414.64	3735.50
414.83	3719.11
415.02	3911.04
415.22	3836.14
415.41	4037.42
415.60	3861.88
415.79	3904.01
415.98	3960.19
416.17	3896.99
416.36	4072.53
416.55	3995.29
416.74	3999.98
416.93	4147.43
417.12	4229.35
417.31	4344.03
417.50	4266.80
417.69	4318.29
417.88	4252.75
418.07	4358.08
418.26	4351.06
418.45	4421.27
418.64	4564.04
418.83	4386.16
419.02	4491.49
419.21	4683.41
419.39	4573.41
419.58	4542.98
419.77	4444.68
419.96	4435.32
420.15	4601.49
420.34	4564.04
420.53	4557.02
420.72	4772.35
420.91	4723.20
421.10	4901.08
421.29	4868.31
421.48	4545.32
421.67	4856.61
421.86	4711.50
422.05	4798.10
422.24	4809.80
422.43	4903.42
422.61	4828.53
422.80	4978.32
422.99	4777.03
423.18	5069.60
423.37	5144.50
423.56	4931.51
423.75	4954.91
423.94	4781.71
424.13	4767.67
424.32	4821.50
424.50	5060.24
424.69	5207.69
424.88	5093.01
425.07	5006.41
425.26	4964.28
425.45	5032.15
425.64	5018.11
425.83	5146.84
426.01	5130.45
426.20	5062.58
426.39	5071.94
426.58	5132.79
426.77	4985.34
426.96	5069.60
427.15	5036.83
427.33	5289.61
427.52	5289.61
427.71	5303.65
427.90	5327.06
428.09	5343.44
428.28	5420.68
428.46	5394.93
428.65	5411.32
428.84	5394.93
429.03	5598.56
429.22	5465.15
429.40	5570.48
429.59	5516.64
429.78	5242.80
429.97	5270.89
430.16	5678.14
430.34	5692.18
430.53	5755.38
430.72	5832.62
430.91	5748.36
431.10	5636.01
431.28	5804.53
431.47	5820.91
431.66	5743.67
431.85	5907.51
432.03	6043.26
432.22	5905.17
432.41	5935.60
432.60	6036.24
432.79	5977.73
432.97	5935.60
433.16	6052.63
433.35	6174.33
433.54	6146.25
433.72	5963.68
433.91	6111.14
434.10	6139.23
434.28	6136.88
434.47	6129.86
434.66	6265.61
434.85	6492.65
435.03	6438.81
435.22	6317.11
435.41	6537.12
435.59	6417.75
435.78	6609.67
435.97	6623.72
436.16	6569.88
436.34	6523.07
436.53	6595.63
436.72	6722.02
436.90	6289.02
437.09	6693.93
437.28	6476.26
437.46	6635.42
437.65	6857.77
437.84	6888.20
438.02	6782.87
438.21	6792.23
438.40	6843.73
438.58	7059.06
438.77	7157.36
438.96	6970.12
439.14	7082.46
439.33	7073.10
439.52	7187.79
439.70	7204.17
439.89	7353.96
440.08	7630.15
440.26	7527.16
440.45	7398.43
440.63	7613.76
440.82	7737.81
441.01	7613.76
441.19	7604.40
441.38	7754.19
441.57	7836.11
441.75	7812.71
441.94	8119.32
442.12	8142.72
442.31	8138.04
442.50	8222.30
442.68	8023.36
442.87	8042.08
443.05	8201.24
443.24	8308.90
443.43	8154.43
443.61	8210.60
443.80	8514.87
443.98	8161.45
444.17	7969.52
444.35	8397.84
444.54	8376.78
444.73	8269.11
444.91	8297.20
445.10	8547.64
445.28	8322.94
445.47	8383.80
445.65	8500.83
445.84	8627.21
446.02	8615.51
446.21	8521.89
446.39	8395.50
446.58	8465.72
446.77	8664.66
446.95	8418.91
447.14	8341.67
447.32	8659.98
447.51	8468.06
447.69	8564.02
447.88	8528.91
448.06	8521.89
448.25	8479.76
448.43	8718.50
448.62	8603.81
448.80	8575.72
448.99	8493.80
449.17	8938.51
449.36	8692.75
449.54	8872.97
449.73	9022.77
449.91	9067.24
450.10	9097.66
450.28	9135.11
450.46	9256.82
450.65	9217.03
450.83	9195.96
451.02	9006.38
451.20	9228.73
451.39	9128.09
451.57	9160.86
451.76	9123.41
451.94	9282.56
452.13	9280.22
452.31	9324.69
452.49	9219.37
452.68	9413.63
452.86	9467.47
453.05	9535.34
453.23	9558.75
453.42	9479.17
453.60	9380.87
453.78	9607.90
453.97	9647.69
454.15	9568.11
454.34	9598.54
454.52	9860.68
454.70	9668.75
454.89	9668.75
455.07	9858.34
455.26	9860.68
455.44	10097.07
455.62	10040.90
455.81	9977.70
455.99	9994.09
456.17	10244.52
456.36	10005.79
456.54	10363.89
456.73	10204.74
456.91	10459.85
457.09	10497.30
457.28	10509.01
457.46	10457.51
457.64	10380.28
457.83	10448.15
458.01	10476.24
458.19	10747.74
458.38	10593.26
458.56	10848.38
458.74	10892.85
458.93	10773.49
459.11	10834.34
459.29	10696.25
459.48	10916.26
459.66	10813.28
459.84	10829.66
460.03	11091.80
460.21	11115.20
460.39	10956.05
460.57	11112.86
460.76	11304.79
460.94	11288.40
461.12	11201.80
461.31	11173.72
461.49	11267.34
461.67	11206.48
461.85	11550.54
462.04	11349.26
462.22	11988.22
462.40	11721.40
462.59	11604.38
462.77	11616.08
462.95	11737.79
463.13	11653.53
463.32	11812.68
463.50	11857.15
463.68	11833.75
463.86	12123.98
464.05	11688.64
464.23	11690.98
464.41	12049.08
464.59	11868.86
464.78	12205.89
464.96	12149.72
465.14	12056.10
465.32	12301.86
465.50	12224.62
465.69	12063.12
465.87	12271.43
466.05	12393.14
466.23	12278.45
466.41	12503.14
466.60	12589.74
466.78	12519.53
466.96	12358.03
467.14	12585.06
467.32	12648.26
467.51	12638.89
467.69	12315.90
467.87	12566.34
468.05	12744.22
468.23	12458.67
468.41	12512.50
468.60	12657.62
468.78	13121.04
468.96	12812.09
469.14	12512.50
469.32	13130.41
469.50	12784.01
469.69	13107.00
469.87	12940.82
470.05	13289.56
470.23	13195.94
470.41	13350.42
470.59	13575.11
470.77	13324.67
470.95	13561.06
471.14	13547.02
471.32	13170.19
471.50	13612.56
471.68	13762.35
471.86	13963.64
472.04	13776.39
472.22	14300.67
472.40	13813.84
472.58	14139.18
472.77	13937.89
472.95	14214.07
473.13	14656.43
473.31	14284.29
473.49	14445.79
473.67	14193.01
473.85	14359.19
474.03	14719.63
474.21	14780.48
474.39	14911.55
474.57	14787.50
474.75	14913.89
474.93	15152.63
475.12	15349.23
475.30	15136.24
475.48	15374.98
475.66	15358.60
475.84	15431.15
476.02	15660.52
476.20	15651.16
476.38	15920.32
476.56	16205.87
476.74	16049.05
476.92	15899.26
477.10	15861.81
477.28	16273.74
477.46	16210.55
477.64	16365.03
477.82	16655.25
478.00	17205.28
478.18	16814.41
478.36	17123.36
478.54	17128.04
478.72	17324.65
478.90	17596.15
479.08	17813.82
479.26	17762.33
479.44	17774.03
479.62	18082.98
479.80	18490.23
479.98	18310.01
480.16	18679.82
480.34	18382.57
480.52	18946.64
480.70	18707.90
480.88	18443.42
481.06	18953.66
481.24	18831.95
481.41	19386.66
481.59	19346.87
481.77	19789.23
481.95	19756.46
482.13	19875.83
482.31	19955.41
482.49	20388.41
482.67	20772.25
482.85	20889.28
483.03	20875.24
483.21	20891.62
483.39	21050.78
483.57	21223.98
483.74	21240.36
483.92	21570.38
484.10	21411.22
484.28	21731.87
484.46	22427.01
484.64	22600.21
484.82	22085.30
485.00	22530.00
485.18	22698.52
485.35	23344.50
485.53	22705.54
485.71	23421.74
485.89	23632.39
486.07	23686.22
486.25	23711.97
486.43	23290.67
486.61	23892.19
486.78	24318.17
486.96	24456.26
487.14	24793.29
487.32	25041.39
487.50	25280.13
487.68	25228.63
487.85	25692.06
488.03	25769.30
488.21	26155.49
488.39	26024.42
488.57	26403.58
488.75	26352.09
488.92	26569.76
489.10	26984.04
489.28	27192.34
489.46	27398.31
489.64	27105.74
489.81	27725.99
489.99	28013.87
490.17	28013.87
490.35	28416.44
490.53	28393.04
490.70	28273.67
490.88	28484.32
491.06	29034.35
491.24	29252.02
491.41	29142.01
491.59	29500.11
491.77	29537.56
491.95	30089.93
492.13	29811.40
492.30	30015.03
492.48	30637.61
492.66	30806.13
492.84	30761.66
493.01	31229.77
493.19	30663.36
493.37	31618.30
493.54	31782.13
493.72	31522.34
493.90	31784.48
494.08	32095.77
494.25	32268.97
494.43	32173.00
494.61	33055.39
494.79	32886.87
494.96	33153.69
495.14	33247.31
495.32	33605.41
495.49	33404.13
495.67	33762.23
495.85	33804.36
496.02	34265.44
496.20	34518.22
496.38	34279.49
496.55	34773.34
496.73	35393.58
496.91	34759.30
497.09	35124.42
497.26	35206.34
497.44	35487.20
497.62	35770.41
497.79	36180.00
497.97	35800.83
498.14	36369.58
498.32	36699.60
498.50	36519.38
498.67	37071.75
498.85	36947.70
499.03	36933.65
499.20	37308.14
499.38	37483.68
499.56	37319.84
499.73	37457.93
499.91	37780.93
500.08	38110.94
500.26	37729.44
500.44	37776.25
500.61	38305.21
500.79	38314.57
500.97	38890.34
501.14	39243.76
501.32	38710.12
501.49	38859.91
501.67	38995.67
501.84	39475.48
502.02	38995.67
502.20	39243.76
502.37	39395.90
502.55	39395.90
502.72	39861.66
502.90	39974.01
503.07	39765.70
503.25	40409.35
503.43	40226.79
503.60	40486.59
503.78	40554.46
503.95	40692.55
504.13	40645.74
504.30	41352.58
504.48	41062.36
504.65	41462.59
504.83	41603.02
505.01	41682.60
505.18	41750.48
505.36	41317.48
505.53	42014.96
505.71	41928.36
505.88	42113.26
506.06	42075.81
506.23	42110.92
506.41	42115.60
506.58	42674.99
506.76	42682.01
506.93	42817.76
507.11	42946.49
507.28	43159.48
507.46	43409.92
507.63	43187.56
507.81	43746.95
507.98	43180.54
508.16	43501.20
508.33	43674.40
508.50	44289.96
508.68	44191.65
508.85	44369.54
509.03	44203.36
509.20	44261.87
509.38	45104.46
509.55	44973.39
509.73	45029.57
509.90	45329.16
510.08	44886.79
510.25	44982.76
510.42	45298.73
510.60	45249.58
510.77	45839.39
510.95	45897.91
511.12	45148.93
511.30	45476.61
511.47	45815.99
511.64	46157.70
511.82	46536.87
511.99	46377.72
512.17	46017.27
512.34	46581.34
512.51	46476.02
512.69	46745.18
512.86	46791.99
513.04	46862.21
513.21	46962.85
513.38	47344.36
513.56	47203.92
513.73	47447.34
513.90	47215.63
514.08	47159.45
514.25	47426.28
514.43	48013.75
514.60	48156.52
514.77	48390.58
514.95	47863.96
515.12	47892.04
515.29	48062.90
515.47	48308.66
515.64	48580.16
515.81	48666.76
515.99	48648.03
516.16	48882.09
516.33	48907.83
516.51	49099.76
516.68	49345.51
516.85	48509.94
517.03	49130.19
517.20	49251.89
517.37	48652.72
517.54	49268.28
517.72	49247.21
517.89	49485.95
518.06	49645.10
518.24	49546.80
518.41	49586.59
518.58	49631.06
518.75	49715.32
518.93	49771.49
519.10	49815.96
519.27	50375.35
519.45	50490.04
519.62	50241.94
519.79	50410.46
519.96	50094.49
520.14	50569.61
520.31	50539.19
520.48	50836.44
520.65	50590.68
520.83	51114.96
521.00	51255.39
521.17	50768.56
521.34	50953.46
521.52	51208.58
521.69	50939.42
521.86	51543.28
522.03	51789.03
522.20	51873.29
522.38	51973.94
522.55	51517.53
522.72	51402.85
522.89	52090.96
523.07	51552.64
523.24	51976.28
523.41	52079.26
523.58	51817.12
523.75	52540.35
523.92	52170.54
524.10	52357.78
524.27	52402.25
524.44	52500.56
524.61	52233.74
524.78	52413.96
524.96	52540.35
525.13	52781.42
525.30	52877.38
525.47	52762.70
525.64	52711.20
525.81	52959.30
525.98	53181.65
526.16	53066.97
526.33	53022.50
526.50	53167.61
526.67	53387.62
526.84	53420.39
527.01	53389.96
527.18	53375.92
527.36	53146.54
527.53	53198.04
527.70	53687.21
527.87	53567.84
528.04	53359.53
528.21	53591.25
528.38	53317.40
528.55	53797.21
528.72	53684.87
528.89	53827.64
529.07	53546.78
529.24	53879.13
529.41	54021.90
529.58	53979.78
529.75	53930.62
529.92	54026.59
530.09	54227.87
530.26	54347.24
530.43	54295.75
530.60	54227.87
530.77	54169.36
530.94	54604.70
531.11	54162.34
531.28	54358.94
531.46	54578.95
531.63	54581.29
531.80	54798.96
531.97	54536.82
532.14	54892.58
532.31	55051.74
532.48	55065.78
532.65	55014.29
532.82	54490.01
532.99	54827.05
533.16	54866.84
533.33	54997.91
533.50	55332.60
533.67	55096.21
533.84	54934.71
534.01	55152.38
534.18	55255.37
534.35	55564.32
534.52	55264.73
534.69	55271.75
534.86	55402.82
535.03	55414.52
535.20	55430.91
535.37	55671.98
535.54	55545.59
535.71	55524.53
535.88	55760.92
536.05	55716.45
536.22	55924.76
536.38	56109.66
536.55	55735.18
536.72	56083.92
536.89	55889.65
537.06	55959.87
537.23	55992.64
537.40	55913.06
537.57	55833.48
537.74	56231.37
537.91	56104.98
538.08	56189.24
538.25	56207.97
538.42	56112.00
538.59	56236.05
538.75	56322.65
538.92	56292.22
539.09	56390.53
539.26	56519.26
539.43	56477.13
539.60	56549.68
539.77	56404.57
539.94	56816.50
540.11	56568.41
540.28	56699.48
540.44	56617.56
540.61	56830.55
540.78	56552.02
540.95	56718.20
541.12	56474.79
541.29	56736.93
541.46	56580.11
541.62	56935.87
541.79	56832.89
541.96	56846.93
542.13	56938.21
542.30	56893.74
542.47	57057.58
542.63	57137.16
542.80	57155.88
542.97	57247.16
543.14	57401.64
543.31	57441.43
543.48	57567.82
543.64	57628.67
543.81	57656.76
543.98	57513.98
544.15	57623.99
544.32	57705.91
544.48	57911.88
544.65	57506.96
544.82	57663.78
544.99	57322.06
545.16	57722.29
545.32	57509.30
545.49	58080.39
545.66	57808.89
545.83	57902.51
546.00	57946.98
546.16	57963.37
546.33	57848.68
546.50	57593.56
546.67	57827.62
546.83	57780.81
547.00	58012.52
547.17	57907.19
547.34	57968.05
547.50	58230.19
547.67	58300.40
547.84	58171.67
548.00	58351.90
548.17	58585.95
548.34	58541.48
548.51	58560.20
548.67	58508.71
548.84	58623.40
549.01	58482.97
549.18	58506.37
549.34	58717.02
549.51	58590.63
549.68	58471.26
549.84	58595.31
550.01	58473.60
550.18	58391.68
550.34	58726.38
550.51	58934.69
550.68	58906.60
550.84	58480.63
551.01	59096.19
551.18	58808.30
551.34	58670.21
551.51	59089.16
551.68	58848.09
551.84	58775.53
552.01	58698.30
552.18	59105.55
552.34	58848.09
552.51	59128.95
552.68	58969.80
552.84	58979.16
553.01	59217.89
553.18	59215.55
553.34	59119.59
553.51	58780.21
553.67	59164.06
553.84	59241.30
554.01	59100.87
554.17	59370.03
554.34	59257.68
554.51	59299.81
554.67	59370.03
554.84	59157.04
555.00	59253.00
555.17	59229.60
555.33	59456.63
555.50	59245.98
555.67	59217.89
555.83	59267.05
556.00	59391.09
556.16	59568.97
556.33	59777.28
556.50	59454.29
556.66	59831.11
556.83	59215.55
556.99	59772.60
557.16	59723.45
557.32	59732.81
557.49	59728.13
557.65	59475.35
557.82	59592.38
557.98	59566.63
558.15	59767.92
558.32	59604.08
558.48	59491.74
558.65	59781.96
558.81	59716.43
558.98	59828.77
559.14	59819.41
559.31	59863.88
559.47	59732.81
559.64	59891.97
559.80	59924.74
559.97	59835.80
560.13	59824.09
560.30	59987.93
560.46	59924.74
560.63	60037.08
560.79	59934.10
560.96	59987.93
561.12	60048.78
561.29	60039.42
561.45	59927.08
561.61	60058.15
561.78	60090.91
561.94	60313.26
562.11	60184.54
562.27	60168.15
562.44	60322.63
562.60	60158.79
562.77	60154.11
562.93	59978.57
563.10	60247.73
563.26	60257.09
563.42	60535.62
563.59	60224.32
563.75	60219.64
563.92	60292.20
564.08	60324.97
564.24	60395.18
564.41	60409.23
564.57	60563.70
564.74	60395.18
564.90	60458.38
565.07	60339.01
565.23	60369.44
565.39	60350.71
565.56	60509.87
565.72	60533.28
565.88	60446.68
566.05	60280.50
566.21	60376.46
566.38	60355.39
566.54	60729.88
566.70	60708.82
566.87	60603.49
567.03	60334.33
567.19	60790.73
567.36	60790.73
567.52	60692.43
567.68	60846.91
567.85	60727.54
568.01	60577.75
568.17	60643.28
568.34	60397.52
568.50	60554.34
568.66	60636.26
568.83	60608.17
568.99	60404.55
569.15	60687.75
569.32	60669.03
569.48	60652.64
569.64	60797.76
569.81	60624.56
569.97	60603.49
570.13	60818.82
570.30	60619.88
570.46	60755.63
570.62	60650.30
570.78	60882.02
570.95	60821.16
571.11	60678.39
571.27	60704.13
571.43	60919.46
571.60	60970.96
571.76	60949.89
571.92	60903.08
572.09	60828.18
572.25	60903.08
572.41	60718.18
572.57	60898.40
572.74	60966.27
572.90	60687.75
573.06	61013.08
573.22	60725.20
573.38	60786.05
573.55	60856.27
573.71	61167.56
573.87	60945.21
574.03	60825.84
574.20	60769.67
574.36	60947.55
574.52	60900.74
574.68	60837.54
574.84	61071.60
575.01	61010.74
575.17	61020.11
575.33	60938.19
575.49	60720.52
575.65	61148.84
575.82	60987.34
575.98	61092.66
576.14	61167.56
576.30	61052.87
576.46	60963.93
576.62	60992.02
576.79	60980.32
576.95	60788.39
577.11	60968.61
577.27	61221.39
577.43	61017.77
577.59	60786.05
577.75	60921.80
577.92	60720.52
578.08	61057.56
578.24	60999.04
578.40	61251.82
578.56	61261.18
578.72	61151.18
578.88	61329.06
579.04	61284.59
579.21	61076.28
579.37	61228.41
579.53	61226.07
579.69	61073.94
579.85	60900.74
580.01	61057.56
580.17	61188.63
580.33	61216.71
580.49	61221.39
580.65	61230.75
580.82	61233.10
580.98	61085.64
581.14	61031.81
581.30	61219.05
581.46	61116.07
581.62	61144.16
581.78	61242.46
581.94	61291.61
582.10	61036.49
582.26	61209.69
582.42	61209.69
582.58	61279.91
582.74	61186.28
582.90	61113.73
583.06	61153.52
583.22	61167.56
583.38	61263.52
583.54	61130.11
583.70	61300.97
583.86	61247.14
584.02	61137.13
584.18	61205.01
584.34	61102.03
584.50	61219.05
584.66	61106.71
584.82	61006.06
584.98	61396.93
585.14	61261.18
585.30	60973.30
585.46	61268.20
585.62	61298.63
585.78	61361.82
585.94	61186.28
586.10	61219.05
586.26	61151.18
586.42	61249.48
586.58	61319.70
586.74	61385.23
586.90	61165.22
587.06	61219.05
587.22	61293.95
587.38	61296.29
587.54	61265.86
587.70	61542.05
587.86	61324.38
588.02	61167.56
588.18	61530.34
588.34	61240.12
588.49	61284.59
