SpectraSuite Data File
++++++++++++++++++++++++++++++++++++
Date: Fri Oct 25 10:43:40 EDT 2013
User: price-jones
Dark Spectrum Present: No
Reference Spectrum Present: No
Number of Sampled Component Spectra: 1
Spectrometers: USB2+H05261
Integration Time (usec): 100000 (USB2+H05261)
Spectra Averaged: 1 (USB2+H05261)
Boxcar Smoothing: 0 (USB2+H05261)
Correct for Electrical Dark: No (USB2+H05261)
Strobe/Lamp Enabled: No (USB2+H05261)
Correct for Detector Non-linearity: No (USB2+H05261)
Correct for Stray Light: No (USB2+H05261)
Number of Pixels in Processed Spectrum: 2048
>>>>>Begin Processed Spectral Data<<<<<
365.73	138.09
365.92	138.09
366.12	138.09
366.32	14.04
366.52	0.00
366.72	0.00
366.91	0.00
367.11	65.54
367.31	60.85
367.51	44.47
367.70	11.70
367.90	32.77
368.10	0.00
368.30	7.02
368.49	16.38
368.69	126.39
368.89	91.28
369.09	53.83
369.28	44.47
369.48	56.17
369.68	60.85
369.87	117.03
370.07	84.26
370.27	79.58
370.47	182.56
370.66	433.00
370.86	395.55
371.06	458.74
371.25	491.51
371.45	409.59
371.65	500.87
371.84	468.11
372.04	358.10
372.24	496.19
372.44	514.92
372.63	482.15
372.83	545.34
373.03	538.32
373.22	571.09
373.42	514.92
373.62	557.05
373.81	575.77
374.01	582.79
374.21	620.24
374.40	543.00
374.60	573.43
374.79	561.73
374.99	500.87
375.19	500.87
375.38	613.22
375.58	561.73
375.78	634.29
375.97	748.97
376.17	667.05
376.37	631.94
376.56	667.05
376.76	631.94
376.95	653.01
377.15	770.04
377.35	692.80
377.54	667.05
377.74	690.46
377.93	653.01
378.13	643.65
378.33	664.71
378.52	645.99
378.72	620.24
378.91	582.79
379.11	561.73
379.31	601.52
379.50	589.82
379.70	608.54
379.89	739.61
380.09	650.67
380.28	720.88
380.48	636.63
380.68	681.10
380.87	704.50
381.07	711.52
381.26	767.70
381.46	674.07
381.65	641.31
381.85	706.84
382.04	690.46
382.24	650.67
382.43	664.71
382.63	713.86
382.83	758.33
383.02	702.16
383.22	798.12
383.41	716.20
383.61	826.21
383.80	739.61
384.00	765.36
384.19	770.04
384.39	835.57
384.58	800.46
384.78	854.30
384.97	784.08
385.17	842.59
385.36	755.99
385.56	791.10
385.75	784.08
385.95	884.72
386.14	802.80
386.34	863.66
386.53	894.08
386.72	758.33
386.92	908.13
387.11	833.23
387.31	912.81
387.50	781.74
387.70	884.72
387.89	788.76
388.09	858.98
388.28	924.51
388.48	917.49
388.67	999.41
388.86	891.74
389.06	1018.13
389.25	936.21
389.45	983.02
389.64	1006.43
389.84	1062.60
390.03	1008.77
390.22	1046.22
390.42	950.26
390.61	1004.09
390.81	1081.33
391.00	1055.58
391.19	1015.79
391.39	1100.05
391.58	1083.67
391.78	1069.62
391.97	1011.11
392.16	1062.60
392.36	1034.52
392.55	1086.01
392.75	950.26
392.94	992.39
393.13	1022.81
393.33	1046.22
393.52	1064.94
393.71	1111.75
393.91	1151.54
394.10	1123.46
394.29	1144.52
394.49	1151.54
394.68	1268.57
394.88	1193.67
395.07	1219.42
395.26	1228.78
395.46	1287.29
395.65	1259.21
395.84	1186.65
396.04	1210.06
396.23	1245.16
396.42	1139.84
396.62	1252.19
396.81	1132.82
397.00	1214.74
397.19	1315.38
397.39	1383.26
397.58	1425.39
397.77	1404.32
397.97	1404.32
398.16	1458.15
398.35	1437.09
398.55	1423.05
398.74	1511.99
398.93	1591.56
399.12	1439.43
399.32	1565.82
399.51	1509.65
399.70	1584.54
399.90	1540.07
400.09	1533.05
400.28	1685.19
400.47	1629.01
400.67	1727.32
400.86	1732.00
401.05	1701.57
401.24	1722.63
401.44	1619.65
401.63	1727.32
401.82	1614.97
402.01	1774.13
402.21	1771.79
402.40	1750.72
402.59	1776.47
402.78	1664.12
402.97	1849.02
403.17	1928.60
403.36	1863.07
403.55	1792.85
403.74	1858.39
403.93	1834.98
404.13	1858.39
404.32	1952.01
404.51	1886.47
404.70	1940.30
404.89	1921.58
405.09	1987.11
405.28	1905.20
405.47	1975.41
405.66	2033.93
405.85	1928.60
406.05	1884.13
406.24	2062.01
406.43	2003.50
406.62	2106.48
406.81	2146.27
407.00	2066.69
407.20	2038.61
407.39	2008.18
407.58	2179.04
407.77	2195.42
407.96	2150.95
408.15	2335.85
408.34	2214.15
408.54	2406.07
408.73	2335.85
408.92	2382.67
409.11	2328.83
409.30	2434.16
409.49	2267.98
409.68	2312.45
409.87	2298.41
410.07	2382.67
410.26	2305.43
410.45	2415.43
410.64	2499.69
410.83	2597.99
411.02	2546.50
411.21	2609.70
411.40	2661.19
411.59	2609.70
411.78	2614.38
411.98	2689.28
412.17	2682.25
412.36	2668.21
412.55	2775.88
412.74	2761.83
412.93	2708.00
413.12	2736.09
413.31	2752.47
413.50	2960.78
413.69	2885.88
413.88	3028.65
414.07	2960.78
414.26	2939.71
414.45	3056.74
414.64	3094.19
414.83	3075.46
415.02	3162.06
415.22	3124.62
415.41	3206.53
415.60	3159.72
415.79	3180.79
415.98	3302.50
416.17	3311.86
416.36	3330.58
416.55	3466.33
416.74	3318.88
416.93	3255.69
417.12	3384.41
417.31	3185.47
417.50	3475.70
417.69	3510.80
417.88	3386.76
418.07	3433.57
418.26	3566.98
418.45	3517.83
418.64	3691.02
418.83	3590.38
419.02	3590.38
419.21	3463.99
419.39	3648.90
419.58	3529.53
419.77	3672.30
419.96	3585.70
420.15	3726.13
420.34	3651.24
420.53	3707.41
420.72	3906.35
420.91	3742.52
421.10	3915.72
421.29	4016.36
421.48	3873.59
421.67	3997.64
421.86	3983.59
422.05	3978.91
422.24	3686.34
422.43	3864.22
422.61	4011.68
422.80	3885.29
422.99	4039.76
423.18	3999.98
423.37	4067.85
423.56	3988.27
423.75	3922.74
423.94	3775.28
424.13	3681.66
424.32	3932.10
424.50	4016.36
424.69	4028.06
424.88	3962.53
425.07	3995.29
425.26	3976.57
425.45	3925.08
425.64	3908.69
425.83	3850.18
426.01	4014.02
426.20	4114.66
426.39	3990.61
426.58	4100.62
426.77	4063.17
426.96	4007.00
427.15	4053.81
427.33	4023.38
427.52	4114.66
427.71	4215.30
427.90	4210.62
428.09	4231.69
428.28	4358.08
428.46	4060.83
428.65	4219.99
428.84	4393.19
429.03	4304.25
429.22	4063.17
429.40	4180.20
429.59	4142.75
429.78	3960.19
429.97	4044.45
430.16	4126.36
430.34	4035.08
430.53	4163.81
430.72	4470.42
430.91	4339.35
431.10	4500.85
431.28	4615.54
431.47	4713.84
431.66	4664.69
431.85	4608.51
432.03	4622.56
432.22	4732.56
432.41	4564.04
432.60	4781.71
432.79	4723.20
432.97	4807.46
433.16	4779.37
433.35	4702.14
433.54	4765.33
433.72	4835.55
433.91	4683.41
434.10	4835.55
434.28	4823.84
434.47	4908.10
434.66	4933.85
434.85	4957.25
435.03	5001.72
435.22	5060.24
435.41	5352.81
435.59	5078.96
435.78	5198.33
435.97	5282.59
436.16	5111.73
436.34	5252.16
436.53	5036.83
436.72	5348.12
436.90	5076.62
437.09	5214.71
437.28	5226.42
437.46	5224.08
437.65	5350.46
437.84	5231.10
438.02	5270.89
438.21	5132.79
438.40	5305.99
438.58	5350.46
438.77	5462.81
438.96	5490.90
439.14	5563.45
439.33	5708.57
439.52	5575.16
439.70	5823.25
439.89	5708.57
440.08	5671.12
440.26	5708.57
440.45	5905.17
440.63	5834.96
440.82	6022.20
441.01	5975.39
441.19	6120.50
441.38	6050.28
441.57	6104.12
441.75	6363.92
441.94	6401.37
442.12	6485.62
442.31	6370.94
442.50	6471.58
442.68	6368.60
442.87	6490.31
443.05	6427.11
443.24	6518.39
443.43	6530.09
443.61	6590.95
443.80	6679.89
443.98	6408.39
444.17	6190.72
444.35	6623.72
444.54	6609.67
444.73	6607.33
444.91	6429.45
445.10	6548.82
445.28	6558.18
445.47	6392.00
445.65	6424.77
445.84	6696.27
446.02	6576.91
446.21	6572.22
446.39	6576.91
446.58	6782.87
446.77	6766.49
446.95	6649.46
447.14	6747.76
447.32	6939.69
447.51	6780.53
447.69	6649.46
447.88	6782.87
448.06	6724.36
448.25	6848.41
448.43	7026.29
448.62	6820.32
448.80	6890.54
448.99	6864.79
449.17	6715.00
449.36	6925.65
449.54	7218.21
449.73	7115.23
449.91	7180.76
450.10	7337.58
450.28	7389.07
450.46	7330.56
450.65	7243.96
450.83	7414.82
451.02	7426.52
451.20	7414.82
451.39	7178.42
451.57	7178.42
451.76	7218.21
451.94	7286.09
452.13	7356.30
452.31	7103.53
452.49	7155.02
452.68	7342.26
452.86	7325.88
453.05	7393.75
453.23	7281.41
453.42	7410.14
453.60	7377.37
453.78	7407.80
453.97	7286.09
454.15	7447.58
454.34	7445.24
454.52	7611.42
454.70	7581.00
454.89	7719.09
455.07	7639.51
455.26	7791.64
455.44	7936.76
455.62	7716.75
455.81	7763.56
455.99	8091.23
456.17	8025.70
456.36	7981.23
456.54	7974.21
456.73	8058.46
456.91	8241.03
457.09	8250.39
457.28	8205.92
457.46	8013.99
457.64	8191.88
457.83	8311.24
458.01	8194.22
458.19	8395.50
458.38	8292.52
458.56	8262.09
458.74	8402.52
458.93	8500.83
459.11	8477.42
459.29	8451.67
459.48	8418.91
459.66	8250.39
459.84	8533.59
460.03	8568.70
460.21	8514.87
460.39	8596.79
460.57	8704.45
460.76	8844.88
460.94	8706.79
461.12	8592.11
461.31	9025.11
461.49	8781.69
461.67	8816.80
461.85	8926.80
462.04	8978.30
462.22	9324.69
462.40	8849.57
462.59	8887.01
462.77	9217.03
462.95	9022.77
463.13	8812.12
463.32	9116.39
463.50	8985.32
463.68	8847.22
463.86	9114.05
464.05	9160.86
464.23	8997.02
464.41	9013.40
464.59	9034.47
464.78	9121.07
464.96	9275.54
465.14	9029.79
465.32	9181.92
465.50	9493.21
465.69	9460.45
465.87	9312.99
466.05	9394.91
466.23	9334.06
466.41	9240.44
466.60	9598.54
466.78	9392.57
466.96	9397.25
467.14	9441.72
467.32	9455.76
467.51	9474.49
467.69	9408.95
467.87	9778.76
468.05	9607.90
468.23	9575.13
468.41	9458.10
468.60	9556.41
468.78	9678.12
468.96	9645.35
469.14	9652.37
469.32	9802.16
469.50	9474.49
469.69	9804.50
469.87	10003.45
470.05	10057.28
470.23	10010.47
470.41	9872.38
470.59	10127.50
470.77	10092.39
470.95	10015.15
471.14	10352.19
471.32	10012.81
471.50	10377.94
471.68	10305.38
471.86	10431.77
472.04	10513.69
472.22	10363.89
472.40	10399.00
472.58	10471.56
472.77	10511.35
472.95	10822.64
473.13	11019.24
473.31	10656.46
473.49	10583.90
473.67	10930.30
473.85	10787.53
474.03	11503.73
474.21	11040.31
474.39	11063.71
474.57	11499.05
474.75	11124.57
474.93	11445.22
475.12	11323.51
475.30	11426.50
475.48	11524.80
475.66	11309.47
475.84	11426.50
476.02	11571.61
476.20	11576.29
476.38	11789.28
476.56	11974.18
476.74	11960.14
476.92	12142.70
477.10	12006.95
477.28	11910.99
477.46	12105.25
477.64	12339.30
477.82	12503.14
478.00	12938.48
478.18	12676.34
478.36	12559.31
478.54	12573.36
478.72	12872.95
478.90	13095.30
479.08	12992.31
479.26	13207.64
479.44	13273.18
479.62	13373.82
479.80	13465.10
479.98	13635.96
480.16	13813.84
480.34	13867.67
480.52	13895.76
480.70	14090.02
480.88	13715.54
481.06	14174.28
481.24	14111.09
481.41	14354.51
481.59	14558.13
481.77	14527.71
481.95	14586.22
482.13	14567.49
482.31	14710.27
482.49	15356.25
482.67	14874.10
482.85	15012.20
483.03	15225.18
483.21	15459.24
483.39	15529.45
483.57	15609.03
483.74	15709.68
483.92	15807.98
484.10	15693.29
484.28	15885.22
484.46	16362.69
484.64	16650.57
484.82	16266.72
485.00	16585.04
485.18	16627.17
485.35	16657.59
485.53	16407.16
485.71	16233.96
485.89	16514.82
486.07	16664.61
486.25	16912.71
486.43	16837.81
486.61	17214.64
486.78	17355.07
486.96	17441.67
487.14	17551.68
487.32	17888.71
487.50	18204.69
487.68	18373.21
487.85	18817.91
488.03	18677.48
488.21	18761.73
488.39	18668.11
488.57	18946.64
488.75	18703.22
488.92	19461.55
489.10	19751.78
489.28	19302.40
489.46	20123.93
489.64	19939.02
489.81	20505.43
489.99	20245.63
490.17	20334.57
490.35	20692.68
490.53	20425.86
490.70	20664.59
490.88	20741.83
491.06	20884.60
491.24	21062.48
491.41	21010.99
491.59	21411.22
491.77	20858.85
491.95	21341.00
492.13	21649.96
492.30	21802.09
492.48	21757.62
492.66	21921.46
492.84	21998.70
493.01	22471.48
493.19	21942.52
493.37	22207.00
493.54	22567.45
493.72	22801.50
493.90	22867.03
494.08	23124.49
494.25	23332.80
494.43	23220.45
494.61	23419.40
494.79	23901.55
494.96	23726.01
495.14	23896.87
495.32	24086.45
495.49	23920.28
495.67	24072.41
495.85	24245.61
496.02	24390.72
496.20	24666.91
496.38	24683.29
496.55	24627.12
496.73	25383.11
496.91	24971.18
497.09	25043.73
497.26	25364.39
497.44	25371.41
497.62	25671.00
497.79	25460.35
497.97	25486.09
498.14	25673.34
498.32	26052.50
498.50	25820.79
498.67	26132.08
498.85	26345.07
499.03	26368.48
499.20	26422.31
499.38	26600.19
499.56	26740.62
499.73	27026.17
499.91	26789.77
500.08	26918.50
500.26	26597.85
500.44	26806.16
500.61	27009.78
500.79	26843.60
500.97	27445.12
501.14	27204.05
501.32	27218.09
501.49	27147.87
501.67	27524.70
501.84	27386.61
502.02	28016.21
502.20	28147.28
502.37	28224.52
502.55	28266.65
502.72	28051.32
502.90	28238.56
503.07	28149.62
503.25	28489.00
503.43	28137.92
503.60	28276.01
503.78	28842.42
503.95	28453.89
504.13	28826.04
504.30	28725.39
504.48	28914.98
504.65	29076.48
504.83	29097.54
505.01	29474.37
505.18	29558.63
505.36	29626.50
505.53	29783.32
505.71	30110.99
505.88	29989.28
506.06	30022.05
506.23	29565.65
506.41	30094.61
506.58	30279.51
506.76	29776.30
506.93	30164.82
507.11	30520.59
507.28	30099.29
507.46	30057.16
507.63	30347.39
507.81	30501.86
507.98	30569.74
508.16	30609.53
508.33	30969.97
508.50	31129.12
508.68	30946.56
508.85	31386.58
509.03	31498.93
509.20	31541.06
509.38	31342.11
509.55	31828.95
509.73	31299.98
509.90	31962.36
510.08	31690.85
510.25	31725.96
510.42	32037.25
510.60	32226.84
510.77	32173.00
510.95	32376.63
511.12	31936.61
511.30	32208.11
511.47	32229.18
511.64	32629.41
511.82	32636.43
511.99	32364.93
512.17	32458.55
512.34	32992.19
512.51	32996.87
512.69	32952.40
512.86	33472.00
513.04	33209.86
513.21	33015.60
513.38	32849.42
513.56	33207.52
513.73	33301.14
513.90	33078.79
514.08	33036.66
514.25	33291.78
514.43	33710.74
514.60	33537.54
514.77	33518.81
514.95	34146.08
515.12	33806.70
515.29	33827.76
515.47	34450.35
515.64	34560.35
515.81	34071.18
515.99	34134.37
516.16	34197.57
516.33	33736.48
516.51	34169.48
516.68	33214.54
516.85	33493.07
517.03	33940.11
517.20	34653.97
517.37	34529.92
517.54	34410.56
517.72	34426.94
517.89	34150.76
518.06	34307.57
518.24	34700.78
518.41	34576.73
518.58	34873.98
518.75	35278.89
518.93	35349.11
519.10	34881.00
519.27	35110.38
519.45	35089.31
519.62	35604.23
519.79	35522.31
519.96	35543.38
520.14	35585.50
520.31	35363.15
520.48	35800.83
520.65	35625.29
520.83	36158.94
521.00	36226.81
521.17	35920.20
521.34	35782.11
521.52	36414.05
521.69	36275.96
521.86	36706.62
522.03	36861.10
522.20	36357.88
522.38	36594.28
522.55	36655.13
522.72	36622.36
522.89	36807.26
523.07	36945.36
523.24	36767.48
523.41	37591.34
523.58	37256.65
523.75	37425.17
523.92	37762.20
524.10	37261.33
524.27	37549.21
524.44	37256.65
524.61	37912.00
524.78	37724.75
524.96	38022.00
525.13	38202.22
525.30	37851.14
525.47	37818.38
525.64	37776.25
525.81	37673.26
525.98	37963.49
526.16	37394.74
526.33	37532.83
526.50	37881.57
526.67	37266.01
526.84	37439.21
527.01	37247.29
527.18	38429.26
527.36	38717.14
527.53	38246.69
527.70	38712.46
527.87	38925.45
528.04	38880.98
528.21	38890.34
528.38	38946.51
528.55	39171.21
528.72	38955.88
528.89	39248.44
529.07	39339.72
529.24	38700.76
529.41	39178.23
529.58	38735.87
529.75	39292.91
529.92	39449.73
530.09	39658.04
530.26	39257.81
530.43	39789.11
530.60	39332.70
530.77	39395.90
530.94	40037.20
531.11	39608.89
531.28	39545.69
531.46	39866.34
531.63	40072.31
531.80	39683.78
531.97	39880.39
532.14	39414.62
532.31	39274.19
532.48	39871.03
532.65	40044.23
532.82	39985.71
532.99	39974.01
533.16	39894.43
533.33	40194.02
533.50	39985.71
533.67	40215.08
533.84	40069.97
534.01	40130.83
534.18	40285.30
534.35	40678.51
534.52	40364.88
534.69	40287.64
534.86	40875.12
535.03	40275.94
535.20	41137.26
535.37	40950.01
535.54	41158.32
535.71	40947.67
535.88	40753.41
536.05	40765.11
536.22	41301.09
536.38	40903.20
536.55	40671.49
536.72	40814.26
536.89	40903.20
537.06	41017.89
537.23	41591.32
537.40	41411.10
537.57	41483.66
537.74	41607.70
537.91	41172.36
538.08	41420.46
538.25	41453.23
538.42	41544.51
538.59	41476.63
538.75	41455.57
538.92	41368.97
539.09	41729.41
539.26	41743.45
539.43	41769.20
539.60	42045.38
539.77	41954.10
539.94	41670.90
540.11	42209.22
540.28	41881.55
540.44	41425.14
540.61	41593.66
540.78	41497.70
540.95	41897.93
541.12	41951.76
541.29	42169.43
541.46	42239.65
541.62	42438.59
541.79	42274.76
541.96	41940.06
542.13	42014.96
542.30	42279.44
542.47	42241.99
542.63	42148.37
542.80	42546.26
542.97	42691.37
543.14	42976.92
543.31	42782.65
543.48	43107.99
543.64	42918.40
543.81	43065.86
543.98	43360.76
544.15	42684.35
544.32	42759.25
544.48	43718.87
544.65	43161.82
544.82	43438.00
544.99	43026.07
545.16	43192.25
545.32	42483.06
545.49	43777.38
545.66	43711.84
545.83	43725.89
546.00	43660.35
546.16	43508.22
546.33	42993.30
546.50	42979.26
546.67	43892.07
546.83	42855.21
547.00	43587.80
547.17	43540.99
547.34	43543.33
547.50	43707.16
547.67	44016.11
547.84	43662.69
548.00	44250.17
548.17	43819.51
548.34	43779.72
548.51	44170.59
548.67	43849.94
548.84	43988.03
549.01	44044.20
549.18	43739.93
549.34	44147.18
549.51	43871.00
549.68	44086.33
549.84	44205.70
550.01	44502.95
550.18	43576.09
550.34	44076.97
550.51	44299.32
550.68	44222.08
550.84	43784.40
551.01	43964.62
551.18	44135.48
551.34	43955.26
551.51	44610.61
551.68	44697.21
551.84	44570.82
552.01	44589.55
552.18	44098.03
552.34	44076.97
552.51	44624.65
552.68	44626.99
552.84	44861.05
553.01	44992.12
553.18	44718.28
553.34	44737.00
553.51	44912.54
553.67	44809.56
553.84	45233.19
554.01	44802.53
554.17	45212.13
554.34	45010.84
554.51	45041.27
554.67	44905.52
554.84	44673.81
555.00	44605.93
555.17	45006.16
555.33	45034.25
555.50	44975.73
555.67	45310.43
555.83	45153.62
556.00	45170.00
556.16	45291.71
556.33	45193.40
556.50	45244.90
556.66	45464.91
556.83	44872.75
556.99	45237.87
557.16	45572.57
557.32	45481.29
557.49	45523.42
557.65	44416.35
557.82	45172.34
557.98	45502.35
558.15	44985.10
558.32	45588.95
558.48	45022.54
558.65	45319.79
558.81	45214.47
558.98	45275.32
559.14	45184.04
559.31	45022.54
559.47	45366.60
559.64	45287.03
559.80	45607.68
559.97	45624.06
560.13	45319.79
560.30	45523.42
560.46	45600.66
560.63	45497.67
560.79	45588.95
560.96	45652.15
561.12	45879.18
561.29	45481.29
561.45	45790.24
561.61	45656.83
561.78	45375.97
561.94	45354.90
562.11	45565.55
562.27	45408.73
562.44	45771.52
562.60	46305.16
562.77	45933.01
562.93	45715.34
563.10	46298.14
563.26	45998.55
563.42	46045.36
563.59	45684.92
563.75	45879.18
563.92	45961.10
564.08	46031.32
564.24	46188.13
564.41	45741.09
564.57	45495.33
564.74	45989.19
564.90	45631.08
565.07	45708.32
565.23	46066.42
565.39	45659.17
565.56	45785.56
565.72	45649.81
565.88	45539.80
566.05	45544.48
566.21	46099.19
566.38	45860.46
566.54	45766.84
566.70	46260.69
566.87	46143.66
567.03	46045.36
567.19	46782.63
567.36	46361.33
567.52	45954.08
567.68	46223.24
567.85	45965.78
568.01	46185.79
568.17	46197.49
568.34	46550.91
568.50	46033.66
568.66	46199.83
568.83	46043.02
568.99	45507.04
569.15	46061.74
569.32	46251.33
569.48	45605.34
569.64	46176.43
569.81	45900.25
569.97	45921.31
570.13	46241.96
570.30	45572.57
570.46	45954.08
570.62	45404.05
570.78	45537.46
570.95	45570.23
571.11	46148.34
571.27	46155.36
571.43	45986.85
571.60	46120.26
571.76	46043.02
571.92	46171.75
572.09	46373.03
572.25	46466.66
572.41	46230.26
572.57	46157.70
572.74	46618.79
572.90	46209.20
573.06	46398.78
573.22	46225.58
573.38	46066.42
573.55	45846.41
573.71	46148.34
573.87	46316.86
574.03	46033.66
574.20	46525.17
574.36	46014.93
574.52	46293.46
574.68	46178.77
574.84	46473.68
575.01	46115.58
575.17	46267.71
575.33	45823.01
575.49	45886.20
575.65	46403.46
575.82	46234.94
575.98	45998.55
576.14	46197.49
576.30	46103.87
576.46	45762.15
576.62	45844.07
576.79	46295.80
576.95	46155.36
577.11	46349.63
577.27	46305.16
577.43	46028.98
577.59	46237.28
577.75	45771.52
577.92	45769.18
578.08	45883.86
578.24	45776.20
578.40	45916.63
578.56	46546.23
578.72	46068.76
578.88	46560.28
579.04	46108.55
579.21	46256.01
579.37	45830.03
579.53	46361.33
579.69	46256.01
579.85	46223.24
580.01	46504.10
580.17	46274.73
580.33	46241.96
580.49	46520.49
580.65	46169.41
580.82	46412.82
580.98	46209.20
581.14	46155.36
581.30	46258.35
581.46	46597.73
581.62	46267.71
581.78	46326.22
581.94	47145.41
582.10	46377.72
582.26	46590.70
582.42	46382.40
582.58	46181.11
582.74	46370.69
582.90	46295.80
583.06	46562.62
583.22	46387.08
583.38	46534.53
583.54	46721.77
583.70	46822.42
583.86	46492.40
584.02	46258.35
584.18	46546.23
584.34	46520.49
584.50	46408.14
584.66	46218.56
584.82	46576.66
584.98	46576.66
585.14	46621.13
585.30	46394.10
585.46	46337.93
585.62	46157.70
585.78	46410.48
585.94	45787.90
586.10	46588.36
586.26	45979.82
586.42	46593.04
586.58	46848.16
586.74	46471.34
586.90	45858.12
587.06	46667.94
587.22	46218.56
587.38	46115.58
587.54	46277.07
587.70	46401.12
587.86	46586.02
588.02	46298.14
588.18	46721.77
588.34	46202.18
588.49	45848.75
588.65	46167.07
588.81	45815.99
588.97	45844.07
589.13	45989.19
589.29	46019.61
589.45	46263.03
589.61	45930.67
589.77	46438.57
589.93	47023.70
