SpectraSuite Data File
++++++++++++++++++++++++++++++++++++
Date: Fri Oct 25 11:26:17 EDT 2013
User: price-jones
Dark Spectrum Present: No
Reference Spectrum Present: No
Number of Sampled Component Spectra: 1
Spectrometers: USB2+H05261
Integration Time (usec): 100000 (USB2+H05261)
Spectra Averaged: 1 (USB2+H05261)
Boxcar Smoothing: 0 (USB2+H05261)
Correct for Electrical Dark: No (USB2+H05261)
Strobe/Lamp Enabled: No (USB2+H05261)
Correct for Detector Non-linearity: No (USB2+H05261)
Correct for Stray Light: No (USB2+H05261)
Number of Pixels in Processed Spectrum: 2048
>>>>>Begin Processed Spectral Data<<<<<
365.73	227.03
365.92	227.03
366.12	227.03
366.32	149.79
366.52	133.41
366.72	112.35
366.91	72.56
367.11	100.64
367.31	159.16
367.51	74.90
367.70	203.63
367.90	147.45
368.10	100.64
368.30	187.24
368.49	191.92
368.69	201.29
368.89	126.39
369.09	128.73
369.28	203.63
369.48	238.73
369.68	201.29
369.87	147.45
370.07	276.18
370.27	243.42
370.47	325.33
370.66	568.75
370.86	627.26
371.06	627.26
371.25	638.97
371.45	667.05
371.65	765.36
371.84	667.05
372.04	692.80
372.24	725.57
372.44	727.91
372.63	784.08
372.83	755.99
373.03	720.88
373.22	713.86
373.42	753.65
373.62	849.61
373.81	816.85
374.01	826.21
374.21	898.77
374.40	737.27
374.60	784.08
374.79	784.08
374.99	847.27
375.19	805.14
375.38	737.27
375.58	835.57
375.78	894.08
375.97	870.68
376.17	976.00
376.37	926.85
376.56	882.38
376.76	861.32
376.95	842.59
377.15	866.00
377.35	997.07
377.54	938.55
377.74	880.04
377.93	882.38
378.13	868.34
378.33	933.87
378.52	891.74
378.72	957.28
378.91	940.90
379.11	910.47
379.31	940.90
379.50	898.77
379.70	1015.79
379.89	1025.15
380.09	971.32
380.28	943.24
380.48	976.00
380.68	983.02
380.87	994.73
381.07	964.30
381.26	1114.10
381.46	1025.15
381.65	1062.60
381.85	1013.45
382.04	1001.75
382.24	1020.47
382.43	1046.22
382.63	1081.33
382.83	1027.50
383.02	1104.73
383.22	1064.94
383.41	1036.86
383.61	1078.99
383.80	1179.63
384.00	1170.27
384.19	1163.25
384.39	1179.63
384.58	1158.57
384.78	1144.52
384.97	1174.95
385.17	1205.38
385.36	1076.65
385.56	1158.57
385.75	1188.99
385.95	1123.46
386.14	1137.50
386.34	1273.25
386.53	1247.51
386.72	1254.53
386.92	1263.89
387.11	1247.51
387.31	1249.85
387.50	1263.89
387.70	1210.06
387.89	1315.38
388.09	1324.74
388.28	1254.53
388.48	1291.98
388.67	1252.19
388.86	1266.23
389.06	1329.42
389.25	1348.15
389.45	1299.00
389.64	1317.72
389.84	1310.70
390.03	1451.13
390.22	1406.66
390.42	1418.36
390.61	1303.68
390.81	1348.15
391.00	1399.64
391.19	1490.92
391.39	1383.26
391.58	1465.18
391.78	1444.11
391.97	1528.37
392.16	1441.77
392.36	1533.05
392.55	1542.41
392.75	1495.60
392.94	1549.43
393.13	1511.99
393.33	1413.68
393.52	1540.07
393.71	1563.48
393.91	1619.65
394.10	1666.46
394.29	1621.99
394.49	1584.54
394.68	1626.67
394.88	1516.67
395.07	1591.56
395.26	1629.01
395.46	1521.35
395.65	1741.36
395.84	1743.70
396.04	1650.08
396.23	1699.23
396.42	1760.08
396.62	1769.44
396.81	1652.42
397.00	1720.29
397.19	1767.10
397.39	1788.17
397.58	1884.13
397.77	1804.55
397.97	1902.86
398.16	1886.47
398.35	1928.60
398.55	1783.49
398.74	1954.35
398.93	2022.22
399.12	1961.37
399.32	1802.21
399.51	1884.13
399.70	1942.64
399.90	2050.31
400.09	2024.56
400.28	1989.46
400.47	2054.99
400.67	2148.61
400.86	2031.58
401.05	2073.71
401.24	2108.82
401.44	2040.95
401.63	2094.78
401.82	2157.97
402.01	2146.27
402.21	2087.76
402.40	2275.00
402.59	2228.19
402.78	2260.96
402.97	2282.02
403.17	2265.64
403.36	2179.04
403.55	2286.70
403.74	2291.38
403.93	2394.37
404.13	2385.01
404.32	2321.81
404.51	2321.81
404.70	2260.96
404.89	2368.62
405.09	2441.18
405.28	2392.03
405.47	2553.52
405.66	2478.63
405.85	2473.95
406.05	2537.14
406.24	2387.35
406.43	2450.54
406.62	2635.44
406.81	2722.04
407.00	2558.21
407.20	2441.18
407.39	2630.76
407.58	2768.85
407.77	2679.91
407.96	2719.70
408.15	2785.24
408.34	2710.34
408.54	2745.45
408.73	2684.59
408.92	2789.92
409.11	2785.24
409.30	2911.63
409.49	2892.90
409.68	2864.82
409.87	2974.82
410.07	2956.10
410.26	3000.57
410.45	2829.71
410.64	2911.63
410.83	3094.19
411.02	3026.31
411.21	3150.36
411.40	2995.89
411.59	3180.79
411.78	3155.04
411.98	3119.93
412.17	3183.13
412.36	3262.71
412.55	3283.77
412.74	3328.24
412.93	3431.23
413.12	3393.78
413.31	3536.55
413.50	3412.50
413.69	3482.72
413.88	3515.48
414.07	3583.36
414.26	3524.85
414.45	3693.37
414.64	3639.53
414.83	3658.26
415.02	3737.84
415.22	3662.94
415.41	3721.45
415.60	3836.14
415.79	3953.16
415.98	3845.50
416.17	3925.08
416.36	3906.35
416.55	4011.68
416.74	4014.02
416.93	3999.98
417.12	4058.49
417.31	4152.11
417.50	4152.11
417.69	4234.03
417.88	4341.69
418.07	4318.29
418.26	4205.94
418.45	4308.93
418.64	4348.72
418.83	4456.38
419.02	4299.56
419.21	4428.29
419.39	4512.55
419.58	4468.08
419.77	4463.40
419.96	4592.13
420.15	4610.86
420.34	4542.98
420.53	4528.94
420.72	4648.30
420.91	4702.14
421.10	4657.67
421.29	4755.97
421.48	4791.08
421.67	4706.82
421.86	4865.97
422.05	4837.89
422.24	4816.82
422.43	4814.48
422.61	4971.30
422.80	4851.93
422.99	4945.55
423.18	4966.62
423.37	5001.72
423.56	4919.81
423.75	4940.87
423.94	4915.12
424.13	4468.08
424.32	4795.76
424.50	5100.03
424.69	4959.60
424.88	5102.37
425.07	4847.25
425.26	4910.44
425.45	4887.04
425.64	4847.25
425.83	4830.87
426.01	5093.01
426.20	5135.14
426.39	4961.94
426.58	5069.60
426.77	4975.98
426.96	5090.67
427.15	5118.75
427.33	5156.20
427.52	5132.79
427.71	5228.76
427.90	5076.62
428.09	5200.67
428.28	5336.42
428.46	5359.83
428.65	5238.12
428.84	5486.22
429.03	5488.56
429.22	5191.31
429.40	5294.29
429.59	5469.83
429.78	5179.61
429.97	5186.63
430.16	5387.91
430.34	5490.90
430.53	5533.03
430.72	5455.79
430.91	5591.54
431.10	5514.30
431.28	5600.90
431.47	5717.93
431.66	5846.66
431.85	5743.67
432.03	5963.68
432.22	5870.06
432.41	5874.74
432.60	5781.12
432.79	5872.40
432.97	6186.04
433.16	5935.60
433.35	5954.32
433.54	5989.43
433.72	5982.41
433.91	5966.03
434.10	6076.03
434.28	6118.16
434.47	6164.97
434.66	6200.08
434.85	6232.85
435.03	6417.75
435.22	6284.34
435.41	6284.34
435.59	6293.70
435.78	6394.34
435.97	6279.66
436.16	6363.92
436.34	6366.26
436.53	6555.84
436.72	6642.44
436.90	6253.91
437.09	6537.12
437.28	6366.26
437.46	6612.01
437.65	6703.29
437.84	6794.58
438.02	6778.19
438.21	6553.50
438.40	6494.99
438.58	6820.32
438.77	6958.41
438.96	6822.66
439.14	7089.48
439.33	7091.82
439.52	7140.97
439.70	7110.55
439.89	7192.47
440.08	7370.35
440.26	7466.31
440.45	7351.62
440.63	7363.33
440.82	7578.65
441.01	7433.54
441.19	7737.81
441.38	7620.78
441.57	7538.87
441.75	7829.09
441.94	7878.24
442.12	7660.57
442.31	8070.17
442.50	7859.52
442.68	7943.78
442.87	8023.36
443.05	7990.59
443.24	8004.63
443.43	8163.79
443.61	8126.34
443.80	8538.27
443.98	7990.59
444.17	7871.22
444.35	7962.50
444.54	8212.94
444.73	8255.07
444.91	8093.57
445.10	8329.97
445.28	8418.91
445.47	8161.45
445.65	8390.82
445.84	8409.54
446.02	8458.70
446.21	8306.56
446.39	8325.29
446.58	8535.93
446.77	8627.21
446.95	8138.04
447.14	8266.77
447.32	8573.38
447.51	8421.25
447.69	8355.71
447.88	8332.31
448.06	8521.89
448.25	8542.96
448.43	8446.99
448.62	8458.70
448.80	8648.28
448.99	8435.29
449.17	8652.96
449.36	8329.97
449.54	8540.61
449.73	8835.52
449.91	8973.61
450.10	8781.69
450.28	8795.73
450.46	8973.61
450.65	8924.46
450.83	9050.85
451.02	9102.34
451.20	9165.54
451.39	9418.32
451.57	9053.19
451.76	8999.36
451.94	9282.56
452.13	9320.01
452.31	9214.69
452.49	9179.58
452.68	9156.18
452.86	9329.38
453.05	9310.65
453.23	9352.78
453.42	9366.82
453.60	9205.33
453.78	9591.52
453.97	9329.38
454.15	9338.74
454.34	9261.50
454.52	9741.31
454.70	9664.07
454.89	9671.09
455.07	9589.17
455.26	9823.23
455.44	9837.27
455.62	9804.50
455.81	9734.29
455.99	9987.07
456.17	9961.32
456.36	10157.92
456.54	10038.56
456.73	10040.90
456.91	10263.25
457.09	10345.17
457.28	10473.90
457.46	10380.28
457.64	10349.85
457.83	10483.26
458.01	10520.71
458.19	10614.33
458.38	10506.66
458.56	10626.03
458.74	10516.03
458.93	10504.32
459.11	10588.58
459.29	10497.30
459.48	10745.40
459.66	10703.27
459.84	10876.47
460.03	10754.76
460.21	11044.99
460.39	10986.47
460.57	10995.84
460.76	10984.13
460.94	10932.64
461.12	11084.78
461.31	11012.22
461.49	11133.93
461.67	11143.29
461.85	11157.33
462.04	11283.72
462.22	11747.15
462.40	11250.96
462.59	11435.86
462.77	11485.01
462.95	11445.22
463.13	11454.58
463.32	11447.56
463.50	11452.24
463.68	11609.06
463.86	12032.69
464.05	11452.24
464.23	11695.66
464.41	11847.79
464.59	11421.81
464.78	12128.66
464.96	11831.41
465.14	11705.02
465.32	11948.43
465.50	11922.69
465.69	12109.93
465.87	12187.17
466.05	11943.75
466.23	11920.35
466.41	12163.76
466.60	12479.74
466.78	12072.48
466.96	12004.61
467.14	12294.83
467.32	12245.68
467.51	12397.82
467.69	11936.73
467.87	12535.91
468.05	12365.05
468.23	12325.26
468.41	12360.37
468.60	12575.70
468.78	12571.02
468.96	12301.86
469.14	12973.59
469.32	12891.67
469.50	12414.20
469.69	12849.54
469.87	12985.29
470.05	13224.03
470.23	13308.29
470.41	12865.92
470.59	13102.32
470.77	13242.75
470.95	13088.28
471.14	13425.31
471.32	13018.06
471.50	13502.55
471.68	13584.47
471.86	13511.91
472.04	13540.00
472.22	13994.06
472.40	13565.74
472.58	13785.76
472.77	13930.87
472.95	13914.48
473.13	14427.06
473.31	13916.83
473.49	14080.66
473.67	13865.33
473.85	14324.08
474.03	14525.36
474.21	14647.07
474.39	14677.50
474.57	14523.02
474.75	15037.94
474.93	15066.03
475.12	14946.66
475.30	15211.14
475.48	14932.62
475.66	15213.48
475.84	14960.70
476.02	15243.91
476.20	15339.87
476.38	15356.25
476.56	15669.89
476.74	15669.89
476.92	15651.16
477.10	15580.95
477.28	15920.32
477.46	16147.36
477.64	16435.24
477.82	16446.94
478.00	16627.17
478.18	16414.18
478.36	16631.85
478.54	16849.52
478.72	16769.94
478.90	17514.23
479.08	17401.88
479.26	17673.39
479.44	17366.78
479.62	17525.93
479.80	17930.84
479.98	18242.14
480.16	18136.81
480.34	17872.33
480.52	18295.97
480.70	18511.30
480.88	18412.99
481.06	18560.45
481.24	18953.66
481.41	19044.94
481.59	19061.32
481.77	19281.33
481.95	19386.66
482.13	19510.71
482.31	19599.65
482.49	20072.43
482.67	19901.58
482.85	20325.21
483.03	20510.11
483.21	20664.59
483.39	20692.68
483.57	20575.65
483.74	21041.42
483.92	20950.14
484.10	21118.65
484.28	21446.33
484.46	21673.36
484.64	22024.44
484.82	21366.75
485.00	22422.33
485.18	22581.49
485.35	22977.04
485.53	22820.22
485.71	22700.86
485.89	23744.73
486.07	23101.09
486.25	23396.00
486.43	23353.87
486.61	23508.34
486.78	24112.20
486.96	23679.20
487.14	24400.08
487.32	24465.62
487.50	24620.10
487.68	24793.29
487.85	25174.80
488.03	25216.93
488.21	25376.09
488.39	25612.48
488.57	25982.29
488.75	25853.56
488.92	26230.38
489.10	26686.79
489.28	26911.48
489.46	27101.06
489.64	26504.23
489.81	27377.25
489.99	27297.67
490.17	27358.52
490.35	28233.88
490.53	27978.76
490.70	28240.90
490.88	28247.93
491.06	28673.90
491.24	28411.76
491.41	28659.86
491.59	29088.18
491.77	28989.88
491.95	28872.85
492.13	29727.14
492.30	29661.61
492.48	29823.11
492.66	29621.82
492.84	29972.90
493.01	30735.92
493.19	30192.91
493.37	30831.88
493.54	30785.07
493.72	30923.16
493.90	31206.36
494.08	31344.45
494.25	31871.07
494.43	31948.31
494.61	32250.24
494.79	32353.23
494.96	31981.08
495.14	32479.61
495.32	32872.82
495.49	32936.02
495.67	33202.84
495.85	33359.66
496.02	33247.31
496.20	33715.42
496.38	33570.30
496.55	33820.74
496.73	34595.46
496.91	34494.82
497.09	34689.08
497.26	34457.37
497.44	34916.11
497.62	35061.22
497.79	35604.23
497.97	35159.53
498.14	35433.37
498.32	35854.67
498.50	35697.85
498.67	36491.29
498.85	36032.55
499.03	36322.77
499.20	36301.71
499.38	36568.53
499.56	36732.37
499.73	36690.24
499.91	37078.77
500.08	37163.03
500.26	37130.26
500.44	37450.91
500.61	37535.17
500.79	37567.94
500.97	38066.47
501.14	38024.34
501.32	37883.91
501.49	38277.12
501.67	38387.13
501.84	38838.85
502.02	38387.13
502.20	38721.82
502.37	38869.28
502.55	39164.18
502.72	38855.23
502.90	39028.43
503.07	39058.86
503.25	39501.22
503.43	39379.51
503.60	40154.23
503.78	39800.81
503.95	39941.24
504.13	40612.98
504.30	40442.12
504.48	40128.48
504.65	40215.08
504.83	40849.37
505.01	40942.99
505.18	40814.26
505.36	41350.24
505.53	40589.57
505.71	41511.74
505.88	41521.10
506.06	40741.71
506.23	41963.46
506.41	41434.50
506.58	42073.47
506.76	42033.68
506.93	42377.74
507.11	41624.09
507.28	42263.05
507.46	42504.13
507.63	42225.60
507.81	43206.29
507.98	42511.15
508.16	43168.84
508.33	43138.41
508.50	43414.60
508.68	43466.09
508.85	43770.36
509.03	43552.69
509.20	43562.05
509.38	44018.46
509.55	44114.42
509.73	44058.24
509.90	44414.01
510.08	44076.97
510.25	44395.28
510.42	44837.64
510.60	44804.88
510.77	44493.58
510.95	45088.08
511.12	44713.59
511.30	44737.00
511.47	44982.76
511.64	45148.93
511.82	45532.78
511.99	45607.68
512.17	45528.10
512.34	45656.83
512.51	45799.60
512.69	46288.77
512.86	45705.98
513.04	46593.04
513.21	46237.28
513.38	46363.67
513.56	46969.87
513.73	46515.81
513.90	47084.56
514.08	46588.36
514.25	47054.13
514.43	46916.04
514.60	47164.14
514.77	46993.28
514.95	47398.19
515.12	47035.41
515.29	47281.16
515.47	47358.40
515.64	47817.14
515.81	47683.73
515.99	47760.97
516.16	48271.21
516.33	47859.27
516.51	48507.60
516.68	48254.82
516.85	47934.17
517.03	48652.72
517.20	48514.62
517.37	48683.14
517.54	48236.10
517.72	48849.32
517.89	48980.39
518.06	49345.51
518.24	48645.69
518.41	49315.09
518.58	49120.82
518.75	48905.49
518.93	49312.75
519.10	49078.69
519.27	49488.29
519.45	49485.95
519.62	49378.28
519.79	49668.51
519.96	49446.16
520.14	50042.99
520.31	49968.10
520.48	50209.17
520.65	49982.14
520.83	50667.92
521.00	50480.67
521.17	50284.07
521.34	50354.29
521.52	50342.58
521.69	50415.14
521.86	50635.15
522.03	50665.58
522.20	50880.91
522.38	51384.12
522.55	51157.09
522.72	51079.85
522.89	51028.36
523.07	51388.80
523.24	51356.03
523.41	51655.62
523.58	51309.22
523.75	51711.80
523.92	51412.21
524.10	51896.70
524.27	51686.05
524.44	51707.12
524.61	52011.38
524.78	51955.21
524.96	51903.72
525.13	52112.03
525.30	52325.02
525.47	52198.63
525.64	51959.89
525.81	52535.66
525.98	52376.51
526.16	52556.73
526.33	52348.42
526.50	52699.50
526.67	52514.60
526.84	52676.10
527.01	52685.46
527.18	52793.12
527.36	52493.54
527.53	52823.55
527.70	53088.03
527.87	53125.48
528.04	53111.44
528.21	53127.82
528.38	53158.25
528.55	53038.88
528.72	53226.12
528.89	53329.11
529.07	53191.01
529.24	53291.66
529.41	53193.36
529.58	53226.12
529.75	53492.94
529.92	53567.84
530.09	53584.22
530.26	53645.08
530.43	53886.15
530.60	53425.07
530.77	53565.50
530.94	53893.18
531.11	53797.21
531.28	53956.37
531.46	54122.55
531.63	54131.91
531.80	53970.41
531.97	54106.16
532.14	54124.89
532.31	54206.81
532.48	54307.45
532.65	54405.75
532.82	54176.38
532.99	54424.48
533.16	54375.33
533.33	54782.58
533.50	54520.44
533.67	54202.13
533.84	54824.71
534.01	54588.31
534.18	54836.41
534.35	55098.55
534.52	54630.44
534.69	55030.68
534.86	55009.61
535.03	54810.67
535.20	55238.98
535.37	55018.97
535.54	55187.49
535.71	55103.23
535.88	55168.77
536.05	55201.53
536.22	55480.06
536.38	55243.66
536.55	55196.85
536.72	55416.86
536.89	55110.25
537.06	55381.76
537.23	55660.28
537.40	55363.03
537.57	55477.72
537.74	55639.22
537.91	55819.44
538.08	55540.91
538.25	55442.61
538.42	55632.19
538.59	55835.82
538.75	55643.90
538.92	55875.61
539.09	55927.10
539.26	55884.97
539.43	55966.89
539.60	55737.52
539.77	56062.85
539.94	56170.52
540.11	56142.43
540.28	56320.31
540.44	56060.51
540.61	56119.02
540.78	56210.31
540.95	56231.37
541.12	56308.61
541.29	56135.41
541.46	56313.29
541.62	56294.56
541.79	56381.16
541.96	56161.15
542.13	56395.21
542.30	56388.19
542.47	56523.94
542.63	56612.88
542.80	56542.66
542.97	56961.62
543.14	57261.21
543.31	56886.72
543.48	57055.24
543.64	57162.90
543.81	57162.90
543.98	57071.62
544.15	57078.64
544.32	57336.10
544.48	57425.04
544.65	57073.96
544.82	57375.89
544.99	57127.80
545.16	57338.44
545.32	57286.95
545.49	57696.55
545.66	57354.83
545.83	57385.25
546.00	57682.50
546.16	57560.79
546.33	57408.66
546.50	57195.67
546.67	57516.32
546.83	57242.48
547.00	57696.55
547.17	57521.01
547.34	57675.48
547.50	57698.89
547.67	57904.85
547.84	57731.65
548.00	57769.10
548.17	58078.05
548.34	57916.56
548.51	58000.82
548.67	57909.53
548.84	58138.91
549.01	57900.17
549.18	57911.88
549.34	58108.48
549.51	58066.35
549.68	58054.65
549.84	58085.07
550.01	58260.62
550.18	58045.29
550.34	58218.49
550.51	58454.88
550.68	58241.89
550.84	57937.62
551.01	58190.40
551.18	58150.61
551.34	58609.35
551.51	58365.94
551.68	58302.74
551.84	58305.09
552.01	58155.29
552.18	58724.04
552.34	58267.64
552.51	58543.82
552.68	58246.57
552.84	58408.07
553.01	58621.06
553.18	58637.44
553.34	58747.45
553.51	58494.67
553.67	58625.74
553.84	58773.19
554.01	58822.34
554.17	58927.67
554.34	58805.96
554.51	58742.77
554.67	58791.92
554.84	58717.02
555.00	58726.38
555.17	58908.94
555.33	58990.86
555.50	58548.50
555.67	58721.70
555.83	58667.87
556.00	59143.00
556.16	59178.10
556.33	58862.13
556.50	59037.67
556.66	58997.88
556.83	58712.34
556.99	59370.03
557.16	59313.86
557.32	59496.42
557.49	59351.30
557.65	59199.17
557.82	59065.76
557.98	59185.13
558.15	59367.69
558.32	59374.71
558.48	59222.58
558.65	59421.52
558.81	59231.94
558.98	59323.22
559.14	59433.22
559.31	59395.77
559.47	59367.69
559.64	59416.84
559.80	59538.55
559.97	59629.83
560.13	59313.86
560.30	59608.76
560.46	59601.74
560.63	59533.87
560.79	59419.18
560.96	59664.94
561.12	59557.27
561.29	59597.06
561.45	59561.95
561.61	59674.30
561.78	59423.86
561.94	59578.34
562.11	59744.51
562.27	59592.38
562.44	59725.79
562.60	59952.82
562.77	59826.43
562.93	59723.45
563.10	59931.76
563.26	59660.26
563.42	60250.07
563.59	59840.48
563.75	59969.21
563.92	60102.62
564.08	59760.90
564.24	59861.54
564.41	60123.68
564.57	59978.57
564.74	59901.33
564.90	60011.34
565.07	60006.65
565.23	59826.43
565.39	59952.82
565.56	60123.68
565.72	59992.61
565.88	60079.21
566.05	59992.61
566.21	59866.22
566.38	59952.82
566.54	60086.23
566.70	60158.79
566.87	60168.15
567.03	60135.38
567.19	60231.35
567.36	59978.57
567.52	60151.77
567.68	60236.03
567.85	60074.53
568.01	60184.54
568.17	60067.51
568.34	60329.65
568.50	60046.44
568.66	60088.57
568.83	60341.35
568.99	60130.70
569.15	59948.14
569.32	60149.43
569.48	60287.52
569.64	60273.48
569.81	60280.50
569.97	60069.85
570.13	60261.77
570.30	60172.83
570.46	60317.95
570.62	60350.71
570.78	60402.21
570.95	60233.69
571.11	60491.15
571.27	60154.11
571.43	60437.31
571.60	60418.59
571.76	60374.12
571.92	60697.11
572.09	60594.13
572.25	60320.29
572.41	60444.33
572.57	60399.86
572.74	60484.12
572.90	60409.23
573.06	60418.59
573.22	60402.21
573.38	60474.76
573.55	60584.77
573.71	60671.37
573.87	60528.59
574.03	60404.55
574.20	60486.46
574.36	60353.05
574.52	60481.78
574.68	60463.06
574.84	60631.58
575.01	60563.70
575.17	60605.83
575.33	60537.96
575.49	60411.57
575.65	60673.71
575.82	60680.73
575.98	60711.16
576.14	60783.71
576.30	60706.47
576.46	60591.79
576.62	60575.40
576.79	60652.64
576.95	60413.91
577.11	60603.49
577.27	60713.50
577.43	60673.71
577.59	60434.97
577.75	60624.56
577.92	60589.45
578.08	60683.07
578.24	60488.80
578.40	60851.59
578.56	60828.18
578.72	60521.57
578.88	60797.76
579.04	60907.76
579.21	60678.39
579.37	60860.95
579.53	60874.99
579.69	60353.05
579.85	60500.51
580.01	60662.00
580.17	60575.40
580.33	60830.52
580.49	60699.45
580.65	60760.31
580.82	60577.75
580.98	60568.38
581.14	60727.54
581.30	60781.37
581.46	60804.78
581.62	60701.79
581.78	60739.24
581.94	60772.01
582.10	60608.17
582.26	60764.99
582.42	60643.28
582.58	60764.99
582.74	60596.47
582.90	60769.67
583.06	60736.90
583.22	60523.91
583.38	60664.35
583.54	60697.11
583.70	60793.07
583.86	61092.66
584.02	60612.85
584.18	60975.64
584.34	60779.03
584.50	60811.80
584.66	60603.49
584.82	60540.30
584.98	60917.12
585.14	60931.17
585.30	60612.85
585.46	60926.49
585.62	60741.58
585.78	60837.54
585.94	60664.35
586.10	60849.25
586.26	60811.80
586.42	60900.74
586.58	61006.06
586.74	60725.20
586.90	60793.07
587.06	60734.56
587.22	61041.17
587.38	60788.39
587.54	61090.32
587.70	61048.19
587.86	60891.38
588.02	60762.65
588.18	60942.87
588.34	60842.23
588.49	60931.17
