SpectraSuite Data File
++++++++++++++++++++++++++++++++++++
Date: Fri Oct 25 10:44:34 EDT 2013
User: price-jones
Dark Spectrum Present: No
Reference Spectrum Present: No
Number of Sampled Component Spectra: 1
Spectrometers: USB2+H05261
Integration Time (usec): 100000 (USB2+H05261)
Spectra Averaged: 1 (USB2+H05261)
Boxcar Smoothing: 0 (USB2+H05261)
Correct for Electrical Dark: No (USB2+H05261)
Strobe/Lamp Enabled: No (USB2+H05261)
Correct for Detector Non-linearity: No (USB2+H05261)
Correct for Stray Light: No (USB2+H05261)
Number of Pixels in Processed Spectrum: 2048
>>>>>Begin Processed Spectral Data<<<<<
365.73	166.18
365.92	166.18
366.12	166.18
366.32	37.45
366.52	44.47
366.72	58.51
366.91	18.72
367.11	39.79
367.31	42.13
367.51	0.00
367.70	23.41
367.90	67.88
368.10	35.11
368.30	32.77
368.49	37.45
368.69	72.56
368.89	100.64
369.09	67.88
369.28	67.88
369.48	30.43
369.68	140.43
369.87	93.62
370.07	58.51
370.27	142.77
370.47	271.50
370.66	327.68
370.86	376.83
371.06	418.96
371.25	517.26
371.45	468.11
371.65	418.96
371.84	374.49
372.04	479.81
372.24	475.13
372.44	503.22
372.63	493.85
372.83	444.70
373.03	500.87
373.22	470.45
373.42	510.24
373.62	475.13
373.81	514.92
374.01	561.73
374.21	519.60
374.40	510.24
374.60	561.73
374.79	533.64
374.99	552.37
375.19	498.53
375.38	627.26
375.58	566.41
375.78	634.29
375.97	514.92
376.17	606.20
376.37	634.29
376.56	629.60
376.76	557.05
376.95	566.41
377.15	599.18
377.35	601.52
377.54	601.52
377.74	624.92
377.93	641.31
378.13	599.18
378.33	610.88
378.52	657.69
378.72	573.43
378.91	660.03
379.11	599.18
379.31	540.66
379.50	592.16
379.70	601.52
379.89	653.01
380.09	629.60
380.28	699.82
380.48	704.50
380.68	538.32
380.87	692.80
381.07	711.52
381.26	711.52
381.46	704.50
381.65	697.48
381.85	760.67
382.04	716.20
382.24	596.84
382.43	613.22
382.63	702.16
382.83	657.69
383.02	699.82
383.22	744.29
383.41	697.48
383.61	744.29
383.80	751.31
384.00	772.38
384.19	777.06
384.39	699.82
384.58	678.76
384.78	786.42
384.97	718.54
385.17	823.87
385.36	753.65
385.56	777.06
385.75	713.86
385.95	748.97
386.14	812.17
386.34	800.46
386.53	847.27
386.72	772.38
386.92	891.74
387.11	763.01
387.31	798.12
387.50	828.55
387.70	833.23
387.89	844.93
388.09	774.72
388.28	847.27
388.48	795.78
388.67	863.66
388.86	1008.77
389.06	833.23
389.25	926.85
389.45	952.60
389.64	898.77
389.84	814.51
390.03	842.59
390.22	947.92
390.42	898.77
390.61	940.90
390.81	987.71
391.00	999.41
391.19	940.90
391.39	966.64
391.58	983.02
391.78	926.85
391.97	1015.79
392.16	870.68
392.36	987.71
392.55	992.39
392.75	957.28
392.94	917.49
393.13	1027.50
393.33	980.68
393.52	1057.92
393.71	964.30
393.91	1036.86
394.10	1036.86
394.29	1078.99
394.49	1078.99
394.68	1165.59
394.88	1107.07
395.07	1093.03
395.26	1198.35
395.46	1069.62
395.65	1179.63
395.84	1179.63
396.04	1125.80
396.23	1156.22
396.42	1107.07
396.62	1130.48
396.81	1203.04
397.00	1212.40
397.19	1188.99
397.39	1301.34
397.58	1348.15
397.77	1193.67
397.97	1282.61
398.16	1315.38
398.35	1263.89
398.55	1306.02
398.74	1383.26
398.93	1350.49
399.12	1376.24
399.32	1481.56
399.51	1373.89
399.70	1462.83
399.90	1394.96
400.09	1460.49
400.28	1399.64
400.47	1439.43
400.67	1439.43
400.86	1430.07
401.05	1420.71
401.24	1507.30
401.44	1446.45
401.63	1502.62
401.82	1511.99
402.01	1542.41
402.21	1554.12
402.40	1526.03
402.59	1603.27
402.78	1568.16
402.97	1547.09
403.17	1631.35
403.36	1706.25
403.55	1671.14
403.74	1701.57
403.93	1645.40
404.13	1652.42
404.32	1727.32
404.51	1657.10
404.70	1717.95
404.89	1774.13
405.09	1830.30
405.28	1748.38
405.47	1804.55
405.66	1806.89
405.85	1739.02
406.05	1722.63
406.24	1879.45
406.43	1767.10
406.62	1767.10
406.81	1989.46
407.00	1867.75
407.20	1722.63
407.39	1813.92
407.58	1933.28
407.77	1975.41
407.96	1888.81
408.15	2045.63
408.34	2005.84
408.54	2078.40
408.73	2094.78
408.92	1942.64
409.11	2150.95
409.30	2057.33
409.49	2045.63
409.68	2057.33
409.87	2059.67
410.07	2108.82
410.26	2108.82
410.45	2059.67
410.64	2200.10
410.83	2279.68
411.02	2333.51
411.21	2317.13
411.40	2150.95
411.59	2352.24
411.78	2406.07
411.98	2434.16
412.17	2296.07
412.36	2490.33
412.55	2345.22
412.74	2485.65
412.93	2499.69
413.12	2408.41
413.31	2583.95
413.50	2612.04
413.69	2478.63
413.88	2679.91
414.07	2574.59
414.26	2754.81
414.45	2607.36
414.64	2705.66
414.83	2885.88
415.02	2644.81
415.22	2789.92
415.41	2754.81
415.60	2846.09
415.79	2885.88
415.98	2909.29
416.17	2935.03
416.36	2913.97
416.55	2981.84
416.74	2892.90
416.93	2951.42
417.12	2888.22
417.31	2918.65
417.50	3206.53
417.69	3148.02
417.88	3045.04
418.07	3054.40
418.26	3080.14
418.45	3108.23
418.64	3243.98
418.83	3314.20
419.02	3314.20
419.21	3286.11
419.39	3126.96
419.58	3279.09
419.77	3283.77
419.96	3328.24
420.15	3363.35
420.34	3372.71
420.53	3412.50
420.72	3590.38
420.91	3445.27
421.10	3438.25
421.29	3417.18
421.48	3541.23
421.67	3506.12
421.86	3372.71
422.05	3564.64
422.24	3485.06
422.43	3393.78
422.61	3541.23
422.80	3613.79
422.99	3520.17
423.18	3604.42
423.37	3688.68
423.56	3468.67
423.75	3611.45
423.94	3410.16
424.13	3433.57
424.32	3433.57
424.50	3611.45
424.69	3651.24
424.88	3672.30
425.07	3597.40
425.26	3531.87
425.45	3438.25
425.64	3623.15
425.83	3658.26
426.01	3681.66
426.20	3592.72
426.39	3763.58
426.58	3613.79
426.77	3681.66
426.96	3632.51
427.15	3632.51
427.33	3758.90
427.52	3754.22
427.71	3878.27
427.90	3684.00
428.09	3854.86
428.28	3822.09
428.46	3990.61
428.65	3889.97
428.84	3990.61
429.03	3882.95
429.22	3620.81
429.40	3866.56
429.59	3843.16
429.78	3698.05
429.97	3700.39
430.16	3679.32
430.34	3852.52
430.53	3936.78
430.72	3786.99
430.91	3983.59
431.10	3901.67
431.28	4046.79
431.47	4177.86
431.66	4369.78
431.85	4147.43
432.03	4245.73
432.22	4386.16
432.41	4280.84
432.60	4266.80
432.79	4358.08
432.97	4367.44
433.16	4271.48
433.35	4243.39
433.54	4327.65
433.72	4227.01
433.91	4341.69
434.10	4437.66
434.28	4344.03
434.47	4369.78
434.66	4514.89
434.85	4538.30
435.03	4533.62
435.22	4472.76
435.41	4662.35
435.59	4557.02
435.78	4692.77
435.97	4636.60
436.16	4667.03
436.34	4770.01
436.53	4744.27
436.72	4802.78
436.90	4755.97
437.09	4816.82
437.28	4781.71
437.46	4875.34
437.65	4779.37
437.84	4802.78
438.02	4718.52
438.21	4667.03
438.40	4716.18
438.58	4849.59
438.77	5050.88
438.96	4926.83
439.14	5036.83
439.33	5118.75
439.52	5083.64
439.70	5179.61
439.89	5315.36
440.08	5076.62
440.26	5118.75
440.45	5296.63
440.63	5195.99
440.82	5341.10
441.01	5458.13
441.19	5427.70
441.38	5657.07
441.57	5523.66
441.75	5563.45
441.94	5823.25
442.12	5650.05
442.31	5743.67
442.50	5809.21
442.68	5839.64
442.87	5806.87
443.05	5912.19
443.24	5830.27
443.43	5893.47
443.61	5853.68
443.80	6092.41
443.98	5785.80
444.17	5661.76
444.35	5949.64
444.54	5975.39
444.73	5973.05
444.91	5933.26
445.10	5984.75
445.28	5959.00
445.47	5963.68
445.65	6031.56
445.84	6155.61
446.02	5954.32
446.21	5984.75
446.39	5977.73
446.58	6045.60
446.77	6073.69
446.95	6017.52
447.14	6090.07
447.32	6195.40
447.51	6061.99
447.69	5970.71
447.88	6036.24
448.06	6026.88
448.25	6094.76
448.43	5907.51
448.62	6174.33
448.80	6228.17
448.99	6356.90
449.17	6296.04
449.36	6296.04
449.54	6242.21
449.73	6499.67
449.91	6448.18
450.10	6403.71
450.28	6546.48
450.46	6534.78
450.65	6710.32
450.83	6586.27
451.02	6455.20
451.20	6642.44
451.39	6642.44
451.57	6452.86
451.76	6544.14
451.94	6572.22
452.13	6579.25
452.31	6457.54
452.49	6427.11
452.68	6677.55
452.86	6703.29
453.05	6729.04
453.23	6750.10
453.42	6787.55
453.60	6806.28
453.78	6967.77
453.97	6595.63
454.15	6607.33
454.34	6717.34
454.52	6993.52
454.70	6853.09
454.89	6918.62
455.07	6878.83
455.26	7122.25
455.44	6963.09
455.62	7112.89
455.81	7035.65
455.99	7140.97
456.17	7274.38
456.36	7201.83
456.54	7260.34
456.73	7185.44
456.91	7637.17
457.09	7353.96
457.28	7555.25
457.46	7295.45
457.64	7555.25
457.83	7377.37
458.01	7485.03
458.19	7456.95
458.38	7576.31
458.56	7625.47
458.74	7595.04
458.93	7489.71
459.11	7698.02
459.29	7691.00
459.48	7536.52
459.66	7566.95
459.84	7489.71
460.03	7911.01
460.21	7808.03
460.39	7894.63
460.57	7857.18
460.76	7707.38
460.94	7903.99
461.12	7859.52
461.31	7789.30
461.49	7971.86
461.67	7964.84
461.85	8203.58
462.04	7974.21
462.22	8163.79
462.40	8131.02
462.59	8159.11
462.77	8205.92
462.95	8168.47
463.13	8074.85
463.32	8264.43
463.50	8269.11
463.68	8308.90
463.86	8383.80
464.05	7990.59
464.23	8360.39
464.41	8290.18
464.59	8238.69
464.78	8374.44
464.96	8379.12
465.14	8463.38
465.32	8531.25
465.50	8514.87
465.69	8662.32
465.87	8559.34
466.05	8456.36
466.23	8379.12
466.41	8369.76
466.60	8643.60
466.78	8423.59
466.96	8484.44
467.14	8585.08
467.32	8629.56
467.51	8741.90
467.69	8477.42
467.87	8571.04
468.05	8669.34
468.23	8674.03
468.41	8699.77
468.60	8725.52
468.78	8957.23
468.96	8903.40
469.14	8896.38
469.32	8872.97
469.50	8624.87
469.69	8903.40
469.87	8898.72
470.05	9025.11
470.23	9259.16
470.41	9043.83
470.59	9207.67
470.77	8973.61
470.95	9212.35
471.14	9252.14
471.32	9275.54
471.50	9514.28
471.68	9397.25
471.86	9488.53
472.04	9502.58
472.22	9643.01
472.40	9446.40
472.58	9469.81
472.77	9710.88
472.95	9633.64
473.13	9919.19
473.31	9593.86
473.49	9792.80
473.67	9748.33
473.85	9942.60
474.03	10249.21
474.21	10017.49
474.39	10120.48
474.57	9947.28
474.75	10178.99
474.93	10480.92
475.12	10167.29
475.30	10406.02
475.48	10452.83
475.66	10499.64
475.84	10466.88
476.02	10506.66
476.20	10700.93
476.38	10733.70
476.56	10949.03
476.74	10937.32
476.92	10927.96
477.10	10958.39
477.28	11049.67
477.46	11091.80
477.64	11124.57
477.82	11466.28
478.00	11709.70
478.18	11377.34
478.36	11552.88
478.54	11808.00
478.72	11824.39
478.90	11868.86
479.08	11913.33
479.26	12109.93
479.44	12351.01
479.62	12332.28
479.80	12264.41
479.98	12456.33
480.16	12671.66
480.34	12746.56
480.52	12795.71
480.70	12854.22
480.88	12573.36
481.06	12786.35
481.24	12861.24
481.41	13132.75
481.59	13294.24
481.77	13135.09
481.95	13357.44
482.13	13675.75
482.31	13701.50
482.49	13575.11
482.67	13738.94
482.85	13715.54
483.03	13968.32
483.21	14288.97
483.39	14209.39
483.57	13930.87
483.74	14443.45
483.92	14270.25
484.10	14604.94
484.28	14693.88
484.46	14984.11
484.64	15122.20
484.82	14834.32
485.00	14977.09
485.18	15330.51
485.35	15304.76
485.53	15122.20
485.71	15082.41
485.89	15676.91
486.07	15353.91
486.25	15576.27
486.43	15805.64
486.61	15861.81
486.78	16184.80
486.96	16219.91
487.14	16517.16
487.32	16402.47
487.50	16528.86
487.68	16727.81
487.85	17132.72
488.03	17121.02
488.21	17156.13
488.39	17296.56
488.57	17401.88
488.75	17605.51
488.92	17839.56
489.10	17736.58
489.28	18024.47
489.46	18066.60
489.64	18298.31
489.81	18539.38
489.99	18586.19
490.17	18654.07
490.35	18883.44
490.53	18523.00
490.70	18845.99
490.88	19026.21
491.06	19503.68
491.24	19271.97
491.41	19108.13
491.59	19400.70
491.77	19194.73
491.95	20023.28
492.13	20273.72
492.30	19840.72
492.48	20191.80
492.66	20020.94
492.84	20336.91
493.01	20489.05
493.19	20510.11
493.37	20762.89
493.54	20896.30
493.72	20952.48
493.90	20765.23
494.08	21341.00
494.25	21427.60
494.43	21504.84
494.61	21881.67
494.79	21853.58
494.96	21720.17
495.14	21930.82
495.32	22118.06
495.49	22188.28
495.67	22108.70
495.85	22429.35
496.02	22434.03
496.20	22565.10
496.38	22948.95
496.55	22799.16
496.73	23328.12
496.91	23190.03
497.09	23271.95
497.26	23372.59
497.44	23293.01
497.62	23707.29
497.79	23817.29
497.97	23541.11
498.14	23695.58
498.32	23672.18
498.50	24039.64
498.67	24362.64
498.85	24254.97
499.03	24329.87
499.20	24196.46
499.38	24732.44
499.56	24568.60
499.73	24683.29
499.91	24762.87
500.08	25109.27
500.26	24835.42
500.44	24868.19
500.61	25078.84
500.79	24926.71
500.97	25621.84
501.14	25579.71
501.32	25689.72
501.49	25387.79
501.67	25362.04
501.84	25935.48
502.02	25689.72
502.20	25748.23
502.37	26115.70
502.55	26258.47
502.72	26111.02
502.90	26190.59
503.07	25991.65
503.25	26045.48
503.43	26181.23
503.60	26363.79
503.78	26562.74
503.95	26445.71
504.13	26843.60
504.30	26986.38
504.48	27168.94
504.65	27346.82
504.83	27087.02
505.01	27527.04
505.18	27239.15
505.36	27693.22
505.53	27431.08
505.71	27679.18
505.88	27903.87
506.06	27903.87
506.23	27857.06
506.41	27716.62
506.58	27882.80
506.76	27903.87
506.93	28348.57
507.11	27931.95
507.28	28011.53
507.46	28594.32
507.63	28657.52
507.81	28634.11
507.98	28276.01
508.16	28945.41
508.33	28465.60
508.50	28683.27
508.68	29013.28
508.85	29280.10
509.03	29186.48
509.20	29570.33
509.38	29357.34
509.55	29518.84
509.73	29418.19
509.90	29546.92
510.08	29376.06
510.25	29048.39
510.42	29656.93
510.60	29956.52
510.77	29977.58
510.95	30394.20
511.12	30008.01
511.30	30150.78
511.47	30363.77
511.64	30380.15
511.82	30789.75
511.99	30300.58
512.17	30061.84
512.34	30267.81
512.51	30431.65
512.69	31023.80
512.86	30469.09
513.04	30941.88
513.21	30796.77
513.38	31082.31
513.56	31260.20
513.73	31082.31
513.90	31019.12
514.08	31271.90
514.25	31246.15
514.43	31370.20
514.60	31674.47
514.77	31489.57
514.95	31868.73
515.12	31578.51
515.29	31786.82
515.47	32070.02
515.64	32240.88
515.81	31821.92
515.99	31611.28
516.16	31770.43
516.33	31704.90
516.51	32030.23
516.68	31786.82
516.85	32067.68
517.03	31646.38
517.20	32149.60
517.37	32617.71
517.54	32624.73
517.72	32425.78
517.89	32325.14
518.06	32275.99
518.24	32315.78
518.41	32718.35
518.58	32350.88
518.75	32669.20
518.93	32968.79
519.10	32861.12
519.27	33186.46
519.45	32945.38
519.62	33322.21
519.79	33186.46
519.96	33631.16
520.14	33734.14
520.31	33097.52
520.48	33472.00
520.65	33869.89
520.83	34291.19
521.00	34106.29
521.17	33914.36
521.34	34473.75
521.52	33965.85
521.69	34424.60
521.86	34440.98
522.03	34277.15
522.20	34319.28
522.38	34565.03
522.55	34473.75
522.72	34567.37
522.89	34871.64
523.07	34934.84
523.24	34396.51
523.41	34932.50
523.58	34738.23
523.75	35428.69
523.92	35112.72
524.10	35407.62
524.27	35618.27
524.44	35255.49
524.61	35709.55
524.78	35594.87
524.96	35793.81
525.13	35178.25
525.30	35721.26
525.47	35716.58
525.64	36072.34
525.81	35562.10
525.98	35777.43
526.16	35803.17
526.33	35604.23
526.50	35847.64
526.67	35665.08
526.84	35559.76
527.01	35438.05
527.18	36112.13
527.36	36528.74
527.53	36018.50
527.70	36622.36
527.87	36603.64
528.04	36385.97
528.21	36781.52
528.38	36676.19
528.55	36935.99
528.72	36720.66
528.89	37174.73
529.07	37191.11
529.24	36701.94
529.41	36713.64
529.58	37064.72
529.75	37083.45
529.92	37029.62
530.09	37376.01
530.26	36973.44
530.43	37301.12
530.60	37422.83
530.77	36926.63
530.94	37464.96
531.11	37495.38
531.28	37579.64
531.46	37214.52
531.63	37764.54
531.80	37413.46
531.97	37530.49
532.14	37598.37
532.31	37357.29
532.48	37855.82
532.65	38073.49
532.82	37291.76
532.99	37628.79
533.16	37399.42
533.33	37879.23
533.50	37949.45
533.67	38199.88
533.84	37912.00
534.01	38314.57
534.18	37975.19
534.35	38499.47
534.52	38415.21
534.69	38281.80
534.86	38628.20
535.03	38239.67
535.20	38682.03
535.37	39023.75
535.54	38761.61
535.71	38553.30
535.88	38691.40
536.05	38410.53
536.22	39016.73
536.38	38696.08
536.55	38960.56
536.72	38836.51
536.89	38691.40
537.06	39344.41
537.23	38930.13
537.40	39100.99
537.57	39349.09
537.74	38923.11
537.91	39250.78
538.08	39468.45
538.25	39126.74
538.42	39232.06
538.59	39550.37
538.75	39070.56
538.92	39395.90
539.09	39332.70
539.26	39297.59
539.43	39690.80
539.60	39501.22
539.77	39793.79
539.94	39768.04
540.11	39466.11
540.28	39679.10
540.44	40058.27
540.61	39585.48
540.78	39564.42
540.95	39615.91
541.12	39688.46
541.29	39786.77
541.46	40151.89
541.62	39847.62
541.79	40542.76
541.96	39908.47
542.13	39552.71
542.30	39892.09
542.47	40112.10
542.63	40432.75
542.80	40472.54
542.97	40596.59
543.14	41291.73
543.31	40851.71
543.48	40875.12
543.64	40910.22
543.81	41284.71
543.98	40947.67
544.15	41034.27
544.32	41090.44
544.48	41322.16
544.65	40460.84
544.82	41270.67
544.99	40582.55
545.16	41081.08
545.32	41265.99
545.49	41464.93
545.66	41457.91
545.83	41766.86
546.00	41914.31
546.16	41528.13
546.33	41060.02
546.50	41125.55
546.67	41457.91
546.83	40835.33
547.00	41268.33
547.17	41654.51
547.34	41495.36
547.50	42003.25
547.67	41270.67
547.84	41626.43
548.00	41701.32
548.17	42373.06
548.34	41797.29
548.51	41916.65
548.67	42080.49
548.84	41771.54
549.01	41214.49
549.18	41790.27
549.34	41588.98
549.51	42227.95
549.68	42319.23
549.84	42024.32
550.01	41928.36
550.18	42274.76
550.34	42075.81
550.51	42155.39
550.68	42775.63
550.84	41944.74
551.01	42071.13
551.18	42307.52
551.34	42113.26
551.51	42616.47
551.68	42506.47
551.84	42232.63
552.01	42323.91
552.18	42359.02
552.34	42506.47
552.51	42490.09
552.68	42078.15
552.84	42597.75
553.01	43154.80
553.18	42153.05
553.34	42951.17
553.51	42279.44
553.67	42836.48
553.84	42658.60
554.01	42630.52
554.17	42768.61
554.34	42930.11
554.51	43267.14
554.67	43239.06
554.84	42995.64
555.00	42761.59
555.17	42670.31
555.33	42930.11
555.50	43054.15
555.67	43084.58
555.83	43049.47
556.00	43199.27
556.16	43416.94
556.33	43084.58
556.50	43281.19
556.66	43323.32
556.83	43423.96
556.99	43611.20
557.16	43871.00
557.32	43072.88
557.49	43557.37
557.65	43100.97
557.82	43180.54
557.98	43435.66
558.15	43512.90
558.32	43592.48
558.48	43311.61
558.65	43592.48
558.81	43100.97
558.98	43517.58
559.14	43606.52
559.31	43274.16
559.47	43646.31
559.64	43641.63
559.80	44100.37
559.97	43796.10
560.13	43398.21
560.30	43423.96
560.46	43730.57
560.63	43629.93
560.79	43789.08
560.96	44088.67
561.12	44044.20
561.29	44140.16
561.45	43859.30
561.61	43838.23
561.78	43440.34
561.94	43585.46
562.11	43578.43
562.27	44039.52
562.44	43529.28
562.60	43831.21
562.77	43959.94
562.93	44093.35
563.10	43838.23
563.26	43688.44
563.42	44392.94
563.59	43756.32
563.75	43672.06
563.92	44102.71
564.08	44175.27
564.24	44088.67
564.41	44133.14
564.57	43833.55
564.74	43997.39
564.90	44231.44
565.07	44058.24
565.23	44259.53
565.39	43796.10
565.56	43861.64
565.72	43945.90
565.88	44201.02
566.05	44095.69
566.21	44528.69
566.38	43931.86
566.54	43878.02
566.70	44500.61
566.87	44444.43
567.03	44322.72
567.19	44484.22
567.36	44423.37
567.52	44172.93
567.68	44399.96
567.85	44421.03
568.01	44215.06
568.17	44561.46
568.34	44662.10
568.50	44236.12
568.66	44144.84
568.83	44273.57
568.99	44112.08
569.15	44465.50
569.32	44083.99
569.48	44208.04
569.64	44360.17
569.81	44877.43
569.97	44638.70
570.13	44435.07
570.30	44154.21
570.46	44046.54
570.62	44259.53
570.78	44142.50
570.95	43632.27
571.11	44374.22
571.27	44659.76
571.43	44692.53
571.60	44488.90
571.76	44203.36
571.92	44498.26
572.09	44746.36
572.25	44318.04
572.41	44617.63
572.57	44165.91
572.74	44889.13
572.90	44715.93
573.06	44641.04
573.22	44524.01
573.38	44336.77
573.55	44528.69
573.71	44350.81
573.87	44505.29
574.03	44194.00
574.20	44383.58
574.36	44524.01
574.52	44676.15
574.68	44074.63
574.84	44790.83
575.01	44706.57
575.17	44608.27
575.33	44456.14
575.49	44186.97
575.65	44626.99
575.82	44655.08
575.98	44350.81
576.14	44648.06
576.30	44727.64
576.46	44226.76
576.62	44439.75
576.79	44531.03
576.95	44294.64
577.11	44741.68
577.27	44484.22
577.43	44807.22
577.59	44971.05
577.75	44313.36
577.92	44348.47
578.08	44458.48
578.24	44540.39
578.40	44568.48
578.56	44774.45
578.72	44591.89
578.88	44893.82
579.04	44662.10
579.21	44734.66
579.37	44701.89
579.53	44430.39
579.69	44495.92
579.85	44774.45
580.01	45074.04
580.17	44722.96
580.33	44818.92
580.49	44734.66
580.65	44823.60
580.82	45193.40
580.98	44685.51
581.14	44978.07
581.30	45214.47
581.46	44889.13
581.62	44718.28
581.78	45113.83
581.94	44528.69
582.10	44725.30
582.26	44549.76
582.42	44725.30
582.58	45015.52
582.74	44720.62
582.90	44577.84
583.06	45062.33
583.22	44868.07
583.38	44626.99
583.54	44849.35
583.70	44505.29
583.86	44704.23
584.02	44758.06
584.18	44727.64
584.34	44629.34
584.50	44952.33
584.66	44669.12
584.82	44404.64
584.98	45099.78
585.14	44980.42
585.30	44442.09
585.46	44844.66
585.62	44893.82
585.78	44666.78
585.94	44416.35
586.10	44751.04
586.26	44931.26
586.42	45141.91
586.58	45174.68
586.74	44975.73
586.90	44617.63
587.06	44790.83
587.22	44809.56
587.38	44336.77
587.54	44825.94
587.70	45048.29
587.86	44905.52
588.02	44533.37
588.18	44978.07
588.34	44418.69
588.49	44779.13
588.65	43999.73
588.81	44217.40
588.97	44762.75
589.13	44472.52
589.29	44690.19
589.45	44903.18
589.61	44516.99
589.77	44954.67
589.93	45029.57
590.08	45240.21
590.24	44898.50
