SpectraSuite Data File
++++++++++++++++++++++++++++++++++++
Date: Fri Oct 25 11:34:05 EDT 2013
User: price-jones
Dark Spectrum Present: No
Reference Spectrum Present: No
Number of Sampled Component Spectra: 1
Spectrometers: USB2+H05261
Integration Time (usec): 100000 (USB2+H05261)
Spectra Averaged: 1 (USB2+H05261)
Boxcar Smoothing: 0 (USB2+H05261)
Correct for Electrical Dark: No (USB2+H05261)
Strobe/Lamp Enabled: No (USB2+H05261)
Correct for Detector Non-linearity: No (USB2+H05261)
Correct for Stray Light: No (USB2+H05261)
Number of Pixels in Processed Spectrum: 2048
>>>>>Begin Processed Spectral Data<<<<<
365.73	248.10
365.92	248.10
366.12	248.10
366.32	182.56
366.52	145.11
366.72	208.31
366.91	180.22
367.11	126.39
367.31	182.56
367.51	227.03
367.70	152.13
367.90	168.52
368.10	145.11
368.30	170.86
368.49	191.92
368.69	191.92
368.89	215.33
369.09	145.11
369.28	117.03
369.48	269.16
369.68	238.73
369.87	266.82
370.07	276.18
370.27	259.80
370.47	334.70
370.66	505.56
370.86	493.85
371.06	573.43
371.25	540.66
371.45	500.87
371.65	540.66
371.84	510.24
372.04	531.30
372.24	552.37
372.44	599.18
372.63	638.97
372.83	629.60
373.03	613.22
373.22	599.18
373.42	660.03
373.62	561.73
373.81	657.69
374.01	664.71
374.21	608.54
374.40	557.05
374.60	730.25
374.79	624.92
374.99	643.65
375.19	662.37
375.38	580.45
375.58	636.63
375.78	667.05
375.97	751.31
376.17	648.33
376.37	678.76
376.56	624.92
376.76	678.76
376.95	648.33
377.15	732.59
377.35	716.20
377.54	662.37
377.74	657.69
377.93	601.52
378.13	657.69
378.33	669.39
378.52	638.97
378.72	746.63
378.91	697.48
379.11	681.10
379.31	704.50
379.50	653.01
379.70	723.23
379.89	692.80
380.09	613.22
380.28	720.88
380.48	744.29
380.68	718.54
380.87	765.36
381.07	741.95
381.26	730.25
381.46	767.70
381.65	741.95
381.85	809.83
382.04	777.06
382.24	690.46
382.43	779.40
382.63	819.19
382.83	802.80
383.02	753.65
383.22	819.19
383.41	835.57
383.61	809.83
383.80	781.74
384.00	807.48
384.19	760.67
384.39	779.40
384.58	767.70
384.78	730.25
384.97	823.87
385.17	798.12
385.36	809.83
385.56	861.32
385.75	716.20
385.95	814.51
386.14	884.72
386.34	833.23
386.53	777.06
386.72	835.57
386.92	891.74
387.11	844.93
387.31	854.30
387.50	781.74
387.70	898.77
387.89	856.64
388.09	889.40
388.28	870.68
388.48	816.85
388.67	858.98
388.86	887.06
389.06	926.85
389.25	847.27
389.45	961.96
389.64	945.58
389.84	1013.45
390.03	931.53
390.22	980.68
390.42	950.26
390.61	917.49
390.81	882.38
391.00	910.47
391.19	980.68
391.39	994.73
391.58	987.71
391.78	985.37
391.97	1029.84
392.16	980.68
392.36	1018.13
392.55	1036.86
392.75	1137.50
392.94	1008.77
393.13	1109.41
393.33	1034.52
393.52	959.62
393.71	987.71
393.91	1086.01
394.10	1050.90
394.29	1095.37
394.49	1034.52
394.68	1146.86
394.88	1156.22
395.07	1181.97
395.26	1088.35
395.46	1235.80
395.65	1273.25
395.84	1160.91
396.04	1177.29
396.23	1217.08
396.42	1114.10
396.62	1214.74
396.81	1203.04
397.00	1130.48
397.19	1226.44
397.39	1156.22
397.58	1104.73
397.77	1289.64
397.97	1210.06
398.16	1261.55
398.35	1313.04
398.55	1240.48
398.74	1280.27
398.93	1261.55
399.12	1291.98
399.32	1350.49
399.51	1263.89
399.70	1273.25
399.90	1315.38
400.09	1343.47
400.28	1430.07
400.47	1324.74
400.67	1458.15
400.86	1453.47
401.05	1427.73
401.24	1387.94
401.44	1392.62
401.63	1437.09
401.82	1397.30
402.01	1404.32
402.21	1451.13
402.40	1458.15
402.59	1469.86
402.78	1420.71
402.97	1516.67
403.17	1495.60
403.36	1467.52
403.55	1451.13
403.74	1533.05
403.93	1514.33
404.13	1572.84
404.32	1607.95
404.51	1582.20
404.70	1619.65
404.89	1643.06
405.09	1668.80
405.28	1678.16
405.47	1626.67
405.66	1650.08
405.85	1687.53
406.05	1734.34
406.24	1753.06
406.43	1678.16
406.62	1837.32
406.81	1743.70
407.00	1769.44
407.20	1710.93
407.39	1689.87
407.58	1846.68
407.77	1769.44
407.96	1774.13
408.15	1783.49
408.34	1856.04
408.54	1944.99
408.73	1912.22
408.92	1895.83
409.11	1895.83
409.30	1886.47
409.49	2019.88
409.68	1994.14
409.87	1984.77
410.07	1994.14
410.26	2005.84
410.45	2012.86
410.64	1949.67
410.83	1973.07
411.02	2050.31
411.21	2275.00
411.40	2090.10
411.59	2132.23
411.78	2012.86
411.98	2202.44
412.17	2193.08
412.36	2207.13
412.55	2349.90
412.74	2389.69
412.93	2249.25
413.12	2321.81
413.31	2420.11
413.50	2363.94
413.69	2349.90
413.88	2518.42
414.07	2424.80
414.26	2480.97
414.45	2476.29
414.64	2541.82
414.83	2480.97
415.02	2455.22
415.22	2691.62
415.41	2654.17
415.60	2623.74
415.79	2668.21
415.98	2616.72
416.17	2684.59
416.36	2686.94
416.55	2628.42
416.74	2810.98
416.93	2757.15
417.12	2810.98
417.31	2750.13
417.50	2876.52
417.69	2892.90
417.88	2960.78
418.07	2876.52
418.26	2909.29
418.45	2885.88
418.64	2949.08
418.83	2986.52
419.02	3005.25
419.21	2965.46
419.39	3162.06
419.58	3038.02
419.77	3059.08
419.96	3166.74
420.15	3213.56
420.34	3066.10
420.53	3211.22
420.72	3243.98
420.91	3131.64
421.10	3318.88
421.29	3269.73
421.48	3215.90
421.67	3243.98
421.86	3290.79
422.05	3199.51
422.24	3293.13
422.43	3293.13
422.61	3295.47
422.80	3307.18
422.99	3300.16
423.18	3365.69
423.37	3344.63
423.56	3300.16
423.75	3358.67
423.94	3283.77
424.13	3276.75
424.32	3131.64
424.50	3265.05
424.69	3386.76
424.88	3452.29
425.07	3438.25
425.26	3290.79
425.45	3393.78
425.64	3494.42
425.83	3372.71
426.01	3522.51
426.20	3520.17
426.39	3407.82
426.58	3499.10
426.77	3501.44
426.96	3602.08
427.15	3386.76
427.33	3501.44
427.52	3442.93
427.71	3569.32
427.90	3487.40
428.09	3487.40
428.28	3585.70
428.46	3658.26
428.65	3667.62
428.84	3637.19
429.03	3772.94
429.22	3707.41
429.40	3779.97
429.59	3735.50
429.78	3461.65
429.97	3627.83
430.16	3707.41
430.34	3742.52
430.53	3723.79
430.72	3681.66
430.91	3871.25
431.10	3922.74
431.28	3794.01
431.47	3838.48
431.66	3997.64
431.85	3866.56
432.03	4077.21
432.22	4039.76
432.41	4053.81
432.60	3831.46
432.79	3932.10
432.97	3962.53
433.16	4037.42
433.35	3953.16
433.54	4086.58
433.72	4217.65
433.91	4112.32
434.10	4135.73
434.28	4011.68
434.47	4208.28
434.66	4236.37
434.85	4264.46
435.03	4285.52
435.22	4156.79
435.41	4273.82
435.59	4383.82
435.78	4353.40
435.97	4308.93
436.16	4362.76
436.34	4393.19
436.53	4301.90
436.72	4638.94
436.90	4479.79
437.09	4500.85
437.28	4390.84
437.46	4507.87
437.65	4599.15
437.84	4500.85
438.02	4585.11
438.21	4456.38
438.40	4601.49
438.58	4674.05
438.77	4730.22
438.96	4718.52
439.14	4854.27
439.33	4706.82
439.52	4770.01
439.70	4966.62
439.89	4898.74
440.08	4943.21
440.26	4889.38
440.45	4917.47
440.63	5107.05
440.82	5029.81
441.01	5057.90
441.19	5074.28
441.38	5107.05
441.57	5020.45
441.75	5270.89
441.94	5277.91
442.12	5334.08
442.31	5420.68
442.50	5462.81
442.68	5228.76
442.87	5366.85
443.05	5303.65
443.24	5390.25
443.43	5289.61
443.61	5497.92
443.80	5636.01
443.98	5411.32
444.17	5205.35
444.35	5380.89
444.54	5692.18
444.73	5619.63
444.91	5533.03
445.10	5561.11
445.28	5521.32
445.47	5509.62
445.65	5621.97
445.84	5664.10
446.02	5540.05
446.21	5607.92
446.39	5607.92
446.58	5654.73
446.77	5746.02
446.95	5659.42
447.14	5610.26
447.32	5614.95
447.51	5748.36
447.69	5680.48
447.88	5537.71
448.06	5659.42
448.25	5561.11
448.43	5785.80
448.62	5706.23
448.80	5776.44
448.99	5851.34
449.17	5680.48
449.36	5820.91
449.54	5760.06
449.73	5844.32
449.91	5902.83
450.10	5879.43
450.28	6040.92
450.46	6005.81
450.65	5998.79
450.83	5879.43
451.02	5994.11
451.20	6181.35
451.39	5996.45
451.57	6195.40
451.76	6045.60
451.94	6094.76
452.13	6207.10
452.31	6211.78
452.49	6143.91
452.68	6160.29
452.86	6118.16
453.05	6272.64
453.23	6260.93
453.42	6143.91
453.60	6282.00
453.78	6274.98
453.97	6221.14
454.15	6232.85
454.34	6310.08
454.52	6406.05
454.70	6471.58
454.89	6293.70
455.07	6581.59
455.26	6382.64
455.44	6560.52
455.62	6621.38
455.81	6600.31
455.99	6581.59
456.17	6630.74
456.36	6691.59
456.54	6768.83
456.73	6829.68
456.91	6836.70
457.09	6836.70
457.28	7063.74
457.46	6717.34
457.64	6874.15
457.83	6862.45
458.01	6862.45
458.19	7082.46
458.38	6895.22
458.56	7262.68
458.74	7007.56
458.93	7089.48
459.11	7117.57
459.29	7082.46
459.48	7180.76
459.66	7255.66
459.84	7026.29
460.03	7330.56
460.21	7220.55
460.39	7204.17
460.57	7311.83
460.76	7255.66
460.94	7360.98
461.12	7318.86
461.31	7382.05
461.49	7281.41
461.67	7295.45
461.85	7604.40
462.04	7555.25
462.22	7836.11
462.40	7707.38
462.59	7578.65
462.77	7522.48
462.95	7723.77
463.13	7702.70
463.32	7749.51
463.50	7672.28
463.68	7702.70
463.86	7632.49
464.05	7721.43
464.23	7765.90
464.41	7936.76
464.59	7751.85
464.78	7873.56
464.96	7779.94
465.14	7665.25
465.32	7920.37
465.50	7995.27
465.69	7964.84
465.87	8035.06
466.05	7810.37
466.23	8201.24
466.41	7957.82
466.60	8257.41
466.78	8025.70
466.96	8074.85
467.14	8105.28
467.32	8056.12
467.51	8224.64
467.69	8091.23
467.87	8170.81
468.05	8245.71
468.23	8135.70
468.41	8180.17
468.60	8346.35
468.78	8475.08
468.96	8278.47
469.14	8308.90
469.32	8334.65
469.50	8355.71
469.69	8547.64
469.87	8540.61
470.05	8559.34
470.23	8528.91
470.41	8594.45
470.59	8816.80
470.77	8676.37
470.95	8589.77
471.14	8868.29
471.32	8645.94
471.50	8872.97
471.68	9001.70
471.86	8882.33
472.04	8952.55
472.22	9296.61
472.40	9104.68
472.58	9036.81
472.77	9125.75
472.95	9217.03
473.13	9467.47
473.31	9320.01
473.49	9514.28
473.67	9048.51
473.85	9317.67
474.03	9441.72
474.21	9415.98
474.39	9322.35
474.57	9554.07
474.75	9645.35
474.93	9865.36
475.12	9792.80
475.30	9724.93
475.48	9987.07
475.66	10008.13
475.84	9891.10
476.02	10080.69
476.20	9989.41
476.38	10190.69
476.56	10363.89
476.74	10267.93
476.92	10242.18
477.10	10406.02
477.28	10354.53
477.46	10537.09
477.64	10656.46
477.82	10860.09
478.00	10906.90
478.18	10916.26
478.36	10991.16
478.54	11087.12
478.72	11239.25
478.90	11412.45
479.08	11250.96
479.26	11353.94
479.44	11496.71
479.62	11508.41
479.80	11442.88
479.98	11791.62
480.16	12058.44
480.34	11859.49
480.52	11943.75
480.70	12238.66
480.88	11822.05
481.06	12018.65
481.24	12023.33
481.41	12266.75
481.59	12622.51
481.77	12421.22
481.95	12863.58
482.13	12816.77
482.31	12648.26
482.49	13076.57
482.67	12917.42
482.85	13324.67
483.03	13364.46
483.21	13242.75
483.39	13509.57
483.57	13404.25
483.74	13495.53
483.92	13874.70
484.10	13764.69
484.28	13867.67
484.46	14197.69
484.64	14413.02
484.82	14139.18
485.00	14253.86
485.18	14434.08
485.35	14977.09
485.53	14665.80
485.71	14801.55
485.89	15016.88
486.07	15166.67
486.25	14913.89
486.43	15220.50
486.61	15606.69
486.78	15740.10
486.96	15459.24
487.14	15847.77
487.32	15793.94
487.50	16051.39
487.68	16009.26
487.85	16278.43
488.03	16418.86
488.21	16898.67
488.39	16751.21
488.57	16947.82
488.75	16683.34
488.92	17121.02
489.10	17083.57
489.28	17294.22
489.46	17455.72
489.64	17399.54
489.81	17788.07
489.99	17806.80
490.17	17944.89
490.35	18104.04
490.53	18197.67
490.70	18347.46
490.88	18221.07
491.06	18700.88
491.24	18677.48
491.41	18623.64
491.59	18986.43
491.77	18822.59
491.95	19047.28
492.13	19208.78
492.30	19293.04
492.48	18970.04
492.66	19576.24
492.84	19438.15
493.01	19978.81
493.19	19967.11
493.37	20238.61
493.54	19658.16
493.72	19903.92
493.90	20018.60
494.08	20369.68
494.25	20503.09
494.43	20716.08
494.61	20680.97
494.79	20636.50
494.96	20788.64
495.14	20985.24
495.32	21160.78
495.49	21240.36
495.67	21399.52
495.85	21425.26
496.02	21813.79
496.20	22363.82
496.38	22221.05
496.55	22284.24
496.73	22518.29
496.91	22352.12
497.09	22457.44
497.26	22340.41
497.44	22808.52
497.62	22604.89
497.79	23140.88
497.97	22808.52
498.14	23213.43
498.32	23304.71
498.50	23250.88
498.67	23250.88
498.85	23386.63
499.03	23335.14
499.20	23941.34
499.38	23859.42
499.56	23887.51
499.73	24016.24
499.91	24065.39
500.08	24208.16
500.26	23843.04
500.44	24154.33
500.61	24299.44
500.79	24247.95
500.97	24685.63
501.14	24697.33
501.32	25109.27
501.49	24718.40
501.67	24907.98
501.84	25240.34
502.02	24933.73
502.20	25020.33
502.37	25167.78
502.55	25411.20
502.72	25638.23
502.90	25682.70
503.07	25591.42
503.25	25467.37
503.43	25638.23
503.60	26073.57
503.78	25862.92
503.95	26120.38
504.13	25867.60
504.30	26487.84
504.48	26008.03
504.65	26403.58
504.83	26848.29
505.01	26581.46
505.18	26632.96
505.36	26761.69
505.53	26623.59
505.71	26745.30
505.88	27220.43
506.06	27000.42
506.23	27065.96
506.41	26981.70
506.58	27531.72
506.76	26815.52
506.93	27470.87
507.11	27480.23
507.28	27936.63
507.46	27634.71
507.63	27639.39
507.81	27981.10
507.98	27414.69
508.16	27608.96
508.33	27943.66
508.50	28196.43
508.68	28074.73
508.85	28535.81
509.03	28189.41
509.20	28606.03
509.38	28989.88
509.55	28577.94
509.73	29043.71
509.90	28786.25
510.08	28854.12
510.25	29333.93
510.42	28793.27
510.60	29111.58
510.77	29715.44
510.95	29855.87
511.12	29350.32
511.30	29848.85
511.47	29411.17
511.64	29598.41
511.82	30148.44
511.99	29766.93
512.17	29830.13
512.34	29755.23
512.51	30178.87
512.69	30265.47
512.86	30103.97
513.04	30534.63
513.21	30387.18
513.38	30410.58
513.56	30452.71
513.73	30375.47
513.90	30696.13
514.08	30548.67
514.25	30796.77
514.43	30581.44
514.60	30958.27
514.77	30874.01
514.95	31061.25
515.12	30941.88
515.29	31028.48
515.47	31285.94
515.64	31126.78
515.81	31372.54
515.99	31157.21
516.16	31653.40
516.33	31992.78
516.51	31814.90
516.68	32013.85
516.85	31725.96
517.03	32446.85
517.20	32416.42
517.37	31852.35
517.54	32189.39
517.72	32243.22
517.89	32128.53
518.06	32271.31
518.24	32378.97
518.41	32816.65
518.58	32400.04
518.75	32453.87
518.93	32755.80
519.10	32898.57
519.27	33149.01
519.45	32718.35
519.62	33289.44
519.79	33013.26
519.96	32800.27
520.14	33219.22
520.31	33031.98
520.48	33336.25
520.65	33624.14
520.83	33549.24
521.00	33940.11
521.17	33851.17
521.34	33785.63
521.52	33893.30
521.69	33694.35
521.86	33916.70
522.03	34108.63
522.20	34270.12
522.38	34108.63
522.55	34129.69
522.72	34068.84
522.89	34443.32
523.07	34911.43
523.24	34132.03
523.41	34852.92
523.58	34497.16
523.75	34925.47
523.92	34307.57
524.10	34873.98
524.27	35138.46
524.44	35452.09
524.61	35007.39
524.78	35524.65
524.96	35526.99
525.13	35716.58
525.30	35360.81
525.47	35271.87
525.64	35552.74
525.81	35496.56
525.98	35826.58
526.16	35452.09
526.33	35955.31
526.50	36041.91
526.67	35819.56
526.84	36350.86
527.01	35775.09
527.18	36123.83
527.36	36074.68
527.53	36332.14
527.70	36456.18
527.87	36212.77
528.04	36449.16
528.21	36236.17
528.38	36584.91
528.55	36680.88
528.72	36449.16
528.89	36563.85
529.07	36528.74
529.24	36201.07
529.41	36940.68
529.58	36369.58
529.75	36954.72
529.92	37017.91
530.09	37251.97
530.26	36797.90
530.43	37493.04
530.60	37205.16
530.77	37010.89
530.94	36943.02
531.11	36882.16
531.28	37240.26
531.46	37177.07
531.63	37404.10
531.80	37448.57
531.97	37584.32
532.14	37699.01
532.31	37289.42
532.48	37933.06
532.65	38157.75
532.82	37881.57
532.99	37860.51
533.16	37827.74
533.33	38019.66
533.50	37954.13
533.67	37993.92
533.84	37659.22
534.01	37977.53
534.18	37919.02
534.35	38483.09
534.52	38394.15
534.69	38726.50
534.86	38440.96
535.03	38438.62
535.20	38705.44
535.37	38536.92
535.54	38937.15
535.71	38637.56
535.88	38789.70
536.05	39082.27
536.22	38927.79
536.38	39234.40
536.55	39035.45
536.72	38986.30
536.89	38990.98
537.06	38918.43
537.23	39529.31
537.40	38951.20
537.57	39012.05
537.74	39157.16
537.91	39557.39
538.08	39353.77
538.25	39026.09
538.42	39683.78
538.59	39732.93
538.75	39620.59
538.92	39784.43
539.09	40133.17
539.26	39737.62
539.43	39693.15
539.60	39667.40
539.77	39847.62
539.94	39922.52
540.11	39622.93
540.28	39700.17
540.44	39976.35
540.61	39922.52
540.78	39901.45
540.95	40114.44
541.12	39721.23
541.29	40041.88
541.46	40369.56
541.62	40421.05
541.79	40786.18
541.96	40219.77
542.13	40079.33
542.30	40631.70
542.47	40449.14
542.63	40758.09
542.80	40769.79
542.97	41132.57
543.14	41104.49
543.31	41031.93
543.48	41120.87
543.64	41357.27
543.81	41457.91
543.98	40999.16
544.15	40973.42
544.32	41661.54
544.48	41738.77
544.65	41907.29
544.82	41542.17
544.99	41488.34
545.16	41801.97
545.32	41544.51
545.49	41911.97
545.66	41977.51
545.83	41776.22
546.00	42012.62
546.16	41902.61
546.33	41668.56
546.50	41331.52
546.67	42176.45
546.83	41741.11
547.00	41886.23
547.17	41982.19
547.34	41947.08
547.50	42087.51
547.67	42120.28
547.84	42270.08
548.00	42490.09
548.17	42351.99
548.34	42354.33
548.51	42754.57
548.67	42139.00
548.84	42462.00
549.01	42625.84
549.18	42307.52
549.34	42637.54
549.51	42808.40
549.68	42447.96
549.84	42457.32
550.01	42925.42
550.18	42621.16
550.34	42768.61
550.51	42883.30
550.68	42674.99
550.84	42321.57
551.01	42932.45
551.18	43019.05
551.34	43028.41
551.51	43405.23
551.68	42829.46
551.84	43037.77
552.01	42953.51
552.18	43150.12
552.34	42749.88
552.51	42848.19
552.68	43468.43
552.84	43173.52
553.01	43365.45
553.18	43517.58
553.34	43407.58
553.51	43557.37
553.67	43735.25
553.84	43842.92
554.01	44098.03
554.17	43805.47
554.34	44126.12
554.51	43580.78
554.67	43569.07
554.84	43922.49
555.00	43438.00
555.17	43800.79
555.33	44069.95
555.50	43704.82
555.67	43632.27
555.83	43800.79
556.00	43973.98
556.16	44327.41
556.33	44449.11
556.50	44093.35
556.66	44332.09
556.83	43899.09
556.99	44671.46
557.16	44299.32
557.32	44458.48
557.49	44392.94
557.65	44123.78
557.82	44343.79
557.98	44275.91
558.15	44144.84
558.32	44409.32
558.48	44264.21
558.65	44638.70
558.81	44610.61
558.98	44133.14
559.14	44268.89
559.31	44219.74
559.47	44421.03
559.64	44491.24
559.80	44388.26
559.97	44751.04
560.13	44388.26
560.30	44397.62
560.46	44959.35
560.63	44423.37
560.79	45237.87
560.96	45113.83
561.12	44666.78
561.29	44645.72
561.45	44957.01
561.61	44301.66
561.78	44954.67
561.94	44598.91
562.11	44753.38
562.27	44825.94
562.44	44708.91
562.60	45521.08
562.77	44964.03
562.93	45034.25
563.10	45392.35
563.26	45022.54
563.42	45366.60
563.59	44964.03
563.75	44865.73
563.92	45045.95
564.08	45146.59
564.24	45078.72
564.41	44985.10
564.57	45312.77
564.74	45422.78
564.90	45258.94
565.07	45038.93
565.23	45095.10
565.39	45120.85
565.56	45439.16
565.72	45017.86
565.88	45296.39
566.05	45280.00
566.21	45560.87
566.38	45359.58
566.54	45631.08
566.70	45626.40
566.87	45420.44
567.03	45565.55
567.19	45680.24
567.36	45462.57
567.52	45703.64
567.68	45827.69
567.85	45635.77
568.01	46127.28
568.17	45675.55
568.34	45808.96
568.50	45743.43
568.66	45333.84
568.83	45263.62
568.99	45244.90
569.15	45600.66
569.32	45439.16
569.48	45631.08
569.64	46082.81
569.81	46089.83
569.97	46036.00
570.13	46141.32
570.30	45748.11
570.46	45886.20
570.62	45738.75
570.78	45876.84
570.95	45975.14
571.11	46061.74
571.27	45523.42
571.43	45846.41
571.60	45757.47
571.76	45834.71
571.92	45743.43
572.09	45799.60
572.25	45677.90
572.41	45923.65
572.57	46199.83
572.74	46253.67
572.90	45944.72
573.06	46115.58
573.22	46134.30
573.38	45996.21
573.55	46253.67
573.71	46658.58
573.87	46227.92
574.03	46251.33
574.20	46003.23
574.36	45883.86
574.52	46239.62
574.68	46541.55
574.84	45968.12
575.01	46248.99
575.17	46368.35
575.33	46157.70
575.49	45895.56
575.65	46328.56
575.82	46274.73
575.98	46017.27
576.14	46157.70
576.30	46529.85
576.46	46115.58
576.62	46536.87
576.79	46192.81
576.95	45745.77
577.11	45888.54
577.27	45975.14
577.43	46045.36
577.59	46419.84
577.75	46078.13
577.92	46085.15
578.08	46483.04
578.24	46143.66
578.40	46171.75
578.56	46326.22
578.72	46410.48
578.88	46471.34
579.04	46667.94
579.21	46284.09
579.37	46384.74
579.53	46330.90
579.69	46073.45
579.85	46218.56
580.01	46646.88
580.17	46293.46
580.33	46344.95
580.49	46628.15
580.65	46185.79
580.82	46618.79
580.98	46560.28
581.14	46054.72
581.30	45993.87
581.46	46059.40
581.62	46412.82
581.78	46150.68
581.94	46728.80
582.10	46546.23
582.26	46803.69
582.42	46417.50
582.58	46569.64
582.74	46590.70
582.90	46658.58
583.06	46649.22
583.22	46637.51
583.38	46344.95
583.54	46422.19
583.70	46873.91
583.86	46319.20
584.02	46281.75
584.18	47112.64
584.34	46681.98
584.50	46944.12
584.66	46513.47
584.82	46829.44
584.98	46696.03
585.14	46300.48
585.30	46827.10
585.46	46403.46
585.62	46541.55
585.78	46478.36
585.94	46122.60
586.10	46480.70
586.26	46522.83
586.42	46738.16
586.58	46546.23
586.74	46506.44
586.90	46225.58
587.06	46394.10
587.22	46525.17
587.38	46120.26
587.54	47012.00
587.70	46822.42
587.86	46799.01
588.02	46499.42
588.18	46417.50
588.34	46597.73
588.49	46974.55
588.65	46571.98
588.81	47091.58
588.97	46576.66
589.13	46724.11
589.29	46768.58
589.45	46946.47
589.61	47000.30
589.77	47248.39
589.93	47253.08
590.08	46752.20
