SpectraSuite Data File
++++++++++++++++++++++++++++++++++++
Date: Fri Oct 25 10:44:08 EDT 2013
User: price-jones
Dark Spectrum Present: No
Reference Spectrum Present: No
Number of Sampled Component Spectra: 1
Spectrometers: USB2+H05261
Integration Time (usec): 100000 (USB2+H05261)
Spectra Averaged: 1 (USB2+H05261)
Boxcar Smoothing: 0 (USB2+H05261)
Correct for Electrical Dark: No (USB2+H05261)
Strobe/Lamp Enabled: No (USB2+H05261)
Correct for Detector Non-linearity: No (USB2+H05261)
Correct for Stray Light: No (USB2+H05261)
Number of Pixels in Processed Spectrum: 2048
>>>>>Begin Processed Spectral Data<<<<<
365.73	147.45
365.92	147.45
366.12	147.45
366.32	14.04
366.52	11.70
366.72	128.73
366.91	0.00
367.11	28.09
367.31	42.13
367.51	46.81
367.70	39.79
367.90	4.68
368.10	74.90
368.30	18.72
368.49	21.06
368.69	77.24
368.89	72.56
369.09	60.85
369.28	60.85
369.48	65.54
369.68	65.54
369.87	77.24
370.07	77.24
370.27	128.73
370.47	184.90
370.66	383.85
370.86	472.79
371.06	435.34
371.25	477.47
371.45	482.15
371.65	425.98
371.84	395.55
372.04	447.04
372.24	489.17
372.44	491.51
372.63	496.19
372.83	444.70
373.03	477.47
373.22	489.17
373.42	510.24
373.62	512.58
373.81	554.71
374.01	554.71
374.21	507.90
374.40	514.92
374.60	592.16
374.79	482.15
374.99	568.75
375.19	543.00
375.38	489.17
375.58	709.18
375.78	634.29
375.97	631.94
376.17	622.58
376.37	685.78
376.56	578.11
376.76	578.11
376.95	596.84
377.15	660.03
377.35	622.58
377.54	603.86
377.74	613.22
377.93	681.10
378.13	669.39
378.33	631.94
378.52	690.46
378.72	678.76
378.91	645.99
379.11	709.18
379.31	653.01
379.50	573.43
379.70	648.33
379.89	765.36
380.09	725.57
380.28	748.97
380.48	674.07
380.68	601.52
380.87	716.20
381.07	671.73
381.26	697.48
381.46	674.07
381.65	739.61
381.85	699.82
382.04	638.97
382.24	725.57
382.43	676.41
382.63	688.12
382.83	755.99
383.02	690.46
383.22	692.80
383.41	645.99
383.61	669.39
383.80	844.93
384.00	779.40
384.19	737.27
384.39	863.66
384.58	779.40
384.78	760.67
384.97	793.44
385.17	800.46
385.36	791.10
385.56	812.17
385.75	837.91
385.95	814.51
386.14	828.55
386.34	800.46
386.53	856.64
386.72	851.96
386.92	898.77
387.11	821.53
387.31	858.98
387.50	837.91
387.70	861.32
387.89	837.91
388.09	816.85
388.28	814.51
388.48	849.61
388.67	924.51
388.86	917.49
389.06	905.79
389.25	1001.75
389.45	999.41
389.64	1053.24
389.84	1034.52
390.03	1011.11
390.22	945.58
390.42	1036.86
390.61	936.21
390.81	1018.13
391.00	1067.28
391.19	1090.69
391.39	1081.33
391.58	1090.69
391.78	992.39
391.97	1086.01
392.16	1050.90
392.36	1067.28
392.55	1081.33
392.75	985.37
392.94	924.51
393.13	1036.86
393.33	1015.79
393.52	1025.15
393.71	1123.46
393.91	1078.99
394.10	1046.22
394.29	1196.01
394.49	1025.15
394.68	1174.95
394.88	1125.80
395.07	1238.14
395.26	1273.25
395.46	1193.67
395.65	1266.23
395.84	1212.40
396.04	1235.80
396.23	1130.48
396.42	1174.95
396.62	1137.50
396.81	1221.76
397.00	1100.05
397.19	1324.74
397.39	1249.85
397.58	1462.83
397.77	1373.89
397.97	1439.43
398.16	1355.17
398.35	1490.92
398.55	1394.96
398.74	1437.09
398.93	1434.75
399.12	1348.15
399.32	1439.43
399.51	1488.58
399.70	1568.16
399.90	1540.07
400.09	1610.29
400.28	1575.18
400.47	1490.92
400.67	1659.44
400.86	1703.91
401.05	1591.56
401.24	1621.99
401.44	1638.38
401.63	1701.57
401.82	1823.28
402.01	1647.74
402.21	1717.95
402.40	1724.97
402.59	1694.55
402.78	1661.78
402.97	1818.60
403.17	1813.92
403.36	1739.02
403.55	1877.11
403.74	1902.86
403.93	1872.43
404.13	1797.53
404.32	1940.30
404.51	1893.49
404.70	1830.30
404.89	1837.32
405.09	1886.47
405.28	1970.73
405.47	1942.64
405.66	1996.48
405.85	1923.92
406.05	1975.41
406.24	2003.50
406.43	2047.97
406.62	2024.56
406.81	1994.14
407.00	2069.03
407.20	1961.37
407.39	2059.67
407.58	2139.25
407.77	2136.91
407.96	2228.19
408.15	2134.57
408.34	2242.23
408.54	2211.81
408.73	2200.10
408.92	2256.28
409.11	2207.13
409.30	2267.98
409.49	2267.98
409.68	2181.38
409.87	2317.13
410.07	2272.66
410.26	2307.77
410.45	2443.52
410.64	2427.14
410.83	2445.86
411.02	2495.01
411.21	2527.78
411.40	2537.14
411.59	2551.18
411.78	2576.93
411.98	2541.82
412.17	2495.01
412.36	2703.32
412.55	2663.53
412.74	2738.43
412.93	2745.45
413.12	2658.85
413.31	2761.83
413.50	2808.64
413.69	2759.49
413.88	2825.03
414.07	2881.20
414.26	2939.71
414.45	3026.31
414.64	3009.93
414.83	2956.10
415.02	3066.10
415.22	2998.23
415.41	3150.36
415.60	3075.46
415.79	3112.91
415.98	3145.68
416.17	3112.91
416.36	3070.78
416.55	3248.66
416.74	3157.38
416.93	3155.04
417.12	3318.88
417.31	3342.28
417.50	3199.51
417.69	3400.80
417.88	3295.47
418.07	3321.22
418.26	3492.08
418.45	3452.29
418.64	3426.54
418.83	3461.65
419.02	3475.70
419.21	3578.68
419.39	3522.51
419.58	3492.08
419.77	3627.83
419.96	3571.66
420.15	3503.78
420.34	3499.10
420.53	3550.59
420.72	3798.69
420.91	3829.12
421.10	3700.39
421.29	3911.04
421.48	3705.07
421.67	3728.47
421.86	3875.93
422.05	3754.22
422.24	3824.44
422.43	3611.45
422.61	3922.74
422.80	3829.12
422.99	3737.84
423.18	3892.31
423.37	3936.78
423.56	3904.01
423.75	3805.71
423.94	3847.84
424.13	3779.97
424.32	3854.86
424.50	4046.79
424.69	3999.98
424.88	3950.82
425.07	3927.42
425.26	3836.14
425.45	3871.25
425.64	3866.56
425.83	3918.06
426.01	4032.74
426.20	4011.68
426.39	3892.31
426.58	3866.56
426.77	3784.65
426.96	3829.12
427.15	3927.42
427.33	3999.98
427.52	4058.49
427.71	3932.10
427.90	4002.32
428.09	4159.13
428.28	4009.34
428.46	4252.75
428.65	4112.32
428.84	4217.65
429.03	4203.60
429.22	4032.74
429.40	4227.01
429.59	4084.23
429.78	3955.51
429.97	3911.04
430.16	3943.80
430.34	4023.38
430.53	4147.43
430.72	3967.21
430.91	4177.86
431.10	4084.23
431.28	4440.00
431.47	4629.58
431.66	4669.37
431.85	4606.17
432.03	4458.72
432.22	4528.94
432.41	4472.76
432.60	4526.60
432.79	4601.49
432.97	4730.22
433.16	4606.17
433.35	4533.62
433.54	4629.58
433.72	4416.59
433.91	4531.28
434.10	4695.11
434.28	4741.93
434.47	4758.31
434.66	4809.80
434.85	4889.38
435.03	4814.48
435.22	4938.53
435.41	5167.90
435.59	5085.98
435.78	4990.02
435.97	5156.20
436.16	4994.70
436.34	5029.81
436.53	5153.86
436.72	5277.91
436.90	5118.75
437.09	5132.79
437.28	4980.66
437.46	5057.90
437.65	5336.42
437.84	5256.84
438.02	5121.09
438.21	5205.35
438.40	5078.96
438.58	5305.99
438.77	5331.74
438.96	5341.10
439.14	5509.62
439.33	5582.18
439.52	5572.82
439.70	5518.98
439.89	5659.42
440.08	5603.24
440.26	5643.03
440.45	5530.69
440.63	5699.20
440.82	5678.14
441.01	5912.19
441.19	5909.85
441.38	6038.58
441.57	6160.29
441.75	6143.91
441.94	6190.72
442.12	6143.91
442.31	6214.12
442.50	6265.61
442.68	6230.51
442.87	6120.50
443.05	6207.10
443.24	6457.54
443.43	6497.33
443.61	6380.30
443.80	6427.11
443.98	6146.25
444.17	6277.32
444.35	6387.32
444.54	6431.79
444.73	6469.24
444.91	6576.91
445.10	6527.75
445.28	6443.49
445.47	6134.54
445.65	6387.32
445.84	6438.81
446.02	6375.62
446.21	6331.15
446.39	6373.28
446.58	6457.54
446.77	6431.79
446.95	6565.20
447.14	6726.70
447.32	6576.91
447.51	6644.78
447.69	6806.28
447.88	6745.42
448.06	6675.21
448.25	6876.49
448.43	6593.29
448.62	6670.53
448.80	6705.63
448.99	6857.77
449.17	6731.38
449.36	6977.14
449.54	6801.60
449.73	6920.96
449.91	7045.01
450.10	6988.84
450.28	7068.42
450.46	7073.10
450.65	7250.98
450.83	7143.32
451.02	6995.86
451.20	7234.60
451.39	7096.50
451.57	7314.17
451.76	7208.85
451.94	7173.74
452.13	7148.00
452.31	7082.46
452.49	7037.99
452.68	7056.72
452.86	7028.63
453.05	7239.28
453.23	7274.38
453.42	7328.22
453.60	7304.81
453.78	7368.01
453.97	7293.11
454.15	7246.30
454.34	7349.28
454.52	7302.47
454.70	7389.07
454.89	7332.90
455.07	7517.80
455.26	7501.42
455.44	7681.64
455.62	7747.17
455.81	7756.54
455.99	7625.47
456.17	7868.88
456.36	7735.47
456.54	7730.79
456.73	7857.18
456.91	8100.59
457.09	8037.40
457.28	8142.72
457.46	7906.33
457.64	8175.49
457.83	7882.92
458.01	7976.55
458.19	8231.66
458.38	8142.72
458.56	8107.62
458.74	8091.23
458.93	7908.67
459.11	8369.76
459.29	8119.32
459.48	8196.56
459.66	8322.94
459.84	8351.03
460.03	8542.96
460.21	8437.63
460.39	8334.65
460.57	8388.48
460.76	8468.06
460.94	8423.59
461.12	8465.72
461.31	8746.58
461.49	8568.70
461.67	8465.72
461.85	8685.73
462.04	8545.30
462.22	8798.07
462.40	8933.82
462.59	8652.96
462.77	8748.92
462.95	8784.03
463.13	8814.46
463.32	8966.59
463.50	8784.03
463.68	8856.59
463.86	8973.61
464.05	8760.63
464.23	8791.05
464.41	8898.72
464.59	8971.27
464.78	9130.43
464.96	8922.12
465.14	8964.25
465.32	9280.22
465.50	9090.64
465.69	9149.15
465.87	9043.83
466.05	8980.64
466.23	9214.69
466.41	9245.12
466.60	9275.54
466.78	9102.34
466.96	9193.62
467.14	9081.28
467.32	9371.50
467.51	9654.71
467.69	9128.09
467.87	9298.95
468.05	9401.93
468.23	9193.62
468.41	9362.14
468.60	9497.89
468.78	9619.60
468.96	9341.08
469.14	9685.14
469.32	9675.77
469.50	9362.14
469.69	9678.12
469.87	9682.80
470.05	9706.20
470.23	9717.90
470.41	9652.37
470.59	9872.38
470.77	9738.97
470.95	9942.60
471.14	9956.64
471.32	9951.96
471.50	10052.60
471.68	10033.88
471.86	10401.34
472.04	10279.63
472.22	10333.47
472.40	10293.68
472.58	10443.47
472.77	10420.06
472.95	10473.90
473.13	10658.80
473.31	10565.18
473.49	10349.85
473.67	10406.02
473.85	10729.02
474.03	10792.21
474.21	10899.87
474.39	10895.19
474.57	11063.71
474.75	11049.67
474.93	10993.50
475.12	10995.84
475.30	11040.31
475.48	11176.06
475.66	11222.87
475.84	11068.39
476.02	11152.65
476.20	11389.05
476.38	11707.36
476.56	11728.42
476.74	11899.28
476.92	11648.85
477.10	11744.81
477.28	12028.01
477.46	11864.18
477.64	12081.85
477.82	12498.46
478.00	12348.67
478.18	12334.62
478.36	12521.87
478.54	12795.71
478.72	12758.26
478.90	12849.54
479.08	12830.82
479.26	13355.10
479.44	13092.96
479.62	13200.62
479.80	13350.42
479.98	13195.94
480.16	13561.06
480.34	13631.28
480.52	13998.74
480.70	13495.53
480.88	13422.97
481.06	14022.15
481.24	13752.99
481.41	14090.02
481.59	14071.30
481.77	14139.18
481.95	14281.95
482.13	14623.67
482.31	14483.24
482.49	14787.50
482.67	14731.33
482.85	15239.23
483.03	15253.27
483.21	15005.17
483.39	15049.64
483.57	15321.15
483.74	15410.09
483.92	15492.01
484.10	15281.36
484.28	15866.49
484.46	15901.60
484.64	16355.66
484.82	15915.64
485.00	16072.46
485.18	16126.29
485.35	16439.92
485.53	16013.95
485.71	16044.37
485.89	16470.35
486.07	16369.71
486.25	16671.64
486.43	16594.40
486.61	16765.26
486.78	17315.28
486.96	17109.32
487.14	17507.21
487.32	17722.54
487.50	17692.11
487.68	18059.57
487.85	18228.09
488.03	18230.43
488.21	18497.25
488.39	18270.22
488.57	18740.67
488.75	18967.70
488.92	18752.37
489.10	19136.22
489.28	19379.64
489.46	19431.13
489.64	19377.30
489.81	19864.13
489.99	19932.00
490.17	20034.99
490.35	20079.46
490.53	19882.85
490.70	20250.32
490.88	20257.34
491.06	20662.25
491.24	20428.20
491.41	20688.00
491.59	20482.03
491.77	20805.02
491.95	20816.72
492.13	21109.29
492.30	21092.91
492.48	21647.61
492.66	21809.11
492.84	21855.92
493.01	21926.14
493.19	21991.67
493.37	22204.66
493.54	22312.33
493.72	22572.13
493.90	22309.99
494.08	22733.62
494.25	23014.49
494.43	22883.42
494.61	23271.95
494.79	23253.22
494.96	23225.14
495.14	23164.28
495.32	23438.12
495.49	23407.70
495.67	23484.94
495.85	23990.49
496.02	24121.56
496.20	23908.57
496.38	24318.17
496.55	24245.61
496.73	24795.64
496.91	24402.43
497.09	24847.13
497.26	24823.72
497.44	24723.08
497.62	25085.86
497.79	25364.39
497.97	25090.54
498.14	25027.35
498.32	25642.91
498.50	25223.95
498.67	25862.92
498.85	26043.14
499.03	26354.43
499.20	25844.20
499.38	26129.74
499.56	26352.09
499.73	26134.42
499.91	26316.98
500.08	26569.76
500.26	26221.02
500.44	26579.12
500.61	26455.08
500.79	26352.09
500.97	26658.70
501.14	26749.98
501.32	26909.14
501.49	26710.19
501.67	26862.33
501.84	27229.79
502.02	27103.40
502.20	27400.65
502.37	27601.94
502.55	27365.54
502.72	27630.02
502.90	27789.18
503.07	27782.16
503.25	27894.50
503.43	28114.52
503.60	27929.61
503.78	28210.48
503.95	28023.23
504.13	28105.15
504.30	28247.93
504.48	28294.74
504.65	28549.85
504.83	28671.56
505.01	29198.18
505.18	28678.58
505.36	29387.77
505.53	29237.97
505.71	29579.69
505.88	29436.92
506.06	29413.51
506.23	29486.07
506.41	29165.42
506.58	29481.39
506.76	29694.38
506.93	30008.01
507.11	29652.25
507.28	29675.65
507.46	29942.47
507.63	29677.99
507.81	29888.64
507.98	29928.43
508.16	30073.54
508.33	30129.72
508.50	30712.51
508.68	31171.25
508.85	31204.02
509.03	30679.74
509.20	31068.27
509.38	31292.96
509.55	30726.55
509.73	31311.69
509.90	31124.44
510.08	31356.16
510.25	31260.20
510.42	31536.38
510.60	31587.87
510.77	31571.49
510.95	32044.27
511.12	31477.86
511.30	31948.31
511.47	31796.18
511.64	32020.87
511.82	32355.57
511.99	32168.32
512.17	32233.86
512.34	31929.59
512.51	32222.16
512.69	32648.13
512.86	32514.72
513.04	32762.82
513.21	32760.48
513.38	32423.44
513.56	32692.60
513.73	32739.41
513.90	32514.72
514.08	33039.00
514.25	33041.34
514.43	33113.90
514.60	32886.87
514.77	33404.13
514.95	33228.59
515.12	33371.36
515.29	33118.58
515.47	33811.38
515.64	33846.49
515.81	33364.34
515.99	33638.18
516.16	33312.84
516.33	33551.58
516.51	33376.04
516.68	33357.32
516.85	33331.57
517.03	33598.39
517.20	33769.25
517.37	33944.79
517.54	34136.71
517.72	34190.55
517.89	33350.29
518.06	33202.84
518.24	34403.53
518.41	34188.21
518.58	34043.09
518.75	34218.63
518.93	34480.77
519.10	34574.39
519.27	35021.44
519.45	34937.18
519.62	35215.70
519.79	34986.33
519.96	35056.54
520.14	35309.32
520.31	34904.41
520.48	35192.30
520.65	35103.35
520.83	35421.67
521.00	35585.50
521.17	35676.79
521.34	35498.91
521.52	35945.95
521.69	35913.18
521.86	36385.97
522.03	35908.50
522.20	36236.17
522.38	36322.77
522.55	36580.23
522.72	36458.52
522.89	36154.26
523.07	36896.20
523.24	36418.74
523.41	36718.32
523.58	36715.98
523.75	37378.36
523.92	36914.93
524.10	37273.03
524.27	37244.94
524.44	37062.38
524.61	37406.44
524.78	37275.37
524.96	37319.84
525.13	37464.96
525.30	37804.33
525.47	38024.34
525.64	37280.05
525.81	38033.71
525.98	37535.17
526.16	37034.30
526.33	37148.98
526.50	37764.54
526.67	37235.58
526.84	36938.33
527.01	37254.31
527.18	37612.41
527.36	37888.59
527.53	38185.84
527.70	38174.14
527.87	38345.00
528.04	38066.47
528.21	38099.24
528.38	38014.98
528.55	38731.18
528.72	38749.91
528.89	39311.64
529.07	38490.11
529.24	38532.24
529.41	38335.63
529.58	38457.34
529.75	38555.64
529.92	38787.36
530.09	39166.52
530.26	38941.83
530.43	39356.11
530.60	38892.68
530.77	39171.21
530.94	39182.91
531.11	38883.32
531.28	39136.10
531.46	39241.42
531.63	38888.00
531.80	39679.10
531.97	39133.76
532.14	39159.50
532.31	38925.45
532.48	39253.12
532.65	39358.45
532.82	39346.75
532.99	39618.25
533.16	39615.91
533.33	39866.34
533.50	40093.38
533.67	39950.60
533.84	39660.38
534.01	39845.28
534.18	39782.09
534.35	39934.22
534.52	39969.33
534.69	40100.40
534.86	40219.77
535.03	40582.55
535.20	40870.43
535.37	40605.95
535.54	40662.13
535.71	40456.16
535.88	40477.22
536.05	40673.83
536.22	40795.54
536.38	40526.38
536.55	40612.98
536.72	40629.36
536.89	40287.64
537.06	40629.36
537.23	40720.64
537.40	41097.47
537.57	40814.26
537.74	41022.57
537.91	41516.42
538.08	40835.33
538.25	40942.99
538.42	40713.62
538.59	41338.54
538.75	40938.31
538.92	41155.98
539.09	41493.02
539.26	41448.55
539.43	40713.62
539.60	40807.24
539.77	41076.40
539.94	41207.47
540.11	41216.83
540.28	41635.79
540.44	41411.10
540.61	41146.62
540.78	41289.39
540.95	41177.04
541.12	41160.66
541.29	41776.22
541.46	41443.87
541.62	41675.58
541.79	41785.58
541.96	41579.62
542.13	41773.88
542.30	41886.23
542.47	41949.42
542.63	41652.17
542.80	42267.73
542.97	42431.57
543.14	42295.82
543.31	42604.77
543.48	42253.69
543.64	42892.66
543.81	42878.61
543.98	42330.93
544.15	42859.89
544.32	42726.48
544.48	42682.01
544.65	42618.81
544.82	42562.64
544.99	42665.63
545.16	42653.92
545.32	42586.05
545.49	43515.24
545.66	43295.23
545.83	43168.84
546.00	43019.05
546.16	43278.85
546.33	42574.34
546.50	43159.48
546.67	43126.71
546.83	42899.68
547.00	43084.58
547.17	43030.75
547.34	43042.45
547.50	43044.79
547.67	43299.91
547.84	43189.91
548.00	43746.95
548.17	44182.29
548.34	43526.94
548.51	43620.56
548.67	43412.26
548.84	43716.53
549.01	43381.83
549.18	43882.70
549.34	43669.72
549.51	43899.09
549.68	43634.61
549.84	43388.85
550.01	43756.32
550.18	43629.93
550.34	43936.54
550.51	43936.54
550.68	43948.24
550.84	43203.95
551.01	44107.40
551.18	43955.26
551.34	44315.70
551.51	44123.78
551.68	44261.87
551.84	44580.18
552.01	43927.17
552.18	44219.74
552.34	43641.63
552.51	44034.84
552.68	44376.56
552.84	44615.29
553.01	44418.69
553.18	44128.46
553.34	43966.96
553.51	44093.35
553.67	44437.41
553.84	44533.37
554.01	45184.04
554.17	45001.48
554.34	44425.71
554.51	44245.49
554.67	44388.26
554.84	44563.80
555.00	44526.35
555.17	44095.69
555.33	44760.40
555.50	44500.61
555.67	44839.98
555.83	44772.11
556.00	44479.54
556.16	45605.34
556.33	44552.10
556.50	44626.99
556.66	44645.72
556.83	44205.70
556.99	45212.13
557.16	45170.00
557.32	44641.04
557.49	44797.85
557.65	44949.99
557.82	45200.43
557.98	44804.88
558.15	45043.61
558.32	45500.01
558.48	44395.28
558.65	45043.61
558.81	44964.03
558.98	44425.71
559.14	45001.48
559.31	44856.37
559.47	45134.89
559.64	45492.99
559.80	45467.25
559.97	45317.45
560.13	45162.98
560.30	45118.51
560.46	45092.76
560.63	45436.82
560.79	45628.74
560.96	45230.85
561.12	44968.71
561.29	44987.44
561.45	45591.30
561.61	44898.50
561.78	44732.32
561.94	45247.24
562.11	45209.79
562.27	44952.33
562.44	45031.91
562.60	45530.44
562.77	45652.15
562.93	45287.03
563.10	45375.97
563.26	45202.77
563.42	45588.95
563.59	45240.21
563.75	45439.16
563.92	45579.59
564.08	45942.38
564.24	45708.32
564.41	45638.11
564.57	45696.62
564.74	45357.24
564.90	45577.25
565.07	46162.39
565.23	45619.38
565.39	45748.11
565.56	45471.93
565.72	45565.55
565.88	45226.17
566.05	45308.09
566.21	45270.64
566.38	45556.19
566.54	45762.15
566.70	45581.93
566.87	46209.20
567.03	45815.99
567.19	46115.58
567.36	45647.47
567.52	45617.04
567.68	45607.68
567.85	45507.04
568.01	46127.28
568.17	45490.65
568.34	45766.84
568.50	45701.30
568.66	45642.79
568.83	45909.61
568.99	45448.52
569.15	45818.33
569.32	45694.28
569.48	45738.75
569.64	45858.12
569.81	46146.00
569.97	45815.99
570.13	45855.78
570.30	45624.06
570.46	45563.21
570.62	45373.63
570.78	45645.13
570.95	45432.14
571.11	46106.21
571.27	45806.62
571.43	45804.28
571.60	46087.49
571.76	45996.21
571.92	45895.56
572.09	45918.97
572.25	45720.02
572.41	45956.42
572.57	45900.25
572.74	46040.68
572.90	45673.21
573.06	45865.14
573.22	45813.65
573.38	46052.38
573.55	45794.92
573.71	46136.64
573.87	46122.60
574.03	45455.54
574.20	45783.22
574.36	45717.68
574.52	45925.99
574.68	45755.13
574.84	45923.65
575.01	45837.05
575.17	45827.69
575.33	45654.49
575.49	46073.45
575.65	45823.01
575.82	45904.93
575.98	45935.35
576.14	46073.45
576.30	46017.27
576.46	46040.68
576.62	45785.56
576.79	45902.59
576.95	45514.06
577.11	46075.79
577.27	46117.92
577.43	46014.93
577.59	45818.33
577.75	45911.95
577.92	45867.48
578.08	45404.05
578.24	45701.30
578.40	46040.68
578.56	45745.77
578.72	46401.12
578.88	46080.47
579.04	46508.79
579.21	45680.24
579.37	46010.25
579.53	46059.40
579.69	46220.90
579.85	45778.54
580.01	45918.97
580.17	46213.88
580.33	46038.34
580.49	46497.08
580.65	45818.33
580.82	46061.74
580.98	46110.89
581.14	45642.79
581.30	46319.20
581.46	46064.08
581.62	46153.02
581.78	46080.47
581.94	46571.98
582.10	46036.00
582.26	45841.73
582.42	46401.12
582.58	45918.97
582.74	45928.33
582.90	46272.39
583.06	46483.04
583.22	46047.70
583.38	46270.05
583.54	46059.40
583.70	46557.94
583.86	46422.19
584.02	45893.22
584.18	46059.40
584.34	45624.06
584.50	45942.38
584.66	45944.72
584.82	46066.42
584.98	46188.13
585.14	46358.99
585.30	45860.46
585.46	46148.34
585.62	46347.29
585.78	45799.60
585.94	45883.86
586.10	46138.98
586.26	46143.66
586.42	46281.75
586.58	46366.01
586.74	46330.90
586.90	45895.56
587.06	45963.44
587.22	45769.18
587.38	46103.87
587.54	46181.11
587.70	46244.30
587.86	46007.91
588.02	45928.33
588.18	46138.98
588.34	45921.31
588.49	45432.14
588.65	45752.79
588.81	45993.87
588.97	45872.16
589.13	45558.53
589.29	45947.06
589.45	45846.41
589.61	45628.74
589.77	46075.79
589.93	46057.06
