SpectraSuite Data File
++++++++++++++++++++++++++++++++++++
Date: Fri Oct 25 11:26:18 EDT 2013
User: price-jones
Dark Spectrum Present: No
Reference Spectrum Present: No
Number of Sampled Component Spectra: 1
Spectrometers: USB2+H05261
Integration Time (usec): 100000 (USB2+H05261)
Spectra Averaged: 1 (USB2+H05261)
Boxcar Smoothing: 0 (USB2+H05261)
Correct for Electrical Dark: No (USB2+H05261)
Strobe/Lamp Enabled: No (USB2+H05261)
Correct for Detector Non-linearity: No (USB2+H05261)
Correct for Stray Light: No (USB2+H05261)
Number of Pixels in Processed Spectrum: 2048
>>>>>Begin Processed Spectral Data<<<<<
365.73	227.03
365.92	227.03
366.12	227.03
366.32	215.33
366.52	191.92
366.72	187.24
366.91	126.39
367.11	110.01
367.31	95.96
367.51	177.88
367.70	182.56
367.90	170.86
368.10	112.35
368.30	180.22
368.49	152.13
368.69	168.52
368.89	126.39
369.09	159.16
369.28	191.92
369.48	173.20
369.68	168.52
369.87	205.97
370.07	287.89
370.27	241.08
370.47	381.51
370.66	617.90
370.86	648.33
371.06	643.65
371.25	641.31
371.45	645.99
371.65	716.20
371.84	678.76
372.04	744.29
372.24	699.82
372.44	690.46
372.63	702.16
372.83	690.46
373.03	713.86
373.22	755.99
373.42	828.55
373.62	770.04
373.81	873.02
374.01	788.76
374.21	894.08
374.40	791.10
374.60	741.95
374.79	814.51
374.99	887.06
375.19	777.06
375.38	844.93
375.58	880.04
375.78	844.93
375.97	894.08
376.17	891.74
376.37	844.93
376.56	896.43
376.76	840.25
376.95	842.59
377.15	985.37
377.35	870.68
377.54	882.38
377.74	849.61
377.93	896.43
378.13	959.62
378.33	891.74
378.52	945.58
378.72	933.87
378.91	976.00
379.11	884.72
379.31	959.62
379.50	882.38
379.70	1015.79
379.89	1015.79
380.09	922.17
380.28	987.71
380.48	990.05
380.68	1041.54
380.87	891.74
381.07	1001.75
381.26	1076.65
381.46	1011.11
381.65	1086.01
381.85	966.64
382.04	1004.09
382.24	980.68
382.43	968.98
382.63	1086.01
382.83	1029.84
383.02	1032.18
383.22	1181.97
383.41	1114.10
383.61	1111.75
383.80	1156.22
384.00	1137.50
384.19	1174.95
384.39	1137.50
384.58	1142.18
384.78	1160.91
384.97	1231.12
385.17	1203.04
385.36	1156.22
385.56	1165.59
385.75	1172.61
385.95	1219.42
386.14	1203.04
386.34	1196.01
386.53	1174.95
386.72	1172.61
386.92	1277.93
387.11	1299.00
387.31	1170.27
387.50	1228.78
387.70	1270.91
387.89	1294.32
388.09	1331.76
388.28	1301.34
388.48	1317.72
388.67	1460.49
388.86	1299.00
389.06	1392.62
389.25	1357.51
389.45	1409.00
389.64	1299.00
389.84	1413.68
390.03	1423.05
390.22	1371.55
390.42	1448.79
390.61	1441.77
390.81	1390.28
391.00	1406.66
391.19	1479.22
391.39	1493.26
391.58	1448.79
391.78	1378.58
391.97	1509.65
392.16	1451.13
392.36	1483.90
392.55	1458.15
392.75	1614.97
392.94	1556.46
393.13	1551.78
393.33	1519.01
393.52	1589.22
393.71	1659.44
393.91	1638.38
394.10	1572.84
394.29	1542.41
394.49	1568.16
394.68	1696.89
394.88	1643.06
395.07	1680.50
395.26	1626.67
395.46	1673.48
395.65	1699.23
395.84	1661.78
396.04	1757.74
396.23	1734.34
396.42	1741.36
396.62	1736.68
396.81	1802.21
397.00	1809.23
397.19	1813.92
397.39	1746.04
397.58	1865.41
397.77	1799.87
397.97	1853.70
398.16	1818.60
398.35	1870.09
398.55	1813.92
398.74	1856.04
398.93	1933.28
399.12	1842.00
399.32	1991.80
399.51	1959.03
399.70	2024.56
399.90	1865.41
400.09	1994.14
400.28	2083.08
400.47	1987.11
400.67	2071.37
400.86	1975.41
401.05	2073.71
401.24	2073.71
401.44	2033.93
401.63	2230.53
401.82	2165.00
402.01	2104.14
402.21	2157.97
402.40	2197.76
402.59	2054.99
402.78	2122.87
402.97	2197.76
403.17	2232.87
403.36	2260.96
403.55	2333.51
403.74	2333.51
403.93	2312.45
404.13	2420.11
404.32	2413.09
404.51	2375.64
404.70	2476.29
404.89	2370.96
405.09	2483.31
405.28	2455.22
405.47	2497.35
405.66	2476.29
405.85	2544.16
406.05	2574.59
406.24	2530.12
406.43	2354.58
406.62	2588.63
406.81	2675.23
407.00	2583.95
407.20	2647.15
407.39	2518.42
407.58	2736.09
407.77	2700.98
407.96	2691.62
408.15	2757.15
408.34	2766.51
408.54	2848.43
408.73	2752.47
408.92	2792.26
409.11	2808.64
409.30	2862.48
409.49	2953.76
409.68	2942.05
409.87	2958.44
410.07	2972.48
410.26	2904.60
410.45	2993.55
410.64	2963.12
410.83	3066.10
411.02	3038.02
411.21	3091.85
411.40	3253.34
411.59	3049.72
411.78	3185.47
411.98	3145.68
412.17	3281.43
412.36	3288.45
412.55	3396.12
412.74	3405.48
412.93	3232.28
413.12	3323.56
413.31	3421.86
413.50	3410.16
413.69	3346.97
413.88	3684.00
414.07	3543.57
414.26	3669.96
414.45	3611.45
414.64	3688.68
414.83	3707.41
415.02	3761.24
415.22	3742.52
415.41	3794.01
415.60	3857.20
415.79	3866.56
415.98	4063.17
416.17	3976.57
416.36	4002.32
416.55	4091.26
416.74	4124.02
416.93	3904.01
417.12	4117.00
417.31	4177.86
417.50	4173.18
417.69	4231.69
417.88	4285.52
418.07	4067.85
418.26	4257.43
418.45	4341.69
418.64	4432.97
418.83	4374.46
419.02	4259.78
419.21	4517.23
419.39	4547.66
419.58	4423.61
419.77	4418.93
419.96	4568.73
420.15	4545.32
420.34	4685.75
420.53	4751.29
420.72	4685.75
420.91	4507.87
421.10	4802.78
421.29	4786.40
421.48	4606.17
421.67	4880.02
421.86	4744.27
422.05	4793.42
422.24	4826.18
422.43	4873.00
422.61	4858.95
422.80	4922.15
422.99	5104.71
423.18	4917.47
423.37	4873.00
423.56	4807.46
423.75	4882.36
423.94	4868.31
424.13	4552.34
424.32	4540.64
424.50	4975.98
424.69	5149.18
424.88	5125.77
425.07	4889.38
425.26	4901.08
425.45	4945.55
425.64	4992.36
425.83	5074.28
426.01	5095.35
426.20	5046.20
426.39	5001.72
426.58	4990.02
426.77	4994.70
426.96	4987.68
427.15	5163.22
427.33	5125.77
427.52	5231.10
427.71	5128.11
427.90	5256.84
428.09	5266.21
428.28	5282.59
428.46	5289.61
428.65	5315.36
428.84	5399.62
429.03	5357.49
429.22	5568.13
429.40	5467.49
429.59	5446.43
429.78	5270.89
429.97	5238.12
430.16	5570.48
430.34	5451.11
430.53	5696.86
430.72	5668.78
430.91	5495.58
431.10	5652.39
431.28	5699.20
431.47	5783.46
431.66	5858.36
431.85	5738.99
432.03	5895.81
432.22	5825.59
432.41	5664.10
432.60	6031.56
432.79	5982.41
432.97	5928.58
433.16	6012.84
433.35	5877.09
433.54	5970.71
433.72	6008.16
433.91	6094.76
434.10	6146.25
434.28	6132.20
434.47	6073.69
434.66	6127.52
434.85	6174.33
435.03	6300.72
435.22	6466.90
435.41	6394.34
435.59	6321.79
435.78	6335.83
435.97	6597.97
436.16	6312.42
436.34	6352.21
436.53	6413.07
436.72	6574.56
436.90	6375.62
437.09	6607.33
437.28	6520.73
437.46	6707.98
437.65	6715.00
437.84	6640.10
438.02	6595.63
438.21	6593.29
438.40	6541.80
438.58	6902.24
438.77	6993.52
438.96	7045.01
439.14	7089.48
439.33	7166.72
439.52	7194.81
439.70	7250.98
439.89	7227.57
440.08	7344.60
440.26	7293.11
440.45	7183.10
440.63	7433.54
440.82	7545.89
441.01	7377.37
441.19	7552.91
441.38	7653.55
441.57	7733.13
441.75	7700.36
441.94	8025.70
442.12	7793.98
442.31	7889.95
442.50	8044.42
442.68	7838.45
442.87	8088.89
443.05	8187.19
443.24	8124.00
443.43	8051.44
443.61	8234.00
443.80	8376.78
443.98	8100.59
444.17	7932.08
444.35	8217.62
444.54	8224.64
444.73	8271.45
444.91	8264.43
445.10	8234.00
445.28	8451.67
445.47	8210.60
445.65	8301.88
445.84	8388.48
446.02	8411.89
446.21	8418.91
446.39	8454.02
446.58	8533.59
446.77	8421.25
446.95	8294.86
447.14	8276.13
447.32	8446.99
447.51	8538.27
447.69	8489.12
447.88	8580.40
448.06	8533.59
448.25	8383.80
448.43	8667.00
448.62	8610.83
448.80	8528.91
448.99	8535.93
449.17	8805.10
449.36	8746.58
449.54	8767.65
449.73	8858.93
449.91	9022.77
450.10	8774.67
450.28	8938.51
450.46	8894.04
450.65	9095.32
450.83	9109.36
451.02	8971.27
451.20	9210.01
451.39	9114.05
451.57	8961.91
451.76	9064.89
451.94	9069.58
452.13	9275.54
452.31	9235.75
452.49	9376.19
452.68	9392.57
452.86	9373.85
453.05	9439.38
453.23	9287.25
453.42	9451.08
453.60	9233.41
453.78	9582.15
453.97	9401.93
454.15	9392.57
454.34	9462.79
454.52	9614.92
454.70	9493.21
454.89	9525.98
455.07	9912.17
455.26	9877.06
455.44	9891.10
455.62	9858.34
455.81	9717.90
455.99	9914.51
456.17	10106.43
456.36	9844.29
456.54	10026.86
456.73	10260.91
456.91	10551.14
457.09	10303.04
457.28	10471.56
457.46	10129.84
457.64	10494.96
457.83	10396.66
458.01	10408.36
458.19	10721.99
458.38	10597.95
458.56	10579.22
458.74	10647.10
458.93	10567.52
459.11	10593.26
459.29	10593.26
459.48	10623.69
459.66	10588.58
459.84	11035.63
460.03	10832.00
460.21	11033.29
460.39	10855.40
460.57	10944.34
460.76	11077.76
460.94	11023.92
461.12	11119.89
461.31	10977.11
461.49	10963.07
461.67	11110.52
461.85	11641.82
462.04	11344.58
462.22	11744.81
462.40	11564.59
462.59	11473.31
462.77	11707.36
462.95	11543.52
463.13	11442.88
463.32	11447.56
463.50	11609.06
463.68	11627.78
463.86	11868.86
464.05	11723.74
464.23	11840.77
464.41	11857.15
464.59	11861.84
464.78	12196.53
464.96	11812.68
465.14	11705.02
465.32	11920.35
465.50	12086.53
465.69	11920.35
465.87	12079.50
466.05	12098.23
466.23	12170.79
466.41	12208.23
466.60	12453.99
466.78	12231.64
466.96	12114.61
467.14	12163.76
467.32	12266.75
467.51	12439.95
467.69	12222.28
467.87	12491.44
468.05	12561.66
468.23	12500.80
468.41	12409.52
468.60	12613.15
468.78	12603.78
468.96	12692.73
469.14	12912.74
469.32	13074.23
469.50	12720.81
469.69	12952.52
469.87	12938.48
470.05	13099.98
470.23	13249.77
470.41	13200.62
470.59	12933.80
470.77	12704.43
470.95	13298.92
471.14	13212.32
471.32	13004.02
471.50	13614.90
471.68	13472.12
471.86	13521.27
472.04	13671.07
472.22	14068.96
472.40	13652.34
472.58	13858.31
472.77	13799.80
472.95	13947.25
473.13	14230.46
473.31	14190.67
473.49	14122.79
473.67	14099.39
473.85	14314.72
474.03	14464.51
474.21	14548.77
474.39	14618.99
474.57	14759.42
474.75	14712.61
474.93	14960.70
475.12	15157.31
475.30	14752.40
475.48	15000.49
475.66	15077.73
475.84	14970.07
476.02	15239.23
476.20	15232.21
476.38	15606.69
476.56	15840.75
476.74	15744.78
476.92	16035.01
477.10	15604.35
477.28	15798.62
477.46	16135.65
477.64	16383.75
477.82	16599.08
478.00	16886.97
478.18	16695.04
478.36	16620.14
478.54	17266.13
478.72	17132.72
478.90	17121.02
479.08	17399.54
479.26	17413.59
479.44	17734.24
479.62	18068.94
479.80	17764.67
479.98	18099.36
480.16	18768.76
480.34	18242.14
480.52	18492.57
480.70	18286.61
480.88	18305.33
481.06	18850.67
481.24	18768.76
481.41	19164.31
481.59	18995.79
481.77	19267.29
481.95	19601.99
482.13	19452.19
482.31	19695.61
482.49	20238.61
482.67	19910.94
482.85	20318.19
483.03	20702.04
483.21	20615.44
483.39	20812.04
483.57	20463.30
483.74	20996.95
483.92	21469.73
484.10	20875.24
484.28	21666.34
484.46	22066.57
484.64	22565.10
484.82	22031.46
485.00	21940.18
485.18	22518.29
485.35	23119.81
485.53	22600.21
485.71	22955.97
485.89	23311.74
486.07	23246.20
486.25	23344.50
486.43	23255.56
486.61	23630.05
486.78	24074.75
486.96	23950.70
487.14	24311.14
487.32	24407.11
487.50	24741.80
487.68	24884.58
487.85	25296.51
488.03	25298.85
488.21	25525.88
488.39	25612.48
488.57	25811.43
488.75	26216.34
488.92	26251.45
489.10	26717.22
489.28	26485.50
489.46	27206.39
489.64	27002.76
489.81	27349.16
489.99	27468.53
490.17	27651.09
490.35	27723.65
490.53	28070.04
490.70	28294.74
490.88	28123.88
491.06	28243.24
491.24	28507.72
491.41	29097.54
491.59	29184.14
491.77	29352.66
491.95	29177.12
492.13	29769.27
492.30	29841.83
492.48	29890.98
492.66	29926.09
492.84	29790.34
493.01	30595.48
493.19	30061.84
493.37	30684.42
493.54	31115.08
493.72	30902.09
493.90	31161.89
494.08	31548.08
494.25	31913.20
494.43	31889.80
494.61	32072.36
494.79	32091.09
494.96	32453.87
495.14	32741.75
495.32	33034.32
495.49	32896.23
495.67	33090.49
495.85	33420.51
496.02	33392.42
496.20	33703.71
496.38	34031.39
496.55	34052.45
496.73	34668.02
496.91	34424.60
497.09	34621.20
497.26	34866.96
497.44	35204.00
497.62	34967.60
497.79	35721.26
497.97	35295.28
498.14	36217.45
498.32	36060.63
498.50	35950.63
498.67	36463.21
498.85	36196.38
499.03	36425.76
499.20	36631.72
499.38	36226.81
499.56	37020.25
499.73	37156.00
499.91	37074.09
500.08	37422.83
500.26	37027.28
500.44	37666.24
500.61	37659.22
500.79	37612.41
500.97	37617.09
501.14	38642.24
501.32	38115.62
501.49	38199.88
501.67	38684.37
501.84	38251.38
502.02	38714.80
502.20	38721.82
502.37	39100.99
502.55	39473.13
502.72	39363.13
502.90	39531.65
503.07	39395.90
503.25	39278.87
503.43	39321.00
503.60	40002.10
503.78	39915.50
503.95	40119.12
504.13	40343.81
504.30	40437.44
504.48	40268.92
504.65	40423.39
504.83	40432.75
505.01	40959.38
505.18	40863.41
505.36	41530.47
505.53	40722.98
505.71	41448.55
505.88	41626.43
506.06	41361.95
506.23	41928.36
506.41	41563.23
506.58	42106.24
506.76	41944.74
506.93	42323.91
507.11	42213.90
507.28	42356.67
507.46	42384.76
507.63	42511.15
507.81	43056.50
507.98	42445.62
508.16	42974.58
508.33	42941.81
508.50	43164.16
508.68	43817.17
508.85	43484.81
509.03	43372.47
509.20	43753.97
509.38	44257.19
509.55	44114.42
509.73	44353.15
509.90	44715.93
510.08	44355.49
510.25	44083.99
510.42	44832.96
510.60	44615.29
510.77	44928.92
510.95	45471.93
511.12	45181.70
511.30	44622.31
511.47	45148.93
511.64	45170.00
511.82	45595.98
511.99	45500.01
512.17	46040.68
512.34	46061.74
512.51	46211.54
512.69	45881.52
512.86	45993.87
513.04	46674.96
513.21	46347.29
513.38	46717.09
513.56	46827.10
513.73	46834.12
513.90	46782.63
514.08	46637.51
514.25	46969.87
514.43	47140.73
514.60	47480.11
514.77	47089.24
514.95	47674.37
515.12	47126.69
515.29	47402.87
515.47	47540.96
515.64	48341.42
515.81	47707.14
515.99	47892.04
516.16	48095.67
516.33	48282.91
516.51	48294.61
516.68	48348.45
516.85	48191.63
517.03	48676.12
517.20	48329.72
517.37	48311.00
517.54	48390.58
517.72	48722.93
517.89	49205.08
518.06	49146.57
518.24	48952.30
518.41	48924.22
518.58	48865.70
518.75	49113.80
518.93	49347.86
519.10	49078.69
519.27	49621.70
519.45	49258.91
519.62	49324.45
519.79	49682.55
519.96	49731.70
520.14	50171.72
520.31	49993.84
520.48	50089.80
520.65	50033.63
520.83	50532.17
521.00	50616.43
521.17	50061.72
521.34	50436.20
521.52	50485.36
521.69	50714.73
521.86	50646.85
522.03	50735.79
522.20	51203.90
522.38	51498.81
522.55	51140.71
522.72	50981.55
522.89	51196.88
523.07	51201.56
523.24	51512.85
523.41	51400.50
523.58	51033.04
523.75	51667.33
523.92	51545.62
524.10	51686.05
524.27	51700.09
524.44	51716.48
524.61	52074.58
524.78	51821.80
524.96	51959.89
525.13	51847.55
525.30	52055.85
525.47	52566.09
525.64	52219.69
525.81	52135.43
525.98	52463.11
526.16	52165.86
526.33	52303.95
526.50	52708.86
526.67	52460.77
526.84	52570.77
527.01	52830.57
527.18	52842.27
527.36	52437.36
527.53	52755.68
527.70	53230.80
527.87	53146.54
528.04	53008.45
528.21	53338.47
528.38	53034.20
528.55	53514.01
528.72	53174.63
528.89	53539.75
529.07	53310.38
529.24	53413.37
529.41	53364.21
529.58	53411.02
529.75	53766.79
529.92	53521.03
530.09	53579.54
530.26	53624.01
530.43	53701.25
530.60	53282.30
530.77	53570.18
530.94	53867.43
531.11	53712.95
531.28	54073.40
531.46	54225.53
531.63	54012.54
531.80	54000.84
531.97	54042.97
532.14	54298.09
532.31	53900.20
532.48	54286.39
532.65	54539.16
532.82	54445.54
532.99	54585.97
533.16	54532.14
533.33	54731.09
533.50	54801.30
533.67	54707.68
533.84	54429.16
534.01	54646.83
534.18	54817.69
534.35	55086.85
534.52	54824.71
534.69	55227.28
534.86	55114.94
535.03	54836.41
535.20	55093.87
535.37	55253.03
535.54	55227.28
535.71	54995.57
535.88	55084.51
536.05	55227.28
536.22	55426.23
536.38	55561.98
536.55	55545.59
536.72	55351.33
536.89	55454.31
537.06	55124.30
537.23	55664.96
537.40	55451.97
537.57	55583.04
537.74	55657.94
537.91	55931.78
538.08	55526.87
538.25	55440.27
538.42	55966.89
538.59	56044.13
538.75	55913.06
538.92	55957.53
539.09	55959.87
539.26	55985.61
539.43	56018.38
539.60	56006.68
539.77	56074.55
539.94	56170.52
540.11	56060.51
540.28	56418.61
540.44	56390.53
540.61	56231.37
540.78	56184.56
540.95	56390.53
541.12	56093.28
541.29	56299.25
541.46	56463.08
541.62	56484.15
541.79	56404.57
541.96	56198.60
542.13	56615.22
542.30	56577.77
542.47	56374.14
542.63	56736.93
542.80	56924.17
542.97	57076.30
543.14	57080.98
543.31	57088.01
543.48	57106.73
543.64	57106.73
543.81	57010.77
543.98	56966.30
544.15	57254.18
544.32	57258.87
544.48	57521.01
544.65	57214.40
544.82	57378.23
544.99	57151.20
545.16	57214.40
545.32	57088.01
545.49	57586.54
545.66	57588.88
545.83	57429.72
546.00	57478.88
546.16	57762.08
546.33	57462.49
546.50	57251.84
546.67	57893.15
546.83	57513.98
547.00	57542.07
547.17	57556.11
547.34	57481.22
547.50	57762.08
547.67	57846.34
547.84	58010.18
548.00	58082.73
548.17	58066.35
548.34	57996.13
548.51	58028.90
548.67	58038.26
548.84	57811.23
549.01	57975.07
549.18	58113.16
549.34	57883.79
549.51	58321.47
549.68	58363.60
549.84	57937.62
550.01	58206.78
550.18	58117.84
550.34	58377.64
550.51	58183.38
550.68	58145.93
550.84	58188.06
551.01	58239.55
551.18	58251.25
551.34	58333.17
551.51	58377.64
551.68	58504.03
551.84	58457.22
552.01	58333.17
552.18	58660.85
552.34	58166.99
552.51	58543.82
552.68	58403.39
552.84	58384.66
553.01	58710.00
553.18	58710.00
553.34	59028.31
553.51	58426.79
553.67	58674.89
553.84	58894.90
554.01	58838.73
554.17	58922.99
554.34	59152.36
554.51	58873.84
554.67	58911.28
554.84	58859.79
555.00	59023.63
555.17	58946.39
555.33	59051.72
555.50	59007.25
555.67	58824.68
555.83	58738.08
556.00	58920.65
556.16	59260.02
556.33	59110.23
556.50	59178.10
556.66	59173.42
556.83	58983.84
556.99	59306.83
557.16	59381.73
557.32	59316.20
557.49	59370.03
557.65	59355.99
557.82	59381.73
557.98	59175.76
558.15	59353.65
558.32	59484.72
558.48	59150.02
558.65	59241.30
558.81	59540.89
558.98	59402.80
559.14	59409.82
559.31	59227.26
559.47	59428.54
559.64	59470.67
559.80	59444.93
559.97	59655.57
560.13	59442.59
560.30	59646.21
560.46	59557.27
560.63	59700.04
560.79	59470.67
560.96	59770.26
561.12	59779.62
561.29	59667.28
561.45	59711.75
561.61	59522.16
561.78	59732.81
561.94	59690.68
562.11	59821.75
562.27	59618.13
562.44	59674.30
562.60	59985.59
562.77	59856.86
562.93	59524.50
563.10	59854.52
563.26	59576.00
563.42	59952.82
563.59	60046.44
563.75	59877.93
563.92	59749.20
564.08	59906.01
564.24	60126.02
564.41	59920.05
564.57	59938.78
564.74	59943.46
564.90	60037.08
565.07	59831.11
565.23	59903.67
565.39	60001.97
565.56	60184.54
565.72	59931.76
565.88	59906.01
566.05	60046.44
566.21	60130.70
566.38	59971.55
566.54	60088.57
566.70	60313.26
566.87	60193.90
567.03	60172.83
567.19	60252.41
567.36	60149.43
567.52	60200.92
567.68	60388.16
567.85	60247.73
568.01	60278.16
568.17	60224.32
568.34	60280.50
568.50	60081.55
568.66	59971.55
568.83	60226.66
568.99	60292.20
569.15	60275.82
569.32	60261.77
569.48	60243.05
569.64	60383.48
569.81	60540.30
569.97	60399.86
570.13	60203.26
570.30	60322.63
570.46	60294.54
570.62	60388.16
570.78	60360.08
570.95	60207.94
571.11	60453.70
571.27	60413.91
571.43	60367.10
571.60	60308.58
571.76	60161.13
571.92	60341.35
572.09	60537.96
572.25	60470.08
572.41	60317.95
572.57	60355.39
572.74	60514.55
572.90	60552.00
573.06	60561.36
573.22	60495.83
573.38	60458.38
573.55	60741.58
573.71	60755.63
573.87	60575.40
574.03	60533.28
574.20	60540.30
574.36	60509.87
574.52	60343.69
574.68	60488.80
574.84	60512.21
575.01	60755.63
575.17	60584.77
575.33	60458.38
575.49	60544.98
575.65	60598.81
575.82	60575.40
575.98	60788.39
576.14	60867.97
576.30	60498.17
576.46	60563.70
576.62	60568.38
576.79	60577.75
576.95	60364.76
577.11	60669.03
577.27	60652.64
577.43	60790.73
577.59	60568.38
577.75	60633.92
577.92	60498.17
578.08	60769.67
578.24	60575.40
578.40	60860.95
578.56	60884.36
578.72	60654.98
578.88	60942.87
579.04	60870.31
579.21	60694.77
579.37	60774.35
579.53	60781.37
579.69	60591.79
579.85	60680.73
580.01	60755.63
580.17	60673.71
580.33	60830.52
580.49	60776.69
580.65	60779.03
580.82	60867.97
580.98	60622.22
581.14	60755.63
581.30	60818.82
581.46	60853.93
581.62	60814.14
581.78	60589.45
581.94	60825.84
582.10	60837.54
582.26	60720.52
582.42	60718.18
582.58	60865.63
582.74	60549.66
582.90	60856.27
583.06	60706.47
583.22	60640.94
583.38	60811.80
583.54	60622.22
583.70	60732.22
583.86	60856.27
584.02	60631.58
584.18	60994.36
584.34	60947.55
584.50	60977.98
584.66	60713.50
584.82	60828.18
584.98	60945.21
585.14	60884.36
585.30	60671.37
585.46	61097.34
585.62	60863.29
585.78	60982.66
585.94	60687.75
586.10	60790.73
586.26	61029.47
586.42	60947.55
586.58	60910.10
586.74	60856.27
586.90	60825.84
587.06	60797.76
587.22	61116.07
587.38	60961.59
587.54	60870.31
587.70	60788.39
587.86	60781.37
588.02	60987.34
588.18	61031.81
588.34	60893.72
588.49	61006.06
