SpectraSuite Data File
++++++++++++++++++++++++++++++++++++
Date: Fri Oct 25 10:43:45 EDT 2013
User: price-jones
Dark Spectrum Present: No
Reference Spectrum Present: No
Number of Sampled Component Spectra: 1
Spectrometers: USB2+H05261
Integration Time (usec): 100000 (USB2+H05261)
Spectra Averaged: 1 (USB2+H05261)
Boxcar Smoothing: 0 (USB2+H05261)
Correct for Electrical Dark: No (USB2+H05261)
Strobe/Lamp Enabled: No (USB2+H05261)
Correct for Detector Non-linearity: No (USB2+H05261)
Correct for Stray Light: No (USB2+H05261)
Number of Pixels in Processed Spectrum: 2048
>>>>>Begin Processed Spectral Data<<<<<
365.73	46.81
365.92	46.81
366.12	46.81
366.32	14.04
366.52	0.00
366.72	63.19
366.91	32.77
367.11	44.47
367.31	28.09
367.51	32.77
367.70	44.47
367.90	30.43
368.10	0.00
368.30	39.79
368.49	0.00
368.69	14.04
368.89	4.68
369.09	21.06
369.28	126.39
369.48	77.24
369.68	37.45
369.87	63.19
370.07	112.35
370.27	117.03
370.47	220.01
370.66	348.74
370.86	374.49
371.06	479.81
371.25	409.59
371.45	465.77
371.65	416.62
371.84	496.19
372.04	500.87
372.24	461.09
372.44	524.28
372.63	545.34
372.83	428.32
373.03	568.75
373.22	533.64
373.42	500.87
373.62	484.49
373.81	557.05
374.01	528.96
374.21	599.18
374.40	559.39
374.60	557.05
374.79	550.03
374.99	526.62
375.19	568.75
375.38	528.96
375.58	552.37
375.78	624.92
375.97	631.94
376.17	634.29
376.37	643.65
376.56	524.28
376.76	627.26
376.95	571.09
377.15	669.39
377.35	638.97
377.54	744.29
377.74	641.31
377.93	629.60
378.13	613.22
378.33	657.69
378.52	657.69
378.72	660.03
378.91	648.33
379.11	692.80
379.31	695.14
379.50	650.67
379.70	664.71
379.89	667.05
380.09	690.46
380.28	606.20
380.48	645.99
380.68	674.07
380.87	727.91
381.07	676.41
381.26	767.70
381.46	681.10
381.65	601.52
381.85	692.80
382.04	758.33
382.24	739.61
382.43	734.93
382.63	638.97
382.83	737.27
383.02	732.59
383.22	744.29
383.41	753.65
383.61	685.78
383.80	695.14
384.00	653.01
384.19	866.00
384.39	814.51
384.58	823.87
384.78	767.70
384.97	858.98
385.17	830.89
385.36	807.48
385.56	786.42
385.75	767.70
385.95	809.83
386.14	861.32
386.34	767.70
386.53	837.91
386.72	774.72
386.92	858.98
387.11	901.11
387.31	833.23
387.50	870.68
387.70	805.14
387.89	779.40
388.09	917.49
388.28	866.00
388.48	896.43
388.67	868.34
388.86	924.51
389.06	891.74
389.25	936.21
389.45	931.53
389.64	990.05
389.84	1039.20
390.03	987.71
390.22	992.39
390.42	1095.37
390.61	973.66
390.81	971.32
391.00	1013.45
391.19	1032.18
391.39	997.07
391.58	966.64
391.78	1022.81
391.97	1046.22
392.16	990.05
392.36	1100.05
392.55	1046.22
392.75	1001.75
392.94	854.30
393.13	922.17
393.33	1062.60
393.52	1090.69
393.71	1013.45
393.91	1081.33
394.10	1090.69
394.29	1165.59
394.49	1160.91
394.68	1193.67
394.88	1184.31
395.07	1273.25
395.26	1163.25
395.46	1238.14
395.65	1233.46
395.84	1226.44
396.04	1181.97
396.23	1254.53
396.42	1221.76
396.62	1184.31
396.81	1149.20
397.00	1163.25
397.19	1320.06
397.39	1343.47
397.58	1231.12
397.77	1362.19
397.97	1418.36
398.16	1383.26
398.35	1444.11
398.55	1366.87
398.74	1413.68
398.93	1514.33
399.12	1490.92
399.32	1458.15
399.51	1507.30
399.70	1572.84
399.90	1568.16
400.09	1582.20
400.28	1551.78
400.47	1563.48
400.67	1640.72
400.86	1654.76
401.05	1640.72
401.24	1647.74
401.44	1666.46
401.63	1703.91
401.82	1682.85
402.01	1706.25
402.21	1792.85
402.40	1736.68
402.59	1701.57
402.78	1736.68
402.97	1661.78
403.17	1811.57
403.36	1682.85
403.55	1788.17
403.74	1806.89
403.93	1785.83
404.13	1849.02
404.32	1813.92
404.51	1827.96
404.70	1947.33
404.89	1891.15
405.09	2015.20
405.28	1921.58
405.47	1895.83
405.66	1928.60
405.85	1994.14
406.05	1994.14
406.24	1991.80
406.43	1998.82
406.62	2076.06
406.81	2162.66
407.00	1942.64
407.20	2024.56
407.39	2040.95
407.58	2115.84
407.77	2179.04
407.96	2148.61
408.15	2237.55
408.34	2120.53
408.54	2207.13
408.73	2279.68
408.92	2293.72
409.11	2352.24
409.30	2232.87
409.49	2225.85
409.68	2204.78
409.87	2150.95
410.07	2298.41
410.26	2394.37
410.45	2422.45
410.64	2368.62
410.83	2459.90
411.02	2448.20
411.21	2607.36
411.40	2466.92
411.59	2509.05
411.78	2630.76
411.98	2637.78
412.17	2677.57
412.36	2698.64
412.55	2675.23
412.74	2719.70
412.93	2637.78
413.12	2686.94
413.31	2766.51
413.50	2764.17
413.69	2733.75
413.88	2878.86
414.07	2836.73
414.26	2841.41
414.45	2789.92
414.64	2911.63
414.83	3040.36
415.02	2998.23
415.22	3033.33
415.41	3136.32
415.60	3183.13
415.79	3138.66
415.98	3133.98
416.17	3094.19
416.36	3152.70
416.55	3232.28
416.74	3222.92
416.93	3183.13
417.12	3272.07
417.31	3328.24
417.50	3267.39
417.69	3337.60
417.88	3344.63
418.07	3447.61
418.26	3384.41
418.45	3468.67
418.64	3559.95
418.83	3438.25
419.02	3637.19
419.21	3454.63
419.39	3506.12
419.58	3529.53
419.77	3506.12
419.96	3620.81
420.15	3644.21
420.34	3702.73
420.53	3775.28
420.72	3602.08
420.91	3796.35
421.10	3728.47
421.29	3838.48
421.48	3784.65
421.67	3819.75
421.86	3758.90
422.05	3747.20
422.24	3641.87
422.43	3808.05
422.61	3726.13
422.80	3918.06
422.99	3882.95
423.18	3892.31
423.37	3960.19
423.56	3871.25
423.75	3779.97
423.94	3946.14
424.13	3637.19
424.32	3740.18
424.50	3887.63
424.69	4037.42
424.88	4056.15
425.07	3887.63
425.26	3868.91
425.45	3936.78
425.64	3964.87
425.83	3850.18
426.01	3978.91
426.20	4058.49
426.39	3878.27
426.58	4021.04
426.77	3871.25
426.96	3892.31
427.15	3857.20
427.33	4067.85
427.52	3941.46
427.71	3992.95
427.90	3990.61
428.09	4131.05
428.28	4009.34
428.46	4124.02
428.65	4121.68
428.84	4119.34
429.03	4119.34
429.22	3985.93
429.40	4114.66
429.59	4016.36
429.78	3875.93
429.97	4058.49
430.16	3838.48
430.34	4067.85
430.53	3957.85
430.72	4182.54
430.91	4161.47
431.10	4250.41
431.28	4423.61
431.47	4503.19
431.66	4622.56
431.85	4519.57
432.03	4458.72
432.22	4512.55
432.41	4617.88
432.60	4606.17
432.79	4645.96
432.97	4685.75
433.16	4676.39
433.35	4671.71
433.54	4683.41
433.72	4596.81
433.91	4786.40
434.10	4636.60
434.28	4830.87
434.47	4896.40
434.66	4795.76
434.85	5048.54
435.03	4978.32
435.22	4938.53
435.41	5235.78
435.59	4858.95
435.78	4929.17
435.97	4987.68
436.16	5046.20
436.34	5076.62
436.53	5081.30
436.72	5102.37
436.90	5114.07
437.09	4978.32
437.28	4922.15
437.46	4957.25
437.65	5254.50
437.84	5252.16
438.02	5100.03
438.21	5130.45
438.40	5142.16
438.58	5181.95
438.77	5233.44
438.96	5371.53
439.14	5544.73
439.33	5476.85
439.52	5577.50
439.70	5516.64
439.89	5558.77
440.08	5563.45
440.26	5647.71
440.45	5738.99
440.63	5682.82
440.82	5912.19
441.01	5930.92
441.19	5753.04
441.38	6050.28
441.57	5994.11
441.75	6111.14
441.94	6228.17
442.12	6108.80
442.31	6230.51
442.50	6303.06
442.68	6143.91
442.87	6197.74
443.05	6160.29
443.24	6225.82
443.43	6389.66
443.61	6354.55
443.80	6490.31
443.98	6186.04
444.17	6246.89
444.35	6534.78
444.54	6476.26
444.73	6476.26
444.91	6394.34
445.10	6476.26
445.28	6319.45
445.47	6197.74
445.65	6427.11
445.84	6373.28
446.02	6424.77
446.21	6504.35
446.39	6487.96
446.58	6656.48
446.77	6677.55
446.95	6511.37
447.14	6588.61
447.32	6602.65
447.51	6532.44
447.69	6609.67
447.88	6555.84
448.06	6518.39
448.25	6703.29
448.43	6719.68
448.62	6768.83
448.80	6705.63
448.99	6825.00
449.17	6813.30
449.36	6647.12
449.54	6750.10
449.73	6998.20
449.91	6932.67
450.10	6925.65
450.28	7164.38
450.46	7269.70
450.65	7227.57
450.83	7148.00
451.02	6979.48
451.20	7169.06
451.39	7049.69
451.57	7075.44
451.76	6974.80
451.94	6916.28
452.13	7236.94
452.31	7143.32
452.49	7028.63
452.68	7110.55
452.86	7021.61
453.05	7112.89
453.23	7122.25
453.42	7155.02
453.60	7279.07
453.78	7300.13
453.97	7459.29
454.15	7276.73
454.34	7379.71
454.52	7290.77
454.70	7435.88
454.89	7428.86
455.07	7431.20
455.26	7330.56
455.44	7496.74
455.62	7644.19
455.81	7592.70
455.99	7599.72
456.17	7740.15
456.36	7735.47
456.54	7817.39
456.73	7948.46
456.91	7812.71
457.09	8053.78
457.28	8222.30
457.46	7864.20
457.64	7990.59
457.83	7990.59
458.01	7857.18
458.19	8409.54
458.38	8072.51
458.56	8159.11
458.74	8063.15
458.93	8039.74
459.11	8294.86
459.29	8049.10
459.48	8210.60
459.66	8105.28
459.84	8397.84
460.03	8723.18
460.21	8386.14
460.39	8376.78
460.57	8465.72
460.76	8695.09
460.94	8554.66
461.12	8540.61
461.31	8557.00
461.49	8479.76
461.67	8477.42
461.85	8816.80
462.04	8865.95
462.22	9252.14
462.40	8751.26
462.59	8784.03
462.77	8594.45
462.95	8828.50
463.13	8610.83
463.32	8786.37
463.50	8638.92
463.68	8971.27
463.86	8933.82
464.05	8791.05
464.23	8716.16
464.41	8936.17
464.59	8830.84
464.78	8929.14
464.96	9025.11
465.14	8868.29
465.32	9048.51
465.50	9193.62
465.69	9287.25
465.87	9219.37
466.05	9041.49
466.23	9100.00
466.41	9020.42
466.60	9261.50
466.78	8908.08
466.96	9123.41
467.14	9191.28
467.32	9364.48
467.51	9385.55
467.69	8980.64
467.87	9235.75
468.05	9366.82
468.23	9385.55
468.41	9462.79
468.60	9481.51
468.78	9558.75
468.96	9533.00
469.14	9715.56
469.32	9626.62
469.50	9350.44
469.69	9727.27
469.87	9774.08
470.05	9713.22
470.23	9689.82
470.41	9734.29
470.59	9839.61
470.77	9731.95
470.95	9877.06
471.14	9891.10
471.32	9813.87
471.50	10129.84
471.68	10043.24
471.86	10232.82
472.04	10162.61
472.22	10516.03
472.40	10235.16
472.58	10448.15
472.77	10279.63
472.95	10300.70
473.13	10888.17
473.31	10403.68
473.49	10455.17
473.67	10441.13
473.85	10747.74
474.03	10930.30
474.21	10693.91
474.39	10808.59
474.57	10827.32
474.75	11042.65
474.93	10902.22
475.12	11000.52
475.30	11185.42
475.48	11197.12
475.66	11225.21
475.84	11105.84
476.02	11283.72
476.20	11260.32
476.38	11396.07
476.56	11817.36
476.74	11651.19
476.92	11513.10
477.10	11641.82
477.28	11941.41
477.46	11967.16
477.64	12004.61
477.82	12194.19
478.00	12439.95
478.18	12266.75
478.36	12451.65
478.54	12547.61
478.72	12767.62
478.90	12704.43
479.08	12980.61
479.26	13144.45
479.44	13111.68
479.62	13219.35
479.80	13357.44
479.98	13121.04
480.16	13556.38
480.34	13355.10
480.52	13591.49
480.70	13327.01
480.88	13331.69
481.06	13472.12
481.24	13806.82
481.41	14204.71
481.59	14218.75
481.77	14389.61
481.95	14310.04
482.13	14459.83
482.31	14497.28
482.49	14745.38
482.67	14675.16
482.85	14799.21
483.03	14752.40
483.21	15044.96
483.39	15063.69
483.57	15094.11
483.74	15344.55
483.92	15410.09
484.10	15321.15
484.28	15616.05
484.46	15932.03
484.64	16070.12
484.82	15632.44
485.00	16084.16
485.18	16257.36
485.35	16133.31
485.53	16013.95
485.71	16002.24
485.89	16322.90
486.07	16175.44
486.25	16322.90
486.43	16767.60
486.61	16851.86
486.78	17146.76
486.96	17507.21
487.14	17188.89
487.32	17556.36
487.50	17549.34
487.68	18106.38
487.85	18120.43
488.03	18225.75
488.21	18263.20
488.39	18267.88
488.57	18551.09
488.75	18511.30
488.92	18925.57
489.10	19309.42
489.28	19035.58
489.46	19386.66
489.64	19253.25
489.81	19812.63
489.99	20191.80
490.17	20152.01
490.35	20154.35
490.53	19946.05
490.70	20552.24
490.88	20079.46
491.06	20695.02
491.24	20376.70
491.41	20669.27
491.59	20308.83
491.77	20255.00
491.95	20783.96
492.13	21039.08
492.30	21284.83
492.48	21064.82
492.66	21532.93
492.84	21729.53
493.01	21696.77
493.19	21619.53
493.37	22361.48
493.54	22258.49
493.72	22452.76
493.90	22518.29
494.08	22431.69
494.25	23028.53
494.43	22693.83
494.61	23033.21
494.79	23480.25
494.96	23108.11
495.14	23213.43
495.32	23501.32
495.49	23784.52
495.67	23363.23
495.85	23899.21
496.02	24060.71
496.20	24011.56
496.38	24238.59
496.55	24676.27
496.73	24671.59
496.91	24517.11
497.09	24601.37
497.26	24781.59
497.44	24603.71
497.62	24964.15
497.79	24903.30
497.97	25177.14
498.14	25266.08
498.32	25535.24
498.50	25563.33
498.67	25682.70
498.85	25851.22
499.03	26342.73
499.20	25914.41
499.38	25855.90
499.56	26218.68
499.73	26036.12
499.91	26408.26
500.08	26679.77
500.26	25724.83
500.44	26342.73
500.61	26380.18
500.79	26185.91
500.97	26529.97
501.14	26794.45
501.32	26977.01
501.49	26721.90
501.67	26857.65
501.84	26960.63
502.02	26955.95
502.20	27651.09
502.37	27639.39
502.55	27168.94
502.72	27782.16
502.90	27503.64
503.07	27571.51
503.25	27480.23
503.43	27316.39
503.60	28093.45
503.78	27861.74
503.95	27632.36
504.13	28079.41
504.30	28402.40
504.48	28765.18
504.65	28360.27
504.83	28584.96
505.01	28694.97
505.18	28788.59
505.36	28907.96
505.53	29383.09
505.71	29130.31
505.88	29266.06
506.06	28938.38
506.23	29319.89
506.41	29259.04
506.58	29277.76
506.76	29579.69
506.93	29893.32
507.11	29563.31
507.28	29350.32
507.46	29830.13
507.63	29706.08
507.81	30223.34
507.98	30050.14
508.16	29958.86
508.33	30174.19
508.50	30862.30
508.68	30326.32
508.85	30691.44
509.03	30106.31
509.20	30689.10
509.38	30953.58
509.55	31005.08
509.73	31105.72
509.90	31395.95
510.08	31253.17
510.25	31241.47
510.42	31269.56
510.60	31681.49
510.77	31920.23
510.95	32018.53
511.12	31653.40
511.30	31777.45
511.47	31908.52
511.64	32116.83
511.82	32226.84
511.99	31835.97
512.17	32044.27
512.34	31889.80
512.51	32187.05
512.69	32617.71
512.86	32388.33
513.04	32685.58
513.21	32507.70
513.38	32304.07
513.56	32720.69
513.73	32353.23
513.90	32727.71
514.08	32573.24
514.25	32809.63
514.43	32940.70
514.60	33223.90
514.77	32994.53
514.95	33200.50
515.12	33352.63
515.29	33523.49
515.47	33408.81
515.64	33591.37
515.81	33860.53
515.99	33743.50
516.16	33841.81
516.33	33024.96
516.51	33230.93
516.68	33525.83
516.85	32919.63
517.03	33062.41
517.20	33933.09
517.37	33930.75
517.54	34307.57
517.72	34050.11
517.89	33799.68
518.06	33773.93
518.24	33731.80
518.41	34125.01
518.58	34227.99
518.75	34052.45
518.93	34644.61
519.10	34859.94
519.27	34787.38
519.45	34469.07
519.62	34719.51
519.79	35009.73
519.96	35082.29
520.14	35234.42
520.31	34768.66
520.48	35557.42
520.65	35250.81
520.83	35594.87
521.00	35857.01
521.17	35775.09
521.34	35353.79
521.52	35681.47
521.69	35634.66
521.86	36144.89
522.03	36095.74
522.20	35924.88
522.38	36030.21
522.55	36282.98
522.72	36009.14
522.89	35653.38
523.07	36250.22
523.24	36463.21
523.41	36643.43
523.58	36397.67
523.75	37083.45
523.92	37296.44
524.10	36905.57
524.27	36935.99
524.44	36891.52
524.61	36957.06
524.78	37186.43
524.96	36816.63
525.13	37244.94
525.30	37617.09
525.47	37645.18
525.64	37455.59
525.81	37549.21
525.98	37167.71
526.16	37095.15
526.33	37387.72
526.50	36914.93
526.67	37067.06
526.84	36907.91
527.01	37408.78
527.18	37607.73
527.36	38120.31
527.53	37675.60
527.70	38356.70
527.87	37916.68
528.04	37645.18
528.21	38197.54
528.38	37773.91
528.55	38384.79
528.72	38333.29
528.89	38909.07
529.07	38644.59
529.24	38323.93
529.41	38487.77
529.58	38281.80
529.75	38658.63
529.92	38391.81
530.09	39115.03
530.26	38946.51
530.43	39075.24
530.60	39131.42
530.77	39019.07
530.94	39016.73
531.11	38878.64
531.28	39131.42
531.46	39667.40
531.63	39447.39
531.80	38967.58
531.97	38993.32
532.14	39171.21
532.31	39393.56
532.48	39157.16
532.65	39349.09
532.82	39564.42
532.99	39166.52
533.16	39199.29
533.33	39395.90
533.50	39875.71
533.67	39445.05
533.84	39541.01
534.01	40041.88
534.18	39648.68
534.35	40126.14
534.52	40030.18
534.69	40095.72
534.86	40392.97
535.03	39737.62
535.20	40371.90
535.37	40687.87
535.54	40650.42
535.71	40135.51
535.88	40306.37
536.05	40259.55
536.22	40322.75
536.38	40423.39
536.55	40311.05
536.72	40460.84
536.89	40449.14
537.06	40594.25
537.23	40692.55
537.40	40495.95
537.57	40580.21
537.74	41078.74
537.91	41118.53
538.08	41109.17
538.25	40886.82
538.42	40940.65
538.59	40945.33
538.75	40835.33
538.92	41273.01
539.09	41188.75
539.26	40760.43
539.43	41048.32
539.60	41273.01
539.77	41263.64
539.94	41392.37
540.11	41099.81
540.28	41209.81
540.44	41053.00
540.61	41165.34
540.78	41270.67
540.95	41244.92
541.12	41265.99
541.29	41528.13
541.46	41879.21
541.62	41481.31
541.79	42043.04
541.96	41340.88
542.13	41345.56
542.30	41851.12
542.47	42117.94
542.63	41787.92
542.80	41734.09
542.97	42005.59
543.14	42368.38
543.31	41991.55
543.48	42148.37
543.64	42607.11
543.81	42536.90
543.98	42476.04
544.15	42319.23
544.32	42574.34
544.48	43145.44
544.65	42424.55
544.82	42368.38
544.99	42508.81
545.16	42319.23
545.32	42256.03
545.49	43084.58
545.66	42829.46
545.83	43386.51
546.00	42784.99
546.16	42518.17
546.33	42630.52
546.50	42286.46
546.67	42904.36
546.83	42773.29
547.00	42892.66
547.17	43002.66
547.34	42660.94
547.50	43084.58
547.67	43227.35
547.84	43236.72
548.00	43690.78
548.17	44083.99
548.34	43358.42
548.51	43576.09
548.67	43580.78
548.84	43175.86
549.01	43217.99
549.18	43447.36
549.34	43316.29
549.51	43763.34
549.68	43487.15
549.84	43901.43
550.01	43871.00
550.18	43920.15
550.34	44055.90
550.51	43508.22
550.68	43592.48
550.84	42717.12
551.01	43681.42
551.18	44037.18
551.34	43758.66
551.51	43934.20
551.68	44704.23
551.84	43985.69
552.01	44194.00
552.18	43838.23
552.34	43828.87
552.51	43899.09
552.68	44018.46
552.84	44245.49
553.01	44282.94
553.18	44261.87
553.34	44215.06
553.51	44215.06
553.67	44121.44
553.84	44854.03
554.01	44353.15
554.17	44615.29
554.34	44591.89
554.51	44772.11
554.67	44626.99
554.84	44596.57
555.00	44388.26
555.17	43995.05
555.33	44856.37
555.50	44594.23
555.67	44292.30
555.83	44622.31
556.00	44568.48
556.16	44814.24
556.33	44631.68
556.50	44966.37
556.66	44793.17
556.83	44147.18
556.99	44814.24
557.16	45022.54
557.32	44966.37
557.49	44767.43
557.65	44638.70
557.82	44790.83
557.98	44910.20
558.15	44968.71
558.32	45106.80
558.48	44329.75
558.65	44835.30
558.81	44519.33
558.98	44949.99
559.14	44767.43
559.31	44680.83
559.47	44729.98
559.64	45092.76
559.80	44844.66
559.97	44900.84
560.13	44753.38
560.30	44168.25
560.46	44697.21
560.63	45305.75
560.79	45375.97
560.96	45453.20
561.12	44842.32
561.29	45125.53
561.45	44856.37
561.61	45263.62
561.78	44781.47
561.94	45020.20
562.11	45031.91
562.27	44961.69
562.44	45312.77
562.60	45123.19
562.77	44910.20
562.93	45249.58
563.10	45645.13
563.26	45340.86
563.42	45368.94
563.59	45427.46
563.75	45350.22
563.92	45567.89
564.08	45184.04
564.24	45528.10
564.41	45446.18
564.57	45404.05
564.74	45490.65
564.90	45478.95
565.07	45401.71
565.23	45109.14
565.39	45008.50
565.56	45581.93
565.72	45116.17
565.88	45120.85
566.05	44942.97
566.21	45001.48
566.38	45467.25
566.54	45242.56
566.70	45668.53
566.87	45588.95
567.03	45584.27
567.19	46120.26
567.36	45649.81
567.52	45703.64
567.68	45813.65
567.85	45404.05
568.01	45361.92
568.17	45429.80
568.34	45713.00
568.50	45415.76
568.66	45820.67
568.83	45745.77
568.99	45359.58
569.15	45549.17
569.32	45642.79
569.48	45296.39
569.64	45476.61
569.81	45626.40
569.97	45593.64
570.13	45586.61
570.30	45059.99
570.46	45490.65
570.62	45347.88
570.78	44961.69
570.95	45064.67
571.11	45794.92
571.27	45057.65
571.43	45329.16
571.60	45654.49
571.76	45813.65
571.92	45827.69
572.09	45579.59
572.25	45343.20
572.41	45874.50
572.57	45567.89
572.74	46075.79
572.90	45902.59
573.06	45956.42
573.22	45982.16
573.38	45617.04
573.55	45621.72
573.71	46195.15
573.87	46080.47
574.03	45844.07
574.20	45823.01
574.36	45762.15
574.52	45841.73
574.68	45799.60
574.84	45834.71
575.01	45689.60
575.17	45528.10
575.33	45668.53
575.49	45392.35
575.65	45902.59
575.82	45778.54
575.98	45881.52
576.14	45989.19
576.30	45830.03
576.46	45970.46
576.62	45509.38
576.79	45808.96
576.95	45558.53
577.11	45844.07
577.27	45698.96
577.43	45886.20
577.59	45581.93
577.75	45621.72
577.92	45523.42
578.08	45317.45
578.24	45603.00
578.40	45684.92
578.56	46157.70
578.72	45942.38
578.88	46190.47
579.04	45996.21
579.21	45904.93
579.37	45991.53
579.53	46026.63
579.69	45361.92
579.85	45743.43
580.01	46103.87
580.17	45844.07
580.33	46185.79
580.49	46146.00
580.65	45984.51
580.82	45502.35
580.98	45755.13
581.14	45698.96
581.30	46291.12
581.46	45837.05
581.62	46117.92
581.78	46117.92
581.94	46607.09
582.10	45549.17
582.26	46188.13
582.42	46157.70
582.58	46284.09
582.74	46047.70
582.90	46443.25
583.06	46127.28
583.22	45808.96
583.38	46422.19
583.54	46199.83
583.70	46267.71
583.86	46003.23
584.02	45956.42
584.18	45890.88
584.34	45558.53
584.50	45984.51
584.66	45769.18
584.82	45612.36
584.98	46148.34
585.14	45911.95
585.30	46045.36
585.46	45797.26
585.62	45827.69
585.78	46291.12
585.94	45787.90
586.10	45743.43
586.26	45769.18
586.42	45860.46
586.58	46571.98
586.74	45621.72
586.90	45853.44
587.06	46007.91
587.22	46117.92
587.38	45738.75
587.54	45914.29
587.70	46010.25
587.86	46419.84
588.02	45741.09
588.18	46225.58
588.34	45649.81
588.49	45610.02
588.65	45277.66
588.81	45586.61
588.97	45698.96
589.13	45464.91
589.29	45382.99
589.45	45825.35
589.61	46021.95
589.77	45862.80
589.93	46038.34
590.08	45734.07
