SpectraSuite Data File
++++++++++++++++++++++++++++++++++++
Date: Fri Oct 25 11:23:30 EDT 2013
User: price-jones
Dark Spectrum Present: No
Reference Spectrum Present: No
Number of Sampled Component Spectra: 1
Spectrometers: USB2+H05261
Integration Time (usec): 100000 (USB2+H05261)
Spectra Averaged: 1 (USB2+H05261)
Boxcar Smoothing: 0 (USB2+H05261)
Correct for Electrical Dark: No (USB2+H05261)
Strobe/Lamp Enabled: No (USB2+H05261)
Correct for Detector Non-linearity: No (USB2+H05261)
Correct for Stray Light: No (USB2+H05261)
Number of Pixels in Processed Spectrum: 2048
>>>>>Begin Processed Spectral Data<<<<<
365.73	205.97
365.92	205.97
366.12	205.97
366.32	166.18
366.52	110.01
366.72	196.60
366.91	131.07
367.11	173.20
367.31	114.69
367.51	149.79
367.70	131.07
367.90	229.37
368.10	105.32
368.30	102.98
368.49	98.30
368.69	98.30
368.89	159.16
369.09	93.62
369.28	168.52
369.48	128.73
369.68	212.99
369.87	156.82
370.07	145.11
370.27	250.44
370.47	334.70
370.66	608.54
370.86	596.84
371.06	718.54
371.25	767.70
371.45	751.31
371.65	664.71
371.84	732.59
372.04	573.43
372.24	664.71
372.44	681.10
372.63	784.08
372.83	653.01
373.03	699.82
373.22	784.08
373.42	760.67
373.62	727.91
373.81	709.18
374.01	833.23
374.21	835.57
374.40	807.48
374.60	866.00
374.79	870.68
374.99	849.61
375.19	800.46
375.38	807.48
375.58	826.21
375.78	922.17
375.97	816.85
376.17	887.06
376.37	826.21
376.56	882.38
376.76	896.43
376.95	880.04
377.15	894.08
377.35	903.45
377.54	891.74
377.74	936.21
377.93	840.25
378.13	903.45
378.33	866.00
378.52	868.34
378.72	947.92
378.91	945.58
379.11	980.68
379.31	894.08
379.50	833.23
379.70	943.24
379.89	1039.20
380.09	936.21
380.28	990.05
380.48	938.55
380.68	992.39
380.87	1039.20
381.07	1004.09
381.26	1095.37
381.46	1057.92
381.65	987.71
381.85	1071.97
382.04	1069.62
382.24	1006.43
382.43	1020.47
382.63	1036.86
382.83	1029.84
383.02	1088.35
383.22	1055.58
383.41	1144.52
383.61	1123.46
383.80	1078.99
384.00	1160.91
384.19	1174.95
384.39	1165.59
384.58	1102.39
384.78	1170.27
384.97	1170.27
385.17	1203.04
385.36	1221.76
385.56	1207.72
385.75	1135.16
385.95	1146.86
386.14	1226.44
386.34	1233.46
386.53	1188.99
386.72	1212.40
386.92	1196.01
387.11	1231.12
387.31	1294.32
387.50	1327.08
387.70	1217.08
387.89	1296.66
388.09	1294.32
388.28	1277.93
388.48	1259.21
388.67	1376.24
388.86	1291.98
389.06	1174.95
389.25	1313.04
389.45	1359.85
389.64	1366.87
389.84	1394.96
390.03	1362.19
390.22	1392.62
390.42	1472.20
390.61	1427.73
390.81	1373.89
391.00	1500.28
391.19	1392.62
391.39	1324.74
391.58	1556.46
391.78	1453.47
391.97	1481.56
392.16	1416.02
392.36	1479.22
392.55	1547.09
392.75	1542.41
392.94	1497.94
393.13	1610.29
393.33	1561.14
393.52	1591.56
393.71	1591.56
393.91	1629.01
394.10	1612.63
394.29	1544.75
394.49	1570.50
394.68	1659.44
394.88	1643.06
395.07	1633.69
395.26	1600.93
395.46	1692.21
395.65	1748.38
395.84	1647.74
396.04	1762.42
396.23	1767.10
396.42	1811.57
396.62	1694.55
396.81	1743.70
397.00	1858.39
397.19	1753.06
397.39	1825.62
397.58	1851.36
397.77	1790.51
397.97	1881.79
398.16	1846.68
398.35	1966.05
398.55	1863.07
398.74	1870.09
398.93	1937.96
399.12	1884.13
399.32	1872.43
399.51	1813.92
399.70	1975.41
399.90	1912.22
400.09	2094.78
400.28	2122.87
400.47	2104.14
400.67	2083.08
400.86	2031.58
401.05	2094.78
401.24	2167.34
401.44	2122.87
401.63	2167.34
401.82	2115.84
402.01	2118.18
402.21	2256.28
402.40	2246.91
402.59	2118.18
402.78	2230.53
402.97	2260.96
403.17	2303.09
403.36	2277.34
403.55	2293.72
403.74	2293.72
403.93	2385.01
404.13	2359.26
404.32	2422.45
404.51	2436.50
404.70	2511.39
404.89	2445.86
405.09	2445.86
405.28	2553.52
405.47	2483.31
405.66	2565.23
405.85	2511.39
406.05	2590.97
406.24	2490.33
406.43	2490.33
406.62	2616.72
406.81	2722.04
407.00	2614.38
407.20	2595.65
407.39	2621.40
407.58	2717.36
407.77	2689.28
407.96	2780.56
408.15	2897.58
408.34	2609.70
408.54	2752.47
408.73	2867.16
408.92	2860.13
409.11	3016.95
409.30	2829.71
409.49	2794.60
409.68	2977.16
409.87	2974.82
410.07	3007.59
410.26	2974.82
410.45	3012.27
410.64	2984.18
410.83	3084.83
411.02	3038.02
411.21	3126.96
411.40	3131.64
411.59	3307.18
411.78	3159.72
411.98	3169.09
412.17	3169.09
412.36	3307.18
412.55	3351.65
412.74	3363.35
412.93	3419.52
413.12	3389.10
413.31	3658.26
413.50	3454.63
413.69	3489.74
413.88	3672.30
414.07	3648.90
414.26	3627.83
414.45	3602.08
414.64	3684.00
414.83	3786.99
415.02	3756.56
415.22	3840.82
415.41	3894.65
415.60	3772.94
415.79	3882.95
415.98	3985.93
416.17	3974.23
416.36	3861.88
416.55	4018.70
416.74	4088.92
416.93	4044.45
417.12	4018.70
417.31	4159.13
417.50	4374.46
417.69	4238.71
417.88	4346.37
418.07	4278.50
418.26	4294.88
418.45	4313.61
418.64	4493.83
418.83	4362.76
419.02	4564.04
419.21	4505.53
419.39	4547.66
419.58	4491.49
419.77	4365.10
419.96	4444.68
420.15	4678.73
420.34	4620.22
420.53	4678.73
420.72	4854.27
420.91	4753.63
421.10	4837.89
421.29	4870.65
421.48	4674.05
421.67	4741.93
421.86	4842.57
422.05	4865.97
422.24	4692.77
422.43	4938.53
422.61	4910.44
422.80	4809.80
422.99	4933.85
423.18	4887.04
423.37	5013.43
423.56	4980.66
423.75	4952.57
423.94	4784.06
424.13	4732.56
424.32	4755.97
424.50	4940.87
424.69	5004.07
424.88	5118.75
425.07	5025.13
425.26	4997.04
425.45	5006.41
425.64	4887.04
425.83	4873.00
426.01	5135.14
426.20	4961.94
426.39	5004.07
426.58	5100.03
426.77	5053.22
426.96	5245.14
427.15	5004.07
427.33	5074.28
427.52	5151.52
427.71	5184.29
427.90	5270.89
428.09	5249.82
428.28	5514.30
428.46	5579.84
428.65	5397.28
428.84	5591.54
429.03	5652.39
429.22	5432.38
429.40	5645.37
429.59	5350.46
429.78	5392.59
429.97	5165.56
430.16	5411.32
430.34	5659.42
430.53	5734.31
430.72	5837.30
430.91	5650.05
431.10	5617.29
431.28	5708.57
431.47	5811.55
431.66	5961.34
431.85	5689.84
432.03	5891.13
432.22	6080.71
432.41	5898.15
432.60	5902.83
432.79	5816.23
432.97	5970.71
433.16	6106.46
433.35	6076.03
433.54	6164.97
433.72	6066.67
433.91	6148.59
434.10	6167.31
434.28	6087.73
434.47	6347.53
434.66	6375.62
434.85	6221.14
435.03	6370.94
435.22	6345.19
435.41	6473.92
435.59	6359.24
435.78	6548.82
435.97	6359.24
436.16	6455.20
436.34	6356.90
436.53	6621.38
436.72	6707.98
436.90	6338.17
437.09	6452.86
437.28	6445.84
437.46	6719.68
437.65	6761.81
437.84	6827.34
438.02	6719.68
438.21	6963.09
438.40	6497.33
438.58	7218.21
438.77	7096.50
438.96	7070.76
439.14	7183.10
439.33	7246.30
439.52	7283.75
439.70	7101.19
439.89	7218.21
440.08	7475.67
440.26	7377.37
440.45	7463.97
440.63	7620.78
440.82	7735.47
441.01	7588.02
441.19	7819.73
441.38	7730.79
441.57	7698.02
441.75	7857.18
441.94	7885.26
442.12	7985.91
442.31	7992.93
442.50	8013.99
442.68	8222.30
442.87	8163.79
443.05	8149.75
443.24	8318.26
443.43	8187.19
443.61	8489.12
443.80	8559.34
443.98	8011.65
444.17	7922.71
444.35	8074.85
444.54	8341.67
444.73	8250.39
444.91	8439.97
445.10	8435.29
445.28	8360.39
445.47	8231.66
445.65	8383.80
445.84	8500.83
446.02	8461.04
446.21	8442.31
446.39	8407.20
446.58	8681.05
446.77	8491.46
446.95	8442.31
447.14	8566.36
447.32	8631.90
447.51	8477.42
447.69	8554.66
447.88	8496.14
448.06	8498.49
448.25	8329.97
448.43	8559.34
448.62	8648.28
448.80	8475.08
448.99	8800.41
449.17	8816.80
449.36	8470.40
449.54	8734.88
449.73	9011.06
449.91	9165.54
450.10	8926.80
450.28	9057.87
450.46	9123.41
450.65	8950.21
450.83	9135.11
451.02	9050.85
451.20	9212.35
451.39	8954.89
451.57	9205.33
451.76	9249.80
451.94	9186.60
452.13	9502.58
452.31	9301.29
452.49	9177.24
452.68	9268.52
452.86	9268.52
453.05	9427.68
453.23	9607.90
453.42	9329.38
453.60	9329.38
453.78	9444.06
453.97	9509.60
454.15	9540.02
454.34	9640.67
454.52	9563.43
454.70	9844.29
454.89	9673.43
455.07	9825.57
455.26	9919.19
455.44	9968.34
455.62	9958.98
455.81	9930.89
455.99	9926.21
456.17	10235.16
456.36	10221.12
456.54	10221.12
456.73	10356.87
456.91	10424.75
457.09	10616.67
457.28	10473.90
457.46	10307.72
457.64	10579.22
457.83	10609.65
458.01	10384.96
458.19	10670.50
458.38	10480.92
458.56	10736.04
458.74	10839.02
458.93	10850.72
459.11	10670.50
459.29	10789.87
459.48	10920.94
459.66	10724.33
459.84	10946.69
460.03	11026.26
460.21	11000.52
460.39	11129.25
460.57	10960.73
460.76	11351.60
460.94	11293.08
461.12	11272.02
461.31	11564.59
461.49	11131.59
461.67	11098.82
461.85	11473.31
462.04	11197.12
462.22	11859.49
462.40	11468.62
462.59	11590.33
462.77	11386.71
462.95	11625.44
463.13	11447.56
463.32	11639.48
463.50	11742.47
463.68	11857.15
463.86	11843.11
464.05	11829.07
464.23	11777.58
464.41	11929.71
464.59	11761.19
464.78	12154.40
464.96	12341.64
465.14	11843.11
465.32	12039.72
465.50	12184.83
465.69	12182.49
465.87	12177.81
466.05	12315.90
466.23	12046.74
466.41	12374.41
466.60	12564.00
466.78	12170.79
466.96	12208.23
467.14	12163.76
467.32	12400.16
467.51	12559.31
467.69	12208.23
467.87	12645.91
468.05	12671.66
468.23	12177.81
468.41	12358.03
468.60	12690.38
468.78	12699.75
468.96	12819.11
469.14	12968.91
469.32	13142.11
469.50	12631.87
469.69	13064.87
469.87	13156.15
470.05	13067.21
470.23	13219.35
470.41	13352.76
470.59	13055.51
470.77	13022.74
470.95	13128.06
471.14	13577.45
471.32	13039.12
471.50	13558.72
471.68	13493.19
471.86	13870.01
472.04	13881.72
472.22	14003.43
472.40	13591.49
472.58	13640.64
472.77	13970.66
472.95	14253.86
473.13	14497.28
473.31	14214.07
473.49	14228.12
473.67	14244.50
473.85	14342.80
474.03	14565.15
474.21	14581.54
474.39	14586.22
474.57	14492.60
474.75	14817.93
474.93	15070.71
475.12	14909.21
475.30	15164.33
475.48	15096.46
475.66	15143.27
475.84	15103.48
476.02	15344.55
476.20	15243.91
476.38	15955.43
476.56	16112.25
476.74	15964.79
476.92	16079.48
477.10	15807.98
477.28	16285.45
477.46	16407.16
477.64	16423.54
477.82	16622.48
478.00	16774.62
478.18	16912.71
478.36	16734.83
478.54	17231.02
478.72	17195.92
478.90	17212.30
479.08	17612.53
479.26	17600.83
479.44	17834.88
479.62	18085.32
479.80	18223.41
479.98	18487.89
480.16	18630.66
480.34	18155.54
480.52	18726.63
480.70	18560.45
480.88	18534.70
481.06	18750.03
481.24	19075.37
481.41	19414.74
481.59	19377.30
481.77	19585.60
481.95	19742.42
482.13	19700.29
482.31	19690.93
482.49	20212.87
482.67	20173.08
482.85	20669.27
483.03	20350.96
483.21	20943.11
483.39	21181.85
483.57	21015.67
483.74	21336.32
483.92	21504.84
484.10	21104.61
484.28	21685.06
484.46	22270.20
484.64	22211.68
484.82	22265.52
485.00	22417.65
485.18	22728.94
485.35	23080.02
485.53	22593.19
485.71	23129.17
485.89	23332.80
486.07	23433.44
486.25	23653.45
486.43	23728.35
486.61	23747.08
486.78	24161.35
486.96	24245.61
487.14	24830.74
487.32	24711.38
487.50	25055.43
487.68	24793.29
487.85	25076.50
488.03	25415.88
488.21	25879.30
488.39	26181.23
488.57	26387.20
488.75	26272.51
488.92	26632.96
489.10	26859.99
489.28	26480.82
489.46	26932.54
489.64	27213.41
489.81	27941.32
489.99	27704.92
490.17	27623.00
490.35	28290.06
490.53	28409.42
490.70	28472.62
490.88	28498.36
491.06	29034.35
491.24	29186.48
491.41	28811.99
491.59	29411.17
491.77	28926.68
491.95	29422.87
492.13	29951.84
492.30	30244.40
492.48	30249.08
492.66	30169.51
492.84	30682.08
493.01	30937.20
493.19	30761.66
493.37	31342.11
493.54	31056.57
493.72	31716.60
493.90	31323.39
494.08	32034.91
494.25	32343.86
494.43	32224.50
494.61	32561.53
494.79	32353.23
494.96	32844.74
495.14	32786.22
495.32	32980.49
495.49	32980.49
495.67	33167.73
495.85	33670.95
496.02	33855.85
496.20	33731.80
496.38	34125.01
496.55	34054.79
496.73	35145.48
496.91	34532.26
497.09	35012.07
497.26	35229.74
497.44	34965.26
497.62	35606.57
497.79	35908.50
497.97	35653.38
498.14	36109.78
498.32	36533.42
498.50	36512.36
498.67	37020.25
498.85	36472.57
499.03	36992.17
499.20	37006.21
499.38	37174.73
499.56	37560.92
499.73	37338.57
499.91	37326.86
500.08	37809.01
500.26	37247.29
500.44	37731.78
500.61	38176.48
500.79	37904.98
500.97	38139.03
501.14	38667.99
501.32	38546.28
501.49	38284.14
501.67	38761.61
501.84	39210.99
502.02	39278.87
502.20	38885.66
502.37	38951.20
502.55	39035.45
502.72	39653.36
502.90	39494.20
503.07	40184.66
503.25	39917.84
503.43	39964.65
503.60	40243.17
503.78	39955.29
503.95	40168.27
504.13	40540.42
504.30	40779.15
504.48	40601.27
504.65	40643.40
504.83	41137.26
505.01	41593.66
505.18	41006.19
505.36	41776.22
505.53	41134.92
505.71	41872.18
505.88	42213.90
506.06	41394.71
506.23	42412.85
506.41	41823.03
506.58	42300.50
506.76	42391.78
506.93	42630.52
507.11	42590.73
507.28	42511.15
507.46	42806.06
507.63	42855.21
507.81	43749.29
507.98	43222.67
508.16	43730.57
508.33	43552.69
508.50	43494.18
508.68	43548.01
508.85	44233.78
509.03	43761.00
509.20	44130.80
509.38	44814.24
509.55	44830.62
509.73	44540.39
509.90	44589.55
510.08	44795.51
510.25	44832.96
510.42	44933.60
510.60	44980.42
510.77	45233.19
510.95	45446.18
511.12	45345.54
511.30	45350.22
511.47	45422.78
511.64	45886.20
511.82	45745.77
511.99	45549.17
512.17	46167.07
512.34	45813.65
512.51	46380.06
512.69	46799.01
512.86	46663.26
513.04	46948.81
513.21	46838.80
513.38	46670.28
513.56	47026.04
513.73	46735.82
513.90	47241.37
514.08	47381.80
514.25	47171.16
514.43	47693.10
514.60	47412.23
514.77	47852.25
514.95	47887.36
515.12	47852.25
515.29	47908.43
515.47	48144.82
515.64	47976.30
515.81	47973.96
515.99	48161.20
516.16	48453.77
516.33	48664.42
516.51	48978.05
516.68	48664.42
516.85	48697.19
517.03	49076.35
517.20	49195.72
517.37	49081.03
517.54	48945.28
517.72	48914.86
517.89	49141.89
518.06	49368.92
518.24	49382.96
518.41	49443.82
518.58	49326.79
518.75	49078.69
518.93	49940.01
519.10	49558.50
519.27	50410.46
519.45	49757.45
519.62	49757.45
519.79	50012.57
519.96	50417.48
520.14	50204.49
520.31	50059.38
520.48	50129.59
520.65	50134.28
520.83	50534.51
521.00	50562.59
521.17	50808.35
521.34	50993.25
521.52	51058.79
521.69	50946.44
521.86	51065.81
522.03	51400.50
522.20	51327.95
522.38	51819.46
522.55	51688.39
522.72	51386.46
522.89	51103.26
523.07	51782.01
523.24	51929.47
523.41	51789.03
523.58	51599.45
523.75	51688.39
523.92	52053.51
524.10	51938.83
524.27	52037.13
524.44	51868.61
524.61	52135.43
524.78	52317.99
524.96	52041.81
525.13	52437.36
525.30	52559.07
525.47	52816.53
525.64	52528.64
525.81	52456.09
525.98	52750.99
526.16	52832.91
526.33	52521.62
526.50	52898.45
526.67	53003.77
526.84	53193.36
527.01	52734.61
527.18	53038.88
527.36	53155.91
527.53	53176.97
527.70	53544.44
527.87	53212.08
528.04	53483.58
528.21	53244.85
528.38	53593.59
528.55	53572.52
528.72	53659.12
528.89	53626.35
529.07	53588.91
529.24	53635.72
529.41	53956.37
529.58	53963.39
529.75	53743.38
529.92	53872.11
530.09	54080.42
530.26	54195.10
530.43	53839.34
530.60	53663.80
530.77	53839.34
530.94	53829.98
531.11	54115.53
531.28	54284.04
531.46	54286.39
531.63	54391.71
531.80	54234.89
531.97	54653.85
532.14	54773.22
532.31	54705.34
532.48	54700.66
532.65	54735.77
532.82	54504.06
532.99	54993.23
533.16	54651.51
533.33	55042.38
533.50	55098.55
533.67	55058.76
533.84	54848.11
534.01	55016.63
534.18	55011.95
534.35	55510.49
534.52	54983.86
534.69	55185.15
534.86	55236.64
535.03	55068.12
535.20	55133.66
535.37	55522.19
535.54	55508.14
535.71	55311.54
535.88	55405.16
536.05	55494.10
536.22	55489.42
536.38	55753.90
536.55	55636.87
536.72	55697.73
536.89	55416.86
537.06	55821.78
537.23	55697.73
537.40	55810.07
537.57	55894.33
537.74	55821.78
537.91	55884.97
538.08	56140.09
538.25	55861.57
538.42	55803.05
538.59	56133.07
538.75	55894.33
538.92	55955.19
539.09	56266.48
539.26	56200.94
539.43	56112.00
539.60	56343.72
539.77	56418.61
539.94	56699.48
540.11	56324.99
540.28	56530.96
540.44	56432.66
540.61	56748.63
540.78	56523.94
540.95	56437.34
541.12	56406.91
541.29	56729.90
541.46	56624.58
541.62	56493.51
541.79	56322.65
541.96	56594.15
542.13	56559.05
542.30	56903.10
542.47	56954.60
542.63	56818.84
542.80	56945.23
542.97	57095.03
543.14	57457.81
543.31	57099.71
543.48	57247.16
543.64	57640.37
543.81	57282.27
543.98	57368.87
544.15	57588.88
544.32	57724.63
544.48	57918.90
544.65	57535.05
544.82	57528.03
544.99	57153.54
545.16	57633.35
545.32	57598.24
545.49	57733.99
545.66	57841.66
545.83	57836.98
546.00	57904.85
546.16	57631.01
546.33	57808.89
546.50	57523.35
546.67	58021.88
546.83	57312.70
547.00	57867.40
547.17	57846.34
547.34	57790.17
547.50	58026.56
547.67	58220.83
547.84	58026.56
548.00	58183.38
548.17	58234.87
548.34	58445.52
548.51	58363.60
548.67	58293.38
548.84	58300.40
549.01	58244.23
549.18	58183.38
549.34	58169.33
549.51	58403.39
549.68	58501.69
549.84	58248.91
550.01	58372.96
550.18	58401.05
550.34	58506.37
550.51	58564.88
550.68	58553.18
550.84	58307.43
551.01	58623.40
551.18	58651.48
551.34	58688.93
551.51	58555.52
551.68	58756.81
551.84	58791.92
552.01	58595.31
552.18	58749.79
552.34	58731.06
552.51	58941.71
552.68	58595.31
552.84	58695.95
553.01	58897.24
553.18	58915.96
553.34	59079.80
553.51	58906.60
553.67	58745.11
553.84	59049.38
554.01	59203.85
554.17	59068.10
554.34	59093.85
554.51	59105.55
554.67	59161.72
554.84	59114.91
555.00	59150.02
555.17	58932.35
555.33	58993.20
555.50	58918.31
555.67	59231.94
555.83	59264.70
556.00	59189.81
556.16	59487.06
556.33	59311.52
556.50	59430.88
556.66	59622.81
556.83	59274.07
556.99	59468.33
557.16	59662.60
557.32	59482.37
557.49	59664.94
557.65	59384.07
557.82	59428.54
557.98	59498.76
558.15	59587.70
558.32	59449.61
558.48	59428.54
558.65	59697.70
558.81	59613.44
558.98	59552.59
559.14	59711.75
559.31	59725.79
559.47	59770.26
559.64	59821.75
559.80	59737.49
559.97	59763.24
560.13	59763.24
560.30	59693.02
560.46	59896.65
560.63	59678.98
560.79	59927.08
560.96	59908.35
561.12	59863.88
561.29	59906.01
561.45	59873.24
561.61	59859.20
561.78	59793.67
561.94	59877.93
562.11	59955.16
562.27	59852.18
562.44	60001.97
562.60	60231.35
562.77	59994.95
562.93	59985.59
563.10	60275.82
563.26	59880.27
563.42	60404.55
563.59	59908.35
563.75	60067.51
563.92	60067.51
564.08	60090.91
564.24	60245.39
564.41	60062.83
564.57	60423.27
564.74	60252.41
564.90	60074.53
565.07	60184.54
565.23	59966.87
565.39	60123.68
565.56	60158.79
565.72	60299.22
565.88	60346.03
566.05	60107.30
566.21	60133.04
566.38	60310.92
566.54	60444.33
566.70	60470.08
566.87	60561.36
567.03	60130.70
567.19	60715.84
567.36	60397.52
567.52	60367.10
567.68	60678.39
567.85	60470.08
568.01	60416.25
568.17	60296.88
568.34	60657.32
568.50	60591.79
568.66	60399.86
568.83	60425.61
568.99	60369.44
569.15	60643.28
569.32	60463.06
569.48	60467.74
569.64	60786.05
569.81	60528.59
569.97	60264.11
570.13	60542.64
570.30	60446.68
570.46	60722.86
570.62	60748.60
570.78	60636.26
570.95	60748.60
571.11	60844.57
571.27	60521.57
571.43	60413.91
571.60	60788.39
571.76	60659.66
571.92	60828.18
572.09	60781.37
572.25	60774.35
572.41	60563.70
572.57	60830.52
572.74	60853.93
572.90	60612.85
573.06	60633.92
573.22	60701.79
573.38	60804.78
573.55	60596.47
573.71	60910.10
573.87	60870.31
574.03	60650.30
574.20	60874.99
574.36	60839.89
574.52	60786.05
574.68	60757.97
574.84	60912.44
575.01	60828.18
575.17	60851.59
575.33	60671.37
575.49	60788.39
575.65	60863.29
575.82	60767.33
575.98	60924.14
576.14	61095.00
576.30	60795.42
576.46	60821.16
576.62	60977.98
576.79	60647.96
576.95	60753.29
577.11	60720.52
577.27	61043.51
577.43	60863.29
577.59	60844.57
577.75	60753.29
577.92	60757.97
578.08	60905.42
578.24	61069.26
578.40	60968.61
578.56	60938.19
578.72	60905.42
578.88	60956.91
579.04	61097.34
579.21	61010.74
579.37	60956.91
579.53	61085.64
579.69	60729.88
579.85	60898.40
580.01	60860.95
580.17	60793.07
580.33	60999.04
580.49	60985.00
580.65	60842.23
580.82	60856.27
580.98	60889.04
581.14	60947.55
581.30	61104.37
581.46	60893.72
581.62	60844.57
581.78	60940.53
581.94	61062.24
582.10	61083.30
582.26	61034.15
582.42	60713.50
582.58	61221.39
582.74	61038.83
582.90	60914.78
583.06	60994.36
583.22	60755.63
583.38	61099.68
583.54	60956.91
583.70	61073.94
583.86	61064.58
584.02	60858.61
584.18	61186.28
584.34	61003.72
584.50	61366.51
584.66	60860.95
584.82	60657.32
584.98	61167.56
585.14	61013.08
585.30	60898.40
585.46	61076.28
585.62	61020.11
585.78	61200.33
585.94	60933.51
586.10	61041.17
586.26	61153.52
586.42	61113.73
586.58	61179.26
586.74	61139.47
586.90	61244.80
587.06	60947.55
587.22	61118.41
587.38	61216.71
587.54	61162.88
587.70	61310.33
587.86	61270.54
588.02	61052.87
588.18	61230.75
588.34	61118.41
588.49	61064.58
