SpectraSuite Data File
++++++++++++++++++++++++++++++++++++
Date: Fri Oct 25 10:47:28 EDT 2013
User: price-jones
Dark Spectrum Present: No
Reference Spectrum Present: No
Number of Sampled Component Spectra: 1
Spectrometers: USB2+H05261
Integration Time (usec): 100000 (USB2+H05261)
Spectra Averaged: 1 (USB2+H05261)
Boxcar Smoothing: 0 (USB2+H05261)
Correct for Electrical Dark: No (USB2+H05261)
Strobe/Lamp Enabled: No (USB2+H05261)
Correct for Detector Non-linearity: No (USB2+H05261)
Correct for Stray Light: No (USB2+H05261)
Number of Pixels in Processed Spectrum: 2048
>>>>>Begin Processed Spectral Data<<<<<
365.73	128.73
365.92	128.73
366.12	128.73
366.32	28.09
366.52	39.79
366.72	44.47
366.91	60.85
367.11	53.83
367.31	53.83
367.51	91.28
367.70	0.00
367.90	51.49
368.10	35.11
368.30	112.35
368.49	65.54
368.69	102.98
368.89	107.66
369.09	53.83
369.28	93.62
369.48	9.36
369.68	14.04
369.87	142.77
370.07	112.35
370.27	156.82
370.47	140.43
370.66	388.53
370.86	376.83
371.06	393.21
371.25	461.09
371.45	435.34
371.65	486.83
371.84	454.06
372.04	472.79
372.24	463.43
372.44	407.25
372.63	425.98
372.83	472.79
373.03	475.13
373.22	535.98
373.42	449.38
373.62	496.19
373.81	550.03
374.01	435.34
374.21	540.66
374.40	507.90
374.60	484.49
374.79	500.87
374.99	578.11
375.19	540.66
375.38	550.03
375.58	540.66
375.78	676.41
375.97	601.52
376.17	615.56
376.37	521.94
376.56	592.16
376.76	526.62
376.95	510.24
377.15	533.64
377.35	580.45
377.54	657.69
377.74	596.84
377.93	594.50
378.13	528.96
378.33	594.50
378.52	557.05
378.72	585.13
378.91	629.60
379.11	528.96
379.31	543.00
379.50	601.52
379.70	599.18
379.89	620.24
380.09	601.52
380.28	564.07
380.48	648.33
380.68	617.90
380.87	608.54
381.07	655.35
381.26	688.12
381.46	645.99
381.65	695.14
381.85	751.31
382.04	617.90
382.24	645.99
382.43	622.58
382.63	645.99
382.83	636.63
383.02	657.69
383.22	791.10
383.41	744.29
383.61	751.31
383.80	748.97
384.00	695.14
384.19	706.84
384.39	681.10
384.58	638.97
384.78	723.23
384.97	765.36
385.17	737.27
385.36	746.63
385.56	704.50
385.75	744.29
385.95	772.38
386.14	748.97
386.34	709.18
386.53	763.01
386.72	798.12
386.92	781.74
387.11	772.38
387.31	828.55
387.50	748.97
387.70	830.89
387.89	880.04
388.09	802.80
388.28	807.48
388.48	819.19
388.67	830.89
388.86	858.98
389.06	777.06
389.25	947.92
389.45	828.55
389.64	861.32
389.84	912.81
390.03	931.53
390.22	931.53
390.42	858.98
390.61	973.66
390.81	877.70
391.00	833.23
391.19	924.51
391.39	945.58
391.58	924.51
391.78	898.77
391.97	1004.09
392.16	945.58
392.36	1111.75
392.55	1039.20
392.75	950.26
392.94	1001.75
393.13	954.94
393.33	968.98
393.52	1029.84
393.71	1074.31
393.91	1029.84
394.10	1055.58
394.29	1013.45
394.49	1006.43
394.68	1104.73
394.88	1102.39
395.07	1081.33
395.26	1100.05
395.46	1121.12
395.65	1125.80
395.84	1146.86
396.04	1207.72
396.23	1128.14
396.42	1125.80
396.62	1114.10
396.81	1149.20
397.00	1207.72
397.19	1172.61
397.39	1179.63
397.58	1125.80
397.77	1233.46
397.97	1242.82
398.16	1172.61
398.35	1259.21
398.55	1259.21
398.74	1287.29
398.93	1320.06
399.12	1329.42
399.32	1329.42
399.51	1268.57
399.70	1308.36
399.90	1289.64
400.09	1385.60
400.28	1329.42
400.47	1427.73
400.67	1458.15
400.86	1409.00
401.05	1472.20
401.24	1446.45
401.44	1432.41
401.63	1348.15
401.82	1460.49
402.01	1462.83
402.21	1392.62
402.40	1549.43
402.59	1509.65
402.78	1488.58
402.97	1547.09
403.17	1528.37
403.36	1497.94
403.55	1586.88
403.74	1575.18
403.93	1610.29
404.13	1600.93
404.32	1575.18
404.51	1605.61
404.70	1565.82
404.89	1664.12
405.09	1715.61
405.28	1689.87
405.47	1619.65
405.66	1699.23
405.85	1694.55
406.05	1783.49
406.24	1729.66
406.43	1722.63
406.62	1666.46
406.81	1722.63
407.00	1746.04
407.20	1832.64
407.39	1788.17
407.58	1813.92
407.77	1884.13
407.96	1912.22
408.15	1994.14
408.34	1865.41
408.54	1900.52
408.73	1947.33
408.92	1998.82
409.11	2064.35
409.30	1949.67
409.49	1935.62
409.68	1984.77
409.87	2005.84
410.07	2085.42
410.26	1954.35
410.45	2010.52
410.64	2155.63
410.83	2118.18
411.02	2275.00
411.21	2167.34
411.40	2284.36
411.59	2204.78
411.78	2298.41
411.98	2165.00
412.17	2359.26
412.36	2223.51
412.55	2256.28
412.74	2466.92
412.93	2340.54
413.12	2298.41
413.31	2424.80
413.50	2469.27
413.69	2464.58
413.88	2569.91
414.07	2499.69
414.26	2548.84
414.45	2516.08
414.64	2502.03
414.83	2651.83
415.02	2682.25
415.22	2619.06
415.41	2623.74
415.60	2677.57
415.79	2750.13
415.98	2855.45
416.17	2750.13
416.36	2733.75
416.55	2773.53
416.74	2785.24
416.93	2736.09
417.12	2883.54
417.31	2930.35
417.50	2782.90
417.69	3094.19
417.88	3112.91
418.07	2956.10
418.26	2892.90
418.45	2944.39
418.64	3138.66
418.83	3136.32
419.02	3059.08
419.21	3152.70
419.39	3129.30
419.58	3164.40
419.77	3150.36
419.96	3110.57
420.15	3183.13
420.34	3246.32
420.53	3171.43
420.72	3337.60
420.91	3311.86
421.10	3297.81
421.29	3386.76
421.48	3290.79
421.67	3400.80
421.86	3213.56
422.05	3311.86
422.24	3384.41
422.43	3421.86
422.61	3325.90
422.80	3361.01
422.99	3407.82
423.18	3363.35
423.37	3604.42
423.56	3400.80
423.75	3461.65
423.94	3452.29
424.13	3204.19
424.32	3368.03
424.50	3431.23
424.69	3550.59
424.88	3585.70
425.07	3499.10
425.26	3449.95
425.45	3482.72
425.64	3391.44
425.83	3452.29
426.01	3541.23
426.20	3672.30
426.39	3447.61
426.58	3440.59
426.77	3574.00
426.96	3604.42
427.15	3581.02
427.33	3419.52
427.52	3459.31
427.71	3548.25
427.90	3655.92
428.09	3693.37
428.28	3716.77
428.46	3634.85
428.65	3679.32
428.84	3796.35
429.03	3726.13
429.22	3728.47
429.40	3688.68
429.59	3758.90
429.78	3728.47
429.97	3705.07
430.16	3646.55
430.34	3644.21
430.53	3847.84
430.72	3866.56
430.91	3822.09
431.10	3808.05
431.28	4009.34
431.47	3936.78
431.66	4042.11
431.85	3936.78
432.03	4056.15
432.22	4259.78
432.41	4056.15
432.60	4117.00
432.79	4100.62
432.97	4131.05
433.16	4243.39
433.35	4065.51
433.54	4133.39
433.72	4152.11
433.91	4201.26
434.10	4203.60
434.28	4112.32
434.47	4177.86
434.66	4374.46
434.85	4372.12
435.03	4418.93
435.22	4435.32
435.41	4444.68
435.59	4353.40
435.78	4493.83
435.97	4580.43
436.16	4505.53
436.34	4465.74
436.53	4540.64
436.72	4629.58
436.90	4472.76
437.09	4641.28
437.28	4514.89
437.46	4435.32
437.65	4505.53
437.84	4573.41
438.02	4627.24
438.21	4535.96
438.40	4582.77
438.58	4737.24
438.77	4849.59
438.96	4882.36
439.14	4837.89
439.33	4964.28
439.52	4898.74
439.70	5018.11
439.89	5081.30
440.08	5020.45
440.26	5050.88
440.45	4971.30
440.63	5177.26
440.82	5266.21
441.01	5118.75
441.19	5139.82
441.38	5245.14
441.57	5128.11
441.75	5343.44
441.94	5591.54
442.12	5479.19
442.31	5549.41
442.50	5474.51
442.68	5451.11
442.87	5743.67
443.05	5617.29
443.24	5811.55
443.43	5708.57
443.61	5570.48
443.80	5734.31
443.98	5614.95
444.17	5416.00
444.35	5633.67
444.54	5795.17
444.73	5668.78
444.91	5643.03
445.10	5633.67
445.28	5706.23
445.47	5827.93
445.65	5736.65
445.84	5692.18
446.02	5743.67
446.21	5600.90
446.39	5724.95
446.58	5846.66
446.77	5710.91
446.95	5696.86
447.14	5790.49
447.32	5809.21
447.51	5774.10
447.69	5818.57
447.88	5959.00
448.06	5841.98
448.25	5905.17
448.43	5851.34
448.62	5935.60
448.80	5956.66
448.99	6045.60
449.17	6071.35
449.36	5799.85
449.54	6160.29
449.73	6183.70
449.91	6183.70
450.10	6258.59
450.28	6237.53
450.46	6169.65
450.65	6228.17
450.83	6284.34
451.02	6218.80
451.20	6373.28
451.39	6242.21
451.57	6321.79
451.76	6230.51
451.94	6427.11
452.13	6399.02
452.31	6326.47
452.49	6249.23
452.68	6366.26
452.86	6228.17
453.05	6272.64
453.23	6434.13
453.42	6347.53
453.60	6452.86
453.78	6569.88
453.97	6267.95
454.15	6532.44
454.34	6284.34
454.52	6497.33
454.70	6483.28
454.89	6588.61
455.07	6661.16
455.26	6775.85
455.44	6754.79
455.62	6815.64
455.81	6832.02
455.99	6869.47
456.17	6796.92
456.36	6752.45
456.54	6876.49
456.73	7082.46
456.91	7080.12
457.09	7073.10
457.28	7283.75
457.46	7215.87
457.64	7176.08
457.83	7033.31
458.01	7152.68
458.19	7339.92
458.38	7162.04
458.56	7183.10
458.74	7246.30
458.93	7180.76
459.11	7250.98
459.29	7208.85
459.48	7410.14
459.66	7478.01
459.84	7372.69
460.03	7506.10
460.21	7353.96
460.39	7506.10
460.57	7386.73
460.76	7351.62
460.94	7672.28
461.12	7447.58
461.31	7637.17
461.49	7454.61
461.67	7499.08
461.85	7793.98
462.04	7644.19
462.22	7999.95
462.40	7829.09
462.59	7939.10
462.77	7716.75
462.95	8002.29
463.13	7906.33
463.32	7943.78
463.50	7974.21
463.68	7906.33
463.86	7955.48
464.05	7824.41
464.23	7868.88
464.41	7922.71
464.59	7754.19
464.78	8119.32
464.96	8119.32
465.14	7915.69
465.32	8236.35
465.50	8287.84
465.69	8248.05
465.87	8217.62
466.05	8397.84
466.23	8203.58
466.41	8163.79
466.60	8367.42
466.78	8248.05
466.96	8028.04
467.14	8336.99
467.32	8362.73
467.51	8320.60
467.69	8070.17
467.87	8482.10
468.05	8468.06
468.23	8636.58
468.41	8358.05
468.60	8372.10
468.78	8484.44
468.96	8498.49
469.14	8344.01
469.32	8458.70
469.50	8437.63
469.69	8643.60
469.87	8744.24
470.05	8732.54
470.23	8730.20
470.41	8751.26
470.59	8840.20
470.77	8732.54
470.95	8814.46
471.14	8887.01
471.32	8762.97
471.50	9074.26
471.68	9118.73
471.86	9076.60
472.04	9104.68
472.22	9460.45
472.40	9027.45
472.58	9303.63
472.77	9088.30
472.95	9345.76
473.13	9657.05
473.31	9446.40
473.49	9308.31
473.67	9425.34
473.85	9387.89
474.03	9802.16
474.21	9741.31
474.39	9947.28
474.57	9659.39
474.75	9926.21
474.93	9830.25
475.12	9958.98
475.30	9956.64
475.48	10132.18
475.66	10260.91
475.84	10043.24
476.02	10279.63
476.20	10188.35
476.38	10396.66
476.56	10729.02
476.74	10352.19
476.92	10340.49
477.10	10511.35
477.28	10785.19
477.46	10619.01
477.64	10829.66
477.82	11049.67
478.00	11112.86
478.18	11056.69
478.36	11138.61
478.54	11358.62
478.72	11180.74
478.90	11459.26
479.08	11447.56
479.26	11690.98
479.44	11847.79
479.62	11798.64
479.80	11744.81
479.98	11997.59
480.16	12313.56
480.34	12091.21
480.52	12210.57
480.70	12224.62
480.88	12257.39
481.06	12329.94
481.24	12332.28
481.41	12437.61
481.59	12849.54
481.77	12847.20
481.95	12854.22
482.13	13167.85
482.31	12882.31
482.49	13254.45
482.67	13277.86
482.85	13514.25
483.03	13568.09
483.21	13525.96
483.39	13710.86
483.57	13907.46
483.74	13689.79
483.92	13860.65
484.10	13741.29
484.28	14064.28
484.46	14214.07
484.64	14621.33
484.82	14272.59
485.00	14434.08
485.18	14860.06
485.35	14813.25
485.53	14801.55
485.71	14754.74
485.89	14820.27
486.07	15159.65
486.25	15009.86
486.43	15358.60
486.61	15681.59
486.78	15723.72
486.96	15503.71
487.14	15796.28
487.32	15868.83
487.50	16442.26
487.68	16229.27
487.85	16552.27
488.03	16737.17
488.21	16959.52
488.39	16847.18
488.57	16884.62
488.75	16891.65
488.92	17263.79
489.10	17366.78
489.28	17326.99
489.46	17631.26
489.64	17708.49
489.81	17994.04
489.99	17743.60
490.17	18071.28
490.35	18202.35
490.53	18499.59
490.70	18525.34
490.88	18663.43
491.06	18773.44
491.24	18576.83
491.41	18789.82
491.59	18796.84
491.77	19000.47
491.95	19129.20
492.13	19278.99
492.30	19674.54
492.48	19278.99
492.66	19751.78
492.84	19693.27
493.01	19737.74
493.19	19782.21
493.37	20350.96
493.54	20238.61
493.72	20407.13
493.90	20496.07
494.08	20819.07
494.25	20868.22
494.43	20879.92
494.61	21303.56
494.79	20858.85
494.96	21074.18
495.14	21078.86
495.32	21607.83
495.49	21572.72
495.67	21411.22
495.85	21790.39
496.02	21823.16
496.20	22075.93
496.38	22338.07
496.55	22214.02
496.73	22506.59
496.91	22300.62
497.09	22541.70
497.26	22689.15
497.44	22602.55
497.62	22700.86
497.79	23005.13
497.97	22970.02
498.14	23192.37
498.32	23346.84
498.50	23108.11
498.67	23548.13
498.85	23555.15
499.03	23793.89
499.20	24086.45
499.38	23768.14
499.56	23756.44
499.73	24034.96
499.91	23957.72
500.08	24479.66
500.26	24098.16
500.44	24376.68
500.61	24486.68
500.79	24149.65
500.97	24779.25
501.14	24666.91
501.32	24807.34
501.49	24903.30
501.67	24828.40
501.84	24865.85
502.02	24994.58
502.20	25209.91
502.37	25518.86
502.55	25048.41
502.72	25474.39
502.90	25406.52
503.07	25647.59
503.25	25469.71
503.43	25682.70
503.60	25722.49
503.78	26190.59
503.95	26080.59
504.13	25706.10
504.30	25972.92
504.48	26096.97
504.65	26260.81
504.83	26707.85
505.01	26862.33
505.18	26242.09
505.36	26668.06
505.53	26600.19
505.71	26951.27
505.88	27084.68
506.06	26831.90
506.23	27180.64
506.41	27103.40
506.58	27140.85
506.76	27246.18
506.93	27538.74
507.11	27438.10
507.28	27541.08
507.46	27365.54
507.63	27398.31
507.81	27803.22
507.98	27681.52
508.16	27948.34
508.33	27990.47
508.50	28367.29
508.68	27702.58
508.85	28512.41
509.03	27988.13
509.20	28748.80
509.38	28339.21
509.55	28683.27
509.73	28879.87
509.90	28594.32
510.08	28720.71
510.25	28500.70
510.42	28826.04
510.60	29209.89
510.77	28964.13
510.95	29233.29
511.12	29137.33
511.30	28814.34
511.47	29563.31
511.64	29303.51
511.82	29692.04
511.99	29736.51
512.17	29823.11
512.34	29490.75
512.51	29759.91
512.69	30323.98
512.86	30061.84
513.04	30384.83
513.21	29902.68
513.38	30347.39
513.56	30228.02
513.73	30103.97
513.90	30558.03
514.08	30157.80
514.25	30684.42
514.43	30625.91
514.60	30450.37
514.77	30686.76
514.95	30923.16
515.12	30829.54
515.29	31377.22
515.47	30995.71
515.64	31054.23
515.81	31384.24
515.99	31094.02
516.16	31552.76
516.33	31330.41
516.51	31503.61
516.68	31040.18
516.85	31098.70
517.03	31529.36
517.20	31716.60
517.37	31545.74
517.54	31908.52
517.72	31693.19
517.89	32325.14
518.06	31948.31
518.24	31931.93
518.41	31943.63
518.58	31924.91
518.75	32081.72
518.93	32793.25
519.10	32725.37
519.27	32423.44
519.45	32294.71
519.62	32910.27
519.79	32706.65
519.96	32776.86
520.14	33013.26
520.31	32760.48
520.48	32872.82
520.65	33024.96
520.83	32896.23
521.00	33209.86
521.17	33256.67
521.34	33326.89
521.52	33486.04
521.69	33549.24
521.86	33872.23
522.03	33656.90
522.20	33729.46
522.38	33713.08
522.55	33928.41
522.72	33675.63
522.89	33624.14
523.07	33848.83
523.24	33879.25
523.41	33909.68
523.58	33944.79
523.75	34684.40
523.92	34314.59
524.10	34457.37
524.27	34546.31
524.44	34513.54
524.61	34199.91
524.78	34855.26
524.96	34625.89
525.13	34934.84
525.30	35218.04
525.47	35342.09
525.64	34965.26
525.81	35222.72
525.98	34827.17
526.16	34974.63
526.33	34930.16
526.50	35442.73
526.67	35435.71
526.84	35288.26
527.01	35257.83
527.18	34923.13
527.36	35222.72
527.53	35969.35
527.70	35786.79
527.87	35648.70
528.04	35578.48
528.21	35817.22
528.38	35983.40
528.55	36034.89
528.72	35644.02
528.89	36196.38
529.07	35957.65
529.24	35669.76
529.41	36294.69
529.58	35744.66
529.75	36013.82
529.92	36119.15
530.09	36692.58
530.26	36477.25
530.43	36613.00
530.60	36084.04
530.77	36428.10
530.94	36769.82
531.11	36341.50
531.28	36804.92
531.46	36753.43
531.63	36877.48
531.80	36933.65
531.97	36854.08
532.14	36933.65
532.31	36486.61
532.48	36896.20
532.65	37310.48
532.82	37324.52
532.99	37631.13
533.16	36769.82
533.33	37317.50
533.50	37694.33
533.67	37619.43
533.84	37596.03
534.01	37317.50
534.18	37486.02
534.35	37834.76
534.52	37799.65
534.69	37846.46
534.86	38000.94
535.03	37242.60
535.20	38410.53
535.37	38368.40
535.54	38113.28
535.71	38110.94
535.88	38017.32
536.05	37832.42
536.22	38209.25
536.38	37970.51
536.55	38106.26
536.72	38295.85
536.89	38141.37
537.06	38117.96
537.23	38501.81
537.40	37991.58
537.57	38480.75
537.74	38557.99
537.91	38738.21
538.08	38340.32
538.25	38330.95
538.42	38553.30
538.59	38766.29
538.75	38574.37
538.92	38946.51
539.09	39166.52
539.26	38838.85
539.43	39103.33
539.60	38616.50
539.77	39138.44
539.94	38768.63
540.11	38555.64
540.28	39007.37
540.44	39082.27
540.61	39075.24
540.78	39232.06
540.95	39171.21
541.12	39611.23
541.29	39452.07
541.46	38892.68
541.62	39494.20
541.79	39585.48
541.96	39498.88
542.13	39431.01
542.30	39667.40
542.47	39796.13
542.63	39388.88
542.80	39716.55
542.97	39861.66
543.14	40294.66
543.31	39929.54
543.48	40072.31
543.64	40502.97
543.81	40339.13
543.98	41141.94
544.15	40165.93
544.32	39819.53
544.48	40631.70
544.65	40034.86
544.82	40144.87
544.99	40289.98
545.16	40397.65
545.32	40084.01
545.49	40926.61
545.66	40704.26
545.83	40760.43
546.00	40622.34
546.16	40720.64
546.33	40442.12
546.50	40027.84
546.67	40706.60
546.83	39878.05
547.00	40828.30
547.17	40591.91
547.34	40364.88
547.50	40807.24
547.67	41081.08
547.84	41067.04
548.00	41153.64
548.17	41113.85
548.34	41478.97
548.51	41249.60
548.67	41483.66
548.84	41495.36
549.01	41181.73
549.18	41050.66
549.34	41214.49
549.51	41706.01
549.68	42052.41
549.84	41841.76
550.01	41825.37
550.18	41502.38
550.34	41860.48
550.51	41757.50
550.68	41233.22
550.84	41053.00
551.01	41331.52
551.18	41539.83
551.34	41727.07
551.51	41797.29
551.68	41745.80
551.84	42024.32
552.01	41645.15
552.18	41916.65
552.34	41701.32
552.51	42099.22
552.68	42288.80
552.84	42246.67
553.01	42234.97
553.18	42249.01
553.34	42071.13
553.51	41642.81
553.67	42363.70
553.84	42567.32
554.01	42436.25
554.17	42724.14
554.34	42176.45
554.51	42347.31
554.67	42698.39
554.84	42686.69
555.00	42396.46
555.17	42061.77
555.33	42803.72
555.50	42361.36
555.67	42450.30
555.83	42642.22
556.00	42572.00
556.16	42752.23
556.33	42541.58
556.50	42457.32
556.66	43285.87
556.83	42375.40
556.99	43021.39
557.16	42953.51
557.32	42897.34
557.49	42677.33
557.65	42251.35
557.82	42988.62
557.98	42305.18
558.15	42705.41
558.32	43042.45
558.48	42841.17
558.65	42801.38
558.81	42532.22
558.98	42817.76
559.14	42838.83
559.31	43075.22
559.47	43161.82
559.64	43540.99
559.80	43178.20
559.97	43463.75
560.13	42932.45
560.30	43019.05
560.46	43063.52
560.63	43199.27
560.79	43248.42
560.96	43320.98
561.12	43126.71
561.29	43269.48
561.45	43019.05
561.61	43339.70
561.78	43213.31
561.94	43253.10
562.11	42969.90
562.27	43084.58
562.44	43189.91
562.60	43564.39
562.77	43414.60
562.93	43585.46
563.10	43452.05
563.26	43241.40
563.42	43679.08
563.59	43477.79
563.75	43739.93
563.92	43728.23
564.08	43641.63
564.24	44100.37
564.41	43819.51
564.57	43239.06
564.74	43611.20
564.90	43751.63
565.07	43423.96
565.23	43175.86
565.39	43407.58
565.56	43653.33
565.72	43854.62
565.88	43658.01
566.05	43592.48
566.21	43920.15
566.38	43367.79
566.54	43311.61
566.70	43873.34
566.87	43765.68
567.03	43665.03
567.19	44156.55
567.36	43744.61
567.52	43468.43
567.68	44142.50
567.85	43711.84
568.01	43880.36
568.17	43913.13
568.34	44161.23
568.50	43988.03
568.66	43976.33
568.83	43962.28
568.99	43599.50
569.15	43821.85
569.32	43962.28
569.48	43409.92
569.64	44069.95
569.81	43915.47
569.97	43732.91
570.13	43913.13
570.30	44329.75
570.46	43704.82
570.62	43768.02
570.78	44020.80
570.95	44112.08
571.11	44114.42
571.27	44205.70
571.43	44100.37
571.60	44051.22
571.76	44306.34
571.92	44009.09
572.09	44189.31
572.25	43988.03
572.41	43906.11
572.57	44257.19
572.74	44472.52
572.90	44308.68
573.06	44198.68
573.22	44343.79
573.38	44357.83
573.55	43964.62
573.71	44133.14
573.87	44081.65
574.03	43962.28
574.20	44128.46
574.36	43777.38
574.52	44240.81
574.68	44067.61
574.84	44261.87
575.01	44437.41
575.17	43936.54
575.33	43842.92
575.49	44182.29
575.65	44313.36
575.82	44758.06
575.98	44484.22
576.14	44655.08
576.30	44484.22
576.46	44322.72
576.62	44247.83
576.79	44210.38
576.95	43863.98
577.11	44051.22
577.27	44194.00
577.43	44741.68
577.59	44261.87
577.75	43966.96
577.92	43889.73
578.08	44039.52
578.24	43686.10
578.40	44292.30
578.56	44538.05
578.72	44247.83
578.88	44601.25
579.04	44573.16
579.21	43894.41
579.37	44189.31
579.53	43948.24
579.69	44259.53
579.85	44456.14
580.01	44261.87
580.17	44079.31
580.33	44617.63
580.49	44023.14
580.65	44498.26
580.82	44465.50
580.98	44243.15
581.14	44261.87
581.30	44708.91
581.46	44240.81
581.62	44292.30
581.78	44437.41
581.94	44765.09
582.10	44722.96
582.26	44215.06
582.42	44591.89
582.58	44172.93
582.74	44222.08
582.90	44399.96
583.06	44439.75
583.22	44704.23
583.38	44671.46
583.54	44320.38
583.70	43742.27
583.86	44285.28
584.02	44013.77
584.18	44575.50
584.34	44535.71
584.50	44669.12
584.66	44296.98
584.82	44142.50
584.98	44641.04
585.14	44765.09
585.30	44456.14
585.46	43908.45
585.62	44315.70
585.78	44226.76
585.94	43540.99
586.10	44292.30
586.26	44524.01
586.42	44547.42
586.58	44711.25
586.74	44334.43
586.90	44079.31
587.06	44147.18
587.22	44636.36
587.38	44119.10
587.54	44554.44
587.70	44945.31
587.86	44755.72
588.02	44140.16
588.18	44580.18
588.34	44619.97
588.49	44030.16
588.65	43922.49
588.81	44224.42
588.97	44226.76
589.13	43889.73
589.29	44809.56
589.45	44236.12
589.61	44484.22
589.77	44947.65
589.93	44844.66
590.08	44938.29
590.24	45017.86
