SpectraSuite Data File
++++++++++++++++++++++++++++++++++++
Date: Fri Oct 25 11:25:46 EDT 2013
User: price-jones
Dark Spectrum Present: No
Reference Spectrum Present: No
Number of Sampled Component Spectra: 1
Spectrometers: USB2+H05261
Integration Time (usec): 100000 (USB2+H05261)
Spectra Averaged: 1 (USB2+H05261)
Boxcar Smoothing: 0 (USB2+H05261)
Correct for Electrical Dark: No (USB2+H05261)
Strobe/Lamp Enabled: No (USB2+H05261)
Correct for Detector Non-linearity: No (USB2+H05261)
Correct for Stray Light: No (USB2+H05261)
Number of Pixels in Processed Spectrum: 2048
>>>>>Begin Processed Spectral Data<<<<<
365.73	210.65
365.92	210.65
366.12	210.65
366.32	177.88
366.52	119.37
366.72	147.45
366.91	124.05
367.11	117.03
367.31	147.45
367.51	156.82
367.70	105.32
367.90	119.37
368.10	161.50
368.30	196.60
368.49	159.16
368.69	191.92
368.89	149.79
369.09	166.18
369.28	173.20
369.48	149.79
369.68	184.90
369.87	159.16
370.07	182.56
370.27	255.12
370.47	330.02
370.66	638.97
370.86	615.56
371.06	676.41
371.25	763.01
371.45	641.31
371.65	702.16
371.84	678.76
372.04	653.01
372.24	683.44
372.44	713.86
372.63	741.95
372.83	688.12
373.03	655.35
373.22	837.91
373.42	755.99
373.62	793.44
373.81	784.08
374.01	903.45
374.21	830.89
374.40	767.70
374.60	856.64
374.79	873.02
374.99	840.25
375.19	915.15
375.38	866.00
375.58	851.96
375.78	924.51
375.97	847.27
376.17	880.04
376.37	851.96
376.56	847.27
376.76	870.68
376.95	821.53
377.15	931.53
377.35	908.13
377.54	910.47
377.74	844.93
377.93	889.40
378.13	903.45
378.33	851.96
378.52	924.51
378.72	954.94
378.91	964.30
379.11	950.26
379.31	887.06
379.50	894.08
379.70	954.94
379.89	947.92
380.09	919.83
380.28	1025.15
380.48	1029.84
380.68	1041.54
380.87	954.94
381.07	976.00
381.26	1015.79
381.46	1093.03
381.65	1046.22
381.85	985.37
382.04	1015.79
382.24	1086.01
382.43	1015.79
382.63	1048.56
382.83	1057.92
383.02	1128.14
383.22	1076.65
383.41	1076.65
383.61	1123.46
383.80	1160.91
384.00	1057.92
384.19	1104.73
384.39	1252.19
384.58	1203.04
384.78	1093.03
384.97	1163.25
385.17	1146.86
385.36	1118.78
385.56	1219.42
385.75	1228.78
385.95	1188.99
386.14	1188.99
386.34	1224.10
386.53	1221.76
386.72	1188.99
386.92	1221.76
387.11	1273.25
387.31	1240.48
387.50	1210.06
387.70	1261.55
387.89	1153.88
388.09	1282.61
388.28	1329.42
388.48	1301.34
388.67	1322.40
388.86	1256.87
389.06	1343.47
389.25	1327.08
389.45	1273.25
389.64	1362.19
389.84	1507.30
390.03	1399.64
390.22	1378.58
390.42	1430.07
390.61	1366.87
390.81	1390.28
391.00	1399.64
391.19	1488.58
391.39	1416.02
391.58	1359.85
391.78	1481.56
391.97	1441.77
392.16	1416.02
392.36	1596.25
392.55	1509.65
392.75	1467.52
392.94	1451.13
393.13	1502.62
393.33	1432.41
393.52	1554.12
393.71	1561.14
393.91	1586.88
394.10	1575.18
394.29	1610.29
394.49	1516.67
394.68	1600.93
394.88	1652.42
395.07	1668.80
395.26	1561.14
395.46	1582.20
395.65	1792.85
395.84	1678.16
396.04	1736.68
396.23	1708.59
396.42	1734.34
396.62	1739.02
396.81	1823.28
397.00	1739.02
397.19	1834.98
397.39	1858.39
397.58	1842.00
397.77	1795.19
397.97	1846.68
398.16	1755.40
398.35	1884.13
398.55	1900.52
398.74	1823.28
398.93	1963.71
399.12	1856.04
399.32	1781.15
399.51	1930.94
399.70	2026.90
399.90	1994.14
400.09	1898.17
400.28	1963.71
400.47	1940.30
400.67	2001.16
400.86	2069.03
401.05	2097.12
401.24	2083.08
401.44	2157.97
401.63	2153.29
401.82	2174.36
402.01	2340.54
402.21	2207.13
402.40	2174.36
402.59	2200.10
402.78	2242.23
402.97	2221.17
403.17	2207.13
403.36	2223.51
403.55	2270.32
403.74	2338.20
403.93	2347.56
404.13	2335.85
404.32	2298.41
404.51	2385.01
404.70	2424.80
404.89	2429.48
405.09	2499.69
405.28	2480.97
405.47	2516.08
405.66	2516.08
405.85	2392.03
406.05	2457.56
406.24	2506.71
406.43	2429.48
406.62	2516.08
406.81	2724.38
407.00	2693.96
407.20	2616.72
407.39	2581.61
407.58	2579.27
407.77	2682.25
407.96	2621.40
408.15	2743.11
408.34	2747.79
408.54	2583.95
408.73	2757.15
408.92	2785.24
409.11	2775.88
409.30	2876.52
409.49	2885.88
409.68	3007.59
409.87	2965.46
410.07	3061.42
410.26	3021.63
410.45	3030.99
410.64	3066.10
410.83	3016.95
411.02	3115.25
411.21	3155.04
411.40	3084.83
411.59	3197.17
411.78	3197.17
411.98	3215.90
412.17	3281.43
412.36	3325.90
412.55	3297.81
412.74	3414.84
412.93	3398.46
413.12	3379.73
413.31	3485.06
413.50	3407.82
413.69	3358.67
413.88	3499.10
414.07	3506.12
414.26	3585.70
414.45	3562.30
414.64	3637.19
414.83	3798.69
415.02	3765.92
415.22	3789.33
415.41	3794.01
415.60	3805.71
415.79	3831.46
415.98	3932.10
416.17	3997.64
416.36	3967.21
416.55	3889.97
416.74	3934.44
416.93	4035.08
417.12	4180.20
417.31	4297.22
417.50	4208.28
417.69	4308.93
417.88	4231.69
418.07	4023.38
418.26	4219.99
418.45	4208.28
418.64	4575.75
418.83	4411.91
419.02	4273.82
419.21	4449.36
419.39	4498.51
419.58	4472.76
419.77	4519.57
419.96	4550.00
420.15	4636.60
420.34	4610.86
420.53	4498.51
420.72	4652.98
420.91	4645.96
421.10	4753.63
421.29	4720.86
421.48	4627.24
421.67	4695.11
421.86	4734.90
422.05	4877.68
422.24	4741.93
422.43	4819.16
422.61	4898.74
422.80	4894.06
422.99	5015.77
423.18	4978.32
423.37	5083.64
423.56	4983.00
423.75	4922.15
423.94	4844.91
424.13	4599.15
424.32	4800.44
424.50	4922.15
424.69	5186.63
424.88	4987.68
425.07	4791.08
425.26	5032.15
425.45	5064.92
425.64	4936.19
425.83	4983.00
426.01	5004.07
426.20	5064.92
426.39	5128.11
426.58	5027.47
426.77	5046.20
426.96	5151.52
427.15	5205.35
427.33	5167.90
427.52	5142.16
427.71	5210.03
427.90	5146.84
428.09	5170.24
428.28	5160.88
428.46	5310.68
428.65	5240.46
428.84	5458.13
429.03	5570.48
429.22	5247.48
429.40	5406.64
429.59	5282.59
429.78	5355.15
429.97	5153.86
430.16	5439.40
430.34	5565.79
430.53	5643.03
430.72	5526.00
430.91	5554.09
431.10	5638.35
431.28	5696.86
431.47	5682.82
431.66	5795.17
431.85	5757.72
432.03	5935.60
432.22	5870.06
432.41	5727.29
432.60	6076.03
432.79	6026.88
432.97	6057.31
433.16	6043.26
433.35	6017.52
433.54	5973.05
433.72	6296.04
433.91	6031.56
434.10	6202.42
434.28	6083.05
434.47	6256.25
434.66	6218.80
434.85	6370.94
435.03	6289.02
435.22	6399.02
435.41	6448.18
435.59	6298.38
435.78	6509.03
435.97	6523.07
436.16	6335.83
436.34	6443.49
436.53	6464.56
436.72	6579.25
436.90	6368.60
437.09	6583.93
437.28	6324.13
437.46	6630.74
437.65	6544.14
437.84	6775.85
438.02	6789.89
438.21	6572.22
438.40	6541.80
438.58	7068.42
438.77	6998.20
438.96	6958.41
439.14	7030.97
439.33	7208.85
439.52	7087.14
439.70	7290.77
439.89	7290.77
440.08	7302.47
440.26	7337.58
440.45	7304.81
440.63	7503.76
440.82	7803.35
441.01	7494.40
441.19	7606.74
441.38	7576.31
441.57	7585.68
441.75	7873.56
441.94	7971.86
442.12	7882.92
442.31	7948.46
442.50	7948.46
442.68	7843.14
442.87	7887.61
443.05	8159.11
443.24	8191.88
443.43	8028.04
443.61	8070.17
443.80	8346.35
443.98	8147.40
444.17	7740.15
444.35	8156.77
444.54	8365.07
444.73	8217.62
444.91	8147.40
445.10	8311.24
445.28	8203.58
445.47	8376.78
445.65	8212.94
445.84	8409.54
446.02	8613.17
446.21	8341.67
446.39	8219.96
446.58	8430.61
446.77	8512.53
446.95	8257.41
447.14	8358.05
447.32	8348.69
447.51	8421.25
447.69	8425.93
447.88	8599.13
448.06	8629.56
448.25	8491.46
448.43	8559.34
448.62	8699.77
448.80	8435.29
448.99	8683.39
449.17	8716.16
449.36	8423.59
449.54	8851.91
449.73	8994.68
449.91	8952.55
450.10	8788.71
450.28	8950.21
450.46	9071.92
450.65	8940.85
450.83	9076.60
451.02	9015.74
451.20	9102.34
451.39	9322.35
451.57	9193.62
451.76	9067.24
451.94	9315.33
452.13	9261.50
452.31	9289.59
452.49	9125.75
452.68	9392.57
452.86	9228.73
453.05	9310.65
453.23	9378.53
453.42	9034.47
453.60	9408.95
453.78	9685.14
453.97	9350.44
454.15	9483.85
454.34	9371.50
454.52	9701.52
454.70	9605.56
454.89	9743.65
455.07	9633.64
455.26	9996.43
455.44	9935.57
455.62	9991.75
455.81	9830.25
455.99	10003.45
456.17	9947.28
456.36	10012.81
456.54	10218.78
456.73	10200.05
456.91	10209.42
457.09	10298.36
457.28	10504.32
457.46	10223.46
457.64	10530.07
457.83	10279.63
458.01	10354.53
458.19	10934.98
458.38	10471.56
458.56	10518.37
458.74	10642.42
458.93	10471.56
459.11	10654.12
459.29	10565.18
459.48	10700.93
459.66	10853.06
459.84	10902.22
460.03	10794.55
460.21	10911.58
460.39	10848.38
460.57	11009.88
460.76	11009.88
460.94	11019.24
461.12	11014.56
461.31	11286.06
461.49	11037.97
461.67	11325.85
461.85	11459.26
462.04	11417.13
462.22	11749.49
462.40	11477.99
462.59	11414.79
462.77	11440.54
462.95	11637.14
463.13	11545.86
463.32	11740.13
463.50	11515.44
463.68	11817.36
463.86	11941.41
464.05	11831.41
464.23	11735.45
464.41	12093.55
464.59	11721.40
464.78	12004.61
464.96	11971.84
465.14	11644.17
465.32	11875.88
465.50	12053.76
465.69	11845.45
465.87	12018.65
466.05	11929.71
466.23	11950.78
466.41	11974.18
466.60	12545.27
466.78	11894.60
466.96	12273.77
467.14	12325.26
467.32	12280.79
467.51	12648.26
467.69	12147.38
467.87	12217.60
468.05	12622.51
468.23	12283.13
468.41	12271.43
468.60	12634.21
468.78	12582.72
468.96	12524.21
469.14	12781.67
469.32	12603.78
469.50	12784.01
469.69	13067.21
469.87	13102.32
470.05	12798.05
470.23	13078.91
470.41	12669.32
470.59	13451.06
470.77	13022.74
470.95	13167.85
471.14	13291.90
471.32	13142.11
471.50	13523.62
471.68	13575.11
471.86	13540.00
472.04	13764.69
472.22	13834.91
472.40	13392.55
472.58	13839.59
472.77	14024.49
472.95	14054.92
473.13	14480.89
473.31	14195.35
473.49	14265.57
473.67	14218.75
473.85	14207.05
474.03	14553.45
474.21	14450.47
474.39	14698.56
474.57	14438.76
474.75	14792.19
474.93	14991.13
475.12	14766.44
475.30	14761.76
475.48	14792.19
475.66	15101.14
475.84	15066.03
476.02	15318.81
476.20	15260.29
476.38	15562.22
476.56	15719.04
476.74	15843.09
476.92	16027.99
477.10	15611.37
477.28	15744.78
477.46	15850.11
477.64	16313.53
477.82	16318.22
478.00	16898.67
478.18	16570.99
478.36	16671.64
478.54	17029.74
478.72	17029.74
478.90	16999.31
479.08	17156.13
479.26	17577.42
479.44	17762.33
479.62	17642.96
479.80	17738.92
479.98	18141.49
480.16	18420.02
480.34	18080.64
480.52	18544.06
480.70	18466.83
480.88	18314.69
481.06	18534.70
481.24	18817.91
481.41	19213.46
481.59	19084.73
481.77	19096.43
481.95	19241.54
482.13	19754.12
482.31	19548.15
482.49	20163.72
482.67	19824.34
482.85	20327.55
483.03	20695.02
483.21	20467.98
483.39	20812.04
483.57	20765.23
483.74	21380.79
483.92	21329.30
484.10	21104.61
484.28	21177.17
484.46	21701.45
484.64	22099.34
484.82	21825.50
485.00	22487.87
485.18	22431.69
485.35	22497.23
485.53	22412.97
485.71	22829.59
485.89	23466.21
486.07	23278.97
486.25	23428.76
486.43	23370.25
486.61	23878.15
486.78	23810.27
486.96	23882.83
487.14	24793.29
487.32	24489.03
487.50	24563.92
487.68	24776.91
487.85	25001.60
488.03	25443.96
488.21	25783.34
488.39	25490.77
488.57	25869.94
488.75	26192.94
488.92	26162.51
489.10	26319.32
489.28	26611.89
489.46	27094.04
489.64	26986.38
489.81	27292.99
489.99	27412.35
490.17	27541.08
490.35	27901.53
490.53	28018.55
490.70	28135.58
490.88	27805.56
491.06	28811.99
491.24	28552.20
491.41	28706.67
491.59	29394.79
491.77	29081.16
491.95	29223.93
492.13	29343.30
492.30	29598.41
492.48	29736.51
492.66	30146.10
492.84	30632.93
493.01	30401.22
493.19	30815.49
493.37	30808.47
493.54	30539.31
493.72	31351.48
493.90	31519.99
494.08	31548.08
494.25	31637.02
494.43	31737.66
494.61	32034.91
494.79	32067.68
494.96	32098.11
495.14	32390.67
495.32	32999.21
495.49	33083.47
495.67	33237.95
495.85	33752.87
496.02	33731.80
496.20	33617.11
496.38	33893.30
496.55	33727.12
496.73	34623.54
496.91	34387.15
497.09	34609.50
497.26	34735.89
497.44	34740.57
497.62	35070.59
497.79	35534.01
497.97	35426.35
498.14	35803.17
498.32	35948.29
498.50	35824.24
498.67	36282.98
498.85	36481.93
499.03	36507.68
499.20	36353.20
499.38	37038.98
499.56	36666.83
499.73	36858.76
499.91	37383.04
500.08	37387.72
500.26	37462.61
500.44	37567.94
500.61	37694.33
500.79	37926.04
500.97	37528.15
501.14	37909.66
501.32	38579.05
501.49	38246.69
501.67	38780.34
501.84	38796.72
502.02	38438.62
502.20	38698.42
502.37	39360.79
502.55	38953.54
502.72	39108.01
502.90	39494.20
503.07	39360.79
503.25	39606.55
503.43	39597.18
503.60	39770.38
503.78	39758.68
503.95	39934.22
504.13	40273.60
504.30	40673.83
504.48	40364.88
504.65	40044.23
504.83	40797.88
505.01	40863.41
505.18	40945.33
505.36	41036.61
505.53	41036.61
505.71	41188.75
505.88	41930.70
506.06	41790.27
506.23	41666.22
506.41	41715.37
506.58	41593.66
506.76	42436.25
506.93	42380.08
507.11	41886.23
507.28	42302.84
507.46	42806.06
507.63	42817.76
507.81	43063.52
507.98	42663.28
508.16	42747.54
508.33	43105.65
508.50	43178.20
508.68	43620.56
508.85	43735.25
509.03	43508.22
509.20	43875.68
509.38	43983.35
509.55	44182.29
509.73	44044.20
509.90	44755.72
510.08	44205.70
510.25	44921.90
510.42	44526.35
510.60	44837.64
510.77	44917.22
510.95	45226.17
511.12	45368.94
511.30	45069.36
511.47	44931.26
511.64	45167.66
511.82	45731.73
511.99	45462.57
512.17	45727.05
512.34	45467.25
512.51	46293.46
512.69	46176.43
512.86	45792.58
513.04	46150.68
513.21	46204.52
513.38	46131.96
513.56	46953.49
513.73	46176.43
513.90	47075.19
514.08	46871.57
514.25	47023.70
514.43	47264.78
514.60	47037.75
514.77	46843.48
514.95	47400.53
515.12	47239.03
515.29	47590.11
515.47	47538.62
515.64	47980.98
515.81	47477.77
515.99	47634.58
516.16	48086.31
516.33	48144.82
516.51	48631.65
516.68	48252.48
516.85	48135.46
517.03	48898.47
517.20	48741.66
517.37	48549.73
517.54	48582.50
517.72	48463.13
517.89	48402.28
518.06	48692.50
518.24	48952.30
518.41	49130.19
518.58	48973.37
518.75	49151.25
518.93	49457.86
519.10	49450.84
519.27	49778.51
519.45	49509.35
519.62	49602.97
519.79	49921.29
519.96	49586.59
520.14	50089.80
520.31	50183.43
520.48	49963.42
520.65	49954.05
520.83	50213.85
521.00	50349.60
521.17	50314.50
521.34	50494.72
521.52	50667.92
521.69	50351.94
521.86	50529.83
522.03	50726.43
522.20	50990.91
522.38	51236.67
522.55	51049.42
522.72	51105.60
522.89	51168.79
523.07	51409.87
523.24	51121.98
523.41	51531.57
523.58	51196.88
523.75	51676.69
523.92	51639.24
524.10	51686.05
524.27	51655.62
524.44	51723.50
524.61	51599.45
524.78	52069.90
524.96	52179.90
525.13	52016.07
525.30	52343.74
525.47	51892.02
525.64	52200.97
525.81	52264.16
525.98	52456.09
526.16	52357.78
526.33	52399.91
526.50	52811.85
526.67	52680.78
526.84	52652.69
527.01	52566.09
527.18	52711.20
527.36	52790.78
527.53	52610.56
527.70	52853.98
527.87	53221.44
528.04	52851.64
528.21	52896.11
528.38	53160.59
528.55	53338.47
528.72	53331.45
528.89	53230.80
529.07	53308.04
529.24	53258.89
529.41	53626.35
529.58	53619.33
529.75	53558.48
529.92	53478.90
530.09	53326.77
530.26	53858.07
530.43	53886.15
530.60	53708.27
530.77	53668.48
530.94	53497.62
531.11	54010.20
531.28	53801.89
531.46	54358.94
531.63	53867.43
531.80	53778.49
531.97	54398.73
532.14	54433.84
532.31	54447.88
532.48	54206.81
532.65	54581.29
532.82	54274.68
532.99	54258.30
533.16	54585.97
533.33	54780.24
533.50	54852.80
533.67	54642.15
533.84	54492.35
534.01	54939.39
534.18	54880.88
534.35	55182.81
534.52	54845.77
534.69	54974.50
534.86	54939.39
535.03	54742.79
535.20	54871.52
535.37	55047.06
535.54	55297.50
535.71	55175.79
535.88	55278.77
536.05	55206.22
536.22	55386.44
536.38	55444.95
536.55	55428.57
536.72	55339.63
536.89	55236.64
537.06	55433.25
537.23	55482.40
537.40	55316.22
537.57	55561.98
537.74	55519.85
537.91	55634.53
538.08	55943.48
538.25	55524.53
538.42	55812.41
538.59	55891.99
538.75	55552.62
538.92	55779.65
539.09	55934.12
539.26	55779.65
539.43	55913.06
539.60	56149.45
539.77	56065.19
539.94	56257.12
540.11	56313.29
540.28	56273.50
540.44	56179.88
540.61	56147.11
540.78	56093.28
540.95	56308.61
541.12	56233.71
541.29	56458.40
541.46	56467.76
541.62	56430.32
541.79	56378.82
541.96	56430.32
542.13	56317.97
542.30	56612.88
542.47	56900.76
542.63	56697.14
542.80	56704.16
542.97	56832.89
543.14	56989.70
543.31	57120.77
543.48	57106.73
543.64	57148.86
543.81	57263.55
543.98	57254.18
544.15	57331.42
544.32	57165.24
544.48	57638.03
544.65	57228.44
544.82	57336.10
544.99	57130.14
545.16	57298.65
545.32	57298.65
545.49	57666.12
545.66	57546.75
545.83	57499.94
546.00	57635.69
546.16	57359.51
546.33	57439.09
546.50	57343.12
546.67	57567.82
546.83	57261.21
547.00	57680.16
547.17	57542.07
547.34	57729.31
547.50	57584.20
547.67	57907.19
547.84	57928.26
548.00	57970.39
548.17	58162.31
548.34	57958.69
548.51	57991.45
548.67	58195.08
548.84	57860.38
549.01	58024.22
549.18	57893.15
549.34	58230.19
549.51	58148.27
549.68	58328.49
549.84	58188.06
550.01	58166.99
550.18	58068.69
550.34	58195.08
550.51	58239.55
550.68	58190.40
550.84	58117.84
551.01	58494.67
551.18	58309.77
551.34	58389.34
551.51	58262.96
551.68	58539.14
551.84	58518.07
552.01	58422.11
552.18	58344.87
552.34	58422.11
552.51	58532.12
552.68	58445.52
552.84	58541.48
553.01	58581.27
553.18	58588.29
553.34	58876.18
553.51	58550.84
553.67	58761.49
553.84	59014.27
554.01	58955.75
554.17	58927.67
554.34	58820.00
554.51	58759.15
554.67	59068.10
554.84	58995.54
555.00	58939.37
555.17	58770.85
555.33	58838.73
555.50	58887.88
555.67	58913.62
555.83	58822.34
556.00	59002.56
556.16	59381.73
556.33	59189.81
556.50	58941.71
556.66	59072.78
556.83	59117.25
556.99	59253.00
557.16	59173.42
557.32	59372.37
557.49	59421.52
557.65	59339.60
557.82	59182.79
557.98	59398.12
558.15	59299.81
558.32	59365.35
558.48	59234.28
558.65	59320.88
558.81	59346.62
558.98	59299.81
559.14	59400.46
559.31	59475.35
559.47	59568.97
559.64	59416.84
559.80	59690.68
559.97	59615.79
560.13	59381.73
560.30	59510.46
560.46	59498.76
560.63	59690.68
560.79	59608.76
560.96	59678.98
561.12	59547.91
561.29	59681.32
561.45	59561.95
561.61	59613.44
561.78	59580.68
561.94	59643.87
562.11	59576.00
562.27	59803.03
562.44	59739.83
562.60	60027.72
562.77	59852.18
562.93	59470.67
563.10	59962.18
563.26	59803.03
563.42	60055.81
563.59	59746.86
563.75	59957.50
563.92	59870.90
564.08	59798.35
564.24	60186.88
564.41	59924.74
564.57	59941.12
564.74	59908.35
564.90	59772.60
565.07	60109.64
565.23	60041.76
565.39	59796.01
565.56	60111.98
565.72	60245.39
565.88	59791.33
566.05	60004.31
566.21	59994.95
566.38	60126.02
566.54	60271.14
566.70	60315.61
566.87	60020.70
567.03	59917.71
567.19	60339.01
567.36	59987.93
567.52	60100.28
567.68	60404.55
567.85	60163.47
568.01	60163.47
568.17	60154.11
568.34	60226.66
568.50	60296.88
568.66	60329.65
568.83	60292.20
568.99	60395.18
569.15	60310.92
569.32	60285.18
569.48	60168.15
569.64	60519.23
569.81	60282.84
569.97	60048.78
570.13	60479.44
570.30	60016.02
570.46	60324.97
570.62	60336.67
570.78	60350.71
570.95	60374.12
571.11	60395.18
571.27	60212.62
571.43	60266.45
571.60	60530.93
571.76	60374.12
571.92	60392.84
572.09	60383.48
572.25	60301.56
572.41	60378.80
572.57	60463.06
572.74	60631.58
572.90	60334.33
573.06	60463.06
573.22	60608.17
573.38	60463.06
573.55	60608.17
573.71	60397.52
573.87	60512.21
574.03	60460.72
574.20	60530.93
574.36	60493.49
574.52	60402.21
574.68	60610.51
574.84	60708.82
575.01	60729.88
575.17	60566.04
575.33	60601.15
575.49	60444.33
575.65	60809.46
575.82	60701.79
575.98	60547.32
576.14	60814.14
576.30	60776.69
576.46	60470.08
576.62	60472.42
576.79	60479.44
576.95	60472.42
577.11	60664.35
577.27	60715.84
577.43	60617.53
577.59	60549.66
577.75	60537.96
577.92	60566.04
578.08	60580.09
578.24	60645.62
578.40	60666.69
578.56	60940.53
578.72	60793.07
578.88	60877.33
579.04	60764.99
579.21	60690.09
579.37	60797.76
579.53	60704.13
579.69	60736.90
579.85	60650.30
580.01	60561.36
580.17	60704.13
580.33	60694.77
580.49	60898.40
580.65	60837.54
580.82	60725.20
580.98	60612.85
581.14	60891.38
581.30	60874.99
581.46	60638.60
581.62	60755.63
581.78	60570.72
581.94	60837.54
582.10	60851.59
582.26	60853.93
582.42	60612.85
582.58	60692.43
582.74	60645.62
582.90	60879.67
583.06	60743.92
583.22	60479.44
583.38	60956.91
583.54	60741.58
583.70	60938.19
583.86	60907.76
584.02	60863.29
584.18	60992.02
584.34	60928.83
584.50	61038.83
584.66	60697.11
584.82	60797.76
584.98	61062.24
585.14	60884.36
585.30	60825.84
585.46	61052.87
585.62	60853.93
585.78	60814.14
585.94	60720.52
586.10	60912.44
586.26	60823.50
586.42	60886.70
586.58	60924.14
586.74	60989.68
586.90	60891.38
587.06	60781.37
587.22	61111.39
587.38	60985.00
587.54	60968.61
587.70	61202.67
587.86	60982.66
588.02	60980.32
588.18	61116.07
588.34	60982.66
588.49	61015.43
