SpectraSuite Data File
++++++++++++++++++++++++++++++++++++
Date: Fri Oct 25 11:25:26 EDT 2013
User: price-jones
Dark Spectrum Present: No
Reference Spectrum Present: No
Number of Sampled Component Spectra: 1
Spectrometers: USB2+H05261
Integration Time (usec): 100000 (USB2+H05261)
Spectra Averaged: 1 (USB2+H05261)
Boxcar Smoothing: 0 (USB2+H05261)
Correct for Electrical Dark: No (USB2+H05261)
Strobe/Lamp Enabled: No (USB2+H05261)
Correct for Detector Non-linearity: No (USB2+H05261)
Correct for Stray Light: No (USB2+H05261)
Number of Pixels in Processed Spectrum: 2048
>>>>>Begin Processed Spectral Data<<<<<
365.73	231.71
365.92	231.71
366.12	231.71
366.32	182.56
366.52	208.31
366.72	175.54
366.91	112.35
367.11	177.88
367.31	126.39
367.51	145.11
367.70	201.29
367.90	121.71
368.10	117.03
368.30	140.43
368.49	133.41
368.69	191.92
368.89	196.60
369.09	140.43
369.28	177.88
369.48	220.01
369.68	154.48
369.87	210.65
370.07	208.31
370.27	273.84
370.47	346.40
370.66	524.28
370.86	662.37
371.06	753.65
371.25	692.80
371.45	636.63
371.65	650.67
371.84	622.58
372.04	662.37
372.24	770.04
372.44	641.31
372.63	713.86
372.83	751.31
373.03	704.50
373.22	730.25
373.42	741.95
373.62	671.73
373.81	725.57
374.01	868.34
374.21	791.10
374.40	828.55
374.60	840.25
374.79	809.83
374.99	816.85
375.19	772.38
375.38	709.18
375.58	861.32
375.78	908.13
375.97	809.83
376.17	966.64
376.37	898.77
376.56	877.70
376.76	933.87
376.95	882.38
377.15	882.38
377.35	919.83
377.54	901.11
377.74	877.70
377.93	866.00
378.13	915.15
378.33	894.08
378.52	924.51
378.72	905.79
378.91	898.77
379.11	964.30
379.31	957.28
379.50	908.13
379.70	978.34
379.89	976.00
380.09	945.58
380.28	971.32
380.48	961.96
380.68	1071.97
380.87	954.94
381.07	1076.65
381.26	1018.13
381.46	980.68
381.65	1121.12
381.85	1022.81
382.04	1043.88
382.24	1004.09
382.43	1118.78
382.63	1043.88
382.83	1086.01
383.02	1163.25
383.22	1090.69
383.41	1036.86
383.61	1001.75
383.80	1118.78
384.00	1071.97
384.19	1090.69
384.39	1153.88
384.58	1186.65
384.78	1097.71
384.97	1146.86
385.17	1188.99
385.36	1153.88
385.56	1146.86
385.75	1235.80
385.95	1245.16
386.14	1203.04
386.34	1174.95
386.53	1137.50
386.72	1114.10
386.92	1172.61
387.11	1224.10
387.31	1153.88
387.50	1203.04
387.70	1212.40
387.89	1315.38
388.09	1308.36
388.28	1294.32
388.48	1336.45
388.67	1299.00
388.86	1334.11
389.06	1275.59
389.25	1373.89
389.45	1352.83
389.64	1366.87
389.84	1359.85
390.03	1369.21
390.22	1343.47
390.42	1394.96
390.61	1348.15
390.81	1345.81
391.00	1427.73
391.19	1434.75
391.39	1282.61
391.58	1444.11
391.78	1509.65
391.97	1472.20
392.16	1444.11
392.36	1554.12
392.55	1509.65
392.75	1490.92
392.94	1570.50
393.13	1514.33
393.33	1516.67
393.52	1462.83
393.71	1504.96
393.91	1579.86
394.10	1469.86
394.29	1514.33
394.49	1612.63
394.68	1640.72
394.88	1624.33
395.07	1720.29
395.26	1650.08
395.46	1572.84
395.65	1729.66
395.84	1732.00
396.04	1825.62
396.23	1750.72
396.42	1764.76
396.62	1764.76
396.81	1668.80
397.00	1708.59
397.19	1834.98
397.39	1930.94
397.58	1767.10
397.77	1898.17
397.97	1827.96
398.16	1830.30
398.35	1888.81
398.55	1790.51
398.74	1912.22
398.93	1933.28
399.12	1839.66
399.32	1886.47
399.51	1959.03
399.70	1956.69
399.90	1940.30
400.09	1998.82
400.28	1942.64
400.47	1998.82
400.67	1994.14
400.86	1973.07
401.05	2033.93
401.24	2108.82
401.44	2033.93
401.63	2150.95
401.82	2106.48
402.01	2101.80
402.21	2132.23
402.40	2202.44
402.59	2059.67
402.78	2181.38
402.97	2181.38
403.17	2200.10
403.36	2101.80
403.55	2179.04
403.74	2239.89
403.93	2424.80
404.13	2263.30
404.32	2438.84
404.51	2410.75
404.70	2420.11
404.89	2487.99
405.09	2530.12
405.28	2420.11
405.47	2387.35
405.66	2539.48
405.85	2490.33
406.05	2590.97
406.24	2572.25
406.43	2602.68
406.62	2722.04
406.81	2544.16
407.00	2441.18
407.20	2572.25
407.39	2654.17
407.58	2719.70
407.77	2752.47
407.96	2665.87
408.15	2658.85
408.34	2670.55
408.54	2750.13
408.73	2855.45
408.92	2773.53
409.11	2785.24
409.30	2871.84
409.49	2906.95
409.68	2757.15
409.87	2942.05
410.07	2925.67
410.26	2942.05
410.45	2911.63
410.64	3063.76
410.83	3026.31
411.02	3077.80
411.21	3143.34
411.40	3155.04
411.59	3171.43
411.78	3129.30
411.98	3180.79
412.17	3236.96
412.36	3178.45
412.55	3248.66
412.74	3431.23
412.93	3377.39
413.12	3286.11
413.31	3485.06
413.50	3463.99
413.69	3538.89
413.88	3623.15
414.07	3475.70
414.26	3616.13
414.45	3637.19
414.64	3665.28
414.83	3726.13
415.02	3836.14
415.22	3829.12
415.41	3873.59
415.60	3688.68
415.79	3880.61
415.98	3985.93
416.17	3852.52
416.36	3875.93
416.55	3922.74
416.74	4063.17
416.93	3997.64
417.12	4025.72
417.31	4093.60
417.50	4149.77
417.69	4194.24
417.88	4264.46
418.07	4227.01
418.26	4257.43
418.45	4234.03
418.64	4447.02
418.83	4334.67
419.02	4170.83
419.21	4542.98
419.39	4409.57
419.58	4432.97
419.77	4313.61
419.96	4550.00
420.15	4610.86
420.34	4540.64
420.53	4634.26
420.72	4741.93
420.91	4648.30
421.10	4678.73
421.29	4791.08
421.48	4690.43
421.67	4688.09
421.86	4685.75
422.05	4737.24
422.24	4844.91
422.43	4767.67
422.61	4849.59
422.80	4929.17
422.99	4861.29
423.18	4924.49
423.37	4952.57
423.56	4795.76
423.75	4812.14
423.94	4784.06
424.13	4690.43
424.32	4702.14
424.50	4856.61
424.69	5020.45
424.88	5083.64
425.07	4950.23
425.26	4807.46
425.45	4966.62
425.64	4840.23
425.83	4943.21
426.01	4999.38
426.20	4973.64
426.39	5022.79
426.58	5055.56
426.77	5055.56
426.96	5039.17
427.15	5018.11
427.33	5376.21
427.52	5245.14
427.71	5263.86
427.90	5188.97
428.09	5214.71
428.28	5324.72
428.46	5378.55
428.65	5371.53
428.84	5441.75
429.03	5427.70
429.22	5345.78
429.40	5479.19
429.59	5497.92
429.78	5144.50
429.97	5277.91
430.16	5488.56
430.34	5385.57
430.53	5570.48
430.72	5743.67
430.91	5586.86
431.10	5612.60
431.28	5694.52
431.47	5694.52
431.66	5872.40
431.85	5884.11
432.03	5820.91
432.22	5823.25
432.41	5888.79
432.60	5867.72
432.79	5879.43
432.97	6047.94
433.16	5884.11
433.35	5895.81
433.54	6045.60
433.72	6097.10
433.91	6146.25
434.10	6169.65
434.28	5947.30
434.47	5963.68
434.66	6148.59
434.85	6148.59
435.03	6279.66
435.22	6286.68
435.41	6480.94
435.59	6457.54
435.78	6520.73
435.97	6279.66
436.16	6417.75
436.34	6377.96
436.53	6469.24
436.72	6661.16
436.90	6434.13
437.09	6527.75
437.28	6403.71
437.46	6546.48
437.65	6663.51
437.84	6766.49
438.02	6593.29
438.21	6743.08
438.40	6705.63
438.58	6904.58
438.77	6970.12
438.96	7002.88
439.14	7047.35
439.33	7066.08
439.52	7108.21
439.70	7061.40
439.89	7304.81
440.08	7239.28
440.26	7344.60
440.45	7393.75
440.63	7396.09
440.82	7534.18
441.01	7543.55
441.19	7674.62
441.38	7538.87
441.57	7618.44
441.75	7770.58
441.94	8081.87
442.12	7712.07
442.31	7953.14
442.50	8028.04
442.68	7962.50
442.87	8116.98
443.05	8212.94
443.24	8159.11
443.43	8198.90
443.61	7957.82
443.80	8360.39
443.98	8028.04
444.17	7707.38
444.35	8152.09
444.54	8208.26
444.73	8194.22
444.91	8140.38
445.10	8313.58
445.28	8301.88
445.47	8191.88
445.65	8093.57
445.84	8514.87
446.02	8486.78
446.21	8437.63
446.39	8470.40
446.58	8475.08
446.77	8404.86
446.95	8107.62
447.14	8374.44
447.32	8365.07
447.51	8514.87
447.69	8351.03
447.88	8463.38
448.06	8428.27
448.25	8446.99
448.43	8496.14
448.62	8498.49
448.80	8503.17
448.99	8634.24
449.17	8601.47
449.36	8411.89
449.54	8760.63
449.73	8765.31
449.91	9001.70
450.10	8816.80
450.28	9013.40
450.46	9214.69
450.65	8816.80
450.83	8840.20
451.02	9057.87
451.20	8954.89
451.39	8968.93
451.57	8966.59
451.76	8887.01
451.94	9118.73
452.13	9324.69
452.31	9238.09
452.49	9090.64
452.68	9226.39
452.86	9406.61
453.05	9500.23
453.23	9486.19
453.42	9291.93
453.60	9165.54
453.78	9399.59
453.97	9341.08
454.15	9383.21
454.34	9420.66
454.52	9528.32
454.70	9495.55
454.89	9792.80
455.07	9776.42
455.26	9720.24
455.44	9584.49
455.62	9893.44
455.81	9820.89
455.99	9846.63
456.17	9856.00
456.36	9984.73
456.54	10125.16
456.73	10335.81
456.91	10265.59
457.09	10284.31
457.28	10569.86
457.46	10167.29
457.64	10562.84
457.83	10307.72
458.01	10443.47
458.19	10604.97
458.38	10436.45
458.56	10532.41
458.74	10567.52
458.93	10471.56
459.11	10677.52
459.29	10623.69
459.48	10839.02
459.66	10721.99
459.84	10778.17
460.03	10832.00
460.21	11112.86
460.39	10960.73
460.57	10834.34
460.76	10731.36
460.94	11049.67
461.12	11145.63
461.31	11119.89
461.49	11407.77
461.67	11138.61
461.85	11145.63
462.04	11066.05
462.22	11723.74
462.40	11372.66
462.59	11257.98
462.77	11459.26
462.95	11426.50
463.13	11531.82
463.32	11592.67
463.50	11531.82
463.68	11683.95
463.86	11786.94
464.05	11473.31
464.23	11585.65
464.41	11599.70
464.59	11803.32
464.78	12079.50
464.96	11775.24
465.14	11698.00
465.32	11976.52
465.50	12042.06
465.69	12013.97
465.87	11833.75
466.05	12002.27
466.23	12219.94
466.41	12353.35
466.60	12449.31
466.78	12072.48
466.96	12355.69
467.14	12095.89
467.32	12297.17
467.51	12470.37
467.69	12039.72
467.87	12451.65
468.05	12622.51
468.23	12315.90
468.41	12458.67
468.60	12390.80
468.78	12517.18
468.96	12505.48
469.14	12671.66
469.32	12650.60
469.50	12542.93
469.69	12903.37
469.87	12844.86
470.05	12922.10
470.23	13132.75
470.41	13139.77
470.59	13259.13
470.77	13186.58
470.95	12985.29
471.14	13708.52
471.32	12922.10
471.50	13317.65
471.68	13544.68
471.86	13453.40
472.04	13760.01
472.22	13916.83
472.40	13476.80
472.58	13579.79
472.77	13846.61
472.95	14036.19
473.13	14169.60
473.31	14113.43
473.49	14146.20
473.67	13867.67
473.85	14228.12
474.03	14553.45
474.21	14501.96
474.39	14394.29
474.57	14506.64
474.75	14635.37
474.93	14806.23
475.12	14593.24
475.30	15239.23
475.48	14939.64
475.66	15241.57
475.84	15068.37
476.02	15389.02
476.20	15176.03
476.38	15573.92
476.56	15903.94
476.74	15854.79
476.92	15822.02
477.10	15721.38
477.28	16065.44
477.46	16229.27
477.64	15953.09
477.82	16542.91
478.00	16833.13
478.18	16479.71
478.36	16893.99
478.54	17011.01
478.72	17195.92
478.90	17212.30
479.08	17312.94
479.26	17626.57
479.44	17680.41
479.62	17888.71
479.80	17839.56
479.98	17991.70
480.16	18274.90
480.34	18347.46
480.52	18588.53
480.70	18274.90
480.88	18195.32
481.06	18551.09
481.24	18366.18
481.41	18864.72
481.59	19370.27
481.77	19386.66
481.95	19269.63
482.13	19365.59
482.31	19381.98
482.49	20133.29
482.67	20121.59
482.85	20236.27
483.03	20526.50
483.21	20755.87
483.39	20865.88
483.57	20313.51
483.74	20688.00
483.92	21163.12
484.10	21174.83
484.28	21280.15
484.46	22164.87
484.64	21965.93
484.82	21696.77
485.00	22185.94
485.18	22691.49
485.35	23023.85
485.53	22539.36
485.71	22670.43
485.89	23250.88
486.07	23339.82
486.25	22995.76
486.43	23449.83
486.61	23735.37
486.78	23800.91
486.96	24063.05
487.14	24203.48
487.32	24449.24
487.50	24751.17
487.68	25233.32
487.85	24814.36
488.03	25553.97
488.21	25378.43
488.39	25825.47
488.57	25921.43
488.75	25876.96
488.92	26363.79
489.10	26600.19
489.28	26405.92
489.46	26747.64
489.64	26841.26
489.81	27618.32
489.99	27456.82
490.17	27627.68
490.35	28203.46
490.53	27730.67
490.70	28339.21
490.88	27854.72
491.06	28840.08
491.24	28484.32
491.41	28769.86
491.59	29369.04
491.77	28903.28
491.95	29567.99
492.13	29677.99
492.30	29909.71
492.48	29958.86
492.66	29848.85
492.84	29652.25
493.01	30349.73
493.19	30511.22
493.37	30714.85
493.54	30960.61
493.72	31215.72
493.90	31119.76
494.08	31421.69
494.25	31805.54
494.43	31604.25
494.61	32423.44
494.79	32535.79
494.96	32414.08
495.14	32481.95
495.32	32828.35
495.49	33067.09
495.67	32830.69
495.85	33584.35
496.02	33357.32
496.20	33659.24
496.38	33446.26
496.55	34162.46
496.73	34705.46
496.91	34328.64
497.09	34291.19
497.26	34483.11
497.44	34962.92
497.62	35332.73
497.79	35608.91
497.97	35189.95
498.14	35594.87
498.32	35789.13
498.50	36060.63
498.67	36627.04
498.85	36357.88
499.03	36350.86
499.20	36510.02
499.38	36821.31
499.56	36580.23
499.73	36795.56
499.91	36950.04
500.08	37209.84
500.26	37179.41
500.44	37268.35
500.61	37574.96
500.79	37256.65
500.97	37848.80
501.14	38735.87
501.32	38419.89
501.49	38398.83
501.67	38143.71
501.84	38693.74
502.02	38452.66
502.20	38869.28
502.37	39016.73
502.55	38902.04
502.72	39304.62
502.90	39562.08
503.07	38916.09
503.25	39564.42
503.43	39777.40
503.60	39412.28
503.78	39718.89
503.95	39929.54
504.13	40189.34
504.30	40030.18
504.48	39945.92
504.65	40076.99
504.83	41141.94
505.01	40914.90
505.18	40851.71
505.36	41570.25
505.53	40952.35
505.71	41347.90
505.88	41261.30
506.06	41088.10
506.23	41661.54
506.41	41495.36
506.58	41401.74
506.76	42120.28
506.93	42314.55
507.11	42220.92
507.28	42410.51
507.46	42417.53
507.63	42555.62
507.81	42848.19
507.98	42808.40
508.16	42588.39
508.33	43037.77
508.50	43487.15
508.68	43419.28
508.85	43522.26
509.03	43164.16
509.20	43714.19
509.38	44074.63
509.55	43950.58
509.73	44378.90
509.90	44013.77
510.08	44252.51
510.25	44318.04
510.42	44336.77
510.60	45144.25
510.77	44814.24
510.95	45469.59
511.12	45036.59
511.30	44891.48
511.47	45420.44
511.64	45233.19
511.82	46005.57
511.99	45326.81
512.17	45560.87
512.34	45773.86
512.51	45801.94
512.69	46092.17
512.86	45858.12
513.04	46398.78
513.21	46258.35
513.38	46445.59
513.56	46759.22
513.73	46457.29
513.90	46543.89
514.08	46710.07
514.25	46703.05
514.43	46667.94
514.60	46899.65
514.77	47002.64
514.95	47515.22
515.12	47505.85
515.29	47365.42
515.47	47721.18
515.64	47859.27
515.81	47629.90
515.99	47557.35
516.16	48175.25
516.33	48121.41
516.51	47983.32
516.68	48109.71
516.85	48102.69
517.03	48734.63
517.20	48371.85
517.37	48357.81
517.54	48481.86
517.72	48793.15
517.89	48655.06
518.06	48893.79
518.24	49083.37
518.41	48687.82
518.58	49221.47
518.75	49106.78
518.93	49272.96
519.10	49230.83
519.27	49607.65
519.45	49595.95
519.62	49677.87
519.79	49621.70
519.96	49886.18
520.14	49996.18
520.31	49720.00
520.48	49930.65
520.65	50052.36
520.83	50227.90
521.00	50525.14
521.17	50321.52
521.34	50525.14
521.52	50447.91
521.69	50721.75
521.86	50845.80
522.03	50768.56
522.20	50794.31
522.38	51299.86
522.55	51150.07
522.72	51143.05
522.89	51276.46
523.07	51662.64
523.24	51016.66
523.41	51206.24
523.58	51140.71
523.75	51271.78
523.92	51393.48
524.10	51826.48
524.27	51690.73
524.44	51758.61
524.61	51559.66
524.78	52016.07
524.96	52308.63
525.13	51985.64
525.30	52222.03
525.47	52411.62
525.64	52219.69
525.81	52552.05
525.98	52336.72
526.16	52444.38
526.33	52435.02
526.50	52711.20
526.67	52596.52
526.84	52992.07
527.01	52734.61
527.18	52680.78
527.36	52645.67
527.53	52856.32
527.70	53148.88
527.87	53195.70
528.04	52940.58
528.21	53134.84
528.38	52734.61
528.55	53422.73
528.72	53125.48
528.89	53296.34
529.07	52793.12
529.24	53120.80
529.41	53284.64
529.58	53352.51
529.75	53696.57
529.92	53411.02
530.09	53551.46
530.26	53825.30
530.43	53925.94
530.60	53694.23
530.77	53811.26
530.94	54152.97
531.11	53656.78
531.28	53808.92
531.46	54197.44
531.63	54206.81
531.80	53914.24
531.97	54443.20
532.14	53968.07
532.31	54148.29
532.48	54312.13
532.65	54618.74
532.82	54124.89
532.99	54344.90
533.16	54138.93
533.33	54674.91
533.50	54686.62
533.67	54461.93
533.84	54422.14
534.01	54644.49
534.18	54731.09
534.35	54953.44
534.52	55070.46
534.69	55224.94
534.86	55194.51
535.03	54665.55
535.20	55000.25
535.37	55283.45
535.54	55213.24
535.71	55030.68
535.88	55182.81
536.05	55119.62
536.22	55206.22
536.38	55576.02
536.55	55138.34
536.72	55522.19
536.89	55409.84
537.06	55508.14
537.23	55735.18
537.40	55248.35
537.57	55458.99
537.74	55550.27
537.91	55746.88
538.08	55618.15
538.25	55313.88
538.42	55384.10
538.59	55985.61
538.75	55501.12
538.92	55859.23
539.09	56193.92
539.26	55842.84
539.43	56044.13
539.60	55969.23
539.77	56158.81
539.94	56041.79
540.11	56112.00
540.28	56090.94
540.44	56287.54
540.61	56324.99
540.78	56051.15
540.95	56184.56
541.12	56086.26
541.29	56219.67
541.46	56268.82
541.62	56299.25
541.79	56130.73
541.96	56245.41
542.13	56500.53
542.30	56470.11
542.47	56519.26
542.63	56722.88
542.80	56683.09
542.97	57036.51
543.14	56832.89
543.31	57066.94
543.48	57055.24
543.64	57284.61
543.81	57347.81
543.98	57338.44
544.15	57015.45
544.32	57080.98
544.48	57413.34
544.65	57102.05
544.82	57268.23
544.99	57272.91
545.16	57109.07
545.32	57205.03
545.49	57467.17
545.66	57488.24
545.83	57298.65
546.00	57769.10
546.16	57778.46
546.33	57420.36
546.50	57340.78
546.67	57532.71
546.83	57254.18
547.00	57640.37
547.17	57506.96
547.34	57675.48
547.50	57996.13
547.67	58113.16
547.84	57811.23
548.00	57673.14
548.17	58017.20
548.34	57900.17
548.51	57834.64
548.67	58188.06
548.84	58049.97
549.01	57811.23
549.18	57935.28
549.34	58089.76
549.51	57991.45
549.68	58101.46
549.84	58129.54
550.01	58279.34
550.18	58174.02
550.34	58136.57
550.51	58351.90
550.68	58356.58
550.84	57818.25
551.01	58443.18
551.18	58277.00
551.34	58089.76
551.51	58349.56
551.68	58368.28
551.84	58520.41
552.01	58405.73
552.18	58333.17
552.34	58440.84
552.51	58646.80
552.68	58255.93
552.84	58468.92
553.01	58644.46
553.18	58595.31
553.34	58611.70
553.51	58651.48
553.67	58607.01
553.84	58852.77
554.01	58946.39
554.17	58969.80
554.34	58763.83
554.51	58719.36
554.67	58901.92
554.84	58831.71
555.00	58625.74
555.17	58794.26
555.33	58869.15
555.50	58747.45
555.67	58752.13
555.83	58791.92
556.00	58951.07
556.16	59133.63
556.33	59100.87
556.50	59178.10
556.66	59051.72
556.83	58876.18
556.99	59133.63
557.16	59297.47
557.32	59334.92
557.49	59334.92
557.65	59215.55
557.82	59320.88
557.98	59089.16
558.15	59140.66
558.32	59107.89
558.48	58995.54
558.65	59372.37
558.81	59311.52
558.98	59409.82
559.14	59196.83
559.31	59377.05
559.47	59456.63
559.64	59320.88
559.80	59604.08
559.97	59639.19
560.13	59470.67
560.30	59508.12
560.46	59620.47
560.63	59793.67
560.79	59451.95
560.96	59702.38
561.12	59758.56
561.29	59648.55
561.45	59643.87
561.61	59543.23
561.78	59868.56
561.94	59540.89
562.11	59671.96
562.27	59833.46
562.44	59697.70
562.60	59987.93
562.77	59765.58
562.93	59566.63
563.10	59882.61
563.26	59805.37
563.42	60086.23
563.59	60037.08
563.75	59646.21
563.92	59800.69
564.08	59952.82
564.24	59915.37
564.41	60006.65
564.57	59910.69
564.74	59861.54
564.90	59793.67
565.07	59887.29
565.23	59835.80
565.39	59896.65
565.56	59943.46
565.72	59969.21
565.88	60004.31
566.05	59503.44
566.21	60067.51
566.38	59945.80
566.54	60004.31
566.70	60254.75
566.87	60114.32
567.03	59863.88
567.19	60303.90
567.36	60076.87
567.52	60172.83
567.68	60446.68
567.85	60147.09
568.01	60198.58
568.17	60158.79
568.34	60308.58
568.50	60009.00
568.66	60214.96
568.83	60067.51
568.99	60156.45
569.15	60259.43
569.32	60327.31
569.48	60303.90
569.64	60243.05
569.81	60219.64
569.97	60069.85
570.13	60294.54
570.30	60341.35
570.46	60481.78
570.62	60292.20
570.78	60420.93
570.95	60397.52
571.11	60580.09
571.27	60282.84
571.43	60231.35
571.60	60509.87
571.76	60498.17
571.92	60390.50
572.09	60130.70
572.25	60334.33
572.41	60381.14
572.57	60317.95
572.74	60484.12
572.90	60374.12
573.06	60559.02
573.22	60406.89
573.38	60498.17
573.55	60544.98
573.71	60507.53
573.87	60465.40
574.03	60289.86
574.20	60530.93
574.36	60530.93
574.52	60556.68
574.68	60603.49
574.84	60650.30
575.01	60783.71
575.17	60535.62
575.33	60479.44
575.49	60626.90
575.65	60617.53
575.82	60643.28
575.98	60601.15
576.14	60856.27
576.30	60626.90
576.46	60645.62
576.62	60430.29
576.79	60645.62
576.95	60580.09
577.11	60800.10
577.27	60582.43
577.43	60563.70
577.59	60594.13
577.75	60636.26
577.92	60580.09
578.08	60615.19
578.24	60762.65
578.40	60832.86
578.56	60631.58
578.72	60830.52
578.88	60720.52
579.04	60732.22
579.21	60540.30
579.37	60865.63
579.53	60776.69
579.69	60544.98
579.85	60453.70
580.01	60484.12
580.17	60509.87
580.33	60853.93
580.49	60860.95
580.65	60760.31
580.82	60596.47
580.98	60544.98
581.14	60596.47
581.30	60818.82
581.46	60666.69
581.62	60790.73
581.78	60559.02
581.94	60643.28
582.10	60692.43
582.26	60760.31
582.42	60708.82
582.58	60928.83
582.74	60617.53
582.90	60760.31
583.06	60842.23
583.22	60832.86
583.38	60905.42
583.54	60741.58
583.70	60734.56
583.86	60996.70
584.02	60795.42
584.18	60933.51
584.34	60802.44
584.50	60769.67
584.66	60786.05
584.82	60743.92
584.98	60856.27
585.14	60914.78
585.30	60725.20
585.46	61006.06
585.62	60690.09
585.78	61181.60
585.94	60762.65
586.10	60750.94
586.26	60781.37
586.42	60912.44
586.58	60919.46
586.74	60910.10
586.90	60917.12
587.06	60762.65
587.22	61073.94
587.38	60811.80
587.54	60961.59
587.70	61186.28
587.86	61062.24
588.02	60851.59
588.18	60966.27
588.34	60905.42
588.49	60968.61
