SpectraSuite Data File
++++++++++++++++++++++++++++++++++++
Date: Fri Oct 25 10:44:55 EDT 2013
User: price-jones
Dark Spectrum Present: No
Reference Spectrum Present: No
Number of Sampled Component Spectra: 1
Spectrometers: USB2+H05261
Integration Time (usec): 100000 (USB2+H05261)
Spectra Averaged: 1 (USB2+H05261)
Boxcar Smoothing: 0 (USB2+H05261)
Correct for Electrical Dark: No (USB2+H05261)
Strobe/Lamp Enabled: No (USB2+H05261)
Correct for Detector Non-linearity: No (USB2+H05261)
Correct for Stray Light: No (USB2+H05261)
Number of Pixels in Processed Spectrum: 2048
>>>>>Begin Processed Spectral Data<<<<<
365.73	86.60
365.92	86.60
366.12	86.60
366.32	53.83
366.52	60.85
366.72	72.56
366.91	0.00
367.11	21.06
367.31	70.22
367.51	84.26
367.70	44.47
367.90	79.58
368.10	42.13
368.30	135.75
368.49	46.81
368.69	112.35
368.89	63.19
369.09	42.13
369.28	114.69
369.48	63.19
369.68	79.58
369.87	56.17
370.07	135.75
370.27	131.07
370.47	163.84
370.66	367.46
370.86	379.17
371.06	444.70
371.25	381.51
371.45	486.83
371.65	472.79
371.84	479.81
372.04	454.06
372.24	472.79
372.44	425.98
372.63	449.38
372.83	489.17
373.03	517.26
373.22	547.69
373.42	554.71
373.62	498.53
373.81	550.03
374.01	535.98
374.21	571.09
374.40	442.36
374.60	547.69
374.79	540.66
374.99	559.39
375.19	550.03
375.38	535.98
375.58	608.54
375.78	547.69
375.97	524.28
376.17	615.56
376.37	535.98
376.56	573.43
376.76	545.34
376.95	613.22
377.15	566.41
377.35	528.96
377.54	603.86
377.74	594.50
377.93	622.58
378.13	610.88
378.33	660.03
378.52	585.13
378.72	645.99
378.91	603.86
379.11	592.16
379.31	580.45
379.50	620.24
379.70	601.52
379.89	723.23
380.09	622.58
380.28	596.84
380.48	706.84
380.68	643.65
380.87	585.13
381.07	676.41
381.26	578.11
381.46	720.88
381.65	650.67
381.85	732.59
382.04	683.44
382.24	676.41
382.43	660.03
382.63	629.60
382.83	688.12
383.02	739.61
383.22	753.65
383.41	709.18
383.61	763.01
383.80	767.70
384.00	690.46
384.19	718.54
384.39	795.78
384.58	725.57
384.78	734.93
384.97	786.42
385.17	755.99
385.36	770.04
385.56	758.33
385.75	777.06
385.95	765.36
386.14	741.95
386.34	739.61
386.53	753.65
386.72	758.33
386.92	777.06
387.11	795.78
387.31	751.31
387.50	753.65
387.70	823.87
387.89	741.95
388.09	802.80
388.28	889.40
388.48	805.14
388.67	819.19
388.86	809.83
389.06	917.49
389.25	894.08
389.45	964.30
389.64	851.96
389.84	849.61
390.03	952.60
390.22	840.25
390.42	926.85
390.61	957.28
390.81	917.49
391.00	1067.28
391.19	931.53
391.39	1006.43
391.58	978.34
391.78	957.28
391.97	936.21
392.16	985.37
392.36	990.05
392.55	973.66
392.75	933.87
392.94	968.98
393.13	863.66
393.33	940.90
393.52	990.05
393.71	1048.56
393.91	1062.60
394.10	1006.43
394.29	1039.20
394.49	1132.82
394.68	1057.92
394.88	1053.24
395.07	1118.78
395.26	1165.59
395.46	1219.42
395.65	1071.97
395.84	1107.07
396.04	1245.16
396.23	1114.10
396.42	1196.01
396.62	1088.35
396.81	1095.37
397.00	1149.20
397.19	1170.27
397.39	1231.12
397.58	1280.27
397.77	1221.76
397.97	1184.31
398.16	1303.68
398.35	1217.08
398.55	1242.82
398.74	1357.51
398.93	1270.91
399.12	1343.47
399.32	1275.59
399.51	1266.23
399.70	1423.05
399.90	1331.76
400.09	1418.36
400.28	1387.94
400.47	1423.05
400.67	1460.49
400.86	1392.62
401.05	1416.02
401.24	1469.86
401.44	1472.20
401.63	1430.07
401.82	1460.49
402.01	1486.24
402.21	1425.39
402.40	1607.95
402.59	1420.71
402.78	1458.15
402.97	1509.65
403.17	1537.73
403.36	1600.93
403.55	1629.01
403.74	1605.61
403.93	1666.46
404.13	1638.38
404.32	1582.20
404.51	1629.01
404.70	1659.44
404.89	1603.27
405.09	1666.46
405.28	1799.87
405.47	1816.26
405.66	1746.04
405.85	1750.72
406.05	1771.79
406.24	1734.34
406.43	1762.42
406.62	1788.17
406.81	2024.56
407.00	1912.22
407.20	1811.57
407.39	1898.17
407.58	1947.33
407.77	1905.20
407.96	1867.75
408.15	1907.54
408.34	1959.03
408.54	2022.22
408.73	2062.01
408.92	1996.48
409.11	1982.43
409.30	1975.41
409.49	1994.14
409.68	1937.96
409.87	2064.35
410.07	2064.35
410.26	2153.29
410.45	2087.76
410.64	2052.65
410.83	2197.76
411.02	2246.91
411.21	2204.78
411.40	2242.23
411.59	2448.20
411.78	2172.02
411.98	2338.20
412.17	2300.75
412.36	2375.64
412.55	2476.29
412.74	2382.67
412.93	2410.75
413.12	2352.24
413.31	2422.45
413.50	2537.14
413.69	2569.91
413.88	2607.36
414.07	2546.50
414.26	2544.16
414.45	2619.06
414.64	2541.82
414.83	2705.66
415.02	2724.38
415.22	2635.44
415.41	2693.96
415.60	2633.10
415.79	2815.66
415.98	2967.80
416.17	2855.45
416.36	2878.86
416.55	2813.32
416.74	2794.60
416.93	2953.76
417.12	2832.05
417.31	3056.74
417.50	3033.33
417.69	3040.36
417.88	2981.84
418.07	2970.14
418.26	3023.97
418.45	3089.51
418.64	3155.04
418.83	3255.69
419.02	3269.73
419.21	3220.58
419.39	3236.96
419.58	3066.10
419.77	3183.13
419.96	3183.13
420.15	3361.01
420.34	3143.34
420.53	3297.81
420.72	3400.80
420.91	3361.01
421.10	3332.92
421.29	3557.61
421.48	3276.75
421.67	3396.12
421.86	3471.01
422.05	3405.48
422.24	3396.12
422.43	3492.08
422.61	3492.08
422.80	3536.55
422.99	3442.93
423.18	3548.25
423.37	3445.27
423.56	3520.17
423.75	3466.33
423.94	3262.71
424.13	3281.43
424.32	3412.50
424.50	3543.57
424.69	3524.85
424.88	3588.04
425.07	3503.78
425.26	3552.93
425.45	3616.13
425.64	3618.47
425.83	3545.91
426.01	3536.55
426.20	3665.28
426.39	3627.83
426.58	3585.70
426.77	3466.33
426.96	3527.19
427.15	3590.38
427.33	3644.21
427.52	3602.08
427.71	3662.94
427.90	3698.05
428.09	3761.24
428.28	3810.39
428.46	3758.90
428.65	3756.56
428.84	3836.14
429.03	3794.01
429.22	3705.07
429.40	3887.63
429.59	3758.90
429.78	3655.92
429.97	3660.60
430.16	3705.07
430.34	3721.45
430.53	3992.95
430.72	3950.82
430.91	3765.92
431.10	4063.17
431.28	4182.54
431.47	4002.32
431.66	4217.65
431.85	4091.26
432.03	4201.26
432.22	4255.09
432.41	4245.73
432.60	4227.01
432.79	4259.78
432.97	4353.40
433.16	4280.84
433.35	4187.22
433.54	4210.62
433.72	4301.90
433.91	4222.33
434.10	4365.10
434.28	4229.35
434.47	4514.89
434.66	4533.62
434.85	4482.13
435.03	4414.25
435.22	4475.10
435.41	4503.19
435.59	4411.91
435.78	4435.32
435.97	4526.60
436.16	4571.07
436.34	4533.62
436.53	4650.64
436.72	4720.86
436.90	4580.43
437.09	4552.34
437.28	4533.62
437.46	4676.39
437.65	4676.39
437.84	4725.54
438.02	4868.31
438.21	4772.35
438.40	4606.17
438.58	4901.08
438.77	4851.93
438.96	4844.91
439.14	5074.28
439.33	5123.43
439.52	4926.83
439.70	5050.88
439.89	5067.26
440.08	5174.92
440.26	5224.08
440.45	5226.42
440.63	5116.41
440.82	5301.31
441.01	5228.76
441.19	5231.10
441.38	5387.91
441.57	5472.17
441.75	5500.26
441.94	5607.92
442.12	5526.00
442.31	5636.01
442.50	5692.18
442.68	5680.48
442.87	5533.03
443.05	5603.24
443.24	5767.08
443.43	5628.99
443.61	5600.90
443.80	5816.23
443.98	5760.06
444.17	5509.62
444.35	5926.24
444.54	5884.11
444.73	5877.09
444.91	5942.62
445.10	5893.47
445.28	5762.40
445.47	5626.65
445.65	5792.83
445.84	5820.91
446.02	5816.23
446.21	5834.96
446.39	5741.33
446.58	5982.41
446.77	5956.66
446.95	5806.87
447.14	5959.00
447.32	6101.78
447.51	5720.27
447.69	6118.16
447.88	6036.24
448.06	5891.13
448.25	6019.86
448.43	5959.00
448.62	5951.98
448.80	5980.07
448.99	6106.46
449.17	6047.94
449.36	6118.16
449.54	6209.44
449.73	6303.06
449.91	6218.80
450.10	6230.51
450.28	6272.64
450.46	6403.71
450.65	6333.49
450.83	6307.74
451.02	6324.13
451.20	6434.13
451.39	6335.83
451.57	6459.88
451.76	6366.26
451.94	6359.24
452.13	6555.84
452.31	6644.78
452.49	6366.26
452.68	6462.22
452.86	6331.15
453.05	6487.96
453.23	6544.14
453.42	6356.90
453.60	6548.82
453.78	6682.23
453.97	6780.53
454.15	6576.91
454.34	6654.14
454.52	6806.28
454.70	6857.77
454.89	6846.07
455.07	6703.29
455.26	6920.96
455.44	6815.64
455.62	6920.96
455.81	6946.71
455.99	6960.75
456.17	6991.18
456.36	7124.59
456.54	6977.14
456.73	7148.00
456.91	7250.98
457.09	7192.47
457.28	7304.81
457.46	7389.07
457.64	7234.60
457.83	7225.23
458.01	7206.51
458.19	7279.07
458.38	7468.65
458.56	7475.67
458.74	7499.08
458.93	7382.05
459.11	7274.38
459.29	7302.47
459.48	7489.71
459.66	7400.77
459.84	7613.76
460.03	7449.93
460.21	7499.08
460.39	7913.35
460.57	7597.38
460.76	7669.94
460.94	7824.41
461.12	7756.54
461.31	7597.38
461.49	7852.50
461.67	7709.72
461.85	7922.71
462.04	7857.18
462.22	8140.38
462.40	7847.82
462.59	8032.72
462.77	7967.18
462.95	8161.45
463.13	7861.86
463.32	8016.33
463.50	8095.91
463.68	8147.40
463.86	8112.30
464.05	7850.16
464.23	7896.97
464.41	8079.53
464.59	8182.51
464.78	8430.61
464.96	8367.42
465.14	8124.00
465.32	8215.28
465.50	8388.48
465.69	8250.39
465.87	8194.22
466.05	8273.79
466.23	8119.32
466.41	8360.39
466.60	8678.71
466.78	8428.27
466.96	8339.33
467.14	8336.99
467.32	8313.58
467.51	8524.23
467.69	8191.88
467.87	8608.49
468.05	8695.09
468.23	8631.90
468.41	8421.25
468.60	8437.63
468.78	8582.74
468.96	8636.58
469.14	8887.01
469.32	8954.89
469.50	8521.89
469.69	8980.64
469.87	8884.67
470.05	8816.80
470.23	8896.38
470.41	8851.91
470.59	8917.44
470.77	8931.48
470.95	9018.08
471.14	9158.52
471.32	8961.91
471.50	9467.47
471.68	9158.52
471.86	9240.44
472.04	9170.22
472.22	9467.47
472.40	9263.84
472.58	9310.65
472.77	9371.50
472.95	9769.40
473.13	9682.80
473.31	9589.17
473.49	9364.48
473.67	9589.17
473.85	9664.07
474.03	9994.09
474.21	9888.76
474.39	10127.50
474.57	9966.00
474.75	9874.72
474.93	10307.72
475.12	10001.11
475.30	10267.93
475.48	10200.05
475.66	10195.37
475.84	10195.37
476.02	10167.29
476.20	10230.48
476.38	10494.96
476.56	10834.34
476.74	10670.50
476.92	10677.52
477.10	10740.72
477.28	10932.64
477.46	10895.19
477.64	10984.13
477.82	11150.31
478.00	11332.87
478.18	11243.93
478.36	11316.49
478.54	11501.39
478.72	11438.20
478.90	11473.31
479.08	11705.02
479.26	11770.55
479.44	11878.22
479.62	11770.55
479.80	11978.86
479.98	12095.89
480.16	12299.52
480.34	12549.95
480.52	12423.56
480.70	12301.86
480.88	12231.64
481.06	12641.23
481.24	12531.23
481.41	12989.97
481.59	13006.36
481.77	13268.50
481.95	13128.06
482.13	13029.76
482.31	13076.57
482.49	13621.92
482.67	13605.53
482.85	13490.85
483.03	13642.98
483.21	13930.87
483.39	13975.34
483.57	14104.07
483.74	14253.86
483.92	14331.10
484.10	13994.06
484.28	14230.46
484.46	14450.47
484.64	14633.03
484.82	14714.95
485.00	14764.10
485.18	15108.16
485.35	15398.38
485.53	14808.57
485.71	14923.26
485.89	15445.20
486.07	15323.49
486.25	15321.15
486.43	15611.37
486.61	15620.74
486.78	15927.35
486.96	15957.77
487.14	16168.42
487.32	16074.80
487.50	16318.22
487.68	16386.09
487.85	16718.45
488.03	16620.14
488.21	17090.59
488.39	17074.21
488.57	16868.24
488.75	17261.45
488.92	17369.12
489.10	17322.30
489.28	17687.43
489.46	17774.03
489.64	17998.72
489.81	18120.43
489.99	18558.11
490.17	18480.87
490.35	18333.42
490.53	18349.80
490.70	18579.17
490.88	18743.01
491.06	18731.31
491.24	19190.05
491.41	19080.05
491.59	19056.64
491.77	19044.94
491.95	19257.93
492.13	19346.87
492.30	19833.70
492.48	19793.91
492.66	19679.22
492.84	19763.48
493.01	20126.27
493.19	20229.25
493.37	20271.38
493.54	20575.65
493.72	20842.47
493.90	20491.39
494.08	20554.58
494.25	20884.60
494.43	21071.84
494.61	21240.36
494.79	21488.46
494.96	21338.66
495.14	21661.66
495.32	21685.06
495.49	21385.47
495.67	21675.70
495.85	21979.97
496.02	22338.07
496.20	22352.12
496.38	22237.43
496.55	22309.99
496.73	23047.26
496.91	22579.15
497.09	22611.92
497.26	23068.32
497.44	22855.33
497.62	22974.70
497.79	23379.61
497.97	23321.10
498.14	23119.81
498.32	23630.05
498.50	23655.79
498.67	24020.92
498.85	23821.97
499.03	24067.73
499.20	24030.28
499.38	24006.87
499.56	24383.70
499.73	24545.20
499.91	24533.50
500.08	24819.04
500.26	24233.91
500.44	24397.74
500.61	24767.55
500.79	24580.31
500.97	24702.01
501.14	25296.51
501.32	25252.04
501.49	24858.83
501.67	24870.53
501.84	25450.99
502.02	25092.88
502.20	25467.37
502.37	25500.14
502.55	25549.29
502.72	25570.35
502.90	26033.78
503.07	25781.00
503.25	25568.01
503.43	25839.51
503.60	26080.59
503.78	25926.11
503.95	26045.48
504.13	26260.81
504.30	26497.20
504.48	26677.43
504.65	26632.96
504.83	26747.64
505.01	26855.31
505.18	26661.04
505.36	26876.37
505.53	27208.73
505.71	27129.15
505.88	27154.90
506.06	26974.67
506.23	27395.97
506.41	26838.92
506.58	27358.52
506.76	27672.15
506.93	28065.36
507.11	27730.67
507.28	27728.33
507.46	28114.52
507.63	27894.50
507.81	27833.65
507.98	27562.15
508.16	27934.29
508.33	28503.04
508.50	28718.37
508.68	28556.88
508.85	29027.32
509.03	28556.88
509.20	29022.64
509.38	28882.21
509.55	28994.56
509.73	28912.64
509.90	29373.72
510.08	28950.09
510.25	29088.18
510.42	29174.78
510.60	29436.92
510.77	29575.01
510.95	29874.60
511.12	29551.60
511.30	29867.58
511.47	29776.30
511.64	30089.93
511.82	30221.00
511.99	29820.77
512.17	29771.61
512.34	29809.06
512.51	30649.32
512.69	30562.72
512.86	30462.07
513.04	30419.94
513.21	30464.41
513.38	30326.32
513.56	30429.30
513.73	30654.00
513.90	30761.66
514.08	30504.20
514.25	30735.92
514.43	30583.78
514.60	31122.10
514.77	30794.43
514.95	31536.38
515.12	31374.88
515.29	31278.92
515.47	31887.46
515.64	31644.04
515.81	31569.15
515.99	31173.60
516.16	31522.34
516.33	31704.90
516.51	31871.07
516.68	31395.95
516.85	31534.04
517.03	31931.93
517.20	31793.84
517.37	32123.85
517.54	32058.32
517.72	32243.22
517.89	31908.52
518.06	32140.24
518.24	32275.99
518.41	31999.80
518.58	32397.70
518.75	32158.96
518.93	32421.10
519.10	32481.95
519.27	32762.82
519.45	32856.44
519.62	33280.08
519.79	32788.56
519.96	32980.49
520.14	33226.24
520.31	32921.98
520.48	33425.19
520.65	33500.09
520.83	33275.40
521.00	33645.20
521.17	33565.62
521.34	33525.83
521.52	33504.77
521.69	33951.81
521.86	33879.25
522.03	33902.66
522.20	33834.78
522.38	33895.64
522.55	34155.44
522.72	33886.28
522.89	34103.95
523.07	34075.86
523.24	34459.71
523.41	34623.54
523.58	34286.51
523.75	34546.31
523.92	34642.27
524.10	34576.73
524.27	34857.60
524.44	34703.12
524.61	34923.13
524.78	35068.25
524.96	34827.17
525.13	35365.49
525.30	35232.08
525.47	35620.61
525.64	35316.34
525.81	35037.82
525.98	35407.62
526.16	35274.21
526.33	35496.56
526.50	35700.19
526.67	35349.11
526.84	35428.69
527.01	35150.17
527.18	35587.85
527.36	35466.14
527.53	35459.12
527.70	36009.14
527.87	35962.33
528.04	35730.62
528.21	35812.54
528.38	35725.94
528.55	36044.25
528.72	36407.03
528.89	36634.06
529.07	36376.61
529.24	35992.76
529.41	36383.63
529.58	36392.99
529.75	36222.13
529.92	36896.20
530.09	37106.85
530.26	36580.23
530.43	36531.08
530.60	36659.81
530.77	36432.78
530.94	36868.12
531.11	37081.11
531.28	36893.86
531.46	37034.30
531.63	37177.07
531.80	37006.21
531.97	36912.59
532.14	36975.78
532.31	37256.65
532.48	37366.65
532.65	37542.19
532.82	37479.00
532.99	37483.68
533.16	37179.41
533.33	37605.39
533.50	37916.68
533.67	37689.65
533.84	37511.77
534.01	37572.62
534.18	37544.53
534.35	38211.59
534.52	37635.81
534.69	38293.50
534.86	38363.72
535.03	37881.57
535.20	38195.20
535.37	38469.04
535.54	38705.44
535.71	38099.24
535.88	38298.19
536.05	38305.21
536.22	38604.80
536.38	38450.32
536.55	38171.80
536.72	38759.27
536.89	38274.78
537.06	38291.16
537.23	38321.59
537.40	38808.42
537.57	38560.33
537.74	38930.13
537.91	38831.83
538.08	38993.32
538.25	38820.13
538.42	39150.14
538.59	39042.48
538.75	38845.87
538.92	39068.22
539.09	38810.76
539.26	38747.57
539.43	39203.97
539.60	39058.86
539.77	38483.09
539.94	39138.44
540.11	38932.47
540.28	39206.31
540.44	39311.64
540.61	39248.44
540.78	39412.28
540.95	39342.06
541.12	39206.31
541.29	39473.13
541.46	39454.41
541.62	39288.23
541.79	39669.74
541.96	39510.58
542.13	39566.76
542.30	39178.23
542.47	39943.58
542.63	40086.36
542.80	39639.31
542.97	40156.57
543.14	40769.79
543.31	40533.40
543.48	40493.61
543.64	40514.67
543.81	40914.90
543.98	40533.40
544.15	40423.39
544.32	40800.22
544.48	41144.28
544.65	40561.48
544.82	40610.64
544.99	40371.90
545.16	40217.43
545.32	40765.11
545.49	40926.61
545.66	41076.40
545.83	40964.06
546.00	41193.43
546.16	41132.57
546.33	40774.47
546.50	40746.39
546.67	41043.63
546.83	40996.82
547.00	41312.80
547.17	41141.94
547.34	41055.34
547.50	41020.23
547.67	41509.40
547.84	41179.39
548.00	41429.82
548.17	41858.14
548.34	41127.89
548.51	41642.81
548.67	41675.58
548.84	41680.26
549.01	41088.10
549.18	41844.10
549.34	41907.29
549.51	41825.37
549.68	41551.53
549.84	41797.29
550.01	41977.51
550.18	41722.39
550.34	41996.23
550.51	42103.90
550.68	42064.11
550.84	41532.81
551.01	42167.09
551.18	41958.78
551.34	42019.64
551.51	41874.52
551.68	42309.86
551.84	41607.70
552.01	41993.89
552.18	42253.69
552.34	41820.69
552.51	42052.41
552.68	41792.61
552.84	42213.90
553.01	42120.28
553.18	42497.11
553.34	42447.96
553.51	41631.11
553.67	42347.31
553.84	42597.75
554.01	42611.79
554.17	42689.03
554.34	42962.87
554.51	42658.60
554.67	42955.85
554.84	42110.92
555.00	42160.07
555.17	42342.63
555.33	42494.77
555.50	42436.25
555.67	42543.92
555.83	42408.17
556.00	42831.80
556.16	42752.23
556.33	42827.12
556.50	42525.19
556.66	43089.26
556.83	42824.78
556.99	42911.38
557.16	43248.42
557.32	42728.82
557.49	43166.50
557.65	43012.02
557.82	43065.86
557.98	43166.50
558.15	43206.29
558.32	43086.92
558.48	42845.85
558.65	42630.52
558.81	42815.42
558.98	43297.57
559.14	43178.20
559.31	42960.53
559.47	43229.69
559.64	43723.55
559.80	43416.94
559.97	43391.19
560.13	42806.06
560.30	43339.70
560.46	42965.21
560.63	43370.13
560.79	43475.45
560.96	43217.99
561.12	43643.97
561.29	43384.17
561.45	43199.27
561.61	43578.43
561.78	43419.28
561.94	43402.89
562.11	43779.72
562.27	43351.40
562.44	43597.16
562.60	43779.72
562.77	43550.35
562.93	43744.61
563.10	43714.19
563.26	43475.45
563.42	43945.90
563.59	43522.26
563.75	43421.62
563.92	43971.64
564.08	43611.20
564.24	44093.35
564.41	43618.22
564.57	43660.35
564.74	43819.51
564.90	43412.26
565.07	43679.08
565.23	43793.76
565.39	43435.66
565.56	44252.51
565.72	43515.24
565.88	43421.62
566.05	43580.78
566.21	44048.88
566.38	43810.15
566.54	43786.74
566.70	43695.46
566.87	44334.43
567.03	44037.18
567.19	44236.12
567.36	43828.87
567.52	43714.19
567.68	44184.63
567.85	43505.88
568.01	44002.07
568.17	43889.73
568.34	43910.79
568.50	43941.22
568.66	44128.46
568.83	43632.27
568.99	43735.25
569.15	43922.49
569.32	44095.69
569.48	43887.39
569.64	44013.77
569.81	44306.34
569.97	43489.49
570.13	43950.58
570.30	43608.86
570.46	43711.84
570.62	43835.89
570.78	43707.16
570.95	43910.79
571.11	44100.37
571.27	43859.30
571.43	44079.31
571.60	43622.90
571.76	44098.03
571.92	44406.98
572.09	44198.68
572.25	44203.36
572.41	43999.73
572.57	43973.98
572.74	43973.98
572.90	44378.90
573.06	44240.81
573.22	44168.25
573.38	44219.74
573.55	44119.10
573.71	44425.71
573.87	44292.30
574.03	43924.83
574.20	44032.50
574.36	43976.33
574.52	44392.94
574.68	44053.56
574.84	44292.30
575.01	44161.23
575.17	44093.35
575.33	44229.10
575.49	44093.35
575.65	44137.82
575.82	44458.48
575.98	44210.38
576.14	44325.07
576.30	44591.89
576.46	44119.10
576.62	43861.64
576.79	44353.15
576.95	44023.14
577.11	44339.11
577.27	44287.62
577.43	44296.98
577.59	44367.20
577.75	44336.77
577.92	43908.45
578.08	44453.79
578.24	43936.54
578.40	44030.16
578.56	44175.27
578.72	44439.75
578.88	44179.95
579.04	44121.44
579.21	43978.67
579.37	44208.04
579.53	44399.96
579.69	43983.35
579.85	44364.85
580.01	44222.08
580.17	44261.87
580.33	44706.57
580.49	44348.47
580.65	44456.14
580.82	44320.38
580.98	44121.44
581.14	44060.58
581.30	44479.54
581.46	44219.74
581.62	44570.82
581.78	44165.91
581.94	44446.77
582.10	44304.00
582.26	44208.04
582.42	44737.00
582.58	44399.96
582.74	44121.44
582.90	44575.50
583.06	44701.89
583.22	44470.18
583.38	44767.43
583.54	44940.63
583.70	44313.36
583.86	44142.50
584.02	44030.16
584.18	44402.30
584.34	44432.73
584.50	44458.48
584.66	44690.19
584.82	44105.06
584.98	44533.37
585.14	44980.42
585.30	44126.12
585.46	44638.70
585.62	44034.84
585.78	44774.45
585.94	44299.32
586.10	44430.39
586.26	44161.23
586.42	44458.48
586.58	44509.97
586.74	44713.59
586.90	44430.39
587.06	44329.75
587.22	44271.23
587.38	44392.94
587.54	44765.09
587.70	44472.52
587.86	44603.59
588.02	44610.61
588.18	44264.21
588.34	44488.90
588.49	43842.92
588.65	44186.97
588.81	44275.91
588.97	44198.68
589.13	44076.97
589.29	44725.30
589.45	44327.41
589.61	44666.78
589.77	44891.48
589.93	44453.79
590.08	44673.81
590.24	44856.37
