SpectraSuite Data File
++++++++++++++++++++++++++++++++++++
Date: Fri Oct 25 11:34:50 EDT 2013
User: price-jones
Dark Spectrum Present: No
Reference Spectrum Present: No
Number of Sampled Component Spectra: 1
Spectrometers: USB2+H05261
Integration Time (usec): 100000 (USB2+H05261)
Spectra Averaged: 1 (USB2+H05261)
Boxcar Smoothing: 0 (USB2+H05261)
Correct for Electrical Dark: No (USB2+H05261)
Strobe/Lamp Enabled: No (USB2+H05261)
Correct for Detector Non-linearity: No (USB2+H05261)
Correct for Stray Light: No (USB2+H05261)
Number of Pixels in Processed Spectrum: 2048
>>>>>Begin Processed Spectral Data<<<<<
365.73	245.76
365.92	245.76
366.12	245.76
366.32	201.29
366.52	231.71
366.72	177.88
366.91	102.98
367.11	159.16
367.31	147.45
367.51	168.52
367.70	212.99
367.90	196.60
368.10	184.90
368.30	198.95
368.49	191.92
368.69	191.92
368.89	175.54
369.09	154.48
369.28	280.86
369.48	217.67
369.68	198.95
369.87	248.10
370.07	255.12
370.27	294.91
370.47	299.59
370.66	430.66
370.86	571.09
371.06	524.28
371.25	575.77
371.45	554.71
371.65	578.11
371.84	554.71
372.04	507.90
372.24	575.77
372.44	540.66
372.63	636.63
372.83	596.84
373.03	622.58
373.22	578.11
373.42	571.09
373.62	568.75
373.81	638.97
374.01	688.12
374.21	615.56
374.40	573.43
374.60	643.65
374.79	596.84
374.99	631.94
375.19	617.90
375.38	638.97
375.58	594.50
375.78	685.78
375.97	669.39
376.17	681.10
376.37	589.82
376.56	723.23
376.76	664.71
376.95	702.16
377.15	650.67
377.35	613.22
377.54	746.63
377.74	578.11
377.93	657.69
378.13	615.56
378.33	664.71
378.52	678.76
378.72	681.10
378.91	669.39
379.11	667.05
379.31	636.63
379.50	732.59
379.70	720.88
379.89	744.29
380.09	660.03
380.28	723.23
380.48	716.20
380.68	667.05
380.87	653.01
381.07	723.23
381.26	660.03
381.46	727.91
381.65	779.40
381.85	744.29
382.04	798.12
382.24	798.12
382.43	770.04
382.63	781.74
382.83	772.38
383.02	791.10
383.22	781.74
383.41	765.36
383.61	816.85
383.80	830.89
384.00	807.48
384.19	763.01
384.39	814.51
384.58	805.14
384.78	800.46
384.97	863.66
385.17	877.70
385.36	835.57
385.56	875.36
385.75	816.85
385.95	779.40
386.14	873.02
386.34	763.01
386.53	847.27
386.72	842.59
386.92	858.98
387.11	912.81
387.31	851.96
387.50	812.17
387.70	875.36
387.89	908.13
388.09	898.77
388.28	966.64
388.48	910.47
388.67	896.43
388.86	936.21
389.06	990.05
389.25	840.25
389.45	910.47
389.64	966.64
389.84	957.28
390.03	922.17
390.22	957.28
390.42	912.81
390.61	950.26
390.81	961.96
391.00	938.55
391.19	997.07
391.39	945.58
391.58	980.68
391.78	1078.99
391.97	985.37
392.16	919.83
392.36	1011.11
392.55	933.87
392.75	968.98
392.94	983.02
393.13	1071.97
393.33	1015.79
393.52	997.07
393.71	1029.84
393.91	1034.52
394.10	957.28
394.29	985.37
394.49	999.41
394.68	1076.65
394.88	1083.67
395.07	1156.22
395.26	1125.80
395.46	1060.26
395.65	1149.20
395.84	1039.20
396.04	1174.95
396.23	1135.16
396.42	1071.97
396.62	1179.63
396.81	1188.99
397.00	1116.44
397.19	1214.74
397.39	1200.69
397.58	1181.97
397.77	1188.99
397.97	1188.99
398.16	1186.65
398.35	1315.38
398.55	1238.14
398.74	1256.87
398.93	1273.25
399.12	1181.97
399.32	1240.48
399.51	1329.42
399.70	1291.98
399.90	1270.91
400.09	1188.99
400.28	1366.87
400.47	1268.57
400.67	1320.06
400.86	1362.19
401.05	1397.30
401.24	1425.39
401.44	1420.71
401.63	1411.34
401.82	1401.98
402.01	1350.49
402.21	1301.34
402.40	1423.05
402.59	1366.87
402.78	1472.20
402.97	1488.58
403.17	1418.36
403.36	1437.09
403.55	1474.54
403.74	1537.73
403.93	1519.01
404.13	1568.16
404.32	1481.56
404.51	1575.18
404.70	1544.75
404.89	1490.92
405.09	1516.67
405.28	1575.18
405.47	1591.56
405.66	1614.97
405.85	1636.03
406.05	1570.50
406.24	1584.54
406.43	1640.72
406.62	1675.82
406.81	1717.95
407.00	1643.06
407.20	1629.01
407.39	1727.32
407.58	1739.02
407.77	1755.40
407.96	1701.57
408.15	1734.34
408.34	1811.57
408.54	1792.85
408.73	1764.76
408.92	1851.36
409.11	1799.87
409.30	1781.15
409.49	1907.54
409.68	1968.39
409.87	1909.88
410.07	1884.13
410.26	1970.73
410.45	1851.36
410.64	2003.50
410.83	1942.64
411.02	1977.75
411.21	2031.58
411.40	2001.16
411.59	2148.61
411.78	2125.21
411.98	2015.20
412.17	2148.61
412.36	2101.80
412.55	2165.00
412.74	2181.38
412.93	2282.02
413.12	2345.22
413.31	2401.39
413.50	2265.64
413.69	2312.45
413.88	2392.03
414.07	2406.07
414.26	2389.69
414.45	2385.01
414.64	2487.99
414.83	2492.67
415.02	2497.35
415.22	2473.95
415.41	2560.55
415.60	2345.22
415.79	2548.84
415.98	2516.08
416.17	2644.81
416.36	2682.25
416.55	2626.08
416.74	2562.89
416.93	2597.99
417.12	2586.29
417.31	2745.45
417.50	2649.49
417.69	2745.45
417.88	2740.77
418.07	2738.43
418.26	2853.11
418.45	2796.94
418.64	2890.56
418.83	2970.14
419.02	2836.73
419.21	2935.03
419.39	2984.18
419.58	2937.37
419.77	2958.44
419.96	2981.84
420.15	2979.50
420.34	2988.86
420.53	2930.35
420.72	3035.67
420.91	3126.96
421.10	2888.22
421.29	3133.98
421.48	3059.08
421.67	2972.48
421.86	3166.74
422.05	3251.00
422.24	3162.06
422.43	3201.85
422.61	3232.28
422.80	3330.58
422.99	3070.78
423.18	3295.47
423.37	3346.97
423.56	3220.58
423.75	3269.73
423.94	3220.58
424.13	2965.46
424.32	3136.32
424.50	3236.96
424.69	3279.09
424.88	3246.32
425.07	3314.20
425.26	3344.63
425.45	3302.50
425.64	3286.11
425.83	3218.24
426.01	3300.16
426.20	3229.94
426.39	3375.05
426.58	3311.86
426.77	3363.35
426.96	3375.05
427.15	3199.51
427.33	3410.16
427.52	3325.90
427.71	3510.80
427.90	3412.50
428.09	3452.29
428.28	3405.48
428.46	3562.30
428.65	3494.42
428.84	3571.66
429.03	3604.42
429.22	3442.93
429.40	3536.55
429.59	3606.77
429.78	3428.88
429.97	3534.21
430.16	3571.66
430.34	3620.81
430.53	3655.92
430.72	3667.62
430.91	3676.98
431.10	3506.12
431.28	3796.35
431.47	3763.58
431.66	3810.39
431.85	3735.50
432.03	3655.92
432.22	3810.39
432.41	3854.86
432.60	3880.61
432.79	3880.61
432.97	3988.27
433.16	3861.88
433.35	3850.18
433.54	3908.69
433.72	3985.93
433.91	3911.04
434.10	3920.40
434.28	3915.72
434.47	4009.34
434.66	4039.76
434.85	4058.49
435.03	4056.15
435.22	4084.23
435.41	4161.47
435.59	4067.85
435.78	4304.25
435.97	4287.86
436.16	4180.20
436.34	4112.32
436.53	4234.03
436.72	4304.25
436.90	4248.07
437.09	4306.59
437.28	4124.02
437.46	4332.33
437.65	4402.55
437.84	4411.91
438.02	4456.38
438.21	4362.76
438.40	4231.69
438.58	4493.83
438.77	4528.94
438.96	4456.38
439.14	4573.41
439.33	4540.64
439.52	4692.77
439.70	4674.05
439.89	4720.86
440.08	4683.41
440.26	4681.07
440.45	4695.11
440.63	4835.55
440.82	4968.96
441.01	4844.91
441.19	4980.66
441.38	4915.12
441.57	4994.70
441.75	5076.62
441.94	4983.00
442.12	4957.25
442.31	5203.01
442.50	5212.37
442.68	5109.39
442.87	5146.84
443.05	5165.56
443.24	5139.82
443.43	5163.22
443.61	5081.30
443.80	5355.15
443.98	5167.90
444.17	5064.92
444.35	5270.89
444.54	5514.30
444.73	5313.02
444.91	5238.12
445.10	5385.57
445.28	5210.03
445.47	5315.36
445.65	5439.40
445.84	5205.35
446.02	5371.53
446.21	5387.91
446.39	5430.04
446.58	5268.55
446.77	5448.77
446.95	5345.78
447.14	5404.30
447.32	5530.69
447.51	5493.24
447.69	5448.77
447.88	5481.53
448.06	5666.44
448.25	5465.15
448.43	5507.28
448.62	5526.00
448.80	5528.35
448.99	5507.28
449.17	5526.00
449.36	5612.60
449.54	5598.56
449.73	5678.14
449.91	5687.50
450.10	5750.70
450.28	5713.25
450.46	5746.02
450.65	5729.63
450.83	5727.29
451.02	5785.80
451.20	5909.85
451.39	5682.82
451.57	5895.81
451.76	5799.85
451.94	5879.43
452.13	6078.37
452.31	5799.85
452.49	5909.85
452.68	5874.74
452.86	5951.98
453.05	5921.56
453.23	6047.94
453.42	5947.30
453.60	6118.16
453.78	6181.35
453.97	6073.69
454.15	6125.18
454.34	5928.58
454.52	6054.97
454.70	6200.08
454.89	6211.78
455.07	6186.04
455.26	6256.25
455.44	6249.23
455.62	6277.32
455.81	6314.77
455.99	6373.28
456.17	6530.09
456.36	6551.16
456.54	6572.22
456.73	6537.12
456.91	6502.01
457.09	6553.50
457.28	6633.08
457.46	6534.78
457.64	6794.58
457.83	6736.06
458.01	6612.01
458.19	6684.57
458.38	6754.79
458.56	6766.49
458.74	6780.53
458.93	6736.06
459.11	6764.15
459.29	6707.98
459.48	6696.27
459.66	6911.60
459.84	6867.13
460.03	6930.33
460.21	7009.90
460.39	7019.27
460.57	7129.27
460.76	7002.88
460.94	7148.00
461.12	7007.56
461.31	7110.55
461.49	7019.27
461.67	6977.14
461.85	7365.67
462.04	7138.63
462.22	7403.11
462.40	7300.13
462.59	7243.96
462.77	7248.64
462.95	7281.41
463.13	7239.28
463.32	7283.75
463.50	7370.35
463.68	7618.44
463.86	7588.02
464.05	7307.15
464.23	7335.24
464.41	7400.77
464.59	7503.76
464.78	7653.55
464.96	7583.34
465.14	7536.52
465.32	7541.21
465.50	7639.51
465.69	7632.49
465.87	7625.47
466.05	7559.93
466.23	7630.15
466.41	7714.41
466.60	7831.43
466.78	7606.74
466.96	7672.28
467.14	7819.73
467.32	7866.54
467.51	8021.02
467.69	7737.81
467.87	7695.68
468.05	7896.97
468.23	7971.86
468.41	7861.86
468.60	7906.33
468.78	8072.51
468.96	7728.45
469.14	8131.02
469.32	8093.57
469.50	7896.97
469.69	8079.53
469.87	8074.85
470.05	8489.12
470.23	8250.39
470.41	8255.07
470.59	8306.56
470.77	8119.32
470.95	8386.14
471.14	8533.59
471.32	8210.60
471.50	8528.91
471.68	8341.67
471.86	8704.45
472.04	8671.68
472.22	8901.06
472.40	8819.14
472.58	8681.05
472.77	8641.26
472.95	8753.60
473.13	9128.09
473.31	8975.95
473.49	8884.67
473.67	8791.05
473.85	9076.60
474.03	9266.18
474.21	8999.36
474.39	9228.73
474.57	9240.44
474.75	9214.69
474.93	9448.74
475.12	9233.41
475.30	9345.76
475.48	9261.50
475.66	9240.44
475.84	9371.50
476.02	9628.96
476.20	9540.02
476.38	9893.44
476.56	9900.47
476.74	9905.15
476.92	9851.31
477.10	9905.15
477.28	10050.26
477.46	10202.40
477.64	10085.37
477.82	10281.97
478.00	10438.79
478.18	10352.19
478.36	10588.58
478.54	10703.27
478.72	10726.68
478.90	10696.25
479.08	10693.91
479.26	11016.90
479.44	11035.63
479.62	10991.16
479.80	11262.66
479.98	11468.62
480.16	11454.58
480.34	11316.49
480.52	11466.28
480.70	11449.90
480.88	11548.20
481.06	11768.21
481.24	11569.27
481.41	11660.55
481.59	12133.34
481.77	12009.29
481.95	12098.23
482.13	12304.20
482.31	12168.45
482.49	12479.74
482.67	12238.66
482.85	12812.09
483.03	12746.56
483.21	13041.46
483.39	12987.63
483.57	12842.52
483.74	13322.33
483.92	13135.09
484.10	13022.74
484.28	13406.59
484.46	13488.51
484.64	13965.98
484.82	13614.90
485.00	13743.63
485.18	14125.13
485.35	14209.39
485.53	14106.41
485.71	14293.65
485.89	14539.41
486.07	14534.73
486.25	14429.40
486.43	14492.60
486.61	14885.81
486.78	14649.41
486.96	14679.84
487.14	15136.24
487.32	15037.94
487.50	15468.60
487.68	15431.15
487.85	15506.05
488.03	15679.25
488.21	16065.44
488.39	15925.00
488.57	15899.26
488.75	16435.24
488.92	16060.76
489.10	16383.75
489.28	16430.56
489.46	16746.53
489.64	16538.23
489.81	17493.16
489.99	17193.58
490.17	17046.12
490.35	17359.75
490.53	17392.52
490.70	17404.22
490.88	17675.73
491.06	17621.89
491.24	17619.55
491.41	18171.92
491.59	17926.16
491.77	17647.64
491.95	18347.46
492.13	18649.39
492.30	18274.90
492.48	18288.95
492.66	18434.06
492.84	18827.27
493.01	18904.51
493.19	18956.00
493.37	19293.04
493.54	19176.01
493.72	19639.44
493.90	19122.18
494.08	19398.36
494.25	19719.01
494.43	19543.47
494.61	19847.74
494.79	20060.73
494.96	19941.36
495.14	20119.24
495.32	20327.55
495.49	20357.98
495.67	20325.21
495.85	20697.36
496.02	20900.98
496.20	20856.51
496.38	21092.91
496.55	20599.05
496.73	21214.62
496.91	21186.53
497.09	21535.27
497.26	21167.80
497.44	21703.79
497.62	21949.54
497.79	21898.05
497.97	21647.61
498.14	22066.57
498.32	22277.22
498.50	22284.24
498.67	22263.18
498.85	22328.71
499.03	22574.47
499.20	22511.27
499.38	22565.10
499.56	23005.13
499.73	22899.80
499.91	23138.54
500.08	23417.06
500.26	22963.00
500.44	23168.96
500.61	22817.88
500.79	22878.74
500.97	23417.06
501.14	23506.00
501.32	23508.34
501.49	23742.39
501.67	23742.39
501.84	24189.44
502.02	23859.42
502.20	24334.55
502.37	24257.31
502.55	24250.29
502.72	24503.07
502.90	24254.97
503.07	24400.08
503.25	24446.90
503.43	24224.54
503.60	24812.02
503.78	25006.28
503.95	24629.46
504.13	25022.67
504.30	24945.43
504.48	25074.16
504.65	25551.63
504.83	25338.64
505.01	25706.10
505.18	25376.09
505.36	25591.42
505.53	25523.54
505.71	25310.55
505.88	25605.46
506.06	25383.11
506.23	25998.67
506.41	25694.40
506.58	26003.35
506.76	25916.75
506.93	26586.15
507.11	26059.52
507.28	26492.52
507.46	26394.22
507.63	26595.51
507.81	26590.83
507.98	26621.25
508.16	26890.41
508.33	26752.32
508.50	26623.59
508.68	26806.16
508.85	27393.63
509.03	27096.38
509.20	27264.90
509.38	27667.47
509.55	27889.82
509.73	27765.78
509.90	27744.71
510.08	27285.97
510.25	27807.90
510.42	27407.67
510.60	27990.47
510.77	28276.01
510.95	28379.00
511.12	28229.20
511.30	28268.99
511.47	27992.81
511.64	28594.32
511.82	28964.13
511.99	28629.43
512.17	28386.02
512.34	28449.21
512.51	28903.28
512.69	28788.59
512.86	28540.49
513.04	29319.89
513.21	28994.56
513.38	29132.65
513.56	29209.89
513.73	29399.47
513.90	29057.75
514.08	29289.46
514.25	29591.39
514.43	29584.37
514.60	29778.64
514.77	29642.88
514.95	29757.57
515.12	29736.51
515.29	29759.91
515.47	30075.88
515.64	30223.34
515.81	29968.22
515.99	30380.15
516.16	30080.56
516.33	30403.56
516.51	30363.77
516.68	30419.94
516.85	30433.99
517.03	30871.67
517.20	30677.40
517.37	30881.03
517.54	30726.55
517.72	30623.57
517.89	30698.47
518.06	31126.78
518.24	31311.69
518.41	30862.30
518.58	31241.47
518.75	30944.22
518.93	31400.63
519.10	31435.74
519.27	31189.98
519.45	31363.18
519.62	31590.21
519.79	31693.19
519.96	31938.95
520.14	32086.40
520.31	31732.98
520.48	31889.80
520.65	31812.56
520.83	32524.08
521.00	32175.34
521.17	32212.79
521.34	32147.26
521.52	32432.80
521.69	32105.13
521.86	32683.24
522.03	32676.22
522.20	32751.12
522.38	32811.97
522.55	33127.94
522.72	32809.63
522.89	32514.72
523.07	33392.42
523.24	33125.60
523.41	33193.48
523.58	32769.84
523.75	33773.93
523.92	33048.36
524.10	33352.63
524.27	33858.19
524.44	33577.33
524.61	33439.23
524.78	33584.35
524.96	33755.21
525.13	33818.40
525.30	33886.28
525.47	33570.30
525.64	34300.55
525.81	34199.91
525.98	34171.82
526.16	33970.54
526.33	34033.73
526.50	34305.23
526.67	33933.09
526.84	34611.84
527.01	34340.34
527.18	34405.88
527.36	34424.60
527.53	34356.72
527.70	34944.20
527.87	34888.03
528.04	34789.72
528.21	34429.28
528.38	34553.33
528.55	34754.61
528.72	34958.24
528.89	34799.08
529.07	34841.21
529.24	34876.32
529.41	35466.14
529.58	35089.31
529.75	35021.44
529.92	35091.65
530.09	35629.98
530.26	35204.00
530.43	35702.53
530.60	35201.66
530.77	35435.71
530.94	35487.20
531.11	35409.96
531.28	35613.59
531.46	35482.52
531.63	35653.38
531.80	35824.24
531.97	36023.19
532.14	36229.15
532.31	36086.38
532.48	36177.66
532.65	36463.21
532.82	36327.45
532.99	36048.93
533.16	36275.96
533.33	36542.78
533.50	36744.07
533.67	36320.43
533.84	36451.50
534.01	36774.50
534.18	36428.10
534.35	36659.81
534.52	36940.68
534.69	37090.47
534.86	36683.22
535.03	36844.71
535.20	36928.97
535.37	37130.26
535.54	37123.24
535.71	36545.12
535.88	37268.35
536.05	37254.31
536.22	37439.21
536.38	36926.63
536.55	37638.15
536.72	37123.24
536.89	36837.69
537.06	37174.73
537.23	37584.32
537.40	37287.07
537.57	37418.14
537.74	37441.55
537.91	37776.25
538.08	38153.07
538.25	37610.07
538.42	37830.08
538.59	37699.01
538.75	37926.04
538.92	38134.35
539.09	38216.27
539.26	37638.15
539.43	38136.69
539.60	37942.42
539.77	38061.79
539.94	38199.88
540.11	38838.85
540.28	38043.07
540.44	38249.03
540.61	38672.67
540.78	38033.71
540.95	38672.67
541.12	38443.30
541.29	38352.02
541.46	37858.17
541.62	38462.02
541.79	39023.75
541.96	38394.15
542.13	38953.54
542.30	38504.15
542.47	38731.18
542.63	38953.54
542.80	39145.46
542.97	39456.75
543.14	39686.12
543.31	39372.49
543.48	39192.27
543.64	39416.96
543.81	39232.06
543.98	39384.19
544.15	39323.34
544.32	39604.20
544.48	40161.25
544.65	39416.96
544.82	40072.31
544.99	39178.23
545.16	39454.41
545.32	39541.01
545.49	40208.06
545.66	40313.39
545.83	39901.45
546.00	40615.32
546.16	40137.85
546.33	40018.48
546.50	39901.45
546.67	40130.83
546.83	39512.92
547.00	40170.61
547.17	40069.97
547.34	39896.77
547.50	40072.31
547.67	40402.33
547.84	40189.34
548.00	40421.05
548.17	40842.35
548.34	40575.53
548.51	40680.85
548.67	40325.09
548.84	40737.02
549.01	40573.19
549.18	40786.18
549.34	40725.32
549.51	41050.66
549.68	40865.75
549.84	40751.07
550.01	40973.42
550.18	40652.76
550.34	40837.67
550.51	40715.96
550.68	41429.82
550.84	40566.16
551.01	41397.06
551.18	41368.97
551.34	40933.63
551.51	41153.64
551.68	41116.19
551.84	41113.85
552.01	41560.89
552.18	41258.96
552.34	41144.28
552.51	41661.54
552.68	40971.08
552.84	41518.76
553.01	41897.93
553.18	41486.00
553.34	41872.18
553.51	41434.50
553.67	41371.31
553.84	41357.27
554.01	41436.84
554.17	41879.21
554.34	42096.88
554.51	41951.76
554.67	42068.79
554.84	42354.33
555.00	41696.64
555.17	41729.41
555.33	41801.97
555.50	42099.22
555.67	41413.44
555.83	42150.71
556.00	42265.39
556.16	42726.48
556.33	42632.86
556.50	42241.99
556.66	42342.63
556.83	41989.21
556.99	42239.65
557.16	42698.39
557.32	42602.43
557.49	42459.66
557.65	42204.54
557.82	42429.23
557.98	42288.80
558.15	42192.84
558.32	42316.89
558.48	42419.87
558.65	42110.92
558.81	42630.52
558.98	42316.89
559.14	42761.59
559.31	42424.55
559.47	42567.32
559.64	42719.46
559.80	42651.58
559.97	42895.00
560.13	42518.17
560.30	42920.74
560.46	42792.01
560.63	43147.78
560.79	43407.58
560.96	43187.56
561.12	42820.10
561.29	42890.32
561.45	43407.58
561.61	42817.76
561.78	43161.82
561.94	42754.57
562.11	43107.99
562.27	42801.38
562.44	42651.58
562.60	43091.60
562.77	43540.99
562.93	43260.12
563.10	43140.75
563.26	43023.73
563.42	43313.95
563.59	43084.58
563.75	43033.09
563.92	43302.25
564.08	43110.33
564.24	43512.90
564.41	43337.36
564.57	43540.99
564.74	43391.19
564.90	43171.18
565.07	43529.28
565.23	43054.15
565.39	43482.47
565.56	43374.81
565.72	43091.60
565.88	43372.47
566.05	43447.36
566.21	43538.65
566.38	43323.32
566.54	43267.14
566.70	43828.87
566.87	43328.00
567.03	43325.66
567.19	43489.49
567.36	43234.38
567.52	43667.37
567.68	43704.82
567.85	43730.57
568.01	43377.15
568.17	43505.88
568.34	43714.19
568.50	44018.46
568.66	43562.05
568.83	43833.55
568.99	43957.60
569.15	44004.41
569.32	43618.22
569.48	43487.15
569.64	43840.57
569.81	43592.48
569.97	43924.83
570.13	44018.46
570.30	43625.25
570.46	44318.04
570.62	43873.34
570.78	43906.11
570.95	43973.98
571.11	44566.14
571.27	43826.53
571.43	43753.97
571.60	44547.42
571.76	43828.87
571.92	44114.42
572.09	44079.31
572.25	43550.35
572.41	44067.61
572.57	43901.43
572.74	44751.04
572.90	44069.95
573.06	44409.32
573.22	44238.47
573.38	44140.16
573.55	44062.93
573.71	44561.46
573.87	44495.92
574.03	43658.01
574.20	44364.85
574.36	44348.47
574.52	44580.18
574.68	43997.39
574.84	44870.41
575.01	44737.00
575.17	44215.06
575.33	44395.28
575.49	43966.96
575.65	44360.17
575.82	44240.81
575.98	43903.77
576.14	44493.58
576.30	44821.26
576.46	44208.04
576.62	44069.95
576.79	44203.36
576.95	44126.12
577.11	43803.13
577.27	44374.22
577.43	44378.90
577.59	44161.23
577.75	44100.37
577.92	44163.57
578.08	44304.00
578.24	44456.14
578.40	44289.96
578.56	44470.18
578.72	44304.00
578.88	44781.47
579.04	44659.76
579.21	43959.94
579.37	44692.53
579.53	44470.18
579.69	44268.89
579.85	44348.47
580.01	44797.85
580.17	44332.09
580.33	44755.72
580.49	44315.70
580.65	44088.67
580.82	44477.20
580.98	44165.91
581.14	44304.00
581.30	44168.25
581.46	44516.99
581.62	44360.17
581.78	44364.85
581.94	44313.36
582.10	44215.06
582.26	44741.68
582.42	44421.03
582.58	44194.00
582.74	44519.33
582.90	44418.69
583.06	44470.18
583.22	44449.11
583.38	44467.84
583.54	44582.52
583.70	44381.24
583.86	45216.81
584.02	44807.22
584.18	44935.95
584.34	44837.64
584.50	44575.50
584.66	44533.37
584.82	44666.78
584.98	44858.71
585.14	44870.41
585.30	44453.79
585.46	44772.11
585.62	44608.27
585.78	44830.62
585.94	44430.39
586.10	44949.99
586.26	44516.99
586.42	44348.47
586.58	44584.86
586.74	44353.15
586.90	44744.02
587.06	44521.67
587.22	44823.60
587.38	44369.54
587.54	45141.91
587.70	44980.42
587.86	44926.58
588.02	44968.71
588.18	44910.20
588.34	44659.76
588.49	44786.15
588.65	44741.68
588.81	44549.76
588.97	44755.72
589.13	44603.59
589.29	44949.99
589.45	44882.11
589.61	44865.73
589.77	44692.53
589.93	45043.61
590.08	45036.59
590.24	45350.22
