SpectraSuite Data File
++++++++++++++++++++++++++++++++++++
Date: Fri Oct 25 10:47:52 EDT 2013
User: price-jones
Dark Spectrum Present: No
Reference Spectrum Present: No
Number of Sampled Component Spectra: 1
Spectrometers: USB2+H05261
Integration Time (usec): 100000 (USB2+H05261)
Spectra Averaged: 1 (USB2+H05261)
Boxcar Smoothing: 0 (USB2+H05261)
Correct for Electrical Dark: No (USB2+H05261)
Strobe/Lamp Enabled: No (USB2+H05261)
Correct for Detector Non-linearity: No (USB2+H05261)
Correct for Stray Light: No (USB2+H05261)
Number of Pixels in Processed Spectrum: 2048
>>>>>Begin Processed Spectral Data<<<<<
365.73	161.50
365.92	161.50
366.12	161.50
366.32	60.85
366.52	35.11
366.72	88.94
366.91	86.60
367.11	77.24
367.31	60.85
367.51	81.92
367.70	16.38
367.90	81.92
368.10	49.15
368.30	84.26
368.49	58.51
368.69	84.26
368.89	77.24
369.09	65.54
369.28	37.45
369.48	67.88
369.68	168.52
369.87	60.85
370.07	117.03
370.27	119.37
370.47	173.20
370.66	365.12
370.86	442.36
371.06	428.32
371.25	489.17
371.45	374.49
371.65	421.30
371.84	423.64
372.04	463.43
372.24	498.53
372.44	470.45
372.63	482.15
372.83	503.22
373.03	498.53
373.22	472.79
373.42	409.59
373.62	444.70
373.81	503.22
374.01	503.22
374.21	554.71
374.40	526.62
374.60	552.37
374.79	580.45
374.99	596.84
375.19	484.49
375.38	573.43
375.58	585.13
375.78	627.26
375.97	664.71
376.17	660.03
376.37	606.20
376.56	524.28
376.76	543.00
376.95	596.84
377.15	603.86
377.35	617.90
377.54	622.58
377.74	533.64
377.93	613.22
378.13	608.54
378.33	695.14
378.52	643.65
378.72	631.94
378.91	615.56
379.11	627.26
379.31	599.18
379.50	629.60
379.70	585.13
379.89	653.01
380.09	678.76
380.28	615.56
380.48	627.26
380.68	653.01
380.87	688.12
381.07	678.76
381.26	645.99
381.46	636.63
381.65	676.41
381.85	657.69
382.04	709.18
382.24	678.76
382.43	660.03
382.63	727.91
382.83	711.52
383.02	725.57
383.22	758.33
383.41	711.52
383.61	711.52
383.80	737.27
384.00	765.36
384.19	753.65
384.39	709.18
384.58	770.04
384.78	830.89
384.97	809.83
385.17	767.70
385.36	711.52
385.56	826.21
385.75	788.76
385.95	741.95
386.14	835.57
386.34	844.93
386.53	770.04
386.72	791.10
386.92	882.38
387.11	849.61
387.31	873.02
387.50	779.40
387.70	760.67
387.89	798.12
388.09	837.91
388.28	772.38
388.48	805.14
388.67	978.34
388.86	809.83
389.06	873.02
389.25	917.49
389.45	931.53
389.64	954.94
389.84	887.06
390.03	952.60
390.22	966.64
390.42	877.70
390.61	922.17
390.81	943.24
391.00	929.19
391.19	961.96
391.39	887.06
391.58	945.58
391.78	1001.75
391.97	971.32
392.16	992.39
392.36	990.05
392.55	971.32
392.75	966.64
392.94	950.26
393.13	992.39
393.33	950.26
393.52	952.60
393.71	1062.60
393.91	997.07
394.10	1025.15
394.29	1050.90
394.49	994.73
394.68	1074.31
394.88	1081.33
395.07	1036.86
395.26	1060.26
395.46	1114.10
395.65	1107.07
395.84	1135.16
396.04	1116.44
396.23	1125.80
396.42	1139.84
396.62	1067.28
396.81	1118.78
397.00	1247.51
397.19	1179.63
397.39	1196.01
397.58	1303.68
397.77	1165.59
397.97	1242.82
398.16	1252.19
398.35	1266.23
398.55	1317.72
398.74	1327.08
398.93	1350.49
399.12	1320.06
399.32	1322.40
399.51	1308.36
399.70	1291.98
399.90	1289.64
400.09	1427.73
400.28	1448.79
400.47	1495.60
400.67	1404.32
400.86	1481.56
401.05	1444.11
401.24	1369.21
401.44	1439.43
401.63	1563.48
401.82	1425.39
402.01	1427.73
402.21	1488.58
402.40	1469.86
402.59	1577.52
402.78	1556.46
402.97	1551.78
403.17	1614.97
403.36	1668.80
403.55	1657.10
403.74	1657.10
403.93	1631.35
404.13	1734.34
404.32	1647.74
404.51	1645.40
404.70	1664.12
404.89	1703.91
405.09	1741.36
405.28	1713.27
405.47	1729.66
405.66	1750.72
405.85	1741.36
406.05	1790.51
406.24	1764.76
406.43	1905.20
406.62	1891.15
406.81	1940.30
407.00	1930.94
407.20	1832.64
407.39	1820.94
407.58	1916.90
407.77	2033.93
407.96	1963.71
408.15	1970.73
408.34	1867.75
408.54	2012.86
408.73	1959.03
408.92	1919.24
409.11	2010.52
409.30	2087.76
409.49	2001.16
409.68	2101.80
409.87	2012.86
410.07	2148.61
410.26	2090.10
410.45	2160.31
410.64	2209.47
410.83	2146.27
411.02	2253.94
411.21	2132.23
411.40	2267.98
411.59	2319.47
411.78	2328.83
411.98	2256.28
412.17	2345.22
412.36	2324.15
412.55	2406.07
412.74	2429.48
412.93	2422.45
413.12	2408.41
413.31	2490.33
413.50	2471.61
413.69	2478.63
413.88	2630.76
414.07	2413.09
414.26	2651.83
414.45	2562.89
414.64	2698.64
414.83	2626.08
415.02	2628.42
415.22	2736.09
415.41	2747.79
415.60	2773.53
415.79	2740.77
415.98	2871.84
416.17	2871.84
416.36	2818.00
416.55	2715.02
416.74	2860.13
416.93	3045.04
417.12	3063.76
417.31	2909.29
417.50	2951.42
417.69	3028.65
417.88	3054.40
418.07	3103.55
418.26	3122.27
418.45	3019.29
418.64	3342.28
418.83	3155.04
419.02	3171.43
419.21	3110.57
419.39	3183.13
419.58	3103.55
419.77	3269.73
419.96	3222.92
420.15	3187.81
420.34	3293.13
420.53	3384.41
420.72	3412.50
420.91	3389.10
421.10	3417.18
421.29	3473.36
421.48	3239.30
421.67	3389.10
421.86	3431.23
422.05	3461.65
422.24	3433.57
422.43	3405.48
422.61	3396.12
422.80	3548.25
422.99	3552.93
423.18	3494.42
423.37	3522.51
423.56	3445.27
423.75	3419.52
423.94	3435.91
424.13	3393.78
424.32	3384.41
424.50	3454.63
424.69	3588.04
424.88	3585.70
425.07	3524.85
425.26	3405.48
425.45	3566.98
425.64	3541.23
425.83	3574.00
426.01	3655.92
426.20	3571.66
426.39	3534.21
426.58	3489.74
426.77	3496.76
426.96	3651.24
427.15	3742.52
427.33	3714.43
427.52	3597.40
427.71	3716.77
427.90	3655.92
428.09	3749.54
428.28	3786.99
428.46	3691.02
428.65	3768.26
428.84	3861.88
429.03	3871.25
429.22	3595.06
429.40	3871.25
429.59	3812.73
429.78	3667.62
429.97	3548.25
430.16	3662.94
430.34	3770.60
430.53	3908.69
430.72	3932.10
430.91	3866.56
431.10	4014.02
431.28	4018.70
431.47	4168.49
431.66	4081.89
431.85	3983.59
432.03	4161.47
432.22	4248.07
432.41	4093.60
432.60	4334.67
432.79	4306.59
432.97	4107.64
433.16	4283.18
433.35	4086.58
433.54	4348.72
433.72	4283.18
433.91	4189.56
434.10	4149.77
434.28	4283.18
434.47	4292.54
434.66	4271.48
434.85	4465.74
435.03	4432.97
435.22	4440.00
435.41	4636.60
435.59	4613.20
435.78	4538.30
435.97	4702.14
436.16	4507.87
436.34	4440.00
436.53	4582.77
436.72	4865.97
436.90	4608.51
437.09	4645.96
437.28	4620.22
437.46	4489.15
437.65	4561.70
437.84	4704.48
438.02	4561.70
438.21	4695.11
438.40	4573.41
438.58	4940.87
438.77	4854.27
438.96	4849.59
439.14	5088.32
439.33	5032.15
439.52	4947.89
439.70	5022.79
439.89	4959.60
440.08	5104.71
440.26	5188.97
440.45	5158.54
440.63	5116.41
440.82	5371.53
441.01	5366.85
441.19	5268.55
441.38	5565.79
441.57	5420.68
441.75	5544.73
441.94	5528.35
442.12	5600.90
442.31	5495.58
442.50	5584.52
442.68	5668.78
442.87	5671.12
443.05	5888.79
443.24	5694.52
443.43	5746.02
443.61	5762.40
443.80	6118.16
443.98	5692.18
444.17	5544.73
444.35	5841.98
444.54	5900.49
444.73	5860.70
444.91	5813.89
445.10	5818.57
445.28	5729.63
445.47	5612.60
445.65	5799.85
445.84	5771.76
446.02	5942.62
446.21	5872.40
446.39	5900.49
446.58	6108.80
446.77	5884.11
446.95	5980.07
447.14	5989.43
447.32	6080.71
447.51	5853.68
447.69	5818.57
447.88	6022.20
448.06	5905.17
448.25	6113.48
448.43	5930.92
448.62	5863.04
448.80	6101.78
448.99	6066.67
449.17	6010.50
449.36	6146.25
449.54	6251.57
449.73	6272.64
449.91	6427.11
450.10	6246.89
450.28	6321.79
450.46	6417.75
450.65	6396.68
450.83	6537.12
451.02	6408.39
451.20	6408.39
451.39	6485.62
451.57	6541.80
451.76	6366.26
451.94	6413.07
452.13	6560.52
452.31	6516.05
452.49	6471.58
452.68	6473.92
452.86	6483.28
453.05	6551.16
453.23	6682.23
453.42	6427.11
453.60	6567.54
453.78	6677.55
453.97	6548.82
454.15	6450.52
454.34	6384.98
454.52	6839.05
454.70	6841.39
454.89	6647.12
455.07	6803.94
455.26	6815.64
455.44	6834.36
455.62	6827.34
455.81	6918.62
455.99	6998.20
456.17	7087.14
456.36	6876.49
456.54	7215.87
456.73	7082.46
456.91	7075.44
457.09	7150.34
457.28	7447.58
457.46	7197.15
457.64	7368.01
457.83	7265.02
458.01	7101.19
458.19	7522.48
458.38	7281.41
458.56	7407.80
458.74	7382.05
458.93	7344.60
459.11	7454.61
459.29	7349.28
459.48	7445.24
459.66	7499.08
459.84	7749.51
460.03	7742.49
460.21	7555.25
460.39	7658.23
460.57	7585.68
460.76	7749.51
460.94	7698.02
461.12	7691.00
461.31	7737.81
461.49	7585.68
461.67	7440.56
461.85	7946.12
462.04	7765.90
462.22	8379.12
462.40	8030.38
462.59	7918.03
462.77	8084.21
462.95	7988.25
463.13	7960.16
463.32	8021.02
463.50	8168.47
463.68	8009.31
463.86	8266.77
464.05	7901.65
464.23	7981.23
464.41	8182.51
464.59	7995.27
464.78	8301.88
464.96	8306.56
465.14	8084.21
465.32	8521.89
465.50	8308.90
465.69	8390.82
465.87	8212.94
466.05	8264.43
466.23	8353.37
466.41	8255.07
466.60	8587.43
466.78	8212.94
466.96	8348.69
467.14	8393.16
467.32	8587.43
467.51	8517.21
467.69	8615.51
467.87	8496.14
468.05	8645.94
468.23	8468.06
468.41	8599.13
468.60	8667.00
468.78	8751.26
468.96	8425.93
469.14	8659.98
469.32	8917.44
469.50	8622.53
469.69	8891.70
469.87	9004.04
470.05	8823.82
470.23	8828.50
470.41	8858.93
470.59	8975.95
470.77	8905.74
470.95	9163.20
471.14	9238.09
471.32	8877.65
471.50	9437.04
471.68	9277.88
471.86	9158.52
472.04	9320.01
472.22	9497.89
472.40	9177.24
472.58	9528.32
472.77	9425.34
472.95	9579.81
473.13	9788.12
473.31	9575.13
473.49	9507.26
473.67	9596.20
473.85	9783.44
474.03	10008.13
474.21	10026.86
474.39	10047.92
474.57	10038.56
474.75	9884.08
474.93	10293.68
475.12	10001.11
475.30	10146.22
475.48	10279.63
475.66	10314.74
475.84	10183.67
476.02	10087.71
476.20	10375.59
476.38	10438.79
476.56	10768.80
476.74	10729.02
476.92	10764.12
477.10	10817.96
477.28	11075.42
477.46	10906.90
477.64	11021.58
477.82	11199.46
478.00	11435.86
478.18	11372.66
478.36	11393.73
478.54	11403.09
478.72	11534.16
478.90	11775.24
479.08	11838.43
479.26	11885.24
479.44	11829.07
479.62	11925.03
479.80	11983.54
479.98	12222.28
480.16	12414.20
480.34	12138.02
480.52	12610.81
480.70	12432.93
480.88	12531.23
481.06	12669.32
481.24	12800.39
481.41	13004.02
481.59	13137.43
481.77	13055.51
481.95	12957.21
482.13	13439.36
482.31	13102.32
482.49	13179.56
482.67	13582.13
482.85	13612.56
483.03	13483.83
483.21	13977.68
483.39	14078.32
483.57	13867.67
483.74	14026.83
483.92	14200.03
484.10	14073.64
484.28	14455.15
484.46	14663.46
484.64	14820.27
484.82	14530.05
485.00	14801.55
485.18	15178.37
485.35	15264.97
485.53	14860.06
485.71	14941.98
485.89	15129.22
486.07	15304.76
486.25	15473.28
486.43	15564.56
486.61	15763.51
486.78	15742.44
486.96	15702.65
487.14	16325.24
487.32	16432.90
487.50	16435.24
487.68	16692.70
487.85	16519.50
488.03	16779.30
488.21	17214.64
488.39	17001.65
488.57	17130.38
488.75	17139.74
488.92	17406.56
489.10	17633.60
489.28	17778.71
489.46	17755.30
489.64	17855.95
489.81	18190.64
489.99	18396.61
490.17	18548.75
490.35	18740.67
490.53	18382.57
490.70	18845.99
490.88	18860.04
491.06	18867.06
491.24	18927.91
491.41	18984.09
491.59	18644.71
491.77	18902.17
491.95	19358.57
492.13	19758.80
492.30	19620.71
492.48	19864.13
492.66	20135.63
492.84	20086.48
493.01	20243.29
493.19	20025.62
493.37	20238.61
493.54	20432.88
493.72	20816.72
493.90	20840.13
494.08	20931.41
494.25	20760.55
494.43	21275.47
494.61	21631.23
494.79	21188.87
494.96	21593.78
495.14	21638.25
495.32	21898.05
495.49	21664.00
495.67	21937.84
495.85	22202.32
496.02	22452.76
496.20	22031.46
496.38	22455.10
496.55	22572.13
496.73	23026.19
496.91	22820.22
497.09	23063.64
497.26	22885.76
497.44	22885.76
497.62	22892.78
497.79	23426.42
497.97	23386.63
498.14	23337.48
498.32	23613.66
498.50	23515.36
498.67	23934.32
498.85	23927.30
499.03	24074.75
499.20	23913.25
499.38	24067.73
499.56	24369.66
499.73	24276.04
499.91	24350.93
500.08	24655.20
500.26	24428.17
500.44	24671.59
500.61	24650.52
500.79	24683.29
500.97	25132.67
501.14	25233.32
501.32	25252.04
501.49	25109.27
501.67	25158.42
501.84	25394.81
502.02	25193.53
502.20	25579.71
502.37	25851.22
502.55	25781.00
502.72	25600.78
502.90	26160.17
503.07	26066.55
503.25	25942.50
503.43	25795.04
503.60	26611.89
503.78	26132.08
503.95	25972.92
504.13	26485.50
504.30	26089.95
504.48	26169.53
504.65	26944.25
504.83	26492.52
505.01	26834.24
505.18	27133.83
505.36	26979.36
505.53	27264.90
505.71	27260.22
505.88	27948.34
506.06	27218.09
506.23	27276.60
506.41	27255.54
506.58	27510.66
506.76	27723.65
506.93	27791.52
507.11	27716.62
507.28	27821.95
507.46	28002.17
507.63	28163.67
507.81	28130.90
507.98	27709.60
508.16	28343.89
508.33	28783.91
508.50	28762.84
508.68	28505.38
508.85	28886.89
509.03	28489.00
509.20	28732.42
509.38	29111.58
509.55	28865.83
509.73	28947.75
509.90	28985.19
510.08	28877.53
510.25	28924.34
510.42	29305.85
510.60	29525.86
510.77	29890.98
510.95	29785.66
511.12	29399.47
511.30	29696.72
511.47	30075.88
511.64	29851.19
511.82	29949.50
511.99	29750.55
512.17	29935.45
512.34	29984.60
512.51	30508.88
512.69	30960.61
512.86	30087.59
513.04	30408.24
513.21	30586.12
513.38	30359.09
513.56	30841.24
513.73	30787.41
513.90	31288.28
514.08	30850.60
514.25	30862.30
514.43	30817.83
514.60	30888.05
514.77	31164.23
514.95	31166.57
515.12	31321.05
515.29	31246.15
515.47	32006.83
515.64	31786.82
515.81	31880.44
515.99	31466.16
516.16	31735.32
516.33	32055.98
516.51	31838.31
516.68	31833.63
516.85	31606.59
517.03	31929.59
517.20	32133.21
517.37	32173.00
517.54	32236.20
517.72	32048.96
517.89	32275.99
518.06	32444.51
518.24	32215.13
518.41	32175.34
518.58	32205.77
518.75	32456.21
518.93	32601.32
519.10	32842.40
519.27	32987.51
519.45	33039.00
519.62	32861.12
519.79	33055.39
519.96	33626.48
520.14	33418.17
520.31	33418.17
520.48	33324.55
520.65	33359.66
520.83	33844.15
521.00	33855.85
521.17	33567.96
521.34	33736.48
521.52	34094.58
521.69	33661.58
521.86	33748.18
522.03	34256.08
522.20	34359.06
522.38	34267.78
522.55	34515.88
522.72	34075.86
522.89	34263.10
523.07	34071.18
523.24	34052.45
523.41	34384.81
523.58	34209.27
523.75	35101.01
523.92	34939.52
524.10	34595.46
524.27	35023.78
524.44	35101.01
524.61	35211.02
524.78	35531.67
524.96	35363.15
525.13	35189.95
525.30	35372.52
525.47	35613.59
525.64	35793.81
525.81	35323.36
525.98	35227.40
526.16	35482.52
526.33	35185.27
526.50	35894.46
526.67	35297.62
526.84	35519.97
527.01	35342.09
527.18	35367.84
527.36	36116.81
527.53	35990.42
527.70	36222.13
527.87	36524.06
528.04	36215.11
528.21	36357.88
528.38	35861.69
528.55	36425.76
528.72	36329.80
528.89	36863.44
529.07	36430.44
529.24	36187.02
529.41	36584.91
529.58	36657.47
529.75	36545.12
529.92	36552.15
530.09	36659.81
530.26	37312.82
530.43	36828.33
530.60	36472.57
530.77	36708.96
530.94	37256.65
531.11	37038.98
531.28	37399.42
531.46	37270.69
531.63	37237.92
531.80	37130.26
531.97	37425.17
532.14	37493.04
532.31	36912.59
532.48	37319.84
532.65	37677.94
532.82	37380.70
532.99	37464.96
533.16	37221.54
533.33	37659.22
533.50	37809.01
533.67	38019.66
533.84	37708.37
534.01	37830.08
534.18	37914.34
534.35	38387.13
534.52	38134.35
534.69	38295.85
534.86	37930.72
535.03	37827.74
535.20	38433.94
535.37	38499.47
535.54	38965.24
535.71	37954.13
535.88	37949.45
536.05	38249.03
536.22	38770.97
536.38	38557.99
536.55	38859.91
536.72	38471.39
536.89	38834.17
537.06	38302.87
537.23	38972.26
537.40	38644.59
537.57	38672.67
537.74	39187.59
537.91	38976.94
538.08	38717.14
538.25	38581.39
538.42	39138.44
538.59	39189.93
538.75	38679.69
538.92	39274.19
539.09	39260.15
539.26	39140.78
539.43	39150.14
539.60	39571.44
539.77	38799.06
539.94	39702.51
540.11	39227.38
540.28	39323.34
540.44	39489.52
540.61	39555.05
540.78	39332.70
540.95	39597.18
541.12	39519.95
541.29	39466.11
541.46	39730.59
541.62	39665.06
541.79	40208.06
541.96	39957.63
542.13	39742.30
542.30	39938.90
542.47	40076.99
542.63	39864.00
542.80	40201.04
542.97	40142.53
543.14	40687.87
543.31	40444.46
543.48	40556.80
543.64	41024.91
543.81	40954.69
543.98	40414.03
544.15	40219.77
544.32	40961.72
544.48	41057.68
544.65	40673.83
544.82	40636.38
544.99	40453.82
545.16	40961.72
545.32	41064.70
545.49	41029.59
545.66	41060.02
545.83	40868.09
546.00	40992.14
546.16	41429.82
546.33	41024.91
546.50	40790.86
546.67	40980.44
546.83	40643.40
547.00	41434.50
547.17	40985.12
547.34	41375.99
547.50	41186.41
547.67	41722.39
547.84	41240.24
548.00	41921.34
548.17	41333.86
548.34	41776.22
548.51	41818.35
548.67	41790.27
548.84	41745.80
549.01	41453.23
549.18	41947.08
549.34	41979.85
549.51	42249.01
549.68	42260.71
549.84	41888.57
550.01	42256.03
550.18	41720.05
550.34	41743.45
550.51	41830.05
550.68	41909.63
550.84	41652.17
551.01	42012.62
551.18	42078.15
551.34	42073.47
551.51	42284.12
551.68	42466.68
551.84	42536.90
552.01	42344.97
552.18	42382.42
552.34	42155.39
552.51	42497.11
552.68	42586.05
552.84	42572.00
553.01	42717.12
553.18	42188.16
553.34	42696.05
553.51	42012.62
553.67	42260.71
553.84	42562.64
554.01	43044.79
554.17	43002.66
554.34	42801.38
554.51	42857.55
554.67	42913.72
554.84	42450.30
555.00	42511.15
555.17	42204.54
555.33	42663.28
555.50	42890.32
555.67	43035.43
555.83	43035.43
556.00	43037.77
556.16	43288.21
556.33	43215.65
556.50	42808.40
556.66	43426.30
556.83	42890.32
556.99	43426.30
557.16	43716.53
557.32	43367.79
557.49	43309.27
557.65	42988.62
557.82	42693.71
557.98	42820.10
558.15	43112.67
558.32	43711.84
558.48	43189.91
558.65	43227.35
558.81	43171.18
558.98	43299.91
559.14	43175.86
559.31	43608.86
559.47	43854.62
559.64	43711.84
559.80	43838.23
559.97	43608.86
560.13	43297.57
560.30	43349.06
560.46	43618.22
560.63	43409.92
560.79	43583.12
560.96	43971.64
561.12	43512.90
561.29	43730.57
561.45	43597.16
561.61	43770.36
561.78	43803.13
561.94	43564.39
562.11	43363.11
562.27	43950.58
562.44	43665.03
562.60	44154.21
562.77	44210.38
562.93	43576.09
563.10	43889.73
563.26	43433.32
563.42	44395.28
563.59	43763.34
563.75	43873.34
563.92	44612.95
564.08	44133.14
564.24	43817.17
564.41	43922.49
564.57	43971.64
564.74	44093.35
564.90	44318.04
565.07	44385.92
565.23	43922.49
565.39	43833.55
565.56	44266.55
565.72	44100.37
565.88	43920.15
566.05	43983.35
566.21	43676.74
566.38	43959.94
566.54	43889.73
566.70	44142.50
566.87	44622.31
567.03	43962.28
567.19	44605.93
567.36	44208.04
567.52	44079.31
567.68	44533.37
567.85	44109.74
568.01	44388.26
568.17	44402.30
568.34	44128.46
568.50	44259.53
568.66	44137.82
568.83	44439.75
568.99	44069.95
569.15	44128.46
569.32	43976.33
569.48	43688.44
569.64	44477.20
569.81	44378.90
569.97	44278.25
570.13	44306.34
570.30	44416.35
570.46	43906.11
570.62	44191.65
570.78	43697.80
570.95	44168.25
571.11	44453.79
571.27	44549.76
571.43	44449.11
571.60	44184.63
571.76	44051.22
571.92	44053.56
572.09	44151.87
572.25	44362.51
572.41	44196.34
572.57	44362.51
572.74	44706.57
572.90	44699.55
573.06	44547.42
573.22	44603.59
573.38	44701.89
573.55	44311.02
573.71	44931.26
573.87	44285.28
574.03	43915.47
574.20	44577.84
574.36	44261.87
574.52	44727.64
574.68	44318.04
574.84	44903.18
575.01	44545.08
575.17	44385.92
575.33	44306.34
575.49	44004.41
575.65	44816.58
575.82	44477.20
575.98	44528.69
576.14	44992.12
576.30	44769.77
576.46	44334.43
576.62	44526.35
576.79	44781.47
576.95	44406.98
577.11	44463.16
577.27	44783.81
577.43	44577.84
577.59	44552.10
577.75	44563.80
577.92	44320.38
578.08	44446.77
578.24	44275.91
578.40	44121.44
578.56	44816.58
578.72	44601.25
578.88	44304.00
579.04	44975.73
579.21	45125.53
579.37	44547.42
579.53	44540.39
579.69	44357.83
579.85	44591.89
580.01	44603.59
580.17	44231.44
580.33	44884.45
580.49	44657.42
580.65	44741.68
580.82	45038.93
580.98	44755.72
581.14	43948.24
581.30	44912.54
581.46	45097.44
581.62	44907.86
581.78	44741.68
581.94	44921.90
582.10	44701.89
582.26	44807.22
582.42	44795.51
582.58	44774.45
582.74	44858.71
582.90	44921.90
583.06	44786.15
583.22	44507.63
583.38	45045.95
583.54	44879.77
583.70	44769.77
583.86	44655.08
584.02	44392.94
584.18	44844.66
584.34	44458.48
584.50	44795.51
584.66	44800.19
584.82	44669.12
584.98	44652.74
585.14	44755.72
585.30	44612.95
585.46	44514.65
585.62	44425.71
585.78	44634.02
585.94	44547.42
586.10	44861.05
586.26	44863.39
586.42	44919.56
586.58	44378.90
586.74	44566.14
586.90	44694.87
587.06	44987.44
587.22	44776.79
587.38	44619.97
587.54	45287.03
587.70	44652.74
587.86	44765.09
588.02	44971.05
588.18	45415.76
588.34	44999.14
588.49	44343.79
588.65	44320.38
588.81	44652.74
588.97	44301.66
589.13	44353.15
589.29	44926.58
589.45	44765.09
589.61	44762.75
589.77	45296.39
589.93	45254.26
590.08	44832.96
590.24	44992.12
