SpectraSuite Data File
++++++++++++++++++++++++++++++++++++
Date: Fri Oct 25 10:43:58 EDT 2013
User: price-jones
Dark Spectrum Present: No
Reference Spectrum Present: No
Number of Sampled Component Spectra: 1
Spectrometers: USB2+H05261
Integration Time (usec): 100000 (USB2+H05261)
Spectra Averaged: 1 (USB2+H05261)
Boxcar Smoothing: 0 (USB2+H05261)
Correct for Electrical Dark: No (USB2+H05261)
Strobe/Lamp Enabled: No (USB2+H05261)
Correct for Detector Non-linearity: No (USB2+H05261)
Correct for Stray Light: No (USB2+H05261)
Number of Pixels in Processed Spectrum: 2048
>>>>>Begin Processed Spectral Data<<<<<
365.73	131.07
365.92	131.07
366.12	131.07
366.32	0.00
366.52	2.34
366.72	63.19
366.91	0.00
367.11	0.00
367.31	65.54
367.51	84.26
367.70	0.00
367.90	11.70
368.10	39.79
368.30	18.72
368.49	0.00
368.69	0.00
368.89	51.49
369.09	21.06
369.28	21.06
369.48	44.47
369.68	35.11
369.87	81.92
370.07	102.98
370.27	121.71
370.47	229.37
370.66	465.77
370.86	444.70
371.06	454.06
371.25	503.22
371.45	411.93
371.65	496.19
371.84	484.49
372.04	442.36
372.24	465.77
372.44	526.62
372.63	554.71
372.83	496.19
373.03	507.90
373.22	444.70
373.42	521.94
373.62	545.34
373.81	468.11
374.01	543.00
374.21	547.69
374.40	470.45
374.60	592.16
374.79	566.41
374.99	606.20
375.19	571.09
375.38	547.69
375.58	631.94
375.78	662.37
375.97	596.84
376.17	671.73
376.37	571.09
376.56	521.94
376.76	653.01
376.95	608.54
377.15	709.18
377.35	695.14
377.54	692.80
377.74	603.86
377.93	667.05
378.13	718.54
378.33	730.25
378.52	613.22
378.72	711.52
378.91	650.67
379.11	690.46
379.31	594.50
379.50	718.54
379.70	723.23
379.89	758.33
380.09	650.67
380.28	660.03
380.48	620.24
380.68	737.27
380.87	648.33
381.07	671.73
381.26	744.29
381.46	662.37
381.65	631.94
381.85	706.84
382.04	751.31
382.24	692.80
382.43	734.93
382.63	660.03
382.83	800.46
383.02	774.72
383.22	755.99
383.41	746.63
383.61	746.63
383.80	690.46
384.00	753.65
384.19	765.36
384.39	795.78
384.58	819.19
384.78	798.12
384.97	786.42
385.17	891.74
385.36	805.14
385.56	851.96
385.75	807.48
385.95	844.93
386.14	870.68
386.34	840.25
386.53	915.15
386.72	849.61
386.92	866.00
387.11	908.13
387.31	908.13
387.50	945.58
387.70	870.68
387.89	898.77
388.09	873.02
388.28	940.90
388.48	992.39
388.67	929.19
388.86	954.94
389.06	917.49
389.25	882.38
389.45	1034.52
389.64	959.62
389.84	1020.47
390.03	1006.43
390.22	1090.69
390.42	1011.11
390.61	983.02
390.81	1020.47
391.00	1097.71
391.19	1121.12
391.39	1055.58
391.58	1053.24
391.78	1048.56
391.97	1090.69
392.16	1015.79
392.36	1210.06
392.55	1032.18
392.75	997.07
392.94	1004.09
393.13	973.66
393.33	987.71
393.52	1008.77
393.71	1071.97
393.91	1125.80
394.10	1102.39
394.29	1146.86
394.49	1163.25
394.68	1296.66
394.88	1172.61
395.07	1111.75
395.26	1320.06
395.46	1214.74
395.65	1240.48
395.84	1299.00
396.04	1263.89
396.23	1130.48
396.42	1247.51
396.62	1179.63
396.81	1167.93
397.00	1207.72
397.19	1226.44
397.39	1357.51
397.58	1369.21
397.77	1399.64
397.97	1348.15
398.16	1504.96
398.35	1455.81
398.55	1516.67
398.74	1404.32
398.93	1490.92
399.12	1561.14
399.32	1448.79
399.51	1476.88
399.70	1645.40
399.90	1540.07
400.09	1659.44
400.28	1511.99
400.47	1605.61
400.67	1629.01
400.86	1722.63
401.05	1722.63
401.24	1717.95
401.44	1687.53
401.63	1736.68
401.82	1757.74
402.01	1661.78
402.21	1710.93
402.40	1739.02
402.59	1722.63
402.78	1701.57
402.97	1755.40
403.17	1755.40
403.36	1804.55
403.55	1895.83
403.74	1825.62
403.93	1940.30
404.13	1877.11
404.32	1963.71
404.51	1935.62
404.70	2003.50
404.89	1884.13
405.09	2026.90
405.28	1933.28
405.47	1980.09
405.66	2008.18
405.85	2040.95
406.05	1937.96
406.24	2015.20
406.43	2054.99
406.62	2118.18
406.81	2162.66
407.00	2157.97
407.20	2101.80
407.39	2071.37
407.58	2183.72
407.77	2239.89
407.96	2157.97
408.15	2375.64
408.34	2209.47
408.54	2352.24
408.73	2260.96
408.92	2282.02
409.11	2368.62
409.30	2305.43
409.49	2363.94
409.68	2291.38
409.87	2406.07
410.07	2359.26
410.26	2406.07
410.45	2441.18
410.64	2473.95
410.83	2574.59
411.02	2480.97
411.21	2509.05
411.40	2558.21
411.59	2616.72
411.78	2670.55
411.98	2642.46
412.17	2640.12
412.36	2750.13
412.55	2773.53
412.74	2825.03
412.93	2733.75
413.12	2663.53
413.31	2939.71
413.50	2778.22
413.69	2801.62
413.88	2832.05
414.07	3059.08
414.26	2998.23
414.45	3012.27
414.64	2869.50
414.83	3026.31
415.02	3124.62
415.22	2988.86
415.41	3199.51
415.60	3126.96
415.79	3117.59
415.98	3262.71
416.17	3267.39
416.36	3293.13
416.55	3295.47
416.74	3361.01
416.93	3379.73
417.12	3332.92
417.31	3421.86
417.50	3417.18
417.69	3421.86
417.88	3449.95
418.07	3585.70
418.26	3557.61
418.45	3599.74
418.64	3609.11
418.83	3709.75
419.02	3449.95
419.21	3662.94
419.39	3506.12
419.58	3620.81
419.77	3590.38
419.96	3623.15
420.15	3716.77
420.34	3641.87
420.53	3882.95
420.72	3763.58
420.91	3859.54
421.10	3957.85
421.29	3859.54
421.48	3854.86
421.67	3889.97
421.86	3941.46
422.05	3765.92
422.24	3854.86
422.43	3906.35
422.61	3808.05
422.80	3918.06
422.99	3904.01
423.18	3990.61
423.37	4133.39
423.56	3964.87
423.75	3971.89
423.94	3941.46
424.13	3648.90
424.32	3723.79
424.50	3962.53
424.69	4044.45
424.88	4102.96
425.07	3936.78
425.26	3955.51
425.45	3925.08
425.64	3922.74
425.83	4145.09
426.01	4053.81
426.20	4032.74
426.39	3887.63
426.58	3932.10
426.77	3782.31
426.96	4060.83
427.15	4025.72
427.33	4173.18
427.52	4231.69
427.71	4095.94
427.90	4105.30
428.09	4021.04
428.28	4196.58
428.46	4212.96
428.65	4168.49
428.84	4327.65
429.03	4320.63
429.22	4016.36
429.40	4149.77
429.59	4175.52
429.78	3978.91
429.97	3971.89
430.16	4124.02
430.34	4100.62
430.53	4131.05
430.72	4294.88
430.91	4344.03
431.10	4351.06
431.28	4493.83
431.47	4582.77
431.66	4781.71
431.85	4596.81
432.03	4542.98
432.22	4788.74
432.41	4692.77
432.60	4887.04
432.79	4753.63
432.97	4957.25
433.16	4718.52
433.35	4645.96
433.54	4486.81
433.72	4758.31
433.91	4884.70
434.10	4697.46
434.28	4933.85
434.47	4940.87
434.66	5008.75
434.85	4929.17
435.03	5076.62
435.22	5114.07
435.41	5121.09
435.59	5104.71
435.78	5163.22
435.97	5247.48
436.16	5174.92
436.34	5125.77
436.53	5195.99
436.72	5390.25
436.90	5240.46
437.09	5261.52
437.28	5217.05
437.46	5277.91
437.65	5221.74
437.84	5085.98
438.02	5275.57
438.21	5270.89
438.40	5249.82
438.58	5488.56
438.77	5413.66
438.96	5369.19
439.14	5518.98
439.33	5659.42
439.52	5764.74
439.70	5671.12
439.89	5703.89
440.08	5610.26
440.26	5841.98
440.45	5881.77
440.63	6015.18
440.82	5954.32
441.01	6010.50
441.19	6026.88
441.38	6289.02
441.57	6188.38
441.75	6197.74
441.94	6436.47
442.12	6366.26
442.31	6354.55
442.50	6513.71
442.68	6443.49
442.87	6480.94
443.05	6384.98
443.24	6539.46
443.43	6478.60
443.61	6661.16
443.80	6668.19
443.98	6518.39
444.17	6506.69
444.35	6663.51
444.54	6621.38
444.73	6600.31
444.91	6696.27
445.10	6511.37
445.28	6427.11
445.47	6417.75
445.65	6628.40
445.84	6612.01
446.02	6766.49
446.21	6696.27
446.39	6581.59
446.58	6691.59
446.77	6693.93
446.95	6647.12
447.14	6710.32
447.32	6927.99
447.51	6761.81
447.69	6656.48
447.88	6981.82
448.06	6935.01
448.25	6778.19
448.43	6670.53
448.62	6827.34
448.80	6616.69
448.99	6717.34
449.17	7000.54
449.36	6883.52
449.54	7045.01
449.73	7192.47
449.91	7187.79
450.10	7185.44
450.28	7236.94
450.46	7290.77
450.65	7417.16
450.83	7433.54
451.02	7164.38
451.20	7353.96
451.39	7332.90
451.57	7410.14
451.76	7475.67
451.94	7375.03
452.13	7365.67
452.31	7204.17
452.49	7133.95
452.68	7150.34
452.86	7178.42
453.05	7386.73
453.23	7456.95
453.42	7389.07
453.60	7250.98
453.78	7344.60
453.97	7384.39
454.15	7506.10
454.34	7569.29
454.52	7712.07
454.70	7573.97
454.89	7719.09
455.07	7681.64
455.26	7747.17
455.44	7798.66
455.62	7735.47
455.81	7749.51
455.99	7932.08
456.17	8088.89
456.36	8021.02
456.54	7918.03
456.73	8049.10
456.91	8187.19
457.09	8161.45
457.28	8344.01
457.46	8159.11
457.64	8280.82
457.83	8234.00
458.01	7999.95
458.19	8395.50
458.38	8250.39
458.56	8348.69
458.74	8383.80
458.93	8400.18
459.11	8538.27
459.29	8430.61
459.48	8451.67
459.66	8402.52
459.84	8564.02
460.03	8805.10
460.21	8762.97
460.39	8503.17
460.57	8603.81
460.76	8610.83
460.94	8767.65
461.12	8674.03
461.31	8894.04
461.49	8702.11
461.67	8681.05
461.85	9043.83
462.04	8891.70
462.22	8950.21
462.40	8990.00
462.59	9139.79
462.77	9060.21
462.95	9114.05
463.13	8957.23
463.32	9200.65
463.50	9177.24
463.68	9179.58
463.86	9320.01
464.05	9170.22
464.23	8933.82
464.41	9242.78
464.59	9027.45
464.78	9376.19
464.96	9282.56
465.14	9156.18
465.32	9308.31
465.50	9394.91
465.69	9596.20
465.87	9282.56
466.05	9179.58
466.23	9432.36
466.41	9380.87
466.60	9432.36
466.78	9570.45
466.96	9282.56
467.14	9401.93
467.32	9535.34
467.51	9640.67
467.69	9394.91
467.87	9558.75
468.05	9568.11
468.23	9685.14
468.41	9673.43
468.60	9654.71
468.78	9745.99
468.96	9722.59
469.14	9760.03
469.32	10195.37
469.50	9591.52
469.69	9579.81
469.87	9834.93
470.05	10033.88
470.23	9940.26
470.41	9795.14
470.59	10078.35
470.77	10073.67
470.95	10164.95
471.14	10317.08
471.32	10132.18
471.50	10459.85
471.68	10511.35
471.86	10602.63
472.04	10485.60
472.22	10817.96
472.40	10466.88
472.58	10764.12
472.77	10363.89
472.95	10675.18
473.13	11014.56
473.31	10801.57
473.49	10729.02
473.67	10841.36
473.85	10991.16
474.03	10981.79
474.21	11159.67
474.39	11164.36
474.57	11138.61
474.75	11157.33
474.93	11269.68
475.12	11030.94
475.30	11234.57
475.48	11510.75
475.66	11623.10
475.84	11424.15
476.02	11384.37
476.20	11630.12
476.38	11744.81
476.56	11960.14
476.74	11808.00
476.92	11826.73
477.10	11960.14
477.28	12156.74
477.46	12273.77
477.64	12533.57
477.82	12741.88
478.00	12716.13
478.18	12666.98
478.36	12601.44
478.54	12854.22
478.72	12922.10
478.90	13078.91
479.08	13102.32
479.26	13287.22
479.44	13556.38
479.62	13645.32
479.80	13469.78
479.98	13678.09
480.16	13795.12
480.34	13605.53
480.52	14244.50
480.70	13809.16
480.88	13996.40
481.06	14101.73
481.24	14160.24
481.41	14317.06
481.59	14579.20
481.77	14476.21
481.95	14672.82
482.13	14761.76
482.31	14420.04
482.49	15173.69
482.67	15103.48
482.85	15164.33
483.03	15400.72
483.21	15543.50
483.39	15501.37
483.57	15716.70
483.74	15744.78
483.92	15728.40
484.10	15688.61
484.28	16093.52
484.46	16079.48
484.64	16842.50
484.82	16610.78
485.00	16381.41
485.18	16643.55
485.35	16673.98
485.53	16320.56
485.71	16266.72
485.89	16723.13
486.07	16615.46
486.25	16793.34
486.43	17064.85
486.61	17359.75
486.78	17252.09
486.96	17397.20
487.14	17603.17
487.32	17750.62
487.50	18305.33
487.68	18286.61
487.85	18487.89
488.03	18527.68
488.21	18775.78
488.39	18778.12
488.57	18972.38
488.75	19351.55
488.92	19389.00
489.10	19737.74
489.28	19637.09
489.46	20034.99
489.64	19878.17
489.81	20484.37
489.99	20255.00
490.17	20336.91
490.35	20739.49
490.53	20329.89
490.70	20659.91
490.88	20556.93
491.06	21043.76
491.24	20779.28
491.41	21308.24
491.59	20966.52
491.77	20896.30
491.95	21738.90
492.13	21935.50
492.30	22132.11
492.48	21989.33
492.66	21902.73
492.84	22188.28
493.01	22361.48
493.19	22244.45
493.37	22450.42
493.54	22412.97
493.72	22881.08
493.90	23094.07
494.08	23360.89
494.25	23735.37
494.43	23520.04
494.61	23543.45
494.79	23880.49
494.96	23803.25
495.14	23737.71
495.32	24002.19
495.49	24032.62
495.67	24070.07
495.85	24596.69
496.02	24802.66
496.20	24519.45
496.38	24634.14
496.55	24744.14
496.73	25296.51
496.91	24994.58
497.09	25462.69
497.26	25401.83
497.44	25460.35
497.62	25497.80
497.79	25949.52
497.97	25682.70
498.14	25762.28
498.32	26080.59
498.50	25837.17
498.67	26272.51
498.85	26534.65
499.03	26408.26
499.20	26511.25
499.38	26639.98
499.56	26525.29
499.73	26499.55
499.91	26867.01
500.08	26820.20
500.26	26801.47
500.44	27030.85
500.61	26902.12
500.79	26665.72
500.97	26841.26
501.14	27421.72
501.32	27615.98
501.49	27424.06
501.67	27449.80
501.84	27704.92
502.02	27562.15
502.20	27924.93
502.37	28261.97
502.55	28041.96
502.72	28393.04
502.90	28540.49
503.07	28716.03
503.25	28587.30
503.43	28465.60
503.60	28287.71
503.78	28414.10
503.95	28549.85
504.13	28491.34
504.30	29106.90
504.48	29050.73
504.65	28987.53
504.83	29727.14
505.01	29703.74
505.18	29404.15
505.36	29567.99
505.53	29759.91
505.71	29956.52
505.88	30368.45
506.06	29600.76
506.23	30204.61
506.41	29851.19
506.58	30354.41
506.76	30490.16
506.93	30494.84
507.11	30125.04
507.28	30684.42
507.46	30171.85
507.63	30534.63
507.81	30401.22
507.98	30728.89
508.16	30855.28
508.33	31290.62
508.50	31033.16
508.68	30944.22
508.85	31583.19
509.03	31618.30
509.20	31505.95
509.38	31714.26
509.55	31512.97
509.73	31814.90
509.90	32053.64
510.08	31943.63
510.25	31740.00
510.42	31777.45
510.60	32418.76
510.77	32065.34
510.95	32318.12
511.12	32180.03
511.30	32809.63
511.47	32769.84
511.64	32844.74
511.82	32512.38
511.99	32697.28
512.17	32893.89
512.34	32339.18
512.51	32804.95
512.69	32870.48
512.86	32945.38
513.04	33041.34
513.21	33287.10
513.38	33296.46
513.56	33039.00
513.73	32849.42
513.90	33378.38
514.08	33273.06
514.25	33605.41
514.43	33303.48
514.60	33682.65
514.77	33907.34
514.95	34043.09
515.12	34047.77
515.29	33757.55
515.47	34644.61
515.64	34148.42
515.81	34251.40
515.99	34176.50
516.16	33846.49
516.33	33748.18
516.51	34103.95
516.68	33813.72
516.85	33619.46
517.03	33963.51
517.20	34501.84
517.37	34277.15
517.54	34405.88
517.72	34555.67
517.89	34532.26
518.06	34338.00
518.24	34452.69
518.41	34565.03
518.58	35154.85
518.75	35091.65
518.93	35175.91
519.10	35108.04
519.27	35524.65
519.45	34890.37
519.62	35700.19
519.79	35665.08
519.96	35831.26
520.14	35988.08
520.31	35868.71
520.48	35709.55
520.65	36278.30
520.83	36378.95
521.00	36444.48
521.17	36018.50
521.34	36341.50
521.52	36748.75
521.69	36453.84
521.86	36591.94
522.03	36573.21
522.20	36870.46
522.38	36568.53
522.55	36783.86
522.72	36416.40
522.89	36858.76
523.07	37146.64
523.24	36931.31
523.41	37649.86
523.58	37254.31
523.75	37647.52
523.92	37750.50
524.10	37586.66
524.27	37865.19
524.44	37825.40
524.61	37368.99
524.78	37567.94
524.96	37376.01
525.13	38232.65
525.30	37982.21
525.47	38190.52
525.64	37879.23
525.81	37771.57
525.98	38153.07
526.16	37556.24
526.33	37413.46
526.50	38153.07
526.67	37488.36
526.84	37818.38
527.01	37853.48
527.18	38368.40
527.36	38855.23
527.53	38892.68
527.70	38958.22
527.87	38714.80
528.04	38653.95
528.21	38174.14
528.38	39075.24
528.55	39098.65
528.72	39543.35
528.89	39360.79
529.07	39236.74
529.24	39030.77
529.41	39489.52
529.58	38969.92
529.75	38780.34
529.92	39250.78
530.09	39569.10
530.26	39559.73
530.43	39365.47
530.60	39384.19
530.77	39803.15
530.94	39634.63
531.11	39758.68
531.28	39913.16
531.46	39943.58
531.63	40215.08
531.80	40011.46
531.97	39840.60
532.14	39728.25
532.31	39285.89
532.48	39541.01
532.65	39929.54
532.82	40226.79
532.99	40388.28
533.16	40163.59
533.33	40325.09
533.50	40514.67
533.67	40622.34
533.84	40215.08
534.01	40666.81
534.18	40741.71
534.35	40596.59
534.52	40493.61
534.69	41172.36
534.86	40844.69
535.03	40816.60
535.20	41205.13
535.37	41738.77
535.54	41324.50
535.71	41053.00
535.88	41715.37
536.05	41043.63
536.22	41254.28
536.38	41247.26
536.55	41184.07
536.72	41078.74
536.89	40858.73
537.06	41308.11
537.23	41478.97
537.40	41013.21
537.57	41361.95
537.74	41729.41
537.91	41755.16
538.08	41673.24
538.25	41387.69
538.42	41666.22
538.59	42162.41
538.75	41460.25
538.92	41876.86
539.09	41816.01
539.26	41785.58
539.43	41837.08
539.60	41722.39
539.77	41677.92
539.94	41848.78
540.11	41666.22
540.28	41825.37
540.44	41881.55
540.61	41766.86
540.78	41860.48
540.95	42124.96
541.12	42122.62
541.29	42038.36
541.46	42246.67
541.62	42141.35
541.79	42522.85
541.96	41900.27
542.13	42424.55
542.30	41954.10
542.47	42335.61
542.63	42288.80
542.80	42843.51
542.97	42981.60
543.14	42857.55
543.31	43220.33
543.48	43173.52
543.64	43393.53
543.81	42871.59
543.98	43510.56
544.15	42885.64
544.32	43285.87
544.48	43913.13
544.65	43391.19
544.82	43217.99
544.99	43122.03
545.16	43566.73
545.32	43096.28
545.49	43878.02
545.66	43777.38
545.83	43793.76
546.00	43892.07
546.16	43395.87
546.33	43489.49
546.50	43098.62
546.67	43730.57
546.83	43180.54
547.00	43910.79
547.17	43931.86
547.34	43526.94
547.50	43604.18
547.67	44062.93
547.84	43564.39
548.00	43913.13
548.17	44126.12
548.34	44236.12
548.51	43990.37
548.67	44030.16
548.84	44428.05
549.01	44105.06
549.18	44224.42
549.34	44107.40
549.51	44570.82
549.68	44495.92
549.84	44435.07
550.01	44629.34
550.18	44065.27
550.34	44687.85
550.51	44261.87
550.68	44177.61
550.84	44404.64
551.01	44713.59
551.18	44346.13
551.34	44168.25
551.51	44573.16
551.68	44729.98
551.84	44638.70
552.01	44650.40
552.18	44334.43
552.34	44404.64
552.51	44502.95
552.68	44748.70
552.84	45336.18
553.01	44966.37
553.18	44982.76
553.34	44776.79
553.51	44289.96
553.67	44622.31
553.84	45055.31
554.01	45050.63
554.17	45397.03
554.34	45256.60
554.51	45404.05
554.67	45165.32
554.84	45111.49
555.00	45045.95
555.17	44903.18
555.33	45237.87
555.50	44818.92
555.67	45319.79
555.83	45041.27
556.00	45333.84
556.16	45645.13
556.33	45177.02
556.50	45167.66
556.66	45177.02
556.83	44933.60
556.99	45808.96
557.16	45507.04
557.32	45680.24
557.49	45338.52
557.65	45497.67
557.82	45923.65
557.98	45031.91
558.15	45497.67
558.32	45820.67
558.48	45577.25
558.65	45137.23
558.81	45425.12
558.98	45495.33
559.14	45619.38
559.31	45390.01
559.47	45713.00
559.64	45624.06
559.80	45731.73
559.97	45951.74
560.13	45551.51
560.30	45382.99
560.46	45921.31
560.63	45933.01
560.79	45799.60
560.96	46309.84
561.12	45577.25
561.29	45492.99
561.45	45853.44
561.61	46454.95
561.78	46057.06
561.94	45593.64
562.11	45848.75
562.27	45457.88
562.44	46007.91
562.60	45993.87
562.77	46291.12
562.93	46263.03
563.10	46047.70
563.26	45841.73
563.42	46160.05
563.59	45916.63
563.75	45811.31
563.92	46106.21
564.08	45949.40
564.24	45972.80
564.41	46199.83
564.57	46347.29
564.74	45848.75
564.90	46494.74
565.07	45965.78
565.23	46218.56
565.39	46003.23
565.56	45921.31
565.72	46237.28
565.88	45701.30
566.05	46047.70
566.21	45993.87
566.38	45778.54
566.54	46204.52
566.70	46672.62
566.87	46234.94
567.03	46164.73
567.19	46817.74
567.36	46464.32
567.52	46358.99
567.68	46305.16
567.85	46309.84
568.01	46232.60
568.17	46244.30
568.34	46684.33
568.50	45998.55
568.66	46094.51
568.83	46307.50
568.99	46012.59
569.15	46377.72
569.32	45869.82
569.48	46628.15
569.64	46452.61
569.81	46581.34
569.97	45722.37
570.13	46246.65
570.30	45998.55
570.46	45638.11
570.62	46433.89
570.78	45804.28
570.95	45968.12
571.11	46174.09
571.27	45972.80
571.43	46298.14
571.60	46281.75
571.76	46309.84
571.92	46094.51
572.09	46181.11
572.25	45958.76
572.41	46293.46
572.57	46337.93
572.74	46918.38
572.90	46293.46
573.06	46522.83
573.22	46410.48
573.38	46571.98
573.55	46068.76
573.71	46569.64
573.87	46780.29
574.03	46373.03
574.20	46490.06
574.36	46146.00
574.52	46724.11
574.68	46209.20
574.84	46382.40
575.01	46569.64
575.17	46300.48
575.33	46469.00
575.49	46031.32
575.65	46401.12
575.82	46206.86
575.98	46349.63
576.14	46754.54
576.30	46836.46
576.46	46323.88
576.62	46417.50
576.79	46267.71
576.95	45949.40
577.11	46628.15
577.27	46653.90
577.43	46595.38
577.59	46227.92
577.75	46323.88
577.92	46176.43
578.08	46054.72
578.24	46061.74
578.40	45958.76
578.56	46412.82
578.72	46401.12
578.88	46506.44
579.04	46391.76
579.21	46504.10
579.37	46260.69
579.53	46621.13
579.69	46424.53
579.85	46199.83
580.01	46653.90
580.17	46251.33
580.33	46433.89
580.49	46541.55
580.65	46506.44
580.82	46440.91
580.98	46382.40
581.14	46330.90
581.30	46148.34
581.46	46340.27
581.62	46672.62
581.78	46300.48
581.94	46976.89
582.10	46349.63
582.26	47042.43
582.42	46546.23
582.58	46506.44
582.74	46469.00
582.90	46614.11
583.06	46913.70
583.22	46476.02
583.38	46951.15
583.54	46822.42
583.70	46937.10
583.86	47049.45
584.02	46635.17
584.18	46887.95
584.34	46930.08
584.50	46639.86
584.66	46677.30
584.82	46630.49
584.98	46883.27
585.14	46714.75
585.30	46707.73
585.46	46469.00
585.62	46363.67
585.78	46192.81
585.94	46248.99
586.10	45942.38
586.26	46232.60
586.42	46890.29
586.58	47014.34
586.74	46630.49
586.90	46625.81
587.06	46705.39
587.22	46672.62
587.38	46625.81
587.54	46621.13
587.70	46890.29
587.86	47091.58
588.02	46356.65
588.18	46944.12
588.34	46241.96
588.49	45893.22
588.65	45818.33
588.81	45717.68
588.97	46234.94
589.13	45937.69
589.29	45841.73
589.45	46717.09
589.61	46710.07
589.77	46681.98
589.93	46443.25
