SpectraSuite Data File
++++++++++++++++++++++++++++++++++++
Date: Fri Oct 25 11:23:32 EDT 2013
User: price-jones
Dark Spectrum Present: No
Reference Spectrum Present: No
Number of Sampled Component Spectra: 1
Spectrometers: USB2+H05261
Integration Time (usec): 100000 (USB2+H05261)
Spectra Averaged: 1 (USB2+H05261)
Boxcar Smoothing: 0 (USB2+H05261)
Correct for Electrical Dark: No (USB2+H05261)
Strobe/Lamp Enabled: No (USB2+H05261)
Correct for Detector Non-linearity: No (USB2+H05261)
Correct for Stray Light: No (USB2+H05261)
Number of Pixels in Processed Spectrum: 2048
>>>>>Begin Processed Spectral Data<<<<<
365.73	194.26
365.92	194.26
366.12	194.26
366.32	149.79
366.52	149.79
366.72	161.50
366.91	56.17
367.11	133.41
367.31	138.09
367.51	138.09
367.70	145.11
367.90	142.77
368.10	117.03
368.30	166.18
368.49	72.56
368.69	154.48
368.89	182.56
369.09	201.29
369.28	182.56
369.48	154.48
369.68	161.50
369.87	152.13
370.07	145.11
370.27	238.73
370.47	353.42
370.66	594.50
370.86	561.73
371.06	557.05
371.25	650.67
371.45	671.73
371.65	725.57
371.84	674.07
372.04	678.76
372.24	697.48
372.44	678.76
372.63	741.95
372.83	746.63
373.03	713.86
373.22	760.67
373.42	732.59
373.62	741.95
373.81	821.53
374.01	814.51
374.21	767.70
374.40	711.52
374.60	784.08
374.79	826.21
374.99	777.06
375.19	809.83
375.38	800.46
375.58	858.98
375.78	849.61
375.97	858.98
376.17	884.72
376.37	875.36
376.56	912.81
376.76	823.87
376.95	905.79
377.15	915.15
377.35	858.98
377.54	912.81
377.74	894.08
377.93	908.13
378.13	887.06
378.33	966.64
378.52	898.77
378.72	968.98
378.91	959.62
379.11	999.41
379.31	917.49
379.50	929.19
379.70	990.05
379.89	987.71
380.09	1025.15
380.28	945.58
380.48	954.94
380.68	968.98
380.87	992.39
381.07	1011.11
381.26	1013.45
381.46	999.41
381.65	1001.75
381.85	1078.99
382.04	1076.65
382.24	1069.62
382.43	973.66
382.63	1102.39
382.83	1043.88
383.02	1093.03
383.22	1055.58
383.41	1053.24
383.61	1022.81
383.80	1081.33
384.00	1156.22
384.19	1114.10
384.39	1165.59
384.58	1102.39
384.78	1156.22
384.97	1050.90
385.17	1193.67
385.36	1153.88
385.56	1167.93
385.75	1181.97
385.95	1210.06
386.14	1153.88
386.34	1170.27
386.53	1275.59
386.72	1235.80
386.92	1245.16
387.11	1266.23
387.31	1245.16
387.50	1270.91
387.70	1252.19
387.89	1294.32
388.09	1256.87
388.28	1355.17
388.48	1301.34
388.67	1226.44
388.86	1385.60
389.06	1376.24
389.25	1345.81
389.45	1380.92
389.64	1441.77
389.84	1320.06
390.03	1444.11
390.22	1362.19
390.42	1284.95
390.61	1439.43
390.81	1357.51
391.00	1380.92
391.19	1401.98
391.39	1401.98
391.58	1444.11
391.78	1444.11
391.97	1488.58
392.16	1406.66
392.36	1537.73
392.55	1502.62
392.75	1584.54
392.94	1598.59
393.13	1661.78
393.33	1612.63
393.52	1575.18
393.71	1544.75
393.91	1636.03
394.10	1575.18
394.29	1556.46
394.49	1647.74
394.68	1614.97
394.88	1689.87
395.07	1617.31
395.26	1689.87
395.46	1605.61
395.65	1774.13
395.84	1760.08
396.04	1715.61
396.23	1633.69
396.42	1689.87
396.62	1865.41
396.81	1774.13
397.00	1788.17
397.19	1771.79
397.39	1795.19
397.58	1930.94
397.77	1741.36
397.97	1870.09
398.16	1832.64
398.35	1944.99
398.55	1823.28
398.74	1860.73
398.93	2052.65
399.12	2047.97
399.32	1952.01
399.51	1956.69
399.70	1975.41
399.90	1914.56
400.09	2015.20
400.28	2059.67
400.47	1996.48
400.67	2183.72
400.86	2101.80
401.05	2010.52
401.24	2153.29
401.44	2057.33
401.63	2141.59
401.82	2085.42
402.01	2038.61
402.21	2174.36
402.40	2190.74
402.59	2085.42
402.78	2253.94
402.97	2190.74
403.17	2314.79
403.36	2279.68
403.55	2312.45
403.74	2373.30
403.93	2312.45
404.13	2368.62
404.32	2389.69
404.51	2438.84
404.70	2377.98
404.89	2492.67
405.09	2443.52
405.28	2476.29
405.47	2415.43
405.66	2530.12
405.85	2450.54
406.05	2438.84
406.24	2537.14
406.43	2602.68
406.62	2663.53
406.81	2684.59
407.00	2605.02
407.20	2605.02
407.39	2597.99
407.58	2759.49
407.77	2651.83
407.96	2710.34
408.15	2818.00
408.34	2750.13
408.54	2848.43
408.73	2862.48
408.92	2871.84
409.11	2843.75
409.30	2829.71
409.49	2876.52
409.68	2925.67
409.87	2951.42
410.07	3059.08
410.26	3112.91
410.45	3066.10
410.64	3148.02
410.83	3066.10
411.02	3183.13
411.21	3073.12
411.40	3014.61
411.59	3225.26
411.78	3258.03
411.98	3267.39
412.17	3304.84
412.36	3321.22
412.55	3382.07
412.74	3358.67
412.93	3435.91
413.12	3321.22
413.31	3506.12
413.50	3382.07
413.69	3485.06
413.88	3700.39
414.07	3543.57
414.26	3646.55
414.45	3576.34
414.64	3574.00
414.83	3684.00
415.02	3770.60
415.22	3737.84
415.41	3791.67
415.60	3836.14
415.79	3819.75
415.98	4028.06
416.17	4028.06
416.36	3892.31
416.55	4044.45
416.74	4079.55
416.93	4044.45
417.12	4290.20
417.31	4273.82
417.50	4140.41
417.69	4344.03
417.88	4304.25
418.07	4264.46
418.26	4194.24
418.45	4432.97
418.64	4526.60
418.83	4484.47
419.02	4456.38
419.21	4407.23
419.39	4564.04
419.58	4313.61
419.77	4512.55
419.96	4608.51
420.15	4550.00
420.34	4643.62
420.53	4521.92
420.72	4795.76
420.91	4664.69
421.10	4826.18
421.29	4922.15
421.48	4690.43
421.67	4800.44
421.86	4823.84
422.05	4805.12
422.24	4744.27
422.43	4919.81
422.61	4992.36
422.80	5008.75
422.99	5088.32
423.18	5015.77
423.37	4959.60
423.56	5020.45
423.75	4870.65
423.94	4919.81
424.13	4760.65
424.32	4727.88
424.50	5071.94
424.69	5144.50
424.88	5060.24
425.07	5043.85
425.26	4889.38
425.45	5029.81
425.64	4929.17
425.83	5018.11
426.01	5139.82
426.20	5029.81
426.39	5146.84
426.58	5001.72
426.77	5029.81
426.96	5186.63
427.15	5217.05
427.33	5179.61
427.52	5263.86
427.71	5408.98
427.90	5200.67
428.09	5219.39
428.28	5343.44
428.46	5408.98
428.65	5291.95
428.84	5474.51
429.03	5495.58
429.22	5254.50
429.40	5472.17
429.59	5579.84
429.78	5385.57
429.97	5217.05
430.16	5540.05
430.34	5514.30
430.53	5799.85
430.72	5633.67
430.91	5722.61
431.10	5603.24
431.28	5886.45
431.47	5860.70
431.66	5792.83
431.85	5823.25
432.03	5825.59
432.22	6141.57
432.41	5954.32
432.60	5837.30
432.79	6005.81
432.97	5937.94
433.16	6026.88
433.35	6090.07
433.54	6092.41
433.72	6197.74
433.91	6087.73
434.10	6204.76
434.28	6078.37
434.47	6181.35
434.66	6300.72
434.85	6377.96
435.03	6396.68
435.22	6354.55
435.41	6380.30
435.59	6494.99
435.78	6532.44
435.97	6544.14
436.16	6476.26
436.34	6363.92
436.53	6483.28
436.72	6719.68
436.90	6504.35
437.09	6703.29
437.28	6492.65
437.46	6630.74
437.65	6635.42
437.84	6810.96
438.02	6829.68
438.21	6719.68
438.40	6888.20
438.58	6977.14
438.77	7059.06
438.96	7077.78
439.14	7119.91
439.33	7300.13
439.52	7213.53
439.70	7129.27
439.89	7255.66
440.08	7382.05
440.26	7440.56
440.45	7489.71
440.63	7480.35
440.82	7648.87
441.01	7634.83
441.19	7592.70
441.38	7843.14
441.57	7779.94
441.75	7843.14
441.94	8004.63
442.12	7871.22
442.31	8116.98
442.50	8128.68
442.68	7983.57
442.87	8044.42
443.05	8372.10
443.24	8257.41
443.43	8079.53
443.61	8241.03
443.80	8395.50
443.98	8032.72
444.17	7969.52
444.35	8177.83
444.54	8271.45
444.73	8226.98
444.91	8252.73
445.10	8393.16
445.28	8358.05
445.47	8432.95
445.65	8269.11
445.84	8489.12
446.02	8484.44
446.21	8383.80
446.39	8667.00
446.58	8655.30
446.77	8629.56
446.95	8290.18
447.14	8362.73
447.32	8500.83
447.51	8552.32
447.69	8503.17
447.88	8442.31
448.06	8636.58
448.25	8659.98
448.43	8674.03
448.62	8465.72
448.80	8580.40
448.99	8695.09
449.17	8732.54
449.36	8587.43
449.54	8798.07
449.73	8990.00
449.91	8919.78
450.10	8809.78
450.28	9212.35
450.46	9238.09
450.65	9160.86
450.83	9139.79
451.02	9090.64
451.20	9282.56
451.39	9233.41
451.57	9322.35
451.76	9034.47
451.94	9493.21
452.13	9345.76
452.31	9448.74
452.49	9043.83
452.68	9467.47
452.86	9418.32
453.05	9481.51
453.23	9731.95
453.42	9235.75
453.60	9467.47
453.78	9521.30
453.97	9420.66
454.15	9415.98
454.34	9451.08
454.52	9731.95
454.70	9715.56
454.89	9968.34
455.07	9710.88
455.26	10071.33
455.44	10026.86
455.62	10036.22
455.81	9970.68
455.99	9905.15
456.17	10026.86
456.36	10352.19
456.54	10104.09
456.73	10178.99
456.91	10527.73
457.09	10305.38
457.28	10752.42
457.46	10321.76
457.64	10619.01
457.83	10471.56
458.01	10342.83
458.19	10574.54
458.38	10602.63
458.56	10963.07
458.74	10937.32
458.93	10752.42
459.11	10895.19
459.29	10677.52
459.48	10743.06
459.66	10766.46
459.84	10930.30
460.03	11068.39
460.21	10942.00
460.39	10965.41
460.57	10930.30
460.76	11297.77
460.94	11122.23
461.12	11307.13
461.31	11248.61
461.49	11061.37
461.67	11047.33
461.85	11412.45
462.04	11201.80
462.22	11981.20
462.40	11515.44
462.59	11517.78
462.77	11384.37
462.95	11653.53
463.13	11721.40
463.32	11852.47
463.50	11735.45
463.68	11744.81
463.86	11910.99
464.05	11723.74
464.23	11847.79
464.41	11929.71
464.59	11882.90
464.78	12147.38
464.96	11852.47
465.14	11847.79
465.32	12074.82
465.50	12325.26
465.69	12056.10
465.87	12248.02
466.05	12191.85
466.23	12077.16
466.41	12407.18
466.60	12573.36
466.78	12318.24
466.96	12208.23
467.14	12348.67
467.32	12339.30
467.51	12753.58
467.69	12004.61
467.87	12159.08
468.05	12725.49
468.23	12652.94
468.41	12603.78
468.60	12849.54
468.78	12994.65
468.96	12627.19
469.14	12762.94
469.32	12950.18
469.50	12613.15
469.69	12943.16
469.87	13319.99
470.05	13167.85
470.23	13240.41
470.41	13373.82
470.59	13500.21
470.77	13238.07
470.95	13397.23
471.14	13577.45
471.32	13266.16
471.50	13518.93
471.68	13572.77
471.86	13785.76
472.04	13848.95
472.22	14064.28
472.40	13668.73
472.58	13858.31
472.77	13947.25
472.95	14143.86
473.13	14853.04
473.31	13954.27
473.49	14221.10
473.67	14148.54
473.85	14420.04
474.03	14647.07
474.21	14665.80
474.39	14817.93
474.57	14841.34
474.75	14918.57
474.93	15056.67
475.12	14871.76
475.30	15152.63
475.48	15131.56
475.66	15293.06
475.84	15129.22
476.02	15403.07
476.20	15222.84
476.38	15765.85
476.56	16060.76
476.74	15957.77
476.92	16149.70
477.10	15602.01
477.28	16084.16
477.46	16114.59
477.64	16299.49
477.82	16910.37
478.00	16908.03
478.18	17003.99
478.36	17013.35
478.54	17376.14
478.72	17324.65
478.90	17245.07
479.08	17752.96
479.26	17678.07
479.44	17722.54
479.62	17853.61
479.80	18104.04
479.98	18354.48
480.16	18513.64
480.34	18539.38
480.52	18993.45
480.70	18682.16
480.88	18803.86
481.06	18682.16
481.24	18721.95
481.41	19061.32
481.59	19529.43
481.77	19625.39
481.95	19740.08
482.13	19793.91
482.31	19688.59
482.49	20439.90
482.67	20208.19
482.85	20507.77
483.03	20599.05
483.21	20957.16
483.39	21097.59
483.57	20762.89
483.74	21062.48
483.92	21516.54
484.10	21275.47
484.28	21759.96
484.46	22309.99
484.64	22796.82
484.82	22040.82
485.00	22438.72
485.18	22750.01
485.35	23421.74
485.53	22913.84
485.71	22955.97
485.89	23508.34
486.07	23321.10
486.25	23768.14
486.43	23576.22
486.61	23733.03
486.78	24166.03
486.96	24196.46
487.14	24364.98
487.32	24577.97
487.50	24936.07
487.68	25160.76
487.85	25458.01
488.03	25872.28
488.21	26005.69
488.39	25923.77
488.57	26422.31
488.75	26595.51
488.92	26480.82
489.10	27054.25
489.28	26719.56
489.46	26984.04
489.64	27321.07
489.81	27541.08
489.99	28004.51
490.17	27976.42
490.35	28301.76
490.53	28645.82
490.70	28320.48
490.88	28264.31
491.06	28725.39
491.24	28919.66
491.41	29383.09
491.59	29413.51
491.77	29544.58
491.95	29933.11
492.13	30033.75
492.30	29858.21
492.48	30293.55
492.66	30300.58
492.84	30499.52
493.01	30923.16
493.19	30714.85
493.37	31178.28
493.54	30782.73
493.72	31599.57
493.90	31555.10
494.08	31786.82
494.25	31864.05
494.43	32311.10
494.61	32416.42
494.79	32414.08
494.96	32535.79
495.14	33111.56
495.32	33706.05
495.49	33146.67
495.67	33029.64
495.85	33188.80
496.02	33897.98
496.20	34246.72
496.38	34590.78
496.55	34520.56
496.73	34862.28
496.91	34417.58
497.09	35012.07
497.26	35264.85
497.44	35388.90
497.62	35306.98
497.79	35814.88
497.97	35730.62
498.14	36025.53
498.32	36313.41
498.50	36601.30
498.67	36793.22
498.85	36772.16
499.03	36875.14
499.20	37071.75
499.38	36907.91
499.56	37198.13
499.73	37165.37
499.91	37479.00
500.08	37659.22
500.26	37776.25
500.44	37581.98
500.61	38024.34
500.79	37792.63
500.97	38270.10
501.14	38789.70
501.32	38595.43
501.49	38644.59
501.67	39079.92
501.84	39084.61
502.02	39131.42
502.20	39129.08
502.37	39225.04
502.55	39618.25
502.72	39941.24
502.90	39599.52
503.07	39805.49
503.25	39922.52
503.43	40109.76
503.60	40474.88
503.78	40147.21
503.95	40257.21
504.13	40526.38
504.30	41160.66
504.48	40371.90
504.65	40919.59
504.83	40701.92
505.01	41518.76
505.18	41748.14
505.36	41776.22
505.53	41261.30
505.71	41855.80
505.88	42005.59
506.06	41581.96
506.23	42295.82
506.41	41764.52
506.58	42476.04
506.76	42291.14
506.93	42426.89
507.11	42462.00
507.28	43019.05
507.46	42735.84
507.63	43096.28
507.81	43540.99
507.98	43072.88
508.16	43126.71
508.33	43707.16
508.50	43887.39
508.68	43627.59
508.85	43615.88
509.03	43620.56
509.20	43838.23
509.38	44858.71
509.55	44748.70
509.73	44741.68
509.90	44708.91
510.08	44786.15
510.25	44879.77
510.42	45111.49
510.60	45354.90
510.77	45497.67
510.95	45556.19
511.12	45214.47
511.30	45200.43
511.47	45401.71
511.64	45614.70
511.82	45876.84
511.99	46082.81
512.17	46260.69
512.34	46064.08
512.51	46667.94
512.69	46298.14
512.86	46618.79
513.04	46878.59
513.21	46820.08
513.38	47047.11
513.56	47093.92
513.73	46859.87
513.90	47753.95
514.08	46880.93
514.25	47634.58
514.43	47192.22
514.60	47423.93
514.77	47828.85
514.95	47498.83
515.12	47796.08
515.29	47903.74
515.47	48208.01
515.64	47943.53
515.81	48271.21
515.99	48479.52
516.16	48439.73
516.33	48762.72
516.51	48781.45
516.68	48364.83
516.85	49153.59
517.03	49048.27
517.20	48933.58
517.37	49104.44
517.54	49165.29
517.72	49209.76
517.89	49158.27
518.06	49361.90
518.24	49539.78
518.41	49471.90
518.58	49680.21
518.75	49942.35
518.93	49794.90
519.10	49294.02
519.27	50206.83
519.45	49818.30
519.62	50195.13
519.79	50265.34
519.96	49963.42
520.14	50279.39
520.31	50117.89
520.48	50384.71
520.65	50478.33
520.83	50948.78
521.00	50885.59
521.17	50665.58
521.34	50827.07
521.52	50761.54
521.69	50887.93
521.86	51257.73
522.03	51381.78
522.20	51800.74
522.38	51700.09
522.55	51550.30
522.72	51421.57
522.89	51573.70
523.07	51627.54
523.24	51730.52
523.41	51973.94
523.58	51887.34
523.75	52002.02
523.92	51938.83
524.10	52193.95
524.27	52315.65
524.44	52243.10
524.61	52186.92
524.78	52348.42
524.96	52102.67
525.13	52446.72
525.30	52743.97
525.47	52580.13
525.64	52369.49
525.81	52692.48
525.98	52839.93
526.16	52783.76
526.33	52669.08
526.50	52963.98
526.67	52914.83
526.84	53099.73
527.01	52919.51
527.18	53109.10
527.36	52924.19
527.53	53179.31
527.70	53558.48
527.87	53546.78
528.04	53277.61
528.21	53457.84
528.38	53682.53
528.55	53890.83
528.72	53453.15
528.89	53727.00
529.07	53375.92
529.24	53691.89
529.41	53865.09
529.58	53825.30
529.75	54000.84
529.92	53918.92
530.09	53897.86
530.26	54113.19
530.43	54314.47
530.60	54092.12
530.77	54302.77
530.94	54136.59
531.11	54049.99
531.28	54349.58
531.46	54333.20
531.63	54281.70
531.80	54527.46
531.97	54635.13
532.14	54525.12
532.31	54384.69
532.48	54712.36
532.65	54782.58
532.82	54529.80
532.99	54946.42
533.16	54944.08
533.33	54798.96
533.50	55114.94
533.67	54789.60
533.84	54766.20
534.01	54805.98
534.18	55327.92
534.35	55657.94
534.52	55255.37
534.69	55512.83
534.86	55494.10
535.03	55140.68
535.20	55271.75
535.37	55447.29
535.54	55316.22
535.71	55089.19
535.88	55550.27
536.05	55744.54
536.22	55660.28
536.38	55667.30
536.55	55669.64
536.72	55884.97
536.89	55693.05
537.06	55931.78
537.23	55810.07
537.40	55524.53
537.57	55859.23
537.74	55845.18
537.91	56090.94
538.08	56133.07
538.25	55756.24
538.42	56151.79
538.59	56350.74
538.75	55992.64
538.92	56088.60
539.09	56336.69
539.26	56357.76
539.43	56083.92
539.60	56212.65
539.77	56577.77
539.94	56472.45
540.11	56472.45
540.28	56603.52
540.44	56687.78
540.61	56760.33
540.78	56442.02
540.95	56535.64
541.12	56528.62
541.29	56685.43
541.46	56924.17
541.62	56711.18
541.79	56748.63
541.96	56409.25
542.13	56676.07
542.30	56832.89
542.47	56968.64
542.63	57085.67
542.80	57102.05
542.97	57059.92
543.14	57411.00
543.31	57265.89
543.48	57233.12
543.64	57640.37
543.81	57605.26
543.98	57425.04
544.15	57605.26
544.32	57490.58
544.48	57677.82
544.65	57549.09
544.82	57762.08
544.99	57382.91
545.16	57502.28
545.32	57553.77
545.49	57736.34
545.66	57869.75
545.83	57844.00
546.00	57748.04
546.16	57886.13
546.33	57839.32
546.50	57450.79
546.67	57652.08
546.83	57621.65
547.00	57867.40
547.17	57984.43
547.34	57968.05
547.50	58237.21
547.67	58171.67
547.84	58192.74
548.00	58094.44
548.17	58401.05
548.34	58103.80
548.51	58204.44
548.67	58267.64
548.84	58174.02
549.01	58237.21
549.18	58169.33
549.34	58396.37
549.51	58440.84
549.68	58611.70
549.84	58518.07
550.01	58408.07
550.18	58571.91
550.34	58623.40
550.51	58749.79
550.68	58546.16
550.84	58365.94
551.01	58731.06
551.18	58614.04
551.34	58710.00
551.51	58791.92
551.68	58742.77
551.84	58583.61
552.01	58494.67
552.18	58742.77
552.34	58557.86
552.51	58901.92
552.68	58536.80
552.84	58855.11
553.01	59070.44
553.18	58993.20
553.34	58932.35
553.51	58859.79
553.67	58920.65
553.84	59100.87
554.01	59192.15
554.17	59072.78
554.34	59182.79
554.51	58990.86
554.67	59348.96
554.84	59159.38
555.00	58995.54
555.17	58953.41
555.33	59037.67
555.50	59049.38
555.67	59143.00
555.83	59150.02
556.00	59189.81
556.16	59451.95
556.33	59353.65
556.50	59505.78
556.66	59367.69
556.83	59103.21
556.99	59512.80
557.16	59508.12
557.32	59648.55
557.49	59709.41
557.65	59346.62
557.82	59538.55
557.98	59309.18
558.15	59587.70
558.32	59615.79
558.48	59391.09
558.65	59681.32
558.81	59650.89
558.98	59573.66
559.14	59763.24
559.31	59770.26
559.47	59847.50
559.64	59906.01
559.80	59646.21
559.97	59971.55
560.13	59576.00
560.30	59852.18
560.46	59894.31
560.63	59695.36
560.79	59753.88
560.96	59920.05
561.12	59948.14
561.29	60044.10
561.45	59791.33
561.61	59994.95
561.78	60058.15
561.94	59819.41
562.11	59913.03
562.27	60121.34
562.44	60214.96
562.60	59880.27
562.77	60039.42
562.93	59903.67
563.10	60163.47
563.26	60111.98
563.42	60310.92
563.59	60219.64
563.75	60095.60
563.92	60016.02
564.08	60037.08
564.24	60296.88
564.41	59999.63
564.57	60245.39
564.74	60306.24
564.90	60023.04
565.07	60301.56
565.23	60158.79
565.39	60217.30
565.56	60406.89
565.72	60364.76
565.88	60273.48
566.05	60252.41
566.21	60273.48
566.38	60404.55
566.54	60334.33
566.70	60367.10
566.87	60247.73
567.03	60331.99
567.19	60554.34
567.36	60526.25
567.52	60397.52
567.68	60596.47
567.85	60608.17
568.01	60554.34
568.17	60441.99
568.34	60404.55
568.50	60425.61
568.66	60376.46
568.83	60540.30
568.99	60556.68
569.15	60355.39
569.32	60409.23
569.48	60465.40
569.64	60807.12
569.81	60580.09
569.97	60535.62
570.13	60514.55
570.30	60336.67
570.46	60690.09
570.62	60772.01
570.78	60566.04
570.95	60451.36
571.11	60701.79
571.27	60601.15
571.43	60807.12
571.60	60835.20
571.76	60573.06
571.92	60985.00
572.09	60683.07
572.25	60598.81
572.41	60573.06
572.57	60767.33
572.74	60816.48
572.90	60746.26
573.06	60732.22
573.22	60715.84
573.38	60584.77
573.55	60650.30
573.71	60886.70
573.87	60697.11
574.03	60893.72
574.20	60982.66
574.36	60664.35
574.52	60788.39
574.68	60938.19
574.84	60882.02
575.01	60952.23
575.17	60809.46
575.33	60706.47
575.49	60999.04
575.65	60980.32
575.82	60942.87
575.98	60837.54
576.14	61087.98
576.30	61031.81
576.46	60772.01
576.62	60818.82
576.79	60886.70
576.95	60657.32
577.11	60938.19
577.27	60835.20
577.43	60914.78
577.59	60846.91
577.75	60573.06
577.92	60727.54
578.08	60757.97
578.24	60940.53
578.40	61095.00
578.56	61162.88
578.72	60870.31
578.88	61162.88
579.04	61076.28
579.21	60917.12
579.37	61155.86
579.53	61102.03
579.69	60860.95
579.85	60839.89
580.01	60734.56
580.17	61013.08
580.33	61027.13
580.49	61219.05
580.65	60977.98
580.82	60935.85
580.98	60956.91
581.14	60867.97
581.30	61221.39
581.46	60947.55
581.62	61228.41
581.78	60961.59
581.94	61141.81
582.10	60963.93
582.26	61001.38
582.42	60942.87
582.58	60956.91
582.74	60954.57
582.90	61109.05
583.06	61097.34
583.22	60818.82
583.38	60956.91
583.54	61097.34
583.70	61214.37
583.86	60999.04
584.02	61036.49
584.18	60999.04
584.34	61165.22
584.50	60945.21
584.66	60863.29
584.82	60879.67
584.98	61226.07
585.14	61141.81
585.30	60921.80
585.46	61265.86
585.62	61244.80
585.78	61289.27
585.94	61029.47
586.10	61052.87
586.26	61183.94
586.42	61153.52
586.58	61125.43
586.74	61258.84
586.90	61116.07
587.06	61029.47
587.22	61146.50
587.38	61176.92
587.54	61345.44
587.70	61432.04
587.86	61240.12
588.02	61202.67
588.18	61270.54
588.34	61205.01
588.49	61078.62
