SpectraSuite Data File
++++++++++++++++++++++++++++++++++++
Date: Fri Oct 25 10:43:42 EDT 2013
User: price-jones
Dark Spectrum Present: No
Reference Spectrum Present: No
Number of Sampled Component Spectra: 1
Spectrometers: USB2+H05261
Integration Time (usec): 100000 (USB2+H05261)
Spectra Averaged: 1 (USB2+H05261)
Boxcar Smoothing: 0 (USB2+H05261)
Correct for Electrical Dark: No (USB2+H05261)
Strobe/Lamp Enabled: No (USB2+H05261)
Correct for Detector Non-linearity: No (USB2+H05261)
Correct for Stray Light: No (USB2+H05261)
Number of Pixels in Processed Spectrum: 2048
>>>>>Begin Processed Spectral Data<<<<<
365.73	105.32
365.92	105.32
366.12	105.32
366.32	79.58
366.52	0.00
366.72	0.00
366.91	42.13
367.11	51.49
367.31	0.00
367.51	77.24
367.70	65.54
367.90	21.06
368.10	0.00
368.30	58.51
368.49	14.04
368.69	63.19
368.89	86.60
369.09	63.19
369.28	93.62
369.48	72.56
369.68	0.00
369.87	39.79
370.07	28.09
370.27	93.62
370.47	170.86
370.66	463.43
370.86	468.11
371.06	418.96
371.25	503.22
371.45	470.45
371.65	500.87
371.84	500.87
372.04	433.00
372.24	437.68
372.44	449.38
372.63	491.51
372.83	510.24
373.03	514.92
373.22	528.96
373.42	498.53
373.62	564.07
373.81	538.32
374.01	599.18
374.21	557.05
374.40	580.45
374.60	535.98
374.79	550.03
374.99	545.34
375.19	589.82
375.38	566.41
375.58	592.16
375.78	667.05
375.97	554.71
376.17	594.50
376.37	589.82
376.56	674.07
376.76	631.94
376.95	674.07
377.15	613.22
377.35	587.47
377.54	655.35
377.74	557.05
377.93	657.69
378.13	629.60
378.33	753.65
378.52	617.90
378.72	685.78
378.91	653.01
379.11	676.41
379.31	585.13
379.50	641.31
379.70	737.27
379.89	662.37
380.09	650.67
380.28	653.01
380.48	720.88
380.68	627.26
380.87	645.99
381.07	645.99
381.26	772.38
381.46	702.16
381.65	688.12
381.85	683.44
382.04	678.76
382.24	767.70
382.43	678.76
382.63	746.63
382.83	713.86
383.02	814.51
383.22	667.05
383.41	755.99
383.61	734.93
383.80	751.31
384.00	704.50
384.19	763.01
384.39	809.83
384.58	854.30
384.78	821.53
384.97	795.78
385.17	891.74
385.36	688.12
385.56	798.12
385.75	809.83
385.95	821.53
386.14	826.21
386.34	880.04
386.53	884.72
386.72	814.51
386.92	884.72
387.11	983.02
387.31	947.92
387.50	858.98
387.70	870.68
387.89	851.96
388.09	875.36
388.28	889.40
388.48	901.11
388.67	901.11
388.86	959.62
389.06	896.43
389.25	954.94
389.45	1008.77
389.64	968.98
389.84	1029.84
390.03	1048.56
390.22	1006.43
390.42	1011.11
390.61	1053.24
390.81	994.73
391.00	994.73
391.19	1088.35
391.39	1015.79
391.58	1034.52
391.78	1001.75
391.97	1043.88
392.16	1062.60
392.36	1053.24
392.55	1011.11
392.75	1036.86
392.94	976.00
393.13	1062.60
393.33	1078.99
393.52	1074.31
393.71	1095.37
393.91	1071.97
394.10	1167.93
394.29	1128.14
394.49	1132.82
394.68	1214.74
394.88	1231.12
395.07	1233.46
395.26	1203.04
395.46	1226.44
395.65	1231.12
395.84	1249.85
396.04	1315.38
396.23	1247.51
396.42	1158.57
396.62	1219.42
396.81	1235.80
397.00	1233.46
397.19	1397.30
397.39	1345.81
397.58	1437.09
397.77	1397.30
397.97	1394.96
398.16	1373.89
398.35	1371.55
398.55	1423.05
398.74	1441.77
398.93	1516.67
399.12	1481.56
399.32	1406.66
399.51	1481.56
399.70	1614.97
399.90	1582.20
400.09	1598.59
400.28	1652.42
400.47	1600.93
400.67	1563.48
400.86	1689.87
401.05	1762.42
401.24	1640.72
401.44	1842.00
401.63	1694.55
401.82	1626.67
402.01	1748.38
402.21	1687.53
402.40	1781.15
402.59	1694.55
402.78	1741.36
402.97	1774.13
403.17	1827.96
403.36	1790.51
403.55	1830.30
403.74	1919.24
403.93	1877.11
404.13	1863.07
404.32	1844.34
404.51	1867.75
404.70	1944.99
404.89	1888.81
405.09	1968.39
405.28	2015.20
405.47	1966.05
405.66	2085.42
405.85	2054.99
406.05	2057.33
406.24	2045.63
406.43	2069.03
406.62	2057.33
406.81	2059.67
407.00	1980.09
407.20	2090.10
407.39	2132.23
407.58	2186.06
407.77	2200.10
407.96	2181.38
408.15	2347.56
408.34	2228.19
408.54	2272.66
408.73	2310.11
408.92	2188.40
409.11	2200.10
409.30	2275.00
409.49	2143.93
409.68	2345.22
409.87	2333.51
410.07	2331.17
410.26	2382.67
410.45	2399.05
410.64	2520.76
410.83	2502.03
411.02	2649.49
411.21	2588.63
411.40	2555.86
411.59	2605.02
411.78	2712.68
411.98	2700.98
412.17	2689.28
412.36	2757.15
412.55	2775.88
412.74	2740.77
412.93	2686.94
413.12	2719.70
413.31	2803.96
413.50	2813.32
413.69	2778.22
413.88	2944.39
414.07	2937.37
414.26	2965.46
414.45	2958.44
414.64	3070.78
414.83	3105.89
415.02	3030.99
415.22	3124.62
415.41	3103.55
415.60	3169.09
415.79	3178.45
415.98	3248.66
416.17	3269.73
416.36	3314.20
416.55	3215.90
416.74	3417.18
416.93	3314.20
417.12	3215.90
417.31	3396.12
417.50	3384.41
417.69	3534.21
417.88	3529.53
418.07	3316.54
418.26	3534.21
418.45	3552.93
418.64	3627.83
418.83	3740.18
419.02	3623.15
419.21	3508.46
419.39	3672.30
419.58	3606.77
419.77	3536.55
419.96	3597.40
420.15	3644.21
420.34	3667.62
420.53	3707.41
420.72	3812.73
420.91	3859.54
421.10	3810.39
421.29	3840.82
421.48	3744.86
421.67	3960.19
421.86	3875.93
422.05	3765.92
422.24	3873.59
422.43	3904.01
422.61	3929.76
422.80	3878.27
422.99	3864.22
423.18	4021.04
423.37	4025.72
423.56	3950.82
423.75	4028.06
423.94	3875.93
424.13	3604.42
424.32	3857.20
424.50	3969.55
424.69	3906.35
424.88	4007.00
425.07	3908.69
425.26	3908.69
425.45	3873.59
425.64	4021.04
425.83	3927.42
426.01	4084.23
426.20	4117.00
426.39	4030.40
426.58	4021.04
426.77	4004.66
426.96	4042.11
427.15	3946.14
427.33	4180.20
427.52	4107.64
427.71	4077.21
427.90	4191.90
428.09	4107.64
428.28	4098.28
428.46	4168.49
428.65	4156.79
428.84	4269.14
429.03	4313.61
429.22	4128.70
429.40	4234.03
429.59	4126.36
429.78	3899.33
429.97	4021.04
430.16	4114.66
430.34	4109.98
430.53	4091.26
430.72	4224.67
430.91	4156.79
431.10	4318.29
431.28	4458.72
431.47	4587.45
431.66	4648.30
431.85	4414.25
432.03	4535.96
432.22	4739.58
432.41	4571.07
432.60	4552.34
432.79	4568.73
432.97	4739.58
433.16	4734.90
433.35	4648.30
433.54	4652.98
433.72	4753.63
433.91	4683.41
434.10	4748.95
434.28	4760.65
434.47	4798.10
434.66	4940.87
434.85	4945.55
435.03	4915.12
435.22	4905.76
435.41	5128.11
435.59	5198.33
435.78	5001.72
435.97	5174.92
436.16	5076.62
436.34	5200.67
436.53	5254.50
436.72	5210.03
436.90	5210.03
437.09	5200.67
437.28	4947.89
437.46	5153.86
437.65	5170.24
437.84	5121.09
438.02	5149.18
438.21	5198.33
438.40	5167.90
438.58	5287.27
438.77	5411.32
438.96	5287.27
439.14	5645.37
439.33	5731.97
439.52	5556.43
439.70	5652.39
439.89	5514.30
440.08	5652.39
440.26	5696.86
440.45	5792.83
440.63	5989.43
440.82	6015.18
441.01	6050.28
441.19	5968.37
441.38	5975.39
441.57	6188.38
441.75	6085.39
441.94	6256.25
442.12	6211.78
442.31	6265.61
442.50	6551.16
442.68	6340.51
442.87	6214.12
443.05	6537.12
443.24	6565.20
443.43	6408.39
443.61	6534.78
443.80	6626.06
443.98	6384.98
444.17	6258.59
444.35	6356.90
444.54	6724.36
444.73	6604.99
444.91	6574.56
445.10	6637.76
445.28	6607.33
445.47	6340.51
445.65	6464.56
445.84	6506.69
446.02	6513.71
446.21	6420.09
446.39	6551.16
446.58	6677.55
446.77	6782.87
446.95	6712.66
447.14	6752.45
447.32	6731.38
447.51	6775.85
447.69	6530.09
447.88	6729.04
448.06	6738.40
448.25	6822.66
448.43	6832.02
448.62	6743.08
448.80	6799.26
448.99	6871.81
449.17	6839.05
449.36	6843.73
449.54	7110.55
449.73	7082.46
449.91	7089.48
450.10	7124.59
450.28	7363.33
450.46	7145.66
450.65	7272.04
450.83	7169.06
451.02	7421.84
451.20	7325.88
451.39	7265.02
451.57	7194.81
451.76	7155.02
451.94	7150.34
452.13	7164.38
452.31	7234.60
452.49	7286.09
452.68	7183.10
452.86	7248.64
453.05	7447.58
453.23	7412.48
453.42	7225.23
453.60	7155.02
453.78	7550.57
453.97	7356.30
454.15	7356.30
454.34	7286.09
454.52	7529.50
454.70	7536.52
454.89	7578.65
455.07	7555.25
455.26	7662.91
455.44	7908.67
455.62	7826.75
455.81	7660.57
455.99	7922.71
456.17	8056.12
456.36	7875.90
456.54	7873.56
456.73	8028.04
456.91	8234.00
457.09	8250.39
457.28	8201.24
457.46	8112.30
457.64	8243.37
457.83	8255.07
458.01	8056.12
458.19	8266.77
458.38	8243.37
458.56	8404.86
458.74	8299.54
458.93	8290.18
459.11	8418.91
459.29	8339.33
459.48	8320.60
459.66	8187.19
459.84	8458.70
460.03	8638.92
460.21	8390.82
460.39	8636.58
460.57	8692.75
460.76	8578.06
460.94	8631.90
461.12	8627.21
461.31	8664.66
461.49	8681.05
461.67	8716.16
461.85	8957.23
462.04	8706.79
462.22	9198.31
462.40	9050.85
462.59	8826.16
462.77	8938.51
462.95	8840.20
463.13	8870.63
463.32	8879.99
463.50	8889.35
463.68	9116.39
463.86	9151.49
464.05	8999.36
464.23	8954.89
464.41	9202.99
464.59	8872.97
464.78	9123.41
464.96	9092.98
465.14	8884.67
465.32	8999.36
465.50	9338.74
465.69	9296.61
465.87	9114.05
466.05	9390.23
466.23	9298.95
466.41	9280.22
466.60	9334.06
466.78	9373.85
466.96	9376.19
467.14	9411.29
467.32	9507.26
467.51	9371.50
467.69	9284.91
467.87	9366.82
468.05	9455.76
468.23	9376.19
468.41	9509.60
468.60	9490.87
468.78	9635.99
468.96	9488.53
469.14	9596.20
469.32	9692.16
469.50	9741.31
469.69	9626.62
469.87	9790.46
470.05	9713.22
470.23	9991.75
470.41	9968.34
470.59	10085.37
470.77	10008.13
470.95	9832.59
471.14	10090.05
471.32	10061.96
471.50	10349.85
471.68	10310.06
471.86	10422.41
472.04	10279.63
472.22	10754.76
472.40	10403.68
472.58	10342.83
472.77	10581.56
472.95	10616.67
473.13	10904.56
473.31	10579.22
473.49	10619.01
473.67	10527.73
473.85	10714.97
474.03	11124.57
474.21	11082.44
474.39	11030.94
474.57	11037.97
474.75	11183.08
474.93	11363.30
475.12	11152.65
475.30	11250.96
475.48	11314.15
475.66	11300.11
475.84	11321.17
476.02	11494.37
476.20	11351.60
476.38	11824.39
476.56	11953.12
476.74	11829.07
476.92	11857.15
477.10	11754.17
477.28	12266.75
477.46	12058.44
477.64	12063.12
477.82	12269.09
478.00	12566.34
478.18	12641.23
478.36	12681.02
478.54	12620.17
478.72	12657.62
478.90	12898.69
479.08	13111.68
479.26	13247.43
479.44	13364.46
479.62	13373.82
479.80	13235.73
479.98	13542.34
480.16	13830.23
480.34	13654.69
480.52	14005.77
480.70	13748.31
480.88	13855.97
481.06	14003.43
481.24	14045.55
481.41	14288.97
481.59	14380.25
481.77	14333.44
481.95	14429.40
482.13	14747.72
482.31	14277.27
482.49	14960.70
482.67	14822.61
482.85	15103.48
483.03	15150.29
483.21	15573.92
483.39	15410.09
483.57	15578.61
483.74	15580.95
483.92	15697.97
484.10	15716.70
484.28	15719.04
484.46	16126.29
484.64	16702.06
484.82	16180.12
485.00	16393.11
485.18	16505.46
485.35	16379.07
485.53	16243.32
485.71	16369.71
485.89	16716.11
486.07	16570.99
486.25	16767.60
486.43	17011.01
486.61	17146.76
486.78	17128.04
486.96	17226.34
487.14	17706.15
487.32	17699.13
487.50	18064.25
487.68	18284.26
487.85	18499.59
488.03	18403.63
488.21	18537.04
488.39	18349.80
488.57	18735.99
488.75	18710.24
488.92	19393.68
489.10	19248.57
489.28	19480.28
489.46	19569.22
489.64	19751.78
489.81	20362.66
489.99	20123.93
490.17	20477.35
490.35	20833.11
490.53	20226.91
490.70	20575.65
490.88	20645.87
491.06	21008.65
491.24	20716.08
491.41	20655.23
491.59	21006.31
491.77	20830.77
491.95	21195.89
492.13	21462.71
492.30	21769.32
492.48	21593.78
492.66	21699.11
492.84	22071.25
493.01	22368.50
493.19	22064.23
493.37	22099.34
493.54	22427.01
493.72	22434.03
493.90	22801.50
494.08	23323.44
494.25	23566.85
494.43	23269.61
494.61	23374.93
494.79	23360.89
494.96	23831.33
495.14	23344.50
495.32	24159.01
495.49	23711.97
495.67	23728.35
495.85	24477.32
496.02	24236.25
496.20	24568.60
496.38	24620.10
496.55	24741.80
496.73	25432.26
496.91	24727.76
497.09	25195.87
497.26	25151.40
497.44	25432.26
497.62	25266.08
497.79	25832.49
497.97	25366.73
498.14	25514.18
498.32	25820.79
498.50	25563.33
498.67	26284.22
498.85	25682.70
499.03	26089.95
499.20	26291.24
499.38	25855.90
499.56	26419.97
499.73	26120.38
499.91	26906.80
500.08	26794.45
500.26	26239.75
500.44	26815.52
500.61	26831.90
500.79	26298.26
500.97	26822.54
501.14	27213.41
501.32	27351.50
501.49	27274.26
501.67	27213.41
501.84	27592.58
502.02	27438.10
502.20	27934.29
502.37	28011.53
502.55	27885.14
502.72	28095.79
502.90	28311.12
503.07	28191.75
503.25	28170.69
503.43	28060.68
503.60	28341.55
503.78	28273.67
503.95	28151.96
504.13	28613.05
504.30	28554.54
504.48	28933.70
504.65	29242.65
504.83	29282.44
505.01	29116.26
505.18	29160.73
505.36	29319.89
505.53	29546.92
505.71	29914.39
505.88	29893.32
506.06	29752.89
506.23	29736.51
506.41	29610.12
506.58	29755.23
506.76	29874.60
506.93	30139.08
507.11	29963.54
507.28	30384.83
507.46	29893.32
507.63	29802.04
507.81	30251.42
507.98	30235.04
508.16	30483.14
508.33	30726.55
508.50	30558.03
508.68	30775.70
508.85	31232.11
509.03	31101.04
509.20	31494.25
509.38	31370.20
509.55	31700.22
509.73	31363.18
509.90	31519.99
510.08	31644.04
510.25	31461.48
510.42	31861.71
510.60	31812.56
510.77	31847.67
510.95	32346.20
511.12	31791.50
511.30	32112.15
511.47	32231.52
511.64	32603.66
511.82	32526.42
511.99	32301.73
512.17	32575.58
512.34	32163.64
512.51	32776.86
512.69	33118.58
512.86	32732.39
513.04	33085.81
513.21	33216.88
513.38	32814.31
513.56	33034.32
513.73	32865.80
513.90	33331.57
514.08	33476.68
514.25	33694.35
514.43	33350.29
514.60	33565.62
514.77	33207.52
514.95	33371.36
515.12	33277.74
515.29	33804.36
515.47	34553.33
515.64	34323.96
515.81	34075.86
515.99	34256.08
516.16	33865.21
516.33	33780.95
516.51	33844.15
516.68	33584.35
516.85	33270.72
517.03	33462.64
517.20	34092.24
517.37	34176.50
517.54	34794.40
517.72	34305.23
517.89	34066.50
518.06	34197.57
518.24	34225.65
518.41	34359.06
518.58	34778.02
518.75	34852.92
518.93	35189.95
519.10	34890.37
519.27	35065.91
519.45	35201.66
519.62	35739.98
519.79	35302.30
519.96	35541.03
520.14	35428.69
520.31	35129.10
520.48	35690.83
520.65	35550.40
520.83	35915.52
521.00	36020.84
521.17	35655.72
521.34	35871.05
521.52	36465.55
521.69	36463.21
521.86	36751.09
522.03	36613.00
522.20	36325.11
522.38	36809.61
522.55	36704.28
522.72	36435.12
522.89	36364.90
523.07	36814.29
523.24	36900.89
523.41	37088.13
523.58	36914.93
523.75	37518.79
523.92	37497.72
524.10	37677.94
524.27	37619.43
524.44	37380.70
524.61	37535.17
524.78	37603.05
524.96	37240.26
525.13	37462.61
525.30	38120.31
525.47	38085.20
525.64	37507.08
525.81	38080.52
525.98	37633.47
526.16	37551.56
526.33	37207.50
526.50	37703.69
526.67	37322.18
526.84	37532.83
527.01	37776.25
527.18	38171.80
527.36	38167.12
527.53	38483.09
527.70	38541.60
527.87	38705.44
528.04	38370.74
528.21	38845.87
528.38	38401.17
528.55	38808.42
528.72	38932.47
528.89	39152.48
529.07	38770.97
529.24	38455.00
529.41	38808.42
529.58	38843.53
529.75	39222.70
529.92	39178.23
530.09	39180.57
530.26	39075.24
530.43	39421.64
530.60	39283.55
530.77	39117.37
530.94	39318.66
531.11	39812.51
531.28	39686.12
531.46	39601.86
531.63	39931.88
531.80	39335.04
531.97	39543.35
532.14	39484.84
532.31	39367.81
532.48	39723.57
532.65	40058.27
532.82	39826.56
532.99	39868.69
533.16	39658.04
533.33	39913.16
533.50	40334.45
533.67	40016.14
533.84	39995.07
534.01	40023.16
534.18	40062.95
534.35	40491.27
534.52	39896.77
534.69	40926.61
534.86	40416.37
535.03	40091.04
535.20	40989.80
535.37	40994.48
535.54	41289.39
535.71	40395.31
535.88	40673.83
536.05	40772.13
536.22	40741.71
536.38	40659.79
536.55	40865.75
536.72	40800.22
536.89	40931.29
537.06	40994.48
537.23	41324.50
537.40	40900.86
537.57	41317.48
537.74	40950.01
537.91	41998.57
538.08	41432.16
538.25	41324.50
538.42	41418.12
538.59	41600.68
538.75	41109.17
538.92	41340.88
539.09	41446.21
539.26	41305.77
539.43	41464.93
539.60	41633.45
539.77	41558.55
539.94	41471.95
540.11	41406.42
540.28	41855.80
540.44	41677.92
540.61	41179.39
540.78	41418.12
540.95	41607.70
541.12	41930.70
541.29	41996.23
541.46	42003.25
541.62	41848.78
541.79	42366.04
541.96	41907.29
542.13	42003.25
542.30	41689.62
542.47	41701.32
542.63	42040.70
542.80	42038.36
542.97	43133.73
543.14	42707.76
543.31	42478.38
543.48	42731.16
543.64	42967.55
543.81	42623.50
543.98	42679.67
544.15	43042.45
544.32	42981.60
544.48	43639.29
544.65	42951.17
544.82	42567.32
544.99	43014.37
545.16	42787.33
545.32	42611.79
545.49	43421.62
545.66	43569.07
545.83	43356.08
546.00	43782.06
546.16	42923.08
546.33	43189.91
546.50	42621.16
546.67	43342.04
546.83	43332.68
547.00	43274.16
547.17	43615.88
547.34	43105.65
547.50	43454.39
547.67	43599.50
547.84	43468.43
548.00	43903.77
548.17	44074.63
548.34	44046.54
548.51	44191.65
548.67	44224.42
548.84	43756.32
549.01	43660.35
549.18	43735.25
549.34	43800.79
549.51	43800.79
549.68	43927.17
549.84	43966.96
550.01	43962.28
550.18	44112.08
550.34	44231.44
550.51	44350.81
550.68	43789.08
550.84	43653.33
551.01	43856.96
551.18	44421.03
551.34	43789.08
551.51	44229.10
551.68	44442.09
551.84	44383.58
552.01	44367.20
552.18	44666.78
552.34	44292.30
552.51	44509.97
552.68	44278.25
552.84	44360.17
553.01	44776.79
553.18	44318.04
553.34	44531.03
553.51	44713.59
553.67	44549.76
553.84	45015.52
554.01	45331.50
554.17	44603.59
554.34	45174.68
554.51	45151.27
554.67	44657.42
554.84	45024.89
555.00	44758.06
555.17	44528.69
555.33	44877.43
555.50	45111.49
555.67	45034.25
555.83	44392.94
556.00	44725.30
556.16	45233.19
556.33	44949.99
556.50	44832.96
556.66	45071.70
556.83	44863.39
556.99	45064.67
557.16	45523.42
557.32	45022.54
557.49	45172.34
557.65	45099.78
557.82	45429.80
557.98	45315.11
558.15	44973.39
558.32	45153.62
558.48	44832.96
558.65	45003.82
558.81	45181.70
558.98	45092.76
559.14	44912.54
559.31	45263.62
559.47	45270.64
559.64	45350.22
559.80	45055.31
559.97	45741.09
560.13	44907.86
560.30	45368.94
560.46	45595.98
560.63	45462.57
560.79	45574.91
560.96	45628.74
561.12	45345.54
561.29	45350.22
561.45	45656.83
561.61	45418.10
561.78	45422.78
561.94	45418.10
562.11	45467.25
562.27	44980.42
562.44	45839.39
562.60	45984.51
562.77	45661.51
562.93	45855.78
563.10	45792.58
563.26	45282.34
563.42	46160.05
563.59	45436.82
563.75	45778.54
563.92	45837.05
564.08	45750.45
564.24	45935.35
564.41	45689.60
564.57	45631.08
564.74	45734.07
564.90	45986.85
565.07	45635.77
565.23	45998.55
565.39	45764.49
565.56	45764.49
565.72	45607.68
565.88	45612.36
566.05	45289.37
566.21	45694.28
566.38	45811.31
566.54	45722.37
566.70	45972.80
566.87	46157.70
567.03	45769.18
567.19	46408.14
567.36	46272.39
567.52	45785.56
567.68	45497.67
567.85	45865.14
568.01	46131.96
568.17	45904.93
568.34	46209.20
568.50	46059.40
568.66	45696.62
568.83	45972.80
568.99	45750.45
569.15	45874.50
569.32	45853.44
569.48	45815.99
569.64	46452.61
569.81	46302.82
569.97	45572.57
570.13	46169.41
570.30	45652.15
570.46	45790.24
570.62	45492.99
570.78	45647.47
570.95	46019.61
571.11	46117.92
571.27	45656.83
571.43	45820.67
571.60	45890.88
571.76	45741.09
571.92	46085.15
572.09	45975.14
572.25	46164.73
572.41	46284.09
572.57	46265.37
572.74	46511.13
572.90	46061.74
573.06	46471.34
573.22	45982.16
573.38	45975.14
573.55	46075.79
573.71	46108.55
573.87	46466.66
574.03	46162.39
574.20	45947.06
574.36	46195.15
574.52	46227.92
574.68	46134.30
574.84	46213.88
575.01	46005.57
575.17	45954.08
575.33	46096.85
575.49	46012.59
575.65	46541.55
575.82	46248.99
575.98	45689.60
576.14	46623.47
576.30	46241.96
576.46	46087.49
576.62	46052.38
576.79	46131.96
576.95	46131.96
577.11	46295.80
577.27	46148.34
577.43	46141.32
577.59	45991.53
577.75	45595.98
577.92	45893.22
578.08	45790.24
578.24	45860.46
578.40	45595.98
578.56	46515.81
578.72	46342.61
578.88	46485.38
579.04	46307.50
579.21	46047.70
579.37	46333.24
579.53	46307.50
579.69	45708.32
579.85	46202.18
580.01	45942.38
580.17	46136.64
580.33	45886.20
580.49	46251.33
580.65	45902.59
580.82	46138.98
580.98	46433.89
581.14	46169.41
581.30	46031.32
581.46	46183.45
581.62	46195.15
581.78	45940.04
581.94	46525.17
582.10	46349.63
582.26	46263.03
582.42	46342.61
582.58	46424.53
582.74	46316.86
582.90	46588.36
583.06	46471.34
583.22	46169.41
583.38	46555.60
583.54	46541.55
583.70	45961.10
583.86	46593.04
584.02	46209.20
584.18	46691.35
584.34	46188.13
584.50	46419.84
584.66	46293.46
584.82	45949.40
584.98	46466.66
585.14	46375.37
585.30	46450.27
585.46	46052.38
585.62	46260.69
585.78	46312.18
585.94	45993.87
586.10	46333.24
586.26	45855.78
586.42	46230.26
586.58	46529.85
586.74	46237.28
586.90	46253.67
587.06	46361.33
587.22	46323.88
587.38	46225.58
587.54	46525.17
587.70	46562.62
587.86	46293.46
588.02	45603.00
588.18	46469.00
588.34	46183.45
588.49	45478.95
588.65	45492.99
588.81	45336.18
588.97	46426.87
589.13	45855.78
589.29	46064.08
589.45	46106.21
589.61	46148.34
589.77	46316.86
589.93	45787.90
