SpectraSuite Data File
++++++++++++++++++++++++++++++++++++
Date: Fri Oct 25 10:44:38 EDT 2013
User: price-jones
Dark Spectrum Present: No
Reference Spectrum Present: No
Number of Sampled Component Spectra: 1
Spectrometers: USB2+H05261
Integration Time (usec): 100000 (USB2+H05261)
Spectra Averaged: 1 (USB2+H05261)
Boxcar Smoothing: 0 (USB2+H05261)
Correct for Electrical Dark: No (USB2+H05261)
Strobe/Lamp Enabled: No (USB2+H05261)
Correct for Detector Non-linearity: No (USB2+H05261)
Correct for Stray Light: No (USB2+H05261)
Number of Pixels in Processed Spectrum: 2048
>>>>>Begin Processed Spectral Data<<<<<
365.73	166.18
365.92	166.18
366.12	166.18
366.32	14.04
366.52	0.00
366.72	30.43
366.91	0.00
367.11	14.04
367.31	63.19
367.51	21.06
367.70	37.45
367.90	35.11
368.10	18.72
368.30	0.00
368.49	0.00
368.69	44.47
368.89	39.79
369.09	74.90
369.28	49.15
369.48	35.11
369.68	58.51
369.87	147.45
370.07	93.62
370.27	98.30
370.47	177.88
370.66	308.95
370.86	341.72
371.06	465.77
371.25	442.36
371.45	381.51
371.65	454.06
371.84	421.30
372.04	388.53
372.24	421.30
372.44	472.79
372.63	573.43
372.83	468.11
373.03	472.79
373.22	538.32
373.42	496.19
373.62	468.11
373.81	564.07
374.01	580.45
374.21	528.96
374.40	451.72
374.60	566.41
374.79	528.96
374.99	589.82
375.19	521.94
375.38	550.03
375.58	582.79
375.78	622.58
375.97	519.60
376.17	601.52
376.37	552.37
376.56	596.84
376.76	533.64
376.95	540.66
377.15	606.20
377.35	601.52
377.54	660.03
377.74	571.09
377.93	638.97
378.13	610.88
378.33	608.54
378.52	538.32
378.72	627.26
378.91	617.90
379.11	580.45
379.31	575.77
379.50	620.24
379.70	641.31
379.89	634.29
380.09	564.07
380.28	564.07
380.48	697.48
380.68	629.60
380.87	533.64
381.07	638.97
381.26	709.18
381.46	690.46
381.65	662.37
381.85	727.91
382.04	702.16
382.24	648.33
382.43	643.65
382.63	678.76
382.83	657.69
383.02	737.27
383.22	741.95
383.41	650.67
383.61	683.44
383.80	758.33
384.00	723.23
384.19	737.27
384.39	791.10
384.58	727.91
384.78	706.84
384.97	819.19
385.17	723.23
385.36	730.25
385.56	725.57
385.75	716.20
385.95	786.42
386.14	812.17
386.34	835.57
386.53	695.14
386.72	821.53
386.92	765.36
387.11	760.67
387.31	753.65
387.50	858.98
387.70	734.93
387.89	816.85
388.09	840.25
388.28	835.57
388.48	739.61
388.67	842.59
388.86	809.83
389.06	915.15
389.25	833.23
389.45	917.49
389.64	884.72
389.84	901.11
390.03	873.02
390.22	968.98
390.42	910.47
390.61	873.02
390.81	992.39
391.00	1006.43
391.19	978.34
391.39	915.15
391.58	971.32
391.78	936.21
391.97	938.55
392.16	999.41
392.36	940.90
392.55	971.32
392.75	894.08
392.94	985.37
393.13	957.28
393.33	917.49
393.52	1001.75
393.71	1043.88
393.91	1048.56
394.10	1036.86
394.29	933.87
394.49	999.41
394.68	1093.03
394.88	1076.65
395.07	1163.25
395.26	1146.86
395.46	1069.62
395.65	1097.71
395.84	1109.41
396.04	1132.82
396.23	1156.22
396.42	1137.50
396.62	1221.76
396.81	1121.12
397.00	1188.99
397.19	1252.19
397.39	1188.99
397.58	1268.57
397.77	1261.55
397.97	1256.87
398.16	1268.57
398.35	1191.33
398.55	1416.02
398.74	1287.29
398.93	1352.83
399.12	1289.64
399.32	1235.80
399.51	1306.02
399.70	1359.85
399.90	1439.43
400.09	1521.35
400.28	1310.70
400.47	1397.30
400.67	1380.92
400.86	1341.13
401.05	1472.20
401.24	1488.58
401.44	1448.79
401.63	1607.95
401.82	1558.80
402.01	1444.11
402.21	1556.46
402.40	1455.81
402.59	1516.67
402.78	1425.39
402.97	1624.33
403.17	1565.82
403.36	1551.78
403.55	1638.38
403.74	1671.14
403.93	1610.29
404.13	1610.29
404.32	1659.44
404.51	1610.29
404.70	1762.42
404.89	1675.82
405.09	1771.79
405.28	1577.52
405.47	1647.74
405.66	1774.13
405.85	1746.04
406.05	1699.23
406.24	1724.97
406.43	1757.74
406.62	1816.26
406.81	1909.88
407.00	1795.19
407.20	1774.13
407.39	1849.02
407.58	1884.13
407.77	1909.88
407.96	2026.90
408.15	1954.35
408.34	1975.41
408.54	2008.18
408.73	1928.60
408.92	1937.96
409.11	2064.35
409.30	2019.88
409.49	2062.01
409.68	2052.65
409.87	1996.48
410.07	2101.80
410.26	2059.67
410.45	2169.68
410.64	2094.78
410.83	2165.00
411.02	2249.25
411.21	2214.15
411.40	2200.10
411.59	2284.36
411.78	2368.62
411.98	2230.53
412.17	2408.41
412.36	2394.37
412.55	2452.88
412.74	2429.48
412.93	2420.11
413.12	2349.90
413.31	2516.08
413.50	2555.86
413.69	2462.24
413.88	2619.06
414.07	2534.80
414.26	2745.45
414.45	2534.80
414.64	2600.34
414.83	2614.38
415.02	2726.72
415.22	2679.91
415.41	2843.75
415.60	2771.19
415.79	2768.85
415.98	2904.60
416.17	2815.66
416.36	2918.65
416.55	2871.84
416.74	2860.13
416.93	2977.16
417.12	2981.84
417.31	2995.89
417.50	3023.97
417.69	2998.23
417.88	3033.33
418.07	3066.10
418.26	3035.67
418.45	2963.12
418.64	3220.58
418.83	3222.92
419.02	3084.83
419.21	3218.24
419.39	3190.15
419.58	3265.05
419.77	3117.59
419.96	3316.54
420.15	3236.96
420.34	3272.07
420.53	3321.22
420.72	3438.25
420.91	3307.18
421.10	3361.01
421.29	3428.88
421.48	3382.07
421.67	3581.02
421.86	3274.41
422.05	3346.97
422.24	3478.04
422.43	3384.41
422.61	3520.17
422.80	3496.76
422.99	3538.89
423.18	3611.45
423.37	3548.25
423.56	3543.57
423.75	3358.67
423.94	3501.44
424.13	3321.22
424.32	3204.19
424.50	3461.65
424.69	3552.93
424.88	3426.54
425.07	3515.48
425.26	3379.73
425.45	3400.80
425.64	3417.18
425.83	3405.48
426.01	3669.96
426.20	3665.28
426.39	3698.05
426.58	3529.53
426.77	3548.25
426.96	3611.45
427.15	3550.59
427.33	3513.14
427.52	3691.02
427.71	3599.74
427.90	3552.93
428.09	3829.12
428.28	3653.58
428.46	3726.13
428.65	3665.28
428.84	3854.86
429.03	3728.47
429.22	3782.31
429.40	3845.50
429.59	3808.05
429.78	3693.37
429.97	3618.47
430.16	3749.54
430.34	3719.11
430.53	3854.86
430.72	4018.70
430.91	3920.40
431.10	3985.93
431.28	3974.23
431.47	4177.86
431.66	4102.96
431.85	4035.08
432.03	4184.88
432.22	4074.87
432.41	4128.70
432.60	4098.28
432.79	4152.11
432.97	4210.62
433.16	4170.83
433.35	4131.05
433.54	4166.15
433.72	4189.56
433.91	4117.00
434.10	4217.65
434.28	4365.10
434.47	4198.92
434.66	4423.61
434.85	4432.97
435.03	4386.16
435.22	4447.02
435.41	4683.41
435.59	4512.55
435.78	4650.64
435.97	4688.09
436.16	4559.36
436.34	4315.95
436.53	4479.79
436.72	4767.67
436.90	4615.54
437.09	4645.96
437.28	4503.19
437.46	4585.11
437.65	4706.82
437.84	4725.54
438.02	4793.42
438.21	4550.00
438.40	4575.75
438.58	4828.53
438.77	4854.27
438.96	4837.89
439.14	5046.20
439.33	5083.64
439.52	5085.98
439.70	4985.34
439.89	5139.82
440.08	5121.09
440.26	5231.10
440.45	5104.71
440.63	5114.07
440.82	5289.61
441.01	5252.16
441.19	5394.93
441.38	5540.05
441.57	5495.58
441.75	5589.20
441.94	5645.37
442.12	5605.58
442.31	5715.59
442.50	5703.89
442.68	5570.48
442.87	5816.23
443.05	5748.36
443.24	5652.39
443.43	5724.95
443.61	5750.70
443.80	5907.51
443.98	5703.89
444.17	5530.69
444.35	5673.46
444.54	5968.37
444.73	5748.36
444.91	5940.28
445.10	5762.40
445.28	5811.55
445.47	5638.35
445.65	5881.77
445.84	6080.71
446.02	5989.43
446.21	5944.96
446.39	5898.15
446.58	6008.16
446.77	6087.73
446.95	5792.83
447.14	6010.50
447.32	5987.09
447.51	6071.35
447.69	5856.02
447.88	6090.07
448.06	5907.51
448.25	5987.09
448.43	6010.50
448.62	5886.45
448.80	6043.26
448.99	6104.12
449.17	6038.58
449.36	6190.72
449.54	6228.17
449.73	6127.52
449.91	6319.45
450.10	6326.47
450.28	6380.30
450.46	6434.13
450.65	6249.23
450.83	6384.98
451.02	6333.49
451.20	6223.48
451.39	6307.74
451.57	6410.73
451.76	6415.41
451.94	6436.47
452.13	6445.84
452.31	6307.74
452.49	6157.95
452.68	6352.21
452.86	6483.28
453.05	6604.99
453.23	6586.27
453.42	6546.48
453.60	6527.75
453.78	6712.66
453.97	6679.89
454.15	6541.80
454.34	6516.05
454.52	6707.98
454.70	6841.39
454.89	6644.78
455.07	6785.21
455.26	6775.85
455.44	6956.07
455.62	6963.09
455.81	6944.37
455.99	7052.03
456.17	6862.45
456.36	6986.50
456.54	6965.43
456.73	7002.88
456.91	7213.53
457.09	7346.94
457.28	7396.09
457.46	7080.12
457.64	7309.49
457.83	7377.37
458.01	7269.70
458.19	7492.05
458.38	7304.81
458.56	7386.73
458.74	7405.46
458.93	7440.56
459.11	7375.03
459.29	7279.07
459.48	7377.37
459.66	7419.50
459.84	7573.97
460.03	7576.31
460.21	7644.19
460.39	7634.83
460.57	7646.53
460.76	7693.34
460.94	7822.07
461.12	7676.96
461.31	7871.22
461.49	7798.66
461.67	7590.36
461.85	7871.22
462.04	7829.09
462.22	7962.50
462.40	8241.03
462.59	7976.55
462.77	7906.33
462.95	8084.21
463.13	8112.30
463.32	7964.84
463.50	8191.88
463.68	8124.00
463.86	8276.13
464.05	8039.74
464.23	8049.10
464.41	8002.29
464.59	8009.31
464.78	8348.69
464.96	8329.97
465.14	8135.70
465.32	8259.75
465.50	8248.05
465.69	8329.97
465.87	8442.31
466.05	8266.77
466.23	8355.71
466.41	8257.41
466.60	8596.79
466.78	8379.12
466.96	8517.21
467.14	8444.65
467.32	8500.83
467.51	8423.59
467.69	8301.88
467.87	8493.80
468.05	8648.28
468.23	8388.48
468.41	8599.13
468.60	8594.45
468.78	8800.41
468.96	8416.57
469.14	8674.03
469.32	8760.63
469.50	8610.83
469.69	8704.45
469.87	8727.86
470.05	8823.82
470.23	9029.79
470.41	8697.43
470.59	9123.41
470.77	8828.50
470.95	9210.01
471.14	9177.24
471.32	9004.04
471.50	9254.48
471.68	9156.18
471.86	9355.12
472.04	9448.74
472.22	9549.39
472.40	9305.97
472.58	9263.84
472.77	9373.85
472.95	9392.57
473.13	9851.31
473.31	9530.66
473.49	9486.19
473.67	9364.48
473.85	9502.58
474.03	9846.63
474.21	9830.25
474.39	9991.75
474.57	9926.21
474.75	9973.02
474.93	9846.63
475.12	9865.36
475.30	10265.59
475.48	10169.63
475.66	10040.90
475.84	10389.64
476.02	10300.70
476.20	10293.68
476.38	10534.75
476.56	10745.40
476.74	10644.76
476.92	10871.79
477.10	10684.55
477.28	11124.57
477.46	10981.79
477.64	11040.31
477.82	11215.85
478.00	11480.33
478.18	11279.04
478.36	11239.25
478.54	11576.29
478.72	11403.09
478.90	11480.33
479.08	11793.96
479.26	11679.27
479.44	12149.72
479.62	11997.59
479.80	12107.59
479.98	12086.53
480.16	12369.73
480.34	12327.60
480.52	12257.39
480.70	12599.10
480.88	12430.59
481.06	12453.99
481.24	12561.66
481.41	13067.21
481.59	12877.63
481.77	13062.53
481.95	12966.57
482.13	13507.23
482.31	13099.98
482.49	13561.06
482.67	13364.46
482.85	13575.11
483.03	13853.63
483.21	13682.77
483.39	13806.82
483.57	13748.31
483.74	14068.96
483.92	14244.50
484.10	14129.81
484.28	14457.49
484.46	14504.30
484.64	14710.27
484.82	14693.88
485.00	14867.08
485.18	14864.74
485.35	14953.68
485.53	14668.14
485.71	14820.27
485.89	15267.31
486.07	15293.06
486.25	15328.17
486.43	15269.66
486.61	15648.82
486.78	15861.81
486.96	15815.00
487.14	16145.02
487.32	16126.29
487.50	16116.93
487.68	16491.41
487.85	16578.01
488.03	16812.07
488.21	16945.48
488.39	16999.31
488.57	17116.34
488.75	16938.46
488.92	17577.42
489.10	17654.66
489.28	17614.87
489.46	17984.68
489.64	18019.78
489.81	18558.11
489.99	18174.26
490.17	18485.55
490.35	18574.49
490.53	18539.38
490.70	18761.73
490.88	18864.72
491.06	18679.82
491.24	18941.96
491.41	18853.02
491.59	19056.64
491.77	18845.99
491.95	19215.80
492.13	19286.01
492.30	19824.34
492.48	19847.74
492.66	20081.80
492.84	19662.84
493.01	20088.82
493.19	20168.40
493.37	20365.00
493.54	20290.10
493.72	20783.96
493.90	20650.55
494.08	20741.83
494.25	21013.33
494.43	21132.70
494.61	21666.34
494.79	21553.99
494.96	21186.53
495.14	21324.62
495.32	21752.94
495.49	21736.56
495.67	21727.19
495.85	21947.20
496.02	22232.75
496.20	22139.13
496.38	22104.02
496.55	22380.20
496.73	22806.18
496.91	22623.62
497.09	22937.25
497.26	22927.89
497.44	22869.37
497.62	22918.53
497.79	23136.20
497.97	23264.92
498.14	23625.37
498.32	23323.44
498.50	23632.39
498.67	23754.10
498.85	23634.73
499.03	24112.20
499.20	24060.71
499.38	24348.59
499.56	24063.05
499.73	24184.76
499.91	24215.18
500.08	24685.63
500.26	24142.63
500.44	24479.66
500.61	24627.12
500.79	24278.38
500.97	24713.72
501.14	25135.01
501.32	25003.94
501.49	24720.74
501.67	25064.80
501.84	25214.59
502.02	25256.72
502.20	25486.09
502.37	25713.13
502.55	25582.06
502.72	25469.71
502.90	25818.45
503.07	26019.74
503.25	26298.26
503.43	25560.99
503.60	26260.81
503.78	26221.02
503.95	26162.51
504.13	26370.82
504.30	26733.60
504.48	26183.57
504.65	26441.03
504.83	26696.15
505.01	26480.82
505.18	26569.76
505.36	27030.85
505.53	27145.53
505.71	27419.38
505.88	27328.10
506.06	27009.78
506.23	27276.60
506.41	27168.94
506.58	27470.87
506.76	27695.56
506.93	27896.85
507.11	27487.25
507.28	27653.43
507.46	28011.53
507.63	27852.38
507.81	27906.21
507.98	27491.93
508.16	27976.42
508.33	28306.44
508.50	28563.90
508.68	28716.03
508.85	28634.11
509.03	28425.81
509.20	28655.18
509.38	28980.51
509.55	28840.08
509.73	29111.58
509.90	29118.60
510.08	28809.65
510.25	28774.55
510.42	29099.88
510.60	29336.27
510.77	29525.86
510.95	29813.74
511.12	29724.80
511.30	29965.88
511.47	29780.98
511.64	29865.24
511.82	29961.20
511.99	29757.57
512.17	29668.63
512.34	29982.26
512.51	29989.28
512.69	30391.86
512.86	30202.27
513.04	30649.32
513.21	30239.72
513.38	30471.43
513.56	30558.03
513.73	30338.02
513.90	30630.59
514.08	30829.54
514.25	30871.67
514.43	30712.51
514.60	30775.70
514.77	30948.90
514.95	31194.66
515.12	31159.55
515.29	31461.48
515.47	31087.00
515.64	31573.83
515.81	30946.56
515.99	31309.35
516.16	31761.07
516.33	31372.54
516.51	31440.42
516.68	31227.43
516.85	31491.91
517.03	31508.29
517.20	31819.58
517.37	32011.51
517.54	32091.09
517.72	32217.47
517.89	32013.85
518.06	31608.93
518.24	32205.77
518.41	32072.36
518.58	32411.74
518.75	32130.87
518.93	32500.68
519.10	32252.58
519.27	32769.84
519.45	32814.31
519.62	32980.49
519.79	32596.64
519.96	32701.96
520.14	33067.09
520.31	32699.62
520.48	32753.46
520.65	33362.00
520.83	33607.75
521.00	33642.86
521.17	33467.32
521.34	33799.68
521.52	33610.09
521.69	33546.90
521.86	33780.95
522.03	33736.48
522.20	33984.58
522.38	33993.94
522.55	34206.93
522.72	33893.30
522.89	34050.11
523.07	34103.95
523.24	33900.32
523.41	34529.92
523.58	34150.76
523.75	34541.63
523.92	34785.04
524.10	34883.34
524.27	34810.79
524.44	35086.97
524.61	34897.39
524.78	34965.26
524.96	35475.50
525.13	35049.52
525.30	35351.45
525.47	35269.53
525.64	35311.66
525.81	35091.65
525.98	35314.00
526.16	35063.57
526.33	35182.93
526.50	35688.49
526.67	34897.39
526.84	35365.49
527.01	35054.20
527.18	35456.78
527.36	35924.88
527.53	35599.55
527.70	35442.73
527.87	36105.10
528.04	35938.93
528.21	36060.63
528.38	36053.61
528.55	36100.42
528.72	36336.82
528.89	36495.97
529.07	36383.63
529.24	36170.64
529.41	36404.69
529.58	36510.02
529.75	36315.75
529.92	36538.10
530.09	36505.34
530.26	36720.66
530.43	36802.58
530.60	36615.34
530.77	36568.53
530.94	36856.42
531.11	36935.99
531.28	36767.48
531.46	36989.83
531.63	36847.05
531.80	37010.89
531.97	37319.84
532.14	36659.81
532.31	36828.33
532.48	37048.34
532.65	37214.52
532.82	37090.47
532.99	37455.59
533.16	36914.93
533.33	37539.85
533.50	37055.36
533.67	37413.46
533.84	37471.98
534.01	37745.82
534.18	37406.44
534.35	37869.87
534.52	37659.22
534.69	37731.78
534.86	38059.45
535.03	37689.65
535.20	38506.49
535.37	38595.43
535.54	38487.77
535.71	38373.08
535.88	37886.25
536.05	38384.79
536.22	38071.15
536.38	38328.61
536.55	38096.90
536.72	38623.52
536.89	38199.88
537.06	38354.36
537.23	38649.27
537.40	38529.90
537.57	38335.63
537.74	38595.43
537.91	38604.80
538.08	38651.61
538.25	38476.07
538.42	38354.36
538.59	38843.53
538.75	38719.48
538.92	38761.61
539.09	38932.47
539.26	38974.60
539.43	38883.32
539.60	38553.30
539.77	38635.22
539.94	38962.90
540.11	39309.30
540.28	39028.43
540.44	38962.90
540.61	39330.36
540.78	38794.38
540.95	38710.12
541.12	38930.13
541.29	39056.52
541.46	39433.35
541.62	39274.19
541.79	39606.55
541.96	39351.43
542.13	39084.61
542.30	39833.58
542.47	39386.54
542.63	39763.36
542.80	39887.41
542.97	39889.75
543.14	40205.72
543.31	40219.77
543.48	40210.40
543.64	40699.58
543.81	40552.12
543.98	40671.49
544.15	40549.78
544.32	40706.60
544.48	40659.79
544.65	40666.81
544.82	40627.02
544.99	40392.97
545.16	40627.02
545.32	40610.64
545.49	40938.31
545.66	40914.90
545.83	40966.40
546.00	41200.45
546.16	40999.16
546.33	40898.52
546.50	40643.40
546.67	41031.93
546.83	40018.48
547.00	40980.44
547.17	40928.95
547.34	40790.86
547.50	41144.28
547.67	41392.37
547.84	40886.82
548.00	41158.32
548.17	41240.24
548.34	41287.05
548.51	41488.34
548.67	41481.31
548.84	41455.57
549.01	41373.65
549.18	41148.96
549.34	41607.70
549.51	41139.60
549.68	41834.74
549.84	41647.49
550.01	41553.87
550.18	41542.17
550.34	42000.91
550.51	41743.45
550.68	41453.23
550.84	41270.67
551.01	41930.70
551.18	41832.39
551.34	41635.79
551.51	42066.45
551.68	42064.11
551.84	41869.84
552.01	41324.50
552.18	41563.23
552.34	41865.16
552.51	42078.15
552.68	41684.94
552.84	41998.57
553.01	42059.43
553.18	42143.69
553.34	42234.97
553.51	41710.69
553.67	42347.31
553.84	42410.51
554.01	42628.18
554.17	42738.18
554.34	42572.00
554.51	42342.63
554.67	42838.83
554.84	42342.63
555.00	42511.15
555.17	42092.19
555.33	42579.03
555.50	42436.25
555.67	42431.57
555.83	42726.48
556.00	42667.97
556.16	42979.26
556.33	42707.76
556.50	42586.05
556.66	42958.19
556.83	42607.11
556.99	42962.87
557.16	42960.53
557.32	43356.08
557.49	42880.95
557.65	42845.85
557.82	42815.42
557.98	43084.58
558.15	43131.39
558.32	43274.16
558.48	42866.91
558.65	43423.96
558.81	42295.82
558.98	42796.70
559.14	42887.98
559.31	42887.98
559.47	43241.40
559.64	43445.02
559.80	43400.55
559.97	43157.14
560.13	43068.20
560.30	42857.55
560.46	43629.93
560.63	43262.46
560.79	43353.74
560.96	43709.50
561.12	43768.02
561.29	43526.94
561.45	43426.30
561.61	43079.90
561.78	43590.14
561.94	43007.34
562.11	43847.60
562.27	43225.01
562.44	43105.65
562.60	43505.88
562.77	43414.60
562.93	43377.15
563.10	43728.23
563.26	43449.70
563.42	43393.53
563.59	43416.94
563.75	43482.47
563.92	43608.86
564.08	43533.96
564.24	43665.03
564.41	44016.11
564.57	43592.48
564.74	43538.65
564.90	43636.95
565.07	43580.78
565.23	43674.40
565.39	43540.99
565.56	43583.12
565.72	43723.55
565.88	43828.87
566.05	43545.67
566.21	43842.92
566.38	43810.15
566.54	43800.79
566.70	44030.16
566.87	43941.22
567.03	43480.13
567.19	44301.66
567.36	43920.15
567.52	43927.17
567.68	44229.10
567.85	43927.17
568.01	43892.07
568.17	43718.87
568.34	43978.67
568.50	43552.69
568.66	43871.00
568.83	43969.30
568.99	43653.33
569.15	43695.46
569.32	43697.80
569.48	43653.33
569.64	44294.64
569.81	44105.06
569.97	43934.20
570.13	44098.03
570.30	43878.02
570.46	43765.68
570.62	43934.20
570.78	43498.86
570.95	43590.14
571.11	44355.49
571.27	43915.47
571.43	43849.94
571.60	43856.96
571.76	43370.13
571.92	44072.29
572.09	43934.20
572.25	43934.20
572.41	43875.68
572.57	44088.67
572.74	44493.58
572.90	44229.10
573.06	43943.56
573.22	44296.98
573.38	44224.42
573.55	44371.88
573.71	44446.77
573.87	43924.83
574.03	43779.72
574.20	44114.42
574.36	44151.87
574.52	43847.60
574.68	44257.19
574.84	44198.68
575.01	43999.73
575.17	44121.44
575.33	43597.16
575.49	43646.31
575.65	44112.08
575.82	44411.67
575.98	44325.07
576.14	44294.64
576.30	44388.26
576.46	44322.72
576.62	43847.60
576.79	44158.89
576.95	43992.71
577.11	44364.85
577.27	44353.15
577.43	43985.69
577.59	44355.49
577.75	43854.62
577.92	43672.06
578.08	43896.75
578.24	44390.60
578.40	43971.64
578.56	43863.98
578.72	44128.46
578.88	44392.94
579.04	44327.41
579.21	44135.48
579.37	44037.18
579.53	44011.43
579.69	44229.10
579.85	44154.21
580.01	44208.04
580.17	44055.90
580.33	44268.89
580.49	44341.45
580.65	44568.48
580.82	44240.81
580.98	43981.01
581.14	43803.13
581.30	44453.79
581.46	44194.00
581.62	44210.38
581.78	44095.69
581.94	44250.17
582.10	44016.11
582.26	44074.63
582.42	44179.95
582.58	44776.79
582.74	44123.78
582.90	44278.25
583.06	44744.02
583.22	44322.72
583.38	44500.61
583.54	44336.77
583.70	44282.94
583.86	44201.02
584.02	43756.32
584.18	44257.19
584.34	44191.65
584.50	44311.02
584.66	44172.93
584.82	44271.23
584.98	44779.13
585.14	44509.97
585.30	44486.56
585.46	44374.22
585.62	44184.63
585.78	43997.39
585.94	43831.21
586.10	44023.14
586.26	44388.26
586.42	44285.28
586.58	44484.22
586.74	44521.67
586.90	44109.74
587.06	44168.25
587.22	44414.01
587.38	43501.20
587.54	44238.47
587.70	44446.77
587.86	44329.75
588.02	44575.50
588.18	44477.20
588.34	44566.14
588.49	44414.01
588.65	43847.60
588.81	43985.69
588.97	44444.43
589.13	44189.31
589.29	44399.96
589.45	44385.92
589.61	43971.64
589.77	44715.93
589.93	44081.65
590.08	44563.80
590.24	44313.36
590.40	44332.09
