SpectraSuite Data File
++++++++++++++++++++++++++++++++++++
Date: Fri Oct 25 10:47:27 EDT 2013
User: price-jones
Dark Spectrum Present: No
Reference Spectrum Present: No
Number of Sampled Component Spectra: 1
Spectrometers: USB2+H05261
Integration Time (usec): 100000 (USB2+H05261)
Spectra Averaged: 1 (USB2+H05261)
Boxcar Smoothing: 0 (USB2+H05261)
Correct for Electrical Dark: No (USB2+H05261)
Strobe/Lamp Enabled: No (USB2+H05261)
Correct for Detector Non-linearity: No (USB2+H05261)
Correct for Stray Light: No (USB2+H05261)
Number of Pixels in Processed Spectrum: 2048
>>>>>Begin Processed Spectral Data<<<<<
365.73	117.03
365.92	117.03
366.12	117.03
366.32	14.04
366.52	11.70
366.72	117.03
366.91	0.00
367.11	0.00
367.31	9.36
367.51	67.88
367.70	67.88
367.90	93.62
368.10	0.00
368.30	51.49
368.49	77.24
368.69	35.11
368.89	105.32
369.09	63.19
369.28	49.15
369.48	100.64
369.68	77.24
369.87	98.30
370.07	91.28
370.27	86.60
370.47	187.24
370.66	416.62
370.86	425.98
371.06	411.93
371.25	414.27
371.45	430.66
371.65	421.30
371.84	425.98
372.04	414.27
372.24	425.98
372.44	414.27
372.63	477.47
372.83	559.39
373.03	507.90
373.22	463.43
373.42	465.77
373.62	435.34
373.81	521.94
374.01	552.37
374.21	617.90
374.40	538.32
374.60	526.62
374.79	533.64
374.99	552.37
375.19	535.98
375.38	552.37
375.58	540.66
375.78	559.39
375.97	624.92
376.17	533.64
376.37	540.66
376.56	645.99
376.76	667.05
376.95	491.51
377.15	638.97
377.35	589.82
377.54	568.75
377.74	613.22
377.93	557.05
378.13	585.13
378.33	589.82
378.52	566.41
378.72	664.71
378.91	629.60
379.11	592.16
379.31	594.50
379.50	636.63
379.70	589.82
379.89	615.56
380.09	634.29
380.28	557.05
380.48	674.07
380.68	674.07
380.87	645.99
381.07	699.82
381.26	648.33
381.46	688.12
381.65	650.67
381.85	688.12
382.04	690.46
382.24	709.18
382.43	653.01
382.63	683.44
382.83	641.31
383.02	669.39
383.22	704.50
383.41	641.31
383.61	613.22
383.80	802.80
384.00	758.33
384.19	746.63
384.39	812.17
384.58	840.25
384.78	723.23
384.97	723.23
385.17	751.31
385.36	690.46
385.56	688.12
385.75	702.16
385.95	802.80
386.14	744.29
386.34	772.38
386.53	823.87
386.72	730.25
386.92	854.30
387.11	809.83
387.31	723.23
387.50	826.21
387.70	734.93
387.89	744.29
388.09	793.44
388.28	727.91
388.48	880.04
388.67	835.57
388.86	954.94
389.06	882.38
389.25	903.45
389.45	901.11
389.64	950.26
389.84	877.70
390.03	924.51
390.22	985.37
390.42	898.77
390.61	896.43
390.81	863.66
391.00	933.87
391.19	861.32
391.39	983.02
391.58	994.73
391.78	905.79
391.97	896.43
392.16	863.66
392.36	889.40
392.55	908.13
392.75	922.17
392.94	926.85
393.13	933.87
393.33	1020.47
393.52	990.05
393.71	1125.80
393.91	1139.84
394.10	1004.09
394.29	1064.94
394.49	1076.65
394.68	1146.86
394.88	1102.39
395.07	1142.18
395.26	1081.33
395.46	1102.39
395.65	1050.90
395.84	1081.33
396.04	1146.86
396.23	1095.37
396.42	1125.80
396.62	1025.15
396.81	1064.94
397.00	1109.41
397.19	1163.25
397.39	1240.48
397.58	1263.89
397.77	1268.57
397.97	1327.08
398.16	1254.53
398.35	1160.91
398.55	1306.02
398.74	1352.83
398.93	1378.58
399.12	1228.78
399.32	1252.19
399.51	1338.79
399.70	1404.32
399.90	1294.32
400.09	1453.47
400.28	1420.71
400.47	1455.81
400.67	1418.36
400.86	1425.39
401.05	1427.73
401.24	1451.13
401.44	1423.05
401.63	1420.71
401.82	1413.68
402.01	1465.18
402.21	1437.09
402.40	1528.37
402.59	1481.56
402.78	1636.03
402.97	1490.92
403.17	1507.30
403.36	1586.88
403.55	1561.14
403.74	1612.63
403.93	1591.56
404.13	1568.16
404.32	1481.56
404.51	1570.50
404.70	1652.42
404.89	1626.67
405.09	1825.62
405.28	1717.95
405.47	1788.17
405.66	1734.34
405.85	1743.70
406.05	1762.42
406.24	1764.76
406.43	1717.95
406.62	1849.02
406.81	1872.43
407.00	1783.49
407.20	1802.21
407.39	1788.17
407.58	1781.15
407.77	1867.75
407.96	1865.41
408.15	1928.60
408.34	2003.50
408.54	2008.18
408.73	1961.37
408.92	1863.07
409.11	1940.30
409.30	2045.63
409.49	2040.95
409.68	2090.10
409.87	1998.82
410.07	2111.16
410.26	2099.46
410.45	2148.61
410.64	2211.81
410.83	2216.49
411.02	2134.57
411.21	2249.25
411.40	2195.42
411.59	2200.10
411.78	2186.06
411.98	2303.09
412.17	2260.96
412.36	2284.36
412.55	2333.51
412.74	2293.72
412.93	2387.35
413.12	2382.67
413.31	2452.88
413.50	2436.50
413.69	2464.58
413.88	2497.35
414.07	2466.92
414.26	2525.44
414.45	2555.86
414.64	2602.68
414.83	2586.29
415.02	2548.84
415.22	2640.12
415.41	2789.92
415.60	2637.78
415.79	2696.30
415.98	2740.77
416.17	2768.85
416.36	2841.41
416.55	2829.71
416.74	2888.22
416.93	2836.73
417.12	2960.78
417.31	2967.80
417.50	2949.08
417.69	3023.97
417.88	2993.55
418.07	2909.29
418.26	3087.17
418.45	3049.72
418.64	3185.47
418.83	3164.40
419.02	3215.90
419.21	3141.00
419.39	3068.44
419.58	3059.08
419.77	3148.02
419.96	3232.28
420.15	3201.85
420.34	3133.98
420.53	3279.09
420.72	3255.69
420.91	3225.26
421.10	3353.99
421.29	3358.67
421.48	3283.77
421.67	3234.62
421.86	3173.77
422.05	3342.28
422.24	3356.33
422.43	3412.50
422.61	3403.14
422.80	3541.23
422.99	3506.12
423.18	3482.72
423.37	3536.55
423.56	3473.36
423.75	3538.89
423.94	3463.99
424.13	3204.19
424.32	3286.11
424.50	3520.17
424.69	3447.61
424.88	3466.33
425.07	3503.78
425.26	3456.97
425.45	3463.99
425.64	3424.20
425.83	3454.63
426.01	3536.55
426.20	3473.36
426.39	3559.95
426.58	3550.59
426.77	3391.44
426.96	3630.17
427.15	3466.33
427.33	3578.68
427.52	3637.19
427.71	3726.13
427.90	3712.09
428.09	3646.55
428.28	3595.06
428.46	3712.09
428.65	3735.50
428.84	3698.05
429.03	3667.62
429.22	3581.02
429.40	3763.58
429.59	3775.28
429.78	3585.70
429.97	3709.75
430.16	3597.40
430.34	3737.84
430.53	3815.07
430.72	3838.48
430.91	3889.97
431.10	3948.48
431.28	4004.66
431.47	4128.70
431.66	4142.75
431.85	4037.42
432.03	3929.76
432.22	4105.30
432.41	4163.81
432.60	4142.75
432.79	4203.60
432.97	4058.49
433.16	4128.70
433.35	4023.38
433.54	4322.97
433.72	4276.16
433.91	4175.52
434.10	4315.95
434.28	4409.57
434.47	4329.99
434.66	4355.74
434.85	4484.47
435.03	4533.62
435.22	4470.42
435.41	4526.60
435.59	4414.25
435.78	4456.38
435.97	4573.41
436.16	4367.44
436.34	4470.42
436.53	4465.74
436.72	4699.80
436.90	4430.63
437.09	4702.14
437.28	4313.61
437.46	4652.98
437.65	4519.57
437.84	4416.59
438.02	4760.65
438.21	4582.77
438.40	4587.45
438.58	4695.11
438.77	4823.84
438.96	4814.48
439.14	4842.57
439.33	5008.75
439.52	5100.03
439.70	5071.94
439.89	5165.56
440.08	5008.75
440.26	5032.15
440.45	5193.65
440.63	5195.99
440.82	5270.89
441.01	5249.82
441.19	5341.10
441.38	5280.25
441.57	5277.91
441.75	5376.21
441.94	5467.49
442.12	5434.72
442.31	5640.69
442.50	5631.33
442.68	5568.13
442.87	5664.10
443.05	5582.18
443.24	5535.37
443.43	5596.22
443.61	5694.52
443.80	5778.78
443.98	5509.62
444.17	5530.69
444.35	5652.39
444.54	5839.64
444.73	5664.10
444.91	5687.50
445.10	5809.21
445.28	5757.72
445.47	5659.42
445.65	5811.55
445.84	5767.08
446.02	5760.06
446.21	5776.44
446.39	5689.84
446.58	6029.22
446.77	5914.53
446.95	5874.74
447.14	5858.36
447.32	5856.02
447.51	5888.79
447.69	5895.81
447.88	5935.60
448.06	5853.68
448.25	5879.43
448.43	5951.98
448.62	5968.37
448.80	5863.04
448.99	5973.05
449.17	6087.73
449.36	5902.83
449.54	5991.77
449.73	6169.65
449.91	6335.83
450.10	6415.41
450.28	6326.47
450.46	6282.00
450.65	6188.38
450.83	6249.23
451.02	6363.92
451.20	6392.00
451.39	6340.51
451.57	6410.73
451.76	6387.32
451.94	6415.41
452.13	6504.35
452.31	6462.22
452.49	6363.92
452.68	6319.45
452.86	6279.66
453.05	6509.03
453.23	6478.60
453.42	6609.67
453.60	6427.11
453.78	6590.95
453.97	6520.73
454.15	6434.13
454.34	6658.82
454.52	6600.31
454.70	6750.10
454.89	6532.44
455.07	6754.79
455.26	6796.92
455.44	6715.00
455.62	6780.53
455.81	6717.34
455.99	6920.96
456.17	6906.92
456.36	6951.39
456.54	6885.86
456.73	7169.06
456.91	7297.79
457.09	7140.97
457.28	7243.96
457.46	7054.37
457.64	7096.50
457.83	7218.21
458.01	7152.68
458.19	7241.62
458.38	7178.42
458.56	7286.09
458.74	7372.69
458.93	7332.90
459.11	7159.70
459.29	7410.14
459.48	7541.21
459.66	7337.58
459.84	7396.09
460.03	7754.19
460.21	7545.89
460.39	7571.63
460.57	7456.95
460.76	7665.25
460.94	7541.21
461.12	7559.93
461.31	7700.36
461.49	7763.56
461.67	7683.98
461.85	7812.71
462.04	7712.07
462.22	8393.16
462.40	7831.43
462.59	7719.09
462.77	7946.12
462.95	7967.18
463.13	8116.98
463.32	7955.48
463.50	7929.74
463.68	8053.78
463.86	8100.59
464.05	7922.71
464.23	7882.92
464.41	8119.32
464.59	8002.29
464.78	8058.46
464.96	8053.78
465.14	7990.59
465.32	8121.66
465.50	8290.18
465.69	8362.73
465.87	8442.31
466.05	8238.69
466.23	8255.07
466.41	8100.59
466.60	8397.84
466.78	8219.96
466.96	8346.35
467.14	8315.92
467.32	8472.74
467.51	8266.77
467.69	8133.36
467.87	8327.63
468.05	8617.85
468.23	8486.78
468.41	8390.82
468.60	8629.56
468.78	8592.11
468.96	8568.70
469.14	8533.59
469.32	8912.76
469.50	8463.38
469.69	8716.16
469.87	8664.66
470.05	8814.46
470.23	8830.84
470.41	8952.55
470.59	8912.76
470.77	8762.97
470.95	9039.15
471.14	8980.64
471.32	8947.87
471.50	9224.05
471.68	8905.74
471.86	9219.37
472.04	9214.69
472.22	9263.84
472.40	9095.32
472.58	9315.33
472.77	9289.59
472.95	9362.14
473.13	9692.16
473.31	9401.93
473.49	9544.70
473.67	9507.26
473.85	9411.29
474.03	9682.80
474.21	9806.84
474.39	9802.16
474.57	9860.68
474.75	9891.10
474.93	10031.54
475.12	10040.90
475.30	10148.56
475.48	9909.83
475.66	10162.61
475.84	10178.99
476.02	10338.15
476.20	10408.36
476.38	10436.45
476.56	10637.73
476.74	10511.35
476.92	10754.76
477.10	10616.67
477.28	10590.92
477.46	10916.26
477.64	10965.41
477.82	10918.60
478.00	11140.95
478.18	11538.84
478.36	11353.94
478.54	11360.96
478.72	11288.40
478.90	11419.47
479.08	11630.12
479.26	11733.11
479.44	11726.08
479.62	11822.05
479.80	11866.52
479.98	11913.33
480.16	12233.98
480.34	11995.25
480.52	12367.39
480.70	12238.66
480.88	12215.26
481.06	12400.16
481.24	12383.77
481.41	12945.50
481.59	12662.30
481.77	12966.57
481.95	13020.40
482.13	13078.91
482.31	13060.19
482.49	13266.16
482.67	13661.71
482.85	13542.34
483.03	13586.81
483.21	13540.00
483.39	13937.89
483.57	13820.86
483.74	14066.62
483.92	14132.15
484.10	14010.45
484.28	14045.55
484.46	14342.80
484.64	14766.44
484.82	14787.50
485.00	14345.14
485.18	14970.07
485.35	15293.06
485.53	14726.65
485.71	14764.10
485.89	15126.88
486.07	15225.18
486.25	15283.70
486.43	15356.25
486.61	15665.21
486.78	15836.06
486.96	15674.57
487.14	15974.16
487.32	16123.95
487.50	16348.64
487.68	16479.71
487.85	16662.27
488.03	16592.06
488.21	17046.12
488.39	16812.07
488.57	16868.24
488.75	17018.04
488.92	17392.52
489.10	17614.87
489.28	17488.48
489.46	17886.37
489.64	17783.39
489.81	18017.44
489.99	18246.82
490.17	18286.61
490.35	18331.08
490.53	18352.14
490.70	18480.87
490.88	18471.51
491.06	18848.33
491.24	18499.59
491.41	18490.23
491.59	18824.93
491.77	18827.27
491.95	19154.94
492.13	19440.49
492.30	19431.13
492.48	19889.87
492.66	19807.95
492.84	19676.88
493.01	19971.79
493.19	19728.38
493.37	20074.77
493.54	20166.06
493.72	20423.51
493.90	20690.34
494.08	20589.69
494.25	20945.45
494.43	21036.74
494.61	21266.11
494.79	21055.46
494.96	21432.29
495.14	21177.17
495.32	21516.54
495.49	21486.12
495.67	21612.51
495.85	21907.41
496.02	21956.57
496.20	22349.78
496.38	22429.35
496.55	22242.11
496.73	22710.22
496.91	22515.95
497.09	22497.23
497.26	22794.48
497.44	22785.12
497.62	22579.15
497.79	22974.70
497.97	22696.17
498.14	23101.09
498.32	23442.81
498.50	23491.96
498.67	23531.75
498.85	23587.92
499.03	23967.09
499.20	23946.02
499.38	23704.95
499.56	23992.83
499.73	24240.93
499.91	24180.07
500.08	24411.79
500.26	23992.83
500.44	24615.41
500.61	24332.21
500.79	24526.47
500.97	24376.68
501.14	24702.01
501.32	24828.40
501.49	24500.73
501.67	25104.59
501.84	25357.36
502.02	25120.97
502.20	25436.94
502.37	25006.28
502.55	25415.88
502.72	25479.07
502.90	25422.90
503.07	25579.71
503.25	25984.63
503.43	25647.59
503.60	25809.09
503.78	25701.42
503.95	25830.15
504.13	26249.11
504.30	26349.75
504.48	26176.55
504.65	26668.06
504.83	26593.17
505.01	26621.25
505.18	26885.73
505.36	26808.50
505.53	26600.19
505.71	26927.86
505.88	27424.06
506.06	27117.45
506.23	27206.39
506.41	27131.49
506.58	27098.72
506.76	27278.94
506.93	27688.54
507.11	27391.29
507.28	27740.03
507.46	27243.84
507.63	27934.29
507.81	27768.12
507.98	27424.06
508.16	27772.80
508.33	27791.52
508.50	28313.46
508.68	28088.77
508.85	28636.45
509.03	28421.13
509.20	28505.38
509.38	28650.50
509.55	29039.03
509.73	29237.97
509.90	28414.10
510.08	28533.47
510.25	28858.81
510.42	28687.95
510.60	29509.47
510.77	29034.35
510.95	29331.59
511.12	29242.65
511.30	29469.69
511.47	29560.97
511.64	29610.12
511.82	29467.34
511.99	29715.44
512.17	29745.87
512.34	30019.71
512.51	29841.83
512.69	30064.18
512.86	30735.92
513.04	29951.84
513.21	30221.00
513.38	30274.83
513.56	30038.44
513.73	30312.28
513.90	30719.53
514.08	30412.92
514.25	30813.15
514.43	30881.03
514.60	30796.77
514.77	31171.25
514.95	30829.54
515.12	30944.22
515.29	31079.97
515.47	31152.53
515.64	31424.03
515.81	31058.91
515.99	31447.44
516.16	31185.30
516.33	31578.51
516.51	31601.91
516.68	31417.01
516.85	31637.02
517.03	31763.41
517.20	31524.68
517.37	31730.64
517.54	31962.36
517.72	31735.32
517.89	31857.03
518.06	32318.12
518.24	32004.49
518.41	32215.13
518.58	31978.74
518.75	32142.58
518.93	32959.42
519.10	32444.51
519.27	32535.79
519.45	32416.42
519.62	32793.25
519.79	32900.91
519.96	32912.61
520.14	33226.24
520.31	32584.94
520.48	33366.68
520.65	33198.16
520.83	33694.35
521.00	33216.88
521.17	32903.25
521.34	33525.83
521.52	33333.91
521.69	33401.79
521.86	33626.48
522.03	33956.49
522.20	34157.78
522.38	33867.55
522.55	33848.83
522.72	33942.45
522.89	34017.35
523.07	34000.96
523.24	33797.34
523.41	34230.33
523.58	34169.48
523.75	34845.90
523.92	34387.15
524.10	34389.49
524.27	34778.02
524.44	34349.70
524.61	34768.66
524.78	34955.90
524.96	34522.90
525.13	35108.04
525.30	34925.47
525.47	35283.58
525.64	35271.87
525.81	35442.73
525.98	35622.95
526.16	34611.84
526.33	35035.48
526.50	35192.30
526.67	35211.02
526.84	34927.81
527.01	35178.25
527.18	35442.73
527.36	35445.07
527.53	35845.30
527.70	36189.36
527.87	35990.42
528.04	35889.77
528.21	35948.29
528.38	35409.96
528.55	36142.55
528.72	36018.50
528.89	36563.85
529.07	36620.02
529.24	36133.19
529.41	35847.64
529.58	36395.33
529.75	36144.89
529.92	36390.65
530.09	36432.78
530.26	36446.82
530.43	36561.51
530.60	36517.04
530.77	36720.66
530.94	36914.93
531.11	36957.06
531.28	37010.89
531.46	36807.26
531.63	37415.80
531.80	36964.08
531.97	36912.59
532.14	37160.69
532.31	36620.02
532.48	37181.75
532.65	37652.20
532.82	37109.19
532.99	37612.41
533.16	37462.61
533.33	37228.56
533.50	37687.31
533.67	37237.92
533.84	37221.54
534.01	37361.97
534.18	37535.17
534.35	38078.18
534.52	37727.10
534.69	38213.93
534.86	37904.98
535.03	38005.62
535.20	37867.53
535.37	38195.20
535.54	38204.56
535.71	37741.14
535.88	38267.76
536.05	38370.74
536.22	38291.16
536.38	38155.41
536.55	38658.63
536.72	38253.72
536.89	38312.23
537.06	38447.98
537.23	38600.12
537.40	38113.28
537.57	38504.15
537.74	38557.99
537.91	39119.71
538.08	38801.40
538.25	38672.67
538.42	38419.89
538.59	38859.91
538.75	38574.37
538.92	38827.15
539.09	38742.89
539.26	38967.58
539.43	39154.82
539.60	39065.88
539.77	39098.65
539.94	39044.82
540.11	39014.39
540.28	39103.33
540.44	39129.08
540.61	39136.10
540.78	38993.32
540.95	39297.59
541.12	39203.97
541.29	39215.68
541.46	39295.25
541.62	39557.39
541.79	39924.86
541.96	39707.19
542.13	39751.66
542.30	39779.74
542.47	39819.53
542.63	39517.60
542.80	39828.90
542.97	39950.60
543.14	40575.53
543.31	40151.89
543.48	40371.90
543.64	40680.85
543.81	40215.08
543.98	40587.23
544.15	40046.57
544.32	40589.57
544.48	41010.87
544.65	40479.57
544.82	40636.38
544.99	39929.54
545.16	40486.59
545.32	40659.79
545.49	41048.32
545.66	40542.76
545.83	41027.25
546.00	40765.11
546.16	40552.12
546.33	40598.93
546.50	40524.04
546.67	40732.34
546.83	40622.34
547.00	41212.15
547.17	41076.40
547.34	40818.94
547.50	40800.22
547.67	41333.86
547.84	41317.48
548.00	41413.44
548.17	41308.11
548.34	41408.76
548.51	41797.29
548.67	41691.96
548.84	41258.96
549.01	41448.55
549.18	41226.20
549.34	41530.47
549.51	41336.20
549.68	41673.24
549.84	41401.74
550.01	41652.17
550.18	41422.80
550.34	41345.56
550.51	41511.74
550.68	41607.70
550.84	41429.82
551.01	42120.28
551.18	41818.35
551.34	41928.36
551.51	42150.71
551.68	41893.25
551.84	42244.33
552.01	41469.61
552.18	41572.60
552.34	41752.82
552.51	42511.15
552.68	42019.64
552.84	42241.99
553.01	42483.06
553.18	41855.80
553.34	42433.91
553.51	41930.70
553.67	41806.65
553.84	42777.97
554.01	42389.44
554.17	42728.82
554.34	42576.69
554.51	42710.10
554.67	43056.50
554.84	42674.99
555.00	42417.53
555.17	41949.42
555.33	42574.34
555.50	42366.04
555.67	42890.32
555.83	42775.63
556.00	42534.56
556.16	43201.61
556.33	42742.86
556.50	42775.63
556.66	43271.82
556.83	42831.80
556.99	42707.76
557.16	42803.72
557.32	42792.01
557.49	42918.40
557.65	42398.80
557.82	42824.78
557.98	42855.21
558.15	42923.08
558.32	42653.92
558.48	43253.10
558.65	43112.67
558.81	42742.86
558.98	42899.68
559.14	42974.58
559.31	43203.95
559.47	42899.68
559.64	43154.80
559.80	43606.52
559.97	43367.79
560.13	42712.44
560.30	42876.27
560.46	42784.99
560.63	43409.92
560.79	43739.93
560.96	43278.85
561.12	43332.68
561.29	43384.17
561.45	43545.67
561.61	43185.22
561.78	43648.65
561.94	42930.11
562.11	43356.08
562.27	43278.85
562.44	43421.62
562.60	43704.82
562.77	43648.65
562.93	43650.99
563.10	43550.35
563.26	43206.29
563.42	43695.46
563.59	43295.23
563.75	43194.59
563.92	43688.44
564.08	44083.99
564.24	44006.75
564.41	43384.17
564.57	43548.01
564.74	43253.10
564.90	43786.74
565.07	43737.59
565.23	43667.37
565.39	43475.45
565.56	43784.40
565.72	43466.09
565.88	43625.25
566.05	44044.20
566.21	43611.20
566.38	44023.14
566.54	43615.88
566.70	44210.38
566.87	43686.10
567.03	43791.42
567.19	44374.22
567.36	43934.20
567.52	43845.26
567.68	44172.93
567.85	43915.47
568.01	44091.01
568.17	43938.88
568.34	44236.12
568.50	43894.41
568.66	43931.86
568.83	44212.72
568.99	43878.02
569.15	43976.33
569.32	43878.02
569.48	43662.69
569.64	44083.99
569.81	44208.04
569.97	43831.21
570.13	44196.34
570.30	43662.69
570.46	43608.86
570.62	43693.12
570.78	43828.87
570.95	43882.70
571.11	44348.47
571.27	44163.57
571.43	44224.42
571.60	44411.67
571.76	44282.94
571.92	43688.44
572.09	44034.84
572.25	43807.81
572.41	43690.78
572.57	43971.64
572.74	44992.12
572.90	44409.32
573.06	44168.25
573.22	44479.54
573.38	44479.54
573.55	44119.10
573.71	44362.51
573.87	44383.58
574.03	43880.36
574.20	44439.75
574.36	43966.96
574.52	44512.31
574.68	44360.17
574.84	44271.23
575.01	44308.68
575.17	44126.12
575.33	44219.74
575.49	44467.84
575.65	44711.25
575.82	44851.69
575.98	44435.07
576.14	44458.48
576.30	44154.21
576.46	43667.37
576.62	43983.35
576.79	44320.38
576.95	43983.35
577.11	44102.71
577.27	44395.28
577.43	44388.26
577.59	44690.19
577.75	44598.91
577.92	44350.81
578.08	44414.01
578.24	44254.85
578.40	43995.05
578.56	44662.10
578.72	44236.12
578.88	44493.58
579.04	44732.32
579.21	43936.54
579.37	44264.21
579.53	44304.00
579.69	43826.53
579.85	44079.31
580.01	44516.99
580.17	44198.68
580.33	44818.92
580.49	44559.12
580.65	44278.25
580.82	44374.22
580.98	44673.81
581.14	43903.77
581.30	44889.13
581.46	44294.64
581.62	44495.92
581.78	44516.99
581.94	44858.71
582.10	44566.14
582.26	44788.49
582.42	44264.21
582.58	44577.84
582.74	44439.75
582.90	44353.15
583.06	44332.09
583.22	44399.96
583.38	44521.67
583.54	44083.99
583.70	44699.55
583.86	44587.21
584.02	44144.84
584.18	44439.75
584.34	44568.48
584.50	44605.93
584.66	44299.32
584.82	44168.25
584.98	44687.85
585.14	44512.31
585.30	44542.74
585.46	44360.17
585.62	44020.80
585.78	44495.92
585.94	44238.47
586.10	44271.23
586.26	44411.67
586.42	44350.81
586.58	44467.84
586.74	44587.21
586.90	44325.07
587.06	44481.88
587.22	44509.97
587.38	44339.11
587.54	44561.46
587.70	45074.04
587.86	44509.97
588.02	44453.79
588.18	44783.81
588.34	44673.81
588.49	44083.99
588.65	44296.98
588.81	44364.85
588.97	44350.81
589.13	44273.57
589.29	44626.99
589.45	44395.28
589.61	44423.37
589.77	44790.83
589.93	44708.91
590.08	44917.22
590.24	45118.51
590.40	45504.70
