SpectraSuite Data File
++++++++++++++++++++++++++++++++++++
Date: Fri Oct 25 11:25:50 EDT 2013
User: price-jones
Dark Spectrum Present: No
Reference Spectrum Present: No
Number of Sampled Component Spectra: 1
Spectrometers: USB2+H05261
Integration Time (usec): 100000 (USB2+H05261)
Spectra Averaged: 1 (USB2+H05261)
Boxcar Smoothing: 0 (USB2+H05261)
Correct for Electrical Dark: No (USB2+H05261)
Strobe/Lamp Enabled: No (USB2+H05261)
Correct for Detector Non-linearity: No (USB2+H05261)
Correct for Stray Light: No (USB2+H05261)
Number of Pixels in Processed Spectrum: 2048
>>>>>Begin Processed Spectral Data<<<<<
365.73	210.65
365.92	210.65
366.12	210.65
366.32	145.11
366.52	191.92
366.72	203.63
366.91	110.01
367.11	126.39
367.31	170.86
367.51	208.31
367.70	154.48
367.90	215.33
368.10	102.98
368.30	194.26
368.49	189.58
368.69	215.33
368.89	161.50
369.09	102.98
369.28	149.79
369.48	131.07
369.68	241.08
369.87	220.01
370.07	154.48
370.27	297.25
370.47	320.65
370.66	575.77
370.86	667.05
371.06	645.99
371.25	744.29
371.45	685.78
371.65	732.59
371.84	711.52
372.04	683.44
372.24	711.52
372.44	711.52
372.63	753.65
372.83	753.65
373.03	723.23
373.22	758.33
373.42	786.42
373.62	830.89
373.81	746.63
374.01	917.49
374.21	835.57
374.40	788.76
374.60	856.64
374.79	821.53
374.99	833.23
375.19	767.70
375.38	849.61
375.58	837.91
375.78	837.91
375.97	910.47
376.17	980.68
376.37	868.34
376.56	833.23
376.76	786.42
376.95	870.68
377.15	908.13
377.35	840.25
377.54	933.87
377.74	856.64
377.93	896.43
378.13	943.24
378.33	964.30
378.52	971.32
378.72	854.30
378.91	964.30
379.11	880.04
379.31	924.51
379.50	917.49
379.70	952.60
379.89	1060.26
380.09	957.28
380.28	940.90
380.48	1029.84
380.68	957.28
380.87	952.60
381.07	1064.94
381.26	978.34
381.46	943.24
381.65	1041.54
381.85	1036.86
382.04	1076.65
382.24	1029.84
382.43	1074.31
382.63	1039.20
382.83	1137.50
383.02	1088.35
383.22	1118.78
383.41	1062.60
383.61	1191.33
383.80	1153.88
384.00	1109.41
384.19	1132.82
384.39	1076.65
384.58	1064.94
384.78	1128.14
384.97	1104.73
385.17	1090.69
385.36	1219.42
385.56	1177.29
385.75	1153.88
385.95	1163.25
386.14	1224.10
386.34	1109.41
386.53	1224.10
386.72	1221.76
386.92	1184.31
387.11	1233.46
387.31	1254.53
387.50	1210.06
387.70	1196.01
387.89	1282.61
388.09	1313.04
388.28	1268.57
388.48	1282.61
388.67	1324.74
388.86	1315.38
389.06	1277.93
389.25	1357.51
389.45	1392.62
389.64	1423.05
389.84	1343.47
390.03	1397.30
390.22	1507.30
390.42	1409.00
390.61	1357.51
390.81	1397.30
391.00	1469.86
391.19	1502.62
391.39	1479.22
391.58	1474.54
391.78	1453.47
391.97	1467.52
392.16	1448.79
392.36	1523.69
392.55	1542.41
392.75	1472.20
392.94	1476.88
393.13	1500.28
393.33	1488.58
393.52	1619.65
393.71	1558.80
393.91	1504.96
394.10	1547.09
394.29	1652.42
394.49	1549.43
394.68	1739.02
394.88	1654.76
395.07	1678.16
395.26	1657.10
395.46	1652.42
395.65	1638.38
395.84	1771.79
396.04	1830.30
396.23	1771.79
396.42	1717.95
396.62	1732.00
396.81	1739.02
397.00	1727.32
397.19	1732.00
397.39	1746.04
397.58	1884.13
397.77	1785.83
397.97	1914.56
398.16	1827.96
398.35	1886.47
398.55	1839.66
398.74	1893.49
398.93	1902.86
399.12	1842.00
399.32	1935.62
399.51	1870.09
399.70	2005.84
399.90	2005.84
400.09	1989.46
400.28	2001.16
400.47	2029.24
400.67	2059.67
400.86	2157.97
401.05	1982.43
401.24	2064.35
401.44	2127.55
401.63	2174.36
401.82	2127.55
402.01	2071.37
402.21	2165.00
402.40	2197.76
402.59	2181.38
402.78	2073.71
402.97	2237.55
403.17	2162.66
403.36	2352.24
403.55	2232.87
403.74	2340.54
403.93	2333.51
404.13	2328.83
404.32	2349.90
404.51	2193.08
404.70	2406.07
404.89	2420.11
405.09	2562.89
405.28	2480.97
405.47	2401.39
405.66	2567.57
405.85	2628.42
406.05	2595.65
406.24	2539.48
406.43	2567.57
406.62	2661.19
406.81	2700.98
407.00	2626.08
407.20	2513.74
407.39	2569.91
407.58	2750.13
407.77	2703.32
407.96	2710.34
408.15	2642.46
408.34	2593.31
408.54	2782.90
408.73	2792.26
408.92	2787.58
409.11	2827.37
409.30	2820.35
409.49	2841.41
409.68	2841.41
409.87	2862.48
410.07	2939.71
410.26	2991.20
410.45	3023.97
410.64	3052.06
410.83	3056.74
411.02	3087.17
411.21	3148.02
411.40	3122.27
411.59	3213.56
411.78	3131.64
411.98	3131.64
412.17	3204.19
412.36	3384.41
412.55	3307.18
412.74	3337.60
412.93	3398.46
413.12	3190.15
413.31	3475.70
413.50	3426.54
413.69	3487.40
413.88	3574.00
414.07	3534.21
414.26	3623.15
414.45	3658.26
414.64	3672.30
414.83	3698.05
415.02	3772.94
415.22	3943.80
415.41	3873.59
415.60	3868.91
415.79	3913.38
415.98	3950.82
416.17	4018.70
416.36	3967.21
416.55	3948.48
416.74	4037.42
416.93	4079.55
417.12	4215.30
417.31	4070.19
417.50	4163.81
417.69	4248.07
417.88	4283.18
418.07	4252.75
418.26	4315.95
418.45	4367.44
418.64	4484.47
418.83	4327.65
419.02	4367.44
419.21	4571.07
419.39	4472.76
419.58	4435.32
419.77	4311.27
419.96	4615.54
420.15	4613.20
420.34	4568.73
420.53	4578.09
420.72	4690.43
420.91	4671.71
421.10	4854.27
421.29	4844.91
421.48	4594.47
421.67	4723.20
421.86	4599.15
422.05	4636.60
422.24	4739.58
422.43	4863.63
422.61	4784.06
422.80	5011.09
422.99	4798.10
423.18	4802.78
423.37	5032.15
423.56	4922.15
423.75	5020.45
423.94	4664.69
424.13	4451.70
424.32	4681.07
424.50	5018.11
424.69	5165.56
424.88	4936.19
425.07	4868.31
425.26	4959.60
425.45	4915.12
425.64	4952.57
425.83	4896.40
426.01	5029.81
426.20	5034.49
426.39	4975.98
426.58	5179.61
426.77	5165.56
426.96	5121.09
427.15	5022.79
427.33	5221.74
427.52	5034.49
427.71	5226.42
427.90	5259.18
428.09	5289.61
428.28	5364.51
428.46	5364.51
428.65	5327.06
428.84	5315.36
429.03	5432.38
429.22	5313.02
429.40	5495.58
429.59	5469.83
429.78	5369.19
429.97	5441.75
430.16	5486.22
430.34	5643.03
430.53	5643.03
430.72	5584.52
430.91	5598.56
431.10	5589.20
431.28	5696.86
431.47	5636.01
431.66	5893.47
431.85	5647.71
432.03	5841.98
432.22	5928.58
432.41	6045.60
432.60	5870.06
432.79	5846.66
432.97	6125.18
433.16	6054.97
433.35	5795.17
433.54	5863.04
433.72	6237.53
433.91	6251.57
434.10	6169.65
434.28	6090.07
434.47	6225.82
434.66	6305.40
434.85	6260.93
435.03	6445.84
435.22	6310.08
435.41	6333.49
435.59	6406.05
435.78	6352.21
435.97	6274.98
436.16	6436.47
436.34	6370.94
436.53	6647.12
436.72	6506.69
436.90	6509.03
437.09	6457.54
437.28	6394.34
437.46	6558.18
437.65	6743.08
437.84	6817.98
438.02	6710.32
438.21	6731.38
438.40	6679.89
438.58	6888.20
438.77	6846.07
438.96	7049.69
439.14	7077.78
439.33	7286.09
439.52	7260.34
439.70	7232.26
439.89	7283.75
440.08	7274.38
440.26	7358.64
440.45	7360.98
440.63	7562.27
440.82	7573.97
441.01	7431.20
441.19	7419.50
441.38	7775.26
441.57	7627.81
441.75	7908.67
441.94	7880.58
442.12	7950.80
442.31	8044.42
442.50	8060.80
442.68	7915.69
442.87	8112.30
443.05	8058.46
443.24	8248.05
443.43	8028.04
443.61	8124.00
443.80	8341.67
443.98	8060.80
444.17	7793.98
444.35	8205.92
444.54	8287.84
444.73	8175.49
444.91	8236.35
445.10	8313.58
445.28	8339.33
445.47	8182.51
445.65	8271.45
445.84	8493.80
446.02	8496.14
446.21	8365.07
446.39	8322.94
446.58	8451.67
446.77	8472.74
446.95	8285.50
447.14	8678.71
447.32	8367.42
447.51	8367.42
447.69	8461.04
447.88	8505.51
448.06	8423.59
448.25	8538.27
448.43	8505.51
448.62	8425.93
448.80	8526.57
448.99	8545.30
449.17	8748.92
449.36	8521.89
449.54	8725.52
449.73	8917.44
449.91	8933.82
450.10	8819.14
450.28	8926.80
450.46	9071.92
450.65	8947.87
450.83	8985.32
451.02	9062.55
451.20	9102.34
451.39	9069.58
451.57	9163.20
451.76	8884.67
451.94	9310.65
452.13	9263.84
452.31	9294.27
452.49	9116.39
452.68	9390.23
452.86	9200.65
453.05	9217.03
453.23	9507.26
453.42	9362.14
453.60	9425.34
453.78	9357.46
453.97	9362.14
454.15	9404.27
454.34	9415.98
454.52	9603.22
454.70	9570.45
454.89	9671.09
455.07	9762.37
455.26	9877.06
455.44	10059.62
455.62	9823.23
455.81	9856.00
455.99	10012.81
456.17	10033.88
456.36	9923.87
456.54	10181.33
456.73	10319.42
456.91	10232.82
457.09	10347.51
457.28	10525.39
457.46	10171.97
457.64	10532.41
457.83	10466.88
458.01	10193.03
458.19	10485.60
458.38	10394.32
458.56	10595.61
458.74	10530.07
458.93	10635.39
459.11	10745.40
459.29	10892.85
459.48	10796.89
459.66	10691.57
459.84	10890.51
460.03	11094.14
460.21	10817.96
460.39	10953.71
460.57	10979.45
460.76	11176.06
460.94	11260.32
461.12	11073.07
461.31	11033.29
461.49	10995.84
461.67	11049.67
461.85	11506.07
462.04	11424.15
462.22	11632.46
462.40	11573.95
462.59	11508.41
462.77	11400.75
462.95	11728.42
463.13	11679.27
463.32	11672.25
463.50	11665.23
463.68	11985.88
463.86	11758.85
464.05	11580.97
464.23	11592.67
464.41	11953.12
464.59	11726.08
464.78	12184.83
464.96	12056.10
465.14	12042.06
465.32	12009.29
465.50	11995.25
465.69	12051.42
465.87	11990.56
466.05	11887.58
466.23	12116.95
466.41	12095.89
466.60	12365.05
466.78	12177.81
466.96	12191.85
467.14	12201.21
467.32	12442.29
467.51	12624.85
467.69	12198.87
467.87	12549.95
468.05	12475.06
468.23	12229.30
468.41	12353.35
468.60	12685.70
468.78	12898.69
468.96	12662.30
469.14	12833.16
469.32	12744.22
469.50	12655.28
469.69	12903.37
469.87	13034.44
470.05	13355.10
470.23	13118.70
470.41	13025.08
470.59	13235.73
470.77	13006.36
470.95	13256.79
471.14	13390.20
471.32	12922.10
471.50	13460.42
471.68	13490.85
471.86	13612.56
472.04	13760.01
472.22	13977.68
472.40	13664.05
472.58	13795.12
472.77	13921.51
472.95	13907.46
473.13	14544.09
473.31	13987.04
473.49	14141.52
473.67	14061.94
473.85	14125.13
474.03	14593.24
474.21	14555.79
474.39	14387.27
474.57	14640.05
474.75	14885.81
474.93	14829.63
475.12	14953.68
475.30	15047.30
475.48	14815.59
475.66	15061.35
475.84	15140.93
476.02	15536.48
476.20	15300.08
476.38	15700.31
476.56	15737.76
476.74	15667.55
476.92	15800.96
477.10	15735.42
477.28	16119.27
477.46	16081.82
477.64	16313.53
477.82	16468.01
478.00	16601.42
478.18	16877.60
478.36	17008.67
478.54	17144.42
478.72	17025.06
478.90	16996.97
479.08	17378.48
479.26	18090.00
479.44	17834.88
479.62	17980.00
479.80	18174.26
479.98	18214.05
480.16	18295.97
480.34	18436.40
480.52	18459.81
480.70	18420.02
480.88	18185.96
481.06	18848.33
481.24	18817.91
481.41	19206.44
481.59	19449.85
481.77	19386.66
481.95	19435.81
482.13	19477.94
482.31	19508.37
482.49	20004.56
482.67	20081.80
482.85	20325.21
483.03	20414.15
483.21	20744.17
483.39	20549.90
483.57	20830.77
483.74	21046.10
483.92	21261.43
484.10	21144.40
484.28	21642.93
484.46	21923.80
484.64	22094.66
484.82	22321.69
485.00	22197.64
485.18	22857.67
485.35	22916.19
485.53	22764.05
485.71	22810.86
485.89	23346.84
486.07	23075.34
486.25	23190.03
486.43	23363.23
486.61	23838.36
486.78	23812.61
486.96	24451.58
487.14	24912.66
487.32	24243.27
487.50	24655.20
487.68	24718.40
487.85	25319.92
488.03	25357.36
488.21	25984.63
488.39	25799.73
488.57	26190.59
488.75	26260.81
488.92	26242.09
489.10	27014.46
489.28	26946.59
489.46	27028.51
489.64	26771.05
489.81	27491.93
489.99	27515.34
490.17	27716.62
490.35	28060.68
490.53	27913.23
490.70	28582.62
490.88	28182.39
491.06	28886.89
491.24	28542.83
491.41	28814.34
491.59	28868.17
491.77	29109.24
491.95	29432.24
492.13	29549.26
492.30	29898.00
492.48	30235.04
492.66	30024.39
492.84	30174.19
493.01	30590.80
493.19	30478.46
493.37	30871.67
493.54	30960.61
493.72	31452.12
493.90	31402.97
494.08	31793.84
494.25	31920.23
494.43	31995.12
494.61	32067.68
494.79	32500.68
494.96	32191.73
495.14	33029.64
495.32	33170.07
495.49	33127.94
495.67	33319.87
495.85	33563.28
496.02	34057.14
496.20	33661.58
496.38	34326.30
496.55	33998.62
496.73	34756.96
496.91	34487.79
497.09	34656.31
497.26	35140.80
497.44	34859.94
497.62	35243.79
497.79	35625.29
497.97	35480.18
498.14	35840.62
498.32	35894.46
498.50	35971.69
498.67	36418.74
498.85	36311.07
499.03	36641.09
499.20	36425.76
499.38	36645.77
499.56	36837.69
499.73	37319.84
499.91	37296.44
500.08	37090.47
500.26	37209.84
500.44	37596.03
500.61	37912.00
500.79	37563.26
500.97	38092.22
501.14	38300.53
501.32	38490.11
501.49	38536.92
501.67	38775.66
501.84	39016.73
502.02	38876.30
502.20	39129.08
502.37	39346.75
502.55	39035.45
502.72	39063.54
502.90	39269.51
503.07	39164.18
503.25	39737.62
503.43	39812.51
503.60	39976.35
503.78	40261.90
503.95	40144.87
504.13	40561.48
504.30	40542.76
504.48	40533.40
504.65	40917.25
504.83	40912.56
505.01	41399.40
505.18	41043.63
505.36	41490.68
505.53	41298.75
505.71	41565.57
505.88	41155.98
506.06	41462.59
506.23	41832.39
506.41	41535.15
506.58	41914.31
506.76	42068.79
506.93	42646.90
507.11	42237.31
507.28	42436.25
507.46	42693.71
507.63	43065.86
507.81	42962.87
507.98	42611.79
508.16	43377.15
508.33	42997.98
508.50	43058.84
508.68	43412.26
508.85	44182.29
509.03	43868.66
509.20	43639.29
509.38	44388.26
509.55	44055.90
509.73	44608.27
509.90	44219.74
510.08	44486.56
510.25	44437.41
510.42	44734.66
510.60	44872.75
510.77	44748.70
510.95	45170.00
511.12	45132.55
511.30	44907.86
511.47	45443.84
511.64	45544.48
511.82	45944.72
511.99	45780.88
512.17	45577.25
512.34	45783.22
512.51	46101.53
512.69	46323.88
512.86	46148.34
513.04	46595.38
513.21	46050.04
513.38	46658.58
513.56	47033.07
513.73	46366.01
513.90	46906.68
514.08	47526.92
514.25	47187.54
514.43	47103.28
514.60	47201.58
514.77	47365.42
514.95	47440.32
515.12	47103.28
515.29	47510.53
515.47	48161.20
515.64	48418.66
515.81	47929.49
515.99	48350.79
516.16	48484.20
516.33	48505.26
516.51	48540.37
516.68	48219.72
516.85	48566.12
517.03	48844.64
517.20	48720.59
517.37	48758.04
517.54	48435.05
517.72	48868.05
517.89	49045.93
518.06	49036.56
518.24	49043.59
518.41	48753.36
518.58	49036.56
518.75	49186.36
518.93	49434.45
519.10	49462.54
519.27	49303.38
519.45	49691.91
519.62	50131.93
519.79	49748.09
519.96	49883.84
520.14	49860.43
520.31	50340.24
520.48	50365.99
520.65	50134.28
520.83	50504.08
521.00	50513.44
521.17	50321.52
521.34	50475.99
521.52	50761.54
521.69	50508.76
521.86	50600.04
522.03	51016.66
522.20	51444.98
522.38	51587.75
522.55	50939.42
522.72	51201.56
522.89	51189.86
523.07	51435.61
523.24	51222.62
523.41	51573.70
523.58	50806.01
523.75	51709.46
523.92	51758.61
524.10	51657.96
524.27	51957.55
524.44	51643.92
524.61	52032.45
524.78	52161.18
524.96	51964.57
525.13	51997.34
525.30	52280.55
525.47	52444.38
525.64	52481.83
525.81	52151.82
525.98	52598.86
526.16	52161.18
526.33	52303.95
526.50	53198.04
526.67	52664.39
526.84	52821.21
527.01	52891.43
527.18	52715.89
527.36	52891.43
527.53	52921.85
527.70	53277.61
527.87	53322.08
528.04	53312.72
528.21	53401.66
528.38	53127.82
528.55	53219.10
528.72	53132.50
528.89	53284.64
529.07	53308.04
529.24	53427.41
529.41	53724.66
529.58	53696.57
529.75	53609.97
529.92	53677.85
530.09	53488.26
530.26	54014.88
530.43	53825.30
530.60	53696.57
530.77	53773.81
530.94	54012.54
531.11	54012.54
531.28	53860.41
531.46	53970.41
531.63	54181.06
531.80	54260.64
531.97	54265.32
532.14	54274.68
532.31	54300.43
532.48	54525.12
532.65	54433.84
532.82	54520.44
532.99	54740.45
533.16	54836.41
533.33	54625.76
533.50	54796.62
533.67	54548.53
533.84	54578.95
534.01	54782.58
534.18	54969.82
534.35	55056.42
534.52	54960.46
534.69	55004.93
534.86	55224.94
535.03	55150.04
535.20	55323.24
535.37	55274.09
535.54	55428.57
535.71	55079.83
535.88	55374.73
536.05	55370.05
536.22	55463.67
536.38	55648.58
536.55	55627.51
536.72	55533.89
536.89	55398.14
537.06	55313.88
537.23	55510.49
537.40	55297.50
537.57	55498.78
537.74	55744.54
537.91	55852.20
538.08	55957.53
538.25	55744.54
538.42	55863.91
538.59	55985.61
538.75	55674.32
538.92	55978.59
539.09	56062.85
539.26	56222.01
539.43	56044.13
539.60	56126.05
539.77	56168.18
539.94	56119.02
540.11	56329.67
540.28	56170.52
540.44	56303.93
540.61	55929.44
540.78	56301.59
540.95	56294.56
541.12	56420.95
541.29	56493.51
541.46	56467.76
541.62	56320.31
541.79	56484.15
541.96	56236.05
542.13	56341.38
542.30	56444.36
542.47	56577.77
542.63	56720.54
542.80	56914.81
542.97	56921.83
543.14	57048.22
543.31	57237.80
543.48	57027.15
543.64	57088.01
543.81	57242.48
543.98	57186.31
544.15	57240.14
544.32	57591.22
544.48	57532.71
544.65	57235.46
544.82	57223.76
544.99	57167.58
545.16	57446.11
545.32	57427.38
545.49	57668.46
545.66	57757.40
545.83	57467.17
546.00	57712.93
546.16	57439.09
546.33	57462.49
546.50	57322.06
546.67	57560.79
546.83	57413.34
547.00	57602.92
547.17	57593.56
547.34	57675.48
547.50	57907.19
547.67	57946.98
547.84	57818.25
548.00	57963.37
548.17	58141.25
548.34	57881.45
548.51	58174.02
548.67	58166.99
548.84	57951.66
549.01	58026.56
549.18	57984.43
549.34	58255.93
549.51	58209.12
549.68	58138.91
549.84	58279.34
550.01	58375.30
550.18	58052.31
550.34	58244.23
550.51	58461.90
550.68	58291.04
550.84	58220.83
551.01	58300.40
551.18	58171.67
551.34	58314.45
551.51	58534.46
551.68	58532.12
551.84	58424.45
552.01	58492.33
552.18	58501.69
552.34	58501.69
552.51	58614.04
552.68	58452.54
552.84	58419.77
553.01	58836.39
553.18	58850.43
553.34	58866.81
553.51	58649.14
553.67	58892.56
553.84	58791.92
554.01	58838.73
554.17	59056.40
554.34	58930.01
554.51	58873.84
554.67	59245.98
554.84	58834.05
555.00	58728.72
555.17	58866.81
555.33	58920.65
555.50	59056.40
555.67	58948.73
555.83	58925.33
556.00	59250.66
556.16	59295.13
556.33	59370.03
556.50	59164.06
556.66	59341.94
556.83	59068.10
556.99	59281.09
557.16	59320.88
557.32	59423.86
557.49	59526.84
557.65	59196.83
557.82	59299.81
557.98	59318.54
558.15	59400.46
558.32	59330.24
558.48	59470.67
558.65	59330.24
558.81	59313.86
558.98	59608.76
559.14	59557.27
559.31	59484.72
559.47	59854.52
559.64	59515.14
559.80	59655.57
559.97	59650.89
560.13	59576.00
560.30	59536.21
560.46	59718.77
560.63	59753.88
560.79	59643.87
560.96	59882.61
561.12	59805.37
561.29	59803.03
561.45	59959.84
561.61	59882.61
561.78	59655.57
561.94	59494.08
562.11	59683.66
562.27	59770.26
562.44	59948.14
562.60	59863.88
562.77	59718.77
562.93	59709.41
563.10	59957.50
563.26	59796.01
563.42	60285.18
563.59	59931.76
563.75	59887.29
563.92	59891.97
564.08	59723.45
564.24	60058.15
564.41	59943.46
564.57	60257.09
564.74	59969.21
564.90	60018.36
565.07	60009.00
565.23	59915.37
565.39	60250.07
565.56	60111.98
565.72	59929.42
565.88	60111.98
566.05	60032.40
566.21	59927.08
566.38	59962.18
566.54	60362.42
566.70	60137.72
566.87	60395.18
567.03	60044.10
567.19	60411.57
567.36	60200.92
567.52	60083.89
567.68	60444.33
567.85	60350.71
568.01	60250.07
568.17	60243.05
568.34	60315.61
568.50	60294.54
568.66	60355.39
568.83	60346.03
568.99	60331.99
569.15	60322.63
569.32	60598.81
569.48	60296.88
569.64	60308.58
569.81	60357.74
569.97	60135.38
570.13	60530.93
570.30	60460.72
570.46	60552.00
570.62	60610.51
570.78	60430.29
570.95	60369.44
571.11	60629.24
571.27	60406.89
571.43	60441.99
571.60	60633.92
571.76	60388.16
571.92	60575.40
572.09	60559.02
572.25	60388.16
572.41	60315.61
572.57	60509.87
572.74	60844.57
572.90	60479.44
573.06	60577.75
573.22	60446.68
573.38	60355.39
573.55	60573.06
573.71	60697.11
573.87	60544.98
574.03	60512.21
574.20	60706.47
574.36	60732.22
574.52	60528.59
574.68	60526.25
574.84	60776.69
575.01	60561.36
575.17	60519.23
575.33	60528.59
575.49	60594.13
575.65	60687.75
575.82	60666.69
575.98	60617.53
576.14	60797.76
576.30	60570.72
576.46	60678.39
576.62	60563.70
576.79	60537.96
576.95	60509.87
577.11	60729.88
577.27	60980.32
577.43	60921.80
577.59	60654.98
577.75	60477.10
577.92	60530.93
578.08	60863.29
578.24	60767.33
578.40	60814.14
578.56	60889.04
578.72	60809.46
578.88	60977.98
579.04	60851.59
579.21	60725.20
579.37	60886.70
579.53	60952.23
579.69	60596.47
579.85	60739.24
580.01	60673.71
580.17	60809.46
580.33	60802.44
580.49	61069.26
580.65	60893.72
580.82	60767.33
580.98	60631.58
581.14	60708.82
581.30	60673.71
581.46	60786.05
581.62	61073.94
581.78	60580.09
581.94	61041.17
582.10	60919.46
582.26	60713.50
582.42	60767.33
582.58	60837.54
582.74	60800.10
582.90	60842.23
583.06	60870.31
583.22	60823.50
583.38	60863.29
583.54	60767.33
583.70	60917.12
583.86	60898.40
584.02	60858.61
584.18	60994.36
584.34	61052.87
584.50	60980.32
584.66	60683.07
584.82	60772.01
584.98	60860.95
585.14	60985.00
585.30	60811.80
585.46	60832.86
585.62	61003.72
585.78	61059.90
585.94	60699.45
586.10	60849.25
586.26	60886.70
586.42	60999.04
586.58	61134.79
586.74	61134.79
586.90	60886.70
587.06	60903.08
587.22	61010.74
587.38	60952.23
587.54	61022.45
587.70	61055.21
587.86	61055.21
588.02	60989.68
588.18	61125.43
588.34	60949.89
588.49	61015.43
