SpectraSuite Data File
++++++++++++++++++++++++++++++++++++
Date: Fri Oct 25 11:23:51 EDT 2013
User: price-jones
Dark Spectrum Present: No
Reference Spectrum Present: No
Number of Sampled Component Spectra: 1
Spectrometers: USB2+H05261
Integration Time (usec): 100000 (USB2+H05261)
Spectra Averaged: 1 (USB2+H05261)
Boxcar Smoothing: 0 (USB2+H05261)
Correct for Electrical Dark: No (USB2+H05261)
Strobe/Lamp Enabled: No (USB2+H05261)
Correct for Detector Non-linearity: No (USB2+H05261)
Correct for Stray Light: No (USB2+H05261)
Number of Pixels in Processed Spectrum: 2048
>>>>>Begin Processed Spectral Data<<<<<
365.73	227.03
365.92	227.03
366.12	227.03
366.32	145.11
366.52	124.05
366.72	79.58
366.91	140.43
367.11	105.32
367.31	119.37
367.51	159.16
367.70	91.28
367.90	184.90
368.10	95.96
368.30	168.52
368.49	117.03
368.69	159.16
368.89	133.41
369.09	133.41
369.28	161.50
369.48	145.11
369.68	126.39
369.87	168.52
370.07	161.50
370.27	224.69
370.47	330.02
370.66	653.01
370.86	631.94
371.06	678.76
371.25	725.57
371.45	690.46
371.65	674.07
371.84	678.76
372.04	664.71
372.24	734.93
372.44	676.41
372.63	739.61
372.83	734.93
373.03	781.74
373.22	732.59
373.42	767.70
373.62	671.73
373.81	716.20
374.01	786.42
374.21	823.87
374.40	758.33
374.60	732.59
374.79	847.27
374.99	877.70
375.19	800.46
375.38	819.19
375.58	880.04
375.78	891.74
375.97	912.81
376.17	931.53
376.37	866.00
376.56	880.04
376.76	917.49
376.95	875.36
377.15	915.15
377.35	882.38
377.54	896.43
377.74	898.77
377.93	889.40
378.13	980.68
378.33	901.11
378.52	901.11
378.72	891.74
378.91	987.71
379.11	1001.75
379.31	943.24
379.50	903.45
379.70	1015.79
379.89	891.74
380.09	947.92
380.28	945.58
380.48	980.68
380.68	933.87
380.87	954.94
381.07	1001.75
381.26	1076.65
381.46	891.74
381.65	1004.09
381.85	999.41
382.04	1102.39
382.24	1032.18
382.43	1032.18
382.63	1027.50
382.83	987.71
383.02	1100.05
383.22	1090.69
383.41	1078.99
383.61	1142.18
383.80	1146.86
384.00	1069.62
384.19	1118.78
384.39	1102.39
384.58	1048.56
384.78	1071.97
384.97	1153.88
385.17	1198.35
385.36	1146.86
385.56	1228.78
385.75	1128.14
385.95	1170.27
386.14	1235.80
386.34	1219.42
386.53	1172.61
386.72	1165.59
386.92	1221.76
387.11	1291.98
387.31	1196.01
387.50	1219.42
387.70	1238.14
387.89	1217.08
388.09	1303.68
388.28	1224.10
388.48	1247.51
388.67	1219.42
388.86	1369.21
389.06	1306.02
389.25	1432.41
389.45	1362.19
389.64	1411.34
389.84	1366.87
390.03	1406.66
390.22	1406.66
390.42	1277.93
390.61	1430.07
390.81	1427.73
391.00	1469.86
391.19	1521.35
391.39	1430.07
391.58	1397.30
391.78	1547.09
391.97	1420.71
392.16	1486.24
392.36	1554.12
392.55	1497.94
392.75	1519.01
392.94	1533.05
393.13	1523.69
393.33	1540.07
393.52	1610.29
393.71	1631.35
393.91	1544.75
394.10	1544.75
394.29	1584.54
394.49	1640.72
394.68	1612.63
394.88	1596.25
395.07	1675.82
395.26	1652.42
395.46	1671.14
395.65	1710.93
395.84	1799.87
396.04	1795.19
396.23	1804.55
396.42	1825.62
396.62	1755.40
396.81	1692.21
397.00	1722.63
397.19	1851.36
397.39	1764.76
397.58	1933.28
397.77	1743.70
397.97	1928.60
398.16	1806.89
398.35	1930.94
398.55	1867.75
398.74	1846.68
398.93	1980.09
399.12	1998.82
399.32	1956.69
399.51	1954.35
399.70	2026.90
399.90	1989.46
400.09	2033.93
400.28	1994.14
400.47	2101.80
400.67	2188.40
400.86	2003.50
401.05	2010.52
401.24	2069.03
401.44	2148.61
401.63	2136.91
401.82	2143.93
402.01	2066.69
402.21	2253.94
402.40	2134.57
402.59	2165.00
402.78	2335.85
402.97	2284.36
403.17	2340.54
403.36	2265.64
403.55	2385.01
403.74	2370.96
403.93	2298.41
404.13	2415.43
404.32	2363.94
404.51	2410.75
404.70	2406.07
404.89	2279.68
405.09	2520.76
405.28	2436.50
405.47	2499.69
405.66	2471.61
405.85	2516.08
406.05	2399.05
406.24	2513.74
406.43	2567.57
406.62	2689.28
406.81	2637.78
407.00	2600.34
407.20	2628.42
407.39	2649.49
407.58	2691.62
407.77	2834.39
407.96	2768.85
408.15	2698.64
408.34	2768.85
408.54	2759.49
408.73	2785.24
408.92	2832.05
409.11	2890.56
409.30	2906.95
409.49	2930.35
409.68	2829.71
409.87	2972.48
410.07	2846.09
410.26	3073.12
410.45	3185.47
410.64	3028.65
410.83	3038.02
411.02	3052.06
411.21	3197.17
411.40	3213.56
411.59	3173.77
411.78	3164.40
411.98	3049.72
412.17	3293.13
412.36	3304.84
412.55	3440.59
412.74	3400.80
412.93	3501.44
413.12	3403.14
413.31	3482.72
413.50	3536.55
413.69	3578.68
413.88	3674.64
414.07	3688.68
414.26	3588.04
414.45	3669.96
414.64	3740.18
414.83	3782.31
415.02	3829.12
415.22	3707.41
415.41	3929.76
415.60	3887.63
415.79	3868.91
415.98	3988.27
416.17	4035.08
416.36	3974.23
416.55	3971.89
416.74	4016.36
416.93	3936.78
417.12	4152.11
417.31	4187.22
417.50	4285.52
417.69	4227.01
417.88	4231.69
418.07	4308.93
418.26	4264.46
418.45	4411.91
418.64	4491.49
418.83	4510.21
419.02	4624.90
419.21	4425.95
419.39	4444.68
419.58	4629.58
419.77	4538.30
419.96	4578.09
420.15	4627.24
420.34	4650.64
420.53	4636.60
420.72	4716.18
420.91	4791.08
421.10	4699.80
421.29	4816.82
421.48	4767.67
421.67	4877.68
421.86	4861.29
422.05	4908.10
422.24	4833.21
422.43	4933.85
422.61	4875.34
422.80	4999.38
422.99	4816.82
423.18	4929.17
423.37	4992.36
423.56	4936.19
423.75	4919.81
423.94	4842.57
424.13	4631.92
424.32	4774.69
424.50	5006.41
424.69	4943.21
424.88	5093.01
425.07	5034.49
425.26	4854.27
425.45	5015.77
425.64	5032.15
425.83	4924.49
426.01	5074.28
426.20	5181.95
426.39	5184.29
426.58	5034.49
426.77	5125.77
426.96	5221.74
427.15	5146.84
427.33	5174.92
427.52	5275.57
427.71	5378.55
427.90	5317.70
428.09	5308.34
428.28	5472.17
428.46	5481.53
428.65	5404.30
428.84	5488.56
429.03	5603.24
429.22	5324.72
429.40	5488.56
429.59	5458.13
429.78	5291.95
429.97	5200.67
430.16	5584.52
430.34	5727.29
430.53	5687.50
430.72	5678.14
430.91	5507.28
431.10	5685.16
431.28	5652.39
431.47	5837.30
431.66	5673.46
431.85	5738.99
432.03	5921.56
432.22	5989.43
432.41	6005.81
432.60	5996.45
432.79	5907.51
432.97	6108.80
433.16	6003.47
433.35	6108.80
433.54	6071.35
433.72	6300.72
433.91	6221.14
434.10	6162.63
434.28	6127.52
434.47	6113.48
434.66	6457.54
434.85	6270.30
435.03	6380.30
435.22	6352.21
435.41	6541.80
435.59	6377.96
435.78	6382.64
435.97	6494.99
436.16	6544.14
436.34	6506.69
436.53	6565.20
436.72	6658.82
436.90	6583.93
437.09	6593.29
437.28	6422.43
437.46	6590.95
437.65	6771.17
437.84	6967.77
438.02	6768.83
438.21	6747.76
438.40	6759.47
438.58	6930.33
438.77	7094.16
438.96	7082.46
439.14	7030.97
439.33	7178.42
439.52	7073.10
439.70	7300.13
439.89	7403.11
440.08	7400.77
440.26	7468.65
440.45	7375.03
440.63	7503.76
440.82	7824.41
441.01	7473.33
441.19	7597.38
441.38	7789.30
441.57	7728.45
441.75	7992.93
441.94	8189.53
442.12	8021.02
442.31	8023.36
442.50	8051.44
442.68	8039.74
442.87	8098.25
443.05	8147.40
443.24	8079.53
443.43	8201.24
443.61	8149.75
443.80	8456.36
443.98	7999.95
444.17	7899.31
444.35	8348.69
444.54	8234.00
444.73	8292.52
444.91	8262.09
445.10	8327.63
445.28	8465.72
445.47	8332.31
445.65	8346.35
445.84	8615.51
446.02	8276.13
446.21	8449.33
446.39	8458.70
446.58	8674.03
446.77	8659.98
446.95	8229.32
447.14	8603.81
447.32	8507.85
447.51	8629.56
447.69	8641.26
447.88	8533.59
448.06	8652.96
448.25	8554.66
448.43	8744.24
448.62	8671.68
448.80	8519.55
448.99	8805.10
449.17	8645.94
449.36	8858.93
449.54	9149.15
449.73	8997.02
449.91	9015.74
450.10	8954.89
450.28	9219.37
450.46	9181.92
450.65	9076.60
450.83	9078.94
451.02	9067.24
451.20	9090.64
451.39	9074.26
451.57	9252.14
451.76	9004.04
451.94	9165.54
452.13	9397.25
452.31	9366.82
452.49	9310.65
452.68	9022.77
452.86	9467.47
453.05	9158.52
453.23	9390.23
453.42	9364.48
453.60	9423.00
453.78	9743.65
453.97	9584.49
454.15	9518.96
454.34	9399.59
454.52	9696.84
454.70	9797.48
454.89	9788.12
455.07	9937.91
455.26	9893.44
455.44	9902.81
455.62	9881.74
455.81	10047.92
455.99	10167.29
456.17	10174.31
456.36	10164.95
456.54	10167.29
456.73	10354.53
456.91	10525.39
457.09	10459.85
457.28	10565.18
457.46	10284.31
457.64	10539.43
457.83	10630.71
458.01	10438.79
458.19	10787.53
458.38	10820.30
458.56	10747.74
458.74	10942.00
458.93	11028.60
459.11	10885.83
459.29	10846.04
459.48	10979.45
459.66	10803.91
459.84	10794.55
460.03	11220.53
460.21	11021.58
460.39	11108.18
460.57	11162.01
460.76	11197.12
460.94	11201.80
461.12	11290.74
461.31	11356.28
461.49	11227.55
461.67	11250.96
461.85	11485.01
462.04	11496.71
462.22	11475.65
462.40	11508.41
462.59	11468.62
462.77	11489.69
462.95	11798.64
463.13	11826.73
463.32	11829.07
463.50	11772.89
463.68	11768.21
463.86	11733.11
464.05	11667.57
464.23	11686.29
464.41	12016.31
464.59	11887.58
464.78	12189.51
464.96	12154.40
465.14	11939.07
465.32	12121.63
465.50	12133.34
465.69	12217.60
465.87	12086.53
466.05	12161.42
466.23	12163.76
466.41	12304.20
466.60	12521.87
466.78	12145.04
466.96	12292.49
467.14	12484.42
467.32	12592.08
467.51	12645.91
467.69	12400.16
467.87	12648.26
468.05	12795.71
468.23	12631.87
468.41	12622.51
468.60	12535.91
468.78	12697.41
468.96	12526.55
469.14	12713.79
469.32	13160.83
469.50	12884.65
469.69	13144.45
469.87	12992.31
470.05	13095.30
470.23	13144.45
470.41	13298.92
470.59	13394.89
470.77	13312.97
470.95	13261.48
471.14	13654.69
471.32	13275.52
471.50	13219.35
471.68	13795.12
471.86	13813.84
472.04	13832.57
472.22	14054.92
472.40	13767.03
472.58	13701.50
472.77	14094.71
472.95	14113.43
473.13	14740.69
473.31	14295.99
473.49	14288.97
473.67	14190.67
473.85	14445.79
474.03	14855.38
474.21	14623.67
474.39	14883.47
474.57	14839.00
474.75	14918.57
474.93	15105.82
475.12	15061.35
475.30	15154.97
475.48	14890.49
475.66	15442.85
475.84	15335.19
476.02	15431.15
476.20	15257.95
476.38	15548.18
476.56	16219.91
476.74	15887.56
476.92	16051.39
477.10	15789.25
477.28	16145.02
477.46	16236.30
477.64	16414.18
477.82	16713.77
478.00	17046.12
478.18	16791.00
478.36	17032.08
478.54	17125.70
478.72	17404.22
478.90	17310.60
479.08	17673.39
479.26	17937.87
479.44	17687.43
479.62	17752.96
479.80	18256.18
479.98	18146.17
480.16	18647.05
480.34	18387.25
480.52	18696.20
480.70	18455.12
480.88	18457.46
481.06	18885.78
481.24	18953.66
481.41	19316.44
481.59	19599.65
481.77	19431.13
481.95	19770.51
482.13	19854.76
482.31	19800.93
482.49	20348.62
482.67	20184.78
482.85	20313.51
483.03	20758.21
483.21	20842.47
483.39	21113.97
483.57	20833.11
483.74	21104.61
483.92	21479.10
484.10	21427.60
484.28	21532.93
484.46	22178.92
484.64	22417.65
484.82	21961.25
485.00	22796.82
485.18	22689.15
485.35	23421.74
485.53	22642.34
485.71	23283.65
485.89	23789.20
486.07	23300.03
486.25	23405.36
486.43	23545.79
486.61	24107.52
486.78	24266.67
486.96	24463.28
487.14	25048.41
487.32	24936.07
487.50	25003.94
487.68	25048.41
487.85	25563.33
488.03	25778.66
488.21	26026.76
488.39	26125.06
488.57	25989.31
488.75	26195.28
488.92	26647.00
489.10	26661.04
489.28	26796.79
489.46	27335.12
489.64	26979.36
489.81	27625.34
489.99	27508.32
490.17	27604.28
490.35	28257.29
490.53	27901.53
490.70	28432.83
490.88	28180.05
491.06	28879.87
491.24	29132.65
491.41	29298.83
491.59	29546.92
491.77	29383.09
491.95	29926.09
492.13	30228.02
492.30	30403.56
492.48	30593.14
492.66	30424.62
492.84	30389.52
493.01	30579.10
493.19	30651.66
493.37	31159.55
493.54	31714.26
493.72	31864.05
493.90	31566.81
494.08	31814.90
494.25	32507.70
494.43	31978.74
494.61	32526.42
494.79	32601.32
494.96	32416.42
495.14	32868.14
495.32	33347.95
495.49	33085.81
495.67	33802.02
495.85	33692.01
496.02	33872.23
496.20	34424.60
496.38	34199.91
496.55	34345.02
496.73	35243.79
496.91	34522.90
497.09	34902.07
497.26	34976.97
497.44	35150.17
497.62	35665.08
497.79	36102.76
497.97	35555.08
498.14	36191.70
498.32	36233.83
498.50	36392.99
498.67	36587.25
498.85	36615.34
499.03	36921.95
499.20	36919.61
499.38	36800.24
499.56	37408.78
499.73	37663.90
499.91	37626.45
500.08	38000.94
500.26	37689.65
500.44	37834.76
500.61	38022.00
500.79	38068.81
500.97	38284.14
501.14	39079.92
501.32	38735.87
501.49	38749.91
501.67	39009.71
501.84	39452.07
502.02	39063.54
502.20	39339.72
502.37	39522.29
502.55	39398.24
502.72	39475.48
502.90	40280.62
503.07	39800.81
503.25	40065.29
503.43	39711.87
503.60	40397.65
503.78	40418.71
503.95	40285.30
504.13	40243.17
504.30	41013.21
504.48	40514.67
504.65	41106.83
504.83	41340.88
505.01	41507.06
505.18	41500.04
505.36	42014.96
505.53	41687.28
505.71	41710.69
505.88	42108.58
506.06	41865.16
506.23	42199.86
506.41	41867.50
506.58	42223.26
506.76	42185.82
506.93	43070.54
507.11	42941.81
507.28	42684.35
507.46	43007.34
507.63	42988.62
507.81	43571.41
507.98	43185.22
508.16	43400.55
508.33	43484.81
508.50	43751.63
508.68	43749.29
508.85	44046.54
509.03	44219.74
509.20	44481.88
509.38	44378.90
509.55	44556.78
509.73	44680.83
509.90	44978.07
510.08	45078.72
510.25	45010.84
510.42	44931.26
510.60	45516.40
510.77	45413.41
510.95	45689.60
511.12	45106.80
511.30	45294.05
511.47	45727.05
511.64	45867.48
511.82	45715.34
511.99	45600.66
512.17	46176.43
512.34	46319.20
512.51	46581.34
512.69	46958.17
512.86	46532.19
513.04	46997.96
513.21	46663.26
513.38	47283.50
513.56	47110.30
513.73	46958.17
513.90	47103.28
514.08	46927.74
514.25	47786.72
514.43	47428.62
514.60	47854.59
514.77	47957.58
514.95	47929.49
515.12	48065.24
515.29	47950.56
515.47	47957.58
515.64	48460.79
515.81	48456.11
515.99	48397.60
516.16	48729.95
516.33	48961.67
516.51	48875.07
516.68	48907.83
516.85	48528.67
517.03	49308.07
517.20	49123.16
517.37	48814.21
517.54	49279.98
517.72	49013.16
517.89	49326.79
518.06	49326.79
518.24	49310.41
518.41	49134.87
518.58	49598.29
518.75	49287.00
518.93	50143.64
519.10	49645.10
519.27	49993.84
519.45	50176.40
519.62	50351.94
519.79	49914.26
519.96	50237.26
520.14	50419.82
520.31	50644.51
520.48	50660.90
520.65	50433.86
520.83	51007.29
521.00	50934.74
521.17	50457.27
521.34	50670.26
521.52	50974.53
521.69	50892.61
521.86	51400.50
522.03	51267.09
522.20	51669.67
522.38	51477.74
522.55	51615.83
522.72	51674.35
522.89	51620.52
523.07	51831.16
523.24	51332.63
523.41	51742.22
523.58	51950.53
523.75	51983.30
523.92	51728.18
524.10	52013.73
524.27	51908.40
524.44	52374.17
524.61	52456.09
524.78	52219.69
524.96	52404.59
525.13	52423.32
525.30	52486.51
525.47	52638.65
525.64	53048.24
525.81	52594.18
525.98	52830.57
526.16	52935.90
526.33	52790.78
526.50	53275.27
526.67	52987.39
526.84	53029.52
527.01	52889.09
527.18	53389.96
527.36	53106.76
527.53	53504.65
527.70	53680.19
527.87	53616.99
528.04	53382.94
528.21	53661.46
528.38	53478.90
528.55	53614.65
528.72	53523.37
528.89	53743.38
529.07	53633.38
529.24	53528.05
529.41	53904.88
529.58	53965.73
529.75	53804.24
529.92	53881.47
530.09	54202.13
530.26	53792.53
530.43	54085.10
530.60	53813.60
530.77	53844.02
530.94	54265.32
531.11	54164.68
531.28	54281.70
531.46	54529.80
531.63	54431.50
531.80	54597.68
531.97	54506.40
532.14	54906.63
532.31	54646.83
532.48	54834.07
532.65	54644.49
532.82	54621.08
532.99	54740.45
533.16	54864.50
533.33	55084.51
533.50	54927.69
533.67	55068.12
533.84	54721.72
534.01	55011.95
534.18	54986.21
534.35	55648.58
534.52	55199.19
534.69	55449.63
534.86	55264.73
535.03	55047.06
535.20	55386.44
535.37	55519.85
535.54	55533.89
535.71	55505.80
535.88	55573.68
536.05	55693.05
536.22	55838.16
536.38	55772.63
536.55	55838.16
536.72	55943.48
536.89	55805.39
537.06	55573.68
537.23	55938.80
537.40	55716.45
537.57	55824.12
537.74	56051.15
537.91	56259.46
538.08	56002.00
538.25	55913.06
538.42	56182.22
538.59	56261.80
538.75	55997.32
538.92	56142.43
539.09	56306.27
539.26	56250.09
539.43	56154.13
539.60	56488.83
539.77	56460.74
539.94	56664.37
540.11	56488.83
540.28	56540.32
540.44	56509.89
540.61	56570.75
540.78	56402.23
540.95	56395.21
541.12	56676.07
541.29	56573.09
541.46	56743.95
541.62	56683.09
541.79	56772.03
541.96	56552.02
542.13	56741.61
542.30	56842.25
542.47	57062.26
542.63	56947.57
542.80	56975.66
542.97	57371.21
543.14	57488.24
543.31	57312.70
543.48	57137.16
543.64	57408.66
543.81	57612.29
543.98	57614.63
544.15	57499.94
544.32	57368.87
544.48	57654.42
544.65	57485.90
544.82	57572.50
544.99	57338.44
545.16	57752.72
545.32	57743.36
545.49	57682.50
545.66	57848.68
545.83	57785.49
546.00	57801.87
546.16	57694.21
546.33	57818.25
546.50	57745.70
546.67	57820.59
546.83	57722.29
547.00	57748.04
547.17	57972.73
547.34	57982.09
547.50	58117.84
547.67	58227.85
547.84	58274.66
548.00	58157.63
548.17	58602.33
548.34	58361.26
548.51	58473.60
548.67	58302.74
548.84	58333.17
549.01	58223.17
549.18	58323.81
549.34	58293.38
549.51	58351.90
549.68	58543.82
549.84	58628.08
550.01	58506.37
550.18	58164.65
550.34	58532.12
550.51	58702.98
550.68	58569.57
550.84	58344.87
551.01	58599.99
551.18	58522.76
551.34	58576.59
551.51	58749.79
551.68	58752.13
551.84	58585.95
552.01	58548.50
552.18	58674.89
552.34	58644.46
552.51	58915.96
552.68	58688.93
552.84	58796.60
553.01	58887.88
553.18	58993.20
553.34	59014.27
553.51	58829.37
553.67	58904.26
553.84	59255.34
554.01	59103.21
554.17	59311.52
554.34	59121.93
554.51	59084.48
554.67	59255.34
554.84	59168.74
555.00	58997.88
555.17	59238.96
555.33	59320.88
555.50	59290.45
555.67	59128.95
555.83	59302.15
556.00	59248.32
556.16	59545.57
556.33	59423.86
556.50	59302.15
556.66	59421.52
556.83	59208.53
556.99	59477.69
557.16	59835.80
557.32	59758.56
557.49	59896.65
557.65	59451.95
557.82	59510.46
557.98	59533.87
558.15	59674.30
558.32	59512.80
558.48	59402.80
558.65	59470.67
558.81	59784.30
558.98	59765.58
559.14	59718.77
559.31	59662.60
559.47	59756.22
559.64	59952.82
559.80	59934.10
559.97	59728.13
560.13	59613.44
560.30	59861.54
560.46	60037.08
560.63	59891.97
560.79	60172.83
560.96	60018.36
561.12	60018.36
561.29	60083.89
561.45	59891.97
561.61	59990.27
561.78	59978.57
561.94	59910.69
562.11	60027.72
562.27	59973.89
562.44	60041.76
562.60	60135.38
562.77	60252.41
562.93	59891.97
563.10	60055.81
563.26	59819.41
563.42	60463.06
563.59	60123.68
563.75	60088.57
563.92	60214.96
564.08	60245.39
564.24	60339.01
564.41	60111.98
564.57	60149.43
564.74	60268.79
564.90	60280.50
565.07	60282.84
565.23	60310.92
565.39	60322.63
565.56	60420.93
565.72	60224.32
565.88	60488.80
566.05	60385.82
566.21	60339.01
566.38	60278.16
566.54	60390.50
566.70	60552.00
566.87	60537.96
567.03	60453.70
567.19	60535.62
567.36	60526.25
567.52	60458.38
567.68	60523.91
567.85	60339.01
568.01	60601.15
568.17	60537.96
568.34	60629.24
568.50	60556.68
568.66	60495.83
568.83	60664.35
568.99	60533.28
569.15	60500.51
569.32	60512.21
569.48	60631.58
569.64	60699.45
569.81	60662.00
569.97	60556.68
570.13	60458.38
570.30	60554.34
570.46	60690.09
570.62	60711.16
570.78	60622.22
570.95	60554.34
571.11	60823.50
571.27	60612.85
571.43	60762.65
571.60	60903.08
571.76	60575.40
571.92	60811.80
572.09	60692.43
572.25	60542.64
572.41	60654.98
572.57	60650.30
572.74	61057.56
572.90	60697.11
573.06	60673.71
573.22	60835.20
573.38	60828.18
573.55	60839.89
573.71	61020.11
573.87	60790.73
574.03	60762.65
574.20	60804.78
574.36	60809.46
574.52	60924.14
574.68	60821.16
574.84	60910.10
575.01	60849.25
575.17	60851.59
575.33	60652.64
575.49	60683.07
575.65	60797.76
575.82	60992.02
575.98	60879.67
576.14	61190.97
576.30	60905.42
576.46	60767.33
576.62	60821.16
576.79	60788.39
576.95	60835.20
577.11	61055.21
577.27	60999.04
577.43	61165.22
577.59	60977.98
577.75	60860.95
577.92	60797.76
578.08	60882.02
578.24	60996.70
578.40	61162.88
578.56	61050.53
578.72	61013.08
578.88	61219.05
579.04	61106.71
579.21	61092.66
579.37	61155.86
579.53	61127.77
579.69	60907.76
579.85	61020.11
580.01	60989.68
580.17	60996.70
580.33	60970.96
580.49	61190.97
580.65	60982.66
580.82	61127.77
580.98	60921.80
581.14	60935.85
581.30	61120.75
581.46	60973.30
581.62	61076.28
581.78	60882.02
581.94	61258.84
582.10	60879.67
582.26	61071.60
582.42	61001.38
582.58	61237.78
582.74	60926.49
582.90	61268.20
583.06	61125.43
583.22	61020.11
583.38	61160.54
583.54	61118.41
583.70	61038.83
583.86	61216.71
584.02	60996.70
584.18	61162.88
584.34	61062.24
584.50	60985.00
584.66	61102.03
584.82	60835.20
584.98	61329.06
585.14	61043.51
585.30	61097.34
585.46	61102.03
585.62	61155.86
585.78	61179.26
585.94	61031.81
586.10	61085.64
586.26	61024.79
586.42	61097.34
586.58	61286.93
586.74	61059.90
586.90	61155.86
587.06	61137.13
587.22	61212.03
587.38	61251.82
587.54	61214.37
587.70	61305.65
587.86	61272.88
588.02	61263.52
588.18	61251.82
588.34	61284.59
588.49	61286.93
