SpectraSuite Data File
++++++++++++++++++++++++++++++++++++
Date: Fri Oct 25 11:22:54 EDT 2013
User: price-jones
Dark Spectrum Present: No
Reference Spectrum Present: No
Number of Sampled Component Spectra: 1
Spectrometers: USB2+H05261
Integration Time (usec): 100000 (USB2+H05261)
Spectra Averaged: 1 (USB2+H05261)
Boxcar Smoothing: 0 (USB2+H05261)
Correct for Electrical Dark: No (USB2+H05261)
Strobe/Lamp Enabled: No (USB2+H05261)
Correct for Detector Non-linearity: No (USB2+H05261)
Correct for Stray Light: No (USB2+H05261)
Number of Pixels in Processed Spectrum: 2048
>>>>>Begin Processed Spectral Data<<<<<
365.73	220.01
365.92	220.01
366.12	220.01
366.32	131.07
366.52	105.32
366.72	107.66
366.91	182.56
367.11	77.24
367.31	53.83
367.51	86.60
367.70	126.39
367.90	166.18
368.10	156.82
368.30	156.82
368.49	88.94
368.69	149.79
368.89	142.77
369.09	95.96
369.28	126.39
369.48	154.48
369.68	175.54
369.87	79.58
370.07	262.14
370.27	236.39
370.47	294.91
370.66	559.39
370.86	592.16
371.06	615.56
371.25	620.24
371.45	653.01
371.65	711.52
371.84	709.18
372.04	667.05
372.24	746.63
372.44	669.39
372.63	704.50
372.83	805.14
373.03	746.63
373.22	788.76
373.42	788.76
373.62	798.12
373.81	812.17
374.01	819.19
374.21	774.72
374.40	842.59
374.60	760.67
374.79	875.36
374.99	830.89
375.19	826.21
375.38	833.23
375.58	821.53
375.78	844.93
375.97	788.76
376.17	891.74
376.37	786.42
376.56	971.32
376.76	828.55
376.95	896.43
377.15	863.66
377.35	889.40
377.54	947.92
377.74	788.76
377.93	856.64
378.13	889.40
378.33	985.37
378.52	940.90
378.72	912.81
378.91	926.85
379.11	938.55
379.31	870.68
379.50	1034.52
379.70	1013.45
379.89	959.62
380.09	929.19
380.28	891.74
380.48	1029.84
380.68	938.55
380.87	1053.24
381.07	1088.35
381.26	1011.11
381.46	971.32
381.65	1118.78
381.85	1022.81
382.04	1069.62
382.24	1086.01
382.43	1100.05
382.63	950.26
382.83	1060.26
383.02	1097.71
383.22	1142.18
383.41	976.00
383.61	1188.99
383.80	1174.95
384.00	1153.88
384.19	1142.18
384.39	1039.20
384.58	1050.90
384.78	1158.57
384.97	1097.71
385.17	1191.33
385.36	1027.50
385.56	1196.01
385.75	1095.37
385.95	1177.29
386.14	1284.95
386.34	1226.44
386.53	1270.91
386.72	1306.02
386.92	1289.64
387.11	1205.38
387.31	1224.10
387.50	1214.74
387.70	1301.34
387.89	1219.42
388.09	1217.08
388.28	1409.00
388.48	1235.80
388.67	1331.76
388.86	1338.79
389.06	1329.42
389.25	1387.94
389.45	1392.62
389.64	1352.83
389.84	1352.83
390.03	1376.24
390.22	1364.53
390.42	1390.28
390.61	1315.38
390.81	1364.53
391.00	1441.77
391.19	1446.45
391.39	1488.58
391.58	1385.60
391.78	1488.58
391.97	1460.49
392.16	1460.49
392.36	1446.45
392.55	1467.52
392.75	1563.48
392.94	1448.79
393.13	1533.05
393.33	1551.78
393.52	1591.56
393.71	1572.84
393.91	1554.12
394.10	1493.26
394.29	1664.12
394.49	1542.41
394.68	1605.61
394.88	1694.55
395.07	1607.95
395.26	1633.69
395.46	1661.78
395.65	1734.34
395.84	1687.53
396.04	1764.76
396.23	1762.42
396.42	1771.79
396.62	1804.55
396.81	1851.36
397.00	1860.73
397.19	1715.61
397.39	1678.16
397.58	1895.83
397.77	1753.06
397.97	1853.70
398.16	1720.29
398.35	1827.96
398.55	1912.22
398.74	1832.64
398.93	1942.64
399.12	1987.11
399.32	1877.11
399.51	1949.67
399.70	1987.11
399.90	1975.41
400.09	2026.90
400.28	2040.95
400.47	2073.71
400.67	2139.25
400.86	2132.23
401.05	2008.18
401.24	2115.84
401.44	2113.50
401.63	2097.12
401.82	2143.93
402.01	2125.21
402.21	2169.68
402.40	2242.23
402.59	2085.42
402.78	2197.76
402.97	2188.40
403.17	2361.60
403.36	2267.98
403.55	2303.09
403.74	2380.32
403.93	2387.35
404.13	2408.41
404.32	2326.49
404.51	2338.20
404.70	2413.09
404.89	2480.97
405.09	2427.14
405.28	2459.90
405.47	2483.31
405.66	2593.31
405.85	2495.01
406.05	2623.74
406.24	2581.61
406.43	2513.74
406.62	2682.25
406.81	2637.78
407.00	2586.29
407.20	2581.61
407.39	2642.46
407.58	2754.81
407.77	2773.53
407.96	2738.43
408.15	2782.90
408.34	2679.91
408.54	2827.37
408.73	2846.09
408.92	2761.83
409.11	2857.79
409.30	2930.35
409.49	2883.54
409.68	2906.95
409.87	2810.98
410.07	3068.44
410.26	2960.78
410.45	2967.80
410.64	3045.04
410.83	3063.76
411.02	3073.12
411.21	3136.32
411.40	3105.89
411.59	3166.74
411.78	3253.34
411.98	3176.11
412.17	3276.75
412.36	3318.88
412.55	3241.64
412.74	3279.09
412.93	3454.63
413.12	3314.20
413.31	3606.77
413.50	3517.83
413.69	3428.88
413.88	3702.73
414.07	3585.70
414.26	3599.74
414.45	3662.94
414.64	3723.79
414.83	3801.03
415.02	3845.50
415.22	3894.65
415.41	3843.16
415.60	3822.09
415.79	3932.10
415.98	3971.89
416.17	4021.04
416.36	3932.10
416.55	4053.81
416.74	4046.79
416.93	4098.28
417.12	4138.07
417.31	4133.39
417.50	4252.75
417.69	4273.82
417.88	4161.47
418.07	4318.29
418.26	4355.74
418.45	4304.25
418.64	4444.68
418.83	4397.87
419.02	4451.70
419.21	4540.64
419.39	4486.81
419.58	4540.64
419.77	4533.62
419.96	4667.03
420.15	4718.52
420.34	4601.49
420.53	4667.03
420.72	4725.54
420.91	4880.02
421.10	4795.76
421.29	4692.77
421.48	4713.84
421.67	4870.65
421.86	4924.49
422.05	4809.80
422.24	4863.63
422.43	4748.95
422.61	5029.81
422.80	4975.98
422.99	4968.96
423.18	4992.36
423.37	4954.91
423.56	5001.72
423.75	4912.78
423.94	4968.96
424.13	4713.84
424.32	4753.63
424.50	5144.50
424.69	5121.09
424.88	5060.24
425.07	5109.39
425.26	5041.51
425.45	4964.28
425.64	5027.47
425.83	5027.47
426.01	5036.83
426.20	4943.21
426.39	4990.02
426.58	4912.78
426.77	5114.07
426.96	5100.03
427.15	5074.28
427.33	5132.79
427.52	5125.77
427.71	5135.14
427.90	5341.10
428.09	5240.46
428.28	5313.02
428.46	5301.31
428.65	5359.83
428.84	5556.43
429.03	5699.20
429.22	5500.26
429.40	5462.81
429.59	5582.18
429.78	5479.19
429.97	5411.32
430.16	5549.41
430.34	5699.20
430.53	5687.50
430.72	5680.48
430.91	5671.12
431.10	5369.19
431.28	5886.45
431.47	5865.38
431.66	5877.09
431.85	5757.72
432.03	5905.17
432.22	5865.38
432.41	5942.62
432.60	5867.72
432.79	5942.62
432.97	5923.90
433.16	6188.38
433.35	5849.00
433.54	6160.29
433.72	6050.28
433.91	6164.97
434.10	6232.85
434.28	6129.86
434.47	6127.52
434.66	6169.65
434.85	6396.68
435.03	6464.56
435.22	6260.93
435.41	6544.14
435.59	6441.15
435.78	6363.92
435.97	6586.27
436.16	6576.91
436.34	6326.47
436.53	6534.78
436.72	6679.89
436.90	6597.97
437.09	6553.50
437.28	6546.48
437.46	6616.69
437.65	6738.40
437.84	6951.39
438.02	7019.27
438.21	7049.69
438.40	6808.62
438.58	7016.93
438.77	7068.42
438.96	6925.65
439.14	7136.29
439.33	7382.05
439.52	7288.43
439.70	7344.60
439.89	7501.42
440.08	7412.48
440.26	7379.71
440.45	7368.01
440.63	7531.84
440.82	7672.28
441.01	7588.02
441.19	7644.19
441.38	7770.58
441.57	7854.84
441.75	7763.56
441.94	7929.74
442.12	7960.16
442.31	8006.97
442.50	8072.51
442.68	8177.83
442.87	8159.11
443.05	8196.56
443.24	8369.76
443.43	8105.28
443.61	8170.81
443.80	8489.12
443.98	7925.05
444.17	7845.48
444.35	8215.28
444.54	8332.31
444.73	8315.92
444.91	8273.79
445.10	8287.84
445.28	8428.27
445.47	8269.11
445.65	8409.54
445.84	8585.08
446.02	8461.04
446.21	8475.08
446.39	8711.47
446.58	8589.77
446.77	8613.17
446.95	8315.92
447.14	8676.37
447.32	8650.62
447.51	8573.38
447.69	8468.06
447.88	8538.27
448.06	8533.59
448.25	8554.66
448.43	8652.96
448.62	8652.96
448.80	8608.49
448.99	8828.50
449.17	8784.03
449.36	8631.90
449.54	8978.30
449.73	9158.52
449.91	9151.49
450.10	9128.09
450.28	9160.86
450.46	9095.32
450.65	8905.74
450.83	9317.67
451.02	9102.34
451.20	9050.85
451.39	9088.30
451.57	9284.91
451.76	9174.90
451.94	9446.40
452.13	9542.36
452.31	9390.23
452.49	9320.01
452.68	9486.19
452.86	9427.68
453.05	9415.98
453.23	9699.18
453.42	9383.21
453.60	9387.89
453.78	9591.52
453.97	9441.72
454.15	9675.77
454.34	9572.79
454.52	9750.67
454.70	9682.80
454.89	9741.31
455.07	9788.12
455.26	10155.58
455.44	9984.73
455.62	10017.49
455.81	9832.59
455.99	9982.38
456.17	10097.07
456.36	9956.64
456.54	10143.88
456.73	10546.45
456.91	10590.92
457.09	10441.13
457.28	10736.04
457.46	10434.11
457.64	10581.56
457.83	10616.67
458.01	10637.73
458.19	10712.63
458.38	10546.45
458.56	10729.02
458.74	10768.80
458.93	10836.68
459.11	10892.85
459.29	10717.31
459.48	11094.14
459.66	10883.49
459.84	11033.29
460.03	11515.44
460.21	11033.29
460.39	11080.10
460.57	11049.67
460.76	11309.47
460.94	11403.09
461.12	11300.11
461.31	11220.53
461.49	11253.30
461.67	11162.01
461.85	11520.12
462.04	11428.84
462.22	11934.39
462.40	11662.89
462.59	11782.26
462.77	11531.82
462.95	11599.70
463.13	11712.04
463.32	11665.23
463.50	11683.95
463.68	12016.31
463.86	11857.15
464.05	11852.47
464.23	11726.08
464.41	12091.21
464.59	11791.62
464.78	12390.80
464.96	12013.97
465.14	12095.89
465.32	12095.89
465.50	12081.85
465.69	12393.14
465.87	12245.68
466.05	11906.31
466.23	12311.22
466.41	12423.56
466.60	12858.90
466.78	12390.80
466.96	12484.42
467.14	12393.14
467.32	12437.61
467.51	12659.96
467.69	12208.23
467.87	12491.44
468.05	12690.38
468.23	12599.10
468.41	12634.21
468.60	12573.36
468.78	12629.53
468.96	12711.45
469.14	12734.85
469.32	13362.12
469.50	12589.74
469.69	13163.17
469.87	13116.36
470.05	13067.21
470.23	13008.70
470.41	13156.15
470.59	13458.08
470.77	13308.29
470.95	13238.07
471.14	13640.64
471.32	13568.09
471.50	13661.71
471.68	13792.78
471.86	13729.58
472.04	14068.96
472.22	14328.76
472.40	13706.18
472.58	14015.13
472.77	14073.64
472.95	14284.29
473.13	14754.74
473.31	14431.74
473.49	14361.53
473.67	14078.32
473.85	14377.91
474.03	14726.65
474.21	14841.34
474.39	15019.22
474.57	14944.32
474.75	15080.07
474.93	15211.14
475.12	14941.98
475.30	15307.10
475.48	15246.25
475.66	15477.96
475.84	15482.64
476.02	15599.67
476.20	15480.30
476.38	15655.84
476.56	15943.73
476.74	16196.51
476.92	16067.78
477.10	16079.48
477.28	16341.62
477.46	16442.26
477.64	16603.76
477.82	16760.58
478.00	17048.46
478.18	17165.49
478.36	17284.86
478.54	17151.45
478.72	17291.88
478.90	17411.25
479.08	17675.73
479.26	17891.06
479.44	17720.20
479.62	18307.67
479.80	18164.90
479.98	18457.46
480.16	18780.46
480.34	18249.16
480.52	18611.94
480.70	18761.73
480.88	18663.43
481.06	18843.65
481.24	19014.51
481.41	19201.76
481.59	19236.86
481.77	19658.16
481.95	19711.99
482.13	20130.95
482.31	19730.72
482.49	20411.81
482.67	20582.67
482.85	20603.74
483.03	20957.16
483.21	21062.48
483.39	21207.59
483.57	21247.38
483.74	21415.90
483.92	21862.94
484.10	21696.77
484.28	21418.24
484.46	22073.59
484.64	22553.40
484.82	22377.86
485.00	22480.85
485.18	22848.31
485.35	23419.40
485.53	22691.49
485.71	23161.94
485.89	23700.26
486.07	23295.35
486.25	23807.93
486.43	23777.50
486.61	23817.29
486.78	24011.56
486.96	24521.79
487.14	24409.45
487.32	24875.21
487.50	24886.92
487.68	24877.55
487.85	25324.60
488.03	25551.63
488.21	25752.91
488.39	26099.31
488.57	26412.95
488.75	26544.02
488.92	26560.40
489.10	27070.64
489.28	26925.52
489.46	27307.03
489.64	27398.31
489.81	27896.85
489.99	28011.53
490.17	28070.04
490.35	28184.73
490.53	28617.73
490.70	28900.94
490.88	28589.64
491.06	28980.51
491.24	29111.58
491.41	29392.45
491.59	29584.37
491.77	29429.90
491.95	30089.93
492.13	30160.14
492.30	30146.10
492.48	30368.45
492.66	30574.42
492.84	30415.26
493.01	30937.20
493.19	30756.98
493.37	31023.80
493.54	31262.54
493.72	31608.93
493.90	31735.32
494.08	32013.85
494.25	32418.76
494.43	31906.18
494.61	32285.35
494.79	32353.23
494.96	33134.96
495.14	32596.64
495.32	33453.28
495.49	33659.24
495.67	33757.55
495.85	33869.89
496.02	33897.98
496.20	33933.09
496.38	34265.44
496.55	34391.83
496.73	35007.39
496.91	34834.19
497.09	35299.96
497.26	34981.65
497.44	35208.68
497.62	35660.40
497.79	35681.47
497.97	35564.44
498.14	36561.51
498.32	36493.63
498.50	36636.41
498.67	36774.50
498.85	36479.59
499.03	36690.24
499.20	36877.48
499.38	37301.12
499.56	37394.74
499.73	37294.10
499.91	37743.48
500.08	37977.53
500.26	37577.30
500.44	38181.16
500.61	38464.36
500.79	38052.43
500.97	38621.18
501.14	39061.20
501.32	38895.02
501.49	38677.35
501.67	39049.50
501.84	39416.96
502.02	39016.73
502.20	39660.38
502.37	40105.08
502.55	39498.88
502.72	39786.77
502.90	39583.14
503.07	39779.74
503.25	40495.95
503.43	40247.85
503.60	40390.62
503.78	40535.74
503.95	40580.21
504.13	40624.68
504.30	40638.72
504.48	40847.03
504.65	41331.52
504.83	41436.84
505.01	41619.41
505.18	41478.97
505.36	41935.38
505.53	41677.92
505.71	41703.67
505.88	42108.58
506.06	41949.42
506.23	42866.91
506.41	42094.53
506.58	42438.59
506.76	42649.24
506.93	42693.71
507.11	42918.40
507.28	42564.98
507.46	42976.92
507.63	43503.54
507.81	43622.90
507.98	43271.82
508.16	43276.51
508.33	43835.89
508.50	44020.80
508.68	43943.56
508.85	44304.00
509.03	43849.94
509.20	44538.05
509.38	44381.24
509.55	44580.18
509.73	44484.22
509.90	44945.31
510.08	44954.67
510.25	44982.76
510.42	44474.86
510.60	45404.05
510.77	45284.68
510.95	45509.38
511.12	45258.94
511.30	45336.18
511.47	45853.44
511.64	45443.84
511.82	46394.10
511.99	46122.60
512.17	46382.40
512.34	45832.37
512.51	46951.15
512.69	46614.11
512.86	46330.90
513.04	46813.05
513.21	46953.49
513.38	47278.82
513.56	47182.86
513.73	47093.92
513.90	47552.66
514.08	47236.69
514.25	47442.66
514.43	47653.31
514.60	47711.82
514.77	47964.60
514.95	47845.23
515.12	47779.70
515.29	48067.58
515.47	48062.90
515.64	48648.03
515.81	47969.28
515.99	48500.58
516.16	48072.26
516.33	48594.20
516.51	49041.24
516.68	48978.05
516.85	48896.13
517.03	48989.75
517.20	49359.56
517.37	49357.22
517.54	49235.51
517.72	49158.27
517.89	49125.50
518.06	49689.57
518.24	49572.55
518.41	49703.62
518.58	49567.87
518.75	49830.01
518.93	50012.57
519.10	49883.84
519.27	50014.91
519.45	49963.42
519.62	50342.58
519.79	50225.56
519.96	50600.04
520.14	50340.24
520.31	50082.78
520.48	50417.48
520.65	50887.93
520.83	51011.98
521.00	51269.43
521.17	50939.42
521.34	51042.40
521.52	50670.26
521.69	51196.88
521.86	51100.92
522.03	51562.00
522.20	51959.89
522.38	51629.88
522.55	51882.66
522.72	51664.99
522.89	51583.07
523.07	51908.40
523.24	51711.80
523.41	52009.04
523.58	51786.69
523.75	52067.56
523.92	51910.74
524.10	52446.72
524.27	52388.21
524.44	52229.05
524.61	52402.25
524.78	52219.69
524.96	52638.65
525.13	52715.89
525.30	52736.95
525.47	52575.45
525.64	52624.60
525.81	52809.51
525.98	53123.14
526.16	52741.63
526.33	52680.78
526.50	53411.02
526.67	52928.87
526.84	53031.86
527.01	53237.83
527.18	52907.81
527.36	53226.12
527.53	53258.89
527.70	53602.95
527.87	53820.62
528.04	53127.82
528.21	53521.03
528.38	53275.27
528.55	53937.65
528.72	53291.66
528.89	53598.27
529.07	53986.80
529.24	53434.43
529.41	54092.12
529.58	53834.66
529.75	54071.06
529.92	53958.71
530.09	54417.46
530.26	54138.93
530.43	54216.17
530.60	53989.14
530.77	54082.76
530.94	54703.00
531.11	54354.26
531.28	54466.61
531.46	54564.91
531.63	54667.89
531.80	54504.06
531.97	54831.73
532.14	54700.66
532.31	54707.68
532.48	54787.26
532.65	54892.58
532.82	54461.93
532.99	54927.69
533.16	54686.62
533.33	55187.49
533.50	55250.69
533.67	55131.32
533.84	55150.04
534.01	55166.43
534.18	55086.85
534.35	55276.43
534.52	55580.70
534.69	55412.18
534.86	55634.53
535.03	55320.90
535.20	55330.26
535.37	55409.84
535.54	55618.15
535.71	55557.30
535.88	55594.74
536.05	55643.90
536.22	55669.64
536.38	55749.22
536.55	55564.32
536.72	55786.67
536.89	55629.85
537.06	55891.99
537.23	55936.46
537.40	55948.17
537.57	56149.45
537.74	55908.38
537.91	56130.73
538.08	56121.37
538.25	56119.02
538.42	55812.41
538.59	56273.50
538.75	56287.54
538.92	56081.58
539.09	56704.16
539.26	56378.82
539.43	56055.83
539.60	56547.34
539.77	56545.00
539.94	56694.80
540.11	56409.25
540.28	56729.90
540.44	56704.16
540.61	56582.45
540.78	56507.55
540.95	56870.34
541.12	56626.92
541.29	56905.44
541.46	56802.46
541.62	56772.03
541.79	57027.15
541.96	56615.22
542.13	56725.22
542.30	56832.89
542.47	57111.41
542.63	57013.11
542.80	57165.24
542.97	57371.21
543.14	57345.47
543.31	57385.25
543.48	57450.79
543.64	57539.73
543.81	57394.62
543.98	57703.57
544.15	57509.30
544.32	57654.42
544.48	57911.88
544.65	57600.58
544.82	57682.50
544.99	57457.81
545.16	57542.07
545.32	57645.05
545.49	57939.96
545.66	57851.02
545.83	57965.71
546.00	57916.56
546.16	57799.53
546.33	57616.97
546.50	57844.00
546.67	57722.29
546.83	57691.86
547.00	57961.03
547.17	57928.26
547.34	57923.58
547.50	58071.03
547.67	58438.50
547.84	58099.12
548.00	58248.91
548.17	58475.94
548.34	58328.49
548.51	58412.75
548.67	58431.47
548.84	58475.94
549.01	58314.45
549.18	58438.50
549.34	58527.44
549.51	58473.60
549.68	58511.05
549.84	58679.57
550.01	58667.87
550.18	58440.84
550.34	58731.06
550.51	58710.00
550.68	58728.72
550.84	58546.16
551.01	58672.55
551.18	58770.85
551.34	58761.49
551.51	58885.54
551.68	58761.49
551.84	58894.90
552.01	58796.60
552.18	59030.65
552.34	58812.98
552.51	58941.71
552.68	58808.30
552.84	58932.35
553.01	58965.12
553.18	59042.35
553.34	59037.67
553.51	59051.72
553.67	58962.78
553.84	58951.07
554.01	58927.67
554.17	59004.91
554.34	59238.96
554.51	59126.61
554.67	59255.34
554.84	59257.68
555.00	59299.81
555.17	59103.21
555.33	59222.58
555.50	59278.75
555.67	58976.82
555.83	59152.36
556.00	59098.53
556.16	59444.93
556.33	59583.02
556.50	59377.05
556.66	59428.54
556.83	59388.75
556.99	59597.06
557.16	59723.45
557.32	59767.92
557.49	59786.64
557.65	59573.66
557.82	59458.97
557.98	59739.83
558.15	59561.95
558.32	59683.66
558.48	59632.17
558.65	59543.23
558.81	59592.38
558.98	59819.41
559.14	59906.01
559.31	59817.07
559.47	59824.09
559.64	59901.33
559.80	59884.95
559.97	59976.23
560.13	59735.15
560.30	60009.00
560.46	59833.46
560.63	60034.74
560.79	60051.12
560.96	60088.57
561.12	60006.65
561.29	59990.27
561.45	60037.08
561.61	60030.06
561.78	60060.49
561.94	59950.48
562.11	60191.56
562.27	60093.25
562.44	60322.63
562.60	60226.66
562.77	59936.44
562.93	59985.59
563.10	60275.82
563.26	60168.15
563.42	60355.39
563.59	60041.76
563.75	60109.64
563.92	60308.58
564.08	60076.87
564.24	60343.69
564.41	60247.73
564.57	60280.50
564.74	60317.95
564.90	60226.66
565.07	60437.31
565.23	60334.33
565.39	60413.91
565.56	60367.10
565.72	60353.05
565.88	60411.57
566.05	60331.99
566.21	60420.93
566.38	60650.30
566.54	60350.71
566.70	60559.02
566.87	60596.47
567.03	60488.80
567.19	60676.05
567.36	60390.50
567.52	60535.62
567.68	60788.39
567.85	60528.59
568.01	60547.32
568.17	60437.31
568.34	60582.43
568.50	60467.74
568.66	60584.77
568.83	60636.26
568.99	60479.44
569.15	60666.69
569.32	60535.62
569.48	60561.36
569.64	60879.67
569.81	60697.11
569.97	60598.81
570.13	60636.26
570.30	60629.24
570.46	60589.45
570.62	60631.58
570.78	60690.09
570.95	60783.71
571.11	60928.83
571.27	60804.78
571.43	60879.67
571.60	60924.14
571.76	60591.79
571.92	60945.21
572.09	60940.53
572.25	60867.97
572.41	60741.58
572.57	60821.16
572.74	61029.47
572.90	60933.51
573.06	60807.12
573.22	60699.45
573.38	60802.44
573.55	60769.67
573.71	60877.33
573.87	61062.24
574.03	60580.09
574.20	61043.51
574.36	60760.31
574.52	60715.84
574.68	60823.50
574.84	60959.25
575.01	61029.47
575.17	60837.54
575.33	60905.42
575.49	60917.12
575.65	61010.74
575.82	61029.47
575.98	60900.74
576.14	61064.58
576.30	60917.12
576.46	61066.92
576.62	60994.36
576.79	61073.94
576.95	60596.47
577.11	61235.44
577.27	61024.79
577.43	61268.20
577.59	60802.44
577.75	60886.70
577.92	60790.73
578.08	61027.13
578.24	61038.83
578.40	61190.97
578.56	61045.85
578.72	60985.00
578.88	61041.17
579.04	61113.73
579.21	60980.32
579.37	61303.31
579.53	61020.11
579.69	60982.66
579.85	60973.30
580.01	60985.00
580.17	60900.74
580.33	61013.08
580.49	61300.97
580.65	61202.67
580.82	61013.08
580.98	60662.00
581.14	60980.32
581.30	61333.74
581.46	61076.28
581.62	61263.52
581.78	61104.37
581.94	61038.83
582.10	61055.21
582.26	61389.91
582.42	61001.38
582.58	61202.67
582.74	60996.70
582.90	61195.65
583.06	61197.99
583.22	61188.63
583.38	61282.25
583.54	61329.06
583.70	61230.75
583.86	61102.03
584.02	61013.08
584.18	61216.71
584.34	61242.46
584.50	61230.75
584.66	61064.58
584.82	60867.97
584.98	61317.35
585.14	61148.84
585.30	61076.28
585.46	61132.45
585.62	61305.65
585.78	61268.20
585.94	61221.39
586.10	61233.10
586.26	61202.67
586.42	61233.10
586.58	61080.96
586.74	61244.80
586.90	61268.20
587.06	61080.96
587.22	61366.51
587.38	61305.65
587.54	61425.02
587.70	61450.77
587.86	61205.01
588.02	61429.70
588.18	61434.38
588.34	61282.25
588.49	61282.25
