SpectraSuite Data File
++++++++++++++++++++++++++++++++++++
Date: Fri Oct 25 11:33:27 EDT 2013
User: price-jones
Dark Spectrum Present: No
Reference Spectrum Present: No
Number of Sampled Component Spectra: 1
Spectrometers: USB2+H05261
Integration Time (usec): 100000 (USB2+H05261)
Spectra Averaged: 1 (USB2+H05261)
Boxcar Smoothing: 0 (USB2+H05261)
Correct for Electrical Dark: No (USB2+H05261)
Strobe/Lamp Enabled: No (USB2+H05261)
Correct for Detector Non-linearity: No (USB2+H05261)
Correct for Stray Light: No (USB2+H05261)
Number of Pixels in Processed Spectrum: 2048
>>>>>Begin Processed Spectral Data<<<<<
365.73	308.95
365.92	308.95
366.12	308.95
366.32	173.20
366.52	266.82
366.72	196.60
366.91	124.05
367.11	208.31
367.31	180.22
367.51	128.73
367.70	194.26
367.90	154.48
368.10	170.86
368.30	208.31
368.49	220.01
368.69	220.01
368.89	189.58
369.09	224.69
369.28	229.37
369.48	135.75
369.68	201.29
369.87	201.29
370.07	215.33
370.27	222.35
370.47	341.72
370.66	458.74
370.86	528.96
371.06	587.47
371.25	587.47
371.45	496.19
371.65	573.43
371.84	540.66
372.04	575.77
372.24	587.47
372.44	547.69
372.63	592.16
372.83	589.82
373.03	589.82
373.22	526.62
373.42	594.50
373.62	596.84
373.81	631.94
374.01	716.20
374.21	641.31
374.40	627.26
374.60	748.97
374.79	711.52
374.99	622.58
375.19	638.97
375.38	716.20
375.58	678.76
375.78	662.37
375.97	692.80
376.17	779.40
376.37	688.12
376.56	685.78
376.76	683.44
376.95	627.26
377.15	734.93
377.35	716.20
377.54	660.03
377.74	622.58
377.93	706.84
378.13	664.71
378.33	732.59
378.52	737.27
378.72	770.04
378.91	713.86
379.11	758.33
379.31	634.29
379.50	667.05
379.70	699.82
379.89	697.48
380.09	723.23
380.28	725.57
380.48	716.20
380.68	688.12
380.87	711.52
381.07	770.04
381.26	798.12
381.46	814.51
381.65	730.25
381.85	683.44
382.04	697.48
382.24	763.01
382.43	837.91
382.63	748.97
382.83	741.95
383.02	753.65
383.22	844.93
383.41	889.40
383.61	805.14
383.80	835.57
384.00	842.59
384.19	823.87
384.39	823.87
384.58	779.40
384.78	835.57
384.97	809.83
385.17	851.96
385.36	858.98
385.56	830.89
385.75	828.55
385.95	819.19
386.14	950.26
386.34	938.55
386.53	849.61
386.72	882.38
386.92	910.47
387.11	884.72
387.31	819.19
387.50	863.66
387.70	814.51
387.89	938.55
388.09	919.83
388.28	903.45
388.48	1001.75
388.67	947.92
388.86	903.45
389.06	938.55
389.25	882.38
389.45	915.15
389.64	987.71
389.84	896.43
390.03	968.98
390.22	1018.13
390.42	994.73
390.61	952.60
390.81	950.26
391.00	1062.60
391.19	959.62
391.39	999.41
391.58	1015.79
391.78	971.32
391.97	1018.13
392.16	1008.77
392.36	1090.69
392.55	1034.52
392.75	1013.45
392.94	1027.50
393.13	1048.56
393.33	1020.47
393.52	1004.09
393.71	1158.57
393.91	1095.37
394.10	1025.15
394.29	1123.46
394.49	1067.28
394.68	1128.14
394.88	1088.35
395.07	1123.46
395.26	1090.69
395.46	1114.10
395.65	1193.67
395.84	1177.29
396.04	1256.87
396.23	1100.05
396.42	1153.88
396.62	1137.50
396.81	1158.57
397.00	1266.23
397.19	1247.51
397.39	1212.40
397.58	1235.80
397.77	1217.08
397.97	1247.51
398.16	1266.23
398.35	1233.46
398.55	1226.44
398.74	1392.62
398.93	1226.44
399.12	1303.68
399.32	1324.74
399.51	1359.85
399.70	1334.11
399.90	1338.79
400.09	1362.19
400.28	1427.73
400.47	1310.70
400.67	1394.96
400.86	1376.24
401.05	1448.79
401.24	1401.98
401.44	1444.11
401.63	1413.68
401.82	1453.47
402.01	1544.75
402.21	1462.83
402.40	1401.98
402.59	1495.60
402.78	1481.56
402.97	1589.22
403.17	1519.01
403.36	1521.35
403.55	1582.20
403.74	1497.94
403.93	1563.48
404.13	1682.85
404.32	1600.93
404.51	1636.03
404.70	1558.80
404.89	1621.99
405.09	1701.57
405.28	1680.50
405.47	1713.27
405.66	1720.29
405.85	1689.87
406.05	1732.00
406.24	1781.15
406.43	1729.66
406.62	1788.17
406.81	1753.06
407.00	1729.66
407.20	1781.15
407.39	1881.79
407.58	1792.85
407.77	1879.45
407.96	1891.15
408.15	1865.41
408.34	1895.83
408.54	1898.17
408.73	1916.90
408.92	1968.39
409.11	1942.64
409.30	2024.56
409.49	1947.33
409.68	2101.80
409.87	1984.77
410.07	2064.35
410.26	2010.52
410.45	2094.78
410.64	2080.74
410.83	2083.08
411.02	2125.21
411.21	2172.02
411.40	2183.72
411.59	2204.78
411.78	2197.76
411.98	2244.57
412.17	2258.62
412.36	2113.50
412.55	2324.15
412.74	2377.98
412.93	2345.22
413.12	2326.49
413.31	2399.05
413.50	2495.01
413.69	2377.98
413.88	2544.16
414.07	2417.77
414.26	2506.71
414.45	2431.82
414.64	2509.05
414.83	2590.97
415.02	2621.40
415.22	2729.06
415.41	2541.82
415.60	2619.06
415.79	2820.35
415.98	2612.04
416.17	2738.43
416.36	2635.44
416.55	2738.43
416.74	2862.48
416.93	2726.72
417.12	2822.69
417.31	2951.42
417.50	2951.42
417.69	3005.25
417.88	2960.78
418.07	2958.44
418.26	3021.63
418.45	2974.82
418.64	3089.51
418.83	3082.49
419.02	3124.62
419.21	3040.36
419.39	3101.21
419.58	3098.87
419.77	3119.93
419.96	3197.17
420.15	3183.13
420.34	3082.49
420.53	3101.21
420.72	3274.41
420.91	3084.83
421.10	3204.19
421.29	3309.52
421.48	3201.85
421.67	3307.18
421.86	3218.24
422.05	3318.88
422.24	3407.82
422.43	3281.43
422.61	3463.99
422.80	3496.76
422.99	3480.38
423.18	3440.59
423.37	3485.06
423.56	3325.90
423.75	3496.76
423.94	3297.81
424.13	3220.58
424.32	3318.88
424.50	3440.59
424.69	3609.11
424.88	3522.51
425.07	3513.14
425.26	3543.57
425.45	3449.95
425.64	3426.54
425.83	3454.63
426.01	3449.95
426.20	3496.76
426.39	3543.57
426.58	3485.06
426.77	3588.04
426.96	3543.57
427.15	3581.02
427.33	3613.79
427.52	3433.57
427.71	3775.28
427.90	3681.66
428.09	3705.07
428.28	3684.00
428.46	3744.86
428.65	3686.34
428.84	3791.67
429.03	3789.33
429.22	3719.11
429.40	3906.35
429.59	3721.45
429.78	3712.09
429.97	3721.45
430.16	3716.77
430.34	3889.97
430.53	3812.73
430.72	3995.29
430.91	4046.79
431.10	3852.52
431.28	3873.59
431.47	3899.33
431.66	3971.89
431.85	3880.61
432.03	4086.58
432.22	4119.34
432.41	4152.11
432.60	3976.57
432.79	4070.19
432.97	3985.93
433.16	4093.60
433.35	4084.23
433.54	4100.62
433.72	4156.79
433.91	4189.56
434.10	4161.47
434.28	4170.83
434.47	4205.94
434.66	4311.27
434.85	4388.50
435.03	4395.53
435.22	4503.19
435.41	4524.26
435.59	4423.61
435.78	4451.70
435.97	4603.83
436.16	4351.06
436.34	4376.80
436.53	4432.97
436.72	4505.53
436.90	4533.62
437.09	4498.51
437.28	4472.76
437.46	4187.22
437.65	4657.67
437.84	4526.60
438.02	4603.83
438.21	4690.43
438.40	4561.70
438.58	4645.96
438.77	4873.00
438.96	4835.55
439.14	4854.27
439.33	5004.07
439.52	4896.40
439.70	5093.01
439.89	4898.74
440.08	5022.79
440.26	5025.13
440.45	5046.20
440.63	5163.22
440.82	5324.72
441.01	5158.54
441.19	5139.82
441.38	5277.91
441.57	5254.50
441.75	5490.90
441.94	5401.96
442.12	5523.66
442.31	5518.98
442.50	5526.00
442.68	5423.02
442.87	5481.53
443.05	5507.28
443.24	5710.91
443.43	5628.99
443.61	5446.43
443.80	5769.42
443.98	5640.69
444.17	5392.59
444.35	5542.39
444.54	5870.06
444.73	5610.26
444.91	5661.76
445.10	5680.48
445.28	5603.24
445.47	5720.27
445.65	5518.98
445.84	5617.29
446.02	5727.29
446.21	5729.63
446.39	5858.36
446.58	5806.87
446.77	5729.63
446.95	5710.91
447.14	5724.95
447.32	5696.86
447.51	5621.97
447.69	5776.44
447.88	5867.72
448.06	5809.21
448.25	5785.80
448.43	5987.09
448.62	5895.81
448.80	5951.98
448.99	5788.14
449.17	5872.40
449.36	5839.64
449.54	5935.60
449.73	5996.45
449.91	6139.23
450.10	6022.20
450.28	6157.95
450.46	6174.33
450.65	6200.08
450.83	6186.04
451.02	6157.95
451.20	6310.08
451.39	6108.80
451.57	6148.59
451.76	6167.31
451.94	6209.44
452.13	6291.36
452.31	6494.99
452.49	6204.76
452.68	6188.38
452.86	6249.23
453.05	6387.32
453.23	6417.75
453.42	6267.95
453.60	6410.73
453.78	6518.39
453.97	6497.33
454.15	6471.58
454.34	6640.10
454.52	6609.67
454.70	6553.50
454.89	6623.72
455.07	6544.14
455.26	6677.55
455.44	6822.66
455.62	6682.23
455.81	6663.51
455.99	6651.80
456.17	7075.44
456.36	6841.39
456.54	6871.81
456.73	6892.88
456.91	7035.65
457.09	7014.59
457.28	6963.09
457.46	6939.69
457.64	7089.48
457.83	7180.76
458.01	7028.63
458.19	7138.63
458.38	7166.72
458.56	7220.55
458.74	7288.43
458.93	7098.84
459.11	7323.54
459.29	7250.98
459.48	7187.79
459.66	7187.79
459.84	7370.35
460.03	7538.87
460.21	7417.16
460.39	7494.40
460.57	7349.28
460.76	7475.67
460.94	7480.35
461.12	7363.33
461.31	7515.46
461.49	7330.56
461.67	7346.94
461.85	7770.58
462.04	7721.43
462.22	8051.44
462.40	7817.39
462.59	7859.52
462.77	7749.51
462.95	7985.91
463.13	7854.84
463.32	7793.98
463.50	7932.08
463.68	8077.19
463.86	7861.86
464.05	7740.15
464.23	7896.97
464.41	8025.70
464.59	7871.22
464.78	8058.46
464.96	8042.08
465.14	8002.29
465.32	7981.23
465.50	8067.83
465.69	8283.16
465.87	8161.45
466.05	8138.04
466.23	8180.17
466.41	8142.72
466.60	8299.54
466.78	8212.94
466.96	8189.53
467.14	8163.79
467.32	8219.96
467.51	8400.18
467.69	8229.32
467.87	8297.20
468.05	8482.10
468.23	8362.73
468.41	8205.92
468.60	8329.97
468.78	8594.45
468.96	8365.07
469.14	8510.19
469.32	8662.32
469.50	8404.86
469.69	8697.43
469.87	8667.00
470.05	8898.72
470.23	8739.56
470.41	8669.34
470.59	9088.30
470.77	8849.57
470.95	8973.61
471.14	9118.73
471.32	8901.06
471.50	9109.36
471.68	9139.79
471.86	9069.58
472.04	9144.47
472.22	9249.80
472.40	9088.30
472.58	9263.84
472.77	9355.12
472.95	9425.34
473.13	9834.93
473.31	9418.32
473.49	9329.38
473.67	9469.81
473.85	9675.77
474.03	9905.15
474.21	9788.12
474.39	9947.28
474.57	9860.68
474.75	9846.63
474.93	10249.21
475.12	10186.01
475.30	10024.51
475.48	10132.18
475.66	10270.27
475.84	10347.51
476.02	10637.73
476.20	10272.61
476.38	10345.17
476.56	10473.90
476.74	10490.28
476.92	10490.28
477.10	10246.87
477.28	10930.30
477.46	10803.91
477.64	10949.03
477.82	11094.14
478.00	11304.79
478.18	11255.64
478.36	11311.81
478.54	11482.67
478.72	11318.83
478.90	11520.12
479.08	11730.76
479.26	11630.12
479.44	11857.15
479.62	12013.97
479.80	12086.53
479.98	12030.35
480.16	12245.68
480.34	12159.08
480.52	12397.82
480.70	12465.69
480.88	12224.62
481.06	12578.04
481.24	12507.82
481.41	12535.91
481.59	12961.89
481.77	12917.42
481.95	12901.03
482.13	13027.42
482.31	13214.66
482.49	13427.65
482.67	13444.04
482.85	13612.56
483.03	13621.92
483.21	13727.24
483.39	13923.85
483.57	13736.60
483.74	14150.88
483.92	14061.94
484.10	13783.41
484.28	14338.12
484.46	14567.49
484.64	14857.72
484.82	14726.65
485.00	14874.10
485.18	15190.08
485.35	15194.76
485.53	15054.33
485.71	15257.95
485.89	15660.52
486.07	15463.92
486.25	15683.93
486.43	15613.71
486.61	15812.66
486.78	15779.89
486.96	15955.43
487.14	16552.27
487.32	16500.78
487.50	16613.12
487.68	16561.63
487.85	16638.87
488.03	16772.28
488.21	17249.75
488.39	16936.12
488.57	17324.65
488.75	17156.13
488.92	17497.84
489.10	17689.77
489.28	17570.40
489.46	17879.35
489.64	17713.17
489.81	18146.17
489.99	18375.55
490.17	18651.73
490.35	18642.37
490.53	18689.18
490.70	18946.64
490.88	18934.93
491.06	18759.39
491.24	18984.09
491.41	19180.69
491.59	19377.30
491.77	19414.74
491.95	19534.11
492.13	19840.72
492.30	19714.33
492.48	19929.66
492.66	20093.50
492.84	20063.07
493.01	20273.72
493.19	20203.50
493.37	20442.24
493.54	20435.22
493.72	20900.98
493.90	20800.34
494.08	20910.35
494.25	20786.30
494.43	20980.56
494.61	21329.30
494.79	21455.69
494.96	21355.05
495.14	21792.73
495.32	21886.35
495.49	21823.16
495.67	21923.80
495.85	22073.59
496.02	22331.05
496.20	22317.01
496.38	22530.00
496.55	22490.21
496.73	22771.07
496.91	22761.71
497.09	22965.34
497.26	22817.88
497.44	23012.15
497.62	23068.32
497.79	23632.39
497.97	23548.13
498.14	23967.09
498.32	23920.28
498.50	23828.99
498.67	23782.18
498.85	23913.25
499.03	24063.05
499.20	24226.89
499.38	24315.83
499.56	24301.78
499.73	24472.64
499.91	24929.05
500.08	25088.20
500.26	24533.50
500.44	24779.25
500.61	24966.49
500.79	25111.61
500.97	25394.81
501.14	25493.12
501.32	25553.97
501.49	25394.81
501.67	25607.80
501.84	25666.31
502.02	25876.96
502.20	25874.62
502.37	25914.41
502.55	25685.04
502.72	26015.05
502.90	26565.08
503.07	26059.52
503.25	26434.01
503.43	26223.36
503.60	26300.60
503.78	26485.50
503.95	26293.58
504.13	26623.59
504.30	26834.24
504.48	26911.48
504.65	27054.25
504.83	26995.74
505.01	27365.54
505.18	27140.85
505.36	27571.51
505.53	27590.24
505.71	27531.72
505.88	27407.67
506.06	27407.67
506.23	27843.01
506.41	27625.34
506.58	27938.97
506.76	27936.63
506.93	28467.94
507.11	28379.00
507.28	28304.10
507.46	28304.10
507.63	28343.89
507.81	28758.16
507.98	28247.93
508.16	28907.96
508.33	29027.32
508.50	28912.64
508.68	29385.43
508.85	29326.91
509.03	28994.56
509.20	29043.71
509.38	29626.50
509.55	29390.11
509.73	29617.14
509.90	29846.51
510.08	29413.51
510.25	29589.05
510.42	29823.11
510.60	29970.56
510.77	30218.66
510.95	30375.47
511.12	29778.64
511.30	29879.28
511.47	30455.05
511.64	29949.50
511.82	30658.68
511.99	30459.73
512.17	30806.13
512.34	30621.23
512.51	30803.79
512.69	31068.27
512.86	31075.29
513.04	31257.85
513.21	31007.42
513.38	31316.37
513.56	31831.29
513.73	31236.79
513.90	31349.14
514.08	31077.63
514.25	31711.92
514.43	31459.14
514.60	31295.30
514.77	31587.87
514.95	32332.16
515.12	31562.12
515.29	32304.07
515.47	32198.75
515.64	32556.85
515.81	32458.55
515.99	32407.06
516.16	32545.15
516.33	32486.64
516.51	32861.12
516.68	32327.48
516.85	32666.86
517.03	32879.85
517.20	33027.30
517.37	33048.36
517.54	33516.47
517.72	33102.20
517.89	33102.20
518.06	32929.00
518.24	33193.48
518.41	33525.83
518.58	33472.00
518.75	33151.35
518.93	33649.88
519.10	33584.35
519.27	33869.89
519.45	33495.41
519.62	33715.42
519.79	33741.16
519.96	33795.00
520.14	33795.00
520.31	34052.45
520.48	34300.55
520.65	34335.66
520.83	34698.44
521.00	34536.94
521.17	34808.45
521.34	34822.49
521.52	35037.82
521.69	34806.11
521.86	35007.39
522.03	34927.81
522.20	35122.08
522.38	35311.66
522.55	35358.47
522.72	35119.74
522.89	35236.77
523.07	35517.63
523.24	35608.91
523.41	35613.59
523.58	35321.02
523.75	35716.58
523.92	35482.52
524.10	35861.69
524.27	35969.35
524.44	35653.38
524.61	35899.14
524.78	36203.41
524.96	36114.47
525.13	36222.13
525.30	36041.91
525.47	36484.27
525.64	36411.71
525.81	36669.17
525.98	36622.36
526.16	36652.79
526.33	36769.82
526.50	36875.14
526.67	36538.10
526.84	36727.69
527.01	36692.58
527.18	36980.46
527.36	36980.46
527.53	36954.72
527.70	37411.12
527.87	37804.33
528.04	37436.87
528.21	37490.70
528.38	37041.32
528.55	37481.34
528.72	37202.82
528.89	37413.46
529.07	37153.66
529.24	36989.83
529.41	37991.58
529.58	37804.33
529.75	37621.77
529.92	37752.84
530.09	37741.14
530.26	37965.83
530.43	38185.84
530.60	37577.30
530.77	37750.50
530.94	37858.17
531.11	37696.67
531.28	38033.71
531.46	38375.42
531.63	38288.82
531.80	38574.37
531.97	38127.33
532.14	38408.19
532.31	38590.75
532.48	38466.70
532.65	39250.78
532.82	38721.82
532.99	38658.63
533.16	38604.80
533.33	38768.63
533.50	39311.64
533.67	38719.48
533.84	38593.09
534.01	39236.74
534.18	39292.91
534.35	39281.21
534.52	39763.36
534.69	39541.01
534.86	39786.77
535.03	39594.84
535.20	39445.05
535.37	39552.71
535.54	39828.90
535.71	39770.38
535.88	39882.73
536.05	39683.78
536.22	39875.71
536.38	39910.82
536.55	39922.52
536.72	39922.52
536.89	39744.64
537.06	39716.55
537.23	40039.54
537.40	39618.25
537.57	40126.14
537.74	39974.01
537.91	40615.32
538.08	40470.20
538.25	39910.82
538.42	40411.69
538.59	40631.70
538.75	40280.62
538.92	40563.82
539.09	40765.11
539.26	41008.53
539.43	40594.25
539.60	40788.52
539.77	41120.87
539.94	41338.54
540.11	41102.15
540.28	40926.61
540.44	41446.21
540.61	40659.79
540.78	40545.10
540.95	41113.85
541.12	40734.68
541.29	40828.30
541.46	41240.24
541.62	40950.01
541.79	41574.94
541.96	41291.73
542.13	41177.04
542.30	41265.99
542.47	41680.26
542.63	41504.72
542.80	42153.05
542.97	42190.50
543.14	42122.62
543.31	41729.41
543.48	41752.82
543.64	42225.60
543.81	42241.99
543.98	41984.53
544.15	42305.18
544.32	42234.97
544.48	42733.50
544.65	42621.16
544.82	42513.49
544.99	42375.40
545.16	42649.24
545.32	42291.14
545.49	43295.23
545.66	42925.42
545.83	42979.26
546.00	43007.34
546.16	42719.46
546.33	43007.34
546.50	42511.15
546.67	42913.72
546.83	42667.97
547.00	43014.37
547.17	43100.97
547.34	42927.77
547.50	43529.28
547.67	43363.11
547.84	43246.08
548.00	43274.16
548.17	43863.98
548.34	43489.49
548.51	43487.15
548.67	43688.44
548.84	43540.99
549.01	43723.55
549.18	43463.75
549.34	43519.92
549.51	43938.88
549.68	44053.56
549.84	43187.56
550.01	43854.62
550.18	43632.27
550.34	43983.35
550.51	44128.46
550.68	44076.97
550.84	43578.43
551.01	43838.23
551.18	43988.03
551.34	43756.32
551.51	44126.12
551.68	44133.14
551.84	43627.59
552.01	44072.29
552.18	43973.98
552.34	43763.34
552.51	44339.11
552.68	44210.38
552.84	44278.25
553.01	44088.67
553.18	44378.90
553.34	44568.48
553.51	44580.18
553.67	44486.56
553.84	44676.15
554.01	44910.20
554.17	44863.39
554.34	44886.79
554.51	44638.70
554.67	45193.40
554.84	45013.18
555.00	44521.67
555.17	44271.23
555.33	44779.13
555.50	44699.55
555.67	45001.48
555.83	45043.61
556.00	45254.26
556.16	45167.66
556.33	45439.16
556.50	45132.55
556.66	45099.78
556.83	44961.69
556.99	45237.87
557.16	45492.99
557.32	45380.65
557.49	45352.56
557.65	44903.18
557.82	45546.82
557.98	45563.21
558.15	45200.43
558.32	45193.40
558.48	45193.40
558.65	45347.88
558.81	45413.41
558.98	45282.34
559.14	45282.34
559.31	45937.69
559.47	45385.33
559.64	45787.90
559.80	45544.48
559.97	45446.18
560.13	45549.17
560.30	45755.13
560.46	45649.81
560.63	45776.20
560.79	46021.95
560.96	46071.10
561.12	46199.83
561.29	45947.06
561.45	46059.40
561.61	45890.88
561.78	45792.58
561.94	46052.38
562.11	45198.09
562.27	46117.92
562.44	45970.46
562.60	45713.00
562.77	46218.56
562.93	45872.16
563.10	46263.03
563.26	46403.46
563.42	46138.98
563.59	46003.23
563.75	46138.98
563.92	46033.66
564.08	46209.20
564.24	46319.20
564.41	46328.56
564.57	46330.90
564.74	46064.08
564.90	46075.79
565.07	46248.99
565.23	46066.42
565.39	46419.84
565.56	46670.28
565.72	46047.70
565.88	46349.63
566.05	46511.13
566.21	46490.06
566.38	46454.95
566.54	46852.84
566.70	46948.81
566.87	46684.33
567.03	46073.45
567.19	46436.23
567.36	46738.16
567.52	46625.81
567.68	46986.25
567.85	46728.80
568.01	47051.79
568.17	46501.76
568.34	46740.50
568.50	46913.70
568.66	46541.55
568.83	46476.02
568.99	46368.35
569.15	46560.28
569.32	46571.98
569.48	46791.99
569.64	47271.80
569.81	46763.90
569.97	47423.93
570.13	47054.13
570.30	46710.07
570.46	47166.48
570.62	47042.43
570.78	46951.15
570.95	47103.28
571.11	47250.74
571.27	46649.22
571.43	46820.08
571.60	47185.20
571.76	46738.16
571.92	46740.50
572.09	47143.07
572.25	47203.92
572.41	46497.08
572.57	47283.50
572.74	47461.38
572.90	47145.41
573.06	47185.20
573.22	47047.11
573.38	47145.41
573.55	46944.12
573.71	47700.12
573.87	47250.74
574.03	47047.11
574.20	47620.54
574.36	47393.51
574.52	47419.25
574.68	47597.13
574.84	47402.87
575.01	47543.30
575.17	47494.15
575.33	47243.71
575.49	46780.29
575.65	47749.27
575.82	47281.16
575.98	47339.68
576.14	47168.82
576.30	47515.22
576.46	47302.23
576.62	47360.74
576.79	47089.24
576.95	47173.50
577.11	47302.23
577.27	47402.87
577.43	47079.88
577.59	47412.23
577.75	47044.77
577.92	46815.40
578.08	47452.02
578.24	47363.08
578.40	47576.07
578.56	47435.64
578.72	47358.40
578.88	47505.85
579.04	47194.56
579.21	47557.35
579.37	47278.82
579.53	47189.88
579.69	46937.10
579.85	47611.18
580.01	47295.21
580.17	47622.88
580.33	47517.56
580.49	47349.04
580.65	47103.28
580.82	47400.53
580.98	47356.06
581.14	46887.95
581.30	47555.00
581.46	47168.82
581.62	47295.21
581.78	47215.63
581.94	47789.06
582.10	47622.88
582.26	47533.94
582.42	47606.50
582.58	47508.19
582.74	47641.60
582.90	47175.84
583.06	47777.36
583.22	47716.50
583.38	47547.98
583.54	47627.56
583.70	47487.13
583.86	47779.70
584.02	47416.91
584.18	47992.68
584.34	47697.78
584.50	47606.50
584.66	47405.21
584.82	47779.70
584.98	47899.06
585.14	47845.23
585.30	47496.49
585.46	47793.74
585.62	47264.78
585.78	47688.42
585.94	47437.98
586.10	47812.46
586.26	47606.50
586.42	47487.13
586.58	47676.71
586.74	47657.99
586.90	47508.19
587.06	47966.94
587.22	48165.88
587.38	47461.38
587.54	47583.09
587.70	47847.57
587.86	47800.76
588.02	47405.21
588.18	47718.84
588.34	47756.29
588.49	47873.32
588.65	47597.13
588.81	47976.30
588.97	48044.18
589.13	47693.10
589.29	47870.98
589.45	48051.20
589.61	47887.36
589.77	47901.40
589.93	47955.24
