SpectraSuite Data File
++++++++++++++++++++++++++++++++++++
Date: Fri Oct 25 10:43:40 EDT 2013
User: price-jones
Dark Spectrum Present: No
Reference Spectrum Present: No
Number of Sampled Component Spectra: 1
Spectrometers: USB2+H05261
Integration Time (usec): 100000 (USB2+H05261)
Spectra Averaged: 1 (USB2+H05261)
Boxcar Smoothing: 0 (USB2+H05261)
Correct for Electrical Dark: No (USB2+H05261)
Strobe/Lamp Enabled: No (USB2+H05261)
Correct for Detector Non-linearity: No (USB2+H05261)
Correct for Stray Light: No (USB2+H05261)
Number of Pixels in Processed Spectrum: 2048
>>>>>Begin Processed Spectral Data<<<<<
365.73	131.07
365.92	131.07
366.12	131.07
366.32	39.79
366.52	9.36
366.72	37.45
366.91	72.56
367.11	9.36
367.31	9.36
367.51	0.00
367.70	18.72
367.90	18.72
368.10	0.00
368.30	21.06
368.49	86.60
368.69	70.22
368.89	72.56
369.09	0.00
369.28	56.17
369.48	14.04
369.68	63.19
369.87	112.35
370.07	0.00
370.27	131.07
370.47	180.22
370.66	407.25
370.86	409.59
371.06	489.17
371.25	538.32
371.45	444.70
371.65	418.96
371.84	444.70
372.04	470.45
372.24	507.90
372.44	521.94
372.63	407.25
372.83	468.11
373.03	512.58
373.22	538.32
373.42	519.60
373.62	465.77
373.81	620.24
374.01	566.41
374.21	550.03
374.40	514.92
374.60	524.28
374.79	613.22
374.99	606.20
375.19	603.86
375.38	615.56
375.58	592.16
375.78	655.35
375.97	613.22
376.17	636.63
376.37	592.16
376.56	653.01
376.76	617.90
376.95	620.24
377.15	603.86
377.35	683.44
377.54	674.07
377.74	610.88
377.93	662.37
378.13	667.05
378.33	601.52
378.52	706.84
378.72	697.48
378.91	718.54
379.11	650.67
379.31	662.37
379.50	723.23
379.70	641.31
379.89	718.54
380.09	681.10
380.28	711.52
380.48	688.12
380.68	688.12
380.87	814.51
381.07	702.16
381.26	704.50
381.46	765.36
381.65	685.78
381.85	638.97
382.04	655.35
382.24	716.20
382.43	699.82
382.63	758.33
382.83	758.33
383.02	777.06
383.22	716.20
383.41	697.48
383.61	781.74
383.80	779.40
384.00	758.33
384.19	807.48
384.39	788.76
384.58	763.01
384.78	851.96
384.97	737.27
385.17	770.04
385.36	732.59
385.56	800.46
385.75	837.91
385.95	922.17
386.14	905.79
386.34	770.04
386.53	823.87
386.72	788.76
386.92	952.60
387.11	889.40
387.31	854.30
387.50	938.55
387.70	854.30
387.89	821.53
388.09	910.47
388.28	908.13
388.48	863.66
388.67	1015.79
388.86	896.43
389.06	976.00
389.25	985.37
389.45	994.73
389.64	994.73
389.84	1018.13
390.03	1036.86
390.22	1013.45
390.42	1081.33
390.61	1100.05
390.81	997.07
391.00	966.64
391.19	1137.50
391.39	1078.99
391.58	1025.15
391.78	1060.26
391.97	1071.97
392.16	1050.90
392.36	1160.91
392.55	980.68
392.75	1067.28
392.94	959.62
393.13	994.73
393.33	933.87
393.52	983.02
393.71	1149.20
393.91	1153.88
394.10	1111.75
394.29	1217.08
394.49	1114.10
394.68	1165.59
394.88	1153.88
395.07	1219.42
395.26	1240.48
395.46	1256.87
395.65	1156.22
395.84	1224.10
396.04	1228.78
396.23	1207.72
396.42	1167.93
396.62	1181.97
396.81	1165.59
397.00	1231.12
397.19	1331.76
397.39	1343.47
397.58	1282.61
397.77	1334.11
397.97	1324.74
398.16	1378.58
398.35	1533.05
398.55	1530.71
398.74	1416.02
398.93	1561.14
399.12	1490.92
399.32	1514.33
399.51	1497.94
399.70	1563.48
399.90	1575.18
400.09	1617.31
400.28	1626.67
400.47	1565.82
400.67	1645.40
400.86	1713.27
401.05	1624.33
401.24	1703.91
401.44	1732.00
401.63	1727.32
401.82	1682.85
402.01	1617.31
402.21	1750.72
402.40	1750.72
402.59	1757.74
402.78	1802.21
402.97	1802.21
403.17	1820.94
403.36	1823.28
403.55	1944.99
403.74	1966.05
403.93	1895.83
404.13	1952.01
404.32	1935.62
404.51	1874.77
404.70	2090.10
404.89	1844.34
405.09	1935.62
405.28	1959.03
405.47	2003.50
405.66	1963.71
405.85	1977.75
406.05	2012.86
406.24	2026.90
406.43	2050.31
406.62	2106.48
406.81	2167.34
407.00	2172.02
407.20	2108.82
407.39	1947.33
407.58	2113.50
407.77	2134.57
407.96	2209.47
408.15	2202.44
408.34	2127.55
408.54	2253.94
408.73	2298.41
408.92	2338.20
409.11	2497.35
409.30	2317.13
409.49	2225.85
409.68	2298.41
409.87	2422.45
410.07	2356.92
410.26	2399.05
410.45	2422.45
410.64	2548.84
410.83	2539.48
411.02	2567.57
411.21	2637.78
411.40	2621.40
411.59	2750.13
411.78	2616.72
411.98	2534.80
412.17	2649.49
412.36	2679.91
412.55	2773.53
412.74	2726.72
412.93	2759.49
413.12	2787.58
413.31	2848.43
413.50	2871.84
413.69	2780.56
413.88	2937.37
414.07	2928.01
414.26	3002.91
414.45	2967.80
414.64	2885.88
414.83	3197.17
415.02	3089.51
415.22	3098.87
415.41	3133.98
415.60	3251.00
415.79	3325.90
415.98	3286.11
416.17	3267.39
416.36	3213.56
416.55	3251.00
416.74	3375.05
416.93	3236.96
417.12	3276.75
417.31	3398.46
417.50	3445.27
417.69	3559.95
417.88	3410.16
418.07	3496.76
418.26	3403.14
418.45	3545.91
418.64	3712.09
418.83	3522.51
419.02	3590.38
419.21	3620.81
419.39	3503.78
419.58	3566.98
419.77	3527.19
419.96	3630.17
420.15	3817.41
420.34	3737.84
420.53	3838.48
420.72	3880.61
420.91	3801.03
421.10	3948.48
421.29	3913.38
421.48	3705.07
421.67	3892.31
421.86	3922.74
422.05	3925.08
422.24	3824.44
422.43	3805.71
422.61	4007.00
422.80	3913.38
422.99	3946.14
423.18	3868.91
423.37	3999.98
423.56	3932.10
423.75	3936.78
423.94	3892.31
424.13	3684.00
424.32	3871.25
424.50	3992.95
424.69	4065.51
424.88	4091.26
425.07	3985.93
425.26	3920.40
425.45	4018.70
425.64	3953.16
425.83	4091.26
426.01	4070.19
426.20	4168.49
426.39	3992.95
426.58	4072.53
426.77	4044.45
426.96	4042.11
427.15	4018.70
427.33	4159.13
427.52	4053.81
427.71	4025.72
427.90	4105.30
428.09	4173.18
428.28	4128.70
428.46	4287.86
428.65	4351.06
428.84	4325.31
429.03	4496.17
429.22	4046.79
429.40	4126.36
429.59	4198.92
429.78	3995.29
429.97	4028.06
430.16	4166.15
430.34	4156.79
430.53	4283.18
430.72	4217.65
430.91	4285.52
431.10	4416.59
431.28	4528.94
431.47	4601.49
431.66	4652.98
431.85	4634.26
432.03	4596.81
432.22	4634.26
432.41	4594.47
432.60	4697.46
432.79	4671.71
432.97	4814.48
433.16	4882.36
433.35	4713.84
433.54	4774.69
433.72	4760.65
433.91	4781.71
434.10	4828.53
434.28	4755.97
434.47	4983.00
434.66	4858.95
434.85	5046.20
435.03	4978.32
435.22	4968.96
435.41	5132.79
435.59	5067.26
435.78	4971.30
435.97	5146.84
436.16	5177.26
436.34	5181.95
436.53	5015.77
436.72	5317.70
436.90	5137.48
437.09	5369.19
437.28	5217.05
437.46	5228.76
437.65	5219.39
437.84	5219.39
438.02	5280.25
438.21	5214.71
438.40	5270.89
438.58	5479.19
438.77	5378.55
438.96	5544.73
439.14	5610.26
439.33	5736.65
439.52	5675.80
439.70	5664.10
439.89	5610.26
440.08	5645.37
440.26	5692.18
440.45	5935.60
440.63	5909.85
440.82	6190.72
441.01	5966.03
441.19	6015.18
441.38	6155.61
441.57	6132.20
441.75	6342.85
441.94	6368.60
442.12	6352.21
442.31	6527.75
442.50	6574.56
442.68	6345.19
442.87	6244.55
443.05	6342.85
443.24	6497.33
443.43	6579.25
443.61	6527.75
443.80	6518.39
443.98	6394.34
444.17	6289.02
444.35	6595.63
444.54	6757.13
444.73	6630.74
444.91	6672.87
445.10	6417.75
445.28	6494.99
445.47	6530.09
445.65	6480.94
445.84	6506.69
446.02	6548.82
446.21	6595.63
446.39	6597.97
446.58	6773.51
446.77	6656.48
446.95	6579.25
447.14	6761.81
447.32	6843.73
447.51	6820.32
447.69	6707.98
447.88	6871.81
448.06	6883.52
448.25	6867.13
448.43	6815.64
448.62	6860.11
448.80	6712.66
448.99	6916.28
449.17	7026.29
449.36	6871.81
449.54	6993.52
449.73	7080.12
449.91	7250.98
450.10	7225.23
450.28	7286.09
450.46	7206.51
450.65	7391.41
450.83	7250.98
451.02	7290.77
451.20	7445.24
451.39	7363.33
451.57	7227.57
451.76	7342.26
451.94	7318.86
452.13	7314.17
452.31	7372.69
452.49	7089.48
452.68	7199.49
452.86	7276.73
453.05	7258.00
453.23	7438.22
453.42	7389.07
453.60	7279.07
453.78	7426.52
453.97	7449.93
454.15	7541.21
454.34	7389.07
454.52	7581.00
454.70	7506.10
454.89	7683.98
455.07	7524.82
455.26	7768.24
455.44	7950.80
455.62	7698.02
455.81	7707.38
455.99	7885.26
456.17	7889.95
456.36	7939.10
456.54	7964.84
456.73	8114.64
456.91	8278.47
457.09	8215.28
457.28	8484.44
457.46	7960.16
457.64	8243.37
457.83	8212.94
458.01	8236.35
458.19	8311.24
458.38	8276.13
458.56	8477.42
458.74	8514.87
458.93	8454.02
459.11	8353.37
459.29	8369.76
459.48	8407.20
459.66	8205.92
459.84	8580.40
460.03	8667.00
460.21	8484.44
460.39	8599.13
460.57	8351.03
460.76	8641.26
460.94	8758.28
461.12	8891.70
461.31	8926.80
461.49	8720.84
461.67	8765.31
461.85	8936.17
462.04	8807.44
462.22	9502.58
462.40	8933.82
462.59	8971.27
462.77	9006.38
462.95	9174.90
463.13	9095.32
463.32	9022.77
463.50	9135.11
463.68	8975.95
463.86	9074.26
464.05	9114.05
464.23	8800.41
464.41	9153.84
464.59	9029.79
464.78	9289.59
464.96	9341.08
465.14	9097.66
465.32	9254.48
465.50	9369.16
465.69	9198.31
465.87	9205.33
466.05	9266.18
466.23	9226.39
466.41	9282.56
466.60	9575.13
466.78	9277.88
466.96	9305.97
467.14	9369.16
467.32	9631.30
467.51	9486.19
467.69	9172.56
467.87	9497.89
468.05	9591.52
468.23	9579.81
468.41	9570.45
468.60	9366.82
468.78	9631.30
468.96	9696.84
469.14	9640.67
469.32	9816.21
469.50	9724.93
469.69	9647.69
469.87	10061.96
470.05	9879.40
470.23	9888.76
470.41	9799.82
470.59	10052.60
470.77	9767.06
470.95	9898.13
471.14	10244.52
471.32	10099.41
471.50	10551.14
471.68	10293.68
471.86	10527.73
472.04	10537.09
472.22	10471.56
472.40	10387.30
472.58	10478.58
472.77	10513.69
472.95	10637.73
473.13	10745.40
473.31	10780.51
473.49	10888.17
473.67	10717.31
473.85	10951.37
474.03	11037.97
474.21	11066.05
474.39	11042.65
474.57	11159.67
474.75	11063.71
474.93	11272.02
475.12	11435.86
475.30	11250.96
475.48	11248.61
475.66	11138.61
475.84	11569.27
476.02	11632.46
476.20	11485.01
476.38	11971.84
476.56	11761.19
476.74	11829.07
476.92	11723.74
477.10	11824.39
477.28	12042.06
477.46	12245.68
477.64	12430.59
477.82	12248.02
478.00	12603.78
478.18	12564.00
478.36	12573.36
478.54	12697.41
478.72	12800.39
478.90	12957.21
479.08	13298.92
479.26	13427.65
479.44	13277.86
479.62	13280.20
479.80	13582.13
479.98	13345.73
480.16	13624.26
480.34	13612.56
480.52	13949.59
480.70	13799.80
480.88	13963.64
481.06	14003.43
481.24	14038.53
481.41	14214.07
481.59	14684.52
481.77	14579.20
481.95	14520.68
482.13	14548.77
482.31	14644.73
482.49	14981.77
482.67	14965.39
482.85	14883.47
483.03	15227.53
483.21	15461.58
483.39	15580.95
483.57	15744.78
483.74	15541.16
483.92	15737.76
484.10	15454.56
484.28	15777.55
484.46	16463.33
484.64	16493.76
484.82	15768.19
485.00	16180.12
485.18	16350.98
485.35	16514.82
485.53	16402.47
485.71	16198.85
485.89	16664.61
486.07	16475.03
486.25	16393.11
486.43	16826.11
486.61	17114.00
486.78	17355.07
486.96	17659.34
487.14	17657.00
487.32	17736.58
487.50	17977.65
487.68	18270.22
487.85	18630.66
488.03	18927.91
488.21	18892.80
488.39	18735.99
488.57	19056.64
488.75	19030.90
488.92	19281.33
489.10	19723.69
489.28	19548.15
489.46	19798.59
489.64	19660.50
489.81	20629.48
489.99	20285.42
490.17	20428.20
490.35	20507.77
490.53	20692.68
490.70	20645.87
490.88	20849.49
491.06	21050.78
491.24	21090.57
491.41	20858.85
491.59	20627.14
491.77	21013.33
491.95	21207.59
492.13	21345.69
492.30	21619.53
492.48	22008.06
492.66	21954.22
492.84	22047.85
493.01	22345.09
493.19	22160.19
493.37	22162.53
493.54	22616.60
493.72	22689.15
493.90	22782.77
494.08	23470.89
494.25	23454.51
494.43	23257.90
494.61	23714.31
494.79	23702.61
494.96	23452.17
495.14	23510.68
495.32	23777.50
495.49	24004.53
495.67	23840.70
495.85	24163.69
496.02	24264.33
496.20	24325.19
496.38	24451.58
496.55	24634.14
496.73	25097.56
496.91	25039.05
497.09	24952.45
497.26	25429.92
497.44	25200.55
497.62	25359.70
497.79	25631.21
497.97	25507.16
498.14	25745.89
498.32	26015.05
498.50	25642.91
498.67	26586.15
498.85	25905.05
499.03	26602.53
499.20	26384.86
499.38	26778.07
499.56	26073.57
499.73	26366.13
499.91	26363.79
500.08	26698.49
500.26	26859.99
500.44	27009.78
500.61	26951.27
500.79	26469.12
500.97	26902.12
501.14	27630.02
501.32	27087.02
501.49	27454.48
501.67	27105.74
501.84	27559.81
502.02	27328.10
502.20	27922.59
502.37	27913.23
502.55	28046.64
502.72	28299.42
502.90	28217.50
503.07	27995.15
503.25	28240.90
503.43	28250.27
503.60	28252.61
503.78	28341.55
503.95	28264.31
504.13	28268.99
504.30	28596.67
504.48	28980.51
504.65	28905.62
504.83	28982.85
505.01	29455.64
505.18	29546.92
505.36	29706.08
505.53	29472.03
505.71	29820.77
505.88	29745.87
506.06	29766.93
506.23	29769.27
506.41	30017.37
506.58	30239.72
506.76	30246.74
506.93	30000.99
507.11	30216.32
507.28	30415.26
507.46	30263.13
507.63	30059.50
507.81	30398.88
507.98	30148.44
508.16	30738.26
508.33	30558.03
508.50	31377.22
508.68	30796.77
508.85	31655.75
509.03	31157.21
509.20	31473.18
509.38	31007.42
509.55	31414.67
509.73	31227.43
509.90	31211.04
510.08	31402.97
510.25	31903.84
510.42	31824.26
510.60	31885.12
510.77	32072.36
510.95	32283.01
511.12	32030.23
511.30	32229.18
511.47	32641.11
511.64	32594.30
511.82	32566.21
511.99	32528.77
512.17	32463.23
512.34	32301.73
512.51	32652.81
512.69	32767.50
512.86	32985.17
513.04	32961.76
513.21	33003.89
513.38	32823.67
513.56	33078.79
513.73	32872.82
513.90	33392.42
514.08	32921.98
514.25	33883.94
514.43	33298.80
514.60	33507.11
514.77	33256.67
514.95	33869.89
515.12	34036.07
515.29	33558.60
515.47	34192.89
515.64	33956.49
515.81	34242.04
515.99	34073.52
516.16	33734.14
516.33	33883.94
516.51	33867.55
516.68	33415.83
516.85	33441.57
517.03	33607.75
517.20	34052.45
517.37	34335.66
517.54	34653.97
517.72	34419.92
517.89	34410.56
518.06	34466.73
518.24	34272.46
518.41	34635.25
518.58	34726.53
518.75	34838.87
518.93	34845.90
519.10	34967.60
519.27	35157.19
519.45	35459.12
519.62	35379.54
519.79	35393.58
519.96	35119.74
520.14	35742.32
520.31	35627.63
520.48	35732.96
520.65	35639.34
520.83	36030.21
521.00	36208.09
521.17	36374.27
521.34	35981.06
521.52	36299.37
521.69	36189.36
521.86	36435.12
522.03	36362.56
522.20	36383.63
522.38	36170.64
522.55	37048.34
522.72	36500.65
522.89	36437.46
523.07	36865.78
523.24	36840.03
523.41	37361.97
523.58	36903.23
523.75	37605.39
523.92	37336.23
524.10	37748.16
524.27	37574.96
524.44	37266.01
524.61	37816.04
524.78	37549.21
524.96	38007.96
525.13	38014.98
525.30	38117.96
525.47	38237.33
525.64	38314.57
525.81	37661.56
525.98	37631.13
526.16	37572.62
526.33	37577.30
526.50	37642.84
526.67	37408.78
526.84	37593.68
527.01	37464.96
527.18	38078.18
527.36	38323.93
527.53	38630.54
527.70	38560.33
527.87	38522.88
528.04	38274.78
528.21	38429.26
528.38	38497.13
528.55	38862.26
528.72	39243.76
528.89	39016.73
529.07	38986.30
529.24	38424.57
529.41	39051.84
529.58	38962.90
529.75	38880.98
529.92	39274.19
530.09	39562.08
530.26	39440.37
530.43	39126.74
530.60	39335.04
530.77	39182.91
530.94	39653.36
531.11	40076.99
531.28	39592.50
531.46	39571.44
531.63	39924.86
531.80	39470.79
531.97	39545.69
532.14	39751.66
532.31	39454.41
532.48	39639.31
532.65	39873.37
532.82	39988.05
532.99	40495.95
533.16	40102.74
533.33	40088.70
533.50	40535.74
533.67	39922.52
533.84	39964.65
534.01	39875.71
534.18	40383.60
534.35	40744.05
534.52	40224.45
534.69	40645.74
534.86	40650.42
535.03	40493.61
535.20	40889.16
535.37	41177.04
535.54	41130.23
535.71	40945.33
535.88	41006.19
536.05	40577.87
536.22	41078.74
536.38	41048.32
536.55	41106.83
536.72	40786.18
536.89	40877.46
537.06	40917.25
537.23	41153.64
537.40	41390.03
537.57	41462.59
537.74	41701.32
537.91	41565.57
538.08	41303.43
538.25	41268.33
538.42	41368.97
538.59	41584.30
538.75	41163.00
538.92	41572.60
539.09	41741.11
539.26	41457.91
539.43	41659.20
539.60	41371.31
539.77	41893.25
539.94	41965.81
540.11	41558.55
540.28	41703.67
540.44	42038.36
540.61	41701.32
540.78	41572.60
540.95	41834.74
541.12	41624.09
541.29	42164.75
541.46	42101.56
541.62	42305.18
541.79	42550.94
541.96	41830.05
542.13	41942.40
542.30	41921.34
542.47	42237.31
542.63	42066.45
542.80	42415.19
542.97	42632.86
543.14	42836.48
543.31	42614.13
543.48	42754.57
543.64	43501.20
543.81	43063.52
543.98	42705.41
544.15	42499.45
544.32	42990.96
544.48	43611.20
544.65	42955.85
544.82	43316.29
544.99	42740.52
545.16	43131.39
545.32	43290.55
545.49	43459.07
545.66	43550.35
545.83	42895.00
546.00	43428.64
546.16	43281.19
546.33	43302.25
546.50	43196.93
546.67	43550.35
546.83	43342.04
547.00	42932.45
547.17	43487.15
547.34	43599.50
547.50	43660.35
547.67	43728.23
547.84	43922.49
548.00	44006.75
548.17	44215.06
548.34	43763.34
548.51	43803.13
548.67	44072.29
548.84	44016.11
549.01	43636.95
549.18	43629.93
549.34	43737.59
549.51	43873.34
549.68	43936.54
549.84	43938.88
550.01	44521.67
550.18	44287.62
550.34	44268.89
550.51	44313.36
550.68	44086.33
550.84	43337.36
551.01	44350.81
551.18	44402.30
551.34	44119.10
551.51	44624.65
551.68	44397.62
551.84	44238.47
552.01	44177.61
552.18	44477.20
552.34	44147.18
552.51	44629.34
552.68	44451.45
552.84	44596.57
553.01	44732.32
553.18	44624.65
553.34	44165.91
553.51	45015.52
553.67	44966.37
553.84	45317.45
554.01	44664.44
554.17	45008.50
554.34	45071.70
554.51	44949.99
554.67	45158.30
554.84	44910.20
555.00	44678.49
555.17	44610.61
555.33	44708.91
555.50	44999.14
555.67	44861.05
555.83	44954.67
556.00	45010.84
556.16	45088.08
556.33	44701.89
556.50	45097.44
556.66	45155.96
556.83	44313.36
556.99	45085.74
557.16	45385.33
557.32	45242.56
557.49	45193.40
557.65	45071.70
557.82	45265.96
557.98	45312.77
558.15	45392.35
558.32	45319.79
558.48	44774.45
558.65	45162.98
558.81	44961.69
558.98	45450.86
559.14	45191.06
559.31	45015.52
559.47	45392.35
559.64	45162.98
559.80	45099.78
559.97	45457.88
560.13	45326.81
560.30	45155.96
560.46	45394.69
560.63	45787.90
560.79	45708.32
560.96	45731.73
561.12	45081.06
561.29	45656.83
561.45	45364.26
561.61	46007.91
561.78	45315.11
561.94	45265.96
562.11	45399.37
562.27	45848.75
562.44	45485.97
562.60	45708.32
562.77	45839.39
562.93	45565.55
563.10	46005.57
563.26	45415.76
563.42	45750.45
563.59	45748.11
563.75	45888.54
563.92	45694.28
564.08	46241.96
564.24	45834.71
564.41	45720.02
564.57	45830.03
564.74	45617.04
564.90	45532.78
565.07	45549.17
565.23	45911.95
565.39	45418.10
565.56	45874.50
565.72	45530.44
565.88	45642.79
566.05	45542.14
566.21	45954.08
566.38	45595.98
566.54	46047.70
566.70	45820.67
566.87	45844.07
567.03	46153.02
567.19	46220.90
567.36	45993.87
567.52	46190.47
567.68	46129.62
567.85	45801.94
568.01	45923.65
568.17	46150.68
568.34	45846.41
568.50	45844.07
568.66	45848.75
568.83	46190.47
568.99	45668.53
569.15	45750.45
569.32	46021.95
569.48	45518.74
569.64	46258.35
569.81	45778.54
569.97	45925.99
570.13	45984.51
570.30	45553.85
570.46	45942.38
570.62	45507.04
570.78	45233.19
570.95	45834.71
571.11	45624.06
571.27	45680.24
571.43	45916.63
571.60	46171.75
571.76	45841.73
571.92	45916.63
572.09	46014.93
572.25	46476.02
572.41	45792.58
572.57	46412.82
572.74	46485.38
572.90	46279.41
573.06	46211.54
573.22	46356.65
573.38	46108.55
573.55	45708.32
573.71	46759.22
573.87	46532.19
574.03	45867.48
574.20	46101.53
574.36	45724.71
574.52	46190.47
574.68	45741.09
574.84	45979.82
575.01	46146.00
575.17	46010.25
575.33	45869.82
575.49	45907.27
575.65	46415.16
575.82	46361.33
575.98	46241.96
576.14	46248.99
576.30	46160.05
576.46	46117.92
576.62	46277.07
576.79	45975.14
576.95	45675.55
577.11	45928.33
577.27	46230.26
577.43	46202.18
577.59	46040.68
577.75	45890.88
577.92	45593.64
578.08	45984.51
578.24	46141.32
578.40	46101.53
578.56	46052.38
578.72	46281.75
578.88	46071.10
579.04	46480.70
579.21	46209.20
579.37	46064.08
579.53	46052.38
579.69	45687.26
579.85	45975.14
580.01	46553.26
580.17	46447.93
580.33	46279.41
580.49	45958.76
580.65	45710.66
580.82	45731.73
580.98	46073.45
581.14	45617.04
581.30	46209.20
581.46	46635.17
581.62	46237.28
581.78	46146.00
581.94	46831.78
582.10	46471.34
582.26	46295.80
582.42	45780.88
582.58	46248.99
582.74	46412.82
582.90	46403.46
583.06	46520.49
583.22	45879.18
583.38	46244.30
583.54	46293.46
583.70	46188.13
583.86	46335.59
584.02	45792.58
584.18	46625.81
584.34	46181.11
584.50	46473.68
584.66	46068.76
584.82	46178.77
584.98	46504.10
585.14	46719.43
585.30	46337.93
585.46	46174.09
585.62	46218.56
585.78	45949.40
585.94	45982.16
586.10	45947.06
586.26	45989.19
586.42	46293.46
586.58	46391.76
586.74	46513.47
586.90	46391.76
587.06	46188.13
587.22	46270.05
587.38	46267.71
587.54	46340.27
587.70	46705.39
587.86	46223.24
588.02	46373.03
588.18	46230.26
588.34	45998.55
588.49	45865.14
588.65	45844.07
588.81	46061.74
588.97	45675.55
589.13	45729.39
589.29	45961.10
589.45	46115.58
589.61	45914.29
589.77	46403.46
589.93	46160.05
