SpectraSuite Data File
++++++++++++++++++++++++++++++++++++
Date: Fri Oct 25 11:22:30 EDT 2013
User: price-jones
Dark Spectrum Present: No
Reference Spectrum Present: No
Number of Sampled Component Spectra: 1
Spectrometers: USB2+H05261
Integration Time (usec): 100000 (USB2+H05261)
Spectra Averaged: 1 (USB2+H05261)
Boxcar Smoothing: 0 (USB2+H05261)
Correct for Electrical Dark: No (USB2+H05261)
Strobe/Lamp Enabled: No (USB2+H05261)
Correct for Detector Non-linearity: No (USB2+H05261)
Correct for Stray Light: No (USB2+H05261)
Number of Pixels in Processed Spectrum: 2048
>>>>>Begin Processed Spectral Data<<<<<
365.73	177.88
365.92	177.88
366.12	177.88
366.32	126.39
366.52	163.84
366.72	102.98
366.91	60.85
367.11	60.85
367.31	121.71
367.51	86.60
367.70	140.43
367.90	149.79
368.10	95.96
368.30	159.16
368.49	105.32
368.69	105.32
368.89	142.77
369.09	114.69
369.28	145.11
369.48	152.13
369.68	166.18
369.87	102.98
370.07	131.07
370.27	161.50
370.47	346.40
370.66	627.26
370.86	681.10
371.06	587.47
371.25	702.16
371.45	638.97
371.65	699.82
371.84	685.78
372.04	678.76
372.24	716.20
372.44	702.16
372.63	720.88
372.83	641.31
373.03	770.04
373.22	718.54
373.42	800.46
373.62	751.31
373.81	798.12
374.01	882.38
374.21	807.48
374.40	807.48
374.60	837.91
374.79	807.48
374.99	901.11
375.19	903.45
375.38	870.68
375.58	819.19
375.78	802.80
375.97	844.93
376.17	903.45
376.37	847.27
376.56	830.89
376.76	784.08
376.95	800.46
377.15	950.26
377.35	947.92
377.54	901.11
377.74	945.58
377.93	980.68
378.13	978.34
378.33	891.74
378.52	844.93
378.72	961.96
378.91	917.49
379.11	994.73
379.31	992.39
379.50	983.02
379.70	985.37
379.89	997.07
380.09	978.34
380.28	931.53
380.48	1053.24
380.68	915.15
380.87	1043.88
381.07	1008.77
381.26	1104.73
381.46	983.02
381.65	978.34
381.85	1013.45
382.04	973.66
382.24	1060.26
382.43	1053.24
382.63	1057.92
382.83	1064.94
383.02	1088.35
383.22	1095.37
383.41	1060.26
383.61	1121.12
383.80	1188.99
384.00	1137.50
384.19	1083.67
384.39	1146.86
384.58	1100.05
384.78	1135.16
384.97	1156.22
385.17	1188.99
385.36	1191.33
385.56	1163.25
385.75	1228.78
385.95	1163.25
386.14	1172.61
386.34	1235.80
386.53	1158.57
386.72	1121.12
386.92	1289.64
387.11	1240.48
387.31	1380.92
387.50	1303.68
387.70	1198.35
387.89	1345.81
388.09	1256.87
388.28	1196.01
388.48	1259.21
388.67	1394.96
388.86	1366.87
389.06	1280.27
389.25	1352.83
389.45	1411.34
389.64	1371.55
389.84	1350.49
390.03	1399.64
390.22	1376.24
390.42	1359.85
390.61	1303.68
390.81	1439.43
391.00	1490.92
391.19	1411.34
391.39	1401.98
391.58	1521.35
391.78	1453.47
391.97	1495.60
392.16	1455.81
392.36	1514.33
392.55	1497.94
392.75	1603.27
392.94	1521.35
393.13	1474.54
393.33	1472.20
393.52	1551.78
393.71	1568.16
393.91	1537.73
394.10	1664.12
394.29	1521.35
394.49	1633.69
394.68	1713.27
394.88	1596.25
395.07	1631.35
395.26	1607.95
395.46	1640.72
395.65	1715.61
395.84	1785.83
396.04	1790.51
396.23	1760.08
396.42	1682.85
396.62	1767.10
396.81	1813.92
397.00	1767.10
397.19	1813.92
397.39	1792.85
397.58	1914.56
397.77	1860.73
397.97	1846.68
398.16	1874.77
398.35	1776.47
398.55	1802.21
398.74	1886.47
398.93	1935.62
399.12	1991.80
399.32	1975.41
399.51	1914.56
399.70	1982.43
399.90	1963.71
400.09	2108.82
400.28	2024.56
400.47	1982.43
400.67	2092.44
400.86	1968.39
401.05	2069.03
401.24	2143.93
401.44	2104.14
401.63	2174.36
401.82	2031.58
402.01	2108.82
402.21	2202.44
402.40	2258.62
402.59	2136.91
402.78	2289.04
402.97	2190.74
403.17	2260.96
403.36	2307.77
403.55	2258.62
403.74	2363.94
403.93	2328.83
404.13	2377.98
404.32	2300.75
404.51	2389.69
404.70	2455.22
404.89	2312.45
405.09	2541.82
405.28	2434.16
405.47	2431.82
405.66	2387.35
405.85	2520.76
406.05	2586.29
406.24	2506.71
406.43	2553.52
406.62	2684.59
406.81	2647.15
407.00	2565.23
407.20	2633.10
407.39	2628.42
407.58	2672.89
407.77	2740.77
407.96	2801.62
408.15	2700.98
408.34	2722.04
408.54	2778.22
408.73	2867.16
408.92	2801.62
409.11	3009.93
409.30	2888.22
409.49	2991.20
409.68	2890.56
409.87	2836.73
410.07	3012.27
410.26	3077.80
410.45	3012.27
410.64	3007.59
410.83	3042.70
411.02	3201.85
411.21	3213.56
411.40	3290.79
411.59	3239.30
411.78	3239.30
411.98	3222.92
412.17	3258.03
412.36	3386.76
412.55	3398.46
412.74	3410.16
412.93	3440.59
413.12	3353.99
413.31	3468.67
413.50	3447.61
413.69	3550.59
413.88	3585.70
414.07	3709.75
414.26	3585.70
414.45	3585.70
414.64	3627.83
414.83	3721.45
415.02	3747.20
415.22	3882.95
415.41	3929.76
415.60	3995.29
415.79	3960.19
415.98	4065.51
416.17	3990.61
416.36	3967.21
416.55	4128.70
416.74	4245.73
416.93	4135.73
417.12	4222.33
417.31	4241.05
417.50	4208.28
417.69	4320.63
417.88	4217.65
418.07	4393.19
418.26	4514.89
418.45	4498.51
418.64	4461.06
418.83	4440.00
419.02	4435.32
419.21	4624.90
419.39	4512.55
419.58	4407.23
419.77	4454.04
419.96	4650.64
420.15	4620.22
420.34	4657.67
420.53	4667.03
420.72	4699.80
420.91	4734.90
421.10	4727.88
421.29	4926.83
421.48	4697.46
421.67	4861.29
421.86	4863.63
422.05	4898.74
422.24	4788.74
422.43	4950.23
422.61	4873.00
422.80	5004.07
422.99	4938.53
423.18	4854.27
423.37	5132.79
423.56	5081.30
423.75	4975.98
423.94	4835.55
424.13	4711.50
424.32	4873.00
424.50	5001.72
424.69	5053.22
424.88	5123.43
425.07	5104.71
425.26	4919.81
425.45	5055.56
425.64	4992.36
425.83	5104.71
426.01	5245.14
426.20	5277.91
426.39	5177.26
426.58	4999.38
426.77	5184.29
426.96	5170.24
427.15	5270.89
427.33	5240.46
427.52	5144.50
427.71	5359.83
427.90	5331.74
428.09	5224.08
428.28	5378.55
428.46	5341.10
428.65	5404.30
428.84	5664.10
429.03	5549.41
429.22	5394.93
429.40	5502.60
429.59	5563.45
429.78	5430.04
429.97	5331.74
430.16	5661.76
430.34	5621.97
430.53	5872.40
430.72	5769.42
430.91	5736.65
431.10	5621.97
431.28	5760.06
431.47	5930.92
431.66	5741.33
431.85	5844.32
432.03	5951.98
432.22	5933.26
432.41	5914.53
432.60	6097.10
432.79	5942.62
432.97	6120.50
433.16	6015.18
433.35	5940.28
433.54	6127.52
433.72	6150.93
433.91	6171.99
434.10	6153.27
434.28	6097.10
434.47	6253.91
434.66	6277.32
434.85	6244.55
435.03	6434.13
435.22	6176.67
435.41	6607.33
435.59	6502.01
435.78	6490.31
435.97	6420.09
436.16	6534.78
436.34	6525.41
436.53	6548.82
436.72	6541.80
436.90	6436.47
437.09	6644.78
437.28	6583.93
437.46	6712.66
437.65	6979.48
437.84	6906.92
438.02	6656.48
438.21	6958.41
438.40	6810.96
438.58	6953.73
438.77	6995.86
438.96	6995.86
439.14	7363.33
439.33	7267.36
439.52	7342.26
439.70	7400.77
439.89	7578.65
440.08	7435.88
440.26	7473.33
440.45	7419.50
440.63	7637.17
440.82	7754.19
441.01	7520.14
441.19	7735.47
441.38	7892.29
441.57	7784.62
441.75	7763.56
441.94	8166.13
442.12	7906.33
442.31	8161.45
442.50	8177.83
442.68	7985.91
442.87	8210.60
443.05	8238.69
443.24	8325.29
443.43	8210.60
443.61	8023.36
443.80	8454.02
443.98	8191.88
444.17	7903.99
444.35	8336.99
444.54	8262.09
444.73	8482.10
444.91	8425.93
445.10	8425.93
445.28	8393.16
445.47	8236.35
445.65	8437.63
445.84	8669.34
446.02	8482.10
446.21	8411.89
446.39	8428.27
446.58	8631.90
446.77	8545.30
446.95	8358.05
447.14	8278.47
447.32	8793.39
447.51	8442.31
447.69	8500.83
447.88	8594.45
448.06	8727.86
448.25	8643.60
448.43	8538.27
448.62	8620.19
448.80	8758.28
448.99	8669.34
449.17	8805.10
449.36	8713.81
449.54	9001.70
449.73	9055.53
449.91	9205.33
450.10	9195.96
450.28	9104.68
450.46	9256.82
450.65	9027.45
450.83	9231.07
451.02	9097.66
451.20	9249.80
451.39	9160.86
451.57	9242.78
451.76	9102.34
451.94	9266.18
452.13	9542.36
452.31	9310.65
452.49	9270.86
452.68	9238.09
452.86	9420.66
453.05	9596.20
453.23	9657.05
453.42	9605.56
453.60	9530.66
453.78	9593.86
453.97	9610.24
454.15	9654.71
454.34	9713.22
454.52	9954.30
454.70	9673.43
454.89	9973.02
455.07	9703.86
455.26	9944.94
455.44	10061.96
455.62	9914.51
455.81	9973.02
455.99	10211.76
456.17	10143.88
456.36	10059.62
456.54	10366.23
456.73	10462.19
456.91	10443.47
457.09	10473.90
457.28	10719.65
457.46	10539.43
457.64	10689.23
457.83	10649.44
458.01	10527.73
458.19	10473.90
458.38	10759.44
458.56	10843.70
458.74	10846.04
458.93	10874.13
459.11	11049.67
459.29	10764.12
459.48	11171.38
459.66	11143.29
459.84	11005.20
460.03	11197.12
460.21	11143.29
460.39	11260.32
460.57	11059.03
460.76	11311.81
460.94	11426.50
461.12	11534.16
461.31	11316.49
461.49	11014.56
461.67	11199.46
461.85	11466.28
462.04	11543.52
462.22	11555.22
462.40	11698.00
462.59	11789.28
462.77	11690.98
462.95	11864.18
463.13	11641.82
463.32	11988.22
463.50	11875.88
463.68	11683.95
463.86	11859.49
464.05	11845.45
464.23	11925.03
464.41	12028.01
464.59	11990.56
464.78	12138.02
464.96	12105.25
465.14	12079.50
465.32	11903.96
465.50	12119.29
465.69	12383.77
465.87	12156.74
466.05	12341.64
466.23	12264.41
466.41	12461.01
466.60	12484.42
466.78	12154.40
466.96	12241.00
467.14	12416.54
467.32	12601.44
467.51	12720.81
467.69	12500.80
467.87	12809.75
468.05	12725.49
468.23	12390.80
468.41	12662.30
468.60	12999.34
468.78	13135.09
468.96	12676.34
469.14	12826.14
469.32	13235.73
469.50	12769.96
469.69	12957.21
469.87	13350.42
470.05	13137.43
470.23	13411.27
470.41	13441.70
470.59	13284.88
470.77	13364.46
470.95	13376.16
471.14	13495.53
471.32	13645.32
471.50	13802.14
471.68	13610.22
471.86	13762.35
472.04	13802.14
472.22	13930.87
472.40	13874.70
472.58	13841.93
472.77	14195.35
472.95	14331.10
473.13	14752.40
473.31	14176.62
473.49	14295.99
473.67	14356.85
473.85	14487.92
474.03	14759.42
474.21	14899.85
474.39	14801.55
474.57	15059.01
474.75	14871.76
474.93	15028.58
475.12	14916.23
475.30	15583.29
475.48	15159.65
475.66	15585.63
475.84	15403.07
476.02	15358.60
476.20	15522.43
476.38	16091.18
476.56	16011.60
476.74	16009.26
476.92	16341.62
477.10	15796.28
477.28	16355.66
477.46	16418.86
477.64	16650.57
477.82	16875.26
478.00	17224.00
478.18	16861.22
478.36	17289.54
478.54	17315.28
478.72	17317.62
478.90	17879.35
479.08	17673.39
479.26	18005.74
479.44	17886.37
479.62	17994.04
479.80	18036.17
479.98	18302.99
480.16	18724.29
480.34	18562.79
480.52	18569.81
480.70	18897.49
480.88	18735.99
481.06	19009.83
481.24	19040.26
481.41	19309.42
481.59	19520.07
481.77	19634.75
481.95	19721.35
482.13	20123.93
482.31	20226.91
482.49	20563.95
482.67	20580.33
482.85	20573.31
483.03	20966.52
483.21	21280.15
483.39	21135.04
483.57	21055.46
483.74	21488.46
483.92	21862.94
484.10	21846.56
484.28	22089.98
484.46	22202.32
484.64	22373.18
484.82	22094.66
485.00	22497.23
485.18	22829.59
485.35	23175.98
485.53	23110.45
485.71	23229.82
485.89	23742.39
486.07	23697.92
486.25	23833.68
486.43	23992.83
486.61	24182.42
486.78	24472.64
486.96	24327.53
487.14	24727.76
487.32	24428.17
487.50	24985.22
487.68	25453.33
487.85	25685.04
488.03	25865.26
488.21	26031.44
488.39	26143.78
488.57	26363.79
488.75	26590.83
488.92	26841.26
489.10	27168.94
489.28	27140.85
489.46	27552.79
489.64	27157.24
489.81	28058.34
489.99	28072.39
490.17	28180.05
490.35	28390.70
490.53	28559.22
490.70	28905.62
490.88	28435.17
491.06	29415.85
491.24	29160.73
491.41	29422.87
491.59	29724.80
491.77	29326.91
491.95	30094.61
492.13	30047.80
492.30	30410.58
492.48	30553.35
492.66	30794.43
492.84	30803.79
493.01	30941.88
493.19	31339.77
493.37	31351.48
493.54	31498.93
493.72	31910.86
493.90	32018.53
494.08	32278.33
494.25	32514.72
494.43	32250.24
494.61	32694.94
494.79	32809.63
494.96	32870.48
495.14	33216.88
495.32	33394.76
495.49	33626.48
495.67	33476.68
495.85	34073.52
496.02	34359.06
496.20	34279.49
496.38	34550.99
496.55	34834.19
496.73	34855.26
496.91	34953.56
497.09	35227.40
497.26	35498.91
497.44	35494.22
497.62	35676.79
497.79	36098.08
497.97	35847.64
498.14	36222.13
498.32	36313.41
498.50	36605.98
498.67	37289.42
498.85	37483.68
499.03	36992.17
499.20	37160.69
499.38	37361.97
499.56	37560.92
499.73	37813.70
499.91	37944.76
500.08	38108.60
500.26	37961.15
500.44	38328.61
500.61	38328.61
500.79	38181.16
500.97	38490.11
501.14	38618.84
501.32	39180.57
501.49	39152.48
501.67	39316.32
501.84	39580.80
502.02	39501.22
502.20	39323.34
502.37	39828.90
502.55	39548.03
502.72	40332.11
502.90	39906.13
503.07	39721.23
503.25	40793.20
503.43	40538.08
503.60	40631.70
503.78	40751.07
503.95	40456.16
504.13	41097.47
504.30	41188.75
504.48	41020.23
504.65	41280.03
504.83	41490.68
505.01	41914.31
505.18	41654.51
505.36	41848.78
505.53	41687.28
505.71	42171.77
505.88	42394.12
506.06	41691.96
506.23	42719.46
506.41	42501.79
506.58	42562.64
506.76	42679.67
506.93	43124.37
507.11	42916.06
507.28	42920.74
507.46	43320.98
507.63	43129.05
507.81	43695.46
507.98	43449.70
508.16	44128.46
508.33	43768.02
508.50	44287.62
508.68	44198.68
508.85	44254.85
509.03	44165.91
509.20	44596.57
509.38	45092.76
509.55	45137.23
509.73	45010.84
509.90	45158.30
510.08	45162.98
510.25	44676.15
510.42	45235.53
510.60	45546.82
510.77	45663.85
510.95	45858.12
511.12	45502.35
511.30	45624.06
511.47	45916.63
511.64	45799.60
511.82	46548.57
511.99	45986.85
512.17	46621.13
512.34	46265.37
512.51	46873.91
512.69	47049.45
512.86	46377.72
513.04	47271.80
513.21	46789.65
513.38	47124.35
513.56	47250.74
513.73	47414.57
513.90	47440.32
514.08	47264.78
514.25	47805.44
514.43	48114.39
514.60	47882.68
514.77	47728.20
514.95	48343.77
515.12	47955.24
515.29	47997.37
515.47	48069.92
515.64	48718.25
515.81	48540.37
515.99	48587.18
516.16	49017.84
516.33	49095.08
516.51	49074.01
516.68	48949.96
516.85	48947.62
517.03	49020.18
517.20	49406.37
517.37	49523.40
517.54	49352.54
517.72	49125.50
517.89	49579.57
518.06	49591.27
518.24	49731.70
518.41	50099.17
518.58	49418.07
518.75	49694.25
518.93	49947.03
519.10	49705.96
519.27	50265.34
519.45	50232.58
519.62	50408.12
519.79	50707.71
519.96	50361.31
520.14	50595.36
520.31	50209.17
520.48	50614.08
520.65	50780.26
520.83	50803.67
521.00	51157.09
521.17	50485.36
521.34	51070.49
521.52	51129.00
521.69	51260.07
521.86	51770.31
522.03	51423.91
522.20	51770.31
522.38	51908.40
522.55	51459.02
522.72	51763.29
522.89	51639.24
523.07	52062.88
523.24	51821.80
523.41	52250.12
523.58	52119.05
523.75	52240.76
523.92	52027.77
524.10	52205.65
524.27	52371.83
524.44	52612.90
524.61	52303.95
524.78	52439.70
524.96	52652.69
525.13	52559.07
525.30	53179.31
525.47	52856.32
525.64	53069.31
525.81	52973.34
525.98	53120.80
526.16	52863.34
526.33	53092.71
526.50	53584.22
526.67	53354.85
526.84	53141.86
527.01	53223.78
527.18	53598.27
527.36	53485.92
527.53	53591.25
527.70	53734.02
527.87	53619.33
528.04	53701.25
528.21	53881.47
528.38	53537.41
528.55	53895.52
528.72	53631.04
528.89	53745.72
529.07	53656.78
529.24	53743.38
529.41	54246.60
529.58	53975.09
529.75	54129.57
529.92	53848.71
530.09	54314.47
530.26	54344.90
530.43	54471.29
530.60	54075.74
530.77	54497.03
530.94	54466.61
531.11	54192.76
531.28	54639.81
531.46	54518.10
531.63	54595.34
531.80	54532.14
531.97	54719.38
532.14	55023.65
532.31	54927.69
532.48	55105.57
532.65	54798.96
532.82	54831.73
532.99	55267.07
533.16	54787.26
533.33	55192.17
533.50	55238.98
533.67	55171.11
533.84	55070.46
534.01	55100.89
534.18	55208.56
534.35	55515.17
534.52	55157.06
534.69	55599.43
534.86	55730.50
535.03	55522.19
535.20	55674.32
535.37	55454.31
535.54	55884.97
535.71	55767.94
535.88	55707.09
536.05	55924.76
536.22	55861.57
536.38	56128.39
536.55	56046.47
536.72	55978.59
536.89	55840.50
537.06	56039.45
537.23	56182.22
537.40	55861.57
537.57	56104.98
537.74	55896.67
537.91	56278.18
538.08	56193.92
538.25	56081.58
538.42	56104.98
538.59	56479.47
538.75	56236.05
538.92	56451.38
539.09	56498.19
539.26	56427.98
539.43	56498.19
539.60	56727.56
539.77	56584.79
539.94	56734.59
540.11	56835.23
540.28	56786.08
540.44	56961.62
540.61	56727.56
540.78	56554.36
540.95	56760.33
541.12	56779.06
541.29	56788.42
541.46	56935.87
541.62	56872.68
541.79	56987.36
541.96	56610.54
542.13	56846.93
542.30	57160.56
542.47	57200.35
542.63	57167.58
542.80	57378.23
542.97	57254.18
543.14	57588.88
543.31	57523.35
543.48	57684.84
543.64	57764.42
543.81	57581.86
543.98	57542.07
544.15	57427.38
544.32	57783.15
544.48	57844.00
544.65	57815.91
544.82	57574.84
544.99	57511.64
545.16	57804.21
545.32	57726.97
545.49	58127.20
545.66	58155.29
545.83	57961.03
546.00	58225.51
546.16	57691.86
546.33	57808.89
546.50	57719.95
546.67	57968.05
546.83	57841.66
547.00	57949.32
547.17	58143.59
547.34	58143.59
547.50	58209.12
547.67	58499.35
547.84	58042.95
548.00	58576.59
548.17	58541.48
548.34	58452.54
548.51	58667.87
548.67	58684.25
548.84	58412.75
549.01	58375.30
549.18	58471.26
549.34	58539.14
549.51	58604.67
549.68	58522.76
549.84	58520.41
550.01	58660.85
550.18	58616.38
550.34	58850.43
550.51	58775.53
550.68	58681.91
550.84	58464.24
551.01	58864.47
551.18	58817.66
551.34	58796.60
551.51	58855.11
551.68	59049.38
551.84	58988.52
552.01	58777.87
552.18	58958.09
552.34	58944.05
552.51	59140.66
552.68	58815.32
552.84	58766.17
553.01	59283.43
553.18	59189.81
553.34	59117.25
553.51	59168.74
553.67	59140.66
553.84	59243.64
554.01	59140.66
554.17	59346.62
554.34	59395.77
554.51	59215.55
554.67	59400.46
554.84	59182.79
555.00	59433.22
555.17	59161.72
555.33	59112.57
555.50	59365.35
555.67	59253.00
555.83	59444.93
556.00	59262.36
556.16	59824.09
556.33	59496.42
556.50	59512.80
556.66	59564.29
556.83	59262.36
556.99	59688.34
557.16	59826.43
557.32	59758.56
557.49	59999.63
557.65	59655.57
557.82	59604.08
557.98	59634.51
558.15	59599.40
558.32	59772.60
558.48	59573.66
558.65	59620.47
558.81	59807.71
558.98	59751.54
559.14	59999.63
559.31	59800.69
559.47	60041.76
559.64	60161.13
559.80	60182.19
559.97	59889.63
560.13	59777.28
560.30	60081.55
560.46	59856.86
560.63	60044.10
560.79	60051.12
560.96	60250.07
561.12	60088.57
561.29	60006.65
561.45	60259.43
561.61	59990.27
561.78	60041.76
561.94	60137.72
562.11	59915.37
562.27	60236.03
562.44	60259.43
562.60	60238.37
562.77	60331.99
562.93	59990.27
563.10	60236.03
563.26	60184.54
563.42	60367.10
563.59	60324.97
563.75	60226.66
563.92	60418.59
564.08	60212.62
564.24	60561.36
564.41	60282.84
564.57	60355.39
564.74	60406.89
564.90	60362.42
565.07	60196.24
565.23	60430.29
565.39	60275.82
565.56	60580.09
565.72	60317.95
565.88	60580.09
566.05	60346.03
566.21	60498.17
566.38	60587.11
566.54	60640.94
566.70	60561.36
566.87	60804.78
567.03	60430.29
567.19	60839.89
567.36	60509.87
567.52	60580.09
567.68	60631.58
567.85	60584.77
568.01	60816.48
568.17	60526.25
568.34	60711.16
568.50	60610.51
568.66	60664.35
568.83	60652.64
568.99	60446.68
569.15	60594.13
569.32	60587.11
569.48	60694.77
569.64	60762.65
569.81	60743.92
569.97	60622.22
570.13	60835.20
570.30	60757.97
570.46	60690.09
570.62	60879.67
570.78	60835.20
570.95	60851.59
571.11	60933.51
571.27	60903.08
571.43	60844.57
571.60	61109.05
571.76	60947.55
571.92	60947.55
572.09	60856.27
572.25	60821.16
572.41	60750.94
572.57	60898.40
572.74	61015.43
572.90	61029.47
573.06	60795.42
573.22	60800.10
573.38	60837.54
573.55	60952.23
573.71	61139.47
573.87	60882.02
574.03	60804.78
574.20	61090.32
574.36	60856.27
574.52	60870.31
574.68	61029.47
574.84	61104.37
575.01	60980.32
575.17	61055.21
575.33	60956.91
575.49	60889.04
575.65	61097.34
575.82	61167.56
575.98	60874.99
576.14	61113.73
576.30	61078.62
576.46	61031.81
576.62	60973.30
576.79	61017.77
576.95	60903.08
577.11	61158.20
577.27	61134.79
577.43	61043.51
577.59	61029.47
577.75	61139.47
577.92	60938.19
578.08	61057.56
578.24	60949.89
578.40	61240.12
578.56	61240.12
578.72	61322.04
578.88	61186.28
579.04	61216.71
579.21	61190.97
579.37	61422.68
579.53	61382.89
579.69	61317.35
579.85	61130.11
580.01	61293.95
580.17	60832.86
580.33	61254.16
580.49	61277.57
580.65	61205.01
580.82	61006.06
580.98	61158.20
581.14	61017.77
581.30	61251.82
581.46	61102.03
581.62	61392.25
581.78	61254.16
581.94	61200.33
582.10	61130.11
582.26	61188.63
582.42	61197.99
582.58	61076.28
582.74	61315.01
582.90	61226.07
583.06	61188.63
583.22	61151.18
583.38	61263.52
583.54	61415.66
583.70	61359.48
583.86	61368.85
584.02	61010.74
584.18	61174.58
584.34	61169.90
584.50	61120.75
584.66	61087.98
584.82	61106.71
584.98	61450.77
585.14	61307.99
585.30	61127.77
585.46	61303.31
585.62	61333.74
585.78	61509.28
585.94	61109.05
586.10	61375.87
586.26	61188.63
586.42	61284.59
586.58	61265.86
586.74	61169.90
586.90	61221.39
587.06	61268.20
587.22	61371.19
587.38	61352.46
587.54	61303.31
587.70	61579.49
587.86	61410.98
588.02	61354.80
588.18	61425.02
588.34	61286.93
588.49	61310.33
