SpectraSuite Data File
++++++++++++++++++++++++++++++++++++
Date: Fri Oct 25 10:44:07 EDT 2013
User: price-jones
Dark Spectrum Present: No
Reference Spectrum Present: No
Number of Sampled Component Spectra: 1
Spectrometers: USB2+H05261
Integration Time (usec): 100000 (USB2+H05261)
Spectra Averaged: 1 (USB2+H05261)
Boxcar Smoothing: 0 (USB2+H05261)
Correct for Electrical Dark: No (USB2+H05261)
Strobe/Lamp Enabled: No (USB2+H05261)
Correct for Detector Non-linearity: No (USB2+H05261)
Correct for Stray Light: No (USB2+H05261)
Number of Pixels in Processed Spectrum: 2048
>>>>>Begin Processed Spectral Data<<<<<
365.73	135.75
365.92	135.75
366.12	135.75
366.32	51.49
366.52	79.58
366.72	100.64
366.91	0.00
367.11	0.00
367.31	14.04
367.51	60.85
367.70	46.81
367.90	51.49
368.10	14.04
368.30	14.04
368.49	9.36
368.69	39.79
368.89	44.47
369.09	51.49
369.28	35.11
369.48	65.54
369.68	32.77
369.87	100.64
370.07	121.71
370.27	168.52
370.47	175.54
370.66	334.70
370.86	425.98
371.06	540.66
371.25	557.05
371.45	468.11
371.65	475.13
371.84	514.92
372.04	444.70
372.24	528.96
372.44	482.15
372.63	491.51
372.83	407.25
373.03	456.40
373.22	514.92
373.42	440.02
373.62	524.28
373.81	500.87
374.01	547.69
374.21	608.54
374.40	629.60
374.60	538.32
374.79	601.52
374.99	559.39
375.19	545.34
375.38	500.87
375.58	601.52
375.78	589.82
375.97	554.71
376.17	636.63
376.37	613.22
376.56	674.07
376.76	571.09
376.95	559.39
377.15	667.05
377.35	620.24
377.54	645.99
377.74	645.99
377.93	716.20
378.13	720.88
378.33	732.59
378.52	683.44
378.72	695.14
378.91	631.94
379.11	688.12
379.31	620.24
379.50	697.48
379.70	702.16
379.89	594.50
380.09	709.18
380.28	599.18
380.48	641.31
380.68	727.91
380.87	653.01
381.07	685.78
381.26	716.20
381.46	702.16
381.65	699.82
381.85	753.65
382.04	727.91
382.24	678.76
382.43	704.50
382.63	669.39
382.83	772.38
383.02	763.01
383.22	706.84
383.41	758.33
383.61	718.54
383.80	676.41
384.00	716.20
384.19	725.57
384.39	718.54
384.58	774.72
384.78	812.17
384.97	856.64
385.17	770.04
385.36	793.44
385.56	805.14
385.75	844.93
385.95	805.14
386.14	814.51
386.34	753.65
386.53	802.80
386.72	854.30
386.92	924.51
387.11	882.38
387.31	908.13
387.50	926.85
387.70	905.79
387.89	882.38
388.09	802.80
388.28	898.77
388.48	891.74
388.67	1055.58
388.86	950.26
389.06	966.64
389.25	999.41
389.45	922.17
389.64	931.53
389.84	1001.75
390.03	997.07
390.22	959.62
390.42	954.94
390.61	961.96
390.81	1074.31
391.00	1064.94
391.19	1043.88
391.39	1036.86
391.58	1036.86
391.78	1011.11
391.97	1022.81
392.16	999.41
392.36	1020.47
392.55	1043.88
392.75	1029.84
392.94	950.26
393.13	983.02
393.33	980.68
393.52	1011.11
393.71	1090.69
393.91	1025.15
394.10	1015.79
394.29	1142.18
394.49	1128.14
394.68	1163.25
394.88	1116.44
395.07	1203.04
395.26	1226.44
395.46	1186.65
395.65	1156.22
395.84	1219.42
396.04	1158.57
396.23	1242.82
396.42	1153.88
396.62	1153.88
396.81	1261.55
397.00	1287.29
397.19	1270.91
397.39	1268.57
397.58	1345.81
397.77	1348.15
397.97	1334.11
398.16	1336.45
398.35	1455.81
398.55	1497.94
398.74	1418.36
398.93	1526.03
399.12	1453.47
399.32	1563.48
399.51	1537.73
399.70	1589.22
399.90	1540.07
400.09	1664.12
400.28	1575.18
400.47	1577.52
400.67	1650.08
400.86	1682.85
401.05	1617.31
401.24	1678.16
401.44	1694.55
401.63	1795.19
401.82	1600.93
402.01	1713.27
402.21	1720.29
402.40	1673.48
402.59	1689.87
402.78	1743.70
402.97	1790.51
403.17	1856.04
403.36	1795.19
403.55	1699.23
403.74	1804.55
403.93	1851.36
404.13	1755.40
404.32	1832.64
404.51	1846.68
404.70	1891.15
404.89	1919.24
405.09	1916.90
405.28	1949.67
405.47	1902.86
405.66	1944.99
405.85	2001.16
406.05	1942.64
406.24	1933.28
406.43	1989.46
406.62	2005.84
406.81	2160.31
407.00	2083.08
407.20	1975.41
407.39	2080.74
407.58	2244.57
407.77	2122.87
407.96	2218.83
408.15	2176.70
408.34	2237.55
408.54	2277.34
408.73	2179.04
408.92	2331.17
409.11	2235.21
409.30	2244.57
409.49	2193.08
409.68	2275.00
409.87	2282.02
410.07	2328.83
410.26	2380.32
410.45	2406.07
410.64	2406.07
410.83	2434.16
411.02	2539.48
411.21	2597.99
411.40	2558.21
411.59	2670.55
411.78	2628.42
411.98	2516.08
412.17	2600.34
412.36	2649.49
412.55	2703.32
412.74	2586.29
412.93	2757.15
413.12	2750.13
413.31	2857.79
413.50	2757.15
413.69	2935.03
413.88	2906.95
414.07	2906.95
414.26	2841.41
414.45	2958.44
414.64	2935.03
414.83	2925.67
415.02	3007.59
415.22	3108.23
415.41	2963.12
415.60	3143.34
415.79	3183.13
415.98	3295.47
416.17	3194.83
416.36	3162.06
416.55	3232.28
416.74	3251.00
416.93	3178.45
417.12	3269.73
417.31	3314.20
417.50	3260.37
417.69	3426.54
417.88	3337.60
418.07	3368.03
418.26	3316.54
418.45	3445.27
418.64	3597.40
418.83	3559.95
419.02	3513.14
419.21	3646.55
419.39	3487.40
419.58	3517.83
419.77	3541.23
419.96	3590.38
420.15	3627.83
420.34	3606.77
420.53	3681.66
420.72	3824.44
420.91	3801.03
421.10	3801.03
421.29	3978.91
421.48	3758.90
421.67	3843.16
421.86	3742.52
422.05	3595.06
422.24	3836.14
422.43	3777.62
422.61	3819.75
422.80	3878.27
422.99	4021.04
423.18	3943.80
423.37	3920.40
423.56	3962.53
423.75	3946.14
423.94	3950.82
424.13	3618.47
424.32	3899.33
424.50	3957.85
424.69	4028.06
424.88	4023.38
425.07	3896.99
425.26	3880.61
425.45	3932.10
425.64	3988.27
425.83	4065.51
426.01	3936.78
426.20	3929.76
426.39	3943.80
426.58	4009.34
426.77	3906.35
426.96	3953.16
427.15	3880.61
427.33	4004.66
427.52	4030.40
427.71	4219.99
427.90	4004.66
428.09	4189.56
428.28	4100.62
428.46	4072.53
428.65	4053.81
428.84	4222.33
429.03	4255.09
429.22	4077.21
429.40	4159.13
429.59	4109.98
429.78	4004.66
429.97	3946.14
430.16	4065.51
430.34	4210.62
430.53	4121.68
430.72	4060.83
430.91	4236.37
431.10	4294.88
431.28	4561.70
431.47	4610.86
431.66	4744.27
431.85	4514.89
432.03	4489.15
432.22	4638.94
432.41	4550.00
432.60	4678.73
432.79	4716.18
432.97	4758.31
433.16	4795.76
433.35	4652.98
433.54	4751.29
433.72	4699.80
433.91	4697.46
434.10	4704.48
434.28	4816.82
434.47	4896.40
434.66	4681.07
434.85	4889.38
435.03	4903.42
435.22	4971.30
435.41	5029.81
435.59	4945.55
435.78	5013.43
435.97	5081.30
436.16	4999.38
436.34	5132.79
436.53	5205.35
436.72	5184.29
436.90	4931.51
437.09	5039.17
437.28	5083.64
437.46	5050.88
437.65	5057.90
437.84	5151.52
438.02	5036.83
438.21	5078.96
438.40	5123.43
438.58	5479.19
438.77	5504.94
438.96	5357.49
439.14	5411.32
439.33	5448.77
439.52	5680.48
439.70	5586.86
439.89	5724.95
440.08	5738.99
440.26	5675.80
440.45	5694.52
440.63	5753.04
440.82	5991.77
441.01	5832.62
441.19	6071.35
441.38	5895.81
441.57	6047.94
441.75	6113.48
441.94	6228.17
442.12	6260.93
442.31	6401.37
442.50	6237.53
442.68	6277.32
442.87	6263.27
443.05	6221.14
443.24	6562.86
443.43	6202.42
443.61	6438.81
443.80	6665.85
443.98	6457.54
444.17	6146.25
444.35	6623.72
444.54	6516.05
444.73	6621.38
444.91	6370.94
445.10	6511.37
445.28	6401.37
445.47	6413.07
445.65	6387.32
445.84	6506.69
446.02	6586.27
446.21	6506.69
446.39	6523.07
446.58	6478.60
446.77	6637.76
446.95	6452.86
447.14	6628.40
447.32	6794.58
447.51	6604.99
447.69	6642.44
447.88	6761.81
448.06	6668.19
448.25	6644.78
448.43	6700.95
448.62	6740.74
448.80	6780.53
448.99	6754.79
449.17	6813.30
449.36	6670.53
449.54	7030.97
449.73	7066.08
449.91	7138.63
450.10	7012.24
450.28	7007.56
450.46	7016.93
450.65	7054.37
450.83	7087.14
451.02	7089.48
451.20	7131.61
451.39	7016.93
451.57	7115.23
451.76	7126.93
451.94	7178.42
452.13	7159.70
452.31	7068.42
452.49	6998.20
452.68	7211.19
452.86	7236.94
453.05	7269.70
453.23	7307.15
453.42	7239.28
453.60	7358.64
453.78	7492.05
453.97	7232.26
454.15	7473.33
454.34	7169.06
454.52	7494.40
454.70	7353.96
454.89	7463.97
455.07	7368.01
455.26	7548.23
455.44	7564.61
455.62	7625.47
455.81	7620.78
455.99	7655.89
456.17	7950.80
456.36	7775.26
456.54	7840.79
456.73	7864.20
456.91	8018.68
457.09	7976.55
457.28	8187.19
457.46	8072.51
457.64	8259.75
457.83	7985.91
458.01	8049.10
458.19	8182.51
458.38	8126.34
458.56	8287.84
458.74	8271.45
458.93	8212.94
459.11	8315.92
459.29	8278.47
459.48	8042.08
459.66	8156.77
459.84	8264.43
460.03	8477.42
460.21	8489.12
460.39	8439.97
460.57	8500.83
460.76	8617.85
460.94	8833.18
461.12	8552.32
461.31	8716.16
461.49	8624.87
461.67	8381.46
461.85	8877.65
462.04	8678.71
462.22	9444.06
462.40	8889.35
462.59	8706.79
462.77	8613.17
462.95	8863.61
463.13	8835.52
463.32	8912.76
463.50	8863.61
463.68	8854.25
463.86	8840.20
464.05	8908.08
464.23	8844.88
464.41	8954.89
464.59	8702.11
464.78	8997.02
464.96	9312.99
465.14	8961.91
465.32	9092.98
465.50	9146.81
465.69	9341.08
465.87	9254.48
466.05	9256.82
466.23	9135.11
466.41	9296.61
466.60	9163.20
466.78	8940.85
466.96	8929.14
467.14	9235.75
467.32	9453.42
467.51	9509.60
467.69	9301.29
467.87	9296.61
468.05	9486.19
468.23	9301.29
468.41	9327.03
468.60	9364.48
468.78	9500.23
468.96	9423.00
469.14	9696.84
469.32	9600.88
469.50	9633.64
469.69	9856.00
469.87	9689.82
470.05	9717.90
470.23	9675.77
470.41	9994.09
470.59	9947.28
470.77	9666.41
470.95	9668.75
471.14	10125.16
471.32	10169.63
471.50	10270.27
471.68	10178.99
471.86	10427.09
472.04	10244.52
472.22	10382.62
472.40	10197.71
472.58	10366.23
472.77	10366.23
472.95	10555.82
473.13	10885.83
473.31	10494.96
473.49	10555.82
473.67	10548.79
473.85	10670.50
474.03	10965.41
474.21	10998.18
474.39	10949.03
474.57	10939.66
474.75	11033.29
474.93	11365.64
475.12	10972.43
475.30	11180.74
475.48	11014.56
475.66	11389.05
475.84	11286.06
476.02	11480.33
476.20	11248.61
476.38	11428.84
476.56	11573.95
476.74	11857.15
476.92	11791.62
477.10	11896.94
477.28	12163.76
477.46	11995.25
477.64	12203.55
477.82	12255.04
478.00	12505.48
478.18	12564.00
478.36	12376.75
478.54	12641.23
478.72	12711.45
478.90	12912.74
479.08	12929.12
479.26	13064.87
479.44	13095.30
479.62	13247.43
479.80	13078.91
479.98	13455.74
480.16	13905.12
480.34	13488.51
480.52	13980.02
480.70	13479.15
480.88	13654.69
481.06	13944.91
481.24	14059.60
481.41	14054.92
481.59	14370.89
481.77	14235.14
481.95	14436.42
482.13	14614.30
482.31	14523.02
482.49	14576.86
482.67	14925.60
482.85	14958.36
483.03	15239.23
483.21	15201.78
483.39	15389.02
483.57	15337.53
483.74	15562.22
483.92	15360.94
484.10	15379.66
484.28	15756.49
484.46	16088.84
484.64	16290.13
484.82	15854.79
485.00	16142.67
485.18	16470.35
485.35	16594.40
485.53	16009.26
485.71	16245.66
485.89	16257.36
486.07	16226.93
486.25	16430.56
486.43	16655.25
486.61	16971.22
486.78	17018.04
486.96	17614.87
487.14	17582.10
487.32	17675.73
487.50	18068.94
487.68	18036.17
487.85	18349.80
488.03	18438.74
488.21	18422.36
488.39	18640.03
488.57	18485.55
488.75	18572.15
488.92	18930.25
489.10	19351.55
489.28	19496.66
489.46	19536.45
489.64	19246.23
489.81	20255.00
489.99	19831.36
490.17	20091.16
490.35	20346.28
490.53	20016.26
490.70	20360.32
490.88	20627.14
491.06	20702.04
491.24	20863.54
491.41	20798.00
491.59	20786.30
491.77	20933.75
491.95	20898.64
492.13	21207.59
492.30	21160.78
492.48	21876.99
492.66	21900.39
492.84	21846.56
493.01	22300.62
493.19	22087.64
493.37	22391.91
493.54	22178.92
493.72	22616.60
493.90	22810.86
494.08	22862.35
494.25	22878.74
494.43	23384.29
494.61	23573.88
494.79	23435.78
494.96	23044.91
495.14	23281.31
495.32	23676.86
495.49	23810.27
495.67	23524.72
495.85	23946.02
496.02	24353.27
496.20	24074.75
496.38	24369.66
496.55	24505.41
496.73	24758.19
496.91	24788.61
497.09	24917.34
497.26	25060.12
497.44	24893.94
497.62	24957.13
497.79	25191.19
497.97	24968.84
498.14	25291.83
498.32	25525.88
498.50	25848.88
498.67	26001.01
498.85	25900.37
499.03	26103.99
499.20	26134.42
499.38	26183.57
499.56	26307.62
499.73	26263.15
499.91	26497.20
500.08	26796.79
500.26	26139.10
500.44	26874.03
500.61	26850.63
500.79	26752.32
500.97	26766.37
501.14	27080.00
501.32	26862.33
501.49	26749.98
501.67	27075.32
501.84	27220.43
502.02	27211.07
502.20	27580.87
502.37	27421.72
502.55	28020.89
502.72	27936.63
502.90	27791.52
503.07	27938.97
503.25	28041.96
503.43	28208.14
503.60	27995.15
503.78	27992.81
503.95	28439.85
504.13	28484.32
504.30	28538.15
504.48	28678.58
504.65	28835.40
504.83	28884.55
505.01	29111.58
505.18	28994.56
505.36	29392.45
505.53	29329.25
505.71	29556.28
505.88	29479.05
506.06	29106.90
506.23	29429.90
506.41	29305.85
506.58	29720.12
506.76	30103.97
506.93	30101.63
507.11	29558.63
507.28	30071.20
507.46	30281.85
507.63	30153.12
507.81	29795.02
507.98	30078.22
508.16	30155.46
508.33	30625.91
508.50	30579.10
508.68	31044.87
508.85	31288.28
509.03	30937.20
509.20	31000.40
509.38	31218.07
509.55	31098.70
509.73	31290.62
509.90	31108.06
510.08	31180.62
510.25	31154.87
510.42	31419.35
510.60	32130.87
510.77	31615.96
510.95	31969.38
511.12	31566.81
511.30	32112.15
511.47	32271.31
511.64	32486.64
511.82	32460.89
511.99	32350.88
512.17	32334.50
512.34	31920.23
512.51	32627.07
512.69	32617.71
512.86	32545.15
513.04	32961.76
513.21	32435.14
513.38	32950.06
513.56	32786.22
513.73	32699.62
513.90	32947.72
514.08	32896.23
514.25	33862.87
514.43	33343.27
514.60	33216.88
514.77	33118.58
514.95	33219.22
515.12	33563.28
515.29	33434.55
515.47	33937.77
515.64	33881.60
515.81	33937.77
515.99	33860.53
516.16	33647.54
516.33	33670.95
516.51	34043.09
516.68	33053.05
516.85	33315.19
517.03	33336.25
517.20	33935.43
517.37	34349.70
517.54	34593.12
517.72	34445.66
517.89	33900.32
518.06	33921.38
518.24	34604.82
518.41	34143.74
518.58	34356.72
518.75	34792.06
518.93	34958.24
519.10	34653.97
519.27	34864.62
519.45	35262.51
519.62	34955.90
519.79	35133.78
519.96	35576.14
520.14	35613.59
520.31	35374.86
520.48	35571.46
520.65	35503.59
520.83	35543.38
521.00	35885.09
521.17	35861.69
521.34	36126.17
521.52	35969.35
521.69	36297.03
521.86	36325.11
522.03	36210.43
522.20	36151.91
522.38	36238.51
522.55	36526.40
522.72	36425.76
522.89	36259.58
523.07	36521.72
523.24	36383.63
523.41	36975.78
523.58	36840.03
523.75	37570.28
523.92	37340.91
524.10	37055.36
524.27	37315.16
524.44	37228.56
524.61	37235.58
524.78	37228.56
524.96	37371.33
525.13	37347.93
525.30	37764.54
525.47	37422.83
525.64	37469.64
525.81	37610.07
525.98	37652.20
526.16	37324.52
526.33	37151.32
526.50	37860.51
526.67	36851.73
526.84	37600.71
527.01	37378.36
527.18	37701.35
527.36	38080.52
527.53	38181.16
527.70	38429.26
527.87	38265.42
528.04	38199.88
528.21	38375.42
528.38	38902.04
528.55	38677.35
528.72	38738.21
528.89	38888.00
529.07	38726.50
529.24	38569.69
529.41	38770.97
529.58	38843.53
529.75	38707.78
529.92	39108.01
530.09	39054.18
530.26	39122.05
530.43	39627.61
530.60	39082.27
530.77	39213.34
530.94	39480.16
531.11	39454.41
531.28	39480.16
531.46	39220.36
531.63	39466.11
531.80	39171.21
531.97	39302.28
532.14	39402.92
532.31	39236.74
532.48	39541.01
532.65	39854.64
532.82	39189.93
532.99	39679.10
533.16	39363.13
533.33	39782.09
533.50	40179.98
533.67	40161.25
533.84	39864.00
534.01	39941.24
534.18	40044.23
534.35	40421.05
534.52	40165.93
534.69	40460.84
534.86	40142.53
535.03	40357.86
535.20	40540.42
535.37	40601.27
535.54	40966.40
535.71	40713.62
535.88	40692.55
536.05	40734.68
536.22	40620.00
536.38	40737.02
536.55	40884.48
536.72	40627.02
536.89	40409.35
537.06	40699.58
537.23	41172.36
537.40	40832.99
537.57	41003.85
537.74	41067.04
537.91	41045.97
538.08	41610.04
538.25	40959.38
538.42	41427.48
538.59	41273.01
538.75	40863.41
538.92	40966.40
539.09	41680.26
539.26	40886.82
539.43	41294.07
539.60	41542.17
539.77	40811.92
539.94	41755.16
540.11	41158.32
540.28	41237.90
540.44	41565.57
540.61	41165.34
540.78	41371.31
540.95	41556.21
541.12	41408.76
541.29	41160.66
541.46	41698.98
541.62	42043.04
541.79	42014.96
541.96	41429.82
542.13	41722.39
542.30	42010.28
542.47	41703.67
542.63	42246.67
542.80	42131.98
542.97	42391.78
543.14	42220.92
543.31	42518.17
543.48	43077.56
543.64	43136.07
543.81	43278.85
543.98	42466.68
544.15	42380.08
544.32	42941.81
544.48	42895.00
544.65	43091.60
544.82	43112.67
544.99	42553.28
545.16	43297.57
545.32	42663.28
545.49	43311.61
545.66	43306.93
545.83	43480.13
546.00	43449.70
546.16	43239.06
546.33	42726.48
546.50	43152.46
546.67	43086.92
546.83	42983.94
547.00	43234.38
547.17	43505.88
547.34	43217.99
547.50	43068.20
547.67	43686.10
547.84	43318.64
548.00	43311.61
548.17	43892.07
548.34	43636.95
548.51	44311.02
548.67	43426.30
548.84	43819.51
549.01	43704.82
549.18	43749.29
549.34	43463.75
549.51	43945.90
549.68	43948.24
549.84	43594.82
550.01	44339.11
550.18	44062.93
550.34	43807.81
550.51	44037.18
550.68	43976.33
550.84	43709.50
551.01	44208.04
551.18	44142.50
551.34	43959.94
551.51	44189.31
551.68	44341.45
551.84	44605.93
552.01	44208.04
552.18	44432.73
552.34	44439.75
552.51	44332.09
552.68	44219.74
552.84	44395.28
553.01	44751.04
553.18	44332.09
553.34	44744.02
553.51	43938.88
553.67	44430.39
553.84	45015.52
554.01	44446.77
554.17	44751.04
554.34	44540.39
554.51	44753.38
554.67	44896.16
554.84	45361.92
555.00	44332.09
555.17	44629.34
555.33	44797.85
555.50	44402.30
555.67	44804.88
555.83	44839.98
556.00	44781.47
556.16	45382.99
556.33	44526.35
556.50	44692.53
556.66	45223.83
556.83	44786.15
556.99	44809.56
557.16	45008.50
557.32	45193.40
557.49	45272.98
557.65	44767.43
557.82	45354.90
557.98	45272.98
558.15	45090.42
558.32	44825.94
558.48	44900.84
558.65	45167.66
558.81	45181.70
558.98	45083.40
559.14	45268.30
559.31	44919.56
559.47	44928.92
559.64	45031.91
559.80	45743.43
559.97	45104.46
560.13	44933.60
560.30	45106.80
560.46	45179.36
560.63	45551.51
560.79	45691.94
560.96	45537.46
561.12	45823.01
561.29	45200.43
561.45	45223.83
561.61	45387.67
561.78	45392.35
561.94	45312.77
562.11	44905.52
562.27	45165.32
562.44	45626.40
562.60	46094.51
562.77	45633.42
562.93	45605.34
563.10	45425.12
563.26	45329.16
563.42	45455.54
563.59	45282.34
563.75	45504.70
563.92	45476.61
564.08	45713.00
564.24	45715.34
564.41	46241.96
564.57	45495.33
564.74	45581.93
564.90	45968.12
565.07	45511.72
565.23	45462.57
565.39	45619.38
565.56	45511.72
565.72	45385.33
565.88	45418.10
566.05	45680.24
566.21	45752.79
566.38	45507.04
566.54	45872.16
566.70	46092.17
566.87	45815.99
567.03	45874.50
567.19	46115.58
567.36	46021.95
567.52	45617.04
567.68	46054.72
567.85	45603.00
568.01	45968.12
568.17	45598.32
568.34	46031.32
568.50	45815.99
568.66	46005.57
568.83	46239.62
568.99	45577.25
569.15	45673.21
569.32	45806.62
569.48	45759.81
569.64	45705.98
569.81	46122.60
569.97	45738.75
570.13	45717.68
570.30	45588.95
570.46	45530.44
570.62	45404.05
570.78	45556.19
570.95	45867.48
571.11	46064.08
571.27	45336.18
571.43	45612.36
571.60	46096.85
571.76	46036.00
571.92	45848.75
572.09	45928.33
572.25	45815.99
572.41	46146.00
572.57	45904.93
572.74	46234.94
572.90	46005.57
573.06	46124.94
573.22	46038.34
573.38	46330.90
573.55	46052.38
573.71	45986.85
573.87	46066.42
574.03	45734.07
574.20	45977.48
574.36	45727.05
574.52	45944.72
574.68	45986.85
574.84	46010.25
575.01	46036.00
575.17	46272.39
575.33	45750.45
575.49	45633.42
575.65	46110.89
575.82	46057.06
575.98	46181.11
576.14	46143.66
576.30	46263.03
576.46	45956.42
576.62	46330.90
576.79	45993.87
576.95	45663.85
577.11	46000.89
577.27	46047.70
577.43	46150.68
577.59	46183.45
577.75	45801.94
577.92	45549.17
578.08	45771.52
578.24	45834.71
578.40	46115.58
578.56	45970.46
578.72	46550.91
578.88	46499.42
579.04	46110.89
579.21	46197.49
579.37	46157.70
579.53	46094.51
579.69	46017.27
579.85	46162.39
580.01	46040.68
580.17	46059.40
580.33	46181.11
580.49	46122.60
580.65	46272.39
580.82	46227.92
580.98	46064.08
581.14	45764.49
581.30	46138.98
581.46	46410.48
581.62	46377.72
581.78	46307.50
581.94	46501.76
582.10	46368.35
582.26	46782.63
582.42	46293.46
582.58	45862.80
582.74	46398.78
582.90	46167.07
583.06	46171.75
583.22	46457.29
583.38	46597.73
583.54	46827.10
583.70	46307.50
583.86	46726.46
584.02	45830.03
584.18	46464.32
584.34	45937.69
584.50	45888.54
584.66	46291.12
584.82	45893.22
584.98	46529.85
585.14	46574.32
585.30	46028.98
585.46	46136.64
585.62	45759.81
585.78	45958.76
585.94	45823.01
586.10	46267.71
586.26	46138.98
586.42	46321.54
586.58	46656.24
586.74	46272.39
586.90	46045.36
587.06	45937.69
587.22	46064.08
587.38	46106.21
587.54	46237.28
587.70	46403.46
587.86	46003.23
588.02	46190.47
588.18	46389.42
588.34	46127.28
588.49	45834.71
588.65	45558.53
588.81	45612.36
588.97	45787.90
589.13	45818.33
589.29	46000.89
589.45	46129.62
589.61	46684.33
589.77	46131.96
589.93	46485.38
