SpectraSuite Data File
++++++++++++++++++++++++++++++++++++
Date: Fri Oct 25 11:26:02 EDT 2013
User: price-jones
Dark Spectrum Present: No
Reference Spectrum Present: No
Number of Sampled Component Spectra: 1
Spectrometers: USB2+H05261
Integration Time (usec): 100000 (USB2+H05261)
Spectra Averaged: 1 (USB2+H05261)
Boxcar Smoothing: 0 (USB2+H05261)
Correct for Electrical Dark: No (USB2+H05261)
Strobe/Lamp Enabled: No (USB2+H05261)
Correct for Detector Non-linearity: No (USB2+H05261)
Correct for Stray Light: No (USB2+H05261)
Number of Pixels in Processed Spectrum: 2048
>>>>>Begin Processed Spectral Data<<<<<
365.73	264.48
365.92	264.48
366.12	264.48
366.32	196.60
366.52	161.50
366.72	203.63
366.91	128.73
367.11	159.16
367.31	67.88
367.51	156.82
367.70	39.79
367.90	220.01
368.10	191.92
368.30	156.82
368.49	114.69
368.69	205.97
368.89	173.20
369.09	128.73
369.28	140.43
369.48	191.92
369.68	168.52
369.87	212.99
370.07	224.69
370.27	222.35
370.47	250.44
370.66	528.96
370.86	573.43
371.06	660.03
371.25	716.20
371.45	638.97
371.65	648.33
371.84	660.03
372.04	737.27
372.24	709.18
372.44	704.50
372.63	685.78
372.83	821.53
373.03	763.01
373.22	835.57
373.42	763.01
373.62	777.06
373.81	842.59
374.01	858.98
374.21	835.57
374.40	791.10
374.60	798.12
374.79	760.67
374.99	833.23
375.19	894.08
375.38	819.19
375.58	842.59
375.78	976.00
375.97	919.83
376.17	873.02
376.37	828.55
376.56	929.19
376.76	849.61
376.95	877.70
377.15	973.66
377.35	896.43
377.54	826.21
377.74	905.79
377.93	959.62
378.13	887.06
378.33	997.07
378.52	912.81
378.72	1008.77
378.91	980.68
379.11	950.26
379.31	945.58
379.50	1069.62
379.70	971.32
379.89	931.53
380.09	940.90
380.28	1050.90
380.48	945.58
380.68	1013.45
380.87	976.00
381.07	980.68
381.26	1062.60
381.46	1020.47
381.65	1006.43
381.85	1081.33
382.04	1076.65
382.24	1179.63
382.43	1067.28
382.63	1102.39
382.83	1111.75
383.02	1081.33
383.22	1111.75
383.41	1118.78
383.61	1062.60
383.80	1067.28
384.00	1125.80
384.19	1069.62
384.39	1095.37
384.58	1050.90
384.78	1184.31
384.97	1193.67
385.17	1177.29
385.36	1149.20
385.56	1184.31
385.75	1291.98
385.95	1188.99
386.14	1228.78
386.34	1224.10
386.53	1238.14
386.72	1210.06
386.92	1259.21
387.11	1165.59
387.31	1151.54
387.50	1287.29
387.70	1245.16
387.89	1336.45
388.09	1249.85
388.28	1357.51
388.48	1268.57
388.67	1273.25
388.86	1282.61
389.06	1284.95
389.25	1341.13
389.45	1369.21
389.64	1399.64
389.84	1362.19
390.03	1315.38
390.22	1448.79
390.42	1341.13
390.61	1268.57
390.81	1406.66
391.00	1516.67
391.19	1416.02
391.39	1348.15
391.58	1411.34
391.78	1430.07
391.97	1528.37
392.16	1495.60
392.36	1528.37
392.55	1547.09
392.75	1500.28
392.94	1495.60
393.13	1479.22
393.33	1514.33
393.52	1500.28
393.71	1624.33
393.91	1554.12
394.10	1617.31
394.29	1717.95
394.49	1582.20
394.68	1666.46
394.88	1624.33
395.07	1610.29
395.26	1757.74
395.46	1710.93
395.65	1682.85
395.84	1701.57
396.04	1753.06
396.23	1732.00
396.42	1832.64
396.62	1715.61
396.81	1832.64
397.00	1858.39
397.19	1788.17
397.39	1909.88
397.58	1769.44
397.77	1888.81
397.97	1809.23
398.16	1781.15
398.35	1853.70
398.55	1832.64
398.74	1898.17
398.93	2050.31
399.12	1921.58
399.32	1982.43
399.51	2017.54
399.70	1959.03
399.90	1877.11
400.09	2038.61
400.28	2038.61
400.47	1977.75
400.67	2050.31
400.86	2031.58
401.05	2080.74
401.24	2108.82
401.44	2073.71
401.63	2148.61
401.82	2174.36
402.01	2090.10
402.21	2162.66
402.40	2153.29
402.59	2232.87
402.78	2225.85
402.97	2113.50
403.17	2179.04
403.36	2181.38
403.55	2286.70
403.74	2429.48
403.93	2333.51
404.13	2349.90
404.32	2399.05
404.51	2263.30
404.70	2417.77
404.89	2464.58
405.09	2366.28
405.28	2408.41
405.47	2443.52
405.66	2455.22
405.85	2492.67
406.05	2516.08
406.24	2656.51
406.43	2495.01
406.62	2656.51
406.81	2647.15
407.00	2691.62
407.20	2621.40
407.39	2661.19
407.58	2708.00
407.77	2696.30
407.96	2848.43
408.15	2708.00
408.34	2757.15
408.54	2778.22
408.73	2841.41
408.92	2841.41
409.11	2825.03
409.30	2888.22
409.49	3049.72
409.68	2864.82
409.87	2960.78
410.07	3035.67
410.26	3056.74
410.45	3112.91
410.64	2984.18
410.83	3239.30
411.02	3084.83
411.21	3253.34
411.40	3150.36
411.59	3187.81
411.78	3169.09
411.98	3274.41
412.17	3101.21
412.36	3353.99
412.55	3375.05
412.74	3293.13
412.93	3365.69
413.12	3239.30
413.31	3658.26
413.50	3538.89
413.69	3499.10
413.88	3646.55
414.07	3515.48
414.26	3595.06
414.45	3585.70
414.64	3691.02
414.83	3763.58
415.02	3728.47
415.22	3796.35
415.41	3726.13
415.60	3845.50
415.79	3777.62
415.98	3857.20
416.17	3929.76
416.36	3878.27
416.55	4053.81
416.74	4102.96
416.93	4079.55
417.12	4081.89
417.31	4184.88
417.50	4201.26
417.69	4423.61
417.88	4255.09
418.07	4224.67
418.26	4299.56
418.45	4407.23
418.64	4479.79
418.83	4454.04
419.02	4411.91
419.21	4510.21
419.39	4493.83
419.58	4582.77
419.77	4477.44
419.96	4512.55
420.15	4648.30
420.34	4533.62
420.53	4676.39
420.72	4755.97
420.91	4493.83
421.10	4737.24
421.29	4952.57
421.48	4720.86
421.67	4737.24
421.86	4868.31
422.05	4865.97
422.24	4863.63
422.43	4943.21
422.61	5057.90
422.80	4929.17
422.99	4851.93
423.18	4938.53
423.37	5022.79
423.56	4938.53
423.75	5116.41
423.94	4887.04
424.13	4641.28
424.32	4805.12
424.50	4891.72
424.69	5226.42
424.88	5046.20
425.07	4950.23
425.26	4854.27
425.45	4847.25
425.64	4975.98
425.83	4889.38
426.01	5069.60
426.20	5095.35
426.39	5139.82
426.58	4968.96
426.77	4975.98
426.96	5071.94
427.15	5071.94
427.33	5270.89
427.52	5095.35
427.71	5324.72
427.90	5139.82
428.09	5401.96
428.28	5479.19
428.46	5481.53
428.65	5294.29
428.84	5591.54
429.03	5619.63
429.22	5277.91
429.40	5465.15
429.59	5575.16
429.78	5322.38
429.97	5298.97
430.16	5540.05
430.34	5628.99
430.53	5757.72
430.72	5661.76
430.91	5731.97
431.10	5497.92
431.28	5647.71
431.47	5746.02
431.66	5692.18
431.85	5839.64
432.03	5930.92
432.22	5975.39
432.41	5947.30
432.60	6017.52
432.79	5886.45
432.97	5863.04
433.16	5994.11
433.35	6085.39
433.54	6038.58
433.72	6085.39
433.91	5987.09
434.10	6099.44
434.28	6136.88
434.47	6340.51
434.66	6356.90
434.85	6424.77
435.03	6361.58
435.22	6380.30
435.41	6471.58
435.59	6356.90
435.78	6345.19
435.97	6471.58
436.16	6455.20
436.34	6506.69
436.53	6623.72
436.72	6558.18
436.90	6352.21
437.09	6579.25
437.28	6314.77
437.46	6754.79
437.65	6773.51
437.84	6848.41
438.02	6815.64
438.21	6654.14
438.40	6609.67
438.58	7000.54
438.77	7183.10
438.96	6904.58
439.14	7068.42
439.33	7148.00
439.52	7138.63
439.70	7272.04
439.89	7337.58
440.08	7349.28
440.26	7297.79
440.45	7520.14
440.63	7370.35
440.82	7695.68
441.01	7562.27
441.19	7581.00
441.38	7363.33
441.57	7829.09
441.75	7852.50
441.94	7887.61
442.12	7962.50
442.31	7927.39
442.50	7992.93
442.68	8013.99
442.87	8093.57
443.05	8217.62
443.24	8170.81
443.43	8049.10
443.61	8266.77
443.80	8524.23
443.98	8133.36
444.17	7826.75
444.35	8278.47
444.54	8339.33
444.73	8121.66
444.91	8315.92
445.10	8248.05
445.28	8475.08
445.47	8353.37
445.65	8224.64
445.84	8571.04
446.02	8407.20
446.21	8479.76
446.39	8138.04
446.58	8351.03
446.77	8374.44
446.95	8306.56
447.14	8402.52
447.32	8578.06
447.51	8655.30
447.69	8580.40
447.88	8547.64
448.06	8793.39
448.25	8456.36
448.43	8571.04
448.62	8557.00
448.80	8421.25
448.99	8491.46
449.17	8617.85
449.36	8662.32
449.54	8638.92
449.73	8865.95
449.91	9174.90
450.10	9020.42
450.28	8889.35
450.46	9088.30
450.65	9053.19
450.83	9303.63
451.02	8889.35
451.20	9217.03
451.39	9205.33
451.57	8985.32
451.76	9095.32
451.94	9186.60
452.13	9350.44
452.31	9411.29
452.49	9018.08
452.68	9483.85
452.86	9273.20
453.05	9296.61
453.23	9474.49
453.42	9259.16
453.60	9362.14
453.78	9462.79
453.97	9455.76
454.15	9605.56
454.34	9397.25
454.52	9792.80
454.70	9841.95
454.89	9675.77
455.07	9846.63
455.26	9600.88
455.44	9940.26
455.62	9785.78
455.81	9706.20
455.99	10003.45
456.17	10090.05
456.36	10080.69
456.54	10094.73
456.73	10317.08
456.91	10429.43
457.09	10415.38
457.28	10565.18
457.46	10450.49
457.64	10579.22
457.83	10581.56
458.01	10303.04
458.19	10693.91
458.38	10509.01
458.56	10679.86
458.74	10469.22
458.93	10740.72
459.11	10714.97
459.29	10647.10
459.48	10700.93
459.66	10724.33
459.84	10890.51
460.03	11194.78
460.21	10970.09
460.39	10972.43
460.57	11014.56
460.76	11178.40
460.94	11122.23
461.12	11246.27
461.31	11351.60
461.49	11236.91
461.67	11197.12
461.85	11295.43
462.04	11344.58
462.22	11805.66
462.40	11517.78
462.59	11311.81
462.77	11552.88
462.95	11517.78
463.13	11674.59
463.32	11733.11
463.50	11534.16
463.68	11721.40
463.86	11709.70
464.05	11695.66
464.23	11786.94
464.41	11882.90
464.59	11747.15
464.78	11941.41
464.96	11918.01
465.14	11878.22
465.32	12091.21
465.50	12226.96
465.69	12142.70
465.87	11843.11
466.05	12201.21
466.23	12049.08
466.41	12180.15
466.60	12507.82
466.78	12133.34
466.96	12180.15
467.14	12140.36
467.32	12224.62
467.51	12510.16
467.69	12208.23
467.87	12461.01
468.05	12648.26
468.23	12322.92
468.41	12482.08
468.60	12671.66
468.78	12578.04
468.96	12636.55
469.14	12781.67
469.32	12690.38
469.50	12767.62
469.69	13167.85
469.87	13029.76
470.05	13137.43
470.23	12886.99
470.41	12760.60
470.59	13317.65
470.77	13198.28
470.95	13245.09
471.14	13394.89
471.32	13289.56
471.50	13696.82
471.68	13631.28
471.86	13687.45
472.04	13537.66
472.22	14066.62
472.40	13610.22
472.58	13673.41
472.77	13937.89
472.95	13958.96
473.13	14551.11
473.31	14120.45
473.49	14193.01
473.67	14324.08
473.85	14157.90
474.03	14513.66
474.21	14745.38
474.39	14848.36
474.57	14480.89
474.75	14953.68
474.93	14871.76
475.12	14860.06
475.30	14970.07
475.48	14799.21
475.66	15140.93
475.84	15037.94
476.02	15330.51
476.20	15091.77
476.38	15632.44
476.56	15988.20
476.74	15915.64
476.92	15704.99
477.10	15974.16
477.28	15922.66
477.46	16142.67
477.64	16156.72
477.82	16662.27
478.00	16748.87
478.18	16512.48
478.36	16645.89
478.54	17249.75
478.72	17083.57
478.90	17415.93
479.08	17617.21
479.26	17474.44
479.44	17589.13
479.62	17795.09
479.80	18082.98
479.98	18026.81
480.16	18607.26
480.34	18097.02
480.52	18780.46
480.70	18663.43
480.88	18420.02
481.06	18768.76
481.24	18731.31
481.41	18700.88
481.59	19349.21
481.77	19515.39
481.95	19332.82
482.13	19625.39
482.31	19503.68
482.49	20025.62
482.67	19964.77
482.85	20425.86
483.03	20350.96
483.21	20727.78
483.39	20566.29
483.57	20908.01
483.74	21167.80
483.92	21392.50
484.10	21036.74
484.28	21734.21
484.46	22143.81
484.64	22127.42
484.82	21951.88
485.00	22235.09
485.18	22750.01
485.35	23033.21
485.53	23026.19
485.71	22981.72
485.89	23431.10
486.07	23264.92
486.25	23250.88
486.43	23433.44
486.61	23765.80
486.78	23899.21
486.96	24175.39
487.14	24423.49
487.32	24484.34
487.50	25212.25
487.68	24512.43
487.85	25289.49
488.03	25455.67
488.21	25642.91
488.39	25481.41
488.57	25930.80
488.75	26101.65
488.92	26443.37
489.10	26848.29
489.28	26665.72
489.46	27094.04
489.64	26948.93
489.81	27805.56
489.99	27906.21
490.17	27800.88
490.35	28208.14
490.53	27936.63
490.70	28587.30
490.88	28191.75
491.06	28739.44
491.24	28994.56
491.41	28470.28
491.59	29247.33
491.77	29109.24
491.95	29769.27
492.13	29855.87
492.30	30169.51
492.48	29928.43
492.66	30066.52
492.84	30450.37
493.01	30672.72
493.19	30616.55
493.37	30749.96
493.54	31082.31
493.72	31339.77
493.90	31232.11
494.08	31613.62
494.25	31896.82
494.43	32247.90
494.61	32524.08
494.79	32320.46
494.96	32430.46
495.14	32716.01
495.32	33008.58
495.49	32692.60
495.67	33322.21
495.85	33610.09
496.02	33614.77
496.20	34010.32
496.38	34005.64
496.55	33942.45
496.73	35033.14
496.91	34309.91
497.09	34733.55
497.26	34707.80
497.44	34623.54
497.62	35077.61
497.79	36062.97
497.97	35620.61
498.14	35798.49
498.32	35999.78
498.50	36121.49
498.67	36430.44
498.85	36449.16
499.03	36924.29
499.20	36624.70
499.38	36807.26
499.56	37116.22
499.73	37139.62
499.91	37123.24
500.08	37682.62
500.26	37146.64
500.44	37577.30
500.61	37809.01
500.79	37565.60
500.97	38007.96
501.14	38677.35
501.32	38483.09
501.49	38394.15
501.67	38714.80
501.84	38866.94
502.02	38478.41
502.20	39082.27
502.37	39421.64
502.55	39302.28
502.72	39613.57
502.90	39414.62
503.07	39782.09
503.25	39704.85
503.43	39423.98
503.60	39730.59
503.78	40301.68
503.95	40161.25
504.13	40329.77
504.30	40624.68
504.48	40280.62
504.65	40858.73
504.83	40889.16
505.01	41275.35
505.18	41202.79
505.36	41680.26
505.53	41102.15
505.71	41647.49
505.88	41663.88
506.06	41689.62
506.23	41893.25
506.41	41397.06
506.58	42206.88
506.76	42085.17
506.93	42272.42
507.11	42281.78
507.28	42508.81
507.46	42686.69
507.63	43255.44
507.81	43419.28
507.98	42700.73
508.16	43145.44
508.33	43061.18
508.50	43402.89
508.68	43248.42
508.85	43665.03
509.03	43744.61
509.20	43901.43
509.38	44023.14
509.55	44191.65
509.73	44130.80
509.90	44376.56
510.08	44748.70
510.25	44741.68
510.42	45099.78
510.60	45083.40
510.77	45081.06
510.95	45366.60
511.12	45071.70
511.30	44781.47
511.47	45352.56
511.64	45233.19
511.82	45958.76
511.99	45558.53
512.17	45713.00
512.34	45790.24
512.51	46277.07
512.69	46169.41
512.86	46433.89
513.04	46703.05
513.21	46312.18
513.38	46478.36
513.56	46890.29
513.73	46918.38
513.90	47217.97
514.08	46857.52
514.25	47182.86
514.43	47466.06
514.60	47182.86
514.77	47384.15
514.95	47569.05
515.12	47452.02
515.29	47281.16
515.47	47938.85
515.64	48163.54
515.81	47538.62
515.99	48177.59
516.16	48362.49
516.33	48240.78
516.51	48673.78
516.68	48210.35
516.85	48392.92
517.03	48767.40
517.20	48837.62
517.37	48823.58
517.54	48484.20
517.72	48765.06
517.89	48797.83
518.06	49226.15
518.24	49111.46
518.41	49141.89
518.58	49514.03
518.75	48987.41
518.93	49544.46
519.10	49064.65
519.27	49448.50
519.45	49886.18
519.62	49830.01
519.79	49932.99
519.96	49687.23
520.14	49921.29
520.31	50274.71
520.48	50391.73
520.65	50443.23
520.83	50380.03
521.00	50422.16
521.17	50494.72
521.34	50616.43
521.52	50735.79
521.69	50412.80
521.86	50951.12
522.03	51058.79
522.20	51304.54
522.38	51522.21
522.55	51257.73
522.72	51318.59
522.89	51112.62
523.07	51388.80
523.24	51491.79
523.41	51697.75
523.58	51220.28
523.75	51899.04
523.92	51608.81
524.10	51613.49
524.27	52252.46
524.44	51798.40
524.61	52142.45
524.78	52191.61
524.96	51758.61
525.13	52313.31
525.30	52479.49
525.47	52575.45
525.64	52247.78
525.81	52505.24
525.98	52622.26
526.16	52467.79
526.33	52488.85
526.50	53111.44
526.67	52692.48
526.84	52900.79
527.01	52748.65
527.18	52568.43
527.36	53134.84
527.53	52956.96
527.70	53195.70
527.87	53631.04
528.04	53389.96
528.21	53249.53
528.38	53312.72
528.55	53422.73
528.72	53490.60
528.89	53125.48
529.07	53221.44
529.24	53343.15
529.41	53556.14
529.58	53652.10
529.75	53572.52
529.92	53607.63
530.09	53577.20
530.26	54028.93
530.43	54141.27
530.60	53820.62
530.77	53752.74
530.94	54225.53
531.11	53902.54
531.28	54358.94
531.46	54197.44
531.63	54103.82
531.80	54188.08
531.97	54312.13
532.14	54553.21
532.31	54410.43
532.48	54431.50
532.65	54534.48
532.82	54403.41
532.99	54775.56
533.16	54370.64
533.33	54588.31
533.50	54803.64
533.67	54873.86
533.84	54459.58
534.01	55068.12
534.18	54953.44
534.35	55199.19
534.52	55199.19
534.69	54932.37
534.86	55145.36
535.03	54740.45
535.20	55131.32
535.37	55166.43
535.54	55337.29
535.71	55318.56
535.88	55473.04
536.05	55440.27
536.22	55477.72
536.38	55372.39
536.55	55702.41
536.72	55655.60
536.89	55419.20
537.06	55629.85
537.23	55786.67
537.40	55426.23
537.57	55749.22
537.74	55796.03
537.91	56020.72
538.08	55922.42
538.25	55508.14
538.42	55700.07
538.59	56055.83
538.75	55763.26
538.92	56044.13
539.09	55978.59
539.26	56123.71
539.43	56203.28
539.60	56348.40
539.77	56376.48
539.94	56252.44
540.11	56226.69
540.28	56231.37
540.44	56409.25
540.61	56236.05
540.78	56327.33
540.95	56498.19
541.12	56357.76
541.29	56388.19
541.46	56243.07
541.62	56413.93
541.79	56636.28
541.96	56442.02
542.13	56734.59
542.30	56542.66
542.47	56856.29
542.63	56868.00
542.80	56853.95
542.97	57076.30
543.14	57052.90
543.31	57195.67
543.48	57172.27
543.64	57488.24
543.81	57570.16
543.98	57216.74
544.15	57389.94
544.32	57413.34
544.48	57455.47
544.65	57104.39
544.82	57179.29
544.99	57401.64
545.16	57415.68
545.32	57244.82
545.49	57858.04
545.66	57743.36
545.83	57628.67
546.00	57680.16
546.16	57389.94
546.33	57633.35
546.50	57469.51
546.67	57600.58
546.83	57237.80
547.00	57626.33
547.17	57780.81
547.34	57675.48
547.50	57872.09
547.67	58056.99
547.84	58061.67
548.00	58024.22
548.17	58003.16
548.34	58071.03
548.51	58356.58
548.67	58284.02
548.84	58010.18
549.01	57949.32
549.18	58035.92
549.34	58117.84
549.51	58482.97
549.68	58174.02
549.84	58365.94
550.01	58534.46
550.18	58342.53
550.34	58363.60
550.51	58248.91
550.68	58309.77
550.84	58204.44
551.01	58508.71
551.18	58461.90
551.34	58548.50
551.51	58625.74
551.68	58677.23
551.84	58550.84
552.01	58328.49
552.18	58595.31
552.34	58478.28
552.51	58745.11
552.68	58279.34
552.84	58553.18
553.01	58915.96
553.18	58738.08
553.34	58831.71
553.51	58585.95
553.67	58756.81
553.84	58981.50
554.01	58864.47
554.17	58934.69
554.34	59096.19
554.51	58930.01
554.67	58974.48
554.84	59018.95
555.00	59014.27
555.17	58812.98
555.33	59171.08
555.50	58768.51
555.67	58993.20
555.83	58939.37
556.00	59152.36
556.16	59449.61
556.33	59325.56
556.50	59152.36
556.66	59285.77
556.83	59157.04
556.99	59388.75
557.16	59536.21
557.32	59311.52
557.49	59437.90
557.65	59365.35
557.82	59330.24
557.98	59337.26
558.15	59229.60
558.32	59388.75
558.48	59096.19
558.65	59355.99
558.81	59435.56
558.98	59428.54
559.14	59578.34
559.31	59606.42
559.47	59765.58
559.64	59484.72
559.80	59512.80
559.97	59767.92
560.13	59676.64
560.30	59517.48
560.46	59688.34
560.63	59758.56
560.79	59639.19
560.96	59906.01
561.12	59913.03
561.29	59746.86
561.45	59774.94
561.61	59908.35
561.78	59793.67
561.94	59835.80
562.11	59662.60
562.27	59779.62
562.44	59943.46
562.60	60004.31
562.77	60034.74
562.93	59847.50
563.10	59910.69
563.26	59906.01
563.42	59842.82
563.59	60191.56
563.75	60053.47
563.92	60009.00
564.08	60102.62
564.24	60001.97
564.41	60158.79
564.57	60135.38
564.74	60025.38
564.90	60062.83
565.07	60229.01
565.23	60172.83
565.39	60172.83
565.56	60257.09
565.72	60147.09
565.88	60046.44
566.05	60196.24
566.21	60065.17
566.38	60259.43
566.54	60313.26
566.70	60406.89
566.87	60275.82
567.03	60165.81
567.19	60271.14
567.36	60294.54
567.52	60346.03
567.68	60486.46
567.85	60224.32
568.01	60362.42
568.17	60236.03
568.34	60418.59
568.50	60275.82
568.66	60172.83
568.83	60467.74
568.99	60245.39
569.15	60406.89
569.32	60362.42
569.48	60310.92
569.64	60418.59
569.81	60364.76
569.97	60327.31
570.13	60484.12
570.30	60413.91
570.46	60568.38
570.62	60458.38
570.78	60587.11
570.95	60409.23
571.11	60378.80
571.27	60594.13
571.43	60601.15
571.60	60601.15
571.76	60516.89
571.92	60647.96
572.09	60472.42
572.25	60718.18
572.41	60540.30
572.57	60530.93
572.74	60734.56
572.90	60549.66
573.06	60577.75
573.22	60601.15
573.38	60640.94
573.55	60680.73
573.71	60652.64
573.87	60711.16
574.03	60552.00
574.20	60678.39
574.36	60449.02
574.52	60877.33
574.68	60769.67
574.84	60821.16
575.01	60896.06
575.17	60488.80
575.33	60484.12
575.49	60577.75
575.65	60638.60
575.82	60844.57
575.98	60729.88
576.14	60846.91
576.30	60797.76
576.46	60491.15
576.62	60720.52
576.79	60926.49
576.95	60807.12
577.11	60657.32
577.27	60715.84
577.43	60783.71
577.59	60713.50
577.75	60650.30
577.92	60750.94
578.08	60446.68
578.24	60872.65
578.40	60835.20
578.56	60905.42
578.72	60781.37
578.88	61076.28
579.04	60896.06
579.21	60917.12
579.37	60903.08
579.53	60931.17
579.69	60610.51
579.85	60739.24
580.01	60879.67
580.17	60493.49
580.33	60830.52
580.49	60975.64
580.65	60722.86
580.82	60519.23
580.98	60839.89
581.14	60762.65
581.30	61109.05
581.46	60755.63
581.62	60977.98
581.78	60764.99
581.94	60863.29
582.10	60788.39
582.26	60786.05
582.42	60697.11
582.58	60865.63
582.74	60734.56
582.90	61036.49
583.06	61240.12
583.22	60842.23
583.38	60713.50
583.54	60860.95
583.70	60893.72
583.86	61041.17
584.02	60893.72
584.18	60903.08
584.34	60959.25
584.50	60882.02
584.66	60896.06
584.82	60898.40
584.98	61169.90
585.14	61158.20
585.30	60774.35
585.46	61059.90
585.62	60975.64
585.78	61179.26
585.94	60851.59
586.10	61155.86
586.26	60839.89
586.42	60832.86
586.58	61055.21
586.74	60856.27
586.90	60863.29
587.06	60889.04
587.22	61102.03
587.38	60914.78
587.54	60992.02
587.70	61296.29
587.86	61120.75
588.02	60996.70
588.18	61277.57
588.34	60961.59
588.49	61052.87
