SpectraSuite Data File
++++++++++++++++++++++++++++++++++++
Date: Fri Oct 25 10:44:04 EDT 2013
User: price-jones
Dark Spectrum Present: No
Reference Spectrum Present: No
Number of Sampled Component Spectra: 1
Spectrometers: USB2+H05261
Integration Time (usec): 100000 (USB2+H05261)
Spectra Averaged: 1 (USB2+H05261)
Boxcar Smoothing: 0 (USB2+H05261)
Correct for Electrical Dark: No (USB2+H05261)
Strobe/Lamp Enabled: No (USB2+H05261)
Correct for Detector Non-linearity: No (USB2+H05261)
Correct for Stray Light: No (USB2+H05261)
Number of Pixels in Processed Spectrum: 2048
>>>>>Begin Processed Spectral Data<<<<<
365.73	128.73
365.92	128.73
366.12	128.73
366.32	4.68
366.52	0.00
366.72	84.26
366.91	0.00
367.11	0.00
367.31	39.79
367.51	0.00
367.70	0.00
367.90	46.81
368.10	7.02
368.30	32.77
368.49	0.00
368.69	44.47
368.89	42.13
369.09	86.60
369.28	28.09
369.48	14.04
369.68	88.94
369.87	35.11
370.07	91.28
370.27	88.94
370.47	257.46
370.66	374.49
370.86	491.51
371.06	468.11
371.25	498.53
371.45	376.83
371.65	421.30
371.84	435.34
372.04	465.77
372.24	503.22
372.44	519.60
372.63	547.69
372.83	514.92
373.03	472.79
373.22	559.39
373.42	517.26
373.62	561.73
373.81	528.96
374.01	634.29
374.21	580.45
374.40	596.84
374.60	582.79
374.79	601.52
374.99	634.29
375.19	603.86
375.38	643.65
375.58	578.11
375.78	617.90
375.97	617.90
376.17	676.41
376.37	704.50
376.56	594.50
376.76	573.43
376.95	636.63
377.15	610.88
377.35	655.35
377.54	695.14
377.74	739.61
377.93	615.56
378.13	734.93
378.33	648.33
378.52	660.03
378.72	755.99
378.91	720.88
379.11	653.01
379.31	704.50
379.50	688.12
379.70	688.12
379.89	676.41
380.09	671.73
380.28	662.37
380.48	671.73
380.68	800.46
380.87	704.50
381.07	713.86
381.26	774.72
381.46	758.33
381.65	816.85
381.85	723.23
382.04	847.27
382.24	681.10
382.43	671.73
382.63	709.18
382.83	748.97
383.02	760.67
383.22	739.61
383.41	767.70
383.61	828.55
383.80	812.17
384.00	732.59
384.19	774.72
384.39	833.23
384.58	777.06
384.78	826.21
384.97	826.21
385.17	880.04
385.36	849.61
385.56	723.23
385.75	830.89
385.95	840.25
386.14	931.53
386.34	802.80
386.53	870.68
386.72	844.93
386.92	898.77
387.11	842.59
387.31	896.43
387.50	837.91
387.70	889.40
387.89	919.83
388.09	814.51
388.28	847.27
388.48	896.43
388.67	994.73
388.86	929.19
389.06	1060.26
389.25	1029.84
389.45	922.17
389.64	987.71
389.84	1025.15
390.03	1064.94
390.22	999.41
390.42	1064.94
390.61	980.68
390.81	985.37
391.00	1167.93
391.19	1067.28
391.39	1107.07
391.58	1053.24
391.78	1125.80
391.97	1135.16
392.16	1008.77
392.36	1121.12
392.55	1102.39
392.75	997.07
392.94	1053.24
393.13	1078.99
393.33	1032.18
393.52	964.30
393.71	1015.79
393.91	1020.47
394.10	1114.10
394.29	1172.61
394.49	1188.99
394.68	1266.23
394.88	1270.91
395.07	1273.25
395.26	1366.87
395.46	1284.95
395.65	1308.36
395.84	1275.59
396.04	1392.62
396.23	1207.72
396.42	1205.38
396.62	1224.10
396.81	1284.95
397.00	1268.57
397.19	1238.14
397.39	1313.04
397.58	1397.30
397.77	1385.60
397.97	1453.47
398.16	1416.02
398.35	1598.59
398.55	1544.75
398.74	1462.83
398.93	1600.93
399.12	1638.38
399.32	1521.35
399.51	1565.82
399.70	1724.97
399.90	1640.72
400.09	1694.55
400.28	1589.22
400.47	1694.55
400.67	1659.44
400.86	1708.59
401.05	1638.38
401.24	1797.53
401.44	1736.68
401.63	1748.38
401.82	1806.89
402.01	1743.70
402.21	1816.26
402.40	1802.21
402.59	1799.87
402.78	1858.39
402.97	1778.81
403.17	1865.41
403.36	1909.88
403.55	1879.45
403.74	1870.09
403.93	1973.07
404.13	2026.90
404.32	2008.18
404.51	1973.07
404.70	1991.80
404.89	1944.99
405.09	2066.69
405.28	2017.54
405.47	2057.33
405.66	2005.84
405.85	2125.21
406.05	2043.29
406.24	2092.44
406.43	2148.61
406.62	2165.00
406.81	2223.51
407.00	2174.36
407.20	2190.74
407.39	2132.23
407.58	2136.91
407.77	2312.45
407.96	2277.34
408.15	2314.79
408.34	2253.94
408.54	2275.00
408.73	2267.98
408.92	2377.98
409.11	2370.96
409.30	2324.15
409.49	2317.13
409.68	2338.20
409.87	2363.94
410.07	2380.32
410.26	2485.65
410.45	2583.95
410.64	2534.80
410.83	2605.02
411.02	2675.23
411.21	2663.53
411.40	2668.21
411.59	2818.00
411.78	2743.11
411.98	2600.34
412.17	2787.58
412.36	2785.24
412.55	2888.22
412.74	2853.11
412.93	2796.94
413.12	2815.66
413.31	3012.27
413.50	2951.42
413.69	2965.46
413.88	3101.21
414.07	2991.20
414.26	3136.32
414.45	3063.76
414.64	3141.00
414.83	3155.04
415.02	3197.17
415.22	3239.30
415.41	3255.69
415.60	3253.34
415.79	3328.24
415.98	3389.10
416.17	3494.42
416.36	3400.80
416.55	3346.97
416.74	3461.65
416.93	3307.18
417.12	3471.01
417.31	3564.64
417.50	3536.55
417.69	3515.48
417.88	3723.79
418.07	3740.18
418.26	3597.40
418.45	3613.79
418.64	3737.84
418.83	3812.73
419.02	3597.40
419.21	3791.67
419.39	3728.47
419.58	3604.42
419.77	3702.73
419.96	3805.71
420.15	3866.56
420.34	3957.85
420.53	3892.31
420.72	4025.72
420.91	3962.53
421.10	4124.02
421.29	4009.34
421.48	3971.89
421.67	4060.83
421.86	3985.93
422.05	3861.88
422.24	3885.29
422.43	3932.10
422.61	3953.16
422.80	4037.42
422.99	4231.69
423.18	4119.34
423.37	4227.01
423.56	4102.96
423.75	4128.70
423.94	3957.85
424.13	3812.73
424.32	3899.33
424.50	4100.62
424.69	4191.90
424.88	4278.50
425.07	4112.32
425.26	4105.30
425.45	4212.96
425.64	4121.68
425.83	4166.15
426.01	4168.49
426.20	3995.29
426.39	4219.99
426.58	4138.07
426.77	4049.13
426.96	4252.75
427.15	4081.89
427.33	4217.65
427.52	4224.67
427.71	4348.72
427.90	4360.42
428.09	4421.27
428.28	4381.48
428.46	4217.65
428.65	4390.84
428.84	4458.72
429.03	4540.64
429.22	4215.30
429.40	4114.66
429.59	4301.90
429.78	4077.21
429.97	4124.02
430.16	4212.96
430.34	4236.37
430.53	4315.95
430.72	4219.99
430.91	4458.72
431.10	4538.30
431.28	4697.46
431.47	4823.84
431.66	4798.10
431.85	4697.46
432.03	4788.74
432.22	4938.53
432.41	4877.68
432.60	4884.70
432.79	4788.74
432.97	4980.66
433.16	4891.72
433.35	4816.82
433.54	4896.40
433.72	4931.51
433.91	4830.87
434.10	4894.06
434.28	5011.09
434.47	5135.14
434.66	5207.69
434.85	5235.78
435.03	5067.26
435.22	5174.92
435.41	5387.91
435.59	5193.65
435.78	5256.84
435.97	5392.59
436.16	5296.63
436.34	5397.28
436.53	5467.49
436.72	5526.00
436.90	5252.16
437.09	5554.09
437.28	5427.70
437.46	5397.28
437.65	5423.02
437.84	5413.66
438.02	5284.93
438.21	5345.78
438.40	5383.23
438.58	5444.09
438.77	5696.86
438.96	5575.16
439.14	5659.42
439.33	5767.08
439.52	5820.91
439.70	5832.62
439.89	5970.71
440.08	5802.19
440.26	5944.96
440.45	5867.72
440.63	6108.80
440.82	6258.59
441.01	6228.17
441.19	6363.92
441.38	6401.37
441.57	6420.09
441.75	6389.66
441.94	6635.42
442.12	6349.87
442.31	6548.82
442.50	6595.63
442.68	6476.26
442.87	6602.65
443.05	6572.22
443.24	6715.00
443.43	6670.53
443.61	6862.45
443.80	7089.48
443.98	6619.04
444.17	6590.95
444.35	6815.64
444.54	6946.71
444.73	6796.92
444.91	6778.19
445.10	6801.60
445.28	6801.60
445.47	6483.28
445.65	6677.55
445.84	6750.10
446.02	7045.01
446.21	6876.49
446.39	6878.83
446.58	7105.87
446.77	6993.52
446.95	6916.28
447.14	6946.71
447.32	6946.71
447.51	7169.06
447.69	6967.77
447.88	6923.30
448.06	7019.27
448.25	6867.13
448.43	6946.71
448.62	6944.37
448.80	7030.97
448.99	7037.99
449.17	7105.87
449.36	7159.70
449.54	7389.07
449.73	7391.41
449.91	7431.20
450.10	7421.84
450.28	7496.74
450.46	7440.56
450.65	7616.10
450.83	7606.74
451.02	7536.52
451.20	7489.71
451.39	7691.00
451.57	7454.61
451.76	7473.33
451.94	7487.37
452.13	7810.37
452.31	7555.25
452.49	7393.75
452.68	7442.90
452.86	7613.76
453.05	7644.19
453.23	7644.19
453.42	7506.10
453.60	7770.58
453.78	8084.21
453.97	7618.44
454.15	7740.15
454.34	7819.73
454.52	7866.54
454.70	7733.13
454.89	7786.96
455.07	7941.44
455.26	7903.99
455.44	8030.38
455.62	7997.61
455.81	7889.95
455.99	8271.45
456.17	8156.77
456.36	8269.11
456.54	8248.05
456.73	8138.04
456.91	8482.10
457.09	8451.67
457.28	8430.61
457.46	8112.30
457.64	8444.65
457.83	8526.57
458.01	8390.82
458.19	8648.28
458.38	8482.10
458.56	8549.98
458.74	8805.10
458.93	8613.17
459.11	8692.75
459.29	8589.77
459.48	8631.90
459.66	8868.29
459.84	8793.39
460.03	9032.13
460.21	8744.24
460.39	8816.80
460.57	8854.25
460.76	8954.89
460.94	9069.58
461.12	9177.24
461.31	9153.84
461.49	8926.80
461.67	9011.06
461.85	9200.65
462.04	9132.77
462.22	9589.17
462.40	9186.60
462.59	9254.48
462.77	9474.49
462.95	9324.69
463.13	9214.69
463.32	9352.78
463.50	9469.81
463.68	9516.62
463.86	9263.84
464.05	9310.65
464.23	9259.16
464.41	9383.21
464.59	9303.63
464.78	9511.94
464.96	9390.23
465.14	9214.69
465.32	9324.69
465.50	9717.90
465.69	9696.84
465.87	9476.83
466.05	9549.39
466.23	9673.43
466.41	9551.73
466.60	9830.25
466.78	9547.05
466.96	9795.14
467.14	9631.30
467.32	9757.69
467.51	9914.51
467.69	9734.29
467.87	9633.64
468.05	9813.87
468.23	9863.02
468.41	9973.02
468.60	9958.98
468.78	10047.92
468.96	9848.97
469.14	10146.22
469.32	10160.27
469.50	9734.29
469.69	9996.43
469.87	10246.87
470.05	10038.56
470.23	10263.25
470.41	10249.21
470.59	10501.98
470.77	10134.52
470.95	10244.52
471.14	10544.11
471.32	10272.61
471.50	10862.43
471.68	10729.02
471.86	10895.19
472.04	10813.28
472.22	11059.03
472.40	10579.22
472.58	10611.99
472.77	10733.70
472.95	10988.82
473.13	11272.02
473.31	10874.13
473.49	10890.51
473.67	11140.95
473.85	11206.48
474.03	11459.26
474.21	11269.68
474.39	11501.39
474.57	11372.66
474.75	11602.04
474.93	11590.33
475.12	11452.24
475.30	11847.79
475.48	11665.23
475.66	11824.39
475.84	11604.38
476.02	11761.19
476.20	11864.18
476.38	12100.57
476.56	12166.10
476.74	12142.70
476.92	12138.02
477.10	12245.68
477.28	12343.99
477.46	12580.38
477.64	12945.50
477.82	12769.96
478.00	13083.59
478.18	12875.29
478.36	13046.15
478.54	13240.41
478.72	13394.89
478.90	13502.55
479.08	13675.75
479.26	13483.83
479.44	13525.96
479.62	13888.74
479.80	13823.20
479.98	13888.74
480.16	14104.07
480.34	13958.96
480.52	14382.59
480.70	14061.94
480.88	14193.01
481.06	14518.34
481.24	14492.60
481.41	14984.11
481.59	14796.87
481.77	14902.19
481.95	15152.63
482.13	15054.33
482.31	15059.01
482.49	15529.45
482.67	15552.86
482.85	15630.10
483.03	15686.27
483.21	15943.73
483.39	16002.24
483.57	16046.71
483.74	16053.73
483.92	16400.13
484.10	16170.76
484.28	16503.12
484.46	16924.41
484.64	17088.25
484.82	16613.12
485.00	16786.32
485.18	16650.57
485.35	17048.46
485.53	16774.62
485.71	16688.02
485.89	16961.86
486.07	16943.14
486.25	17013.35
486.43	17514.23
486.61	17664.02
486.78	17813.82
486.96	18061.91
487.14	18132.13
487.32	18363.84
487.50	18609.60
487.68	18787.48
487.85	19215.80
488.03	19007.49
488.21	19311.76
488.39	19002.81
488.57	19644.12
488.75	19499.00
488.92	19932.00
489.10	20154.35
489.28	20297.13
489.46	20449.26
489.64	20243.29
489.81	20924.39
489.99	21139.72
490.17	20833.11
490.35	21198.23
490.53	20870.56
490.70	21287.17
490.88	21270.79
491.06	21582.08
491.24	21420.58
491.41	21401.86
491.59	21259.09
491.77	21268.45
491.95	21834.86
492.13	21958.91
492.30	22331.05
492.48	22679.79
492.66	22558.08
492.84	22511.27
493.01	22981.72
493.19	22625.96
493.37	22792.14
493.54	23428.76
493.72	23365.57
493.90	23349.18
494.08	23899.21
494.25	24271.36
494.43	23934.32
494.61	24079.43
494.79	24411.79
494.96	24372.00
495.14	24360.30
495.32	24517.11
495.49	24589.67
495.67	24819.04
495.85	24968.84
496.02	25071.82
496.20	25069.48
496.38	25151.40
496.55	25228.63
496.73	25993.99
496.91	25706.10
497.09	25724.83
497.26	26143.78
497.44	26092.29
497.62	26272.51
497.79	26333.37
497.97	26188.25
498.14	26279.54
498.32	26197.62
498.50	26583.80
498.67	26902.12
498.85	26714.87
499.03	27330.44
499.20	27213.41
499.38	27058.93
499.56	26984.04
499.73	27496.61
499.91	27470.87
500.08	27599.60
500.26	27388.95
500.44	27520.02
500.61	27548.11
500.79	27538.74
500.97	27803.22
501.14	27936.63
501.32	27922.59
501.49	28212.82
501.67	27931.95
501.84	28203.46
502.02	28322.82
502.20	28418.78
502.37	28872.85
502.55	28723.05
502.72	29003.92
502.90	29338.62
503.07	29125.63
503.25	29352.66
503.43	28767.52
503.60	29008.60
503.78	28865.83
503.95	29252.02
504.13	29099.88
504.30	29951.84
504.48	29420.53
504.65	30057.16
504.83	29961.20
505.01	30368.45
505.18	30253.76
505.36	30319.30
505.53	30543.99
505.71	30979.33
505.88	30890.39
506.06	30340.36
506.23	30483.14
506.41	30518.25
506.58	30888.05
506.76	31002.74
506.93	31065.93
507.11	31267.22
507.28	31175.94
507.46	30967.63
507.63	31346.79
507.81	30955.93
507.98	31063.59
508.16	31878.10
508.33	31585.53
508.50	31744.69
508.68	32215.13
508.85	32500.68
509.03	32119.17
509.20	32238.54
509.38	32364.93
509.55	32168.32
509.73	32142.58
509.90	32606.00
510.08	32458.55
510.25	32474.93
510.42	32659.84
510.60	32603.66
510.77	32987.51
510.95	33223.90
511.12	33062.41
511.30	32886.87
511.47	33663.93
511.64	33366.68
511.82	33518.81
511.99	33266.03
512.17	33181.77
512.34	33205.18
512.51	33649.88
512.69	33560.94
512.86	33795.00
513.04	33963.51
513.21	33797.34
513.38	33710.74
513.56	33792.65
513.73	33680.31
513.90	34305.23
514.08	33603.07
514.25	34609.50
514.43	34288.85
514.60	34227.99
514.77	34600.14
514.95	34670.36
515.12	34937.18
515.29	34897.39
515.47	35115.06
515.64	35171.23
515.81	35002.71
515.99	34913.77
516.16	34607.16
516.33	34639.93
516.51	34284.17
516.68	34450.35
516.85	34574.39
517.03	34256.08
517.20	35166.55
517.37	35353.79
517.54	35775.09
517.72	35398.26
517.89	34979.31
518.06	34897.39
518.24	35044.84
518.41	35124.42
518.58	35395.92
518.75	35283.58
518.93	36053.61
519.10	35632.32
519.27	36198.73
519.45	35924.88
519.62	36601.30
519.79	36875.14
519.96	36596.62
520.14	36538.10
520.31	36449.16
520.48	36727.69
520.65	36582.57
520.83	37050.68
521.00	37432.19
521.17	36842.37
521.34	36971.10
521.52	36982.80
521.69	37294.10
521.86	37572.62
522.03	37558.58
522.20	37603.05
522.38	37263.67
522.55	37233.24
522.72	37734.12
522.89	37654.54
523.07	37762.20
523.24	37216.86
523.41	38134.35
523.58	38038.39
523.75	38513.52
523.92	37958.81
524.10	38768.63
524.27	38782.68
524.44	38473.73
524.61	38263.08
524.78	38597.77
524.96	38447.98
525.13	38946.51
525.30	38951.20
525.47	38941.83
525.64	38871.62
525.81	38981.62
525.98	38731.18
526.16	38457.34
526.33	38120.31
526.50	38653.95
526.67	38382.45
526.84	38050.09
527.01	38246.69
527.18	38625.86
527.36	39484.84
527.53	39433.35
527.70	39662.72
527.87	39234.40
528.04	39466.11
528.21	39316.32
528.38	39721.23
528.55	39915.50
528.72	39880.39
528.89	40093.38
529.07	39966.99
529.24	39934.22
529.41	39861.66
529.58	39871.03
529.75	39821.87
529.92	40353.18
530.09	40238.49
530.26	40224.45
530.43	40161.25
530.60	39810.17
530.77	40343.81
530.94	40793.20
531.11	40243.17
531.28	40442.12
531.46	40760.43
531.63	40797.88
531.80	40732.34
531.97	40275.94
532.14	40507.65
532.31	40105.08
532.48	40554.46
532.65	40322.75
532.82	41104.49
532.99	41074.06
533.16	40811.92
533.33	41167.68
533.50	41490.68
533.67	41237.90
533.84	40891.50
534.01	41165.34
534.18	41242.58
534.35	41160.66
534.52	41443.87
534.69	41469.61
534.86	41375.99
535.03	41375.99
535.20	42150.71
535.37	42036.02
535.54	41825.37
535.71	41750.48
535.88	41773.88
536.05	41883.89
536.22	41916.65
536.38	41972.83
536.55	41867.50
536.72	41926.02
536.89	42071.13
537.06	41846.44
537.23	42272.42
537.40	42103.90
537.57	42354.33
537.74	42344.97
537.91	42679.67
538.08	42363.70
538.25	42426.89
538.42	42295.82
538.59	42862.23
538.75	41698.98
538.92	42579.03
539.09	42642.22
539.26	42302.84
539.43	42855.21
539.60	42209.22
539.77	42012.62
539.94	42614.13
540.11	42394.12
540.28	42382.42
540.44	42408.17
540.61	42731.16
540.78	42284.12
540.95	42520.51
541.12	42597.75
541.29	42454.98
541.46	43061.18
541.62	43019.05
541.79	43313.95
541.96	42801.38
542.13	43000.32
542.30	43241.40
542.47	43033.09
542.63	43227.35
542.80	43543.33
542.97	43611.20
543.14	43515.24
543.31	44168.25
543.48	43648.65
543.64	44376.56
543.81	43590.14
543.98	44006.75
544.15	43653.33
544.32	44268.89
544.48	44505.29
544.65	44107.40
544.82	44219.74
544.99	43515.24
545.16	44037.18
545.32	44245.49
545.49	43992.71
545.66	44767.43
545.83	44479.54
546.00	44671.46
546.16	44493.58
546.33	44481.88
546.50	43976.33
546.67	44299.32
546.83	44414.01
547.00	44418.69
547.17	43948.24
547.34	43922.49
547.50	44334.43
547.67	44402.30
547.84	44376.56
548.00	44795.51
548.17	45195.74
548.34	44634.02
548.51	44964.03
548.67	45193.40
548.84	44907.86
549.01	44751.04
549.18	44706.57
549.34	44989.78
549.51	45036.59
549.68	44907.86
549.84	44638.70
550.01	45120.85
550.18	44589.55
550.34	45193.40
550.51	45134.89
550.68	45027.23
550.84	44765.09
551.01	45289.37
551.18	45003.82
551.34	44992.12
551.51	45687.26
551.68	45808.96
551.84	45729.39
552.01	45509.38
552.18	45441.50
552.34	44924.24
552.51	45478.95
552.68	45455.54
552.84	45434.48
553.01	45656.83
553.18	45205.11
553.34	45268.30
553.51	45347.88
553.67	45874.50
553.84	45895.56
554.01	45731.73
554.17	45989.19
554.34	45830.03
554.51	45844.07
554.67	46146.00
554.84	45696.62
555.00	45879.18
555.17	45792.58
555.33	45617.04
555.50	45713.00
555.67	46202.18
555.83	45759.81
556.00	45745.77
556.16	46253.67
556.33	45748.11
556.50	45832.37
556.66	45441.50
556.83	45895.56
556.99	45977.48
557.16	46288.77
557.32	46160.05
557.49	46185.79
557.65	45626.40
557.82	46101.53
557.98	46066.42
558.15	46293.46
558.32	45989.19
558.48	46064.08
558.65	45830.03
558.81	46012.59
558.98	45998.55
559.14	45942.38
559.31	45862.80
559.47	46630.49
559.64	46239.62
559.80	46368.35
559.97	46377.72
560.13	46300.48
560.30	46253.67
560.46	45846.41
560.63	46504.10
560.79	46784.97
560.96	46527.51
561.12	46422.19
561.29	46223.24
561.45	46363.67
561.61	46600.07
561.78	46267.71
561.94	46377.72
562.11	46412.82
562.27	46361.33
562.44	46295.80
562.60	46843.48
562.77	47009.66
562.93	46717.09
563.10	46658.58
563.26	46784.97
563.42	46808.37
563.59	46244.30
563.75	46681.98
563.92	46887.95
564.08	46866.89
564.24	46754.54
564.41	46518.15
564.57	46469.00
564.74	46410.48
564.90	46698.37
565.07	47243.71
565.23	46813.05
565.39	46827.10
565.56	46773.27
565.72	46478.36
565.88	46653.90
566.05	46417.50
566.21	46721.77
566.38	46356.65
566.54	46784.97
566.70	46969.87
566.87	47028.38
567.03	46899.65
567.19	46939.44
567.36	46934.76
567.52	47065.83
567.68	46749.86
567.85	46611.77
568.01	46988.60
568.17	46632.83
568.34	46674.96
568.50	47143.07
568.66	47019.02
568.83	46981.57
568.99	46323.88
569.15	46791.99
569.32	46735.82
569.48	46588.36
569.64	46822.42
569.81	46810.71
569.97	47070.51
570.13	46719.43
570.30	46492.40
570.46	46314.52
570.62	46527.51
570.78	46756.88
570.95	46784.97
571.11	46639.86
571.27	46873.91
571.43	46794.33
571.60	46969.87
571.76	46789.65
571.92	47042.43
572.09	46822.42
572.25	46801.35
572.41	47051.79
572.57	47379.46
572.74	47356.06
572.90	47255.42
573.06	47103.28
573.22	47145.41
573.38	47063.49
573.55	47082.22
573.71	47117.32
573.87	47044.77
574.03	46733.48
574.20	46939.44
574.36	47299.89
574.52	47047.11
574.68	46656.24
574.84	47224.99
575.01	46953.49
575.17	46925.40
575.33	46948.81
575.49	46862.21
575.65	47344.36
575.82	47194.56
575.98	46951.15
576.14	46864.55
576.30	47384.15
576.46	47072.85
576.62	46960.51
576.79	47096.26
576.95	46511.13
577.11	46848.16
577.27	46958.17
577.43	47014.34
577.59	46864.55
577.75	46955.83
577.92	46960.51
578.08	46457.29
578.24	47093.92
578.40	46850.50
578.56	46829.44
578.72	47136.05
578.88	47316.27
579.04	47107.96
579.21	46838.80
579.37	46906.68
579.53	47325.63
579.69	46932.42
579.85	46944.12
580.01	47454.36
580.17	46820.08
580.33	47166.48
580.49	47075.19
580.65	47026.04
580.82	47152.43
580.98	46958.17
581.14	47040.09
581.30	47033.07
581.46	46838.80
581.62	47117.32
581.78	47033.07
581.94	47618.20
582.10	46983.91
582.26	47203.92
582.42	47145.41
582.58	46967.53
582.74	47437.98
582.90	46740.50
583.06	47512.88
583.22	47297.55
583.38	47585.43
583.54	47147.75
583.70	47437.98
583.86	47058.81
584.02	46630.49
584.18	47206.26
584.34	46990.94
584.50	47414.57
584.66	47079.88
584.82	47243.71
584.98	47019.02
585.14	47262.44
585.30	46969.87
585.46	47288.18
585.62	47075.19
585.78	46876.25
585.94	46738.16
586.10	47224.99
586.26	46742.84
586.42	47131.37
586.58	47370.10
586.74	47049.45
586.90	47189.88
587.06	47100.94
587.22	46794.33
587.38	46759.22
587.54	47587.77
587.70	47613.52
587.86	47269.46
588.02	47278.82
588.18	47508.19
588.34	46845.82
588.49	46291.12
588.65	46515.81
588.81	46646.88
588.97	46852.84
589.13	46588.36
589.29	46948.81
589.45	47166.48
589.61	46672.62
589.77	47023.70
589.93	47342.02
