SpectraSuite Data File
++++++++++++++++++++++++++++++++++++
Date: Fri Oct 25 10:48:21 EDT 2013
User: price-jones
Dark Spectrum Present: No
Reference Spectrum Present: No
Number of Sampled Component Spectra: 1
Spectrometers: USB2+H05261
Integration Time (usec): 100000 (USB2+H05261)
Spectra Averaged: 1 (USB2+H05261)
Boxcar Smoothing: 0 (USB2+H05261)
Correct for Electrical Dark: No (USB2+H05261)
Strobe/Lamp Enabled: No (USB2+H05261)
Correct for Detector Non-linearity: No (USB2+H05261)
Correct for Stray Light: No (USB2+H05261)
Number of Pixels in Processed Spectrum: 2048
>>>>>Begin Processed Spectral Data<<<<<
365.73	161.50
365.92	161.50
366.12	161.50
366.32	105.32
366.52	102.98
366.72	56.17
366.91	0.00
367.11	63.19
367.31	25.75
367.51	58.51
367.70	131.07
367.90	65.54
368.10	56.17
368.30	72.56
368.49	60.85
368.69	110.01
368.89	74.90
369.09	63.19
369.28	107.66
369.48	84.26
369.68	53.83
369.87	110.01
370.07	98.30
370.27	119.37
370.47	170.86
370.66	423.64
370.86	409.59
371.06	519.60
371.25	524.28
371.45	449.38
371.65	486.83
371.84	433.00
372.04	449.38
372.24	484.49
372.44	545.34
372.63	531.30
372.83	606.20
373.03	521.94
373.22	550.03
373.42	533.64
373.62	535.98
373.81	578.11
374.01	552.37
374.21	620.24
374.40	629.60
374.60	645.99
374.79	622.58
374.99	578.11
375.19	571.09
375.38	622.58
375.58	585.13
375.78	629.60
375.97	648.33
376.17	657.69
376.37	528.96
376.56	667.05
376.76	615.56
376.95	685.78
377.15	692.80
377.35	753.65
377.54	702.16
377.74	732.59
377.93	608.54
378.13	657.69
378.33	716.20
378.52	624.92
378.72	594.50
378.91	641.31
379.11	685.78
379.31	610.88
379.50	695.14
379.70	753.65
379.89	779.40
380.09	699.82
380.28	734.93
380.48	706.84
380.68	711.52
380.87	674.07
381.07	763.01
381.26	692.80
381.46	685.78
381.65	671.73
381.85	695.14
382.04	690.46
382.24	763.01
382.43	765.36
382.63	746.63
382.83	706.84
383.02	851.96
383.22	781.74
383.41	734.93
383.61	732.59
383.80	814.51
384.00	863.66
384.19	816.85
384.39	868.34
384.58	781.74
384.78	807.48
384.97	842.59
385.17	823.87
385.36	812.17
385.56	849.61
385.75	858.98
385.95	809.83
386.14	863.66
386.34	870.68
386.53	894.08
386.72	812.17
386.92	877.70
387.11	894.08
387.31	891.74
387.50	887.06
387.70	884.72
387.89	926.85
388.09	1020.47
388.28	936.21
388.48	952.60
388.67	976.00
388.86	910.47
389.06	992.39
389.25	999.41
389.45	1102.39
389.64	999.41
389.84	1001.75
390.03	1050.90
390.22	1067.28
390.42	1020.47
390.61	983.02
390.81	1057.92
391.00	1095.37
391.19	1090.69
391.39	1121.12
391.58	1165.59
391.78	1064.94
391.97	1207.72
392.16	1093.03
392.36	1088.35
392.55	968.98
392.75	1090.69
392.94	1060.26
393.13	1001.75
393.33	1067.28
393.52	1191.33
393.71	1142.18
393.91	1221.76
394.10	1217.08
394.29	1261.55
394.49	1153.88
394.68	1303.68
394.88	1259.21
395.07	1266.23
395.26	1294.32
395.46	1294.32
395.65	1280.27
395.84	1196.01
396.04	1359.85
396.23	1224.10
396.42	1226.44
396.62	1266.23
396.81	1299.00
397.00	1153.88
397.19	1378.58
397.39	1387.94
397.58	1511.99
397.77	1418.36
397.97	1521.35
398.16	1392.62
398.35	1537.73
398.55	1476.88
398.74	1483.90
398.93	1593.90
399.12	1600.93
399.32	1530.71
399.51	1577.52
399.70	1694.55
399.90	1610.29
400.09	1739.02
400.28	1610.29
400.47	1661.78
400.67	1755.40
400.86	1753.06
401.05	1774.13
401.24	1802.21
401.44	1809.23
401.63	1762.42
401.82	1813.92
402.01	1795.19
402.21	1750.72
402.40	1736.68
402.59	1774.13
402.78	1806.89
402.97	1837.32
403.17	1935.62
403.36	1926.26
403.55	1886.47
403.74	1907.54
403.93	1914.56
404.13	1886.47
404.32	1935.62
404.51	1987.11
404.70	2097.12
404.89	2031.58
405.09	2071.37
405.28	1966.05
405.47	1977.75
405.66	2001.16
405.85	2078.40
406.05	2043.29
406.24	2062.01
406.43	2118.18
406.62	2134.57
406.81	2235.21
407.00	2064.35
407.20	2059.67
407.39	2157.97
407.58	2256.28
407.77	2272.66
407.96	2284.36
408.15	2303.09
408.34	2321.81
408.54	2455.22
408.73	2410.75
408.92	2291.38
409.11	2382.67
409.30	2335.85
409.49	2377.98
409.68	2441.18
409.87	2298.41
410.07	2223.51
410.26	2427.14
410.45	2562.89
410.64	2583.95
410.83	2476.29
411.02	2560.55
411.21	2605.02
411.40	2588.63
411.59	2649.49
411.78	2675.23
411.98	2619.06
412.17	2773.53
412.36	2792.26
412.55	2700.98
412.74	2719.70
412.93	2794.60
413.12	2731.41
413.31	2977.16
413.50	2850.77
413.69	3033.33
413.88	3136.32
414.07	2995.89
414.26	3021.63
414.45	2911.63
414.64	3082.49
414.83	3094.19
415.02	3101.21
415.22	3178.45
415.41	3169.09
415.60	3227.60
415.79	3225.26
415.98	3445.27
416.17	3400.80
416.36	3358.67
416.55	3431.23
416.74	3468.67
416.93	3304.84
417.12	3337.60
417.31	3496.76
417.50	3363.35
417.69	3538.89
417.88	3557.61
418.07	3541.23
418.26	3506.12
418.45	3574.00
418.64	3716.77
418.83	3606.77
419.02	3672.30
419.21	3599.74
419.39	3691.02
419.58	3684.00
419.77	3637.19
419.96	3817.41
420.15	3803.37
420.34	3667.62
420.53	3833.80
420.72	3871.25
420.91	3946.14
421.10	3932.10
421.29	3988.27
421.48	3922.74
421.67	4016.36
421.86	3925.08
422.05	3946.14
422.24	3892.31
422.43	3857.20
422.61	3985.93
422.80	4067.85
422.99	4035.08
423.18	3948.48
423.37	4229.35
423.56	4163.81
423.75	4098.28
423.94	3829.12
424.13	3810.39
424.32	3929.76
424.50	4007.00
424.69	4032.74
424.88	4135.73
425.07	3999.98
425.26	3887.63
425.45	4119.34
425.64	3983.59
425.83	4002.32
426.01	4138.07
426.20	4007.00
426.39	4018.70
426.58	4203.60
426.77	4112.32
426.96	4091.26
427.15	4145.09
427.33	4201.26
427.52	4154.45
427.71	4133.39
427.90	4133.39
428.09	4327.65
428.28	4367.44
428.46	4283.18
428.65	4376.80
428.84	4315.95
429.03	4440.00
429.22	4229.35
429.40	4212.96
429.59	4278.50
429.78	3911.04
429.97	3913.38
430.16	4187.22
430.34	4271.48
430.53	4154.45
430.72	4318.29
430.91	4308.93
431.10	4432.97
431.28	4596.81
431.47	4713.84
431.66	4629.58
431.85	4610.86
432.03	4709.16
432.22	4856.61
432.41	4676.39
432.60	4844.91
432.79	4826.18
432.97	4873.00
433.16	4938.53
433.35	4685.75
433.54	4840.23
433.72	4767.67
433.91	4730.22
434.10	4882.36
434.28	4947.89
434.47	4919.81
434.66	4922.15
434.85	5116.41
435.03	5153.86
435.22	5240.46
435.41	5231.10
435.59	5170.24
435.78	5032.15
435.97	5294.29
436.16	5195.99
436.34	5294.29
436.53	5467.49
436.72	5357.49
436.90	5364.51
437.09	5228.76
437.28	5217.05
437.46	5259.18
437.65	5280.25
437.84	5376.21
438.02	5439.40
438.21	5373.87
438.40	5270.89
438.58	5502.60
438.77	5650.05
438.96	5582.18
439.14	5790.49
439.33	5680.48
439.52	5741.33
439.70	5804.53
439.89	5671.12
440.08	5956.66
440.26	5914.53
440.45	5764.74
440.63	5994.11
440.82	6054.97
441.01	6001.13
441.19	6232.85
441.38	6204.76
441.57	6415.41
441.75	6399.02
441.94	6466.90
442.12	6387.32
442.31	6586.27
442.50	6649.46
442.68	6509.03
442.87	6473.92
443.05	6502.01
443.24	6736.06
443.43	6600.31
443.61	6628.40
443.80	6871.81
443.98	6441.15
444.17	6431.79
444.35	6785.21
444.54	6806.28
444.73	6677.55
444.91	6656.48
445.10	6686.91
445.28	6579.25
445.47	6612.01
445.65	6679.89
445.84	6597.97
446.02	6787.55
446.21	6583.93
446.39	6743.08
446.58	6817.98
446.77	6815.64
446.95	6586.27
447.14	6853.09
447.32	6843.73
447.51	6927.99
447.69	6799.26
447.88	6939.69
448.06	6925.65
448.25	6942.03
448.43	6923.30
448.62	6869.47
448.80	6808.62
448.99	7002.88
449.17	7056.72
449.36	7164.38
449.54	7122.25
449.73	7150.34
449.91	7363.33
450.10	7386.73
450.28	7508.44
450.46	7536.52
450.65	7618.44
450.83	7353.96
451.02	7454.61
451.20	7389.07
451.39	7449.93
451.57	7335.24
451.76	7456.95
451.94	7517.80
452.13	7655.89
452.31	7386.73
452.49	7293.11
452.68	7459.29
452.86	7208.85
453.05	7555.25
453.23	7522.48
453.42	7644.19
453.60	7398.43
453.78	7688.66
453.97	7440.56
454.15	7618.44
454.34	7550.57
454.52	7721.43
454.70	7695.68
454.89	7719.09
455.07	7686.32
455.26	7742.49
455.44	8077.19
455.62	8098.25
455.81	7887.61
455.99	7960.16
456.17	8030.38
456.36	7896.97
456.54	8196.56
456.73	8360.39
456.91	8248.05
457.09	8358.05
457.28	8393.16
457.46	8245.71
457.64	8393.16
457.83	8353.37
458.01	8243.37
458.19	8444.65
458.38	8383.80
458.56	8514.87
458.74	8486.78
458.93	8498.49
459.11	8571.04
459.29	8446.99
459.48	8601.47
459.66	8552.32
459.84	8573.38
460.03	8788.71
460.21	8606.15
460.39	8613.17
460.57	8636.58
460.76	8762.97
460.94	8826.16
461.12	8814.46
461.31	8868.29
461.49	8875.31
461.67	8664.66
461.85	9090.64
462.04	9015.74
462.22	9521.30
462.40	9139.79
462.59	9128.09
462.77	8898.72
462.95	9200.65
463.13	9219.37
463.32	9350.44
463.50	9247.46
463.68	9296.61
463.86	9198.31
464.05	9195.96
464.23	9100.00
464.41	9174.90
464.59	9186.60
464.78	9462.79
464.96	9380.87
465.14	9179.58
465.32	9378.53
465.50	9406.61
465.69	9635.99
465.87	9476.83
466.05	9465.13
466.23	9310.65
466.41	9425.34
466.60	9818.55
466.78	9451.08
466.96	9518.96
467.14	9486.19
467.32	9680.46
467.51	9748.33
467.69	9481.51
467.87	9530.66
468.05	9944.94
468.23	9734.29
468.41	9678.12
468.60	9738.97
468.78	9680.46
468.96	9818.55
469.14	9961.32
469.32	10033.88
469.50	9722.59
469.69	9823.23
469.87	10108.77
470.05	10076.01
470.23	9905.15
470.41	10054.94
470.59	10083.03
470.77	10143.88
470.95	10122.82
471.14	10415.38
471.32	10099.41
471.50	10626.03
471.68	10347.51
471.86	10485.60
472.04	10714.97
472.22	10890.51
472.40	10679.86
472.58	10576.88
472.77	10773.49
472.95	10834.34
473.13	11185.42
473.31	10906.90
473.49	10771.15
473.67	10864.77
473.85	10909.24
474.03	11131.59
474.21	11222.87
474.39	11190.10
474.57	11281.38
474.75	11571.61
474.93	11510.75
475.12	11480.33
475.30	11520.12
475.48	11569.27
475.66	11754.17
475.84	11712.04
476.02	11878.22
476.20	11770.55
476.38	11941.41
476.56	12037.38
476.74	12084.19
476.92	11981.20
477.10	12126.32
477.28	12430.59
477.46	12463.35
477.64	12395.48
477.82	12730.17
478.00	12957.21
478.18	12957.21
478.36	12802.73
478.54	13191.26
478.72	12966.57
478.90	13081.25
479.08	13444.04
479.26	13418.29
479.44	13633.62
479.62	13348.08
479.80	13802.14
479.98	13799.80
480.16	14003.43
480.34	13731.92
480.52	14090.02
480.70	13947.25
480.88	14134.50
481.06	14298.33
481.24	14064.28
481.41	14864.74
481.59	14712.61
481.77	15059.01
481.95	14705.59
482.13	14897.51
482.31	14941.98
482.49	15255.61
482.67	15180.71
482.85	15548.18
483.03	15510.73
483.21	15658.18
483.39	15555.20
483.57	16107.57
483.74	15997.56
483.92	16163.74
484.10	15859.47
484.28	16432.90
484.46	16276.09
484.64	16739.51
484.82	16498.44
485.00	16685.68
485.18	16599.08
485.35	16938.46
485.53	16449.28
485.71	16540.57
485.89	16760.58
486.07	16545.25
486.25	17008.67
486.43	17212.30
486.61	17317.62
486.78	17713.17
486.96	17771.69
487.14	17951.91
487.32	18043.19
487.50	18410.65
487.68	18621.30
487.85	18831.95
488.03	18654.07
488.21	19143.24
488.39	19215.80
488.57	19054.30
488.75	19541.13
488.92	19496.66
489.10	19697.95
489.28	19812.63
489.46	20189.46
489.64	20245.63
489.81	20264.36
489.99	20814.38
490.17	20819.07
490.35	21020.35
490.53	20809.70
490.70	20896.30
490.88	20842.47
491.06	21294.19
491.24	21481.44
491.41	21322.28
491.59	21369.09
491.77	21242.70
491.95	21565.70
492.13	21926.14
492.30	22202.32
492.48	21914.44
492.66	22560.42
492.84	22396.59
493.01	22871.72
493.19	22162.53
493.37	22710.22
493.54	22789.80
493.72	23082.36
493.90	23124.49
494.08	23421.74
494.25	23793.89
494.43	23847.72
494.61	24133.26
494.79	24173.05
494.96	23786.86
495.14	24088.79
495.32	24095.82
495.49	24514.77
495.67	24304.12
495.85	24713.72
496.02	24971.18
496.20	24802.66
496.38	25078.84
496.55	25130.33
496.73	25654.61
496.91	25656.95
497.09	25546.95
497.26	25656.95
497.44	25446.30
497.62	25923.77
497.79	26216.34
497.97	25813.77
498.14	26218.68
498.32	26082.93
498.50	26176.55
498.67	26473.80
498.85	26597.85
499.03	27164.26
499.20	26810.84
499.38	26993.40
499.56	27349.16
499.73	26951.27
499.91	27192.34
500.08	27388.95
500.26	26888.07
500.44	27524.70
500.61	27187.66
500.79	27204.05
500.97	27756.41
501.14	27892.16
501.32	27693.22
501.49	27981.10
501.67	28245.58
501.84	28238.56
502.02	27892.16
502.20	28460.91
502.37	29013.28
502.55	28379.00
502.72	28706.67
502.90	28748.80
503.07	28594.32
503.25	28573.26
503.43	28699.65
503.60	29163.08
503.78	28781.57
503.95	28917.32
504.13	29181.80
504.30	29565.65
504.48	29413.51
504.65	29914.39
504.83	29923.75
505.01	29666.29
505.18	29956.52
505.36	30356.75
505.53	29914.39
505.71	30614.21
505.88	30506.54
506.06	29977.58
506.23	30644.63
506.41	30150.78
506.58	30485.48
506.76	30635.27
506.93	30689.10
507.11	30969.97
507.28	30635.27
507.46	30309.94
507.63	30841.24
507.81	30969.97
507.98	30967.63
508.16	31243.81
508.33	31512.97
508.50	31803.20
508.68	31325.73
508.85	31531.70
509.03	31606.59
509.20	31819.58
509.38	32060.66
509.55	31995.12
509.73	32065.34
509.90	32348.54
510.08	31569.15
510.25	32109.81
510.42	32402.38
510.60	32311.10
510.77	32631.75
510.95	33029.64
511.12	32683.24
511.30	32407.06
511.47	33291.78
511.64	33385.40
511.82	33242.63
511.99	33074.11
512.17	33404.13
512.34	33076.45
512.51	33338.59
512.69	33598.39
512.86	33336.25
513.04	33921.38
513.21	33406.47
513.38	33509.45
513.56	33385.40
513.73	33490.73
513.90	33806.70
514.08	33673.29
514.25	34370.77
514.43	33668.61
514.60	33977.56
514.77	33956.49
514.95	34366.09
515.12	34162.46
515.29	34347.36
515.47	34841.21
515.64	34817.81
515.81	34721.85
515.99	34527.58
516.16	34646.95
516.33	34050.11
516.51	34316.93
516.68	34291.19
516.85	34225.65
517.03	34373.11
517.20	34717.17
517.37	35133.78
517.54	34941.86
517.72	35145.48
517.89	34857.60
518.06	34738.23
518.24	34527.58
518.41	35096.33
518.58	35360.81
518.75	35424.01
518.93	35908.50
519.10	35370.18
519.27	36212.77
519.45	35615.93
519.62	36385.97
519.79	35749.34
519.96	36067.66
520.14	36376.61
520.31	36053.61
520.48	36535.76
520.65	36032.55
520.83	36715.98
521.00	36568.53
521.17	36999.19
521.34	36987.49
521.52	37312.82
521.69	37352.61
521.86	36912.59
522.03	37024.93
522.20	37156.00
522.38	37354.95
522.55	37394.74
522.72	37146.64
522.89	37167.71
523.07	37359.63
523.24	37717.73
523.41	37530.49
523.58	37455.59
523.75	38354.36
523.92	37998.60
524.10	38342.66
524.27	38504.15
524.44	38047.75
524.61	38462.02
524.78	38557.99
524.96	38352.02
525.13	38359.04
525.30	38696.08
525.47	38677.35
525.64	38576.71
525.81	38593.09
525.98	38492.45
526.16	38373.08
526.33	37752.84
526.50	38738.21
526.67	38110.94
526.84	38410.53
527.01	38462.02
527.18	38242.01
527.36	39187.59
527.53	39290.57
527.70	39400.58
527.87	39377.17
528.04	39131.42
528.21	39449.73
528.38	39337.38
528.55	39992.73
528.72	39796.13
528.89	39536.33
529.07	39665.06
529.24	39461.43
529.41	39501.22
529.58	39402.92
529.75	39283.55
529.92	39974.01
530.09	40086.36
530.26	39920.18
530.43	40201.04
530.60	39840.60
530.77	40091.04
530.94	40509.99
531.11	39981.03
531.28	40081.67
531.46	40744.05
531.63	40706.60
531.80	40474.88
531.97	40414.03
532.14	40634.04
532.31	39964.65
532.48	40144.87
532.65	40477.22
532.82	40514.67
532.99	40832.99
533.16	40570.85
533.33	40746.39
533.50	41088.10
533.67	40942.99
533.84	40840.01
534.01	41045.97
534.18	41062.36
534.35	41296.41
534.52	41261.30
534.69	41027.25
534.86	41291.73
535.03	41495.36
535.20	41975.17
535.37	41890.91
535.54	42347.31
535.71	41408.76
535.88	41551.53
536.05	41584.30
536.22	41755.16
536.38	41759.84
536.55	41607.70
536.72	41918.99
536.89	41916.65
537.06	41757.50
537.23	42298.16
537.40	42110.92
537.57	42036.02
537.74	41991.55
537.91	42333.27
538.08	42101.56
538.25	41619.41
538.42	42476.04
538.59	42204.54
538.75	42054.75
538.92	42064.11
539.09	42213.90
539.26	42155.39
539.43	42440.93
539.60	42328.59
539.77	42550.94
539.94	42546.26
540.11	42234.97
540.28	42401.14
540.44	42211.56
540.61	42157.73
540.78	42225.60
540.95	42438.59
541.12	42628.18
541.29	42817.76
541.46	43107.99
541.62	42958.19
541.79	43215.65
541.96	42445.62
542.13	42754.57
542.30	43196.93
542.47	43264.80
542.63	42583.71
542.80	43578.43
542.97	43793.76
543.14	43407.58
543.31	43386.51
543.48	43714.19
543.64	44121.44
543.81	43695.46
543.98	43756.32
544.15	43519.92
544.32	43882.70
544.48	44053.56
544.65	43505.88
544.82	43845.26
544.99	43950.58
545.16	44011.43
545.32	43215.65
545.49	44264.21
545.66	44411.67
545.83	44472.52
546.00	44603.59
546.16	43852.28
546.33	43854.62
546.50	43990.37
546.67	44285.28
546.83	43761.00
547.00	43978.67
547.17	43906.11
547.34	44304.00
547.50	44477.20
547.67	44177.61
547.84	44472.52
548.00	44477.20
548.17	44842.32
548.34	44650.40
548.51	44636.36
548.67	44240.81
548.84	44662.10
549.01	44870.41
549.18	44830.62
549.34	44690.19
549.51	45041.27
549.68	44676.15
549.84	44699.55
550.01	44797.85
550.18	45043.61
550.34	44816.58
550.51	44825.94
550.68	44629.34
550.84	44655.08
551.01	45294.05
551.18	44893.82
551.34	45148.93
551.51	45219.15
551.68	45483.63
551.84	45645.13
552.01	44626.99
552.18	44809.56
552.34	45045.95
552.51	45315.11
552.68	45013.18
552.84	45284.68
553.01	46115.58
553.18	45441.50
553.34	45284.68
553.51	45310.43
553.67	45067.02
553.84	46078.13
554.01	45830.03
554.17	46005.57
554.34	45769.18
554.51	45813.65
554.67	45694.28
554.84	45439.16
555.00	45441.50
555.17	45453.20
555.33	45722.37
555.50	45916.63
555.67	46258.35
555.83	46291.12
556.00	45928.33
556.16	46232.60
556.33	45937.69
556.50	45668.53
556.66	45492.99
556.83	45893.22
556.99	45949.40
557.16	45998.55
557.32	46150.68
557.49	45839.39
557.65	45904.93
557.82	46225.58
557.98	45703.64
558.15	45811.31
558.32	45544.48
558.48	45883.86
558.65	46213.88
558.81	45783.22
558.98	46024.29
559.14	46162.39
559.31	46450.27
559.47	46143.66
559.64	46553.26
559.80	46450.27
559.97	46277.07
560.13	45729.39
560.30	46728.80
560.46	46436.23
560.63	46410.48
560.79	46129.62
560.96	46391.76
561.12	46012.59
561.29	46089.83
561.45	46548.57
561.61	46866.89
561.78	46806.03
561.94	46363.67
562.11	46021.95
562.27	46649.22
562.44	46562.62
562.60	46850.50
562.77	47077.54
562.93	47030.72
563.10	46541.55
563.26	46361.33
563.42	46848.16
563.59	46368.35
563.75	46738.16
563.92	47196.90
564.08	46312.18
564.24	46579.00
564.41	46801.35
564.57	46653.90
564.74	46492.40
564.90	46763.90
565.07	46579.00
565.23	46579.00
565.39	46738.16
565.56	46902.00
565.72	46635.17
565.88	46555.60
566.05	46583.68
566.21	46246.65
566.38	47009.66
566.54	46569.64
566.70	47051.79
566.87	47445.00
567.03	46677.30
567.19	47313.93
567.36	46651.56
567.52	46756.88
567.68	46906.68
567.85	46078.13
568.01	46513.47
568.17	46974.55
568.34	46988.60
568.50	46887.95
568.66	46511.13
568.83	46258.35
568.99	46855.18
569.15	47122.01
569.32	46487.72
569.48	46923.06
569.64	46948.81
569.81	46878.59
569.97	46934.76
570.13	47243.71
570.30	46693.69
570.46	46464.32
570.62	46433.89
570.78	46904.34
570.95	46377.72
571.11	46979.23
571.27	46972.21
571.43	46876.25
571.60	47019.02
571.76	46600.07
571.92	46742.84
572.09	46930.08
572.25	46864.55
572.41	46806.03
572.57	46614.11
572.74	47414.57
572.90	47232.01
573.06	47657.99
573.22	46983.91
573.38	47430.96
573.55	46672.62
573.71	47327.97
573.87	46810.71
574.03	46822.42
574.20	46955.83
574.36	47129.03
574.52	46953.49
574.68	47122.01
574.84	46721.77
575.01	46869.23
575.17	47248.39
575.33	47072.85
575.49	46768.58
575.65	47356.06
575.82	47543.30
575.98	46965.19
576.14	47435.64
576.30	47480.11
576.46	47075.19
576.62	47180.52
576.79	47084.56
576.95	46646.88
577.11	47028.38
577.27	46775.61
577.43	47164.14
577.59	46883.27
577.75	47173.50
577.92	46855.18
578.08	46609.43
578.24	46848.16
578.40	46873.91
578.56	47065.83
578.72	47222.65
578.88	47454.36
579.04	47004.98
579.21	47255.42
579.37	47138.39
579.53	46789.65
579.69	46857.52
579.85	46967.53
580.01	47173.50
580.17	47278.82
580.33	47110.30
580.49	47264.78
580.65	47669.69
580.82	47269.46
580.98	47012.00
581.14	47178.18
581.30	47114.98
581.46	46941.78
581.62	47049.45
581.78	46967.53
581.94	47435.64
582.10	47016.68
582.26	47435.64
582.42	47449.68
582.58	47337.33
582.74	47061.15
582.90	47206.26
583.06	47714.16
583.22	47466.06
583.38	47782.04
583.54	47187.54
583.70	47220.31
583.86	47201.58
584.02	46827.10
584.18	47290.52
584.34	46990.94
584.50	47271.80
584.66	47426.28
584.82	46911.36
584.98	47346.70
585.14	47302.23
585.30	47143.07
585.46	47192.22
585.62	47232.01
585.78	46862.21
585.94	46768.58
586.10	46892.63
586.26	47061.15
586.42	47267.12
586.58	47185.20
586.74	47550.32
586.90	47147.75
587.06	46955.83
587.22	47117.32
587.38	46887.95
587.54	46972.21
587.70	47423.93
587.86	46944.12
588.02	47241.37
588.18	47447.34
588.34	46974.55
588.49	46639.86
588.65	46927.74
588.81	46721.77
588.97	46724.11
589.13	46803.69
589.29	46955.83
589.45	46948.81
589.61	47452.02
589.77	47164.14
