SpectraSuite Data File
++++++++++++++++++++++++++++++++++++
Date: Fri Oct 25 11:23:17 EDT 2013
User: price-jones
Dark Spectrum Present: No
Reference Spectrum Present: No
Number of Sampled Component Spectra: 1
Spectrometers: USB2+H05261
Integration Time (usec): 100000 (USB2+H05261)
Spectra Averaged: 1 (USB2+H05261)
Boxcar Smoothing: 0 (USB2+H05261)
Correct for Electrical Dark: No (USB2+H05261)
Strobe/Lamp Enabled: No (USB2+H05261)
Correct for Detector Non-linearity: No (USB2+H05261)
Correct for Stray Light: No (USB2+H05261)
Number of Pixels in Processed Spectrum: 2048
>>>>>Begin Processed Spectral Data<<<<<
365.73	262.14
365.92	262.14
366.12	262.14
366.32	243.42
366.52	161.50
366.72	166.18
366.91	117.03
367.11	81.92
367.31	95.96
367.51	93.62
367.70	110.01
367.90	168.52
368.10	161.50
368.30	156.82
368.49	140.43
368.69	208.31
368.89	189.58
369.09	161.50
369.28	180.22
369.48	156.82
369.68	203.63
369.87	224.69
370.07	187.24
370.27	177.88
370.47	339.38
370.66	526.62
370.86	662.37
371.06	648.33
371.25	624.92
371.45	596.84
371.65	688.12
371.84	662.37
372.04	624.92
372.24	706.84
372.44	741.95
372.63	678.76
372.83	809.83
373.03	744.29
373.22	690.46
373.42	739.61
373.62	870.68
373.81	737.27
374.01	720.88
374.21	830.89
374.40	802.80
374.60	943.24
374.79	823.87
374.99	837.91
375.19	894.08
375.38	786.42
375.58	908.13
375.78	819.19
375.97	896.43
376.17	908.13
376.37	823.87
376.56	826.21
376.76	868.34
376.95	854.30
377.15	952.60
377.35	901.11
377.54	873.02
377.74	856.64
377.93	931.53
378.13	957.28
378.33	919.83
378.52	1011.11
378.72	903.45
378.91	983.02
379.11	896.43
379.31	992.39
379.50	973.66
379.70	922.17
379.89	1001.75
380.09	912.81
380.28	959.62
380.48	945.58
380.68	1006.43
380.87	887.06
381.07	1011.11
381.26	1048.56
381.46	1004.09
381.65	1043.88
381.85	990.05
382.04	1015.79
382.24	1008.77
382.43	1076.65
382.63	1090.69
382.83	1078.99
383.02	1132.82
383.22	1149.20
383.41	1139.84
383.61	1090.69
383.80	1165.59
384.00	1093.03
384.19	1102.39
384.39	1142.18
384.58	1125.80
384.78	1167.93
384.97	1200.69
385.17	1083.67
385.36	1078.99
385.56	1228.78
385.75	1149.20
385.95	1181.97
386.14	1226.44
386.34	1224.10
386.53	1205.38
386.72	1174.95
386.92	1235.80
387.11	1273.25
387.31	1308.36
387.50	1179.63
387.70	1245.16
387.89	1266.23
388.09	1259.21
388.28	1252.19
388.48	1324.74
388.67	1275.59
388.86	1352.83
389.06	1238.14
389.25	1334.11
389.45	1327.08
389.64	1394.96
389.84	1322.40
390.03	1313.04
390.22	1303.68
390.42	1348.15
390.61	1427.73
390.81	1371.55
391.00	1404.32
391.19	1416.02
391.39	1411.34
391.58	1521.35
391.78	1561.14
391.97	1446.45
392.16	1437.09
392.36	1591.56
392.55	1610.29
392.75	1483.90
392.94	1568.16
393.13	1483.90
393.33	1544.75
393.52	1483.90
393.71	1554.12
393.91	1654.76
394.10	1631.35
394.29	1568.16
394.49	1600.93
394.68	1603.27
394.88	1661.78
395.07	1659.44
395.26	1619.65
395.46	1661.78
395.65	1760.08
395.84	1687.53
396.04	1795.19
396.23	1776.47
396.42	1743.70
396.62	1809.23
396.81	1788.17
397.00	1755.40
397.19	1858.39
397.39	1795.19
397.58	1879.45
397.77	1837.32
397.97	1874.77
398.16	1886.47
398.35	1961.37
398.55	1914.56
398.74	1947.33
398.93	1994.14
399.12	1923.92
399.32	1879.45
399.51	2045.63
399.70	2090.10
399.90	1963.71
400.09	2029.24
400.28	2015.20
400.47	2040.95
400.67	2195.42
400.86	2193.08
401.05	2064.35
401.24	2090.10
401.44	2125.21
401.63	2176.70
401.82	2172.02
402.01	2129.89
402.21	2207.13
402.40	2331.17
402.59	2239.89
402.78	2186.06
402.97	2174.36
403.17	2279.68
403.36	2272.66
403.55	2342.88
403.74	2265.64
403.93	2296.07
404.13	2377.98
404.32	2396.71
404.51	2260.96
404.70	2499.69
404.89	2415.43
405.09	2480.97
405.28	2647.15
405.47	2553.52
405.66	2544.16
405.85	2436.50
406.05	2424.80
406.24	2665.87
406.43	2637.78
406.62	2684.59
406.81	2717.36
407.00	2551.18
407.20	2647.15
407.39	2672.89
407.58	2684.59
407.77	2700.98
407.96	2839.07
408.15	2724.38
408.34	2684.59
408.54	2857.79
408.73	2834.39
408.92	2843.75
409.11	2925.67
409.30	2855.45
409.49	2951.42
409.68	3014.61
409.87	2897.58
410.07	3070.78
410.26	2925.67
410.45	2949.08
410.64	3080.14
410.83	3136.32
411.02	3166.74
411.21	3148.02
411.40	3112.91
411.59	3236.96
411.78	3260.37
411.98	3251.00
412.17	3304.84
412.36	3353.99
412.55	3375.05
412.74	3496.76
412.93	3414.84
413.12	3417.18
413.31	3529.53
413.50	3449.95
413.69	3503.78
413.88	3623.15
414.07	3700.39
414.26	3658.26
414.45	3655.92
414.64	3735.50
414.83	3655.92
415.02	3791.67
415.22	3943.80
415.41	3960.19
415.60	3873.59
415.79	3918.06
415.98	4002.32
416.17	4105.30
416.36	3960.19
416.55	4112.32
416.74	4189.56
416.93	4088.92
417.12	4306.59
417.31	4142.75
417.50	4219.99
417.69	4294.88
417.88	4402.55
418.07	4292.54
418.26	4315.95
418.45	4444.68
418.64	4624.90
418.83	4517.23
419.02	4554.68
419.21	4587.45
419.39	4580.43
419.58	4568.73
419.77	4657.67
419.96	4627.24
420.15	4641.28
420.34	4594.47
420.53	4557.02
420.72	4755.97
420.91	4716.18
421.10	4786.40
421.29	4709.16
421.48	4781.71
421.67	4905.76
421.86	4865.97
422.05	5060.24
422.24	4954.91
422.43	5102.37
422.61	4863.63
422.80	5027.47
422.99	5001.72
423.18	5078.96
423.37	5095.35
423.56	5083.64
423.75	5048.54
423.94	4915.12
424.13	4662.35
424.32	4798.10
424.50	5074.28
424.69	5156.20
424.88	5085.98
425.07	4936.19
425.26	4868.31
425.45	5011.09
425.64	4961.94
425.83	5055.56
426.01	4971.30
426.20	5167.90
426.39	5116.41
426.58	4959.60
426.77	5074.28
426.96	5256.84
427.15	5228.76
427.33	5212.37
427.52	5177.26
427.71	5282.59
427.90	5228.76
428.09	5322.38
428.28	5437.06
428.46	5434.72
428.65	5245.14
428.84	5537.71
429.03	5661.76
429.22	5502.60
429.40	5490.90
429.59	5563.45
429.78	5619.63
429.97	5418.34
430.16	5589.20
430.34	5652.39
430.53	5561.11
430.72	5701.54
430.91	5795.17
431.10	5603.24
431.28	5813.89
431.47	5879.43
431.66	6022.20
431.85	5731.97
432.03	5879.43
432.22	6069.01
432.41	5919.21
432.60	5949.64
432.79	6122.84
432.97	5991.77
433.16	5994.11
433.35	5907.51
433.54	6183.70
433.72	6312.42
433.91	6249.23
434.10	6321.79
434.28	6155.61
434.47	6338.17
434.66	6279.66
434.85	6441.15
435.03	6401.37
435.22	6284.34
435.41	6588.61
435.59	6422.43
435.78	6387.32
435.97	6553.50
436.16	6450.52
436.34	6445.84
436.53	6590.95
436.72	6841.39
436.90	6471.58
437.09	6717.34
437.28	6569.88
437.46	6640.10
437.65	6637.76
437.84	6712.66
438.02	6661.16
438.21	7047.35
438.40	6761.81
438.58	7096.50
438.77	7037.99
438.96	6909.26
439.14	7042.67
439.33	7274.38
439.52	7220.55
439.70	7115.23
439.89	7543.55
440.08	7459.29
440.26	7524.82
440.45	7297.79
440.63	7569.29
440.82	7749.51
441.01	7695.68
441.19	7906.33
441.38	7698.02
441.57	7932.08
441.75	7789.30
441.94	8236.35
442.12	7878.24
442.31	8018.68
442.50	8271.45
442.68	8147.40
442.87	8198.90
443.05	8159.11
443.24	8067.83
443.43	8170.81
443.61	8198.90
443.80	8599.13
443.98	8168.47
444.17	7908.67
444.35	8226.98
444.54	8355.71
444.73	8311.24
444.91	8423.59
445.10	8587.43
445.28	8479.76
445.47	8463.38
445.65	8409.54
445.84	8458.70
446.02	8547.64
446.21	8472.74
446.39	8606.15
446.58	8638.92
446.77	8669.34
446.95	8477.42
447.14	8535.93
447.32	8624.87
447.51	8538.27
447.69	8540.61
447.88	8489.12
448.06	8765.31
448.25	8917.44
448.43	8727.86
448.62	8716.16
448.80	8744.24
448.99	8842.54
449.17	8833.18
449.36	8681.05
449.54	9121.07
449.73	9053.19
449.91	9280.22
450.10	8961.91
450.28	9034.47
450.46	9193.62
450.65	9146.81
450.83	9055.53
451.02	8954.89
451.20	9085.96
451.39	9195.96
451.57	9181.92
451.76	9214.69
451.94	9336.40
452.13	9455.76
452.31	9406.61
452.49	9320.01
452.68	9439.38
452.86	9537.68
453.05	9430.02
453.23	9706.20
453.42	9657.05
453.60	9692.16
453.78	9612.58
453.97	9755.35
454.15	9474.49
454.34	9535.34
454.52	9811.53
454.70	9790.46
454.89	9743.65
455.07	9879.40
455.26	10029.20
455.44	10396.66
455.62	10003.45
455.81	9944.94
455.99	10019.83
456.17	10204.74
456.36	10296.02
456.54	10258.57
456.73	10401.34
456.91	10586.24
457.09	10607.31
457.28	10827.32
457.46	10565.18
457.64	10590.92
457.83	10485.60
458.01	10436.45
458.19	10792.21
458.38	10710.29
458.56	10953.71
458.74	10672.84
458.93	10963.07
459.11	11108.18
459.29	10841.36
459.48	10729.02
459.66	10827.32
459.84	10930.30
460.03	11396.07
460.21	11316.49
460.39	11103.50
460.57	11154.99
460.76	11311.81
460.94	11274.36
461.12	11379.68
461.31	11295.43
461.49	11379.68
461.67	11286.06
461.85	11712.04
462.04	11304.79
462.22	11592.67
462.40	11641.82
462.59	11754.17
462.77	11419.47
462.95	11838.43
463.13	11580.97
463.32	11971.84
463.50	11784.60
463.68	11747.15
463.86	11913.33
464.05	11758.85
464.23	11681.61
464.41	11932.05
464.59	11964.82
464.78	12290.15
464.96	12128.66
465.14	11997.59
465.32	12119.29
465.50	12112.27
465.69	12369.73
465.87	12449.31
466.05	12318.24
466.23	12437.61
466.41	12283.13
466.60	12856.56
466.78	12248.02
466.96	12325.26
467.14	12365.05
467.32	12844.86
467.51	12690.38
467.69	12212.92
467.87	12409.52
468.05	12615.49
468.23	12585.06
468.41	12727.83
468.60	12879.97
468.78	12964.23
468.96	12741.88
469.14	13011.04
469.32	12896.35
469.50	12865.92
469.69	13329.35
469.87	13123.38
470.05	13214.66
470.23	13172.54
470.41	13294.24
470.59	13345.73
470.77	13369.14
470.95	13561.06
471.14	13621.92
471.32	13282.54
471.50	13729.58
471.68	13540.00
471.86	13593.83
472.04	13790.44
472.22	13942.57
472.40	13783.41
472.58	14207.05
472.77	14099.39
472.95	14200.03
473.13	14691.54
473.31	14193.01
473.49	14277.27
473.67	14253.86
473.85	14516.00
474.03	14698.56
474.21	14820.27
474.39	14846.02
474.57	14899.85
474.75	15110.50
474.93	15379.66
475.12	14974.75
475.30	15154.97
475.48	15030.92
475.66	15332.85
475.84	15356.25
476.02	15529.45
476.20	15410.09
476.38	15864.15
476.56	15934.37
476.74	16084.16
476.92	15941.39
477.10	15917.98
477.28	16350.98
477.46	16299.49
477.64	16666.95
477.82	16559.29
478.00	17291.88
478.18	17050.80
478.36	16826.11
478.54	17249.75
478.72	17462.74
478.90	17458.06
479.08	17778.71
479.26	18082.98
479.44	17909.78
479.62	18085.32
479.80	18448.10
479.98	18527.68
480.16	18869.40
480.34	18434.06
480.52	18801.52
480.70	18951.32
480.88	18750.03
481.06	18853.02
481.24	18939.62
481.41	19585.60
481.59	19452.19
481.77	19592.62
481.95	19964.77
482.13	19482.62
482.31	19997.54
482.49	20510.11
482.67	20428.20
482.85	20989.92
483.03	21137.38
483.21	20905.66
483.39	21245.04
483.57	21425.26
483.74	20992.26
483.92	21930.82
484.10	21680.38
484.28	22033.80
484.46	22232.75
484.64	22675.11
484.82	22422.33
485.00	22553.40
485.18	23227.48
485.35	23431.10
485.53	23103.43
485.71	23349.18
485.89	23908.57
486.07	23681.54
486.25	23786.86
486.43	23782.18
486.61	24020.92
486.78	24503.07
486.96	24446.90
487.14	24769.89
487.32	24863.51
487.50	25174.80
487.68	25329.28
487.85	25612.48
488.03	25958.88
488.21	25972.92
488.39	26080.59
488.57	26614.23
488.75	26810.84
488.92	26838.92
489.10	26740.62
489.28	27281.28
489.46	27487.25
489.64	27372.57
489.81	28025.57
489.99	27953.02
490.17	28187.07
490.35	28584.96
490.53	28327.50
490.70	28870.51
490.88	28360.27
491.06	29460.32
491.24	28893.91
491.41	29359.68
491.59	29453.30
491.77	29294.14
491.95	29809.06
492.13	30197.59
492.30	30345.05
492.48	30256.11
492.66	30478.46
492.84	31028.48
493.01	30789.75
493.19	30923.16
493.37	31402.97
493.54	31784.48
493.72	31751.71
493.90	31669.79
494.08	32161.30
494.25	32556.85
494.43	32109.81
494.61	32994.53
494.79	32957.08
494.96	33172.41
495.14	33125.60
495.32	33584.35
495.49	33907.34
495.67	33439.23
495.85	34007.98
496.02	34113.31
496.20	34139.05
496.38	34597.80
496.55	34366.09
496.73	35124.42
496.91	34607.16
497.09	35103.35
497.26	35323.36
497.44	35295.28
497.62	35580.82
497.79	36247.88
497.97	35688.49
498.14	36273.62
498.32	37141.96
498.50	36435.12
498.67	36851.73
498.85	36978.12
499.03	37184.09
499.20	37404.10
499.38	37148.98
499.56	37694.33
499.73	37614.75
499.91	37926.04
500.08	37851.14
500.26	37481.34
500.44	38354.36
500.61	38745.23
500.79	37876.89
500.97	38724.16
501.14	38829.49
501.32	39227.38
501.49	38780.34
501.67	38960.56
501.84	39445.05
502.02	39316.32
502.20	39370.15
502.37	39576.12
502.55	39658.04
502.72	40177.64
502.90	39812.51
503.07	40603.61
503.25	40318.07
503.43	40179.98
503.60	40905.54
503.78	41055.34
503.95	40987.46
504.13	40856.39
504.30	41134.92
504.48	41291.73
504.65	41378.33
504.83	41748.14
505.01	41642.81
505.18	42075.81
505.36	41834.74
505.53	41780.90
505.71	42141.35
505.88	42466.68
506.06	41963.46
506.23	42007.94
506.41	42326.25
506.58	42684.35
506.76	42691.37
506.93	43012.02
507.11	42267.73
507.28	43313.95
507.46	42705.41
507.63	43100.97
507.81	43545.67
507.98	43484.81
508.16	43721.21
508.33	43597.16
508.50	44102.71
508.68	43842.92
508.85	44364.85
509.03	44268.89
509.20	45170.00
509.38	44942.97
509.55	44835.30
509.73	44804.88
509.90	45045.95
510.08	44926.58
510.25	45074.04
510.42	45347.88
510.60	45521.08
510.77	45628.74
510.95	45799.60
511.12	46082.81
511.30	45830.03
511.47	46043.02
511.64	45736.41
511.82	46256.01
511.99	46298.14
512.17	46323.88
512.34	46089.83
512.51	47009.66
512.69	47028.38
512.86	46972.21
513.04	46791.99
513.21	47150.09
513.38	47224.99
513.56	47072.85
513.73	47030.72
513.90	47601.82
514.08	47107.96
514.25	47440.32
514.43	48009.07
514.60	47571.39
514.77	47725.86
514.95	48240.78
515.12	47814.80
515.29	48268.87
515.47	48795.49
515.64	48736.98
515.81	48395.26
515.99	48465.47
516.16	49214.44
516.33	48395.26
516.51	48964.01
516.68	49188.70
516.85	49242.53
517.03	49553.82
517.20	49476.58
517.37	49254.23
517.54	49312.75
517.72	49492.97
517.89	49776.17
518.06	49825.32
518.24	49385.30
518.41	49565.52
518.58	49624.04
518.75	49670.85
518.93	49895.54
519.10	49921.29
519.27	50265.34
519.45	50398.76
519.62	50330.88
519.79	50405.78
519.96	50052.36
520.14	50380.03
520.31	50543.87
520.48	50901.97
520.65	50787.28
520.83	50981.55
521.00	51269.43
521.17	50988.57
521.34	51089.21
521.52	51243.69
521.69	51564.34
521.86	51683.71
522.03	51641.58
522.20	51922.44
522.38	51791.37
522.55	51835.84
522.72	51749.24
522.89	51868.61
523.07	52254.80
523.24	52074.58
523.41	52109.69
523.58	51400.50
523.75	52170.54
523.92	52467.79
524.10	52612.90
524.27	52437.36
524.44	52388.21
524.61	52666.73
524.78	52442.04
524.96	52460.77
525.13	52456.09
525.30	53057.60
525.47	53073.99
525.64	52818.87
525.81	52982.71
525.98	52982.71
526.16	52900.79
526.33	52825.89
526.50	53404.00
526.67	52982.71
526.84	53385.28
527.01	53284.64
527.18	53406.34
527.36	53317.40
527.53	53368.90
527.70	53841.68
527.87	53881.47
528.04	53757.42
528.21	54057.01
528.38	53745.72
528.55	53844.02
528.72	53860.41
528.89	53659.12
529.07	53790.19
529.24	54078.08
529.41	54129.57
529.58	53853.39
529.75	54073.40
529.92	54312.13
530.09	54068.72
530.26	54148.29
530.43	54534.48
530.60	54075.74
530.77	54391.71
530.94	54593.00
531.11	54251.28
531.28	54534.48
531.46	54637.47
531.63	54719.38
531.80	54773.22
531.97	54464.27
532.14	54953.44
532.31	54726.41
532.48	54719.38
532.65	55056.42
532.82	54937.05
532.99	55000.25
533.16	54637.47
533.33	55063.44
533.50	55234.30
533.67	55274.09
533.84	55096.21
534.01	55339.63
534.18	55433.25
534.35	55620.49
534.52	55449.63
534.69	55683.69
534.86	55711.77
535.03	55374.73
535.20	55283.45
535.37	55592.40
535.54	55550.27
535.71	55583.04
535.88	55765.60
536.05	55774.97
536.22	55791.35
536.38	56119.02
536.55	55920.08
536.72	55955.19
536.89	55634.53
537.06	56161.15
537.23	56023.06
537.40	55990.30
537.57	56030.08
537.74	56072.21
537.91	56203.28
538.08	56135.41
538.25	56119.02
538.42	56374.14
538.59	56397.55
538.75	56245.41
538.92	56409.25
539.09	56645.65
539.26	56472.45
539.43	56629.26
539.60	56507.55
539.77	56530.96
539.94	56896.08
540.11	56601.18
540.28	56694.80
540.44	56741.61
540.61	56701.82
540.78	56626.92
540.95	56870.34
541.12	56952.26
541.29	56757.99
541.46	56809.48
541.62	56732.25
541.79	56926.51
541.96	56699.48
542.13	56776.72
542.30	57066.94
542.47	57003.75
542.63	57219.08
542.80	57125.46
542.97	57188.65
543.14	57516.32
543.31	57226.10
543.48	57408.66
543.64	57652.08
543.81	57682.50
543.98	57654.42
544.15	57748.04
544.32	57680.16
544.48	57801.87
544.65	57525.69
544.82	57733.99
544.99	57708.25
545.16	57705.91
545.32	57701.23
545.49	57963.37
545.66	57848.68
545.83	57968.05
546.00	58099.12
546.16	57954.00
546.33	57858.04
546.50	57783.15
546.67	58003.16
546.83	57521.01
547.00	58040.60
547.17	57897.83
547.34	58232.53
547.50	58213.80
547.67	58251.25
547.84	58110.82
548.00	58489.99
548.17	58461.90
548.34	58333.17
548.51	58286.36
548.67	58607.01
548.84	58382.32
549.01	58522.76
549.18	58482.97
549.34	58466.58
549.51	58775.53
549.68	58644.46
549.84	58574.25
550.01	58604.67
550.18	58621.06
550.34	58660.85
550.51	58817.66
550.68	58892.56
550.84	58590.63
551.01	59018.95
551.18	58838.73
551.34	58815.32
551.51	59047.04
551.68	58869.15
551.84	58845.75
552.01	58789.58
552.18	59215.55
552.34	58712.34
552.51	59318.54
552.68	58906.60
552.84	58810.64
553.01	59194.49
553.18	59192.15
553.34	59138.32
553.51	59079.80
553.67	59103.21
553.84	59035.33
554.01	59175.76
554.17	59398.12
554.34	59159.38
554.51	59194.49
554.67	59175.76
554.84	59217.89
555.00	59276.41
555.17	59103.21
555.33	59576.00
555.50	59320.88
555.67	59145.34
555.83	59302.15
556.00	59540.89
556.16	59805.37
556.33	59709.41
556.50	59510.46
556.66	59601.74
556.83	59327.90
556.99	59779.62
557.16	59868.56
557.32	59985.59
557.49	59880.27
557.65	59622.81
557.82	59585.36
557.98	59639.19
558.15	59611.10
558.32	59835.80
558.48	59648.55
558.65	59725.79
558.81	59800.69
558.98	59854.52
559.14	59779.62
559.31	59877.93
559.47	59863.88
559.64	60069.85
559.80	59819.41
559.97	59929.42
560.13	59824.09
560.30	59835.80
560.46	60039.42
560.63	60259.43
560.79	60137.72
560.96	60048.78
561.12	60212.62
561.29	60126.02
561.45	60243.05
561.61	60247.73
561.78	60025.38
561.94	60179.85
562.11	60032.40
562.27	60121.34
562.44	60142.41
562.60	60322.63
562.77	60243.05
562.93	60114.32
563.10	60594.13
563.26	60259.43
563.42	60294.54
563.59	60355.39
563.75	60427.95
563.92	60353.05
564.08	60175.17
564.24	60493.49
564.41	60250.07
564.57	60243.05
564.74	60395.18
564.90	60383.48
565.07	60420.93
565.23	60378.80
565.39	60434.97
565.56	60456.04
565.72	60385.82
565.88	60488.80
566.05	60467.74
566.21	60425.61
566.38	60507.53
566.54	60575.40
566.70	60701.79
566.87	60687.75
567.03	60404.55
567.19	60683.07
567.36	60540.30
567.52	60516.89
567.68	60898.40
567.85	60650.30
568.01	60598.81
568.17	60584.77
568.34	60645.62
568.50	60795.42
568.66	60647.96
568.83	60767.33
568.99	60666.69
569.15	60734.56
569.32	60825.84
569.48	60694.77
569.64	60706.47
569.81	60741.58
569.97	60732.22
570.13	60772.01
570.30	60725.20
570.46	60753.29
570.62	60989.68
570.78	60687.75
570.95	60853.93
571.11	60835.20
571.27	60935.85
571.43	60622.22
571.60	60977.98
571.76	60921.80
571.92	61010.74
572.09	61064.58
572.25	60977.98
572.41	60830.52
572.57	61003.72
572.74	61275.22
572.90	60811.80
573.06	60886.70
573.22	61031.81
573.38	60816.48
573.55	61003.72
573.71	61127.77
573.87	60973.30
574.03	60750.94
574.20	60914.78
574.36	60860.95
574.52	60963.93
574.68	60898.40
574.84	61050.53
575.01	60882.02
575.17	60896.06
575.33	61036.49
575.49	61092.66
575.65	61076.28
575.82	61169.90
575.98	61062.24
576.14	61347.78
576.30	60732.22
576.46	60907.76
576.62	60846.91
576.79	61197.99
576.95	60860.95
577.11	61174.58
577.27	61050.53
577.43	61102.03
577.59	61020.11
577.75	61059.90
577.92	61064.58
578.08	61106.71
578.24	61062.24
578.40	61322.04
578.56	61190.97
578.72	61102.03
578.88	61197.99
579.04	61300.97
579.21	61151.18
579.37	61230.75
579.53	61179.26
579.69	60940.53
579.85	61083.30
580.01	61160.54
580.17	60914.78
580.33	61279.91
580.49	61183.94
580.65	61251.82
580.82	61174.58
580.98	61181.60
581.14	61181.60
581.30	61219.05
581.46	61123.09
581.62	61413.32
581.78	61448.42
581.94	61275.22
582.10	61197.99
582.26	61244.80
582.42	61141.81
582.58	61069.26
582.74	61375.87
582.90	61212.03
583.06	61270.54
583.22	61097.34
583.38	61155.86
583.54	61193.31
583.70	61233.10
583.86	61226.07
584.02	61162.88
584.18	61258.84
584.34	61247.14
584.50	61347.78
584.66	61195.65
584.82	61167.56
584.98	61312.67
585.14	61153.52
585.30	61340.76
585.46	61209.69
585.62	61155.86
585.78	61556.09
585.94	61113.73
586.10	61169.90
586.26	61326.72
586.42	61373.53
586.58	61272.88
586.74	61139.47
586.90	61326.72
587.06	61169.90
587.22	61483.53
587.38	61434.38
587.54	61509.28
587.70	61530.34
587.86	61303.31
588.02	61338.42
588.18	61546.73
588.34	61364.17
