SpectraSuite Data File
++++++++++++++++++++++++++++++++++++
Date: Fri Oct 25 11:23:52 EDT 2013
User: price-jones
Dark Spectrum Present: No
Reference Spectrum Present: No
Number of Sampled Component Spectra: 1
Spectrometers: USB2+H05261
Integration Time (usec): 100000 (USB2+H05261)
Spectra Averaged: 1 (USB2+H05261)
Boxcar Smoothing: 0 (USB2+H05261)
Correct for Electrical Dark: No (USB2+H05261)
Strobe/Lamp Enabled: No (USB2+H05261)
Correct for Detector Non-linearity: No (USB2+H05261)
Correct for Stray Light: No (USB2+H05261)
Number of Pixels in Processed Spectrum: 2048
>>>>>Begin Processed Spectral Data<<<<<
365.73	287.89
365.92	287.89
366.12	287.89
366.32	100.64
366.52	138.09
366.72	72.56
366.91	147.45
367.11	152.13
367.31	107.66
367.51	117.03
367.70	81.92
367.90	131.07
368.10	117.03
368.30	149.79
368.49	135.75
368.69	156.82
368.89	140.43
369.09	86.60
369.28	159.16
369.48	163.84
369.68	145.11
369.87	231.71
370.07	175.54
370.27	236.39
370.47	311.29
370.66	580.45
370.86	662.37
371.06	566.41
371.25	681.10
371.45	748.97
371.65	688.12
371.84	636.63
372.04	697.48
372.24	734.93
372.44	676.41
372.63	676.41
372.83	791.10
373.03	711.52
373.22	758.33
373.42	713.86
373.62	755.99
373.81	755.99
374.01	748.97
374.21	814.51
374.40	816.85
374.60	856.64
374.79	760.67
374.99	854.30
375.19	784.08
375.38	887.06
375.58	884.72
375.78	821.53
375.97	856.64
376.17	866.00
376.37	837.91
376.56	898.77
376.76	842.59
376.95	901.11
377.15	896.43
377.35	856.64
377.54	901.11
377.74	933.87
377.93	889.40
378.13	887.06
378.33	917.49
378.52	985.37
378.72	917.49
378.91	952.60
379.11	1006.43
379.31	959.62
379.50	961.96
379.70	961.96
379.89	999.41
380.09	940.90
380.28	968.98
380.48	999.41
380.68	917.49
380.87	1100.05
381.07	1020.47
381.26	933.87
381.46	992.39
381.65	1020.47
381.85	1025.15
382.04	1015.79
382.24	1048.56
382.43	1020.47
382.63	983.02
382.83	1050.90
383.02	983.02
383.22	1067.28
383.41	1043.88
383.61	1102.39
383.80	1184.31
384.00	1048.56
384.19	1062.60
384.39	1116.44
384.58	1144.52
384.78	1095.37
384.97	1210.06
385.17	1188.99
385.36	1170.27
385.56	1114.10
385.75	1107.07
385.95	1163.25
386.14	1214.74
386.34	1158.57
386.53	1179.63
386.72	1165.59
386.92	1261.55
387.11	1233.46
387.31	1254.53
387.50	1249.85
387.70	1252.19
387.89	1219.42
388.09	1226.44
388.28	1352.83
388.48	1249.85
388.67	1280.27
388.86	1287.29
389.06	1348.15
389.25	1214.74
389.45	1366.87
389.64	1324.74
389.84	1357.51
390.03	1380.92
390.22	1336.45
390.42	1348.15
390.61	1401.98
390.81	1418.36
391.00	1380.92
391.19	1430.07
391.39	1416.02
391.58	1455.81
391.78	1425.39
391.97	1397.30
392.16	1504.96
392.36	1504.96
392.55	1495.60
392.75	1465.18
392.94	1654.76
393.13	1530.71
393.33	1549.43
393.52	1568.16
393.71	1568.16
393.91	1589.22
394.10	1547.09
394.29	1603.27
394.49	1631.35
394.68	1652.42
394.88	1657.10
395.07	1629.01
395.26	1685.19
395.46	1591.56
395.65	1750.72
395.84	1806.89
396.04	1858.39
396.23	1710.93
396.42	1743.70
396.62	1790.51
396.81	1748.38
397.00	1703.91
397.19	1849.02
397.39	1842.00
397.58	1816.26
397.77	1753.06
397.97	1926.26
398.16	1720.29
398.35	1884.13
398.55	1813.92
398.74	1877.11
398.93	1923.92
399.12	1905.20
399.32	1870.09
399.51	1907.54
399.70	2043.29
399.90	1919.24
400.09	1982.43
400.28	2111.16
400.47	2148.61
400.67	2143.93
400.86	2073.71
401.05	2115.84
401.24	2139.25
401.44	2125.21
401.63	2136.91
401.82	2197.76
402.01	2113.50
402.21	2139.25
402.40	2190.74
402.59	2083.08
402.78	2242.23
402.97	2225.85
403.17	2218.83
403.36	2235.21
403.55	2408.41
403.74	2373.30
403.93	2452.88
404.13	2392.03
404.32	2298.41
404.51	2370.96
404.70	2408.41
404.89	2401.39
405.09	2466.92
405.28	2455.22
405.47	2473.95
405.66	2499.69
405.85	2497.35
406.05	2511.39
406.24	2523.10
406.43	2492.67
406.62	2609.70
406.81	2595.65
407.00	2602.68
407.20	2612.04
407.39	2590.97
407.58	2679.91
407.77	2736.09
407.96	2710.34
408.15	2738.43
408.34	2764.17
408.54	2768.85
408.73	2923.33
408.92	2918.65
409.11	2918.65
409.30	2906.95
409.49	2993.55
409.68	2843.75
409.87	3045.04
410.07	2956.10
410.26	3087.17
410.45	2902.26
410.64	2970.14
410.83	3091.85
411.02	3016.95
411.21	3005.25
411.40	3171.43
411.59	3204.19
411.78	3068.44
411.98	3178.45
412.17	3337.60
412.36	3220.58
412.55	3243.98
412.74	3449.95
412.93	3421.86
413.12	3267.39
413.31	3576.34
413.50	3508.46
413.69	3543.57
413.88	3508.46
414.07	3672.30
414.26	3637.19
414.45	3784.65
414.64	3674.64
414.83	3693.37
415.02	3789.33
415.22	3817.41
415.41	3885.29
415.60	3791.67
415.79	3885.29
415.98	4049.13
416.17	3983.59
416.36	4032.74
416.55	3983.59
416.74	4109.98
416.93	4145.09
417.12	4222.33
417.31	4231.69
417.50	4198.92
417.69	4367.44
417.88	4248.07
418.07	4133.39
418.26	4205.94
418.45	4456.38
418.64	4610.86
418.83	4552.34
419.02	4383.82
419.21	4425.95
419.39	4645.96
419.58	4486.81
419.77	4479.79
419.96	4482.13
420.15	4702.14
420.34	4655.33
420.53	4758.31
420.72	4788.74
420.91	4500.85
421.10	4702.14
421.29	4678.73
421.48	4718.52
421.67	4784.06
421.86	4732.56
422.05	4730.22
422.24	4816.82
422.43	4875.34
422.61	4805.12
422.80	5109.39
422.99	4964.28
423.18	5060.24
423.37	5071.94
423.56	4961.94
423.75	4807.46
423.94	4875.34
424.13	4561.70
424.32	4734.90
424.50	4940.87
424.69	5139.82
424.88	5025.13
425.07	4964.28
425.26	4812.14
425.45	4968.96
425.64	4938.53
425.83	4968.96
426.01	5043.85
426.20	5114.07
426.39	5041.51
426.58	5048.54
426.77	5074.28
426.96	5203.01
427.15	5008.75
427.33	5224.08
427.52	4994.70
427.71	5284.93
427.90	5469.83
428.09	5364.51
428.28	5336.42
428.46	5294.29
428.65	5416.00
428.84	5451.11
429.03	5521.32
429.22	5345.78
429.40	5497.92
429.59	5441.75
429.78	5448.77
429.97	5432.38
430.16	5413.66
430.34	5528.35
430.53	5626.65
430.72	5720.27
430.91	5776.44
431.10	5645.37
431.28	5701.54
431.47	5767.08
431.66	5734.31
431.85	5797.51
432.03	5912.19
432.22	6080.71
432.41	5849.00
432.60	5935.60
432.79	6052.63
432.97	5968.37
433.16	6120.50
433.35	5863.04
433.54	6153.27
433.72	6146.25
433.91	6211.78
434.10	6134.54
434.28	5989.43
434.47	6202.42
434.66	6132.20
434.85	6277.32
435.03	6289.02
435.22	6354.55
435.41	6469.24
435.59	6445.84
435.78	6469.24
435.97	6487.96
436.16	6408.39
436.34	6499.67
436.53	6583.93
436.72	6593.29
436.90	6604.99
437.09	6614.35
437.28	6504.35
437.46	6586.27
437.65	6525.41
437.84	6841.39
438.02	6759.47
438.21	6757.13
438.40	6679.89
438.58	6815.64
438.77	6967.77
438.96	7087.14
439.14	7176.08
439.33	6991.18
439.52	7218.21
439.70	7227.57
439.89	7314.17
440.08	7442.90
440.26	7449.93
440.45	7375.03
440.63	7424.18
440.82	7527.16
441.01	7503.76
441.19	7562.27
441.38	7665.25
441.57	7562.27
441.75	7878.24
441.94	7969.52
442.12	7981.23
442.31	8037.40
442.50	8119.32
442.68	8088.89
442.87	8018.68
443.05	8067.83
443.24	8278.47
443.43	7901.65
443.61	8229.32
443.80	8482.10
443.98	8198.90
444.17	8067.83
444.35	8109.96
444.54	8404.86
444.73	8245.71
444.91	8374.44
445.10	8259.75
445.28	8493.80
445.47	8468.06
445.65	8369.76
445.84	8365.07
446.02	8224.64
446.21	8290.18
446.39	8388.48
446.58	8540.61
446.77	8491.46
446.95	8376.78
447.14	8409.54
447.32	8594.45
447.51	8393.16
447.69	8423.59
447.88	8491.46
448.06	8594.45
448.25	8592.11
448.43	8695.09
448.62	8655.30
448.80	8500.83
448.99	8894.04
449.17	8744.24
449.36	8601.47
449.54	8903.40
449.73	8861.27
449.91	8961.91
450.10	9055.53
450.28	9118.73
450.46	9092.98
450.65	9252.14
450.83	9142.13
451.02	8877.65
451.20	9132.77
451.39	9191.28
451.57	9109.36
451.76	9025.11
451.94	9104.68
452.13	9317.67
452.31	9270.86
452.49	9348.10
452.68	9242.78
452.86	9479.17
453.05	9380.87
453.23	9598.54
453.42	9312.99
453.60	9551.73
453.78	9727.27
453.97	9439.38
454.15	9432.36
454.34	9619.60
454.52	9832.59
454.70	9596.20
454.89	9860.68
455.07	9624.28
455.26	9790.46
455.44	9841.95
455.62	9717.90
455.81	9830.25
455.99	10134.52
456.17	10136.86
456.36	10066.64
456.54	10139.20
456.73	10272.61
456.91	10651.78
457.09	10375.59
457.28	10511.35
457.46	10422.41
457.64	10604.97
457.83	10651.78
458.01	10525.39
458.19	10604.97
458.38	10497.30
458.56	10714.97
458.74	10817.96
458.93	10752.42
459.11	10689.23
459.29	10729.02
459.48	10834.34
459.66	10855.40
459.84	11016.90
460.03	11098.82
460.21	10909.24
460.39	10986.47
460.57	10963.07
460.76	11131.59
460.94	11162.01
461.12	11208.83
461.31	11054.35
461.49	11276.70
461.67	11124.57
461.85	11515.44
462.04	11379.68
462.22	11470.97
462.40	11564.59
462.59	11576.29
462.77	11620.76
462.95	11674.59
463.13	11534.16
463.32	12042.06
463.50	11756.51
463.68	11733.11
463.86	11681.61
464.05	11705.02
464.23	11772.89
464.41	11840.77
464.59	11789.28
464.78	12147.38
464.96	11960.14
465.14	12133.34
465.32	12252.70
465.50	12107.59
465.69	12229.30
465.87	12365.05
466.05	12205.89
466.23	12226.96
466.41	12360.37
466.60	12252.70
466.78	12308.88
466.96	12128.66
467.14	12184.83
467.32	12332.28
467.51	12353.35
467.69	12505.48
467.87	12517.18
468.05	12725.49
468.23	12353.35
468.41	12580.38
468.60	12554.63
468.78	12690.38
468.96	12372.07
469.14	12842.52
469.32	12863.58
469.50	12407.18
469.69	12954.87
469.87	13046.15
470.05	13158.49
470.23	13240.41
470.41	13167.85
470.59	13633.62
470.77	13348.08
470.95	13256.79
471.14	13521.27
471.32	13472.12
471.50	13752.99
471.68	13586.81
471.86	13516.59
472.04	13912.14
472.22	14129.81
472.40	13610.22
472.58	13921.51
472.77	13947.25
472.95	14125.13
473.13	14464.51
473.31	14218.75
473.49	14232.80
473.67	14075.98
473.85	14286.63
474.03	14677.50
474.21	14824.95
474.39	14621.33
474.57	14721.97
474.75	14963.04
474.93	14831.97
475.12	15005.17
475.30	15159.65
475.48	15068.37
475.66	15164.33
475.84	15316.47
476.02	15494.35
476.20	15508.39
476.38	15831.38
476.56	15899.26
476.74	15932.03
476.92	15981.18
477.10	15899.26
477.28	16208.21
477.46	16430.56
477.64	16510.14
477.82	16580.36
478.00	16898.67
478.18	16919.73
478.36	17329.33
478.54	17188.89
478.72	17319.96
478.90	17472.10
479.08	17525.93
479.26	17809.14
479.44	17825.52
479.62	17919.14
479.80	18050.21
479.98	18094.68
480.16	18766.42
480.34	18345.12
480.52	18492.57
480.70	18864.72
480.88	18359.16
481.06	18492.57
481.24	18679.82
481.41	19122.18
481.59	19358.57
481.77	19580.92
481.95	19529.43
482.13	19653.48
482.31	19697.95
482.49	20137.97
482.67	20205.84
482.85	20631.82
483.03	20629.48
483.21	21069.50
483.39	20716.08
483.57	20975.88
483.74	21238.02
483.92	21401.86
484.10	21106.95
484.28	21617.19
484.46	22167.21
484.64	22412.97
484.82	21816.13
485.00	22272.54
485.18	23002.78
485.35	22831.93
485.53	22806.18
485.71	23110.45
485.89	23543.45
486.07	23187.69
486.25	23461.53
486.43	23821.97
486.61	24004.53
486.78	24233.91
486.96	24617.75
487.14	24673.93
487.32	24711.38
487.50	25001.60
487.68	24718.40
487.85	25418.22
488.03	25722.49
488.21	25802.07
488.39	25738.87
488.57	26438.69
488.75	26373.16
488.92	26785.09
489.10	26913.82
489.28	27211.07
489.46	27154.90
489.64	27072.98
489.81	27475.55
489.99	27630.02
490.17	27852.38
490.35	28063.02
490.53	28119.20
490.70	28802.63
490.88	28390.70
491.06	28823.70
491.24	29048.39
491.41	29116.26
491.59	29532.88
491.77	29259.04
491.95	29652.25
492.13	30019.71
492.30	30089.93
492.48	30178.87
492.66	30455.05
492.84	30281.85
493.01	30494.84
493.19	30731.23
493.37	31330.41
493.54	31309.35
493.72	31622.98
493.90	31412.33
494.08	31847.67
494.25	32259.60
494.43	32177.68
494.61	32219.81
494.79	32453.87
494.96	32409.40
495.14	32456.21
495.32	33586.69
495.49	33333.91
495.67	33663.93
495.85	33324.55
496.02	33308.16
496.20	33820.74
496.38	34094.58
496.55	34305.23
496.73	34672.70
496.91	34555.67
497.09	35241.45
497.26	34710.14
497.44	35023.78
497.62	35140.80
497.79	35885.09
497.97	36032.55
498.14	35763.39
498.32	36231.49
498.50	36261.92
498.67	36624.70
498.85	36723.01
499.03	36739.39
499.20	37090.47
499.38	37235.58
499.56	37132.60
499.73	37106.85
499.91	37350.27
500.08	37684.97
500.26	37408.78
500.44	37912.00
500.61	37736.46
500.79	37654.54
500.97	38199.88
501.14	38366.06
501.32	38211.59
501.49	38817.78
501.67	38494.79
501.84	38960.56
502.02	39175.89
502.20	38972.26
502.37	39416.96
502.55	39526.97
502.72	39510.58
502.90	39423.98
503.07	39576.12
503.25	40025.50
503.43	40105.08
503.60	40339.13
503.78	40388.28
503.95	40683.19
504.13	40685.53
504.30	41146.62
504.48	40638.72
504.65	41567.91
504.83	40994.48
505.01	41834.74
505.18	41160.66
505.36	41851.12
505.53	41710.69
505.71	41289.39
505.88	41862.82
506.06	41741.11
506.23	42218.58
506.41	41628.77
506.58	42553.28
506.76	42555.62
506.93	42696.05
507.11	42433.91
507.28	42880.95
507.46	42731.16
507.63	43009.68
507.81	43526.94
507.98	42974.58
508.16	43246.08
508.33	43702.48
508.50	43290.55
508.68	43674.40
508.85	44032.50
509.03	43629.93
509.20	44289.96
509.38	44643.38
509.55	44449.11
509.73	44692.53
509.90	44641.04
510.08	44737.00
510.25	44687.85
510.42	44509.97
510.60	45109.14
510.77	45345.54
510.95	45579.59
511.12	45228.51
511.30	45471.93
511.47	45509.38
511.64	45783.22
511.82	46157.70
511.99	45743.43
512.17	46073.45
512.34	46298.14
512.51	47035.41
512.69	46248.99
512.86	46382.40
513.04	46593.04
513.21	46815.40
513.38	46738.16
513.56	47058.81
513.73	47023.70
513.90	47131.37
514.08	47192.22
514.25	47260.10
514.43	47082.22
514.60	47779.70
514.77	47536.28
514.95	47739.91
515.12	47620.54
515.29	47552.66
515.47	48116.73
515.64	48538.03
515.81	48362.49
515.99	48266.53
516.16	48786.13
516.33	48596.54
516.51	48662.08
516.68	48526.33
516.85	48566.12
517.03	48818.89
517.20	49251.89
517.37	48898.47
517.54	49219.13
517.72	49153.59
517.89	48978.05
518.06	49394.67
518.24	49357.22
518.41	49202.74
518.58	49432.11
518.75	49399.35
518.93	49626.38
519.10	49572.55
519.27	50068.74
519.45	49954.05
519.62	50087.46
519.79	50349.60
519.96	50003.20
520.14	50160.02
520.31	50368.33
520.48	50487.70
520.65	50391.73
520.83	50707.71
521.00	50731.11
521.17	50560.25
521.34	50681.96
521.52	50871.54
521.69	51168.79
521.86	50878.57
522.03	51178.15
522.20	51304.54
522.38	51697.75
522.55	51407.53
522.72	51908.40
522.89	51433.27
523.07	51842.87
523.24	51669.67
523.41	51889.68
523.58	51711.80
523.75	52013.73
523.92	51959.89
524.10	52126.07
524.27	52219.69
524.44	52360.12
524.61	52484.17
524.78	52439.70
524.96	52074.58
525.13	52165.86
525.30	52329.70
525.47	52381.19
525.64	52594.18
525.81	52535.66
525.98	52781.42
526.16	52341.40
526.33	52601.20
526.50	53214.42
526.67	52704.18
526.84	53146.54
527.01	52807.17
527.18	53076.33
527.36	53148.88
527.53	53078.67
527.70	53256.55
527.87	53469.54
528.04	52961.64
528.21	53385.28
528.38	53612.31
528.55	53680.19
528.72	53535.07
528.89	53670.82
529.07	53759.76
529.24	53607.63
529.41	53820.62
529.58	53698.91
529.75	53794.87
529.92	53970.41
530.09	54223.19
530.26	54087.44
530.43	53869.77
530.60	53514.01
530.77	54068.72
530.94	54045.31
531.11	53916.58
531.28	53893.18
531.46	54384.69
531.63	54185.74
531.80	54279.36
531.97	54548.53
532.14	54384.69
532.31	54695.98
532.48	54960.46
532.65	54658.53
532.82	54787.26
532.99	54915.99
533.16	54607.04
533.33	54817.69
533.50	54946.42
533.67	54913.65
533.84	54735.77
534.01	55079.83
534.18	54794.28
534.35	55449.63
534.52	55208.56
534.69	55327.92
534.86	55269.41
535.03	55070.46
535.20	55236.64
535.37	55533.89
535.54	55365.37
535.71	55231.96
535.88	55482.40
536.05	55590.06
536.22	55627.51
536.38	55730.50
536.55	55774.97
536.72	55538.57
536.89	55725.81
537.06	55838.16
537.23	55929.44
537.40	55725.81
537.57	55976.25
537.74	55849.86
537.91	56051.15
538.08	55920.08
538.25	55945.83
538.42	55938.80
538.59	56072.21
538.75	56109.66
538.92	55999.66
539.09	56523.94
539.26	56313.29
539.43	55994.98
539.60	56523.94
539.77	56264.14
539.94	56240.73
540.11	56453.72
540.28	56802.46
540.44	56512.23
540.61	56411.59
540.78	56324.99
540.95	56395.21
541.12	56467.76
541.29	56713.52
541.46	56615.22
541.62	56460.74
541.79	56545.00
541.96	56568.41
542.13	56608.20
542.30	56718.20
542.47	56828.21
542.63	56945.23
542.80	56893.74
542.97	56931.19
543.14	57310.36
543.31	57291.63
543.48	57499.94
543.64	57614.63
543.81	57584.20
543.98	57312.70
544.15	57530.37
544.32	57528.03
544.48	57993.79
544.65	57427.38
544.82	57511.64
544.99	57434.41
545.16	57418.02
545.32	57392.28
545.49	57743.36
545.66	57942.30
545.83	57640.37
546.00	57656.76
546.16	57483.56
546.33	57523.35
546.50	57598.24
546.67	57890.81
546.83	57666.12
547.00	57986.77
547.17	57965.71
547.34	57888.47
547.50	57944.64
547.67	58159.97
547.84	58176.36
548.00	58134.23
548.17	58157.63
548.34	58040.60
548.51	58211.46
548.67	58433.81
548.84	58363.60
549.01	58007.84
549.18	58117.84
549.34	58480.63
549.51	58319.13
549.68	58368.28
549.84	58419.77
550.01	58733.40
550.18	58377.64
550.34	58464.24
550.51	58621.06
550.68	58466.58
550.84	58394.03
551.01	58651.48
551.18	58447.86
551.34	58644.46
551.51	58557.86
551.68	58644.46
551.84	58646.80
552.01	58529.78
552.18	58944.05
552.34	58457.22
552.51	58981.50
552.68	58471.26
552.84	58679.57
553.01	58944.05
553.18	58866.81
553.34	59049.38
553.51	58653.82
553.67	59007.25
553.84	58930.01
554.01	59187.47
554.17	59124.27
554.34	59150.02
554.51	59014.27
554.67	59098.53
554.84	59007.25
555.00	58955.75
555.17	59025.97
555.33	59260.02
555.50	59222.58
555.67	58997.88
555.83	59269.39
556.00	59189.81
556.16	59370.03
556.33	59377.05
556.50	59327.90
556.66	59428.54
556.83	59344.28
556.99	59433.22
557.16	59681.32
557.32	59475.35
557.49	59732.81
557.65	59248.32
557.82	59337.26
557.98	59262.36
558.15	59473.01
558.32	59526.84
558.48	59285.77
558.65	59615.79
558.81	59653.23
558.98	59629.83
559.14	59693.02
559.31	59662.60
559.47	59819.41
559.64	59896.65
559.80	59608.76
559.97	59842.82
560.13	59805.37
560.30	59594.72
560.46	59976.23
560.63	59952.82
560.79	59655.57
560.96	60006.65
561.12	59826.43
561.29	59821.75
561.45	59821.75
561.61	60053.47
561.78	59987.93
561.94	59910.69
562.11	59798.35
562.27	59760.90
562.44	60104.96
562.60	59966.87
562.77	59931.76
562.93	59805.37
563.10	60030.06
563.26	59805.37
563.42	60348.37
563.59	59992.61
563.75	60168.15
563.92	60278.16
564.08	60285.18
564.24	60236.03
564.41	60189.22
564.57	60353.05
564.74	60158.79
564.90	60303.90
565.07	60186.88
565.23	60238.37
565.39	60271.14
565.56	60233.69
565.72	60280.50
565.88	60292.20
566.05	60252.41
566.21	60402.21
566.38	60287.52
566.54	60374.12
566.70	60416.25
566.87	60521.57
567.03	60465.40
567.19	60507.53
567.36	60308.58
567.52	60331.99
567.68	60617.53
567.85	60530.93
568.01	60526.25
568.17	60294.54
568.34	60537.96
568.50	60432.63
568.66	60441.99
568.83	60561.36
568.99	60451.36
569.15	60507.53
569.32	60626.90
569.48	60502.85
569.64	60526.25
569.81	60493.49
569.97	60264.11
570.13	60638.60
570.30	60479.44
570.46	60582.43
570.62	60413.91
570.78	60540.30
570.95	60353.05
571.11	60872.65
571.27	60643.28
571.43	60500.51
571.60	60926.49
571.76	60615.19
571.92	60690.09
572.09	60629.24
572.25	60809.46
572.41	60685.41
572.57	60704.13
572.74	60914.78
572.90	60748.60
573.06	60842.23
573.22	60835.20
573.38	60591.79
573.55	60683.07
573.71	60882.02
573.87	60781.37
574.03	60589.45
574.20	60804.78
574.36	60573.06
574.52	60666.69
574.68	60853.93
574.84	60865.63
575.01	60825.84
575.17	60743.92
575.33	60760.31
575.49	60767.33
575.65	60879.67
575.82	60956.91
575.98	60856.27
576.14	61085.64
576.30	61015.43
576.46	60870.31
576.62	60860.95
576.79	60729.88
576.95	60594.13
577.11	61048.19
577.27	61048.19
577.43	60893.72
577.59	60851.59
577.75	60889.04
577.92	60811.80
578.08	60898.40
578.24	60830.52
578.40	60811.80
578.56	60926.49
578.72	60889.04
578.88	61041.17
579.04	61092.66
579.21	60987.34
579.37	60999.04
579.53	61109.05
579.69	60718.18
579.85	61073.94
580.01	61085.64
580.17	60729.88
580.33	61106.71
580.49	61193.31
580.65	61022.45
580.82	61038.83
580.98	60842.23
581.14	61066.92
581.30	61134.79
581.46	61045.85
581.62	61041.17
581.78	60874.99
581.94	60903.08
582.10	61043.51
582.26	61148.84
582.42	60996.70
582.58	61057.56
582.74	60959.25
582.90	60977.98
583.06	60935.85
583.22	60921.80
583.38	61087.98
583.54	60935.85
583.70	61001.38
583.86	61155.86
584.02	60809.46
584.18	61219.05
584.34	60982.66
584.50	61099.68
584.66	61031.81
584.82	60898.40
584.98	61097.34
585.14	61298.63
585.30	61066.92
585.46	60865.63
585.62	61148.84
585.78	60903.08
585.94	60706.47
586.10	61010.74
586.26	61277.57
586.42	61359.48
586.58	61329.06
586.74	61073.94
586.90	60919.46
587.06	61031.81
587.22	61017.77
587.38	61024.79
587.54	61118.41
587.70	61394.59
587.86	61322.04
588.02	61256.50
588.18	61230.75
588.34	61031.81
588.49	61010.74
