SpectraSuite Data File
++++++++++++++++++++++++++++++++++++
Date: Fri Oct 25 11:25:36 EDT 2013
User: price-jones
Dark Spectrum Present: No
Reference Spectrum Present: No
Number of Sampled Component Spectra: 1
Spectrometers: USB2+H05261
Integration Time (usec): 100000 (USB2+H05261)
Spectra Averaged: 1 (USB2+H05261)
Boxcar Smoothing: 0 (USB2+H05261)
Correct for Electrical Dark: No (USB2+H05261)
Strobe/Lamp Enabled: No (USB2+H05261)
Correct for Detector Non-linearity: No (USB2+H05261)
Correct for Stray Light: No (USB2+H05261)
Number of Pixels in Processed Spectrum: 2048
>>>>>Begin Processed Spectral Data<<<<<
365.73	205.97
365.92	205.97
366.12	205.97
366.32	84.26
366.52	224.69
366.72	201.29
366.91	100.64
367.11	184.90
367.31	180.22
367.51	156.82
367.70	140.43
367.90	170.86
368.10	98.30
368.30	140.43
368.49	149.79
368.69	131.07
368.89	177.88
369.09	187.24
369.28	198.95
369.48	189.58
369.68	163.84
369.87	152.13
370.07	208.31
370.27	234.05
370.47	276.18
370.66	627.26
370.86	638.97
371.06	650.67
371.25	704.50
371.45	692.80
371.65	669.39
371.84	669.39
372.04	622.58
372.24	723.23
372.44	699.82
372.63	755.99
372.83	697.48
373.03	692.80
373.22	739.61
373.42	744.29
373.62	847.27
373.81	760.67
374.01	826.21
374.21	791.10
374.40	814.51
374.60	828.55
374.79	805.14
374.99	882.38
375.19	748.97
375.38	954.94
375.58	837.91
375.78	828.55
375.97	891.74
376.17	866.00
376.37	805.14
376.56	809.83
376.76	835.57
376.95	819.19
377.15	844.93
377.35	931.53
377.54	889.40
377.74	891.74
377.93	896.43
378.13	915.15
378.33	889.40
378.52	896.43
378.72	873.02
378.91	915.15
379.11	1011.11
379.31	933.87
379.50	917.49
379.70	1025.15
379.89	983.02
380.09	954.94
380.28	950.26
380.48	964.30
380.68	938.55
380.87	1020.47
381.07	1043.88
381.26	1128.14
381.46	997.07
381.65	987.71
381.85	1057.92
382.04	1081.33
382.24	1116.44
382.43	1088.35
382.63	1174.95
382.83	999.41
383.02	1060.26
383.22	1062.60
383.41	1125.80
383.61	1128.14
383.80	1165.59
384.00	1149.20
384.19	1186.65
384.39	1221.76
384.58	1102.39
384.78	1102.39
384.97	1193.67
385.17	1167.93
385.36	1156.22
385.56	1151.54
385.75	1174.95
385.95	1137.50
386.14	1256.87
386.34	1163.25
386.53	1177.29
386.72	1174.95
386.92	1308.36
387.11	1203.04
387.31	1200.69
387.50	1191.33
387.70	1308.36
387.89	1249.85
388.09	1203.04
388.28	1359.85
388.48	1275.59
388.67	1266.23
388.86	1277.93
389.06	1315.38
389.25	1313.04
389.45	1383.26
389.64	1303.68
389.84	1399.64
390.03	1376.24
390.22	1434.75
390.42	1376.24
390.61	1352.83
390.81	1406.66
391.00	1376.24
391.19	1500.28
391.39	1504.96
391.58	1401.98
391.78	1490.92
391.97	1488.58
392.16	1462.83
392.36	1547.09
392.55	1521.35
392.75	1521.35
392.94	1469.86
393.13	1540.07
393.33	1575.18
393.52	1584.54
393.71	1530.71
393.91	1577.52
394.10	1570.50
394.29	1575.18
394.49	1631.35
394.68	1619.65
394.88	1570.50
395.07	1717.95
395.26	1572.84
395.46	1591.56
395.65	1724.97
395.84	1739.02
396.04	1762.42
396.23	1687.53
396.42	1736.68
396.62	1837.32
396.81	1762.42
397.00	1776.47
397.19	1792.85
397.39	1795.19
397.58	1804.55
397.77	1870.09
397.97	1881.79
398.16	1797.53
398.35	1895.83
398.55	1933.28
398.74	1820.94
398.93	2026.90
399.12	1912.22
399.32	1947.33
399.51	1944.99
399.70	1989.46
399.90	1982.43
400.09	1994.14
400.28	1996.48
400.47	2017.54
400.67	2062.01
400.86	2015.20
401.05	2045.63
401.24	2115.84
401.44	2176.70
401.63	2167.34
401.82	2099.46
402.01	2050.31
402.21	2022.22
402.40	2251.60
402.59	2324.15
402.78	2162.66
402.97	2246.91
403.17	2249.25
403.36	2251.60
403.55	2207.13
403.74	2284.36
403.93	2347.56
404.13	2335.85
404.32	2487.99
404.51	2401.39
404.70	2406.07
404.89	2424.80
405.09	2518.42
405.28	2356.92
405.47	2469.27
405.66	2361.60
405.85	2532.46
406.05	2530.12
406.24	2630.76
406.43	2504.37
406.62	2569.91
406.81	2672.89
407.00	2525.44
407.20	2630.76
407.39	2612.04
407.58	2715.02
407.77	2729.06
407.96	2839.07
408.15	2710.34
408.34	2782.90
408.54	2785.24
408.73	2818.00
408.92	2764.17
409.11	2752.47
409.30	2850.77
409.49	2925.67
409.68	2810.98
409.87	2818.00
410.07	2958.44
410.26	3066.10
410.45	2918.65
410.64	3094.19
410.83	3115.25
411.02	3070.78
411.21	3115.25
411.40	3206.53
411.59	3105.89
411.78	3232.28
411.98	3204.19
412.17	3382.07
412.36	3286.11
412.55	3449.95
412.74	3316.54
412.93	3314.20
413.12	3337.60
413.31	3524.85
413.50	3405.48
413.69	3531.87
413.88	3599.74
414.07	3590.38
414.26	3644.21
414.45	3655.92
414.64	3590.38
414.83	3712.09
415.02	3801.03
415.22	3810.39
415.41	3889.97
415.60	3669.96
415.79	3967.21
415.98	4004.66
416.17	3941.46
416.36	3974.23
416.55	3974.23
416.74	3943.80
416.93	3978.91
417.12	4147.43
417.31	4208.28
417.50	4182.54
417.69	4306.59
417.88	4161.47
418.07	4138.07
418.26	4329.99
418.45	4369.78
418.64	4442.34
418.83	4299.56
419.02	4374.46
419.21	4582.77
419.39	4475.10
419.58	4355.74
419.77	4327.65
419.96	4528.94
420.15	4594.47
420.34	4449.36
420.53	4713.84
420.72	4648.30
420.91	4578.09
421.10	4737.24
421.29	4812.14
421.48	4784.06
421.67	4805.12
421.86	4744.27
422.05	4641.28
422.24	4844.91
422.43	4910.44
422.61	4891.72
422.80	4858.95
422.99	4828.53
423.18	4905.76
423.37	4922.15
423.56	4837.89
423.75	4945.55
423.94	4805.12
424.13	4631.92
424.32	4865.97
424.50	4891.72
424.69	4999.38
424.88	5109.39
425.07	4931.51
425.26	4950.23
425.45	4929.17
425.64	4947.89
425.83	5046.20
426.01	5071.94
426.20	5053.22
426.39	5025.13
426.58	4896.40
426.77	4947.89
426.96	5004.07
427.15	5137.48
427.33	5144.50
427.52	5139.82
427.71	5256.84
427.90	5174.92
428.09	5270.89
428.28	5261.52
428.46	5397.28
428.65	5387.91
428.84	5563.45
429.03	5462.81
429.22	5411.32
429.40	5334.08
429.59	5317.70
429.78	5385.57
429.97	5231.10
430.16	5570.48
430.34	5614.95
430.53	5760.06
430.72	5657.07
430.91	5572.82
431.10	5495.58
431.28	5846.66
431.47	5643.03
431.66	5921.56
431.85	5696.86
432.03	5982.41
432.22	5959.00
432.41	5987.09
432.60	5837.30
432.79	5926.24
432.97	5968.37
433.16	6040.92
433.35	6087.73
433.54	5994.11
433.72	6143.91
433.91	6181.35
434.10	6085.39
434.28	6162.63
434.47	6087.73
434.66	6289.02
434.85	6249.23
435.03	6382.64
435.22	6223.48
435.41	6384.98
435.59	6466.90
435.78	6399.02
435.97	6361.58
436.16	6401.37
436.34	6431.79
436.53	6483.28
436.72	6764.15
436.90	6427.11
437.09	6635.42
437.28	6459.88
437.46	6518.39
437.65	6808.62
437.84	6726.70
438.02	6579.25
438.21	6817.98
438.40	6651.80
438.58	6829.68
438.77	7023.95
438.96	6881.18
439.14	7164.38
439.33	7084.80
439.52	7080.12
439.70	7103.53
439.89	7187.79
440.08	7440.56
440.26	7344.60
440.45	7300.13
440.63	7407.80
440.82	7571.63
441.01	7534.18
441.19	7606.74
441.38	7611.42
441.57	7693.34
441.75	7756.54
441.94	7871.22
442.12	7978.89
442.31	8049.10
442.50	8035.06
442.68	7845.48
442.87	7960.16
443.05	8046.76
443.24	8243.37
443.43	7906.33
443.61	8161.45
443.80	8372.10
443.98	7964.84
444.17	7768.24
444.35	8219.96
444.54	8161.45
444.73	8255.07
444.91	8367.42
445.10	8423.59
445.28	8575.72
445.47	8142.72
445.65	8393.16
445.84	8573.38
446.02	8402.52
446.21	8554.66
446.39	8278.47
446.58	8526.57
446.77	8454.02
446.95	8245.71
447.14	8383.80
447.32	8458.70
447.51	8397.84
447.69	8318.26
447.88	8542.96
448.06	8479.76
448.25	8383.80
448.43	8730.20
448.62	8514.87
448.80	8332.31
448.99	8594.45
449.17	8645.94
449.36	8573.38
449.54	8812.12
449.73	8812.12
449.91	8936.17
450.10	8807.44
450.28	8863.61
450.46	8835.52
450.65	8964.25
450.83	9205.33
451.02	9104.68
451.20	9430.02
451.39	9200.65
451.57	9137.45
451.76	9109.36
451.94	9181.92
452.13	9322.35
452.31	9427.68
452.49	9144.47
452.68	9369.16
452.86	9497.89
453.05	9474.49
453.23	9582.15
453.42	9369.16
453.60	9252.14
453.78	9486.19
453.97	9404.27
454.15	9537.68
454.34	9607.90
454.52	9577.47
454.70	9713.22
454.89	9628.96
455.07	9757.69
455.26	9797.48
455.44	9874.72
455.62	9907.49
455.81	9914.51
455.99	9856.00
456.17	9963.66
456.36	9989.41
456.54	9996.43
456.73	10052.60
456.91	10459.85
457.09	10239.84
457.28	10473.90
457.46	10272.61
457.64	10469.22
457.83	10429.43
458.01	10504.32
458.19	10794.55
458.38	10534.75
458.56	10476.24
458.74	10803.91
458.93	10724.33
459.11	10726.68
459.29	10642.42
459.48	10787.53
459.66	10820.30
459.84	10822.64
460.03	11047.33
460.21	10803.91
460.39	10951.37
460.57	10944.34
460.76	10850.72
460.94	11131.59
461.12	11201.80
461.31	11147.97
461.49	11030.94
461.67	11274.36
461.85	11257.98
462.04	11255.64
462.22	11667.57
462.40	11527.14
462.59	11398.41
462.77	11627.78
462.95	11625.44
463.13	11616.08
463.32	11421.81
463.50	11932.05
463.68	11751.83
463.86	11868.86
464.05	11609.06
464.23	11707.36
464.41	11805.66
464.59	11627.78
464.78	12138.02
464.96	11793.96
465.14	11751.83
465.32	12147.38
465.50	12131.00
465.69	12011.63
465.87	11934.39
466.05	11871.20
466.23	12100.57
466.41	12322.92
466.60	12446.97
466.78	12028.01
466.96	12238.66
467.14	12278.45
467.32	12112.27
467.51	12662.30
467.69	12100.57
467.87	12170.79
468.05	12468.03
468.23	12461.01
468.41	12395.48
468.60	12531.23
468.78	12795.71
468.96	12716.13
469.14	12601.44
469.32	12685.70
469.50	12652.94
469.69	12896.35
469.87	12966.57
470.05	12926.78
470.23	13165.51
470.41	13202.96
470.59	13378.50
470.77	13083.59
470.95	13069.55
471.14	13245.09
471.32	13184.24
471.50	13364.46
471.68	13429.99
471.86	13664.05
472.04	13570.43
472.22	13888.74
472.40	13523.62
472.58	13750.65
472.77	14134.50
472.95	14239.82
473.13	14785.16
473.31	14043.21
473.49	14176.62
473.67	14167.26
473.85	14026.83
474.03	14455.15
474.21	14513.66
474.39	14518.34
474.57	14728.99
474.75	14827.29
474.93	14967.73
475.12	14876.44
475.30	15208.80
475.48	14712.61
475.66	15171.35
475.84	15318.81
476.02	15447.54
476.20	15412.43
476.38	15655.84
476.56	15915.64
476.74	15836.06
476.92	15793.94
477.10	15829.04
477.28	16189.49
477.46	16086.50
477.64	16273.74
477.82	16468.01
478.00	16943.14
478.18	16578.01
478.36	16835.47
478.54	16559.29
478.72	16989.95
478.90	17497.84
479.08	17635.94
479.26	17465.08
479.44	17657.00
479.62	17593.81
479.80	17804.46
479.98	17933.18
480.16	18441.08
480.34	18473.85
480.52	18410.65
480.70	18595.56
480.88	18317.03
481.06	18464.49
481.24	18764.07
481.41	18946.64
481.59	19318.78
481.77	19690.93
481.95	19646.46
482.13	19257.93
482.31	19775.19
482.49	20250.32
482.67	20123.93
482.85	20467.98
483.03	20559.27
483.21	20648.21
483.39	21039.08
483.57	20716.08
483.74	20830.77
483.92	21338.66
484.10	20879.92
484.28	21752.94
484.46	21748.26
484.64	22324.03
484.82	21844.22
485.00	22267.86
485.18	22590.85
485.35	22813.20
485.53	22848.31
485.71	22939.59
485.89	23618.35
486.07	23033.21
486.25	23157.26
486.43	23714.31
486.61	23817.29
486.78	23871.12
486.96	24072.41
487.14	24556.90
487.32	24224.54
487.50	25041.39
487.68	24835.42
487.85	25479.07
488.03	25188.85
488.21	25663.97
488.39	25785.68
488.57	26015.05
488.75	26071.23
488.92	26237.41
489.10	26494.86
489.28	26487.84
489.46	26483.16
489.64	26663.38
489.81	27421.72
489.99	27789.18
490.17	27562.15
490.35	27697.90
490.53	28348.57
490.70	28041.96
490.88	28238.56
491.06	28807.31
491.24	28697.31
491.41	28910.30
491.59	29170.10
491.77	29184.14
491.95	29635.86
492.13	29362.02
492.30	29944.81
492.48	29923.75
492.66	30506.54
492.84	30426.96
493.01	30768.68
493.19	30389.52
493.37	30993.37
493.54	31232.11
493.72	31477.86
493.90	31234.45
494.08	31590.21
494.25	31658.09
494.43	32002.14
494.61	31765.75
494.79	32411.74
494.96	32116.83
495.14	32638.77
495.32	32989.85
495.49	32830.69
495.67	33041.34
495.85	33738.82
496.02	33350.29
496.20	33928.41
496.38	33703.71
496.55	34359.06
496.73	34981.65
496.91	34270.12
497.09	34829.51
497.26	35201.66
497.44	34890.37
497.62	35154.85
497.79	35629.98
497.97	35414.65
498.14	36290.01
498.32	35845.30
498.50	36341.50
498.67	36500.65
498.85	35959.99
499.03	36414.05
499.20	36636.41
499.38	36938.33
499.56	36959.40
499.73	37027.28
499.91	37029.62
500.08	37326.86
500.26	37542.19
500.44	37624.11
500.61	37792.63
500.79	37156.00
500.97	37921.36
501.14	38426.92
501.32	38480.75
501.49	38225.63
501.67	38356.70
501.84	38768.63
502.02	38824.81
502.20	38995.67
502.37	39250.78
502.55	39056.52
502.72	39309.30
502.90	39005.03
503.07	39271.85
503.25	39754.00
503.43	39594.84
503.60	39847.62
503.78	39871.03
503.95	40095.72
504.13	40353.18
504.30	40219.77
504.48	39950.60
504.65	40395.31
504.83	41067.04
505.01	41338.54
505.18	41235.56
505.36	41336.20
505.53	41249.60
505.71	41521.10
505.88	41968.15
506.06	41181.73
506.23	41806.65
506.41	41659.20
506.58	41818.35
506.76	41986.87
506.93	42454.98
507.11	41965.81
507.28	42108.58
507.46	42703.07
507.63	43129.05
507.81	42843.51
507.98	42639.88
508.16	43096.28
508.33	43070.54
508.50	43213.31
508.68	43505.88
508.85	43700.14
509.03	43510.56
509.20	43587.80
509.38	44240.81
509.55	44252.51
509.73	44329.75
509.90	44430.39
510.08	44348.47
510.25	44783.81
510.42	44722.96
510.60	44851.69
510.77	45174.68
510.95	45478.95
511.12	44849.35
511.30	44926.58
511.47	45298.73
511.64	45296.39
511.82	45408.73
511.99	45244.90
512.17	46197.49
512.34	45916.63
512.51	46429.21
512.69	46246.65
512.86	45968.12
513.04	46522.83
513.21	46705.39
513.38	46504.10
513.56	46618.79
513.73	46883.27
513.90	47152.43
514.08	46740.50
514.25	47236.69
514.43	47138.39
514.60	47316.27
514.77	47028.38
514.95	47562.03
515.12	47449.68
515.29	47246.05
515.47	47622.88
515.64	48343.77
515.81	47672.03
515.99	48179.93
516.16	48332.06
516.33	47868.64
516.51	48233.76
516.68	48594.20
516.85	48156.52
517.03	48502.92
517.20	48701.87
517.37	48823.58
517.54	48612.93
517.72	48706.55
517.89	49022.52
518.06	49139.55
518.24	49041.24
518.41	49436.80
518.58	48989.75
518.75	49095.08
518.93	49446.16
519.10	49272.96
519.27	49511.69
519.45	49750.43
519.62	49705.96
519.79	49935.33
519.96	49860.43
520.14	50028.95
520.31	50042.99
520.48	49998.52
520.65	49872.14
520.83	50356.63
521.00	50326.20
521.17	49970.44
521.34	50483.01
521.52	50602.38
521.69	50534.51
521.86	50639.83
522.03	51114.96
522.20	50789.62
522.38	51138.36
522.55	51571.36
522.72	51250.71
522.89	51276.46
523.07	51498.81
523.24	51236.67
523.41	51522.21
523.58	51196.88
523.75	51566.68
523.92	51805.42
524.10	51660.30
524.27	51800.74
524.44	51751.59
524.61	52046.49
524.78	52062.88
524.96	52083.94
525.13	52261.82
525.30	52449.06
525.47	52458.43
525.64	52306.29
525.81	52772.06
525.98	52533.32
526.16	52547.37
526.33	52781.42
526.50	52823.55
526.67	52814.19
526.84	52807.17
527.01	52779.08
527.18	52624.60
527.36	52800.15
527.53	52982.71
527.70	53429.75
527.87	53179.31
528.04	53130.16
528.21	53186.33
528.38	53176.97
528.55	53352.51
528.72	53322.08
528.89	53256.55
529.07	53214.42
529.24	53343.15
529.41	53556.14
529.58	53860.41
529.75	53677.85
529.92	53731.68
530.09	53759.76
530.26	53694.23
530.43	53914.24
530.60	53785.51
530.77	53787.85
530.94	54213.83
531.11	53989.14
531.28	53869.77
531.46	53996.16
531.63	54014.88
531.80	54033.61
531.97	54382.35
532.14	54370.64
532.31	54150.63
532.48	54454.90
532.65	54494.69
532.82	54281.70
532.99	54342.56
533.16	54199.79
533.33	54513.42
533.50	54693.64
533.67	54724.07
533.84	54618.74
534.01	54660.87
534.18	55044.72
534.35	55138.34
534.52	54934.71
534.69	55182.81
534.86	55351.33
535.03	54932.37
535.20	55065.78
535.37	55086.85
535.54	55395.80
535.71	55075.15
535.88	55210.90
536.05	55276.43
536.22	55489.42
536.38	55171.11
536.55	55367.71
536.72	55416.86
536.89	55501.12
537.06	55578.36
537.23	55814.76
537.40	55557.30
537.57	55564.32
537.74	55468.36
537.91	56009.02
538.08	55931.78
538.25	55571.34
538.42	55894.33
538.59	56154.13
538.75	55845.18
538.92	55819.44
539.09	56119.02
539.26	55973.91
539.43	55994.98
539.60	55950.51
539.77	56114.34
539.94	56165.84
540.11	56500.53
540.28	56191.58
540.44	56563.73
540.61	56273.50
540.78	56212.65
540.95	56210.31
541.12	56374.14
541.29	56451.38
541.46	56633.94
541.62	56320.31
541.79	56540.32
541.96	56243.07
542.13	56619.90
542.30	56638.62
542.47	57043.54
542.63	56837.57
542.80	56952.26
542.97	56945.23
543.14	57085.67
543.31	57279.93
543.48	57088.01
543.64	57382.91
543.81	57343.12
543.98	57403.98
544.15	57176.95
544.32	57364.19
544.48	57399.30
544.65	57125.46
544.82	57221.42
544.99	57193.33
545.16	57436.75
545.32	57303.34
545.49	57542.07
545.66	57591.22
545.83	57598.24
546.00	57733.99
546.16	57621.65
546.33	57523.35
546.50	57256.53
546.67	57586.54
546.83	57464.83
547.00	57743.36
547.17	57511.64
547.34	57797.19
547.50	57710.59
547.67	58035.92
547.84	58143.59
548.00	58061.67
548.17	58021.88
548.34	57972.73
548.51	58033.58
548.67	58085.07
548.84	57975.07
549.01	58064.01
549.18	57909.53
549.34	58248.91
549.51	58129.54
549.68	58277.00
549.84	58157.63
550.01	58405.73
550.18	58216.14
550.34	58323.81
550.51	58433.81
550.68	58518.07
550.84	58127.20
551.01	58518.07
551.18	58094.44
551.34	58286.36
551.51	58319.13
551.68	58656.17
551.84	58562.54
552.01	58344.87
552.18	58686.59
552.34	58494.67
552.51	58497.01
552.68	58269.98
552.84	58691.27
553.01	58887.88
553.18	58499.35
553.34	58665.53
553.51	58686.59
553.67	58796.60
553.84	59061.08
554.01	58705.32
554.17	58939.37
554.34	58974.48
554.51	58920.65
554.67	58988.52
554.84	58911.28
555.00	58815.32
555.17	58918.31
555.33	59192.15
555.50	58911.28
555.67	58864.47
555.83	58747.45
556.00	59009.59
556.16	59231.94
556.33	59110.23
556.50	59264.70
556.66	59152.36
556.83	58988.52
556.99	59367.69
557.16	59374.71
557.32	59454.29
557.49	59653.23
557.65	59402.80
557.82	59391.09
557.98	59355.99
558.15	59412.16
558.32	59386.41
558.48	59416.84
558.65	59475.35
558.81	59255.34
558.98	59461.31
559.14	59409.82
559.31	59636.85
559.47	59683.66
559.64	59524.50
559.80	59711.75
559.97	59561.95
560.13	59660.26
560.30	59590.04
560.46	59655.57
560.63	59629.83
560.79	59749.20
560.96	59732.81
561.12	59826.43
561.29	60027.72
561.45	59704.73
561.61	59697.70
561.78	59845.16
561.94	59735.15
562.11	59597.06
562.27	59786.64
562.44	60027.72
562.60	59943.46
562.77	59936.44
562.93	59613.44
563.10	60111.98
563.26	59693.02
563.42	60011.34
563.59	59880.27
563.75	59859.20
563.92	59784.30
564.08	59807.71
564.24	60009.00
564.41	60039.42
564.57	59891.97
564.74	60009.00
564.90	60013.68
565.07	59784.30
565.23	60102.62
565.39	60072.19
565.56	60062.83
565.72	60013.68
565.88	60055.81
566.05	59884.95
566.21	60009.00
566.38	60093.25
566.54	60044.10
566.70	60252.41
566.87	60221.98
567.03	60032.40
567.19	60423.27
567.36	60144.75
567.52	60086.23
567.68	60245.39
567.85	60214.96
568.01	60378.80
568.17	60210.28
568.34	60350.71
568.50	60236.03
568.66	60287.52
568.83	60413.91
568.99	60306.24
569.15	60306.24
569.32	60498.17
569.48	60264.11
569.64	60367.10
569.81	60301.56
569.97	60088.57
570.13	60418.59
570.30	60182.19
570.46	60383.48
570.62	60420.93
570.78	60446.68
570.95	60357.74
571.11	60526.25
571.27	60360.08
571.43	60287.52
571.60	60523.91
571.76	60526.25
571.92	60582.43
572.09	60451.36
572.25	60427.95
572.41	60631.58
572.57	60327.31
572.74	60708.82
572.90	60470.08
573.06	60629.24
573.22	60563.70
573.38	60477.10
573.55	60523.91
573.71	60842.23
573.87	60544.98
574.03	60409.23
574.20	60743.92
574.36	60530.93
574.52	60708.82
574.68	60732.22
574.84	60458.38
575.01	60748.60
575.17	60601.15
575.33	60584.77
575.49	60484.12
575.65	60608.17
575.82	60837.54
575.98	60605.83
576.14	60825.84
576.30	60914.78
576.46	60669.03
576.62	60603.49
576.79	60790.73
576.95	60617.53
577.11	60680.73
577.27	61017.77
577.43	60893.72
577.59	60788.39
577.75	60540.30
577.92	60608.17
578.08	60697.11
578.24	60622.22
578.40	60793.07
578.56	60814.14
578.72	60779.03
578.88	60762.65
579.04	60846.91
579.21	60659.66
579.37	60907.76
579.53	60669.03
579.69	60638.60
579.85	60823.50
580.01	60680.73
580.17	60591.79
580.33	61015.43
580.49	60872.65
580.65	60844.57
580.82	60776.69
580.98	60741.58
581.14	60835.20
581.30	61069.26
581.46	60872.65
581.62	60842.23
581.78	60601.15
581.94	60631.58
582.10	60823.50
582.26	60970.96
582.42	60711.16
582.58	61003.72
582.74	60853.93
582.90	60797.76
583.06	60821.16
583.22	60853.93
583.38	60828.18
583.54	60748.60
583.70	60949.89
583.86	60825.84
584.02	60905.42
584.18	60903.08
584.34	60774.35
584.50	60933.51
584.66	60800.10
584.82	60896.06
584.98	60966.27
585.14	61139.47
585.30	60849.25
585.46	60900.74
585.62	60804.78
585.78	61034.15
585.94	60722.86
586.10	61013.08
586.26	61015.43
586.42	60970.96
586.58	60982.66
586.74	60800.10
586.90	61010.74
587.06	60783.71
587.22	61212.03
587.38	60837.54
587.54	61066.92
587.70	61123.09
587.86	60992.02
588.02	60977.98
588.18	61109.05
588.34	60884.36
588.49	60966.27
