SpectraSuite Data File
++++++++++++++++++++++++++++++++++++
Date: Fri Oct 25 11:26:01 EDT 2013
User: price-jones
Dark Spectrum Present: No
Reference Spectrum Present: No
Number of Sampled Component Spectra: 1
Spectrometers: USB2+H05261
Integration Time (usec): 100000 (USB2+H05261)
Spectra Averaged: 1 (USB2+H05261)
Boxcar Smoothing: 0 (USB2+H05261)
Correct for Electrical Dark: No (USB2+H05261)
Strobe/Lamp Enabled: No (USB2+H05261)
Correct for Detector Non-linearity: No (USB2+H05261)
Correct for Stray Light: No (USB2+H05261)
Number of Pixels in Processed Spectrum: 2048
>>>>>Begin Processed Spectral Data<<<<<
365.73	248.10
365.92	248.10
366.12	248.10
366.32	159.16
366.52	126.39
366.72	135.75
366.91	149.79
367.11	107.66
367.31	121.71
367.51	161.50
367.70	81.92
367.90	124.05
368.10	166.18
368.30	117.03
368.49	93.62
368.69	222.35
368.89	124.05
369.09	168.52
369.28	184.90
369.48	88.94
369.68	196.60
369.87	170.86
370.07	168.52
370.27	264.48
370.47	292.57
370.66	543.00
370.86	575.77
371.06	629.60
371.25	704.50
371.45	655.35
371.65	648.33
371.84	622.58
372.04	664.71
372.24	695.14
372.44	638.97
372.63	791.10
372.83	755.99
373.03	774.72
373.22	788.76
373.42	819.19
373.62	741.95
373.81	858.98
374.01	842.59
374.21	802.80
374.40	739.61
374.60	840.25
374.79	823.87
374.99	870.68
375.19	777.06
375.38	912.81
375.58	814.51
375.78	828.55
375.97	924.51
376.17	905.79
376.37	868.34
376.56	851.96
376.76	781.74
376.95	917.49
377.15	943.24
377.35	903.45
377.54	945.58
377.74	1022.81
377.93	943.24
378.13	945.58
378.33	980.68
378.52	947.92
378.72	1032.18
378.91	976.00
379.11	985.37
379.31	922.17
379.50	947.92
379.70	1020.47
379.89	990.05
380.09	1004.09
380.28	992.39
380.48	936.21
380.68	1004.09
380.87	1006.43
381.07	1001.75
381.26	990.05
381.46	978.34
381.65	1013.45
381.85	1041.54
382.04	1060.26
382.24	1095.37
382.43	1036.86
382.63	1008.77
382.83	1015.79
383.02	1163.25
383.22	1144.52
383.41	1071.97
383.61	1142.18
383.80	1219.42
384.00	1114.10
384.19	1074.31
384.39	1247.51
384.58	1121.12
384.78	1163.25
384.97	1200.69
385.17	1146.86
385.36	1174.95
385.56	1177.29
385.75	1139.84
385.95	1151.54
386.14	1170.27
386.34	1179.63
386.53	1249.85
386.72	1123.46
386.92	1224.10
387.11	1320.06
387.31	1224.10
387.50	1313.04
387.70	1240.48
387.89	1226.44
388.09	1291.98
388.28	1268.57
388.48	1313.04
388.67	1198.35
388.86	1210.06
389.06	1313.04
389.25	1364.53
389.45	1336.45
389.64	1341.13
389.84	1392.62
390.03	1362.19
390.22	1352.83
390.42	1437.09
390.61	1406.66
390.81	1359.85
391.00	1406.66
391.19	1357.51
391.39	1430.07
391.58	1437.09
391.78	1479.22
391.97	1472.20
392.16	1544.75
392.36	1486.24
392.55	1427.73
392.75	1497.94
392.94	1486.24
393.13	1476.88
393.33	1455.81
393.52	1516.67
393.71	1519.01
393.91	1507.30
394.10	1490.92
394.29	1542.41
394.49	1568.16
394.68	1638.38
394.88	1636.03
395.07	1629.01
395.26	1640.72
395.46	1750.72
395.65	1661.78
395.84	1713.27
396.04	1701.57
396.23	1713.27
396.42	1746.04
396.62	1799.87
396.81	1785.83
397.00	1760.08
397.19	1774.13
397.39	1902.86
397.58	1849.02
397.77	1856.04
397.97	1823.28
398.16	1795.19
398.35	1844.34
398.55	1846.68
398.74	1827.96
398.93	1942.64
399.12	1914.56
399.32	1891.15
399.51	1942.64
399.70	2069.03
399.90	2029.24
400.09	2094.78
400.28	2099.46
400.47	1989.46
400.67	2108.82
400.86	2195.42
401.05	2017.54
401.24	2017.54
401.44	2031.58
401.63	2113.50
401.82	2141.59
402.01	2197.76
402.21	2143.93
402.40	2188.40
402.59	2174.36
402.78	2221.17
402.97	2174.36
403.17	2333.51
403.36	2186.06
403.55	2204.78
403.74	2293.72
403.93	2394.37
404.13	2417.77
404.32	2296.07
404.51	2438.84
404.70	2413.09
404.89	2331.17
405.09	2532.46
405.28	2555.86
405.47	2387.35
405.66	2509.05
405.85	2597.99
406.05	2457.56
406.24	2504.37
406.43	2649.49
406.62	2593.31
406.81	2605.02
407.00	2595.65
407.20	2654.17
407.39	2703.32
407.58	2794.60
407.77	2733.75
407.96	2768.85
408.15	2754.81
408.34	2768.85
408.54	2843.75
408.73	2759.49
408.92	2712.68
409.11	2951.42
409.30	2857.79
409.49	3000.57
409.68	2815.66
409.87	2839.07
410.07	2890.56
410.26	3033.33
410.45	2974.82
410.64	3035.67
410.83	2923.33
411.02	3119.93
411.21	3187.81
411.40	3038.02
411.59	3150.36
411.78	3159.72
411.98	3286.11
412.17	3258.03
412.36	3194.83
412.55	3361.01
412.74	3368.03
412.93	3424.20
413.12	3396.12
413.31	3440.59
413.50	3487.40
413.69	3524.85
413.88	3623.15
414.07	3473.36
414.26	3684.00
414.45	3536.55
414.64	3597.40
414.83	3669.96
415.02	3798.69
415.22	3801.03
415.41	3742.52
415.60	3826.78
415.79	3953.16
415.98	3953.16
416.17	4030.40
416.36	3983.59
416.55	3911.04
416.74	4044.45
416.93	3918.06
417.12	4046.79
417.31	4007.00
417.50	4067.85
417.69	4306.59
417.88	4266.80
418.07	4154.45
418.26	4140.41
418.45	4269.14
418.64	4428.29
418.83	4257.43
419.02	4395.53
419.21	4580.43
419.39	4447.02
419.58	4498.51
419.77	4517.23
419.96	4587.45
420.15	4718.52
420.34	4533.62
420.53	4608.51
420.72	4688.09
420.91	4620.22
421.10	4753.63
421.29	4819.16
421.48	4664.69
421.67	4725.54
421.86	4725.54
422.05	4723.20
422.24	4791.08
422.43	4901.08
422.61	4917.47
422.80	5034.49
422.99	5041.51
423.18	4987.68
423.37	5055.56
423.56	4968.96
423.75	4774.69
423.94	4837.89
424.13	4638.94
424.32	4858.95
424.50	4861.29
424.69	4961.94
424.88	5153.86
425.07	4882.36
425.26	4915.12
425.45	5130.45
425.64	4999.38
425.83	4950.23
426.01	5027.47
426.20	5041.51
426.39	4910.44
426.58	4880.02
426.77	4994.70
426.96	5048.54
427.15	5100.03
427.33	5231.10
427.52	5093.01
427.71	5296.63
427.90	5221.74
428.09	5217.05
428.28	5420.68
428.46	5320.04
428.65	5404.30
428.84	5488.56
429.03	5460.47
429.22	5205.35
429.40	5369.19
429.59	5418.34
429.78	5238.12
429.97	5296.63
430.16	5364.51
430.34	5746.02
430.53	5624.31
430.72	5596.22
430.91	5577.50
431.10	5607.92
431.28	5645.37
431.47	5846.66
431.66	5757.72
431.85	5643.03
432.03	5839.64
432.22	6003.47
432.41	5806.87
432.60	5898.15
432.79	5825.59
432.97	5806.87
433.16	5959.00
433.35	5713.25
433.54	6047.94
433.72	6052.63
433.91	6143.91
434.10	6258.59
434.28	5937.94
434.47	6253.91
434.66	6230.51
434.85	6434.13
435.03	6338.17
435.22	6183.70
435.41	6434.13
435.59	6260.93
435.78	6476.26
435.97	6408.39
436.16	6396.68
436.34	6277.32
436.53	6438.81
436.72	6525.41
436.90	6413.07
437.09	6595.63
437.28	6541.80
437.46	6715.00
437.65	6525.41
437.84	6881.18
438.02	6806.28
438.21	6607.33
438.40	6715.00
438.58	7157.36
438.77	7016.93
438.96	7023.95
439.14	7124.59
439.33	7229.91
439.52	7091.82
439.70	7148.00
439.89	7269.70
440.08	7379.71
440.26	7541.21
440.45	7290.77
440.63	7463.97
440.82	7550.57
441.01	7482.69
441.19	7470.99
441.38	7723.77
441.57	7606.74
441.75	7751.85
441.94	7878.24
442.12	7990.59
442.31	8037.40
442.50	7983.57
442.68	7873.56
442.87	7950.80
443.05	7985.91
443.24	8149.75
443.43	8201.24
443.61	8100.59
443.80	8486.78
443.98	8042.08
444.17	7698.02
444.35	8161.45
444.54	8365.07
444.73	8390.82
444.91	8168.47
445.10	8353.37
445.28	8238.69
445.47	8458.70
445.65	8348.69
445.84	8458.70
446.02	8294.86
446.21	8372.10
446.39	8351.03
446.58	8589.77
446.77	8365.07
446.95	8191.88
447.14	8512.53
447.32	8425.93
447.51	8561.68
447.69	8402.52
447.88	8449.33
448.06	8479.76
448.25	8528.91
448.43	8678.71
448.62	8645.94
448.80	8535.93
448.99	8688.07
449.17	8554.66
449.36	8416.57
449.54	8952.55
449.73	9060.21
449.91	8870.63
450.10	8858.93
450.28	9151.49
450.46	9018.08
450.65	9137.45
450.83	8968.93
451.02	8840.20
451.20	9310.65
451.39	9249.80
451.57	9158.52
451.76	9100.00
451.94	9217.03
452.13	9294.27
452.31	9076.60
452.49	9177.24
452.68	9305.97
452.86	9151.49
453.05	9224.05
453.23	9312.99
453.42	9371.50
453.60	9432.36
453.78	9827.91
453.97	9479.17
454.15	9607.90
454.34	9542.36
454.52	9591.52
454.70	9507.26
454.89	9675.77
455.07	9846.63
455.26	9724.93
455.44	9856.00
455.62	9879.40
455.81	10017.49
455.99	10094.73
456.17	9820.89
456.36	10087.71
456.54	10169.63
456.73	10303.04
456.91	10382.62
457.09	10445.81
457.28	10565.18
457.46	10256.23
457.64	10420.06
457.83	10483.26
458.01	10459.85
458.19	10874.13
458.38	10525.39
458.56	10637.73
458.74	10920.94
458.93	10506.66
459.11	10824.98
459.29	10729.02
459.48	10754.76
459.66	10768.80
459.84	10820.30
460.03	11037.97
460.21	10984.13
460.39	11178.40
460.57	10913.92
460.76	10878.81
460.94	11339.90
461.12	11236.91
461.31	11302.45
461.49	10927.96
461.67	11068.39
461.85	11396.07
462.04	11410.11
462.22	11698.00
462.40	11412.45
462.59	11398.41
462.77	11627.78
462.95	11510.75
463.13	11534.16
463.32	11531.82
463.50	11791.62
463.68	11803.32
463.86	11878.22
464.05	11424.15
464.23	11824.39
464.41	11896.94
464.59	11616.08
464.78	12063.12
464.96	11925.03
465.14	11712.04
465.32	11613.74
465.50	12145.04
465.69	12219.94
465.87	12035.03
466.05	12009.29
466.23	12219.94
466.41	12262.07
466.60	12482.08
466.78	12259.73
466.96	12016.31
467.14	12123.98
467.32	12397.82
467.51	12386.12
467.69	12341.64
467.87	12580.38
468.05	12461.01
468.23	12170.79
468.41	12479.74
468.60	12704.43
468.78	12760.60
468.96	12655.28
469.14	12774.64
469.32	12975.93
469.50	12566.34
469.69	12776.98
469.87	12966.57
470.05	12912.74
470.23	13060.19
470.41	13111.68
470.59	13228.71
470.77	13116.36
470.95	13399.57
471.14	13352.76
471.32	13022.74
471.50	13483.83
471.68	13692.13
471.86	13675.75
472.04	13708.52
472.22	13886.40
472.40	13521.27
472.58	13778.73
472.77	13973.00
472.95	14083.00
473.13	14480.89
473.31	14078.32
473.49	13949.59
473.67	14019.81
473.85	14413.02
474.03	14558.13
474.21	14616.65
474.39	14850.70
474.57	14647.07
474.75	14794.53
474.93	15042.62
475.12	14850.70
475.30	15269.66
475.48	15152.63
475.66	15178.37
475.84	15330.51
476.02	15286.04
476.20	15304.76
476.38	15857.13
476.56	16032.67
476.74	16070.12
476.92	15815.00
477.10	15688.61
477.28	16145.02
477.46	16280.77
477.64	16224.59
477.82	16339.28
478.00	16563.97
478.18	16582.70
478.36	16762.92
478.54	17256.77
478.72	17006.33
478.90	17312.94
479.08	17434.65
479.26	17734.24
479.44	17767.01
479.62	18050.21
479.80	17968.29
479.98	18118.09
480.16	18494.91
480.34	18113.41
480.52	18651.73
480.70	18476.19
480.88	18295.97
481.06	18506.62
481.24	18801.52
481.41	18850.67
481.59	19281.33
481.77	19412.40
481.95	19513.05
482.13	19714.33
482.31	19590.28
482.49	20011.58
482.67	19988.18
482.85	20458.62
483.03	20744.17
483.21	20966.52
483.39	20802.68
483.57	20751.19
483.74	20805.02
483.92	21160.78
484.10	20919.71
484.28	21406.54
484.46	22272.54
484.64	22094.66
484.82	21975.29
485.00	22176.58
485.18	22735.96
485.35	22955.97
485.53	22806.18
485.71	22918.53
485.89	23271.95
486.07	23571.54
486.25	23377.27
486.43	23501.32
486.61	23772.82
486.78	24074.75
486.96	24107.52
487.14	24313.48
487.32	24725.42
487.50	24947.77
487.68	24659.88
487.85	25029.69
488.03	25235.66
488.21	25727.17
488.39	25778.66
488.57	25820.79
488.75	26218.68
488.92	26314.64
489.10	26663.38
489.28	26899.78
489.46	27065.96
489.64	27061.27
489.81	27349.16
489.99	27323.41
490.17	27704.92
490.35	27847.69
490.53	28065.36
490.70	28247.93
490.88	28088.77
491.06	28725.39
491.24	29015.62
491.41	28879.87
491.59	29200.52
491.77	29397.13
491.95	29467.34
492.13	29240.31
492.30	29940.13
492.48	29926.09
492.66	29930.77
492.84	30529.95
493.01	30546.33
493.19	30433.99
493.37	30754.64
493.54	30958.27
493.72	31508.29
493.90	31438.08
494.08	31438.08
494.25	31894.48
494.43	31981.08
494.61	32474.93
494.79	32383.65
494.96	32451.53
495.14	32552.17
495.32	33516.47
495.49	32657.49
495.67	33074.11
495.85	33511.79
496.02	33413.49
496.20	33776.27
496.38	34155.44
496.55	34340.34
496.73	34422.26
496.91	34520.56
497.09	34630.57
497.26	34756.96
497.44	34801.43
497.62	35192.30
497.79	35679.13
497.97	35409.96
498.14	35583.16
498.32	35374.86
498.50	36144.89
498.67	36488.95
498.85	36280.64
499.03	36320.43
499.20	36465.55
499.38	36786.20
499.56	37331.54
499.73	37074.09
499.91	37266.01
500.08	37654.54
500.26	37146.64
500.44	37057.70
500.61	37603.05
500.79	37794.97
500.97	37886.25
501.14	38092.22
501.32	38284.14
501.49	38684.37
501.67	38356.70
501.84	38625.86
502.02	38869.28
502.20	38892.68
502.37	39253.12
502.55	39274.19
502.72	39541.01
502.90	39501.22
503.07	39201.63
503.25	39651.02
503.43	39866.34
503.60	39997.41
503.78	40156.57
503.95	40280.62
504.13	40348.50
504.30	40325.09
504.48	40545.10
504.65	40584.89
504.83	40842.35
505.01	41186.41
505.18	41067.04
505.36	41195.77
505.53	41074.06
505.71	41326.84
505.88	42036.02
506.06	41352.58
506.23	42113.26
506.41	42012.62
506.58	41743.45
506.76	41975.17
506.93	42387.10
507.11	42375.40
507.28	42380.08
507.46	42602.43
507.63	42995.64
507.81	43405.23
507.98	42698.39
508.16	42993.30
508.33	43061.18
508.50	43592.48
508.68	43147.78
508.85	44027.82
509.03	43756.32
509.20	43608.86
509.38	44332.09
509.55	44135.48
509.73	44432.73
509.90	44081.65
510.08	44556.78
510.25	44753.38
510.42	44608.27
510.60	44573.16
510.77	44898.50
510.95	45504.70
511.12	44467.84
511.30	45102.12
511.47	45586.61
511.64	45542.14
511.82	45476.61
511.99	45418.10
512.17	45818.33
512.34	45457.88
512.51	45853.44
512.69	46270.05
512.86	46218.56
513.04	46401.12
513.21	46307.50
513.38	46501.76
513.56	46707.73
513.73	46403.46
513.90	47255.42
514.08	46731.14
514.25	47068.17
514.43	47318.61
514.60	47601.82
514.77	47215.63
514.95	47473.09
515.12	47105.62
515.29	47515.22
515.47	47622.88
515.64	48048.86
515.81	47487.13
515.99	48432.71
516.16	48222.06
516.33	47737.57
516.51	48439.73
516.68	48470.15
516.85	48636.33
517.03	48339.08
517.20	48526.33
517.37	48479.52
517.54	48477.18
517.72	48652.72
517.89	48903.15
518.06	48837.62
518.24	49284.66
518.41	49432.11
518.58	49118.48
518.75	49258.91
518.93	49336.15
519.10	49549.14
519.27	49404.03
519.45	49593.61
519.62	49614.68
519.79	49916.61
519.96	49874.48
520.14	50075.76
520.31	50031.29
520.48	50108.53
520.65	50260.66
520.83	50251.30
521.00	50557.91
521.17	50164.70
521.34	50937.08
521.52	50703.03
521.69	50859.84
521.86	50445.57
522.03	50827.07
522.20	50958.14
522.38	51217.94
522.55	51283.48
522.72	51136.02
522.89	51285.82
523.07	51529.23
523.24	51320.93
523.41	51552.64
523.58	51105.60
523.75	51625.20
523.92	51538.60
524.10	51601.79
524.27	51873.29
524.44	51796.06
524.61	51964.57
524.78	52147.14
524.96	52170.54
525.13	52224.37
525.30	52247.78
525.47	52320.34
525.64	52296.93
525.81	52009.04
525.98	52507.58
526.16	52210.33
526.33	52521.62
526.50	53198.04
526.67	52694.82
526.84	52762.70
527.01	52692.48
527.18	53137.18
527.36	52739.29
527.53	53198.04
527.70	53165.27
527.87	53389.96
528.04	53251.87
528.21	53052.92
528.38	53546.78
528.55	53242.51
528.72	53151.23
528.89	53331.45
529.07	53282.30
529.24	53441.45
529.41	53598.27
529.58	53284.64
529.75	53605.29
529.92	53624.01
530.09	53661.46
530.26	53942.33
530.43	53930.62
530.60	53638.06
530.77	53846.36
530.94	54042.97
531.11	53806.58
531.28	53867.43
531.46	54136.59
531.63	53916.58
531.80	54195.10
531.97	54078.08
532.14	54370.64
532.31	54319.15
532.48	54394.05
532.65	54616.40
532.82	54461.93
532.99	54754.49
533.16	54513.42
533.33	54815.35
533.50	55082.17
533.67	54618.74
533.84	54403.41
534.01	54625.76
534.18	54775.56
534.35	55075.15
534.52	55107.91
534.69	55299.84
534.86	55033.02
535.03	54805.98
535.20	55196.85
535.37	55206.22
535.54	55241.32
535.71	54953.44
535.88	55339.63
536.05	55159.41
536.22	55473.04
536.38	55594.74
536.55	55533.89
536.72	55515.17
536.89	55171.11
537.06	55536.23
537.23	55442.61
537.40	55533.89
537.57	55793.69
537.74	55749.22
537.91	55742.20
538.08	55639.22
538.25	55870.93
538.42	55746.88
538.59	56030.08
538.75	55676.66
538.92	56032.42
539.09	56224.35
539.26	56130.73
539.43	56058.17
539.60	56362.44
539.77	55945.83
539.94	56526.28
540.11	56240.73
540.28	56303.93
540.44	56067.53
540.61	56411.59
540.78	56224.35
540.95	56292.22
541.12	56324.99
541.29	56264.14
541.46	56542.66
541.62	56657.35
541.79	56802.46
541.96	56266.48
542.13	56573.09
542.30	56809.48
542.47	56706.50
542.63	56718.20
542.80	56980.34
542.97	56999.07
543.14	57162.90
543.31	56996.73
543.48	57235.46
543.64	57396.96
543.81	57256.53
543.98	57301.00
544.15	57284.61
544.32	57403.98
544.48	57455.47
544.65	57319.72
544.82	57574.84
544.99	57310.36
545.16	57261.21
545.32	57443.77
545.49	57670.80
545.66	57691.86
545.83	57591.22
546.00	57883.79
546.16	57609.95
546.33	57476.54
546.50	57256.53
546.67	57684.84
546.83	57366.53
547.00	57469.51
547.17	57682.50
547.34	57855.70
547.50	57986.77
547.67	57911.88
547.84	57911.88
548.00	58162.31
548.17	58073.37
548.34	57738.68
548.51	58054.65
548.67	58026.56
548.84	58134.23
549.01	57935.28
549.18	58099.12
549.34	58064.01
549.51	58269.98
549.68	58199.76
549.84	58066.35
550.01	58269.98
550.18	58192.74
550.34	58272.32
550.51	58454.88
550.68	58370.62
550.84	58150.61
551.01	58475.94
551.18	58361.26
551.34	58309.77
551.51	58384.66
551.68	58604.67
551.84	58445.52
552.01	58468.92
552.18	58614.04
552.34	58344.87
552.51	58548.50
552.68	58375.30
552.84	58707.66
553.01	58955.75
553.18	58780.21
553.34	58932.35
553.51	58651.48
553.67	58817.66
553.84	59000.22
554.01	58859.79
554.17	59042.35
554.34	58941.71
554.51	58946.39
554.67	59037.67
554.84	58869.15
555.00	58967.46
555.17	58773.19
555.33	59107.89
555.50	58761.49
555.67	58918.31
555.83	58911.28
556.00	58988.52
556.16	59260.02
556.33	59269.39
556.50	59030.65
556.66	59220.23
556.83	58930.01
556.99	59395.77
557.16	59414.50
557.32	59540.89
557.49	59461.31
557.65	59201.51
557.82	59238.96
557.98	59077.46
558.15	59344.28
558.32	59377.05
558.48	59000.22
558.65	59501.10
558.81	59313.86
558.98	59433.22
559.14	59512.80
559.31	59578.34
559.47	59615.79
559.64	59435.56
559.80	59641.53
559.97	59657.91
560.13	59353.65
560.30	59482.37
560.46	59515.14
560.63	59580.68
560.79	59552.59
560.96	59737.49
561.12	59690.68
561.29	59744.51
561.45	59826.43
561.61	59920.05
561.78	59693.02
561.94	59716.43
562.11	59831.11
562.27	59856.86
562.44	59903.67
562.60	60062.83
562.77	59861.54
562.93	59587.70
563.10	59749.20
563.26	59678.98
563.42	60062.83
563.59	59894.31
563.75	59901.33
563.92	59796.01
564.08	59891.97
564.24	60168.15
564.41	59983.25
564.57	59969.21
564.74	60037.08
564.90	60023.04
565.07	59814.73
565.23	59952.82
565.39	59866.22
565.56	60142.41
565.72	60097.94
565.88	60111.98
566.05	60086.23
566.21	60034.74
566.38	60079.21
566.54	60336.67
566.70	60313.26
566.87	60219.64
567.03	60104.96
567.19	60210.28
567.36	60289.86
567.52	60119.00
567.68	60537.96
567.85	60137.72
568.01	60458.38
568.17	60221.98
568.34	60172.83
568.50	60322.63
568.66	60236.03
568.83	60362.42
568.99	60156.45
569.15	60418.59
569.32	60299.22
569.48	60086.23
569.64	60240.71
569.81	60275.82
569.97	60137.72
570.13	60509.87
570.30	60317.95
570.46	60418.59
570.62	60261.77
570.78	60310.92
570.95	60364.76
571.11	60470.08
571.27	60348.37
571.43	60439.65
571.60	60584.77
571.76	60294.54
571.92	60507.53
572.09	60647.96
572.25	60493.49
572.41	60367.10
572.57	60472.42
572.74	60762.65
572.90	60439.65
573.06	60523.91
573.22	60463.06
573.38	60519.23
573.55	60624.56
573.71	60748.60
573.87	60664.35
574.03	60343.69
574.20	60701.79
574.36	60537.96
574.52	60514.55
574.68	60748.60
574.84	60743.92
575.01	60678.39
575.17	60685.41
575.33	60425.61
575.49	60392.84
575.65	60786.05
575.82	60711.16
575.98	60669.03
576.14	60837.54
576.30	60650.30
576.46	60673.71
576.62	60470.08
576.79	60706.47
576.95	60554.34
577.11	60816.48
577.27	60800.10
577.43	60736.90
577.59	60610.51
577.75	60718.18
577.92	60589.45
578.08	60662.00
578.24	60638.60
578.40	60809.46
578.56	60741.58
578.72	60664.35
578.88	60942.87
579.04	60970.96
579.21	60811.80
579.37	60973.30
579.53	60989.68
579.69	60734.56
579.85	60664.35
580.01	60704.13
580.17	60685.41
580.33	60968.61
580.49	60970.96
580.65	60718.18
580.82	60718.18
580.98	60650.30
581.14	60870.31
581.30	60853.93
581.46	60797.76
581.62	60697.11
581.78	60697.11
581.94	60795.42
582.10	60809.46
582.26	60966.27
582.42	60842.23
582.58	60711.16
582.74	60699.45
582.90	60746.26
583.06	60942.87
583.22	60598.81
583.38	60825.84
583.54	60863.29
583.70	60865.63
583.86	60762.65
584.02	60736.90
584.18	61104.37
584.34	60842.23
584.50	61020.11
584.66	60697.11
584.82	60879.67
584.98	61155.86
585.14	61043.51
585.30	60980.32
585.46	60832.86
585.62	60870.31
585.78	60945.21
585.94	60783.71
586.10	60891.38
586.26	61090.32
586.42	61104.37
586.58	61132.45
586.74	61125.43
586.90	61036.49
587.06	60928.83
587.22	61085.64
587.38	60977.98
587.54	61118.41
587.70	61083.30
587.86	60821.16
588.02	60961.59
588.18	61254.16
588.34	60982.66
588.49	61169.90
