SpectraSuite Data File
++++++++++++++++++++++++++++++++++++
Date: Fri Oct 25 11:33:32 EDT 2013
User: price-jones
Dark Spectrum Present: No
Reference Spectrum Present: No
Number of Sampled Component Spectra: 1
Spectrometers: USB2+H05261
Integration Time (usec): 100000 (USB2+H05261)
Spectra Averaged: 1 (USB2+H05261)
Boxcar Smoothing: 0 (USB2+H05261)
Correct for Electrical Dark: No (USB2+H05261)
Strobe/Lamp Enabled: No (USB2+H05261)
Correct for Detector Non-linearity: No (USB2+H05261)
Correct for Stray Light: No (USB2+H05261)
Number of Pixels in Processed Spectrum: 2048
>>>>>Begin Processed Spectral Data<<<<<
365.73	276.18
365.92	276.18
366.12	276.18
366.32	180.22
366.52	182.56
366.72	196.60
366.91	177.88
367.11	121.71
367.31	208.31
367.51	159.16
367.70	138.09
367.90	212.99
368.10	138.09
368.30	168.52
368.49	196.60
368.69	212.99
368.89	180.22
369.09	191.92
369.28	198.95
369.48	194.26
369.68	273.84
369.87	285.55
370.07	175.54
370.27	285.55
370.47	313.63
370.66	440.02
370.86	440.02
371.06	575.77
371.25	578.11
371.45	533.64
371.65	564.07
371.84	552.37
372.04	559.39
372.24	601.52
372.44	608.54
372.63	535.98
372.83	648.33
373.03	575.77
373.22	599.18
373.42	645.99
373.62	599.18
373.81	671.73
374.01	613.22
374.21	587.47
374.40	657.69
374.60	622.58
374.79	566.41
374.99	599.18
375.19	615.56
375.38	648.33
375.58	688.12
375.78	669.39
375.97	669.39
376.17	727.91
376.37	559.39
376.56	716.20
376.76	664.71
376.95	653.01
377.15	662.37
377.35	716.20
377.54	734.93
377.74	688.12
377.93	732.59
378.13	706.84
378.33	690.46
378.52	702.16
378.72	767.70
378.91	653.01
379.11	718.54
379.31	690.46
379.50	753.65
379.70	753.65
379.89	711.52
380.09	739.61
380.28	727.91
380.48	730.25
380.68	816.85
380.87	720.88
381.07	711.52
381.26	748.97
381.46	784.08
381.65	744.29
381.85	753.65
382.04	739.61
382.24	765.36
382.43	718.54
382.63	760.67
382.83	748.97
383.02	861.32
383.22	901.11
383.41	765.36
383.61	772.38
383.80	819.19
384.00	784.08
384.19	744.29
384.39	802.80
384.58	732.59
384.78	868.34
384.97	814.51
385.17	734.93
385.36	823.87
385.56	880.04
385.75	894.08
385.95	828.55
386.14	866.00
386.34	826.21
386.53	835.57
386.72	840.25
386.92	903.45
387.11	964.30
387.31	924.51
387.50	873.02
387.70	910.47
387.89	894.08
388.09	905.79
388.28	924.51
388.48	837.91
388.67	926.85
388.86	922.17
389.06	940.90
389.25	976.00
389.45	940.90
389.64	1034.52
389.84	999.41
390.03	990.05
390.22	1015.79
390.42	917.49
390.61	1013.45
390.81	1034.52
391.00	954.94
391.19	976.00
391.39	1015.79
391.58	957.28
391.78	1004.09
391.97	1064.94
392.16	966.64
392.36	1011.11
392.55	957.28
392.75	1055.58
392.94	1029.84
393.13	1032.18
393.33	1088.35
393.52	1071.97
393.71	1027.50
393.91	1121.12
394.10	1100.05
394.29	1121.12
394.49	1032.18
394.68	1111.75
394.88	1151.54
395.07	1123.46
395.26	1118.78
395.46	1109.41
395.65	1125.80
395.84	1086.01
396.04	1317.72
396.23	1226.44
396.42	1203.04
396.62	1160.91
396.81	1249.85
397.00	1282.61
397.19	1210.06
397.39	1210.06
397.58	1254.53
397.77	1240.48
397.97	1299.00
398.16	1235.80
398.35	1235.80
398.55	1193.67
398.74	1390.28
398.93	1390.28
399.12	1291.98
399.32	1306.02
399.51	1308.36
399.70	1329.42
399.90	1359.85
400.09	1324.74
400.28	1497.94
400.47	1376.24
400.67	1324.74
400.86	1425.39
401.05	1338.79
401.24	1427.73
401.44	1364.53
401.63	1495.60
401.82	1500.28
402.01	1369.21
402.21	1486.24
402.40	1504.96
402.59	1472.20
402.78	1474.54
402.97	1488.58
403.17	1554.12
403.36	1490.92
403.55	1516.67
403.74	1537.73
403.93	1647.74
404.13	1605.61
404.32	1619.65
404.51	1563.48
404.70	1750.72
404.89	1540.07
405.09	1652.42
405.28	1748.38
405.47	1715.61
405.66	1762.42
405.85	1654.76
406.05	1792.85
406.24	1668.80
406.43	1844.34
406.62	1757.74
406.81	1776.47
407.00	1757.74
407.20	1750.72
407.39	1788.17
407.58	1834.98
407.77	1830.30
407.96	1888.81
408.15	1853.70
408.34	1940.30
408.54	2005.84
408.73	1998.82
408.92	1963.71
409.11	1916.90
409.30	2052.65
409.49	2019.88
409.68	2083.08
409.87	1982.43
410.07	2008.18
410.26	2024.56
410.45	1966.05
410.64	2143.93
410.83	2106.48
411.02	2146.27
411.21	2263.30
411.40	2235.21
411.59	2155.63
411.78	2249.25
411.98	2235.21
412.17	2169.68
412.36	2340.54
412.55	2263.30
412.74	2246.91
412.93	2377.98
413.12	2277.34
413.31	2380.32
413.50	2361.60
413.69	2251.60
413.88	2572.25
414.07	2452.88
414.26	2413.09
414.45	2499.69
414.64	2427.14
414.83	2541.82
415.02	2588.63
415.22	2626.08
415.41	2626.08
415.60	2602.68
415.79	2693.96
415.98	2710.34
416.17	2771.19
416.36	2738.43
416.55	2724.38
416.74	2679.91
416.93	2799.28
417.12	2883.54
417.31	2841.41
417.50	2853.11
417.69	2944.39
417.88	2956.10
418.07	2885.88
418.26	3035.67
418.45	3080.14
418.64	3124.62
418.83	2958.44
419.02	2916.31
419.21	3073.12
419.39	3047.38
419.58	3038.02
419.77	3026.31
419.96	3262.71
420.15	3248.66
420.34	3155.04
420.53	3215.90
420.72	3211.22
420.91	3171.43
421.10	3314.20
421.29	3368.03
421.48	3173.77
421.67	3260.37
421.86	3253.34
422.05	3356.33
422.24	3129.30
422.43	3248.66
422.61	3356.33
422.80	3424.20
422.99	3234.62
423.18	3492.08
423.37	3527.19
423.56	3421.86
423.75	3258.03
423.94	3288.45
424.13	3302.50
424.32	3208.87
424.50	3555.27
424.69	3447.61
424.88	3482.72
425.07	3417.18
425.26	3361.01
425.45	3370.37
425.64	3405.48
425.83	3368.03
426.01	3412.50
426.20	3520.17
426.39	3449.95
426.58	3419.52
426.77	3379.73
426.96	3538.89
427.15	3480.38
427.33	3630.17
427.52	3604.42
427.71	3611.45
427.90	3559.95
428.09	3765.92
428.28	3634.85
428.46	3684.00
428.65	3705.07
428.84	3798.69
429.03	3723.79
429.22	3695.71
429.40	3763.58
429.59	3716.77
429.78	3595.06
429.97	3581.02
430.16	3576.34
430.34	3859.54
430.53	3810.39
430.72	3868.91
430.91	3831.46
431.10	3995.29
431.28	3962.53
431.47	4009.34
431.66	4149.77
431.85	4091.26
432.03	4145.09
432.22	4152.11
432.41	3999.98
432.60	4142.75
432.79	4095.94
432.97	4088.92
433.16	4177.86
433.35	4063.17
433.54	4121.68
433.72	4257.43
433.91	4053.81
434.10	4135.73
434.28	4234.03
434.47	4201.26
434.66	4344.03
434.85	4308.93
435.03	4346.37
435.22	4255.09
435.41	4458.72
435.59	4407.23
435.78	4451.70
435.97	4449.36
436.16	4315.95
436.34	4447.02
436.53	4498.51
436.72	4493.83
436.90	4276.16
437.09	4500.85
437.28	4498.51
437.46	4648.30
437.65	4491.49
437.84	4589.79
438.02	4535.96
438.21	4461.06
438.40	4645.96
438.58	4781.71
438.77	4805.12
438.96	4685.75
439.14	4786.40
439.33	4919.81
439.52	4882.36
439.70	4954.91
439.89	5074.28
440.08	4856.61
440.26	5064.92
440.45	5135.14
440.63	5027.47
440.82	5095.35
441.01	4997.04
441.19	5193.65
441.38	5240.46
441.57	5179.61
441.75	5198.33
441.94	5336.42
442.12	5511.96
442.31	5596.22
442.50	5476.85
442.68	5317.70
442.87	5465.15
443.05	5418.34
443.24	5614.95
443.43	5521.32
443.61	5577.50
443.80	5731.97
443.98	5490.90
444.17	5357.49
444.35	5610.26
444.54	5680.48
444.73	5593.88
444.91	5659.42
445.10	5598.56
445.28	5643.03
445.47	5563.45
445.65	5575.16
445.84	5607.92
446.02	5809.21
446.21	5561.11
446.39	5647.71
446.58	5729.63
446.77	5940.28
446.95	5612.60
447.14	5724.95
447.32	5937.94
447.51	5792.83
447.69	5757.72
447.88	5788.14
448.06	5991.77
448.25	5898.15
448.43	5851.34
448.62	5804.53
448.80	5755.38
448.99	6061.99
449.17	5839.64
449.36	5877.09
449.54	6015.18
449.73	6038.58
449.91	6267.95
450.10	6036.24
450.28	6251.57
450.46	6040.92
450.65	6183.70
450.83	6139.23
451.02	5989.43
451.20	6324.13
451.39	6204.76
451.57	6197.74
451.76	6150.93
451.94	6307.74
452.13	6394.34
452.31	6113.48
452.49	6204.76
452.68	6356.90
452.86	6307.74
453.05	6487.96
453.23	6361.58
453.42	6272.64
453.60	6464.56
453.78	6352.21
453.97	6239.87
454.15	6462.22
454.34	6497.33
454.52	6614.35
454.70	6586.27
454.89	6572.22
455.07	6677.55
455.26	6539.46
455.44	6785.21
455.62	6778.19
455.81	6815.64
455.99	6658.82
456.17	6703.29
456.36	6773.51
456.54	6825.00
456.73	6906.92
456.91	7098.84
457.09	6803.94
457.28	7143.32
457.46	7000.54
457.64	7056.72
457.83	7054.37
458.01	7063.74
458.19	7283.75
458.38	7133.95
458.56	7164.38
458.74	7176.08
458.93	7358.64
459.11	7169.06
459.29	7115.23
459.48	7204.17
459.66	7311.83
459.84	7260.34
460.03	7515.46
460.21	7421.84
460.39	7276.73
460.57	7482.69
460.76	7571.63
460.94	7597.38
461.12	7595.04
461.31	7543.55
461.49	7679.30
461.67	7344.60
461.85	7691.00
462.04	7576.31
462.22	8100.59
462.40	7733.13
462.59	7698.02
462.77	7793.98
462.95	7857.18
463.13	7817.39
463.32	7606.74
463.50	7756.54
463.68	7875.90
463.86	8119.32
464.05	7915.69
464.23	7789.30
464.41	7733.13
464.59	7913.35
464.78	8161.45
464.96	8102.93
465.14	7796.32
465.32	8182.51
465.50	8058.46
465.69	8226.98
465.87	7999.95
466.05	8205.92
466.23	8341.67
466.41	8154.43
466.60	8407.20
466.78	8287.84
466.96	8379.12
467.14	8224.64
467.32	8374.44
467.51	8315.92
467.69	8154.43
467.87	8437.63
468.05	8243.37
468.23	8465.72
468.41	8439.97
468.60	8372.10
468.78	8407.20
468.96	8439.97
469.14	8507.85
469.32	8798.07
469.50	8571.04
469.69	8713.81
469.87	8669.34
470.05	8896.38
470.23	8856.59
470.41	8975.95
470.59	8870.63
470.77	8879.99
470.95	9001.70
471.14	9240.44
471.32	8620.19
471.50	9174.90
471.68	9041.49
471.86	8987.66
472.04	9256.82
472.22	9427.68
472.40	9078.94
472.58	9200.65
472.77	9399.59
472.95	9420.66
473.13	9731.95
473.31	9341.08
473.49	9387.89
473.67	9411.29
473.85	9441.72
474.03	9734.29
474.21	9846.63
474.39	9902.81
474.57	9813.87
474.75	9954.30
474.93	10050.26
475.12	9870.04
475.30	9949.62
475.48	9717.90
475.66	10207.08
475.84	10071.33
476.02	10073.67
476.20	10307.72
476.38	10377.94
476.56	10595.61
476.74	10729.02
476.92	10399.00
477.10	10609.65
477.28	10719.65
477.46	10867.11
477.64	10684.55
477.82	10787.53
478.00	11297.77
478.18	11016.90
478.36	11194.78
478.54	11506.07
478.72	11262.66
478.90	11452.24
479.08	11768.21
479.26	11873.54
479.44	11705.02
479.62	11639.48
479.80	12044.40
479.98	12112.27
480.16	12241.00
480.34	12084.19
480.52	12201.21
480.70	12400.16
480.88	12280.79
481.06	12191.85
481.24	12528.89
481.41	12390.80
481.59	12531.23
481.77	12903.37
481.95	12924.44
482.13	12945.50
482.31	12975.93
482.49	13373.82
482.67	13497.87
482.85	13455.74
483.03	13734.26
483.21	13659.37
483.39	13886.40
483.57	13792.78
483.74	13813.84
483.92	14279.61
484.10	13898.10
484.28	14377.91
484.46	14483.24
484.64	14658.78
484.82	14413.02
485.00	14696.22
485.18	14841.34
485.35	15171.35
485.53	15033.26
485.71	15066.03
485.89	15169.01
486.07	15176.03
486.25	15438.17
486.43	15571.58
486.61	15707.34
486.78	15688.61
486.96	15925.00
487.14	16025.65
487.32	16044.37
487.50	16226.93
487.68	16304.17
487.85	16685.68
488.03	16695.04
488.21	16833.13
488.39	16961.86
488.57	17167.83
488.75	17102.29
488.92	17537.63
489.10	17493.16
489.28	17708.49
489.46	17666.36
489.64	17759.98
489.81	18090.00
489.99	18120.43
490.17	18256.18
490.35	18326.39
490.53	18513.64
490.70	18806.20
490.88	19091.75
491.06	18937.27
491.24	18853.02
491.41	19157.28
491.59	19248.57
491.77	18948.98
491.95	19454.53
492.13	19655.82
492.30	19819.66
492.48	19756.46
492.66	19754.12
492.84	19782.21
493.01	20130.95
493.19	20065.41
493.37	20666.93
493.54	20376.70
493.72	20507.77
493.90	20554.58
494.08	20615.44
494.25	20917.37
494.43	21116.31
494.61	21516.54
494.79	21399.52
494.96	21247.38
495.14	21191.21
495.32	21797.41
495.49	21799.75
495.67	21837.20
495.85	22045.51
496.02	22129.77
496.20	22321.69
496.38	22260.84
496.55	22661.07
496.73	22958.31
496.91	22916.19
497.09	22728.94
497.26	23087.04
497.44	23084.70
497.62	23049.60
497.79	23494.30
497.97	23222.80
498.14	23601.96
498.32	23723.67
498.50	23873.46
498.67	23901.55
498.85	24119.22
499.03	23805.59
499.20	23838.36
499.38	24477.32
499.56	24463.28
499.73	24322.85
499.91	24608.39
500.08	24805.00
500.26	24669.25
500.44	24592.01
500.61	24634.14
500.79	24713.72
500.97	24900.96
501.14	25778.66
501.32	25216.93
501.49	25256.72
501.67	25429.92
501.84	25797.38
502.02	25488.43
502.20	25855.90
502.37	25954.20
502.55	26122.72
502.72	25687.38
502.90	25979.95
503.07	26099.31
503.25	25993.99
503.43	26143.78
503.60	26445.71
503.78	26457.42
503.95	26295.92
504.13	26555.72
504.30	26604.87
504.48	26700.83
504.65	26567.42
504.83	27255.54
505.01	27023.83
505.18	27080.00
505.36	27194.68
505.53	27445.12
505.71	27496.61
505.88	27714.28
506.06	27140.85
506.23	27735.35
506.41	27353.84
506.58	27924.93
506.76	27924.93
506.93	27946.00
507.11	28095.79
507.28	27861.74
507.46	28088.77
507.63	28290.06
507.81	28259.63
507.98	28397.72
508.16	28458.57
508.33	28467.94
508.50	28711.35
508.68	28599.01
508.85	29032.00
509.03	29027.32
509.20	29127.97
509.38	29340.96
509.55	29364.36
509.73	29193.50
509.90	29268.40
510.08	29188.82
510.25	29479.05
510.42	29745.87
510.60	30031.41
510.77	30295.89
510.95	30106.31
511.12	29937.79
511.30	30096.95
511.47	29979.92
511.64	30366.11
511.82	30635.27
511.99	30235.04
512.17	30618.89
512.34	30361.43
512.51	30829.54
512.69	30742.94
512.86	30909.11
513.04	31189.98
513.21	30689.10
513.38	30995.71
513.56	30927.84
513.73	30939.54
513.90	31255.51
514.08	31126.78
514.25	31424.03
514.43	31812.56
514.60	31625.32
514.77	31683.83
514.95	31468.50
515.12	31847.67
515.29	31648.72
515.47	31756.39
515.64	32336.84
515.81	31969.38
515.99	32109.81
516.16	32147.26
516.33	32320.46
516.51	32772.18
516.68	32095.77
516.85	32889.21
517.03	32706.65
517.20	32837.72
517.37	32643.45
517.54	32905.59
517.72	32868.14
517.89	32273.65
518.06	33031.98
518.24	33003.89
518.41	33020.28
518.58	33467.32
518.75	32903.25
518.93	33565.62
519.10	33347.95
519.27	33343.27
519.45	33586.69
519.62	33998.62
519.79	33441.57
519.96	33434.55
520.14	34019.69
520.31	33797.34
520.48	34040.75
520.65	34375.45
520.83	34712.49
521.00	34204.59
521.17	34340.34
521.34	34354.38
521.52	34852.92
521.69	34635.25
521.86	34672.70
522.03	34728.87
522.20	34848.24
522.38	35033.14
522.55	34810.79
522.72	35227.40
522.89	35040.16
523.07	35391.24
523.24	34995.69
523.41	35676.79
523.58	35550.40
523.75	35782.11
523.92	35351.45
524.10	35728.28
524.27	35871.05
524.44	35917.86
524.61	36027.87
524.78	35714.23
524.96	35941.27
525.13	35910.84
525.30	36350.86
525.47	36467.89
525.64	36217.45
525.81	36208.09
525.98	36240.86
526.16	36341.50
526.33	36257.24
526.50	36678.54
526.67	36582.57
526.84	36664.49
527.01	36456.18
527.18	37247.29
527.36	36652.79
527.53	36992.17
527.70	37214.52
527.87	37053.02
528.04	36779.18
528.21	37486.02
528.38	37137.28
528.55	37490.70
528.72	36842.37
528.89	37413.46
529.07	37371.33
529.24	37170.05
529.41	37771.57
529.58	37322.18
529.75	37497.72
529.92	37457.93
530.09	38010.30
530.26	37743.48
530.43	38010.30
530.60	37614.75
530.77	37809.01
530.94	37907.32
531.11	37897.95
531.28	38199.88
531.46	37947.11
531.63	38286.48
531.80	38110.94
531.97	38813.10
532.14	38401.17
532.31	38103.92
532.48	38747.57
532.65	38714.80
532.82	38508.83
532.99	38630.54
533.16	38462.02
533.33	38862.26
533.50	38646.93
533.67	38932.47
533.84	38377.76
534.01	39100.99
534.18	39091.63
534.35	39562.08
534.52	38892.68
534.69	39342.06
534.86	39248.44
535.03	39175.89
535.20	39541.01
535.37	39416.96
535.54	39548.03
535.71	39438.03
535.88	39592.50
536.05	39648.68
536.22	40123.80
536.38	39739.96
536.55	39632.29
536.72	39992.73
536.89	39601.86
537.06	39847.62
537.23	40086.36
537.40	40261.90
537.57	39634.63
537.74	39402.92
537.91	40355.52
538.08	40278.28
538.25	40198.70
538.42	40074.65
538.59	40751.07
538.75	40254.87
538.92	40554.46
539.09	40746.39
539.26	40996.82
539.43	40641.06
539.60	40933.63
539.77	40561.48
539.94	40996.82
540.11	41172.36
540.28	40858.73
540.44	40938.31
540.61	40828.30
540.78	40561.48
540.95	40694.89
541.12	40886.82
541.29	40966.40
541.46	41174.70
541.62	41123.21
541.79	41235.56
541.96	40889.16
542.13	40971.08
542.30	41202.79
542.47	41607.70
542.63	41317.48
542.80	41801.97
542.97	42096.88
543.14	41928.36
543.31	41553.87
543.48	41698.98
543.64	42471.36
543.81	42375.40
543.98	42007.94
544.15	41937.72
544.32	42192.84
544.48	42347.31
544.65	42557.96
544.82	42363.70
544.99	42234.97
545.16	42342.63
545.32	42541.58
545.49	42677.33
545.66	42979.26
545.83	42660.94
546.00	42426.89
546.16	42890.32
546.33	42351.99
546.50	42784.99
546.67	43033.09
546.83	42164.75
547.00	42672.65
547.17	42838.83
547.34	42574.34
547.50	42969.90
547.67	43381.83
547.84	43107.99
548.00	43229.69
548.17	43543.33
548.34	43138.41
548.51	43201.61
548.67	43426.30
548.84	43358.42
549.01	43159.48
549.18	43157.14
549.34	43320.98
549.51	43861.64
549.68	43775.04
549.84	43592.48
550.01	43590.14
550.18	43526.94
550.34	43798.44
550.51	43725.89
550.68	43562.05
550.84	43866.32
551.01	44128.46
551.18	43981.01
551.34	44135.48
551.51	43882.70
551.68	43976.33
551.84	44053.56
552.01	43784.40
552.18	43732.91
552.34	43913.13
552.51	43768.02
552.68	43938.88
552.84	44222.08
553.01	44486.56
553.18	44027.82
553.34	44048.88
553.51	43873.34
553.67	44208.04
553.84	44603.59
554.01	44411.67
554.17	44332.09
554.34	44222.08
554.51	44313.36
554.67	44856.37
554.84	44715.93
555.00	44591.89
555.17	44868.07
555.33	44598.91
555.50	44779.13
555.67	44645.72
555.83	44594.23
556.00	44783.81
556.16	45219.15
556.33	45078.72
556.50	45050.63
556.66	45221.49
556.83	44938.29
556.99	45764.49
557.16	45471.93
557.32	45272.98
557.49	45167.66
557.65	44839.98
557.82	44928.92
557.98	45120.85
558.15	44954.67
558.32	45460.23
558.48	45244.90
558.65	45219.15
558.81	44994.46
558.98	45563.21
559.14	45200.43
559.31	45434.48
559.47	45481.29
559.64	45907.27
559.80	45572.57
559.97	45514.06
560.13	45612.36
560.30	45125.53
560.46	45738.75
560.63	45647.47
560.79	45504.70
560.96	45923.65
561.12	45752.79
561.29	45696.62
561.45	46036.00
561.61	45668.53
561.78	45509.38
561.94	45888.54
562.11	45764.49
562.27	45961.10
562.44	45560.87
562.60	46078.13
562.77	45839.39
562.93	45649.81
563.10	46188.13
563.26	45769.18
563.42	46103.87
563.59	45965.78
563.75	45888.54
563.92	46054.72
564.08	45785.56
564.24	46117.92
564.41	45785.56
564.57	45930.67
564.74	46405.80
564.90	45813.65
565.07	46019.61
565.23	46375.37
565.39	46307.50
565.56	45933.01
565.72	46169.41
565.88	46471.34
566.05	46258.35
566.21	46300.48
566.38	46260.69
566.54	45918.97
566.70	46281.75
566.87	46131.96
567.03	46302.82
567.19	46817.74
567.36	46415.16
567.52	46209.20
567.68	46857.52
567.85	46602.41
568.01	46850.50
568.17	46300.48
568.34	47051.79
568.50	46403.46
568.66	45956.42
568.83	46377.72
568.99	46656.24
569.15	46567.30
569.32	46422.19
569.48	46522.83
569.64	46962.85
569.81	46733.48
569.97	46684.33
570.13	47014.34
570.30	46644.54
570.46	47110.30
570.62	46703.05
570.78	46667.94
570.95	46887.95
571.11	46876.25
571.27	46424.53
571.43	46728.80
571.60	46801.35
571.76	46712.41
571.92	46452.61
572.09	46801.35
572.25	46822.42
572.41	46607.09
572.57	47063.49
572.74	46909.02
572.90	46752.20
573.06	47281.16
573.22	47311.59
573.38	47161.79
573.55	47337.33
573.71	47435.64
573.87	46803.69
574.03	46827.10
574.20	47407.55
574.36	46934.76
574.52	47086.90
574.68	46864.55
574.84	47103.28
575.01	47346.70
575.17	47119.66
575.33	47323.29
575.49	46848.16
575.65	47330.31
575.82	47318.61
575.98	47145.41
576.14	47086.90
576.30	47220.31
576.46	47505.85
576.62	47363.08
576.79	47222.65
576.95	47117.32
577.11	46728.80
577.27	47044.77
577.43	46932.42
577.59	47477.77
577.75	46719.43
577.92	46857.52
578.08	46932.42
578.24	47243.71
578.40	47276.48
578.56	47344.36
578.72	47004.98
578.88	47220.31
579.04	47459.04
579.21	46843.48
579.37	47281.16
579.53	47257.76
579.69	47103.28
579.85	47096.26
580.01	47360.74
580.17	47522.24
580.33	47423.93
580.49	47494.15
580.65	47475.43
580.82	47304.57
580.98	46763.90
581.14	46850.50
581.30	47107.96
581.46	47110.30
581.62	47269.46
581.78	47021.36
581.94	47459.04
582.10	47323.29
582.26	47508.19
582.42	47477.77
582.58	47166.48
582.74	47878.00
582.90	47274.14
583.06	47248.39
583.22	47058.81
583.38	47641.60
583.54	47562.03
583.70	47442.66
583.86	47821.83
584.02	47288.18
584.18	47576.07
584.34	47583.09
584.50	47526.92
584.66	47803.10
584.82	47732.89
584.98	47767.99
585.14	47793.74
585.30	46997.96
585.46	47332.65
585.62	47147.75
585.78	47695.44
585.94	47150.09
586.10	46845.82
586.26	47143.07
586.42	47445.00
586.58	47789.06
586.74	47583.09
586.90	47309.25
587.06	47782.04
587.22	47494.15
587.38	47604.16
587.54	47641.60
587.70	47641.60
587.86	47938.85
588.02	47161.79
588.18	47674.37
588.34	47353.72
588.49	47622.88
588.65	47555.00
588.81	47950.56
588.97	47920.13
589.13	46995.62
589.29	47379.46
589.45	47405.21
589.61	47849.91
589.77	47250.74
589.93	47674.37
590.08	47590.11
