SpectraSuite Data File
++++++++++++++++++++++++++++++++++++
Date: Fri Oct 25 11:23:32 EDT 2013
User: price-jones
Dark Spectrum Present: No
Reference Spectrum Present: No
Number of Sampled Component Spectra: 1
Spectrometers: USB2+H05261
Integration Time (usec): 100000 (USB2+H05261)
Spectra Averaged: 1 (USB2+H05261)
Boxcar Smoothing: 0 (USB2+H05261)
Correct for Electrical Dark: No (USB2+H05261)
Strobe/Lamp Enabled: No (USB2+H05261)
Correct for Detector Non-linearity: No (USB2+H05261)
Correct for Stray Light: No (USB2+H05261)
Number of Pixels in Processed Spectrum: 2048
>>>>>Begin Processed Spectral Data<<<<<
365.73	252.78
365.92	252.78
366.12	252.78
366.32	173.20
366.52	100.64
366.72	156.82
366.91	133.41
367.11	124.05
367.31	95.96
367.51	170.86
367.70	128.73
367.90	149.79
368.10	98.30
368.30	138.09
368.49	53.83
368.69	170.86
368.89	131.07
369.09	131.07
369.28	102.98
369.48	220.01
369.68	166.18
369.87	133.41
370.07	173.20
370.27	215.33
370.47	365.12
370.66	575.77
370.86	636.63
371.06	653.01
371.25	674.07
371.45	739.61
371.65	671.73
371.84	655.35
372.04	624.92
372.24	645.99
372.44	702.16
372.63	753.65
372.83	681.10
373.03	758.33
373.22	741.95
373.42	800.46
373.62	788.76
373.81	709.18
374.01	732.59
374.21	746.63
374.40	788.76
374.60	889.40
374.79	823.87
374.99	781.74
375.19	858.98
375.38	842.59
375.58	802.80
375.78	767.70
375.97	873.02
376.17	931.53
376.37	866.00
376.56	793.44
376.76	837.91
376.95	828.55
377.15	936.21
377.35	868.34
377.54	877.70
377.74	833.23
377.93	915.15
378.13	877.70
378.33	912.81
378.52	905.79
378.72	866.00
378.91	959.62
379.11	961.96
379.31	898.77
379.50	889.40
379.70	1006.43
379.89	908.13
380.09	924.51
380.28	966.64
380.48	976.00
380.68	971.32
380.87	1032.18
381.07	936.21
381.26	959.62
381.46	1057.92
381.65	1076.65
381.85	1029.84
382.04	1048.56
382.24	1055.58
382.43	1107.07
382.63	1100.05
382.83	1029.84
383.02	1102.39
383.22	1104.73
383.41	1034.52
383.61	1076.65
383.80	1118.78
384.00	1078.99
384.19	1107.07
384.39	1128.14
384.58	1196.01
384.78	1135.16
384.97	1188.99
385.17	1128.14
385.36	1132.82
385.56	1043.88
385.75	1088.35
385.95	1224.10
386.14	1128.14
386.34	1174.95
386.53	1186.65
386.72	1306.02
386.92	1313.04
387.11	1240.48
387.31	1240.48
387.50	1184.31
387.70	1160.91
387.89	1240.48
388.09	1270.91
388.28	1214.74
388.48	1336.45
388.67	1240.48
388.86	1343.47
389.06	1310.70
389.25	1334.11
389.45	1338.79
389.64	1390.28
389.84	1369.21
390.03	1378.58
390.22	1430.07
390.42	1488.58
390.61	1256.87
390.81	1476.88
391.00	1376.24
391.19	1399.64
391.39	1441.77
391.58	1369.21
391.78	1486.24
391.97	1476.88
392.16	1469.86
392.36	1598.59
392.55	1514.33
392.75	1600.93
392.94	1521.35
393.13	1600.93
393.33	1460.49
393.52	1652.42
393.71	1631.35
393.91	1654.76
394.10	1586.88
394.29	1551.78
394.49	1605.61
394.68	1544.75
394.88	1547.09
395.07	1645.40
395.26	1713.27
395.46	1629.01
395.65	1638.38
395.84	1762.42
396.04	1771.79
396.23	1785.83
396.42	1774.13
396.62	1713.27
396.81	1746.04
397.00	1799.87
397.19	1771.79
397.39	1839.66
397.58	1853.70
397.77	1879.45
397.97	1867.75
398.16	1788.17
398.35	1916.90
398.55	1954.35
398.74	1930.94
398.93	1909.88
399.12	1947.33
399.32	1970.73
399.51	1968.39
399.70	2010.52
399.90	2073.71
400.09	2099.46
400.28	2073.71
400.47	1947.33
400.67	2101.80
400.86	2052.65
401.05	2076.06
401.24	2146.27
401.44	2115.84
401.63	2101.80
401.82	2073.71
402.01	2108.82
402.21	2172.02
402.40	2237.55
402.59	2277.34
402.78	2106.48
402.97	2115.84
403.17	2242.23
403.36	2300.75
403.55	2277.34
403.74	2331.17
403.93	2415.43
404.13	2326.49
404.32	2342.88
404.51	2305.43
404.70	2375.64
404.89	2410.75
405.09	2497.35
405.28	2385.01
405.47	2544.16
405.66	2289.04
405.85	2605.02
406.05	2469.27
406.24	2626.08
406.43	2527.78
406.62	2532.46
406.81	2649.49
407.00	2684.59
407.20	2527.78
407.39	2686.94
407.58	2696.30
407.77	2717.36
407.96	2740.77
408.15	2892.90
408.34	2768.85
408.54	2785.24
408.73	2808.64
408.92	2888.22
409.11	2778.22
409.30	2871.84
409.49	2935.03
409.68	2993.55
409.87	2881.20
410.07	3019.29
410.26	3073.12
410.45	3014.61
410.64	2998.23
410.83	3045.04
411.02	3117.59
411.21	3218.24
411.40	3211.22
411.59	3253.34
411.78	3251.00
411.98	3232.28
412.17	3323.56
412.36	3335.26
412.55	3358.67
412.74	3391.44
412.93	3396.12
413.12	3346.97
413.31	3637.19
413.50	3492.08
413.69	3485.06
413.88	3665.28
414.07	3644.21
414.26	3651.24
414.45	3625.49
414.64	3676.98
414.83	3847.84
415.02	3768.26
415.22	3960.19
415.41	3955.51
415.60	3831.46
415.79	3983.59
415.98	3974.23
416.17	3943.80
416.36	3955.51
416.55	4016.36
416.74	4119.34
416.93	3992.95
417.12	4184.88
417.31	4046.79
417.50	4212.96
417.69	4250.41
417.88	4393.19
418.07	4255.09
418.26	4393.19
418.45	4320.63
418.64	4465.74
418.83	4334.67
419.02	4395.53
419.21	4582.77
419.39	4514.89
419.58	4587.45
419.77	4367.44
419.96	4531.28
420.15	4664.69
420.34	4648.30
420.53	4685.75
420.72	4667.03
420.91	4741.93
421.10	4844.91
421.29	4842.57
421.48	4774.69
421.67	4833.21
421.86	4870.65
422.05	4823.84
422.24	4821.50
422.43	4922.15
422.61	4847.25
422.80	5001.72
422.99	4917.47
423.18	4950.23
423.37	4919.81
423.56	4842.57
423.75	5048.54
423.94	4737.24
424.13	4582.77
424.32	4786.40
424.50	5076.62
424.69	5104.71
424.88	4957.25
425.07	4959.60
425.26	4950.23
425.45	4938.53
425.64	4936.19
425.83	4823.84
426.01	5210.03
426.20	5167.90
426.39	4873.00
426.58	4997.04
426.77	5102.37
426.96	5191.31
427.15	5160.88
427.33	5193.65
427.52	5076.62
427.71	5280.25
427.90	5397.28
428.09	5355.15
428.28	5399.62
428.46	5380.89
428.65	5483.88
428.84	5397.28
429.03	5476.85
429.22	5305.99
429.40	5383.23
429.59	5631.33
429.78	5364.51
429.97	5369.19
430.16	5483.88
430.34	5647.71
430.53	5563.45
430.72	5589.20
430.91	5568.13
431.10	5715.59
431.28	5612.60
431.47	5839.64
431.66	5832.62
431.85	5689.84
432.03	5951.98
432.22	6113.48
432.41	5956.66
432.60	6066.67
432.79	6019.86
432.97	5919.21
433.16	6064.33
433.35	5996.45
433.54	6090.07
433.72	6193.06
433.91	6188.38
434.10	6197.74
434.28	6036.24
434.47	6326.47
434.66	6232.85
434.85	6448.18
435.03	6263.27
435.22	6331.15
435.41	6464.56
435.59	6597.97
435.78	6387.32
435.97	6579.25
436.16	6436.47
436.34	6497.33
436.53	6518.39
436.72	6630.74
436.90	6595.63
437.09	6691.59
437.28	6466.90
437.46	6684.57
437.65	6511.37
437.84	6766.49
438.02	6871.81
438.21	6939.69
438.40	6668.19
438.58	7082.46
438.77	7140.97
438.96	7059.06
439.14	7124.59
439.33	7297.79
439.52	7300.13
439.70	7346.94
439.89	7349.28
440.08	7346.94
440.26	7445.24
440.45	7234.60
440.63	7613.76
440.82	7534.18
441.01	7428.86
441.19	7520.14
441.38	7590.36
441.57	7747.17
441.75	7667.60
441.94	8060.80
442.12	7903.99
442.31	8006.97
442.50	7857.18
442.68	7985.91
442.87	8161.45
443.05	8243.37
443.24	8255.07
443.43	8138.04
443.61	8025.70
443.80	8365.07
443.98	8088.89
444.17	7667.60
444.35	8304.22
444.54	8358.05
444.73	8369.76
444.91	8016.33
445.10	8315.92
445.28	8283.16
445.47	8400.18
445.65	8290.18
445.84	8507.85
446.02	8580.40
446.21	8411.89
446.39	8369.76
446.58	8507.85
446.77	8439.97
446.95	8187.19
447.14	8468.06
447.32	8442.31
447.51	8390.82
447.69	8358.05
447.88	8472.74
448.06	8549.98
448.25	8521.89
448.43	8592.11
448.62	8526.57
448.80	8493.80
448.99	8706.79
449.17	8779.35
449.36	8690.41
449.54	8861.27
449.73	9060.21
449.91	9025.11
450.10	8938.51
450.28	9050.85
450.46	9118.73
450.65	9067.24
450.83	8982.98
451.02	8999.36
451.20	9315.33
451.39	9109.36
451.57	9111.71
451.76	9320.01
451.94	9149.15
452.13	9261.50
452.31	9399.59
452.49	9118.73
452.68	9415.98
452.86	9628.96
453.05	9500.23
453.23	9458.10
453.42	9540.02
453.60	9362.14
453.78	9493.21
453.97	9392.57
454.15	9556.41
454.34	9413.63
454.52	9933.23
454.70	9554.07
454.89	9984.73
455.07	9877.06
455.26	9757.69
455.44	10008.13
455.62	9970.68
455.81	9921.53
455.99	9968.34
456.17	10008.13
456.36	10024.51
456.54	10164.95
456.73	10377.94
456.91	10413.04
457.09	10504.32
457.28	10319.42
457.46	10537.09
457.64	10413.04
457.83	10462.19
458.01	10607.31
458.19	10883.49
458.38	10352.19
458.56	10609.65
458.74	10525.39
458.93	10544.11
459.11	10743.06
459.29	10759.44
459.48	10970.09
459.66	10717.31
459.84	10979.45
460.03	11311.81
460.21	10965.41
460.39	10747.74
460.57	11028.60
460.76	11136.27
460.94	11321.17
461.12	11241.59
461.31	11077.76
461.49	11314.15
461.67	11267.34
461.85	11389.05
462.04	11286.06
462.22	11688.64
462.40	11461.60
462.59	11442.88
462.77	11550.54
462.95	11735.45
463.13	11623.10
463.32	11672.25
463.50	11850.13
463.68	11733.11
463.86	11756.51
464.05	11744.81
464.23	11578.63
464.41	12112.27
464.59	11875.88
464.78	12236.32
464.96	11950.78
465.14	11997.59
465.32	11901.62
465.50	12233.98
465.69	12086.53
465.87	12166.10
466.05	12542.93
466.23	12229.30
466.41	12154.40
466.60	12524.21
466.78	12035.03
466.96	12212.92
467.14	12409.52
467.32	12336.96
467.51	12898.69
467.69	12203.55
467.87	12482.08
468.05	12624.85
468.23	12329.94
468.41	12423.56
468.60	12622.51
468.78	12671.66
468.96	12695.07
469.14	12919.76
469.32	12901.03
469.50	12634.21
469.69	12905.71
469.87	13121.04
470.05	13015.72
470.23	13247.43
470.41	13312.97
470.59	13109.34
470.77	13245.09
470.95	13322.33
471.14	13797.46
471.32	13160.83
471.50	13902.78
471.68	13699.16
471.86	13469.78
472.04	13502.55
472.22	13935.55
472.40	13579.79
472.58	13834.91
472.77	13977.68
472.95	14359.19
473.13	14525.36
473.31	14157.90
473.49	14167.26
473.67	14284.29
473.85	14544.09
474.03	14602.60
474.21	14583.88
474.39	14780.48
474.57	14850.70
474.75	14899.85
474.93	15047.30
475.12	15035.60
475.30	15208.80
475.48	15002.83
475.66	15288.38
475.84	15297.74
476.02	15651.16
476.20	15662.86
476.38	15906.28
476.56	16004.58
476.74	16355.66
476.92	15878.19
477.10	15850.11
477.28	16093.52
477.46	16121.61
477.64	16404.81
477.82	16580.36
478.00	17018.04
478.18	16886.97
478.36	17015.69
478.54	17099.95
478.72	17123.36
478.90	17369.12
479.08	17568.06
479.26	17750.62
479.44	17788.07
479.62	18010.42
479.80	18141.49
479.98	18003.40
480.16	18707.90
480.34	18230.43
480.52	18630.66
480.70	18757.05
480.88	18157.88
481.06	18794.50
481.24	18640.03
481.41	19363.25
481.59	19278.99
481.77	19770.51
481.95	19585.60
482.13	19791.57
482.31	19620.71
482.49	20067.75
482.67	20247.97
482.85	20430.54
483.03	20498.41
483.21	21015.67
483.39	20954.82
483.57	20929.07
483.74	21060.14
483.92	21235.68
484.10	21319.94
484.28	21811.45
484.46	22085.30
484.64	22412.97
484.82	22071.25
485.00	22586.17
485.18	22733.62
485.35	22939.59
485.53	22768.73
485.71	23175.98
485.89	23426.42
486.07	23288.33
486.25	23562.17
486.43	23793.89
486.61	23922.62
486.78	23632.39
486.96	24486.68
487.14	24807.34
487.32	24809.68
487.50	25008.62
487.68	24861.17
487.85	25179.48
488.03	25486.09
488.21	25989.31
488.39	25937.82
488.57	26190.59
488.75	26230.38
488.92	26450.39
489.10	26623.59
489.28	26890.41
489.46	26752.32
489.64	27239.15
489.81	27955.36
489.99	27793.86
490.17	27915.57
490.35	27981.10
490.53	28189.41
490.70	28425.81
490.88	28561.56
491.06	28643.48
491.24	28919.66
491.41	29046.05
491.59	29359.68
491.77	29539.90
491.95	29682.67
492.13	30047.80
492.30	30169.51
492.48	30279.51
492.66	30515.90
492.84	30609.53
493.01	30719.53
493.19	30792.09
493.37	31119.76
493.54	31208.70
493.72	31711.92
493.90	31360.84
494.08	31845.33
494.25	31924.91
494.43	32158.96
494.61	32390.67
494.79	32524.08
494.96	32617.71
495.14	32884.53
495.32	33347.95
495.49	33408.81
495.67	33256.67
495.85	33832.44
496.02	33443.91
496.20	34286.51
496.38	34209.27
496.55	34162.46
496.73	35049.52
496.91	34462.05
497.09	35002.71
497.26	35049.52
497.44	34834.19
497.62	35442.73
497.79	36163.62
497.97	35576.14
498.14	36116.81
498.32	36102.76
498.50	36271.28
498.67	36556.83
498.85	36559.17
499.03	36685.56
499.20	36762.79
499.38	37024.93
499.56	37209.84
499.73	37228.56
499.91	37331.54
500.08	37631.13
500.26	37497.72
500.44	37816.04
500.61	38382.45
500.79	37888.59
500.97	38567.35
501.14	38497.13
501.32	38775.66
501.49	38829.49
501.67	39428.66
501.84	38670.33
502.02	38546.28
502.20	39033.11
502.37	39466.11
502.55	39388.88
502.72	39894.43
502.90	39672.08
503.07	39641.65
503.25	40432.75
503.43	40421.05
503.60	40140.19
503.78	40095.72
503.95	39950.60
504.13	40374.24
504.30	41076.40
504.48	40587.23
504.65	40673.83
504.83	41209.81
505.01	41333.86
505.18	41453.23
505.36	41886.23
505.53	41598.34
505.71	41373.65
505.88	41846.44
506.06	41638.13
506.23	42312.20
506.41	41954.10
506.58	42061.77
506.76	42480.72
506.93	42946.49
507.11	42403.49
507.28	42955.85
507.46	43091.60
507.63	43262.46
507.81	43473.11
507.98	42630.52
508.16	43311.61
508.33	43632.27
508.50	43714.19
508.68	44147.18
508.85	44301.66
509.03	44215.06
509.20	43976.33
509.38	44388.26
509.55	44839.98
509.73	44842.32
509.90	44903.18
510.08	44547.42
510.25	44650.40
510.42	44954.67
510.60	45127.87
510.77	45256.60
510.95	45794.92
511.12	45113.83
511.30	45577.25
511.47	45312.77
511.64	45483.63
511.82	45837.05
511.99	45535.12
512.17	46176.43
512.34	45989.19
512.51	46527.51
512.69	46457.29
512.86	46129.62
513.04	46869.23
513.21	46733.48
513.38	47084.56
513.56	46967.53
513.73	46817.74
513.90	47075.19
514.08	47157.11
514.25	47398.19
514.43	47636.92
514.60	47643.94
514.77	47140.73
514.95	47604.16
515.12	47915.45
515.29	47660.33
515.47	48250.14
515.64	48098.01
515.81	48081.63
515.99	48523.99
516.16	48793.15
516.33	48376.53
516.51	48762.72
516.68	48596.54
516.85	48685.48
517.03	49081.03
517.20	49020.18
517.37	48767.40
517.54	49069.33
517.72	49024.86
517.89	49469.56
518.06	49441.48
518.24	48865.70
518.41	49277.64
518.58	49308.07
518.75	49357.22
518.93	49621.70
519.10	49350.20
519.27	49865.11
519.45	49916.61
519.62	50232.58
519.79	49930.65
519.96	50160.02
520.14	50176.40
520.31	50246.62
520.48	50492.38
520.65	50087.46
520.83	50815.37
521.00	50768.56
521.17	50569.61
521.34	50597.70
521.52	50639.83
521.69	50899.63
521.86	51084.53
522.03	51524.55
522.20	51400.50
522.38	51093.89
522.55	51440.29
522.72	51327.95
522.89	51491.79
523.07	51676.69
523.24	51547.96
523.41	51807.76
523.58	51751.59
523.75	51934.15
523.92	51877.97
524.10	52105.01
524.27	52243.10
524.44	52552.05
524.61	52032.45
524.78	52175.22
524.96	52563.75
525.13	52308.63
525.30	52554.39
525.47	52753.33
525.64	52708.86
525.81	52706.52
525.98	53027.18
526.16	52849.30
526.33	52800.15
526.50	53095.05
526.67	53104.41
526.84	53031.86
527.01	52685.46
527.18	53155.91
527.36	53191.01
527.53	53095.05
527.70	53343.15
527.87	53572.52
528.04	53081.01
528.21	53460.18
528.38	53191.01
528.55	53649.76
528.72	53418.05
528.89	53532.73
529.07	53354.85
529.24	53577.20
529.41	53701.25
529.58	53593.59
529.75	53712.95
529.92	53914.24
530.09	53979.78
530.26	53839.34
530.43	53977.43
530.60	54038.29
530.77	53993.82
530.94	54543.84
531.11	54270.00
531.28	54204.47
531.46	54227.87
531.63	54478.31
531.80	54440.86
531.97	54323.83
532.14	54773.22
532.31	54499.37
532.48	54637.47
532.65	55025.99
532.82	54504.06
532.99	54698.32
533.16	54546.18
533.33	54887.90
533.50	55124.30
533.67	54930.03
533.84	54653.85
534.01	55124.30
534.18	55229.62
534.35	55281.11
534.52	55262.39
534.69	55302.18
534.86	55264.73
535.03	55117.28
535.20	55468.36
535.37	55304.52
535.54	55487.08
535.71	55131.32
535.88	55536.23
536.05	55913.06
536.22	55606.45
536.38	55655.60
536.55	55704.75
536.72	55618.15
536.89	55639.22
537.06	55667.30
537.23	55962.21
537.40	55784.33
537.57	55966.89
537.74	55948.17
537.91	56236.05
538.08	56116.68
538.25	55903.70
538.42	55962.21
538.59	56147.11
538.75	55896.67
538.92	56053.49
539.09	56481.81
539.26	56301.59
539.43	56191.58
539.60	56336.69
539.77	56488.83
539.94	56310.95
540.11	56264.14
540.28	56530.96
540.44	56608.20
540.61	56526.28
540.78	56282.86
540.95	56453.72
541.12	56423.29
541.29	56734.59
541.46	56739.27
541.62	56687.78
541.79	56753.31
541.96	56404.57
542.13	56498.19
542.30	56860.97
542.47	56975.66
542.63	56760.33
542.80	57064.60
542.97	57286.95
543.14	57371.21
543.31	57240.14
543.48	57205.03
543.64	57694.21
543.81	57329.08
543.98	57247.16
544.15	57511.64
544.32	57525.69
544.48	57544.41
544.65	57310.36
544.82	57570.16
544.99	57492.92
545.16	57436.75
545.32	57478.88
545.49	57642.71
545.66	57942.30
545.83	57855.70
546.00	57965.71
546.16	57682.50
546.33	57691.86
546.50	57579.52
546.67	57968.05
546.83	57579.52
547.00	57977.41
547.17	57792.51
547.34	57972.73
547.50	58138.91
547.67	57958.69
547.84	57951.66
548.00	58300.40
548.17	58272.32
548.34	58342.53
548.51	58171.67
548.67	58382.32
548.84	58288.70
549.01	58181.04
549.18	58164.65
549.34	58529.78
549.51	58387.00
549.68	58569.57
549.84	58628.08
550.01	58623.40
550.18	58515.73
550.34	58679.57
550.51	58548.50
550.68	58527.44
550.84	58185.72
551.01	58569.57
551.18	58515.73
551.34	58585.95
551.51	58592.97
551.68	58609.35
551.84	58595.31
552.01	58541.48
552.18	58534.46
552.34	58752.13
552.51	59072.78
552.68	58857.45
552.84	58749.79
553.01	59042.35
553.18	58803.62
553.34	59077.46
553.51	58710.00
553.67	58855.11
553.84	59269.39
554.01	58920.65
554.17	59002.56
554.34	59000.22
554.51	59089.16
554.67	59231.94
554.84	58911.28
555.00	59016.61
555.17	59128.95
555.33	59035.33
555.50	59121.93
555.67	59112.57
555.83	59175.76
556.00	59292.79
556.16	59578.34
556.33	59465.99
556.50	59348.96
556.66	59412.16
556.83	59063.42
556.99	59257.68
557.16	59597.06
557.32	59664.94
557.49	59674.30
557.65	59236.62
557.82	59606.42
557.98	59313.86
558.15	59557.27
558.32	59660.26
558.48	59503.44
558.65	59561.95
558.81	59547.91
558.98	59498.76
559.14	59498.76
559.31	59774.94
559.47	59732.81
559.64	59835.80
559.80	59875.58
559.97	59910.69
560.13	59480.03
560.30	59739.83
560.46	59774.94
560.63	59906.01
560.79	59817.07
560.96	59948.14
561.12	60053.47
561.29	59994.95
561.45	60037.08
561.61	59798.35
561.78	59917.71
561.94	60133.04
562.11	60079.21
562.27	60095.60
562.44	59978.57
562.60	60090.91
562.77	60004.31
562.93	60001.97
563.10	60177.51
563.26	59835.80
563.42	60189.22
563.59	60072.19
563.75	60128.36
563.92	60200.92
564.08	60189.22
564.24	60097.94
564.41	60154.11
564.57	59906.01
564.74	60252.41
564.90	60184.54
565.07	60186.88
565.23	60207.94
565.39	60236.03
565.56	60198.58
565.72	60266.45
565.88	60233.69
566.05	60348.37
566.21	60184.54
566.38	60264.11
566.54	60390.50
566.70	60406.89
566.87	60315.61
567.03	60261.77
567.19	60498.17
567.36	60444.33
567.52	60245.39
567.68	60622.22
567.85	60692.43
568.01	60566.04
568.17	60622.22
568.34	60537.96
568.50	60357.74
568.66	60472.42
568.83	60376.46
568.99	60357.74
569.15	60563.70
569.32	60519.23
569.48	60458.38
569.64	60640.94
569.81	60622.22
569.97	60416.25
570.13	60605.83
570.30	60385.82
570.46	60570.72
570.62	60687.75
570.78	60669.03
570.95	60409.23
571.11	60699.45
571.27	60605.83
571.43	60570.72
571.60	60823.50
571.76	60645.62
571.92	60540.30
572.09	60664.35
572.25	60853.93
572.41	60633.92
572.57	60701.79
572.74	60832.86
572.90	60617.53
573.06	60706.47
573.22	60846.91
573.38	60683.07
573.55	60867.97
573.71	60891.38
573.87	60559.02
574.03	60629.24
574.20	60900.74
574.36	60804.78
574.52	60687.75
574.68	60985.00
574.84	60935.85
575.01	60804.78
575.17	60516.89
575.33	60683.07
575.49	60954.57
575.65	60898.40
575.82	60933.51
575.98	60842.23
576.14	60949.89
576.30	60830.52
576.46	60867.97
576.62	60797.76
576.79	60743.92
576.95	60725.20
577.11	61066.92
577.27	61069.26
577.43	60781.37
577.59	60762.65
577.75	60844.57
577.92	60734.56
578.08	60919.46
578.24	60977.98
578.40	61130.11
578.56	61102.03
578.72	60830.52
578.88	61036.49
579.04	61125.43
579.21	60938.19
579.37	60999.04
579.53	61076.28
579.69	60643.28
579.85	60910.10
580.01	61059.90
580.17	60837.54
580.33	61104.37
580.49	61020.11
580.65	61073.94
580.82	60762.65
580.98	60851.59
581.14	60851.59
581.30	61127.77
581.46	60968.61
581.62	60900.74
581.78	60985.00
581.94	60823.50
582.10	61062.24
582.26	60898.40
582.42	61118.41
582.58	60996.70
582.74	60947.55
582.90	60917.12
583.06	61020.11
583.22	60853.93
583.38	60917.12
583.54	60963.93
583.70	61144.16
583.86	61085.64
584.02	60921.80
584.18	61165.22
584.34	61031.81
584.50	60917.12
584.66	60729.88
584.82	60816.48
584.98	61151.18
585.14	61118.41
585.30	61057.56
585.46	61221.39
585.62	60994.36
585.78	61179.26
585.94	61015.43
586.10	61214.37
586.26	60996.70
586.42	61083.30
586.58	61230.75
586.74	61111.39
586.90	61078.62
587.06	60961.59
587.22	61312.67
587.38	61113.73
587.54	61221.39
587.70	61228.41
587.86	61212.03
588.02	61254.16
588.18	61446.08
588.34	61200.33
588.49	61073.94
