SpectraSuite Data File
++++++++++++++++++++++++++++++++++++
Date: Fri Oct 25 11:22:30 EDT 2013
User: price-jones
Dark Spectrum Present: No
Reference Spectrum Present: No
Number of Sampled Component Spectra: 1
Spectrometers: USB2+H05261
Integration Time (usec): 100000 (USB2+H05261)
Spectra Averaged: 1 (USB2+H05261)
Boxcar Smoothing: 0 (USB2+H05261)
Correct for Electrical Dark: No (USB2+H05261)
Strobe/Lamp Enabled: No (USB2+H05261)
Correct for Detector Non-linearity: No (USB2+H05261)
Correct for Stray Light: No (USB2+H05261)
Number of Pixels in Processed Spectrum: 2048
>>>>>Begin Processed Spectral Data<<<<<
365.73	238.73
365.92	238.73
366.12	238.73
366.32	79.58
366.52	131.07
366.72	166.18
366.91	58.51
367.11	70.22
367.31	168.52
367.51	60.85
367.70	147.45
367.90	86.60
368.10	37.45
368.30	152.13
368.49	91.28
368.69	84.26
368.89	138.09
369.09	210.65
369.28	180.22
369.48	105.32
369.68	128.73
369.87	140.43
370.07	126.39
370.27	163.84
370.47	374.49
370.66	587.47
370.86	674.07
371.06	650.67
371.25	716.20
371.45	699.82
371.65	587.47
371.84	645.99
372.04	739.61
372.24	737.27
372.44	751.31
372.63	748.97
372.83	685.78
373.03	697.48
373.22	676.41
373.42	793.44
373.62	772.38
373.81	702.16
374.01	816.85
374.21	777.06
374.40	741.95
374.60	774.72
374.79	788.76
374.99	835.57
375.19	861.32
375.38	870.68
375.58	854.30
375.78	896.43
375.97	840.25
376.17	952.60
376.37	823.87
376.56	915.15
376.76	842.59
376.95	849.61
377.15	957.28
377.35	880.04
377.54	889.40
377.74	933.87
377.93	856.64
378.13	938.55
378.33	952.60
378.52	964.30
378.72	926.85
378.91	978.34
379.11	964.30
379.31	1032.18
379.50	1029.84
379.70	1022.81
379.89	1069.62
380.09	971.32
380.28	936.21
380.48	1013.45
380.68	992.39
380.87	987.71
381.07	1004.09
381.26	1100.05
381.46	1102.39
381.65	1036.86
381.85	1109.41
382.04	1043.88
382.24	1081.33
382.43	1001.75
382.63	1100.05
382.83	1053.24
383.02	1118.78
383.22	1170.27
383.41	1057.92
383.61	1125.80
383.80	1184.31
384.00	1104.73
384.19	1151.54
384.39	1174.95
384.58	1135.16
384.78	1200.69
384.97	1179.63
385.17	1095.37
385.36	1165.59
385.56	1135.16
385.75	1153.88
385.95	1177.29
386.14	1188.99
386.34	1170.27
386.53	1149.20
386.72	1207.72
386.92	1306.02
387.11	1207.72
387.31	1231.12
387.50	1254.53
387.70	1186.65
387.89	1301.34
388.09	1240.48
388.28	1348.15
388.48	1275.59
388.67	1313.04
388.86	1315.38
389.06	1376.24
389.25	1397.30
389.45	1437.09
389.64	1327.08
389.84	1418.36
390.03	1343.47
390.22	1401.98
390.42	1385.60
390.61	1397.30
390.81	1460.49
391.00	1481.56
391.19	1458.15
391.39	1441.77
391.58	1490.92
391.78	1483.90
391.97	1570.50
392.16	1479.22
392.36	1526.03
392.55	1507.30
392.75	1570.50
392.94	1558.80
393.13	1540.07
393.33	1586.88
393.52	1579.86
393.71	1563.48
393.91	1619.65
394.10	1572.84
394.29	1593.90
394.49	1584.54
394.68	1647.74
394.88	1596.25
395.07	1593.90
395.26	1617.31
395.46	1750.72
395.65	1724.97
395.84	1692.21
396.04	1778.81
396.23	1832.64
396.42	1739.02
396.62	1762.42
396.81	1785.83
397.00	1799.87
397.19	1760.08
397.39	1755.40
397.58	1797.53
397.77	1856.04
397.97	1879.45
398.16	1849.02
398.35	1935.62
398.55	1860.73
398.74	1921.58
398.93	1940.30
399.12	1968.39
399.32	1959.03
399.51	1933.28
399.70	2050.31
399.90	2052.65
400.09	2064.35
400.28	2101.80
400.47	2080.74
400.67	2120.53
400.86	2010.52
401.05	2003.50
401.24	2186.06
401.44	2104.14
401.63	2139.25
401.82	2167.34
402.01	2160.31
402.21	2134.57
402.40	2216.49
402.59	2279.68
402.78	2143.93
402.97	2349.90
403.17	2291.38
403.36	2291.38
403.55	2319.47
403.74	2462.24
403.93	2422.45
404.13	2427.14
404.32	2265.64
404.51	2389.69
404.70	2518.42
404.89	2464.58
405.09	2588.63
405.28	2424.80
405.47	2541.82
405.66	2583.95
405.85	2548.84
406.05	2502.03
406.24	2546.50
406.43	2640.12
406.62	2654.17
406.81	2679.91
407.00	2492.67
407.20	2576.93
407.39	2635.44
407.58	2637.78
407.77	2848.43
407.96	2801.62
408.15	2759.49
408.34	2832.05
408.54	2750.13
408.73	2818.00
408.92	2993.55
409.11	2895.24
409.30	2958.44
409.49	2951.42
409.68	2958.44
409.87	2920.99
410.07	2895.24
410.26	3007.59
410.45	3068.44
410.64	3084.83
410.83	3136.32
411.02	3056.74
411.21	3138.66
411.40	3185.47
411.59	3316.54
411.78	3091.85
411.98	3274.41
412.17	3251.00
412.36	3496.76
412.55	3440.59
412.74	3424.20
412.93	3461.65
413.12	3353.99
413.31	3625.49
413.50	3433.57
413.69	3583.36
413.88	3688.68
414.07	3632.51
414.26	3669.96
414.45	3667.62
414.64	3660.60
414.83	3676.98
415.02	3716.77
415.22	3889.97
415.41	3953.16
415.60	3955.51
415.79	3997.64
415.98	3934.44
416.17	3960.19
416.36	4105.30
416.55	4067.85
416.74	4086.58
416.93	4046.79
417.12	4182.54
417.31	4259.78
417.50	4166.15
417.69	4348.72
417.88	4367.44
418.07	4245.73
418.26	4348.72
418.45	4390.84
418.64	4388.50
418.83	4489.15
419.02	4449.36
419.21	4669.37
419.39	4531.28
419.58	4418.93
419.77	4531.28
419.96	4638.94
420.15	4667.03
420.34	4557.02
420.53	4629.58
420.72	4622.56
420.91	4552.34
421.10	4767.67
421.29	4748.95
421.48	4568.73
421.67	4734.90
421.86	4833.21
422.05	4887.04
422.24	4880.02
422.43	4912.78
422.61	4891.72
422.80	5018.11
422.99	4985.34
423.18	4936.19
423.37	5104.71
423.56	4786.40
423.75	4929.17
423.94	4912.78
424.13	4660.01
424.32	4786.40
424.50	4983.00
424.69	5233.44
424.88	5200.67
425.07	5060.24
425.26	4903.42
425.45	5076.62
425.64	4940.87
425.83	5102.37
426.01	5167.90
426.20	4978.32
426.39	5144.50
426.58	5076.62
426.77	4994.70
426.96	5158.54
427.15	5254.50
427.33	5256.84
427.52	5165.56
427.71	5282.59
427.90	5252.16
428.09	5373.87
428.28	5336.42
428.46	5224.08
428.65	5432.38
428.84	5465.15
429.03	5568.13
429.22	5387.91
429.40	5430.04
429.59	5614.95
429.78	5317.70
429.97	5345.78
430.16	5638.35
430.34	5504.94
430.53	5778.78
430.72	5628.99
430.91	5713.25
431.10	5769.42
431.28	5956.66
431.47	5795.17
431.66	5827.93
431.85	5809.21
432.03	5898.15
432.22	6101.78
432.41	5935.60
432.60	5982.41
432.79	6076.03
432.97	6097.10
433.16	5980.07
433.35	6047.94
433.54	6064.33
433.72	6296.04
433.91	6111.14
434.10	6218.80
434.28	6204.76
434.47	6284.34
434.66	6368.60
434.85	6319.45
435.03	6473.92
435.22	6354.55
435.41	6597.97
435.59	6445.84
435.78	6509.03
435.97	6499.67
436.16	6541.80
436.34	6520.73
436.53	6487.96
436.72	6668.19
436.90	6719.68
437.09	6782.87
437.28	6679.89
437.46	6729.04
437.65	6677.55
437.84	6942.03
438.02	6799.26
438.21	6932.67
438.40	6719.68
438.58	6970.12
438.77	7293.11
438.96	7075.44
439.14	7300.13
439.33	7126.93
439.52	7318.86
439.70	7255.66
439.89	7220.55
440.08	7473.33
440.26	7318.86
440.45	7564.61
440.63	7499.08
440.82	7531.84
441.01	7531.84
441.19	7583.34
441.38	7852.50
441.57	7651.21
441.75	7941.44
441.94	8107.62
442.12	7957.82
442.31	8124.00
442.50	8250.39
442.68	8116.98
442.87	8147.40
443.05	8276.13
443.24	8168.47
443.43	8262.09
443.61	8208.26
443.80	8416.57
443.98	8189.53
444.17	8023.36
444.35	8386.14
444.54	8299.54
444.73	8573.38
444.91	8311.24
445.10	8437.63
445.28	8477.42
445.47	8381.46
445.65	8468.06
445.84	8585.08
446.02	8470.40
446.21	8627.21
446.39	8425.93
446.58	8702.11
446.77	8512.53
446.95	8470.40
447.14	8510.19
447.32	8695.09
447.51	8594.45
447.69	8578.06
447.88	8678.71
448.06	8594.45
448.25	8557.00
448.43	8713.81
448.62	8535.93
448.80	8772.33
448.99	8861.27
449.17	8854.25
449.36	8631.90
449.54	8734.88
449.73	9064.89
449.91	9170.22
450.10	8887.01
450.28	9341.08
450.46	9172.56
450.65	9142.13
450.83	9067.24
451.02	9167.88
451.20	9226.39
451.39	9121.07
451.57	9160.86
451.76	9214.69
451.94	9212.35
452.13	9275.54
452.31	9467.47
452.49	9350.44
452.68	9596.20
452.86	9621.94
453.05	9678.12
453.23	9628.96
453.42	9547.05
453.60	9556.41
453.78	9603.22
453.97	9540.02
454.15	9638.33
454.34	9591.52
454.52	9956.64
454.70	9944.94
454.89	9949.62
455.07	9881.74
455.26	10083.03
455.44	10073.67
455.62	10012.81
455.81	10148.56
455.99	10129.84
456.17	9994.09
456.36	10122.82
456.54	10291.34
456.73	10326.44
456.91	10565.18
457.09	10445.81
457.28	10757.10
457.46	10361.55
457.64	10462.19
457.83	10817.96
458.01	10562.84
458.19	10937.32
458.38	10665.82
458.56	10785.19
458.74	10918.60
458.93	10864.77
459.11	10867.11
459.29	10803.91
459.48	10775.83
459.66	10958.39
459.84	10867.11
460.03	11342.24
460.21	11033.29
460.39	11049.67
460.57	10979.45
460.76	11166.70
460.94	11412.45
461.12	11302.45
461.31	11316.49
461.49	11311.81
461.67	11220.53
461.85	11602.04
462.04	11417.13
462.22	11543.52
462.40	11805.66
462.59	11466.28
462.77	11681.61
462.95	11562.25
463.13	11655.87
463.32	11733.11
463.50	11599.70
463.68	11861.84
463.86	12077.16
464.05	11925.03
464.23	11852.47
464.41	12028.01
464.59	11871.20
464.78	12346.33
464.96	12102.91
465.14	11793.96
465.32	12063.12
465.50	12301.86
465.69	12259.73
465.87	12098.23
466.05	12245.68
466.23	12585.06
466.41	12512.50
466.60	12496.12
466.78	12453.99
466.96	12238.66
467.14	12493.78
467.32	12386.12
467.51	12676.34
467.69	12266.75
467.87	12592.08
468.05	12765.28
468.23	12428.24
468.41	12521.87
468.60	12877.63
468.78	13020.40
468.96	12458.67
469.14	12823.80
469.32	13006.36
469.50	12826.14
469.69	13195.94
469.87	13319.99
470.05	13188.92
470.23	13287.22
470.41	13364.46
470.59	13406.59
470.77	13245.09
470.95	13369.14
471.14	13429.99
471.32	13085.94
471.50	13933.21
471.68	13696.82
471.86	13818.52
472.04	13844.27
472.22	14490.26
472.40	13888.74
472.58	13813.84
472.77	14270.25
472.95	14277.27
473.13	14712.61
473.31	14413.02
473.49	14295.99
473.67	14363.87
473.85	14342.80
474.03	14977.09
474.21	14771.12
474.39	14853.04
474.57	14820.27
474.75	15077.73
474.93	14923.26
475.12	15438.17
475.30	15407.75
475.48	14904.53
475.66	15421.79
475.84	15077.73
476.02	15580.95
476.20	15597.33
476.38	15791.59
476.56	16023.31
476.74	16313.53
476.92	15995.22
477.10	16119.27
477.28	16355.66
477.46	16676.32
477.64	16343.96
477.82	16819.09
478.00	17186.55
478.18	17074.21
478.36	16968.88
478.54	17348.05
478.72	17500.19
478.90	17486.14
479.08	17612.53
479.26	17708.49
479.44	17783.39
479.62	18295.97
479.80	18090.00
479.98	18244.48
480.16	18621.30
480.34	18574.49
480.52	18733.65
480.70	18956.00
480.88	18878.76
481.06	19000.47
481.24	19040.26
481.41	19124.52
481.59	19447.51
481.77	19714.33
481.95	19707.31
482.13	19939.02
482.31	19887.53
482.49	20451.60
482.67	20629.48
482.85	20367.34
483.03	20952.48
483.21	21008.65
483.39	21376.11
483.57	21156.10
483.74	21207.59
483.92	21589.10
484.10	21301.22
484.28	22389.56
484.46	22160.19
484.64	22410.63
484.82	22366.16
485.00	22719.58
485.18	23129.17
485.35	22939.59
485.53	23063.64
485.71	23255.56
485.89	23693.24
486.07	23625.37
486.25	23498.98
486.43	23751.76
486.61	24252.63
486.78	24634.14
486.96	24353.27
487.14	24847.13
487.32	25055.43
487.50	25345.66
487.68	25589.08
487.85	25563.33
488.03	25649.93
488.21	26225.70
488.39	26333.37
488.57	26316.98
488.75	26574.44
488.92	26895.10
489.10	27077.66
489.28	27281.28
489.46	27297.67
489.64	27377.25
489.81	28161.33
489.99	27821.95
490.17	28315.80
490.35	28217.50
490.53	28540.49
490.70	28589.64
490.88	28849.44
491.06	29343.30
491.24	28973.49
491.41	29446.28
491.59	29762.25
491.77	29624.16
491.95	30057.16
492.13	30300.58
492.30	30635.27
492.48	30363.77
492.66	30408.24
492.84	30883.37
493.01	31129.12
493.19	30827.20
493.37	31344.45
493.54	31501.27
493.72	32079.38
493.90	32128.53
494.08	32290.03
494.25	32425.78
494.43	32444.51
494.61	32591.96
494.79	33156.03
494.96	32809.63
495.14	33088.15
495.32	33741.16
495.49	33308.16
495.67	33729.46
495.85	33809.04
496.02	34164.80
496.20	34251.40
496.38	34864.62
496.55	34281.83
496.73	35192.30
496.91	35201.66
497.09	35372.52
497.26	35365.49
497.44	35344.43
497.62	35742.32
497.79	35878.07
497.97	35693.17
498.14	36636.41
498.32	36582.57
498.50	36786.20
498.67	37352.61
498.85	36811.95
499.03	37226.22
499.20	37064.72
499.38	37109.19
499.56	37581.98
499.73	37715.39
499.91	37942.42
500.08	37841.78
500.26	37832.42
500.44	38171.80
500.61	38513.52
500.79	38298.19
500.97	38911.41
501.14	39159.50
501.32	39084.61
501.49	38918.43
501.67	39171.21
501.84	39199.29
502.02	39119.71
502.20	39220.36
502.37	39770.38
502.55	39842.94
502.72	40201.04
502.90	40217.43
503.07	40142.53
503.25	40041.88
503.43	40573.19
503.60	40701.92
503.78	40872.78
503.95	40692.55
504.13	40744.05
504.30	41280.03
504.48	41081.08
504.65	40746.39
504.83	41294.07
505.01	41624.09
505.18	41848.78
505.36	41902.61
505.53	41841.76
505.71	42480.72
505.88	42419.87
506.06	42033.68
506.23	42536.90
506.41	42326.25
506.58	42483.06
506.76	42721.80
506.93	42880.95
507.11	42960.53
507.28	43129.05
507.46	43288.21
507.63	43388.85
507.81	43803.13
507.98	43342.04
508.16	43821.85
508.33	44451.45
508.50	43887.39
508.68	44474.86
508.85	44521.67
509.03	44217.40
509.20	44245.49
509.38	44823.60
509.55	44856.37
509.73	45125.53
509.90	45294.05
510.08	45406.39
510.25	44861.05
510.42	44973.39
510.60	45443.84
510.77	45701.30
510.95	46024.29
511.12	45230.85
511.30	45780.88
511.47	46094.51
511.64	45820.67
511.82	46288.77
511.99	46244.30
512.17	46333.24
512.34	46733.48
512.51	46988.60
512.69	46932.42
512.86	46677.30
513.04	47014.34
513.21	47110.30
513.38	47246.05
513.56	47721.18
513.73	47215.63
513.90	47040.09
514.08	47501.17
514.25	48046.52
514.43	48072.26
514.60	48079.28
514.77	47707.14
514.95	48381.21
515.12	48158.86
515.29	48179.93
515.47	48521.65
515.64	48823.58
515.81	48402.28
515.99	48629.31
516.16	48996.77
516.33	48846.98
516.51	49169.97
516.68	48938.26
516.85	49209.76
517.03	49364.24
517.20	49272.96
517.37	49357.22
517.54	49214.44
517.72	49607.65
517.89	49263.60
518.06	50017.25
518.24	49542.12
518.41	49717.66
518.58	50129.59
518.75	49624.04
518.93	49954.05
519.10	49935.33
519.27	50419.82
519.45	50157.68
519.62	50349.60
519.79	50431.52
519.96	50614.08
520.14	50986.23
520.31	50347.26
520.48	50487.70
520.65	50908.99
520.83	51224.96
521.00	51058.79
521.17	51040.06
521.34	51037.72
521.52	51283.48
521.69	50965.17
521.86	51206.24
522.03	51814.78
522.20	51468.38
522.38	52034.79
522.55	51749.24
522.72	51622.86
522.89	51976.28
523.07	51739.88
523.24	51826.48
523.41	52121.39
523.58	51550.30
523.75	52411.62
523.92	51831.16
524.10	52437.36
524.27	52046.49
524.44	52577.79
524.61	52498.22
524.78	52760.36
524.96	52648.01
525.13	52830.57
525.30	52809.51
525.47	53123.14
525.64	52893.77
525.81	53090.37
525.98	53148.88
526.16	53095.05
526.33	53118.46
526.50	53326.77
526.67	53198.04
526.84	53322.08
527.01	53338.47
527.18	52921.85
527.36	53275.27
527.53	53371.24
527.70	53886.15
527.87	53890.83
528.04	53495.28
528.21	53656.78
528.38	53949.35
528.55	54239.57
528.72	53820.62
528.89	54087.44
529.07	53794.87
529.24	53719.98
529.41	54225.53
529.58	53975.09
529.75	53853.39
529.92	54068.72
530.09	54363.62
530.26	54281.70
530.43	54464.27
530.60	53993.82
530.77	54422.14
530.94	54541.50
531.11	54468.95
531.28	54773.22
531.46	54298.09
531.63	54721.72
531.80	54583.63
531.97	55068.12
532.14	54852.80
532.31	54901.95
532.48	54686.62
532.65	55161.75
532.82	55203.88
532.99	54848.11
533.16	54850.45
533.33	55030.68
533.50	55075.15
533.67	55304.52
533.84	54944.08
534.01	55391.12
534.18	55370.05
534.35	55690.71
534.52	55281.11
534.69	55327.92
534.86	55496.44
535.03	55526.87
535.20	55447.29
535.37	55402.82
535.54	55849.86
535.71	55444.95
535.88	55627.51
536.05	55643.90
536.22	55987.95
536.38	56095.62
536.55	55861.57
536.72	56112.00
536.89	55934.12
537.06	56044.13
537.23	56374.14
537.40	56023.06
537.57	55812.41
537.74	56161.15
537.91	56214.99
538.08	56177.54
538.25	55845.18
538.42	56313.29
538.59	56477.13
538.75	56214.99
538.92	56112.00
539.09	56566.07
539.26	56435.00
539.43	56762.67
539.60	56423.29
539.77	56458.40
539.94	56844.59
540.11	56622.24
540.28	56727.56
540.44	56757.99
540.61	56774.37
540.78	56640.96
540.95	56743.95
541.12	56664.37
541.29	56453.72
541.46	57015.45
541.62	57066.94
541.79	56865.66
541.96	56814.16
542.13	56800.12
542.30	57045.88
542.47	57055.24
542.63	57240.14
542.80	57132.48
542.97	57315.04
543.14	57523.35
543.31	57385.25
543.48	57359.51
543.64	57652.08
543.81	57375.89
543.98	57631.01
544.15	57689.52
544.32	57757.40
544.48	57942.30
544.65	57654.42
544.82	57680.16
544.99	57626.33
545.16	57790.17
545.32	57715.27
545.49	57928.26
545.66	57946.98
545.83	58000.82
546.00	57911.88
546.16	57773.78
546.33	57954.00
546.50	57834.64
546.67	58124.86
546.83	57787.83
547.00	58106.14
547.17	58122.52
547.34	58136.57
547.50	58408.07
547.67	58394.03
547.84	58213.80
548.00	58555.52
548.17	58337.85
548.34	58405.73
548.51	58480.63
548.67	58417.43
548.84	58473.60
549.01	58527.44
549.18	58599.99
549.34	58415.09
549.51	58527.44
549.68	58513.39
549.84	58548.50
550.01	58702.98
550.18	58625.74
550.34	58705.32
550.51	58852.77
550.68	58852.77
550.84	58454.88
551.01	59014.27
551.18	58857.45
551.34	58815.32
551.51	58850.43
551.68	58784.90
551.84	58820.00
552.01	58768.51
552.18	59009.59
552.34	58918.31
552.51	59157.04
552.68	59023.63
552.84	59035.33
553.01	59405.14
553.18	59049.38
553.34	59131.29
553.51	59028.31
553.67	59208.53
553.84	59037.67
554.01	59077.46
554.17	59114.91
554.34	59367.69
554.51	59384.07
554.67	59412.16
554.84	59257.68
555.00	59189.81
555.17	59363.01
555.33	59547.91
555.50	59454.29
555.67	59435.56
555.83	59344.28
556.00	59227.26
556.16	59763.24
556.33	59377.05
556.50	59693.02
556.66	59604.08
556.83	59491.74
556.99	59671.96
557.16	59777.28
557.32	59611.10
557.49	59962.18
557.65	59524.50
557.82	59657.91
557.98	59615.79
558.15	59678.98
558.32	59866.22
558.48	59564.29
558.65	59657.91
558.81	59938.78
558.98	59730.47
559.14	59976.23
559.31	59798.35
559.47	59938.78
559.64	60053.47
559.80	60067.51
559.97	59952.82
560.13	60114.32
560.30	60069.85
560.46	60104.96
560.63	60104.96
560.79	60137.72
560.96	60135.38
561.12	60175.17
561.29	60102.62
561.45	60210.28
561.61	60060.49
561.78	60142.41
561.94	60140.07
562.11	60016.02
562.27	60205.60
562.44	60032.40
562.60	60348.37
562.77	60285.18
562.93	60182.19
563.10	60207.94
563.26	60294.54
563.42	60509.87
563.59	60449.02
563.75	60411.57
563.92	60484.12
564.08	60310.92
564.24	60486.46
564.41	60420.93
564.57	60430.29
564.74	60439.65
564.90	60339.01
565.07	60238.37
565.23	60320.29
565.39	60477.10
565.56	60425.61
565.72	60310.92
565.88	60575.40
566.05	60217.30
566.21	60523.91
566.38	60481.78
566.54	60652.64
566.70	60552.00
566.87	60535.62
567.03	60500.51
567.19	60640.94
567.36	60477.10
567.52	60535.62
567.68	60715.84
567.85	60495.83
568.01	60851.59
568.17	60699.45
568.34	60552.00
568.50	60750.94
568.66	60643.28
568.83	60729.88
568.99	60701.79
569.15	60666.69
569.32	60809.46
569.48	60666.69
569.64	60774.35
569.81	60575.40
569.97	60458.38
570.13	60727.54
570.30	60692.43
570.46	60816.48
570.62	60818.82
570.78	60830.52
570.95	60956.91
571.11	60912.44
571.27	60779.03
571.43	60933.51
571.60	61080.96
571.76	60790.73
571.92	61045.85
572.09	60926.49
572.25	60975.64
572.41	60753.29
572.57	60624.56
572.74	61027.13
572.90	60865.63
573.06	60956.91
573.22	60781.37
573.38	60999.04
573.55	60884.36
573.71	61076.28
573.87	61071.60
574.03	60788.39
574.20	61095.00
574.36	61073.94
574.52	61013.08
574.68	60956.91
574.84	61216.71
575.01	61055.21
575.17	60933.51
575.33	61064.58
575.49	60809.46
575.65	60980.32
575.82	61071.60
575.98	60912.44
576.14	61247.14
576.30	61165.22
576.46	60940.53
576.62	61036.49
576.79	61099.68
576.95	60919.46
577.11	61132.45
577.27	61120.75
577.43	61132.45
577.59	60853.93
577.75	61174.58
577.92	61050.53
578.08	61038.83
578.24	61010.74
578.40	61085.64
578.56	61118.41
578.72	61078.62
578.88	61134.79
579.04	61256.50
579.21	61160.54
579.37	61265.86
579.53	61312.67
579.69	60933.51
579.85	60961.59
580.01	61322.04
580.17	61130.11
580.33	61427.36
580.49	61329.06
580.65	60996.70
580.82	61062.24
580.98	61031.81
581.14	61102.03
581.30	61359.48
581.46	61293.95
581.62	61293.95
581.78	61104.37
581.94	61162.88
582.10	61036.49
582.26	61296.29
582.42	61134.79
582.58	61279.91
582.74	61069.26
582.90	61146.50
583.06	61097.34
583.22	61034.15
583.38	61394.59
583.54	61268.20
583.70	61373.53
583.86	61375.87
584.02	61127.77
584.18	61258.84
584.34	61193.31
584.50	61125.43
584.66	61020.11
584.82	61078.62
584.98	61312.67
585.14	61347.78
585.30	61254.16
585.46	61223.73
585.62	61336.08
585.78	61410.98
585.94	61307.99
586.10	61127.77
586.26	61284.59
586.42	61528.00
586.58	61441.40
586.74	61429.70
586.90	61277.57
587.06	61223.73
587.22	61336.08
587.38	61502.26
587.54	61488.21
587.70	61352.46
587.86	61289.27
588.02	61403.95
588.18	61331.40
588.34	61415.66
588.49	61240.12
