SpectraSuite Data File
++++++++++++++++++++++++++++++++++++
Date: Fri Oct 25 10:47:55 EDT 2013
User: price-jones
Dark Spectrum Present: No
Reference Spectrum Present: No
Number of Sampled Component Spectra: 1
Spectrometers: USB2+H05261
Integration Time (usec): 100000 (USB2+H05261)
Spectra Averaged: 1 (USB2+H05261)
Boxcar Smoothing: 0 (USB2+H05261)
Correct for Electrical Dark: No (USB2+H05261)
Strobe/Lamp Enabled: No (USB2+H05261)
Correct for Detector Non-linearity: No (USB2+H05261)
Correct for Stray Light: No (USB2+H05261)
Number of Pixels in Processed Spectrum: 2048
>>>>>Begin Processed Spectral Data<<<<<
365.73	119.37
365.92	119.37
366.12	119.37
366.32	49.15
366.52	63.19
366.72	21.06
366.91	70.22
367.11	91.28
367.31	72.56
367.51	91.28
367.70	88.94
367.90	53.83
368.10	98.30
368.30	0.00
368.49	21.06
368.69	121.71
368.89	42.13
369.09	77.24
369.28	67.88
369.48	28.09
369.68	77.24
369.87	107.66
370.07	93.62
370.27	95.96
370.47	198.95
370.66	393.21
370.86	423.64
371.06	411.93
371.25	484.49
371.45	461.09
371.65	454.06
371.84	407.25
372.04	451.72
372.24	430.66
372.44	545.34
372.63	512.58
372.83	500.87
373.03	442.36
373.22	430.66
373.42	517.26
373.62	580.45
373.81	500.87
374.01	564.07
374.21	603.86
374.40	540.66
374.60	575.77
374.79	587.47
374.99	606.20
375.19	533.64
375.38	566.41
375.58	592.16
375.78	571.09
375.97	557.05
376.17	475.13
376.37	543.00
376.56	657.69
376.76	596.84
376.95	589.82
377.15	638.97
377.35	603.86
377.54	594.50
377.74	610.88
377.93	589.82
378.13	585.13
378.33	660.03
378.52	596.84
378.72	690.46
378.91	648.33
379.11	650.67
379.31	636.63
379.50	613.22
379.70	748.97
379.89	730.25
380.09	615.56
380.28	533.64
380.48	671.73
380.68	678.76
380.87	739.61
381.07	678.76
381.26	711.52
381.46	650.67
381.65	657.69
381.85	739.61
382.04	713.86
382.24	648.33
382.43	657.69
382.63	748.97
382.83	685.78
383.02	734.93
383.22	706.84
383.41	650.67
383.61	688.12
383.80	655.35
384.00	629.60
384.19	713.86
384.39	734.93
384.58	819.19
384.78	678.76
384.97	741.95
385.17	788.76
385.36	744.29
385.56	788.76
385.75	805.14
385.95	840.25
386.14	781.74
386.34	805.14
386.53	866.00
386.72	741.95
386.92	837.91
387.11	812.17
387.31	889.40
387.50	763.01
387.70	777.06
387.89	809.83
388.09	830.89
388.28	868.34
388.48	903.45
388.67	940.90
388.86	887.06
389.06	922.17
389.25	990.05
389.45	887.06
389.64	854.30
389.84	910.47
390.03	809.83
390.22	994.73
390.42	961.96
390.61	894.08
390.81	901.11
391.00	1027.50
391.19	903.45
391.39	903.45
391.58	1001.75
391.78	1022.81
391.97	950.26
392.16	924.51
392.36	1004.09
392.55	997.07
392.75	931.53
392.94	868.34
393.13	959.62
393.33	905.79
393.52	1053.24
393.71	1046.22
393.91	1050.90
394.10	1020.47
394.29	1001.75
394.49	1078.99
394.68	1100.05
394.88	1041.54
395.07	1160.91
395.26	1132.82
395.46	1149.20
395.65	1132.82
395.84	1074.31
396.04	1156.22
396.23	1142.18
396.42	1156.22
396.62	1203.04
396.81	1130.48
397.00	1205.38
397.19	1132.82
397.39	1179.63
397.58	1249.85
397.77	1259.21
397.97	1245.16
398.16	1205.38
398.35	1383.26
398.55	1324.74
398.74	1289.64
398.93	1263.89
399.12	1427.73
399.32	1310.70
399.51	1378.58
399.70	1320.06
399.90	1315.38
400.09	1411.34
400.28	1481.56
400.47	1394.96
400.67	1376.24
400.86	1502.62
401.05	1474.54
401.24	1446.45
401.44	1481.56
401.63	1437.09
401.82	1458.15
402.01	1444.11
402.21	1593.90
402.40	1549.43
402.59	1479.22
402.78	1502.62
402.97	1537.73
403.17	1640.72
403.36	1551.78
403.55	1549.43
403.74	1645.40
403.93	1652.42
404.13	1750.72
404.32	1664.12
404.51	1668.80
404.70	1689.87
404.89	1589.22
405.09	1785.83
405.28	1624.33
405.47	1668.80
405.66	1727.32
405.85	1750.72
406.05	1823.28
406.24	1689.87
406.43	1813.92
406.62	1795.19
406.81	1874.77
407.00	1778.81
407.20	1900.52
407.39	1860.73
407.58	1930.94
407.77	1923.92
407.96	1980.09
408.15	1937.96
408.34	1914.56
408.54	1989.46
408.73	2059.67
408.92	1949.67
409.11	2050.31
409.30	1996.48
409.49	1970.73
409.68	2024.56
409.87	2029.24
410.07	2038.61
410.26	2022.22
410.45	2076.06
410.64	2176.70
410.83	2188.40
411.02	2230.53
411.21	2209.47
411.40	2225.85
411.59	2317.13
411.78	2232.87
411.98	2195.42
412.17	2228.19
412.36	2389.69
412.55	2340.54
412.74	2466.92
412.93	2413.09
413.12	2450.54
413.31	2492.67
413.50	2469.27
413.69	2485.65
413.88	2448.20
414.07	2473.95
414.26	2518.42
414.45	2651.83
414.64	2605.02
414.83	2691.62
415.02	2665.87
415.22	2874.18
415.41	2899.92
415.60	2813.32
415.79	2808.64
415.98	2881.20
416.17	2892.90
416.36	2974.82
416.55	2909.29
416.74	2958.44
416.93	2902.26
417.12	2972.48
417.31	3023.97
417.50	2972.48
417.69	3019.29
417.88	3122.27
418.07	3176.11
418.26	3047.38
418.45	3077.80
418.64	3194.83
418.83	3005.25
419.02	3138.66
419.21	3197.17
419.39	3131.64
419.58	3218.24
419.77	3087.17
419.96	3246.32
420.15	3321.22
420.34	3295.47
420.53	3269.73
420.72	3410.16
420.91	3255.69
421.10	3353.99
421.29	3295.47
421.48	3349.31
421.67	3435.91
421.86	3274.41
422.05	3361.01
422.24	3384.41
422.43	3372.71
422.61	3414.84
422.80	3365.69
422.99	3508.46
423.18	3583.36
423.37	3555.27
423.56	3454.63
423.75	3513.14
423.94	3552.93
424.13	3302.50
424.32	3358.67
424.50	3616.13
424.69	3655.92
424.88	3592.72
425.07	3442.93
425.26	3414.84
425.45	3473.36
425.64	3541.23
425.83	3541.23
426.01	3606.77
426.20	3604.42
426.39	3609.11
426.58	3620.81
426.77	3557.61
426.96	3637.19
427.15	3574.00
427.33	3646.55
427.52	3684.00
427.71	3590.38
427.90	3637.19
428.09	3768.26
428.28	3822.09
428.46	3819.75
428.65	3836.14
428.84	3754.22
429.03	3913.38
429.22	3637.19
429.40	3824.44
429.59	3761.24
429.78	3681.66
429.97	3597.40
430.16	3765.92
430.34	3920.40
430.53	3854.86
430.72	3887.63
430.91	3964.87
431.10	3819.75
431.28	4112.32
431.47	4114.66
431.66	4072.53
431.85	4128.70
432.03	4149.77
432.22	4266.80
432.41	4081.89
432.60	4084.23
432.79	4273.82
432.97	4301.90
433.16	4294.88
433.35	4173.18
433.54	4224.67
433.72	4311.27
433.91	4320.63
434.10	4365.10
434.28	4362.76
434.47	4355.74
434.66	4535.96
434.85	4514.89
435.03	4374.46
435.22	4418.93
435.41	4521.92
435.59	4533.62
435.78	4655.33
435.97	4636.60
436.16	4613.20
436.34	4638.94
436.53	4685.75
436.72	4629.58
436.90	4720.86
437.09	4582.77
437.28	4510.21
437.46	4571.07
437.65	4678.73
437.84	4664.69
438.02	4755.97
438.21	4734.90
438.40	4667.03
438.58	4870.65
438.77	4938.53
438.96	4748.95
439.14	4905.76
439.33	5069.60
439.52	5032.15
439.70	5111.73
439.89	5097.69
440.08	5200.67
440.26	5263.86
440.45	5224.08
440.63	5296.63
440.82	5392.59
441.01	5308.34
441.19	5476.85
441.38	5378.55
441.57	5554.09
441.75	5568.13
441.94	5715.59
442.12	5657.07
442.31	5720.27
442.50	5668.78
442.68	5671.12
442.87	5584.52
443.05	5731.97
443.24	5863.04
443.43	5743.67
443.61	5823.25
443.80	5937.94
443.98	5746.02
444.17	5598.56
444.35	5825.59
444.54	6054.97
444.73	5912.19
444.91	5921.56
445.10	5823.25
445.28	5863.04
445.47	5664.10
445.65	5650.05
445.84	5980.07
446.02	5921.56
446.21	5851.34
446.39	5856.02
446.58	5820.91
446.77	6026.88
446.95	5790.49
447.14	6029.22
447.32	6019.86
447.51	6099.44
447.69	5933.26
447.88	6061.99
448.06	6073.69
448.25	6029.22
448.43	5935.60
448.62	6071.35
448.80	6052.63
448.99	6092.41
449.17	6064.33
449.36	6101.78
449.54	6216.46
449.73	6441.15
449.91	6335.83
450.10	6441.15
450.28	6485.62
450.46	6466.90
450.65	6328.81
450.83	6436.47
451.02	6368.60
451.20	6567.54
451.39	6265.61
451.57	6478.60
451.76	6574.56
451.94	6499.67
452.13	6698.61
452.31	6480.94
452.49	6310.08
452.68	6485.62
452.86	6483.28
453.05	6555.84
453.23	6623.72
453.42	6492.65
453.60	6483.28
453.78	6768.83
453.97	6424.77
454.15	6654.14
454.34	6703.29
454.52	6843.73
454.70	6759.47
454.89	6876.49
455.07	6810.96
455.26	6916.28
455.44	7028.63
455.62	7005.22
455.81	6981.82
455.99	7068.42
456.17	7014.59
456.36	6991.18
456.54	7089.48
456.73	7075.44
456.91	7337.58
457.09	7246.30
457.28	7346.94
457.46	7222.89
457.64	7449.93
457.83	7178.42
458.01	7176.08
458.19	7431.20
458.38	7302.47
458.56	7389.07
458.74	7351.62
458.93	7412.48
459.11	7576.31
459.29	7576.31
459.48	7360.98
459.66	7552.91
459.84	7524.82
460.03	7812.71
460.21	7620.78
460.39	7660.57
460.57	7695.68
460.76	7644.19
460.94	7758.88
461.12	7707.38
461.31	7754.19
461.49	7709.72
461.67	7941.44
461.85	7971.86
462.04	7733.13
462.22	8461.04
462.40	8074.85
462.59	8018.68
462.77	7896.97
462.95	7999.95
463.13	8018.68
463.32	7899.31
463.50	7976.55
463.68	7990.59
463.86	8173.15
464.05	7988.25
464.23	8105.28
464.41	8241.03
464.59	7943.78
464.78	8400.18
464.96	8271.45
465.14	7971.86
465.32	8393.16
465.50	8491.46
465.69	8292.52
465.87	8210.60
466.05	8203.58
466.23	8093.57
466.41	8273.79
466.60	8678.71
466.78	8222.30
466.96	8442.31
467.14	8493.80
467.32	8533.59
467.51	8664.66
467.69	8365.07
467.87	8652.96
468.05	8643.60
468.23	8510.19
468.41	8615.51
468.60	8685.73
468.78	8643.60
468.96	8638.92
469.14	8690.41
469.32	8697.43
469.50	8526.57
469.69	8856.59
469.87	8919.78
470.05	8823.82
470.23	8985.32
470.41	8973.61
470.59	8910.42
470.77	8971.27
470.95	9149.15
471.14	9256.82
471.32	8929.14
471.50	9270.86
471.68	9275.54
471.86	9472.15
472.04	9432.36
472.22	9525.98
472.40	9303.63
472.58	9514.28
472.77	9610.24
472.95	9591.52
473.13	10005.79
473.31	9706.20
473.49	9448.74
473.67	9547.05
473.85	9769.40
474.03	9841.95
474.21	10017.49
474.39	9820.89
474.57	10113.45
474.75	10052.60
474.93	10181.33
475.12	9984.73
475.30	10160.27
475.48	10399.00
475.66	10319.42
475.84	10368.57
476.02	10415.38
476.20	10478.58
476.38	10644.76
476.56	10869.45
476.74	10878.81
476.92	10738.38
477.10	10590.92
477.28	10944.34
477.46	10850.72
477.64	11187.76
477.82	11293.08
478.00	11569.27
478.18	11508.41
478.36	11517.78
478.54	11623.10
478.72	11644.17
478.90	11700.34
479.08	11920.35
479.26	12060.78
479.44	12046.74
479.62	11927.37
479.80	12035.03
479.98	12311.22
480.16	12458.67
480.34	12374.41
480.52	12664.64
480.70	12718.47
480.88	12376.75
481.06	12659.96
481.24	12669.32
481.41	13029.76
481.59	12961.89
481.77	13193.60
481.95	13039.12
482.13	13207.64
482.31	13167.85
482.49	13657.03
482.67	13551.70
482.85	13802.14
483.03	13919.17
483.21	13951.93
483.39	13998.74
483.57	14115.77
483.74	14122.79
483.92	14195.35
484.10	14071.30
484.28	14576.86
484.46	14817.93
484.64	14780.48
484.82	14588.56
485.00	14747.72
485.18	15190.08
485.35	15096.46
485.53	14588.56
485.71	14974.75
485.89	15335.19
486.07	15112.84
486.25	15372.64
486.43	15644.14
486.61	15578.61
486.78	16081.82
486.96	16030.33
487.14	16135.65
487.32	16453.97
487.50	16381.41
487.68	16673.98
487.85	16898.67
488.03	17062.51
488.21	17043.78
488.39	17462.74
488.57	17216.98
488.75	17296.56
488.92	17853.61
489.10	17572.74
489.28	17727.22
489.46	17839.56
489.64	18047.87
489.81	18258.52
489.99	18490.23
490.17	18607.26
490.35	18834.29
490.53	18616.62
490.70	18785.14
490.88	19023.87
491.06	19325.80
491.24	18953.66
491.41	19215.80
491.59	19293.04
491.77	19183.03
491.95	19550.49
492.13	19695.61
492.30	19733.06
492.48	19868.81
492.66	20020.94
492.84	20053.71
493.01	20222.23
493.19	20107.54
493.37	20400.11
493.54	20517.14
493.72	21043.76
493.90	20732.47
494.08	20826.09
494.25	21369.09
494.43	21165.46
494.61	21350.37
494.79	21689.74
494.96	21572.72
495.14	21591.44
495.32	21586.76
495.49	21724.85
495.67	21963.59
495.85	22122.74
496.02	22115.72
496.20	22562.76
496.38	22345.09
496.55	22375.52
496.73	22843.63
496.91	23136.20
497.09	22979.38
497.26	22979.38
497.44	22953.63
497.62	23073.00
497.79	23440.47
497.97	23035.55
498.14	23831.33
498.32	23498.98
498.50	23576.22
498.67	23929.64
498.85	23833.68
499.03	24269.01
499.20	24229.23
499.38	24049.00
499.56	24311.14
499.73	24486.68
499.91	24496.05
500.08	24961.81
500.26	24657.54
500.44	24805.00
500.61	25076.50
500.79	24676.27
500.97	24823.72
501.14	25273.10
501.32	25277.79
501.49	24898.62
501.67	24826.06
501.84	25378.43
502.02	25495.46
502.20	25645.25
502.37	25823.13
502.55	25907.39
502.72	25855.90
502.90	26181.23
503.07	25876.96
503.25	26071.23
503.43	25778.66
503.60	26361.45
503.78	26190.59
503.95	26092.29
504.13	26574.44
504.30	26515.93
504.48	26431.67
504.65	26958.29
504.83	26625.93
505.01	27047.23
505.18	26969.99
505.36	27236.81
505.53	27131.49
505.71	27379.59
505.88	27604.28
506.06	27220.43
506.23	27665.13
506.41	27353.84
506.58	27339.80
506.76	27686.20
506.93	28194.09
507.11	27997.49
507.28	28247.93
507.46	28247.93
507.63	28046.64
507.81	28411.76
507.98	27821.95
508.16	28369.63
508.33	28329.84
508.50	28219.84
508.68	28936.04
508.85	29020.30
509.03	28624.75
509.20	29116.26
509.38	29062.43
509.55	29404.15
509.73	29191.16
509.90	29415.85
510.08	29170.10
510.25	29333.93
510.42	29432.24
510.60	29322.23
510.77	29509.47
510.95	29954.18
511.12	29481.39
511.30	29865.24
511.47	30232.70
511.64	29923.75
511.82	30064.18
511.99	30101.63
512.17	30277.17
512.34	30197.59
512.51	30242.06
512.69	30616.55
512.86	30314.62
513.04	30806.13
513.21	30373.13
513.38	30679.74
513.56	30352.07
513.73	30600.16
513.90	30920.82
514.08	30944.22
514.25	30895.07
514.43	31098.70
514.60	31234.45
514.77	30923.16
514.95	31407.65
515.12	31307.01
515.29	31632.34
515.47	31557.44
515.64	31402.97
515.81	31564.46
515.99	31632.34
516.16	31452.12
516.33	31660.43
516.51	32158.96
516.68	31990.44
516.85	31379.56
517.03	31384.24
517.20	31908.52
517.37	32147.26
517.54	32596.64
517.72	32098.11
517.89	32016.19
518.06	31999.80
518.24	32161.30
518.41	32135.56
518.58	32634.09
518.75	32896.23
518.93	32924.32
519.10	32730.05
519.27	32964.10
519.45	33027.30
519.62	32830.69
519.79	32760.48
519.96	33247.31
520.14	33331.57
520.31	33359.66
520.48	33490.73
520.65	33369.02
520.83	33560.94
521.00	33453.28
521.17	33474.34
521.34	33795.00
521.52	33865.21
521.69	33717.76
521.86	34143.74
522.03	33968.19
522.20	34375.45
522.38	33930.75
522.55	34342.68
522.72	34270.12
522.89	33724.78
523.07	34359.06
523.24	34256.08
523.41	34597.80
523.58	34426.94
523.75	34911.43
523.92	34735.89
524.10	35122.08
524.27	35201.66
524.44	35316.34
524.61	35124.42
524.78	35248.47
524.96	35372.52
525.13	35264.85
525.30	35798.49
525.47	35569.12
525.64	35700.19
525.81	35435.71
525.98	35178.25
526.16	35484.86
526.33	35468.48
526.50	35697.85
526.67	35292.94
526.84	35711.89
527.01	35456.78
527.18	35683.81
527.36	35637.00
527.53	36077.02
527.70	36020.84
527.87	36142.55
528.04	36392.99
528.21	36313.41
528.38	36187.02
528.55	36591.94
528.72	36699.60
528.89	36144.89
529.07	36540.44
529.24	36425.76
529.41	36786.20
529.58	36290.01
529.75	36264.26
529.92	36924.29
530.09	36835.35
530.26	37085.79
530.43	37031.96
530.60	36900.89
530.77	36631.72
530.94	37195.79
531.11	36996.85
531.28	36938.33
531.46	37436.87
531.63	37268.35
531.80	37333.89
531.97	37237.92
532.14	37261.33
532.31	37333.89
532.48	37633.47
532.65	37460.27
532.82	37670.92
532.99	37525.81
533.16	37275.37
533.33	37500.06
533.50	37972.85
533.67	38188.18
533.84	37500.06
534.01	37928.38
534.18	37626.45
534.35	38108.60
534.52	38410.53
534.69	37935.40
534.86	38483.09
535.03	37933.06
535.20	38555.64
535.37	38658.63
535.54	38192.86
535.71	38356.70
535.88	38071.15
536.05	38396.49
536.22	38148.39
536.38	38284.14
536.55	38892.68
536.72	38401.17
536.89	38218.61
537.06	38742.89
537.23	38529.90
537.40	38675.01
537.57	39168.87
537.74	38707.78
537.91	39138.44
538.08	38925.45
538.25	38480.75
538.42	39239.08
538.59	39269.51
538.75	39086.95
538.92	39236.74
539.09	39089.29
539.26	39168.87
539.43	39187.59
539.60	39533.99
539.77	39498.88
539.94	38937.15
540.11	38923.11
540.28	39761.02
540.44	39433.35
540.61	39440.37
540.78	39351.43
540.95	39470.79
541.12	39571.44
541.29	39414.62
541.46	39597.18
541.62	39468.45
541.79	39974.01
541.96	39313.98
542.13	39920.18
542.30	40109.76
542.47	40287.64
542.63	39999.76
542.80	40278.28
542.97	40369.56
543.14	40877.46
543.31	40456.16
543.48	40851.71
543.64	40966.40
543.81	40566.16
543.98	40261.90
544.15	40596.59
544.32	40889.16
544.48	41120.87
544.65	40713.62
544.82	40814.26
544.99	40336.79
545.16	40999.16
545.32	40659.79
545.49	41434.50
545.66	41598.34
545.83	41361.95
546.00	41600.68
546.16	41177.04
546.33	41228.54
546.50	40790.86
546.67	40985.12
546.83	41085.76
547.00	41233.22
547.17	41069.38
547.34	40664.47
547.50	41904.95
547.67	41696.64
547.84	41415.78
548.00	41436.84
548.17	41610.04
548.34	41668.56
548.51	41652.17
548.67	41958.78
548.84	41881.55
549.01	41738.77
549.18	41752.82
549.34	41708.35
549.51	42038.36
549.68	42031.34
549.84	42192.84
550.01	42396.46
550.18	41677.92
550.34	42223.26
550.51	41907.29
550.68	42031.34
550.84	41244.92
551.01	41935.38
551.18	41694.30
551.34	41982.19
551.51	42225.60
551.68	42429.23
551.84	42234.97
552.01	42298.16
552.18	42560.30
552.34	42188.16
552.51	42658.60
552.68	42344.97
552.84	42703.07
553.01	42920.74
553.18	42405.83
553.34	42740.52
553.51	42101.56
553.67	42651.58
553.84	42646.90
554.01	43023.73
554.17	43398.21
554.34	42623.50
554.51	42574.34
554.67	43051.81
554.84	42644.56
555.00	42518.17
555.17	42513.49
555.33	42953.51
555.50	42808.40
555.67	42885.64
555.83	43306.93
556.00	43161.82
556.16	43508.22
556.33	43323.32
556.50	42920.74
556.66	43047.13
556.83	43311.61
556.99	43372.47
557.16	43489.49
557.32	43288.21
557.49	43126.71
557.65	42766.27
557.82	43159.48
557.98	43173.52
558.15	43248.42
558.32	43498.86
558.48	43019.05
558.65	43236.72
558.81	43295.23
558.98	43021.39
559.14	42937.13
559.31	43655.67
559.47	43669.72
559.64	43866.32
559.80	43452.05
559.97	43695.46
560.13	43515.24
560.30	43648.65
560.46	43828.87
560.63	43571.41
560.79	43662.69
560.96	43489.49
561.12	43519.92
561.29	43978.67
561.45	43611.20
561.61	43674.40
561.78	43681.42
561.94	43484.81
562.11	43367.79
562.27	43753.97
562.44	43679.08
562.60	43983.35
562.77	43842.92
562.93	43594.82
563.10	44009.09
563.26	43880.36
563.42	43840.57
563.59	43964.62
563.75	43744.61
563.92	44154.21
564.08	44177.61
564.24	43856.96
564.41	43889.73
564.57	43840.57
564.74	43950.58
564.90	43945.90
565.07	44252.51
565.23	44074.63
565.39	43646.31
565.56	44264.21
565.72	44280.60
565.88	43971.64
566.05	43952.92
566.21	44229.10
566.38	44093.35
566.54	44065.27
566.70	44568.48
566.87	44744.02
567.03	44385.92
567.19	44395.28
567.36	44081.65
567.52	44121.44
567.68	44264.21
567.85	44259.53
568.01	44044.20
568.17	44041.86
568.34	44374.22
568.50	44203.36
568.66	44201.02
568.83	44271.23
568.99	43910.79
569.15	44170.59
569.32	44172.93
569.48	44109.74
569.64	44238.47
569.81	44304.00
569.97	44147.18
570.13	44636.36
570.30	44205.70
570.46	44053.56
570.62	43838.23
570.78	44252.51
570.95	44037.18
571.11	44479.54
571.27	44163.57
571.43	44191.65
571.60	44598.91
571.76	44514.65
571.92	44554.44
572.09	44439.75
572.25	44304.00
572.41	44264.21
572.57	44343.79
572.74	44961.69
572.90	44671.46
573.06	44320.38
573.22	45036.59
573.38	44603.59
573.55	44758.06
573.71	44268.89
573.87	44797.85
574.03	44561.46
574.20	44371.88
574.36	44381.24
574.52	44748.70
574.68	44861.05
574.84	44439.75
575.01	44734.66
575.17	44514.65
575.33	44409.32
575.49	44877.43
575.65	44271.23
575.82	45090.42
575.98	44680.83
576.14	44940.63
576.30	44776.79
576.46	44428.05
576.62	44619.97
576.79	44280.60
576.95	43798.44
577.11	44732.32
577.27	44928.92
577.43	44889.13
577.59	44224.42
577.75	44357.83
577.92	44706.57
578.08	44584.86
578.24	44156.55
578.40	44430.39
578.56	44493.58
578.72	45029.57
578.88	44832.96
579.04	44615.29
579.21	44610.61
579.37	44418.69
579.53	44362.51
579.69	44626.99
579.85	44554.44
580.01	44617.63
580.17	44680.83
580.33	44362.51
580.49	44659.76
580.65	44657.42
580.82	44905.52
580.98	44741.68
581.14	44336.77
581.30	45006.16
581.46	44409.32
581.62	44858.71
581.78	44722.96
581.94	45270.64
582.10	44634.02
582.26	45425.12
582.42	44931.26
582.58	44729.98
582.74	44575.50
582.90	44697.21
583.06	44603.59
583.22	44959.35
583.38	44582.52
583.54	44746.36
583.70	44692.53
583.86	45043.61
584.02	44240.81
584.18	45067.02
584.34	44786.15
584.50	45043.61
584.66	44779.13
584.82	44821.26
584.98	44765.09
585.14	44751.04
585.30	44748.70
585.46	44481.88
585.62	44362.51
585.78	45106.80
585.94	44112.08
586.10	44659.76
586.26	44685.51
586.42	45071.70
586.58	44790.83
586.74	44739.34
586.90	44758.06
587.06	45064.67
587.22	44793.17
587.38	44568.48
587.54	45099.78
587.70	44671.46
587.86	45034.25
588.02	44793.17
588.18	45408.73
588.34	45188.72
588.49	44491.24
588.65	44526.35
588.81	44844.66
588.97	44626.99
589.13	44545.08
589.29	44732.32
589.45	44704.23
589.61	45010.84
589.77	45008.50
589.93	45034.25
590.08	44982.76
590.24	45148.93
