SpectraSuite Data File
++++++++++++++++++++++++++++++++++++
Date: Fri Oct 25 10:47:12 EDT 2013
User: price-jones
Dark Spectrum Present: No
Reference Spectrum Present: No
Number of Sampled Component Spectra: 1
Spectrometers: USB2+H05261
Integration Time (usec): 100000 (USB2+H05261)
Spectra Averaged: 1 (USB2+H05261)
Boxcar Smoothing: 0 (USB2+H05261)
Correct for Electrical Dark: No (USB2+H05261)
Strobe/Lamp Enabled: No (USB2+H05261)
Correct for Detector Non-linearity: No (USB2+H05261)
Correct for Stray Light: No (USB2+H05261)
Number of Pixels in Processed Spectrum: 2048
>>>>>Begin Processed Spectral Data<<<<<
365.73	175.54
365.92	175.54
366.12	175.54
366.32	25.75
366.52	51.49
366.72	166.18
366.91	0.00
367.11	0.00
367.31	0.00
367.51	4.68
367.70	60.85
367.90	4.68
368.10	4.68
368.30	77.24
368.49	77.24
368.69	77.24
368.89	67.88
369.09	0.00
369.28	56.17
369.48	0.00
369.68	51.49
369.87	86.60
370.07	30.43
370.27	114.69
370.47	128.73
370.66	341.72
370.86	440.02
371.06	400.23
371.25	428.32
371.45	365.12
371.65	500.87
371.84	425.98
372.04	470.45
372.24	528.96
372.44	477.47
372.63	365.12
372.83	538.32
373.03	451.72
373.22	538.32
373.42	533.64
373.62	472.79
373.81	571.09
374.01	500.87
374.21	493.85
374.40	524.28
374.60	561.73
374.79	491.51
374.99	585.13
375.19	552.37
375.38	543.00
375.58	573.43
375.78	568.75
375.97	528.96
376.17	585.13
376.37	526.62
376.56	601.52
376.76	552.37
376.95	561.73
377.15	606.20
377.35	620.24
377.54	645.99
377.74	617.90
377.93	538.32
378.13	557.05
378.33	641.31
378.52	648.33
378.72	643.65
378.91	678.76
379.11	514.92
379.31	599.18
379.50	540.66
379.70	636.63
379.89	589.82
380.09	587.47
380.28	557.05
380.48	627.26
380.68	589.82
380.87	617.90
381.07	573.43
381.26	723.23
381.46	739.61
381.65	648.33
381.85	697.48
382.04	699.82
382.24	697.48
382.43	655.35
382.63	653.01
382.83	690.46
383.02	711.52
383.22	737.27
383.41	657.69
383.61	695.14
383.80	699.82
384.00	692.80
384.19	695.14
384.39	741.95
384.58	676.41
384.78	711.52
384.97	704.50
385.17	781.74
385.36	671.73
385.56	837.91
385.75	725.57
385.95	711.52
386.14	795.78
386.34	692.80
386.53	781.74
386.72	758.33
386.92	812.17
387.11	765.36
387.31	730.25
387.50	812.17
387.70	814.51
387.89	798.12
388.09	856.64
388.28	842.59
388.48	699.82
388.67	856.64
388.86	828.55
389.06	823.87
389.25	861.32
389.45	908.13
389.64	894.08
389.84	950.26
390.03	992.39
390.22	882.38
390.42	809.83
390.61	884.72
390.81	901.11
391.00	968.98
391.19	917.49
391.39	877.70
391.58	983.02
391.78	1050.90
391.97	964.30
392.16	889.40
392.36	1048.56
392.55	870.68
392.75	1041.54
392.94	1001.75
393.13	1029.84
393.33	875.36
393.52	1001.75
393.71	1034.52
393.91	1034.52
394.10	985.37
394.29	1046.22
394.49	1036.86
394.68	990.05
394.88	1006.43
395.07	1121.12
395.26	1174.95
395.46	1071.97
395.65	1153.88
395.84	1137.50
396.04	1095.37
396.23	1172.61
396.42	1095.37
396.62	1165.59
396.81	1132.82
397.00	1093.03
397.19	1179.63
397.39	1184.31
397.58	1181.97
397.77	1177.29
397.97	1301.34
398.16	1282.61
398.35	1219.42
398.55	1327.08
398.74	1259.21
398.93	1322.40
399.12	1310.70
399.32	1306.02
399.51	1270.91
399.70	1334.11
399.90	1315.38
400.09	1371.55
400.28	1366.87
400.47	1371.55
400.67	1423.05
400.86	1336.45
401.05	1371.55
401.24	1397.30
401.44	1535.39
401.63	1373.89
401.82	1446.45
402.01	1504.96
402.21	1526.03
402.40	1526.03
402.59	1490.92
402.78	1586.88
402.97	1441.77
403.17	1519.01
403.36	1472.20
403.55	1511.99
403.74	1572.84
403.93	1596.25
404.13	1547.09
404.32	1607.95
404.51	1572.84
404.70	1631.35
404.89	1575.18
405.09	1706.25
405.28	1579.86
405.47	1650.08
405.66	1666.46
405.85	1713.27
406.05	1638.38
406.24	1708.59
406.43	1851.36
406.62	1764.76
406.81	1834.98
407.00	1720.29
407.20	1799.87
407.39	1778.81
407.58	1984.77
407.77	1820.94
407.96	1870.09
408.15	1893.49
408.34	1921.58
408.54	1851.36
408.73	1895.83
408.92	1959.03
409.11	1944.99
409.30	1980.09
409.49	1914.56
409.68	1930.94
409.87	1989.46
410.07	2069.03
410.26	2064.35
410.45	2022.22
410.64	2047.97
410.83	2080.74
411.02	2094.78
411.21	2143.93
411.40	2218.83
411.59	2263.30
411.78	2242.23
411.98	2303.09
412.17	2303.09
412.36	2209.47
412.55	2356.92
412.74	2270.32
412.93	2422.45
413.12	2265.64
413.31	2441.18
413.50	2443.52
413.69	2413.09
413.88	2548.84
414.07	2478.63
414.26	2626.08
414.45	2504.37
414.64	2443.52
414.83	2520.76
415.02	2745.45
415.22	2677.57
415.41	2708.00
415.60	2796.94
415.79	2686.94
415.98	2654.17
416.17	2827.37
416.36	2717.36
416.55	2789.92
416.74	2799.28
416.93	2813.32
417.12	2848.43
417.31	2731.41
417.50	2916.31
417.69	3021.63
417.88	3075.46
418.07	3038.02
418.26	2986.52
418.45	3108.23
418.64	3162.06
418.83	3131.64
419.02	3148.02
419.21	3033.33
419.39	3178.45
419.58	3056.74
419.77	3246.32
419.96	3133.98
420.15	3173.77
420.34	3262.71
420.53	3260.37
420.72	3255.69
420.91	3286.11
421.10	3274.41
421.29	3442.93
421.48	3251.00
421.67	3302.50
421.86	3407.82
422.05	3346.97
422.24	3300.16
422.43	3370.37
422.61	3346.97
422.80	3449.95
422.99	3478.04
423.18	3283.77
423.37	3503.78
423.56	3447.61
423.75	3452.29
423.94	3361.01
424.13	3213.56
424.32	3342.28
424.50	3550.59
424.69	3426.54
424.88	3393.78
425.07	3510.80
425.26	3424.20
425.45	3412.50
425.64	3424.20
425.83	3426.54
426.01	3492.08
426.20	3599.74
426.39	3456.97
426.58	3447.61
426.77	3487.40
426.96	3574.00
427.15	3379.73
427.33	3548.25
427.52	3515.48
427.71	3508.46
427.90	3466.33
428.09	3730.81
428.28	3695.71
428.46	3735.50
428.65	3712.09
428.84	3702.73
429.03	3831.46
429.22	3501.44
429.40	3756.56
429.59	3744.86
429.78	3468.67
429.97	3662.94
430.16	3634.85
430.34	3665.28
430.53	3712.09
430.72	3911.04
430.91	3904.01
431.10	3838.48
431.28	4028.06
431.47	4021.04
431.66	4044.45
431.85	3953.16
432.03	4091.26
432.22	4023.38
432.41	4037.42
432.60	4105.30
432.79	4163.81
432.97	4189.56
433.16	4004.66
433.35	4133.39
433.54	4236.37
433.72	4074.87
433.91	4203.60
434.10	4156.79
434.28	4255.09
434.47	4147.43
434.66	4320.63
434.85	4271.48
435.03	4299.56
435.22	4402.55
435.41	4493.83
435.59	4372.12
435.78	4671.71
435.97	4444.68
436.16	4521.92
436.34	4451.70
436.53	4463.40
436.72	4575.75
436.90	4425.95
437.09	4592.13
437.28	4517.23
437.46	4603.83
437.65	4585.11
437.84	4652.98
438.02	4557.02
438.21	4594.47
438.40	4669.37
438.58	4739.58
438.77	4650.64
438.96	4627.24
439.14	4772.35
439.33	4971.30
439.52	5022.79
439.70	5008.75
439.89	4917.47
440.08	5165.56
440.26	5013.43
440.45	4926.83
440.63	5186.63
440.82	5160.88
441.01	5090.67
441.19	5015.77
441.38	5252.16
441.57	5224.08
441.75	5366.85
441.94	5458.13
442.12	5439.40
442.31	5558.77
442.50	5579.84
442.68	5430.04
442.87	5591.54
443.05	5558.77
443.24	5638.35
443.43	5577.50
443.61	5696.86
443.80	5661.76
443.98	5699.20
444.17	5441.75
444.35	5556.43
444.54	5783.46
444.73	5802.19
444.91	5502.60
445.10	5416.00
445.28	5741.33
445.47	5643.03
445.65	5638.35
445.84	5722.61
446.02	5778.78
446.21	5783.46
446.39	5710.91
446.58	5825.59
446.77	5816.23
446.95	5558.77
447.14	5811.55
447.32	5830.27
447.51	5863.04
447.69	5785.80
447.88	5921.56
448.06	5715.59
448.25	5991.77
448.43	5736.65
448.62	5872.40
448.80	5881.77
448.99	5856.02
449.17	6052.63
449.36	5966.03
449.54	6064.33
449.73	6160.29
449.91	6258.59
450.10	6186.04
450.28	6214.12
450.46	6148.59
450.65	6193.06
450.83	6225.82
451.02	6321.79
451.20	6422.43
451.39	6307.74
451.57	6054.97
451.76	6293.70
451.94	6335.83
452.13	6352.21
452.31	6200.08
452.49	6413.07
452.68	6403.71
452.86	6216.46
453.05	6452.86
453.23	6373.28
453.42	6466.90
453.60	6363.92
453.78	6548.82
453.97	6155.61
454.15	6349.87
454.34	6494.99
454.52	6593.29
454.70	6539.46
454.89	6689.25
455.07	6813.30
455.26	6677.55
455.44	6923.30
455.62	6705.63
455.81	6785.21
455.99	6937.35
456.17	6530.09
456.36	6792.23
456.54	7059.06
456.73	6876.49
456.91	7218.21
457.09	7187.79
457.28	7227.57
457.46	7000.54
457.64	7166.72
457.83	7145.66
458.01	6920.96
458.19	7140.97
458.38	7178.42
458.56	7143.32
458.74	7208.85
458.93	7164.38
459.11	7169.06
459.29	7199.49
459.48	7478.01
459.66	7396.09
459.84	7496.74
460.03	7389.07
460.21	7267.36
460.39	7358.64
460.57	7463.97
460.76	7461.63
460.94	7602.06
461.12	7606.74
461.31	7768.24
461.49	7749.51
461.67	7449.93
461.85	7878.24
462.04	7524.82
462.22	8138.04
462.40	7805.69
462.59	7747.17
462.77	7618.44
462.95	8002.29
463.13	7801.01
463.32	7960.16
463.50	7908.67
463.68	7831.43
463.86	7971.86
464.05	7768.24
464.23	7985.91
464.41	7864.20
464.59	7934.42
464.78	8060.80
464.96	8023.36
465.14	7988.25
465.32	7992.93
465.50	7997.61
465.69	8170.81
465.87	7953.14
466.05	8124.00
466.23	8222.30
466.41	8217.62
466.60	8257.41
466.78	8145.06
466.96	8161.45
467.14	8334.65
467.32	8444.65
467.51	8336.99
467.69	7899.31
467.87	8180.17
468.05	8568.70
468.23	8159.11
468.41	8229.32
468.60	8372.10
468.78	8477.42
468.96	8388.48
469.14	8400.18
469.32	8671.68
469.50	8411.89
469.69	8659.98
469.87	8835.52
470.05	8669.34
470.23	8713.81
470.41	8777.01
470.59	9006.38
470.77	8683.39
470.95	8910.42
471.14	8975.95
471.32	8671.68
471.50	9142.13
471.68	8912.76
471.86	9214.69
472.04	9153.84
472.22	9366.82
472.40	8877.65
472.58	9301.29
472.77	9268.52
472.95	9554.07
473.13	9451.08
473.31	9376.19
473.49	9312.99
473.67	9329.38
473.85	9657.05
474.03	9811.53
474.21	9898.13
474.39	9706.20
474.57	9643.01
474.75	9806.84
474.93	9745.99
475.12	10003.45
475.30	10078.35
475.48	10078.35
475.66	10157.92
475.84	10106.43
476.02	10260.91
476.20	10122.82
476.38	10349.85
476.56	10396.66
476.74	10394.32
476.92	10455.17
477.10	10504.32
477.28	10630.71
477.46	10588.58
477.64	10773.49
477.82	10803.91
478.00	11070.73
478.18	10939.66
478.36	11201.80
478.54	11112.86
478.72	11243.93
478.90	11279.04
479.08	11735.45
479.26	11630.12
479.44	11613.74
479.62	11597.35
479.80	11758.85
479.98	11896.94
480.16	12219.94
480.34	11967.16
480.52	12386.12
480.70	12168.45
480.88	12264.41
481.06	12201.21
481.24	12465.69
481.41	12627.19
481.59	12641.23
481.77	12933.80
481.95	12898.69
482.13	12924.44
482.31	13025.08
482.49	13099.98
482.67	13294.24
482.85	13497.87
483.03	13415.95
483.21	13743.63
483.39	13792.78
483.57	13628.94
483.74	13830.23
483.92	13898.10
484.10	13926.19
484.28	14164.92
484.46	14403.66
484.64	14511.32
484.82	14370.89
485.00	14422.38
485.18	14670.48
485.35	14890.49
485.53	14782.82
485.71	14640.05
485.89	15201.78
486.07	14946.66
486.25	15126.88
486.43	15026.24
486.61	15405.41
486.78	15634.78
486.96	15796.28
487.14	16140.33
487.32	15861.81
487.50	16224.59
487.68	16245.66
487.85	16393.11
488.03	16559.29
488.21	16791.00
488.39	16486.73
488.57	16861.22
488.75	17006.33
488.92	17268.47
489.10	17348.05
489.28	17432.31
489.46	17589.13
489.64	17743.60
489.81	18125.11
489.99	17825.52
490.17	18012.76
490.35	18356.82
490.53	18321.71
490.70	18546.40
490.88	18314.69
491.06	18731.31
491.24	18878.76
491.41	18523.00
491.59	18836.63
491.77	18867.06
491.95	19091.75
492.13	19173.67
492.30	19604.33
492.48	19517.73
492.66	19419.42
492.84	19552.84
493.01	19672.20
493.19	19758.80
493.37	20133.29
493.54	20065.41
493.72	20577.99
493.90	20133.29
494.08	20556.93
494.25	20549.90
494.43	20947.79
494.61	21003.97
494.79	20980.56
494.96	20929.07
495.14	20795.66
495.32	21401.86
495.49	21223.98
495.67	21809.11
495.85	21685.06
496.02	21596.12
496.20	21741.24
496.38	22122.74
496.55	21860.60
496.73	22534.68
496.91	22277.22
497.09	22377.86
497.26	22080.61
497.44	22977.04
497.62	22419.99
497.79	23005.13
497.97	22656.39
498.14	23260.24
498.32	23227.48
498.50	23374.93
498.67	23557.49
498.85	23632.39
499.03	23957.72
499.20	23498.98
499.38	23754.10
499.56	23555.15
499.73	23782.18
499.91	24025.60
500.08	24109.86
500.26	23824.31
500.44	24297.10
500.61	24212.84
500.79	24261.99
500.97	24287.74
501.14	24819.04
501.32	24762.87
501.49	24952.45
501.67	24498.39
501.84	25050.75
502.02	24915.00
502.20	25319.92
502.37	25256.72
502.55	25495.46
502.72	25013.31
502.90	25474.39
503.07	25359.70
503.25	25638.23
503.43	25312.89
503.60	25956.54
503.78	25982.29
503.95	25680.36
504.13	25996.33
504.30	26216.34
504.48	26129.74
504.65	26064.21
504.83	26223.36
505.01	26838.92
505.18	26246.77
505.36	26766.37
505.53	26520.61
505.71	26806.16
505.88	27159.58
506.06	27002.76
506.23	27194.68
506.41	26930.20
506.58	26962.97
506.76	27557.47
506.93	27234.47
507.11	27309.37
507.28	27094.04
507.46	27325.75
507.63	27292.99
507.81	27564.49
507.98	27660.45
508.16	27332.78
508.33	27889.82
508.50	28339.21
508.68	27693.22
508.85	28442.19
509.03	28315.80
509.20	28725.39
509.38	28500.70
509.55	28641.14
509.73	28666.88
509.90	28685.61
510.08	28524.11
510.25	28814.34
510.42	28884.55
510.60	29041.37
510.77	29256.70
510.95	29263.72
511.12	28964.13
511.30	29434.58
511.47	29617.14
511.64	29600.76
511.82	29610.12
511.99	29575.01
512.17	29539.90
512.34	29617.14
512.51	29668.63
512.69	29874.60
512.86	30022.05
513.04	30110.99
513.21	29972.90
513.38	30246.74
513.56	30199.93
513.73	30139.08
513.90	30455.05
514.08	30190.57
514.25	30604.84
514.43	30593.14
514.60	30476.12
514.77	30389.52
514.95	30848.26
515.12	30845.92
515.29	30696.13
515.47	31243.81
515.64	31360.84
515.81	30979.33
515.99	31463.82
516.16	31040.18
516.33	31344.45
516.51	31522.34
516.68	31508.29
516.85	31187.64
517.03	31311.69
517.20	31372.54
517.37	31372.54
517.54	31660.43
517.72	31751.71
517.89	31772.77
518.06	31859.37
518.24	31889.80
518.41	31665.11
518.58	31768.09
518.75	32002.14
518.93	32357.91
519.10	32037.25
519.27	32283.01
519.45	32488.98
519.62	32638.77
519.79	32570.90
519.96	33010.92
520.14	32919.63
520.31	32591.96
520.48	33095.18
520.65	32573.24
520.83	33294.12
521.00	33123.26
521.17	32989.85
521.34	33282.42
521.52	33483.70
521.69	33369.02
521.86	33273.06
522.03	33572.64
522.20	33488.38
522.38	33902.66
522.55	33834.78
522.72	33596.05
522.89	34012.66
523.07	33954.15
523.24	33453.28
523.41	34120.33
523.58	34127.35
523.75	34117.99
523.92	34349.70
524.10	34429.28
524.27	34628.23
524.44	34176.50
524.61	34740.57
524.78	34899.73
524.96	34670.36
525.13	34637.59
525.30	35342.09
525.47	35182.93
525.64	34742.91
525.81	34831.85
525.98	34974.63
526.16	34876.32
526.33	34930.16
526.50	35372.52
526.67	34700.78
526.84	35019.10
527.01	34607.16
527.18	35367.84
527.36	35328.05
527.53	35241.45
527.70	35826.58
527.87	36212.77
528.04	35557.42
528.21	35739.98
528.38	35812.54
528.55	35868.71
528.72	35824.24
528.89	36123.83
529.07	35695.51
529.24	35676.79
529.41	35941.27
529.58	36055.95
529.75	35887.43
529.92	36020.84
530.09	36275.96
530.26	36360.22
530.43	36617.68
530.60	36079.36
530.77	36577.89
530.94	36491.29
531.11	36332.14
531.28	36425.76
531.46	36992.17
531.63	36643.43
531.80	36594.28
531.97	36669.17
532.14	36629.38
532.31	36495.97
532.48	36694.92
532.65	37312.82
532.82	37200.47
532.99	36837.69
533.16	36926.63
533.33	36725.35
533.50	36980.46
533.67	37757.52
533.84	37151.32
534.01	37249.63
534.18	37270.69
534.35	37813.70
534.52	37476.66
534.69	38043.07
534.86	37546.87
535.03	37109.19
535.20	37687.31
535.37	37801.99
535.54	38094.56
535.71	37677.94
535.88	37654.54
536.05	37717.73
536.22	37895.61
536.38	38209.25
536.55	38171.80
536.72	38265.42
536.89	38122.65
537.06	37853.48
537.23	38251.38
537.40	38494.79
537.57	38110.94
537.74	38607.14
537.91	38447.98
538.08	38703.10
538.25	38370.74
538.42	38478.41
538.59	39145.46
538.75	38455.00
538.92	38197.54
539.09	38457.34
539.26	38745.23
539.43	38806.08
539.60	38974.60
539.77	38408.19
539.94	38983.96
540.11	38754.59
540.28	38850.55
540.44	39016.73
540.61	39042.48
540.78	38656.29
540.95	39129.08
541.12	38827.15
541.29	39112.69
541.46	39145.46
541.62	39285.89
541.79	39484.84
541.96	38918.43
542.13	39295.25
542.30	39494.20
542.47	39803.15
542.63	39583.14
542.80	39784.43
542.97	39800.81
543.14	40184.66
543.31	39913.16
543.48	40023.16
543.64	40495.95
543.81	40240.83
543.98	40151.89
544.15	40165.93
544.32	40535.74
544.48	40694.89
544.65	40238.49
544.82	40524.04
544.99	40041.88
545.16	40486.59
545.32	40524.04
545.49	40591.91
545.66	40418.71
545.83	40861.07
546.00	40395.31
546.16	40832.99
546.33	40315.73
546.50	40051.25
546.67	40818.94
546.83	40004.44
547.00	40804.90
547.17	40900.86
547.34	40849.37
547.50	40816.60
547.67	40870.43
547.84	40872.78
548.00	40968.74
548.17	40809.58
548.34	41261.30
548.51	41408.76
548.67	41310.46
548.84	41254.28
549.01	41422.80
549.18	40830.65
549.34	41406.42
549.51	41392.37
549.68	41596.00
549.84	41495.36
550.01	41198.11
550.18	41448.55
550.34	41350.24
550.51	41326.84
550.68	41280.03
550.84	40928.95
551.01	41642.81
551.18	41596.00
551.34	41455.57
551.51	41816.01
551.68	41640.47
551.84	41628.77
552.01	41560.89
552.18	41897.93
552.34	41474.29
552.51	41734.09
552.68	41720.05
552.84	42078.15
553.01	42230.29
553.18	41759.84
553.34	41813.67
553.51	41336.20
553.67	41909.63
553.84	41986.87
554.01	42129.64
554.17	42267.73
554.34	42801.38
554.51	42286.46
554.67	42792.01
554.84	42462.00
555.00	42192.84
555.17	42286.46
555.33	42131.98
555.50	42382.42
555.67	42087.51
555.83	42520.51
556.00	42897.34
556.16	42997.98
556.33	42337.95
556.50	42632.86
556.66	42951.17
556.83	42108.58
556.99	42581.37
557.16	42497.11
557.32	42595.41
557.49	42836.48
557.65	42506.47
557.82	42380.08
557.98	42536.90
558.15	42263.05
558.32	42815.42
558.48	42555.62
558.65	43145.44
558.81	42419.87
558.98	43023.73
559.14	42934.79
559.31	43021.39
559.47	43054.15
559.64	42885.64
559.80	43412.26
559.97	43229.69
560.13	42667.97
560.30	42740.52
560.46	42866.91
560.63	42944.15
560.79	43548.01
560.96	43185.22
561.12	43433.32
561.29	43086.92
561.45	43461.41
561.61	42885.64
561.78	43306.93
561.94	43388.85
562.11	43353.74
562.27	43611.20
562.44	42988.62
562.60	43449.70
562.77	43454.39
562.93	43384.17
563.10	43271.82
563.26	43098.62
563.42	43590.14
563.59	43548.01
563.75	43255.44
563.92	43276.51
564.08	43566.73
564.24	43655.67
564.41	43746.95
564.57	43449.70
564.74	43812.49
564.90	43676.74
565.07	43866.32
565.23	43454.39
565.39	43363.11
565.56	43653.33
565.72	43398.21
565.88	43409.92
566.05	43557.37
566.21	43737.59
566.38	43646.31
566.54	43672.06
566.70	43763.34
566.87	44318.04
567.03	43466.09
567.19	44154.21
567.36	43758.66
567.52	43702.48
567.68	44004.41
567.85	43662.69
568.01	43449.70
568.17	43164.16
568.34	43772.70
568.50	43466.09
568.66	43831.21
568.83	43695.46
568.99	43578.43
569.15	43863.98
569.32	43943.56
569.48	44081.65
569.64	44041.86
569.81	43882.70
569.97	43929.51
570.13	44081.65
570.30	43814.83
570.46	43796.10
570.62	43491.83
570.78	43854.62
570.95	43758.66
571.11	44259.53
571.27	43789.08
571.43	44109.74
571.60	43959.94
571.76	44100.37
571.92	44037.18
572.09	44053.56
572.25	43831.21
572.41	43810.15
572.57	43896.75
572.74	44456.14
572.90	44034.84
573.06	44203.36
573.22	43997.39
573.38	44034.84
573.55	43510.56
573.71	44186.97
573.87	43861.64
574.03	43854.62
574.20	44121.44
574.36	43894.41
574.52	43981.01
574.68	43590.14
574.84	44486.56
575.01	44076.97
575.17	44170.59
575.33	43871.00
575.49	43807.81
575.65	44428.05
575.82	44395.28
575.98	44264.21
576.14	44456.14
576.30	44329.75
576.46	43824.19
576.62	44060.58
576.79	44172.93
576.95	43819.51
577.11	43863.98
577.27	43711.84
577.43	44252.51
577.59	44154.21
577.75	44032.50
577.92	43824.19
578.08	44306.34
578.24	43945.90
578.40	43880.36
578.56	44641.04
578.72	44044.20
578.88	44767.43
579.04	44428.05
579.21	44144.84
579.37	44041.86
579.53	44006.75
579.69	43957.60
579.85	44137.82
580.01	44245.49
580.17	44399.96
580.33	44081.65
580.49	44933.60
580.65	44266.55
580.82	44378.90
580.98	44083.99
581.14	44194.00
581.30	44575.50
581.46	44289.96
581.62	44402.30
581.78	44357.83
581.94	44706.57
582.10	44203.36
582.26	44311.02
582.42	44554.44
582.58	44563.80
582.74	44414.01
582.90	44343.79
583.06	44350.81
583.22	44076.97
583.38	44435.07
583.54	44259.53
583.70	44238.47
583.86	44196.34
584.02	43707.16
584.18	44238.47
584.34	44432.73
584.50	44357.83
584.66	44385.92
584.82	44116.76
584.98	44755.72
585.14	44753.38
585.30	44329.75
585.46	44151.87
585.62	44215.06
585.78	44135.48
585.94	43812.49
586.10	44491.24
586.26	43863.98
586.42	43821.85
586.58	44767.43
586.74	44456.14
586.90	44222.08
587.06	43999.73
587.22	44364.85
587.38	43807.81
587.54	44605.93
587.70	44486.56
587.86	44741.68
588.02	44481.88
588.18	44528.69
588.34	44622.31
588.49	43775.04
588.65	43398.21
588.81	44109.74
588.97	44385.92
589.13	44282.94
589.29	44631.68
589.45	44025.48
589.61	44650.40
589.77	44711.25
589.93	44706.57
590.08	44755.72
590.24	44945.31
590.40	44629.34
