SpectraSuite Data File
++++++++++++++++++++++++++++++++++++
Date: Fri Oct 25 11:33:16 EDT 2013
User: price-jones
Dark Spectrum Present: No
Reference Spectrum Present: No
Number of Sampled Component Spectra: 1
Spectrometers: USB2+H05261
Integration Time (usec): 100000 (USB2+H05261)
Spectra Averaged: 1 (USB2+H05261)
Boxcar Smoothing: 0 (USB2+H05261)
Correct for Electrical Dark: No (USB2+H05261)
Strobe/Lamp Enabled: No (USB2+H05261)
Correct for Detector Non-linearity: No (USB2+H05261)
Correct for Stray Light: No (USB2+H05261)
Number of Pixels in Processed Spectrum: 2048
>>>>>Begin Processed Spectral Data<<<<<
365.73	283.20
365.92	283.20
366.12	283.20
366.32	222.35
366.52	182.56
366.72	210.65
366.91	149.79
367.11	189.58
367.31	175.54
367.51	180.22
367.70	236.39
367.90	154.48
368.10	191.92
368.30	210.65
368.49	187.24
368.69	210.65
368.89	208.31
369.09	210.65
369.28	182.56
369.48	201.29
369.68	262.14
369.87	177.88
370.07	203.63
370.27	271.50
370.47	276.18
370.66	454.06
370.86	477.47
371.06	552.37
371.25	596.84
371.45	491.51
371.65	475.13
371.84	540.66
372.04	514.92
372.24	547.69
372.44	564.07
372.63	620.24
372.83	599.18
373.03	657.69
373.22	589.82
373.42	662.37
373.62	629.60
373.81	547.69
374.01	613.22
374.21	734.93
374.40	643.65
374.60	641.31
374.79	603.86
374.99	568.75
375.19	610.88
375.38	664.71
375.58	692.80
375.78	690.46
375.97	692.80
376.17	713.86
376.37	624.92
376.56	648.33
376.76	641.31
376.95	678.76
377.15	702.16
377.35	650.67
377.54	681.10
377.74	645.99
377.93	727.91
378.13	741.95
378.33	791.10
378.52	723.23
378.72	725.57
378.91	739.61
379.11	777.06
379.31	697.48
379.50	716.20
379.70	727.91
379.89	730.25
380.09	765.36
380.28	667.05
380.48	788.76
380.68	720.88
380.87	716.20
381.07	814.51
381.26	737.27
381.46	755.99
381.65	823.87
381.85	842.59
382.04	774.72
382.24	826.21
382.43	812.17
382.63	774.72
382.83	777.06
383.02	828.55
383.22	866.00
383.41	741.95
383.61	814.51
383.80	814.51
384.00	805.14
384.19	873.02
384.39	830.89
384.58	744.29
384.78	842.59
384.97	800.46
385.17	798.12
385.36	800.46
385.56	777.06
385.75	844.93
385.95	985.37
386.14	816.85
386.34	816.85
386.53	772.38
386.72	887.06
386.92	950.26
387.11	849.61
387.31	905.79
387.50	933.87
387.70	844.93
387.89	858.98
388.09	931.53
388.28	873.02
388.48	880.04
388.67	875.36
388.86	877.70
389.06	992.39
389.25	952.60
389.45	980.68
389.64	980.68
389.84	1029.84
390.03	976.00
390.22	964.30
390.42	896.43
390.61	915.15
390.81	1013.45
391.00	978.34
391.19	1057.92
391.39	1027.50
391.58	1039.20
391.78	994.73
391.97	1011.11
392.16	931.53
392.36	1032.18
392.55	1013.45
392.75	1088.35
392.94	1067.28
393.13	1032.18
393.33	1013.45
393.52	1116.44
393.71	1013.45
393.91	1083.67
394.10	1060.26
394.29	1060.26
394.49	1071.97
394.68	1144.52
394.88	1088.35
395.07	1109.41
395.26	1177.29
395.46	1132.82
395.65	1217.08
395.84	1210.06
396.04	1226.44
396.23	1142.18
396.42	1144.52
396.62	1177.29
396.81	1221.76
397.00	1217.08
397.19	1289.64
397.39	1212.40
397.58	1228.78
397.77	1254.53
397.97	1203.04
398.16	1214.74
398.35	1338.79
398.55	1193.67
398.74	1219.42
398.93	1364.53
399.12	1341.13
399.32	1329.42
399.51	1280.27
399.70	1277.93
399.90	1254.53
400.09	1432.41
400.28	1387.94
400.47	1404.32
400.67	1409.00
400.86	1411.34
401.05	1359.85
401.24	1507.30
401.44	1441.77
401.63	1591.56
401.82	1371.55
402.01	1416.02
402.21	1500.28
402.40	1516.67
402.59	1533.05
402.78	1509.65
402.97	1565.82
403.17	1526.03
403.36	1638.38
403.55	1619.65
403.74	1607.95
403.93	1664.12
404.13	1664.12
404.32	1549.43
404.51	1631.35
404.70	1682.85
404.89	1643.06
405.09	1680.50
405.28	1668.80
405.47	1689.87
405.66	1682.85
405.85	1832.64
406.05	1710.93
406.24	1816.26
406.43	1813.92
406.62	1785.83
406.81	1802.21
407.00	1785.83
407.20	1727.32
407.39	1778.81
407.58	1954.35
407.77	1888.81
407.96	1888.81
408.15	1893.49
408.34	1926.26
408.54	1926.26
408.73	1928.60
408.92	1914.56
409.11	1940.30
409.30	2022.22
409.49	2003.50
409.68	1982.43
409.87	1998.82
410.07	2010.52
410.26	2026.90
410.45	2141.59
410.64	2015.20
410.83	2120.53
411.02	2193.08
411.21	2129.89
411.40	2167.34
411.59	2265.64
411.78	2179.04
411.98	2242.23
412.17	2347.56
412.36	2298.41
412.55	2333.51
412.74	2396.71
412.93	2417.77
413.12	2368.62
413.31	2424.80
413.50	2415.43
413.69	2347.56
413.88	2459.90
414.07	2385.01
414.26	2434.16
414.45	2516.08
414.64	2487.99
414.83	2619.06
415.02	2590.97
415.22	2654.17
415.41	2691.62
415.60	2703.32
415.79	2619.06
415.98	2712.68
416.17	2857.79
416.36	2684.59
416.55	2752.47
416.74	2874.18
416.93	2726.72
417.12	2857.79
417.31	2885.88
417.50	2892.90
417.69	2970.14
417.88	2888.22
418.07	2818.00
418.26	2960.78
418.45	3033.33
418.64	3077.80
418.83	3023.97
419.02	3070.78
419.21	3197.17
419.39	3180.79
419.58	3089.51
419.77	3094.19
419.96	3194.83
420.15	3227.60
420.34	3248.66
420.53	3180.79
420.72	3346.97
420.91	3190.15
421.10	3260.37
421.29	3330.58
421.48	3197.17
421.67	3243.98
421.86	3342.28
422.05	3307.18
422.24	3281.43
422.43	3368.03
422.61	3421.86
422.80	3452.29
422.99	3342.28
423.18	3473.36
423.37	3471.01
423.56	3391.44
423.75	3407.82
423.94	3365.69
424.13	3176.11
424.32	3386.76
424.50	3522.51
424.69	3644.21
424.88	3468.67
425.07	3473.36
425.26	3379.73
425.45	3328.24
425.64	3508.46
425.83	3555.27
426.01	3576.34
426.20	3473.36
426.39	3597.40
426.58	3562.30
426.77	3524.85
426.96	3468.67
427.15	3552.93
427.33	3609.11
427.52	3548.25
427.71	3662.94
427.90	3648.90
428.09	3517.83
428.28	3712.09
428.46	3674.64
428.65	3653.58
428.84	3777.62
429.03	3950.82
429.22	3721.45
429.40	3824.44
429.59	3927.42
429.78	3756.56
429.97	3698.05
430.16	3667.62
430.34	3878.27
430.53	3892.31
430.72	3831.46
430.91	3988.27
431.10	3899.33
431.28	3957.85
431.47	4002.32
431.66	4145.09
431.85	3934.44
432.03	4105.30
432.22	4067.85
432.41	4077.21
432.60	4154.45
432.79	4198.92
432.97	4208.28
433.16	4182.54
433.35	4215.30
433.54	4191.90
433.72	4142.75
433.91	4365.10
434.10	4278.50
434.28	4227.01
434.47	4353.40
434.66	4266.80
434.85	4365.10
435.03	4365.10
435.22	4369.78
435.41	4472.76
435.59	4346.37
435.78	4449.36
435.97	4472.76
436.16	4402.55
436.34	4369.78
436.53	4486.81
436.72	4629.58
436.90	4423.61
437.09	4594.47
437.28	4484.47
437.46	4599.15
437.65	4573.41
437.84	4610.86
438.02	4624.90
438.21	4645.96
438.40	4561.70
438.58	4777.03
438.77	4755.97
438.96	4723.20
439.14	4910.44
439.33	4870.65
439.52	4933.85
439.70	4868.31
439.89	5095.35
440.08	5142.16
440.26	5081.30
440.45	5062.58
440.63	5179.61
440.82	5287.27
441.01	5153.86
441.19	5186.63
441.38	5289.61
441.57	5322.38
441.75	5261.52
441.94	5355.15
442.12	5444.09
442.31	5399.62
442.50	5444.09
442.68	5416.00
442.87	5530.69
443.05	5600.90
443.24	5678.14
443.43	5682.82
443.61	5589.20
443.80	5858.36
443.98	5437.06
444.17	5289.61
444.35	5591.54
444.54	5755.38
444.73	5589.20
444.91	5654.73
445.10	5809.21
445.28	5746.02
445.47	5715.59
445.65	5528.35
445.84	5645.37
446.02	5844.32
446.21	5692.18
446.39	5593.88
446.58	5738.99
446.77	5678.14
446.95	5760.06
447.14	5839.64
447.32	5621.97
447.51	5692.18
447.69	5638.35
447.88	5804.53
448.06	5703.89
448.25	5834.96
448.43	5944.96
448.62	5720.27
448.80	5830.27
448.99	5884.11
449.17	5853.68
449.36	5823.25
449.54	5966.03
449.73	6132.20
449.91	6064.33
450.10	5989.43
450.28	6157.95
450.46	6092.41
450.65	6174.33
450.83	6122.84
451.02	6216.46
451.20	6260.93
451.39	5989.43
451.57	6132.20
451.76	6263.27
451.94	6487.96
452.13	6331.15
452.31	6380.30
452.49	6228.17
452.68	6457.54
452.86	6258.59
453.05	6340.51
453.23	6523.07
453.42	6431.79
453.60	6377.96
453.78	6532.44
453.97	6356.90
454.15	6282.00
454.34	6525.41
454.52	6429.45
454.70	6600.31
454.89	6719.68
455.07	6609.67
455.26	6853.09
455.44	6771.17
455.62	6787.55
455.81	6726.70
455.99	6679.89
456.17	6703.29
456.36	6822.66
456.54	6899.90
456.73	7028.63
456.91	7040.33
457.09	7105.87
457.28	7241.62
457.46	7112.89
457.64	7143.32
457.83	7138.63
458.01	7063.74
458.19	7295.45
458.38	7222.89
458.56	7379.71
458.74	7250.98
458.93	7190.13
459.11	7393.75
459.29	7309.49
459.48	7274.38
459.66	7363.33
459.84	7297.79
460.03	7609.08
460.21	7389.07
460.39	7559.93
460.57	7569.29
460.76	7499.08
460.94	7496.74
461.12	7391.41
461.31	7625.47
461.49	7651.21
461.67	7613.76
461.85	7850.16
462.04	7744.83
462.22	8140.38
462.40	7751.85
462.59	7793.98
462.77	7801.01
462.95	7981.23
463.13	7812.71
463.32	7918.03
463.50	8063.15
463.68	8053.78
463.86	8128.68
464.05	7988.25
464.23	7911.01
464.41	7971.86
464.59	7836.11
464.78	8145.06
464.96	7985.91
465.14	8128.68
465.32	8180.17
465.50	8170.81
465.69	8341.67
465.87	8180.17
466.05	8222.30
466.23	8250.39
466.41	8065.49
466.60	8241.03
466.78	8292.52
466.96	8145.06
467.14	8390.82
467.32	8493.80
467.51	8547.64
467.69	8250.39
467.87	8126.34
468.05	8297.20
468.23	8351.03
468.41	8439.97
468.60	8421.25
468.78	8425.93
468.96	8500.83
469.14	8695.09
469.32	8573.38
469.50	8741.90
469.69	8767.65
469.87	8798.07
470.05	8758.28
470.23	9004.04
470.41	8908.08
470.59	8837.86
470.77	8889.35
470.95	8875.31
471.14	9074.26
471.32	8898.72
471.50	9177.24
471.68	9184.26
471.86	8971.27
472.04	9301.29
472.22	9504.92
472.40	9177.24
472.58	9254.48
472.77	9359.80
472.95	9554.07
473.13	9717.90
473.31	9624.28
473.49	9645.35
473.67	9469.81
473.85	9605.56
474.03	9809.19
474.21	9856.00
474.39	9928.55
474.57	9738.97
474.75	10129.84
474.93	10087.71
475.12	9760.03
475.30	10207.08
475.48	9954.30
475.66	10059.62
475.84	10115.80
476.02	10389.64
476.20	10368.57
476.38	10504.32
476.56	10710.29
476.74	10544.11
476.92	10670.50
477.10	10567.52
477.28	10930.30
477.46	10726.68
477.64	10724.33
477.82	10981.79
478.00	11351.60
478.18	11082.44
478.36	11080.10
478.54	11346.92
478.72	11400.75
478.90	11637.14
479.08	11698.00
479.26	11936.73
479.44	11786.94
479.62	11852.47
479.80	11960.14
479.98	12112.27
480.16	12283.13
480.34	12198.87
480.52	12484.42
480.70	12358.03
480.88	12360.37
481.06	12362.71
481.24	12390.80
481.41	12702.09
481.59	12933.80
481.77	12898.69
481.95	13057.85
482.13	13102.32
482.31	12894.01
482.49	13355.10
482.67	13434.68
482.85	13462.76
483.03	13652.34
483.21	13696.82
483.39	13839.59
483.57	14026.83
483.74	14090.02
483.92	14281.95
484.10	14139.18
484.28	14363.87
484.46	14654.09
484.64	15005.17
484.82	14398.98
485.00	14604.94
485.18	14874.10
485.35	15323.49
485.53	15096.46
485.71	15250.93
485.89	15634.78
486.07	15484.98
486.25	15454.56
486.43	15712.02
486.61	15545.84
486.78	16189.49
486.96	16208.21
487.14	16180.12
487.32	16376.73
487.50	16435.24
487.68	16507.80
487.85	16758.24
488.03	16758.24
488.21	17406.56
488.39	16996.97
488.57	17324.65
488.75	17273.15
488.92	17781.05
489.10	17600.83
489.28	17954.25
489.46	18139.15
489.64	17977.65
489.81	18064.25
489.99	18401.29
490.17	18429.38
490.35	18518.32
490.53	18611.94
490.70	18616.62
490.88	18745.35
491.06	19019.19
491.24	18717.26
491.41	19105.79
491.59	19353.89
491.77	19293.04
491.95	19433.47
492.13	19620.71
492.30	19943.70
492.48	19829.02
492.66	19992.86
492.84	19866.47
493.01	20203.50
493.19	20350.96
493.37	20489.05
493.54	20283.08
493.72	21006.31
493.90	21010.99
494.08	20992.26
494.25	20978.22
494.43	21057.80
494.61	21441.65
494.79	21153.76
494.96	21500.16
495.14	21865.28
495.32	22106.36
495.49	21886.35
495.67	21963.59
495.85	22017.42
496.02	22246.79
496.20	22630.64
496.38	22689.15
496.55	22656.39
496.73	23136.20
496.91	22820.22
497.09	22998.10
497.26	23578.56
497.44	22686.81
497.62	23143.22
497.79	23655.79
497.97	23328.12
498.14	23899.21
498.32	23824.31
498.50	24049.00
498.67	24002.19
498.85	23836.02
499.03	24016.24
499.20	24463.28
499.38	24538.18
499.56	24589.67
499.73	24627.12
499.91	24854.15
500.08	25057.78
500.26	24519.45
500.44	24779.25
500.61	25116.29
500.79	24812.02
500.97	25441.62
501.14	25497.80
501.32	25570.35
501.49	25572.69
501.67	25425.24
501.84	26087.61
502.02	25834.83
502.20	26040.80
502.37	26150.81
502.55	26057.18
502.72	25788.02
502.90	26312.30
503.07	26284.22
503.25	26157.83
503.43	26331.03
503.60	26630.62
503.78	27014.46
503.95	26579.12
504.13	26527.63
504.30	26817.86
504.48	26841.26
504.65	26944.25
504.83	27496.61
505.01	27365.54
505.18	27323.41
505.36	27562.15
505.53	27578.53
505.71	27594.92
505.88	27681.52
506.06	27651.09
506.23	27807.90
506.41	27597.26
506.58	28041.96
506.76	28233.88
506.93	28182.39
507.11	28208.14
507.28	28259.63
507.46	28505.38
507.63	28065.36
507.81	28676.24
507.98	28355.59
508.16	28811.99
508.33	28816.68
508.50	28865.83
508.68	28673.90
508.85	29043.71
509.03	29088.18
509.20	29493.09
509.38	29647.57
509.55	29432.24
509.73	29481.39
509.90	29748.21
510.08	29619.48
510.25	29680.33
510.42	29457.98
510.60	30075.88
510.77	30003.33
510.95	30483.14
511.12	29778.64
511.30	30120.35
511.47	30218.66
511.64	30361.43
511.82	30494.84
511.99	30340.36
512.17	30913.80
512.34	30583.78
512.51	30733.57
512.69	31503.61
512.86	31061.25
513.04	31056.57
513.21	31077.63
513.38	31517.65
513.56	31119.76
513.73	31267.22
513.90	31363.18
514.08	31145.51
514.25	31541.06
514.43	31889.80
514.60	31714.26
514.77	32023.21
514.95	32247.90
515.12	32301.73
515.29	31889.80
515.47	32313.44
515.64	32718.35
515.81	32114.49
515.99	32788.56
516.16	32449.19
516.33	32336.84
516.51	32486.64
516.68	32624.73
516.85	33146.67
517.03	32748.78
517.20	33233.27
517.37	32919.63
517.54	32938.36
517.72	33263.69
517.89	32978.15
518.06	33104.54
518.24	33296.46
518.41	33565.62
518.58	33483.70
518.75	33516.47
518.93	33376.04
519.10	33729.46
519.27	33631.16
519.45	33577.33
519.62	33991.60
519.79	34457.37
519.96	34064.16
520.14	34171.82
520.31	34047.77
520.48	34534.60
520.65	34141.39
520.83	34548.65
521.00	34572.05
521.17	34983.99
521.34	34494.82
521.52	34646.95
521.69	34539.29
521.86	34967.60
522.03	35091.65
522.20	34960.58
522.38	35360.81
522.55	35328.05
522.72	35014.41
522.89	35346.77
523.07	36004.46
523.24	35215.70
523.41	35629.98
523.58	35295.28
523.75	36079.36
523.92	35857.01
524.10	35957.65
524.27	35831.26
524.44	36142.55
524.61	36175.32
524.78	35901.48
524.96	36322.77
525.13	36589.59
525.30	36573.21
525.47	36121.49
525.64	35875.73
525.81	36374.27
525.98	36751.09
526.16	36449.16
526.33	36825.99
526.50	37235.58
526.67	36847.05
526.84	36311.07
527.01	36863.44
527.18	37088.13
527.36	37118.56
527.53	37209.84
527.70	37469.64
527.87	37528.15
528.04	37141.96
528.21	37303.46
528.38	37598.37
528.55	37326.86
528.72	37766.88
528.89	37649.86
529.07	37837.10
529.24	37902.64
529.41	37689.65
529.58	37652.20
529.75	37598.37
529.92	37935.40
530.09	37926.04
530.26	37998.60
530.43	38298.19
530.60	37776.25
530.77	38110.94
530.94	38211.59
531.11	37923.70
531.28	38291.16
531.46	38054.77
531.63	38410.53
531.80	38553.30
531.97	38602.46
532.14	38684.37
532.31	38644.59
532.48	38855.23
532.65	39049.50
532.82	38944.17
532.99	39147.80
533.16	38623.52
533.33	38501.81
533.50	38780.34
533.67	39377.17
533.84	39086.95
534.01	39117.37
534.18	39143.12
534.35	39576.12
534.52	39522.29
534.69	40055.93
534.86	40020.82
535.03	39388.88
535.20	39505.90
535.37	39828.90
535.54	39864.00
535.71	39299.94
535.88	39962.31
536.05	39793.79
536.22	40187.00
536.38	40151.89
536.55	39840.60
536.72	39707.19
536.89	39751.66
537.06	40243.17
537.23	40561.48
537.40	40074.65
537.57	40421.05
537.74	40030.18
537.91	40559.14
538.08	40652.76
538.25	40107.42
538.42	40517.01
538.59	41003.85
538.75	40257.21
538.92	40818.94
539.09	41106.83
539.26	40935.97
539.43	40865.75
539.60	40779.15
539.77	40828.30
539.94	40926.61
540.11	41160.66
540.28	40837.67
540.44	40999.16
540.61	41064.70
540.78	41251.94
540.95	41329.18
541.12	40933.63
541.29	41163.00
541.46	41364.29
541.62	41462.59
541.79	41542.17
541.96	41413.44
542.13	41144.28
542.30	41605.36
542.47	41603.02
542.63	41855.80
542.80	41745.80
542.97	42326.25
543.14	42562.64
543.31	41904.95
543.48	41736.43
543.64	42588.39
543.81	42286.46
543.98	42417.53
544.15	42616.47
544.32	42689.03
544.48	42990.96
544.65	42679.67
544.82	42639.88
544.99	42241.99
545.16	42579.03
545.32	42564.98
545.49	42747.54
545.66	43189.91
545.83	43122.03
546.00	43271.82
546.16	42689.03
546.33	42714.78
546.50	42567.32
546.67	43187.56
546.83	42525.19
547.00	42789.67
547.17	43353.74
547.34	43257.78
547.50	43548.01
547.67	43260.12
547.84	43203.95
548.00	43545.67
548.17	43854.62
548.34	43892.07
548.51	43639.29
548.67	43508.22
548.84	43725.89
549.01	43564.39
549.18	43217.99
549.34	43522.26
549.51	43948.24
549.68	43566.73
549.84	43360.76
550.01	43859.30
550.18	43751.63
550.34	44030.16
550.51	43889.73
550.68	44308.68
550.84	43997.39
551.01	44002.07
551.18	44238.47
551.34	43973.98
551.51	44100.37
551.68	44116.76
551.84	44175.27
552.01	44247.83
552.18	44191.65
552.34	44285.28
552.51	43737.59
552.68	44416.35
552.84	44304.00
553.01	44355.49
553.18	44474.86
553.34	44699.55
553.51	44521.67
553.67	44589.55
553.84	44910.20
554.01	44404.64
554.17	44481.88
554.34	44573.16
554.51	44872.75
554.67	45003.82
554.84	45272.98
555.00	44596.57
555.17	44734.66
555.33	45291.71
555.50	44521.67
555.67	44811.90
555.83	44896.16
556.00	45247.24
556.16	45476.61
556.33	45443.84
556.50	45757.47
556.66	45212.13
556.83	44957.01
556.99	45329.16
557.16	45930.67
557.32	45581.93
557.49	45542.14
557.65	45170.00
557.82	45593.64
557.98	45418.10
558.15	45366.60
558.32	45619.38
558.48	45469.59
558.65	45399.37
558.81	45668.53
558.98	45717.68
559.14	45029.57
559.31	45588.95
559.47	45326.81
559.64	45366.60
559.80	45530.44
559.97	46157.70
560.13	45504.70
560.30	45865.14
560.46	46127.28
560.63	46218.56
560.79	46082.81
560.96	46141.32
561.12	46330.90
561.29	45851.09
561.45	45921.31
561.61	46597.73
561.78	46134.30
561.94	46246.65
562.11	46007.91
562.27	46284.09
562.44	45970.46
562.60	45972.80
562.77	46358.99
562.93	46330.90
563.10	46401.12
563.26	46763.90
563.42	46508.79
563.59	46047.70
563.75	46241.96
563.92	46761.56
564.08	46167.07
564.24	46401.12
564.41	45965.78
564.57	46440.91
564.74	46621.13
564.90	46302.82
565.07	46588.36
565.23	46220.90
565.39	46373.03
565.56	46593.04
565.72	46621.13
565.88	46529.85
566.05	46986.25
566.21	46326.22
566.38	46579.00
566.54	46700.71
566.70	46731.14
566.87	46672.62
567.03	46377.72
567.19	46726.46
567.36	46412.82
567.52	46138.98
567.68	47147.75
567.85	46689.01
568.01	47070.51
568.17	46801.35
568.34	47201.58
568.50	46689.01
568.66	46754.54
568.83	46604.75
568.99	46911.36
569.15	46836.46
569.32	46887.95
569.48	46852.84
569.64	47201.58
569.81	46965.19
569.97	46906.68
570.13	47096.26
570.30	46621.13
570.46	46969.87
570.62	46815.40
570.78	47217.97
570.95	47459.04
571.11	47522.24
571.27	46782.63
571.43	46782.63
571.60	46941.78
571.76	46925.40
571.92	47224.99
572.09	46813.05
572.25	46642.20
572.41	47124.35
572.57	47192.22
572.74	47693.10
572.90	47356.06
573.06	47033.07
573.22	47065.83
573.38	47334.99
573.55	47494.15
573.71	47800.76
573.87	47482.45
574.03	47400.53
574.20	47838.21
574.36	46684.33
574.52	47650.97
574.68	46864.55
574.84	47512.88
575.01	47377.12
575.17	47185.20
575.33	47157.11
575.49	47105.62
575.65	47304.57
575.82	47660.33
575.98	47063.49
576.14	47442.66
576.30	47646.29
576.46	47533.94
576.62	47262.44
576.79	47150.09
576.95	47400.53
577.11	47093.92
577.27	47379.46
577.43	47625.22
577.59	47463.72
577.75	47199.24
577.92	47012.00
578.08	47365.42
578.24	47592.45
578.40	47611.18
578.56	47779.70
578.72	47203.92
578.88	47423.93
579.04	47711.82
579.21	47283.50
579.37	47351.38
579.53	47643.94
579.69	47131.37
579.85	47283.50
580.01	47449.68
580.17	47618.20
580.33	47758.63
580.49	47709.48
580.65	47744.59
580.82	47515.22
580.98	47192.22
581.14	47093.92
581.30	47929.49
581.46	47330.31
581.62	47515.22
581.78	47409.89
581.94	47646.29
582.10	47423.93
582.26	47746.93
582.42	47723.52
582.58	47578.41
582.74	47587.77
582.90	47784.38
583.06	47711.82
583.22	47545.64
583.38	47749.27
583.54	47697.78
583.70	47765.65
583.86	47852.25
584.02	47775.02
584.18	47597.13
584.34	47601.82
584.50	47608.84
584.66	48074.60
584.82	47957.58
584.98	47608.84
585.14	47758.63
585.30	47870.98
585.46	47686.07
585.62	47842.89
585.78	47983.32
585.94	47601.82
586.10	47353.72
586.26	47318.61
586.42	47501.17
586.58	47622.88
586.74	47885.02
586.90	47538.62
587.06	47765.65
587.22	47852.25
587.38	47777.36
587.54	47878.00
587.70	48053.54
587.86	48128.44
588.02	47643.94
588.18	47636.92
588.34	47650.97
588.49	47587.77
588.65	48006.73
588.81	47456.70
588.97	47934.17
589.13	47845.23
589.29	47777.36
589.45	47983.32
589.61	48289.93
589.77	47962.26
589.93	47725.86
