SpectraSuite Data File
++++++++++++++++++++++++++++++++++++
Date: Fri Oct 25 11:25:36 EDT 2013
User: price-jones
Dark Spectrum Present: No
Reference Spectrum Present: No
Number of Sampled Component Spectra: 1
Spectrometers: USB2+H05261
Integration Time (usec): 100000 (USB2+H05261)
Spectra Averaged: 1 (USB2+H05261)
Boxcar Smoothing: 0 (USB2+H05261)
Correct for Electrical Dark: No (USB2+H05261)
Strobe/Lamp Enabled: No (USB2+H05261)
Correct for Detector Non-linearity: No (USB2+H05261)
Correct for Stray Light: No (USB2+H05261)
Number of Pixels in Processed Spectrum: 2048
>>>>>Begin Processed Spectral Data<<<<<
365.73	294.91
365.92	294.91
366.12	294.91
366.32	159.16
366.52	152.13
366.72	184.90
366.91	100.64
367.11	138.09
367.31	86.60
367.51	170.86
367.70	84.26
367.90	161.50
368.10	128.73
368.30	140.43
368.49	105.32
368.69	135.75
368.89	163.84
369.09	135.75
369.28	184.90
369.48	196.60
369.68	135.75
369.87	194.26
370.07	205.97
370.27	285.55
370.47	348.74
370.66	603.86
370.86	603.86
371.06	660.03
371.25	713.86
371.45	720.88
371.65	629.60
371.84	657.69
372.04	751.31
372.24	648.33
372.44	755.99
372.63	730.25
372.83	800.46
373.03	763.01
373.22	758.33
373.42	697.48
373.62	770.04
373.81	765.36
374.01	856.64
374.21	819.19
374.40	784.08
374.60	901.11
374.79	760.67
374.99	774.72
375.19	807.48
375.38	814.51
375.58	830.89
375.78	842.59
375.97	856.64
376.17	821.53
376.37	896.43
376.56	922.17
376.76	947.92
376.95	854.30
377.15	919.83
377.35	919.83
377.54	929.19
377.74	961.96
377.93	863.66
378.13	800.46
378.33	863.66
378.52	940.90
378.72	894.08
378.91	936.21
379.11	898.77
379.31	940.90
379.50	987.71
379.70	992.39
379.89	1011.11
380.09	980.68
380.28	931.53
380.48	1090.69
380.68	924.51
380.87	978.34
381.07	1032.18
381.26	1067.28
381.46	1104.73
381.65	1057.92
381.85	1039.20
382.04	1018.13
382.24	1034.52
382.43	1011.11
382.63	1121.12
382.83	1097.71
383.02	1048.56
383.22	1090.69
383.41	1081.33
383.61	1041.54
383.80	1107.07
384.00	1100.05
384.19	1081.33
384.39	1158.57
384.58	1156.22
384.78	1205.38
384.97	1062.60
385.17	1102.39
385.36	1135.16
385.56	1095.37
385.75	1256.87
385.95	1158.57
386.14	1240.48
386.34	1210.06
386.53	1125.80
386.72	1153.88
386.92	1198.35
387.11	1160.91
387.31	1203.04
387.50	1224.10
387.70	1224.10
387.89	1203.04
388.09	1315.38
388.28	1317.72
388.48	1266.23
388.67	1350.49
388.86	1317.72
389.06	1364.53
389.25	1425.39
389.45	1376.24
389.64	1397.30
389.84	1479.22
390.03	1399.64
390.22	1406.66
390.42	1369.21
390.61	1448.79
390.81	1390.28
391.00	1406.66
391.19	1523.69
391.39	1486.24
391.58	1476.88
391.78	1483.90
391.97	1453.47
392.16	1460.49
392.36	1523.69
392.55	1486.24
392.75	1493.26
392.94	1631.35
393.13	1572.84
393.33	1474.54
393.52	1568.16
393.71	1521.35
393.91	1547.09
394.10	1603.27
394.29	1577.52
394.49	1572.84
394.68	1614.97
394.88	1624.33
395.07	1650.08
395.26	1654.76
395.46	1727.32
395.65	1732.00
395.84	1657.10
396.04	1727.32
396.23	1748.38
396.42	1666.46
396.62	1746.04
396.81	1811.57
397.00	1804.55
397.19	1797.53
397.39	1839.66
397.58	1818.60
397.77	1757.74
397.97	1811.57
398.16	1827.96
398.35	1926.26
398.55	1790.51
398.74	1858.39
398.93	1998.82
399.12	2003.50
399.32	1842.00
399.51	2015.20
399.70	1856.04
399.90	1902.86
400.09	1984.77
400.28	2047.97
400.47	2012.86
400.67	2040.95
400.86	1952.01
401.05	2071.37
401.24	1989.46
401.44	2087.76
401.63	2118.18
401.82	2169.68
402.01	2136.91
402.21	2169.68
402.40	2162.66
402.59	2099.46
402.78	2150.95
402.97	2176.70
403.17	2275.00
403.36	2244.57
403.55	2186.06
403.74	2277.34
403.93	2260.96
404.13	2335.85
404.32	2321.81
404.51	2326.49
404.70	2382.67
404.89	2345.22
405.09	2516.08
405.28	2345.22
405.47	2443.52
405.66	2525.44
405.85	2455.22
406.05	2525.44
406.24	2450.54
406.43	2534.80
406.62	2614.38
406.81	2715.02
407.00	2436.50
407.20	2525.44
407.39	2647.15
407.58	2612.04
407.77	2801.62
407.96	2843.75
408.15	2752.47
408.34	2700.98
408.54	2834.39
408.73	2963.12
408.92	2724.38
409.11	2850.77
409.30	2745.45
409.49	2869.50
409.68	2977.16
409.87	2806.30
410.07	2860.13
410.26	3061.42
410.45	3030.99
410.64	3021.63
410.83	3213.56
411.02	3061.42
411.21	3047.38
411.40	3016.95
411.59	3091.85
411.78	3215.90
411.98	3091.85
412.17	3241.64
412.36	3206.53
412.55	3082.49
412.74	3417.18
412.93	3438.25
413.12	3318.88
413.31	3585.70
413.50	3433.57
413.69	3538.89
413.88	3609.11
414.07	3524.85
414.26	3555.27
414.45	3599.74
414.64	3723.79
414.83	3655.92
415.02	3557.61
415.22	3833.80
415.41	3887.63
415.60	3981.25
415.79	3894.65
415.98	3873.59
416.17	3999.98
416.36	3850.18
416.55	4081.89
416.74	4072.53
416.93	3974.23
417.12	4189.56
417.31	4095.94
417.50	4028.06
417.69	4266.80
417.88	4241.05
418.07	4306.59
418.26	4315.95
418.45	4353.40
418.64	4456.38
418.83	4339.35
419.02	4351.06
419.21	4608.51
419.39	4386.16
419.58	4524.26
419.77	4531.28
419.96	4730.22
420.15	4552.34
420.34	4603.83
420.53	4617.88
420.72	4634.26
420.91	4655.33
421.10	4669.37
421.29	4716.18
421.48	4617.88
421.67	4744.27
421.86	4720.86
422.05	4830.87
422.24	4816.82
422.43	4575.75
422.61	4741.93
422.80	4863.63
422.99	4985.34
423.18	4922.15
423.37	4933.85
423.56	5050.88
423.75	4954.91
423.94	4786.40
424.13	4507.87
424.32	4727.88
424.50	4985.34
424.69	5093.01
424.88	5055.56
425.07	4880.02
425.26	4880.02
425.45	4922.15
425.64	4901.08
425.83	4938.53
426.01	5085.98
426.20	4990.02
426.39	5093.01
426.58	5041.51
426.77	5179.61
426.96	5130.45
427.15	5015.77
427.33	5212.37
427.52	5116.41
427.71	5210.03
427.90	5305.99
428.09	5298.97
428.28	5397.28
428.46	5240.46
428.65	5383.23
428.84	5380.89
429.03	5495.58
429.22	5341.10
429.40	5406.64
429.59	5380.89
429.78	5373.87
429.97	5247.48
430.16	5441.75
430.34	5638.35
430.53	5509.62
430.72	5645.37
430.91	5710.91
431.10	5434.72
431.28	5722.61
431.47	5804.53
431.66	5928.58
431.85	5743.67
432.03	5755.38
432.22	5968.37
432.41	5729.63
432.60	6045.60
432.79	5797.51
432.97	6094.76
433.16	5947.30
433.35	5874.74
433.54	6101.78
433.72	6033.90
433.91	6057.31
434.10	6008.16
434.28	6115.82
434.47	6174.33
434.66	6193.06
434.85	6274.98
435.03	6387.32
435.22	6349.87
435.41	6349.87
435.59	6253.91
435.78	6282.00
435.97	6466.90
436.16	6417.75
436.34	6525.41
436.53	6572.22
436.72	6719.68
436.90	6328.81
437.09	6499.67
437.28	6478.60
437.46	6679.89
437.65	6492.65
437.84	6679.89
438.02	6792.23
438.21	6796.92
438.40	6658.82
438.58	6960.75
438.77	6815.64
438.96	6731.38
439.14	7150.34
439.33	7199.49
439.52	7232.26
439.70	7131.61
439.89	7201.83
440.08	7328.22
440.26	7276.73
440.45	7419.50
440.63	7389.07
440.82	7613.76
441.01	7480.35
441.19	7578.65
441.38	7796.32
441.57	7695.68
441.75	7861.86
441.94	7911.01
442.12	7915.69
442.31	8002.29
442.50	7894.63
442.68	7978.89
442.87	8030.38
443.05	7960.16
443.24	8226.98
443.43	8205.92
443.61	8131.02
443.80	8484.44
443.98	7964.84
444.17	7840.79
444.35	8234.00
444.54	8397.84
444.73	8198.90
444.91	8081.87
445.10	8215.28
445.28	8184.85
445.47	8168.47
445.65	8446.99
445.84	8379.12
446.02	8507.85
446.21	8212.94
446.39	8418.91
446.58	8306.56
446.77	8465.72
446.95	8346.35
447.14	8486.78
447.32	8580.40
447.51	8388.48
447.69	8238.69
447.88	8318.26
448.06	8498.49
448.25	8575.72
448.43	8521.89
448.62	8484.44
448.80	8374.44
448.99	8603.81
449.17	8835.52
449.36	8587.43
449.54	8650.62
449.73	9032.13
449.91	8959.57
450.10	8994.68
450.28	8968.93
450.46	8926.80
450.65	8975.95
450.83	8861.27
451.02	8816.80
451.20	9146.81
451.39	9170.22
451.57	9235.75
451.76	9043.83
451.94	9289.59
452.13	9296.61
452.31	9266.18
452.49	9001.70
452.68	9320.01
452.86	9301.29
453.05	9376.19
453.23	9558.75
453.42	9329.38
453.60	9352.78
453.78	9621.94
453.97	9413.63
454.15	9458.10
454.34	9427.68
454.52	9542.36
454.70	9619.60
454.89	9820.89
455.07	9750.67
455.26	9727.27
455.44	9940.26
455.62	9659.39
455.81	9846.63
455.99	9919.19
456.17	9902.81
456.36	10003.45
456.54	10181.33
456.73	10284.31
456.91	10377.94
457.09	10443.47
457.28	10518.37
457.46	10408.36
457.64	10349.85
457.83	10434.11
458.01	10328.78
458.19	10693.91
458.38	10436.45
458.56	10771.15
458.74	10649.44
458.93	10682.20
459.11	10731.36
459.29	10670.50
459.48	10834.34
459.66	10967.75
459.84	10869.45
460.03	11131.59
460.21	10897.53
460.39	10775.83
460.57	10970.09
460.76	10951.37
460.94	11201.80
461.12	11066.05
461.31	11183.08
461.49	11159.67
461.67	11059.03
461.85	11405.43
462.04	11286.06
462.22	11604.38
462.40	11552.88
462.59	11410.11
462.77	11323.51
462.95	11606.72
463.13	11719.06
463.32	11487.35
463.50	11510.75
463.68	11808.00
463.86	11721.40
464.05	11613.74
464.23	11587.99
464.41	11756.51
464.59	11548.20
464.78	11803.32
464.96	12006.95
465.14	11681.61
465.32	11702.68
465.50	11943.75
465.69	11995.25
465.87	12142.70
466.05	12257.39
466.23	12105.25
466.41	12065.46
466.60	12512.50
466.78	12203.55
466.96	12023.33
467.14	12201.21
467.32	12205.89
467.51	12383.77
467.69	12224.62
467.87	12196.53
468.05	12341.64
468.23	12318.24
468.41	12666.98
468.60	12489.10
468.78	12706.77
468.96	12737.20
469.14	12807.41
469.32	12875.29
469.50	12498.46
469.69	12734.85
469.87	12982.95
470.05	13156.15
470.23	13107.00
470.41	12856.56
470.59	13315.31
470.77	13062.53
470.95	13095.30
471.14	13579.79
471.32	13139.77
471.50	13434.68
471.68	13575.11
471.86	13525.96
472.04	13738.94
472.22	13975.34
472.40	13500.21
472.58	13874.70
472.77	13811.50
472.95	14303.01
473.13	14424.72
473.31	14038.53
473.49	13961.30
473.67	13902.78
473.85	14003.43
474.03	14480.89
474.21	14525.36
474.39	14513.66
474.57	14579.20
474.75	14801.55
474.93	15204.12
475.12	14869.42
475.30	14766.44
475.48	15246.25
475.66	15075.39
475.84	14925.60
476.02	15463.92
476.20	15449.88
476.38	15351.57
476.56	15751.81
476.74	15735.42
476.92	15789.25
477.10	15906.28
477.28	16105.23
477.46	16245.66
477.64	16596.74
477.82	16446.94
478.00	16849.52
478.18	16767.60
478.36	16964.20
478.54	17097.61
478.72	17121.02
478.90	17057.82
479.08	17144.42
479.26	17734.24
479.44	17769.35
479.62	17593.81
479.80	17926.16
479.98	17954.25
480.16	18485.55
480.34	18338.10
480.52	18677.48
480.70	18438.74
480.88	18405.97
481.06	18656.41
481.24	18717.26
481.41	18782.80
481.59	19480.28
481.77	19452.19
481.95	19438.15
482.13	19470.92
482.31	19578.58
482.49	20161.37
482.67	19882.85
482.85	20350.96
483.03	20409.47
483.21	20746.51
483.39	20669.27
483.57	20793.32
483.74	20952.48
483.92	21312.92
484.10	21209.93
484.28	21425.26
484.46	21998.70
484.64	22141.47
484.82	21954.22
485.00	22359.14
485.18	22703.20
485.35	22948.95
485.53	22876.40
485.71	23000.44
485.89	22939.59
486.07	23192.37
486.25	23489.62
486.43	23278.97
486.61	23709.63
486.78	23861.76
486.96	24315.83
487.14	24489.03
487.32	24631.80
487.50	24755.85
487.68	25067.14
487.85	25254.38
488.03	25340.98
488.21	25598.44
488.39	25638.23
488.57	26036.12
488.75	26169.53
488.92	26188.25
489.10	26429.33
489.28	26462.10
489.46	26799.13
489.64	26661.04
489.81	27311.71
489.99	27290.65
490.17	27737.69
490.35	28297.08
490.53	28489.00
490.70	28147.28
490.88	28198.77
491.06	28449.21
491.24	28662.20
491.41	28655.18
491.59	29111.58
491.77	28900.94
491.95	29326.91
492.13	29659.27
492.30	29841.83
492.48	30092.27
492.66	30059.50
492.84	30326.32
493.01	30417.60
493.19	30431.65
493.37	30958.27
493.54	30684.42
493.72	31201.68
493.90	30981.67
494.08	31800.86
494.25	31744.69
494.43	31508.29
494.61	32259.60
494.79	32339.18
494.96	32273.65
495.14	32634.09
495.32	33418.17
495.49	32931.34
495.67	32938.36
495.85	33153.69
496.02	33846.49
496.20	33900.32
496.38	34328.64
496.55	33731.80
496.73	34724.19
496.91	34436.30
497.09	34515.88
497.26	35007.39
497.44	34429.28
497.62	35269.53
497.79	35426.35
497.97	35194.64
498.14	35749.34
498.32	35751.68
498.50	36009.14
498.67	36580.23
498.85	36233.83
499.03	36245.54
499.20	36615.34
499.38	36851.73
499.56	36629.38
499.73	37095.15
499.91	37287.07
500.08	37373.67
500.26	37113.87
500.44	37462.61
500.61	37596.03
500.79	37982.21
500.97	38529.90
501.14	38466.70
501.32	38483.09
501.49	38181.16
501.67	38211.59
501.84	38927.79
502.02	38916.09
502.20	39044.82
502.37	39440.37
502.55	39304.62
502.72	39210.99
502.90	39608.89
503.07	39129.08
503.25	39309.30
503.43	39538.67
503.60	39768.04
503.78	39688.46
503.95	40456.16
504.13	40261.90
504.30	40390.62
504.48	40315.73
504.65	40329.77
504.83	40706.60
505.01	41296.41
505.18	40666.81
505.36	41401.74
505.53	41186.41
505.71	41570.25
505.88	41411.10
506.06	41425.14
506.23	41750.48
506.41	41881.55
506.58	42029.00
506.76	42108.58
506.93	42520.51
507.11	41858.14
507.28	42394.12
507.46	42450.30
507.63	42679.67
507.81	43049.47
507.98	42646.90
508.16	43257.78
508.33	43110.33
508.50	43393.53
508.68	43662.69
508.85	43693.12
509.03	43683.76
509.20	43859.30
509.38	43999.73
509.55	44217.40
509.73	44320.38
509.90	44519.33
510.08	44006.75
510.25	44275.91
510.42	44542.74
510.60	44774.45
510.77	44800.19
510.95	45179.36
511.12	44982.76
511.30	45113.83
511.47	44947.65
511.64	45291.71
511.82	45787.90
511.99	45518.74
512.17	45729.39
512.34	45900.25
512.51	46307.50
512.69	46199.83
512.86	46038.34
513.04	46300.48
513.21	46263.03
513.38	46480.70
513.56	46684.33
513.73	46368.35
513.90	47131.37
514.08	46829.44
514.25	47030.72
514.43	46883.27
514.60	47136.05
514.77	46777.95
514.95	47529.26
515.12	46934.76
515.29	47342.02
515.47	47704.80
515.64	48079.28
515.81	47604.16
515.99	48130.78
516.16	48353.13
516.33	48224.40
516.51	48278.23
516.68	48315.68
516.85	48032.47
517.03	48769.74
517.20	48701.87
517.37	48624.63
517.54	48673.78
517.72	48896.13
517.89	48704.21
518.06	48856.34
518.24	49055.29
518.41	49193.38
518.58	49038.90
518.75	48931.24
518.93	49382.96
519.10	49249.55
519.27	49446.16
519.45	49652.12
519.62	49869.79
519.79	49872.14
519.96	49694.25
520.14	49785.54
520.31	49670.85
520.48	50281.73
520.65	50024.27
520.83	50635.15
521.00	50185.77
521.17	50763.88
521.34	50342.58
521.52	50656.21
521.69	50522.80
521.86	50817.71
522.03	50752.18
522.20	50958.14
522.38	50934.74
522.55	51217.94
522.72	51112.62
522.89	51189.86
523.07	51346.67
523.24	51220.28
523.41	51496.47
523.58	51524.55
523.75	51578.39
523.92	51688.39
524.10	51782.01
524.27	51966.91
524.44	51618.17
524.61	51976.28
524.78	51920.10
524.96	52016.07
525.13	52198.63
525.30	52252.46
525.47	52378.85
525.64	52238.42
525.81	52355.44
525.98	52594.18
526.16	52612.90
526.33	52643.33
526.50	52861.00
526.67	52502.90
526.84	52638.65
527.01	52631.63
527.18	52671.42
527.36	52559.07
527.53	52896.11
527.70	53244.85
527.87	53350.17
528.04	53209.74
528.21	53415.71
528.38	53429.75
528.55	53378.26
528.72	53226.12
528.89	53408.68
529.07	52985.05
529.24	53141.86
529.41	53530.39
529.58	53450.81
529.75	53492.94
529.92	53530.39
530.09	53743.38
530.26	53759.76
530.43	53794.87
530.60	53413.37
530.77	53762.11
530.94	54089.78
531.11	53846.36
531.28	54021.90
531.46	53759.76
531.63	54312.13
531.80	54204.47
531.97	54265.32
532.14	54272.34
532.31	54403.41
532.48	54340.22
532.65	54628.10
532.82	54532.14
532.99	54504.06
533.16	54365.96
533.33	54597.68
533.50	54639.81
533.67	54576.61
533.84	54644.49
534.01	54824.71
534.18	54700.66
534.35	55224.94
534.52	55023.65
534.69	55327.92
534.86	55133.66
535.03	55042.38
535.20	55164.09
535.37	55140.68
535.54	55306.86
535.71	55138.34
535.88	55189.83
536.05	55224.94
536.22	55601.77
536.38	55437.93
536.55	55337.29
536.72	55381.76
536.89	55430.91
537.06	55447.29
537.23	55447.29
537.40	55510.49
537.57	55442.61
537.74	55655.60
537.91	55648.58
538.08	55840.50
538.25	55704.75
538.42	55611.13
538.59	56102.64
538.75	55662.62
538.92	55976.25
539.09	56030.08
539.26	56072.21
539.43	55767.94
539.60	56161.15
539.77	56170.52
539.94	56299.25
540.11	56072.21
540.28	56486.49
540.44	56264.14
540.61	56477.13
540.78	56385.85
540.95	56315.63
541.12	56296.91
541.29	56336.69
541.46	56355.42
541.62	56346.06
541.79	56601.18
541.96	56353.08
542.13	56530.96
542.30	56633.94
542.47	56512.23
542.63	56952.26
542.80	56640.96
542.97	56926.51
543.14	56959.28
543.31	57195.67
543.48	57010.77
543.64	57188.65
543.81	57301.00
543.98	57352.49
544.15	57073.96
544.32	57212.06
544.48	57485.90
544.65	57315.04
544.82	57291.63
544.99	57069.28
545.16	57240.14
545.32	57277.59
545.49	57668.46
545.66	57443.77
545.83	57387.60
546.00	57689.52
546.16	57350.15
546.33	57378.23
546.50	57448.45
546.67	57455.47
546.83	57317.38
547.00	57595.90
547.17	57499.94
547.34	57846.34
547.50	57853.36
547.67	57829.96
547.84	57829.96
548.00	57982.09
548.17	57968.05
548.34	57708.25
548.51	58129.54
548.67	57958.69
548.84	58064.01
549.01	58183.38
549.18	58096.78
549.34	57982.09
549.51	58159.97
549.68	58162.31
549.84	58092.10
550.01	58166.99
550.18	58216.14
550.34	58328.49
550.51	58319.13
550.68	58152.95
550.84	58342.53
551.01	58246.57
551.18	58504.03
551.34	58248.91
551.51	58557.86
551.68	58412.75
551.84	58511.05
552.01	58253.59
552.18	58410.41
552.34	58384.66
552.51	58588.29
552.68	58253.59
552.84	58534.46
553.01	58691.27
553.18	58656.17
553.34	58808.30
553.51	58468.92
553.67	58684.25
553.84	58700.64
554.01	58754.47
554.17	58899.58
554.34	58880.86
554.51	58738.08
554.67	58876.18
554.84	58876.18
555.00	58883.20
555.17	58911.28
555.33	59009.59
555.50	58869.15
555.67	58801.28
555.83	58883.20
556.00	59042.35
556.16	59430.88
556.33	59011.93
556.50	58878.52
556.66	59199.17
556.83	59028.31
556.99	59231.94
557.16	59341.94
557.32	59384.07
557.49	59274.07
557.65	59330.24
557.82	59325.56
557.98	58890.22
558.15	59292.79
558.32	59379.39
558.48	59208.53
558.65	59290.45
558.81	59313.86
558.98	59442.59
559.14	59351.30
559.31	59463.65
559.47	59585.36
559.64	59737.49
559.80	59695.36
559.97	59484.72
560.13	59395.77
560.30	59496.42
560.46	59690.68
560.63	59688.34
560.79	59660.26
560.96	59735.15
561.12	59676.64
561.29	59557.27
561.45	59779.62
561.61	59669.62
561.78	59688.34
561.94	59697.70
562.11	59922.40
562.27	59777.28
562.44	59903.67
562.60	59994.95
562.77	59882.61
562.93	59606.42
563.10	59884.95
563.26	59550.25
563.42	60074.53
563.59	60037.08
563.75	59910.69
563.92	59849.84
564.08	59929.42
564.24	60130.70
564.41	59931.76
564.57	60018.36
564.74	59962.18
564.90	60177.51
565.07	60009.00
565.23	59938.78
565.39	60083.89
565.56	60133.04
565.72	59927.08
565.88	59943.46
566.05	60041.76
566.21	59964.52
566.38	59877.93
566.54	60086.23
566.70	60411.57
566.87	60203.26
567.03	59976.23
567.19	60458.38
567.36	60102.62
567.52	60123.68
567.68	60275.82
567.85	60247.73
568.01	60399.86
568.17	60231.35
568.34	60411.57
568.50	60301.56
568.66	60331.99
568.83	60214.96
568.99	60163.47
569.15	60411.57
569.32	60210.28
569.48	60107.30
569.64	60331.99
569.81	60360.08
569.97	60306.24
570.13	60381.14
570.30	60245.39
570.46	60339.01
570.62	60285.18
570.78	60505.19
570.95	60427.95
571.11	60413.91
571.27	60339.01
571.43	60348.37
571.60	60388.16
571.76	60495.83
571.92	60413.91
572.09	60458.38
572.25	60329.65
572.41	60474.76
572.57	60378.80
572.74	60561.36
572.90	60346.03
573.06	60505.19
573.22	60432.63
573.38	60650.30
573.55	60652.64
573.71	60664.35
573.87	60629.24
574.03	60460.72
574.20	60718.18
574.36	60584.77
574.52	60629.24
574.68	60629.24
574.84	60734.56
575.01	60598.81
575.17	60605.83
575.33	60575.40
575.49	60495.83
575.65	60647.96
575.82	60685.41
575.98	60846.91
576.14	60968.61
576.30	60640.94
576.46	60647.96
576.62	60596.47
576.79	60582.43
576.95	60451.36
577.11	60657.32
577.27	60690.09
577.43	60556.68
577.59	60542.64
577.75	60720.52
577.92	60484.12
578.08	60591.79
578.24	60552.00
578.40	60853.93
578.56	60863.29
578.72	60863.29
578.88	60886.70
579.04	60851.59
579.21	60624.56
579.37	60882.02
579.53	60823.50
579.69	60397.52
579.85	60488.80
580.01	60544.98
580.17	60729.88
580.33	60659.66
580.49	60893.72
580.65	60877.33
580.82	60584.77
580.98	60757.97
581.14	60718.18
581.30	61076.28
581.46	60786.05
581.62	60828.18
581.78	60729.88
581.94	60662.00
582.10	60757.97
582.26	60701.79
582.42	60720.52
582.58	60746.26
582.74	60748.60
582.90	60800.10
583.06	60802.44
583.22	60783.71
583.38	60926.49
583.54	60821.16
583.70	60994.36
583.86	60825.84
584.02	60779.03
584.18	61022.45
584.34	60917.12
584.50	60839.89
584.66	60743.92
584.82	60694.77
584.98	61076.28
585.14	61048.19
585.30	60715.84
585.46	61010.74
585.62	60963.93
585.78	61048.19
585.94	60755.63
586.10	60818.82
586.26	60856.27
586.42	60851.59
586.58	61160.54
586.74	60949.89
586.90	60867.97
587.06	61027.13
587.22	60938.19
587.38	60706.47
587.54	61104.37
587.70	61247.14
587.86	61003.72
588.02	61069.26
588.18	61125.43
588.34	61029.47
588.49	60896.06
