SpectraSuite Data File
++++++++++++++++++++++++++++++++++++
Date: Fri Oct 25 11:25:05 EDT 2013
User: price-jones
Dark Spectrum Present: No
Reference Spectrum Present: No
Number of Sampled Component Spectra: 1
Spectrometers: USB2+H05261
Integration Time (usec): 100000 (USB2+H05261)
Spectra Averaged: 1 (USB2+H05261)
Boxcar Smoothing: 0 (USB2+H05261)
Correct for Electrical Dark: No (USB2+H05261)
Strobe/Lamp Enabled: No (USB2+H05261)
Correct for Detector Non-linearity: No (USB2+H05261)
Correct for Stray Light: No (USB2+H05261)
Number of Pixels in Processed Spectrum: 2048
>>>>>Begin Processed Spectral Data<<<<<
365.73	276.18
365.92	276.18
366.12	276.18
366.32	152.13
366.52	67.88
366.72	77.24
366.91	112.35
367.11	98.30
367.31	159.16
367.51	156.82
367.70	161.50
367.90	271.50
368.10	152.13
368.30	112.35
368.49	39.79
368.69	154.48
368.89	67.88
369.09	128.73
369.28	140.43
369.48	252.78
369.68	131.07
369.87	205.97
370.07	133.41
370.27	210.65
370.47	304.27
370.66	660.03
370.86	613.22
371.06	608.54
371.25	774.72
371.45	627.26
371.65	650.67
371.84	648.33
372.04	725.57
372.24	608.54
372.44	737.27
372.63	734.93
372.83	737.27
373.03	760.67
373.22	730.25
373.42	753.65
373.62	807.48
373.81	765.36
374.01	809.83
374.21	795.78
374.40	833.23
374.60	819.19
374.79	840.25
374.99	833.23
375.19	807.48
375.38	777.06
375.58	854.30
375.78	868.34
375.97	854.30
376.17	828.55
376.37	910.47
376.56	875.36
376.76	851.96
376.95	870.68
377.15	849.61
377.35	933.87
377.54	922.17
377.74	931.53
377.93	896.43
378.13	903.45
378.33	961.96
378.52	947.92
378.72	931.53
378.91	976.00
379.11	976.00
379.31	961.96
379.50	950.26
379.70	943.24
379.89	933.87
380.09	985.37
380.28	987.71
380.48	1053.24
380.68	1053.24
380.87	959.62
381.07	954.94
381.26	1043.88
381.46	1011.11
381.65	1060.26
381.85	1034.52
382.04	1095.37
382.24	1074.31
382.43	1032.18
382.63	992.39
382.83	1114.10
383.02	1076.65
383.22	1165.59
383.41	1165.59
383.61	1174.95
383.80	1163.25
384.00	1125.80
384.19	1100.05
384.39	1078.99
384.58	1062.60
384.78	1153.88
384.97	1165.59
385.17	1078.99
385.36	1102.39
385.56	1116.44
385.75	1170.27
385.95	1242.82
386.14	1235.80
386.34	1181.97
386.53	1284.95
386.72	1181.97
386.92	1163.25
387.11	1172.61
387.31	1280.27
387.50	1207.72
387.70	1235.80
387.89	1256.87
388.09	1268.57
388.28	1252.19
388.48	1224.10
388.67	1252.19
388.86	1277.93
389.06	1394.96
389.25	1392.62
389.45	1336.45
389.64	1441.77
389.84	1366.87
390.03	1441.77
390.22	1345.81
390.42	1425.39
390.61	1378.58
390.81	1345.81
391.00	1392.62
391.19	1401.98
391.39	1331.76
391.58	1448.79
391.78	1409.00
391.97	1451.13
392.16	1488.58
392.36	1514.33
392.55	1502.62
392.75	1549.43
392.94	1469.86
393.13	1462.83
393.33	1554.12
393.52	1558.80
393.71	1629.01
393.91	1568.16
394.10	1682.85
394.29	1554.12
394.49	1600.93
394.68	1614.97
394.88	1722.63
395.07	1657.10
395.26	1586.88
395.46	1668.80
395.65	1682.85
395.84	1760.08
396.04	1710.93
396.23	1713.27
396.42	1760.08
396.62	1746.04
396.81	1724.97
397.00	1811.57
397.19	1706.25
397.39	1694.55
397.58	1853.70
397.77	1797.53
397.97	1916.90
398.16	1858.39
398.35	1851.36
398.55	1909.88
398.74	1870.09
398.93	1909.88
399.12	1942.64
399.32	1881.79
399.51	1914.56
399.70	1970.73
399.90	1923.92
400.09	2043.29
400.28	2045.63
400.47	2038.61
400.67	1944.99
400.86	2092.44
401.05	2015.20
401.24	2174.36
401.44	2139.25
401.63	2076.06
401.82	2097.12
402.01	1984.77
402.21	2127.55
402.40	2139.25
402.59	2139.25
402.78	2150.95
402.97	2263.30
403.17	2232.87
403.36	2155.63
403.55	2289.04
403.74	2441.18
403.93	2284.36
404.13	2368.62
404.32	2392.03
404.51	2338.20
404.70	2403.73
404.89	2324.15
405.09	2349.90
405.28	2480.97
405.47	2417.77
405.66	2497.35
405.85	2469.27
406.05	2478.63
406.24	2513.74
406.43	2621.40
406.62	2663.53
406.81	2656.51
407.00	2619.06
407.20	2539.48
407.39	2567.57
407.58	2759.49
407.77	2661.19
407.96	2810.98
408.15	2820.35
408.34	2712.68
408.54	2794.60
408.73	2832.05
408.92	2923.33
409.11	2841.41
409.30	2857.79
409.49	2881.20
409.68	2895.24
409.87	2832.05
410.07	2946.73
410.26	2993.55
410.45	2949.08
410.64	2949.08
410.83	2960.78
411.02	3152.70
411.21	3129.30
411.40	3171.43
411.59	3150.36
411.78	3164.40
411.98	3236.96
412.17	3435.91
412.36	3403.14
412.55	3225.26
412.74	3351.65
412.93	3330.58
413.12	3433.57
413.31	3541.23
413.50	3365.69
413.69	3335.26
413.88	3527.19
414.07	3569.32
414.26	3541.23
414.45	3641.87
414.64	3604.42
414.83	3613.79
415.02	3655.92
415.22	3920.40
415.41	3852.52
415.60	3824.44
415.79	3911.04
415.98	3742.52
416.17	3992.95
416.36	3920.40
416.55	3948.48
416.74	4173.18
416.93	4180.20
417.12	4117.00
417.31	4030.40
417.50	4084.23
417.69	4341.69
417.88	4297.22
418.07	4407.23
418.26	4280.84
418.45	4332.33
418.64	4369.78
418.83	4259.78
419.02	4381.48
419.21	4535.96
419.39	4512.55
419.58	4423.61
419.77	4463.40
419.96	4578.09
420.15	4594.47
420.34	4652.98
420.53	4542.98
420.72	4777.03
420.91	4683.41
421.10	4716.18
421.29	4828.53
421.48	4713.84
421.67	4760.65
421.86	4770.01
422.05	4709.16
422.24	4758.31
422.43	4887.04
422.61	5102.37
422.80	4910.44
422.99	4898.74
423.18	4865.97
423.37	5018.11
423.56	4943.21
423.75	4889.38
423.94	4812.14
424.13	4652.98
424.32	4622.56
424.50	4903.42
424.69	5100.03
424.88	5247.48
425.07	4945.55
425.26	4851.93
425.45	4896.40
425.64	4798.10
425.83	4910.44
426.01	5088.32
426.20	5111.73
426.39	5015.77
426.58	5097.69
426.77	5048.54
426.96	4992.36
427.15	5097.69
427.33	5294.29
427.52	5310.68
427.71	5240.46
427.90	5210.03
428.09	5310.68
428.28	5259.18
428.46	5364.51
428.65	5369.19
428.84	5376.21
429.03	5327.06
429.22	5437.06
429.40	5469.83
429.59	5472.17
429.78	5327.06
429.97	5170.24
430.16	5376.21
430.34	5558.77
430.53	5724.95
430.72	5631.33
430.91	5729.63
431.10	5593.88
431.28	5846.66
431.47	5668.78
431.66	5743.67
431.85	5614.95
432.03	5959.00
432.22	5956.66
432.41	5881.77
432.60	5933.26
432.79	5949.64
432.97	5905.17
433.16	6012.84
433.35	6022.20
433.54	6022.20
433.72	6312.42
433.91	6092.41
434.10	6080.71
434.28	6047.94
434.47	6289.02
434.66	6380.30
434.85	6176.67
435.03	6377.96
435.22	6427.11
435.41	6466.90
435.59	6445.84
435.78	6431.79
435.97	6286.68
436.16	6436.47
436.34	6485.62
436.53	6504.35
436.72	6630.74
436.90	6265.61
437.09	6478.60
437.28	6511.37
437.46	6743.08
437.65	6731.38
437.84	6705.63
438.02	6607.33
438.21	6761.81
438.40	6651.80
438.58	6939.69
438.77	7063.74
438.96	6918.62
439.14	7042.67
439.33	7101.19
439.52	7133.95
439.70	7206.51
439.89	7260.34
440.08	7370.35
440.26	7410.14
440.45	7372.69
440.63	7447.58
440.82	7555.25
441.01	7576.31
441.19	7623.12
441.38	7733.13
441.57	7700.36
441.75	7672.28
441.94	7894.63
442.12	7763.56
442.31	8030.38
442.50	7920.37
442.68	7971.86
442.87	8074.85
443.05	8009.31
443.24	8360.39
443.43	8191.88
443.61	8205.92
443.80	8402.52
443.98	8175.49
444.17	7817.39
444.35	8400.18
444.54	8273.79
444.73	8159.11
444.91	8276.13
445.10	8313.58
445.28	8353.37
445.47	8299.54
445.65	8416.57
445.84	8519.55
446.02	8416.57
446.21	8402.52
446.39	8409.54
446.58	8468.06
446.77	8416.57
446.95	8234.00
447.14	8205.92
447.32	8489.12
447.51	8435.29
447.69	8362.73
447.88	8540.61
448.06	8416.57
448.25	8514.87
448.43	8524.23
448.62	8461.04
448.80	8379.12
448.99	8662.32
449.17	8795.73
449.36	8430.61
449.54	8510.19
449.73	8943.19
449.91	8959.57
450.10	8758.28
450.28	9060.21
450.46	8903.40
450.65	8884.67
450.83	9160.86
451.02	9069.58
451.20	8985.32
451.39	9202.99
451.57	9011.06
451.76	9139.79
451.94	9179.58
452.13	9371.50
452.31	9247.46
452.49	9186.60
452.68	9357.46
452.86	9139.79
453.05	9469.81
453.23	9460.45
453.42	9352.78
453.60	9245.12
453.78	9493.21
453.97	9502.58
454.15	9556.41
454.34	9231.07
454.52	9607.90
454.70	9767.06
454.89	9760.03
455.07	9715.56
455.26	9846.63
455.44	9942.60
455.62	9788.12
455.81	9830.25
455.99	9846.63
456.17	9963.66
456.36	10111.11
456.54	10286.65
456.73	10153.24
456.91	10291.34
457.09	10150.90
457.28	10487.94
457.46	10136.86
457.64	10593.26
457.83	10513.69
458.01	10406.02
458.19	10867.11
458.38	10396.66
458.56	10736.04
458.74	10670.50
458.93	10684.55
459.11	10686.89
459.29	10602.63
459.48	10796.89
459.66	10881.15
459.84	10689.23
460.03	11061.37
460.21	10794.55
460.39	10785.19
460.57	10836.68
460.76	11147.97
460.94	11005.20
461.12	11073.07
461.31	11147.97
461.49	11040.31
461.67	11059.03
461.85	11503.73
462.04	11166.70
462.22	11702.68
462.40	11405.43
462.59	11449.90
462.77	11389.05
462.95	11391.39
463.13	11438.20
463.32	11583.31
463.50	11674.59
463.68	11808.00
463.86	11784.60
464.05	11707.36
464.23	11616.08
464.41	11878.22
464.59	11744.81
464.78	12119.29
464.96	11756.51
465.14	11566.93
465.32	11950.78
465.50	11999.93
465.69	12032.69
465.87	12177.81
466.05	12013.97
466.23	12039.72
466.41	12243.34
466.60	12503.14
466.78	12215.26
466.96	12217.60
467.14	12409.52
467.32	12241.00
467.51	12421.22
467.69	12381.43
467.87	12449.31
468.05	12404.84
468.23	12475.06
468.41	12348.67
468.60	12573.36
468.78	12802.73
468.96	12498.46
469.14	12666.98
469.32	12971.25
469.50	12601.44
469.69	12903.37
469.87	13371.48
470.05	13008.70
470.23	13268.50
470.41	13020.40
470.59	13130.41
470.77	13057.85
470.95	13296.58
471.14	13474.46
471.32	12966.57
471.50	13619.58
471.68	13406.59
471.86	13462.76
472.04	13673.41
472.22	13984.70
472.40	13774.05
472.58	13795.12
472.77	13713.20
472.95	14031.51
473.13	14504.30
473.31	13951.93
473.49	14127.47
473.67	14054.92
473.85	14319.40
474.03	14558.13
474.21	14391.95
474.39	14670.48
474.57	14689.20
474.75	14696.22
474.93	14885.81
475.12	15047.30
475.30	15206.46
475.48	15077.73
475.66	15185.40
475.84	15187.74
476.02	15232.21
476.20	15403.07
476.38	15707.34
476.56	15796.28
476.74	15838.41
476.92	15864.15
477.10	15761.17
477.28	16152.04
477.46	16105.23
477.64	16203.53
477.82	16336.94
478.00	16936.12
478.18	17046.12
478.36	16912.71
478.54	17095.27
478.72	16996.97
478.90	17156.13
479.08	17392.52
479.26	17624.23
479.44	17661.68
479.62	17734.24
479.80	17734.24
479.98	17954.25
480.16	18473.85
480.34	18022.12
480.52	18572.15
480.70	18459.81
480.88	18185.96
481.06	18642.37
481.24	18726.63
481.41	19197.07
481.59	19246.23
481.77	19372.61
481.95	19515.39
482.13	19585.60
482.31	19590.28
482.49	20112.22
482.67	20109.88
482.85	20318.19
483.03	20376.70
483.21	20404.79
483.39	20629.48
483.57	20636.50
483.74	20872.90
483.92	21603.14
484.10	21034.39
484.28	21771.66
484.46	21865.28
484.64	22335.73
484.82	21790.39
485.00	22522.98
485.18	22356.80
485.35	22977.04
485.53	22457.44
485.71	22888.10
485.89	23295.35
486.07	23009.81
486.25	23449.83
486.43	23590.26
486.61	23758.78
486.78	24034.96
486.96	24027.94
487.14	24137.94
487.32	24353.27
487.50	24842.45
487.68	25064.80
487.85	25216.93
488.03	25453.33
488.21	25762.28
488.39	25638.23
488.57	26216.34
488.75	25905.05
488.92	26249.11
489.10	26508.91
489.28	26536.99
489.46	27257.88
489.64	26796.79
489.81	27421.72
489.99	27573.85
490.17	27470.87
490.35	28327.50
490.53	28184.73
490.70	28481.98
490.88	28098.13
491.06	28793.27
491.24	28706.67
491.41	28779.23
491.59	29137.33
491.77	29146.69
491.95	29764.59
492.13	29663.95
492.30	30139.08
492.48	29888.64
492.66	29865.24
492.84	30089.93
493.01	30967.63
493.19	30291.21
493.37	30874.01
493.54	31222.75
493.72	31278.92
493.90	31449.78
494.08	31548.08
494.25	31578.51
494.43	31805.54
494.61	32385.99
494.79	32210.45
494.96	32479.61
495.14	32194.07
495.32	32716.01
495.49	32985.17
495.67	33109.22
495.85	33521.15
496.02	33593.71
496.20	33935.43
496.38	34075.86
496.55	33905.00
496.73	34923.13
496.91	34534.60
497.09	34747.59
497.26	34969.94
497.44	34930.16
497.62	35131.44
497.79	35768.07
497.97	35515.29
498.14	35585.50
498.32	36018.50
498.50	36182.34
498.67	36341.50
498.85	36570.87
499.03	36203.41
499.20	36589.59
499.38	36849.39
499.56	36982.80
499.73	36952.38
499.91	37046.00
500.08	37497.72
500.26	37160.69
500.44	37579.64
500.61	37603.05
500.79	37839.44
500.97	37776.25
501.14	38267.76
501.32	38557.99
501.49	38506.49
501.67	38141.37
501.84	39007.37
502.02	39089.29
502.20	38873.96
502.37	38979.28
502.55	39009.71
502.72	39433.35
502.90	39580.80
503.07	39084.61
503.25	39463.77
503.43	39297.59
503.60	39709.53
503.78	40198.70
503.95	39732.93
504.13	39988.05
504.30	40512.33
504.48	40423.39
504.65	40549.78
504.83	40807.24
505.01	41373.65
505.18	40776.81
505.36	41296.41
505.53	41497.70
505.71	41130.23
505.88	41865.16
506.06	41113.85
506.23	41614.72
506.41	42085.17
506.58	41963.46
506.76	42005.59
506.93	42188.16
507.11	42239.65
507.28	42492.43
507.46	42621.16
507.63	42415.19
507.81	43098.62
507.98	42639.88
508.16	42796.70
508.33	43136.07
508.50	43201.61
508.68	43344.38
508.85	43583.12
509.03	43599.50
509.20	43948.24
509.38	44016.11
509.55	44308.68
509.73	44781.47
509.90	44561.46
510.08	44236.12
510.25	44701.89
510.42	44828.28
510.60	45090.42
510.77	44992.12
510.95	45048.29
511.12	45380.65
511.30	44975.73
511.47	45387.67
511.64	45294.05
511.82	45790.24
511.99	45478.95
512.17	45755.13
512.34	45708.32
512.51	46567.30
512.69	46628.15
512.86	46157.70
513.04	46181.11
513.21	46499.42
513.38	46511.13
513.56	46651.56
513.73	46749.86
513.90	46923.06
514.08	46890.29
514.25	47035.41
514.43	47711.82
514.60	47044.77
514.77	47150.09
514.95	48004.39
515.12	47098.60
515.29	47400.53
515.47	47739.91
515.64	47409.89
515.81	47751.61
515.99	48100.35
516.16	47980.98
516.33	48259.51
516.51	48451.43
516.68	48552.07
516.85	48362.49
517.03	48486.54
517.20	48758.04
517.37	48224.40
517.54	48217.38
517.72	48818.89
517.89	48889.11
518.06	49380.62
518.24	48947.62
518.41	49425.09
518.58	49064.65
518.75	49361.90
518.93	49305.73
519.10	49298.70
519.27	49801.92
519.45	49670.85
519.62	49490.63
519.79	49712.98
519.96	49993.84
520.14	50078.10
520.31	49904.90
520.48	50000.86
520.65	50078.10
520.83	50515.78
521.00	50300.45
521.17	50583.66
521.34	50576.64
521.52	50857.50
521.69	50604.72
521.86	50908.99
522.03	50906.65
522.20	51000.27
522.38	51262.41
522.55	51091.55
522.72	51100.92
522.89	51449.66
523.07	51409.87
523.24	51372.42
523.41	51634.56
523.58	51281.14
523.75	51622.86
523.92	51957.55
524.10	51948.19
524.27	52154.16
524.44	51835.84
524.61	51639.24
524.78	52247.78
524.96	51980.96
525.13	52025.43
525.30	52189.27
525.47	52439.70
525.64	52336.72
525.81	52116.71
525.98	52741.63
526.16	52303.95
526.33	52526.30
526.50	53003.77
526.67	52570.77
526.84	52779.08
527.01	52830.57
527.18	52889.09
527.36	52849.30
527.53	52914.83
527.70	53212.08
527.87	52931.22
528.04	53151.23
528.21	53059.94
528.38	53315.06
528.55	53439.11
528.72	53172.29
528.89	53352.51
529.07	53382.94
529.24	53490.60
529.41	53567.84
529.58	53427.41
529.75	53476.56
529.92	53989.14
530.09	53832.32
530.26	53893.18
530.43	53972.75
530.60	53694.23
530.77	53797.21
530.94	54024.25
531.11	53914.24
531.28	54106.16
531.46	53801.89
531.63	54092.12
531.80	53890.83
531.97	54363.62
532.14	54213.83
532.31	54475.97
532.48	54398.73
532.65	54492.35
532.82	54129.57
532.99	54593.00
533.16	54625.76
533.33	54813.01
533.50	55002.59
533.67	54672.57
533.84	54508.74
534.01	54564.91
534.18	55107.91
534.35	55302.18
534.52	54955.78
534.69	55075.15
534.86	55269.41
535.03	55007.27
535.20	54974.50
535.37	55325.58
535.54	55220.26
535.71	55238.98
535.88	55257.71
536.05	55241.32
536.22	55576.02
536.38	55671.98
536.55	55662.62
536.72	55444.95
536.89	55171.11
537.06	55419.20
537.23	55608.79
537.40	55370.05
537.57	55662.62
537.74	55711.77
537.91	55765.60
538.08	56055.83
538.25	55643.90
538.42	55674.32
538.59	55920.08
538.75	55681.34
538.92	55924.76
539.09	56285.20
539.26	55929.44
539.43	55943.48
539.60	56182.22
539.77	56156.47
539.94	56442.02
540.11	56226.69
540.28	56172.86
540.44	56369.46
540.61	56381.16
540.78	56519.26
540.95	56233.71
541.12	56416.27
541.29	56334.35
541.46	56198.60
541.62	56521.60
541.79	56563.73
541.96	56306.27
542.13	56584.79
542.30	56629.26
542.47	56704.16
542.63	56692.46
542.80	56870.34
542.97	57118.43
543.14	57006.09
543.31	57088.01
543.48	57317.38
543.64	57181.63
543.81	57228.44
543.98	57570.16
544.15	57258.87
544.32	57443.77
544.48	57462.49
544.65	57172.27
544.82	57291.63
544.99	57226.10
545.16	57169.93
545.32	57312.70
545.49	57560.79
545.66	57638.03
545.83	57476.54
546.00	57851.02
546.16	57504.62
546.33	57303.34
546.50	57319.72
546.67	57888.47
546.83	57261.21
547.00	57434.41
547.17	57544.41
547.34	57675.48
547.50	57949.32
547.67	58042.95
547.84	57858.04
548.00	57890.81
548.17	58199.76
548.34	57918.90
548.51	57813.57
548.67	58059.33
548.84	58068.69
549.01	58026.56
549.18	58185.72
549.34	58218.49
549.51	58206.78
549.68	58351.90
549.84	58279.34
550.01	58344.87
550.18	58014.86
550.34	58480.63
550.51	58506.37
550.68	58368.28
550.84	58209.12
551.01	58351.90
551.18	58372.96
551.34	58405.73
551.51	58291.04
551.68	58651.48
551.84	58541.48
552.01	58286.36
552.18	58569.57
552.34	58307.43
552.51	58557.86
552.68	58522.76
552.84	58532.12
553.01	58829.37
553.18	58607.01
553.34	58763.83
553.51	58651.48
553.67	58550.84
553.84	58864.47
554.01	58981.50
554.17	58918.31
554.34	59007.25
554.51	58820.00
554.67	58876.18
554.84	58829.37
555.00	58922.99
555.17	59178.10
555.33	58789.58
555.50	58932.35
555.67	58733.40
555.83	58962.78
556.00	59112.57
556.16	59334.92
556.33	59241.30
556.50	59023.63
556.66	59276.41
556.83	59018.95
556.99	59253.00
557.16	59428.54
557.32	59405.14
557.49	59655.57
557.65	59264.70
557.82	59236.62
557.98	59473.01
558.15	59264.70
558.32	59489.40
558.48	59449.61
558.65	59447.27
558.81	59241.30
558.98	59241.30
559.14	59601.74
559.31	59419.18
559.47	59634.51
559.64	59583.02
559.80	59664.94
559.97	59625.15
560.13	59444.93
560.30	59583.02
560.46	59608.76
560.63	59859.20
560.79	59704.73
560.96	59948.14
561.12	59821.75
561.29	59597.06
561.45	59957.50
561.61	59625.15
561.78	59468.33
561.94	59746.86
562.11	59760.90
562.27	60011.34
562.44	59833.46
562.60	59910.69
562.77	60093.25
562.93	59627.49
563.10	59957.50
563.26	59770.26
563.42	60172.83
563.59	59664.94
563.75	59793.67
563.92	59810.05
564.08	59938.78
564.24	60013.68
564.41	60037.08
564.57	60191.56
564.74	60142.41
564.90	60044.10
565.07	60016.02
565.23	60072.19
565.39	59859.20
565.56	60236.03
565.72	59971.55
565.88	60144.75
566.05	60130.70
566.21	60128.36
566.38	59999.63
566.54	60149.43
566.70	60357.74
566.87	60392.84
567.03	60126.02
567.19	60343.69
567.36	60116.66
567.52	60100.28
567.68	60556.68
567.85	60210.28
568.01	60404.55
568.17	60151.77
568.34	60362.42
568.50	60156.45
568.66	60334.33
568.83	60388.16
568.99	60357.74
569.15	60357.74
569.32	60140.07
569.48	60172.83
569.64	60479.44
569.81	60308.58
569.97	60418.59
570.13	60371.78
570.30	60367.10
570.46	60385.82
570.62	60331.99
570.78	60451.36
570.95	60404.55
571.11	60561.36
571.27	60334.33
571.43	60537.96
571.60	60437.31
571.76	60432.63
571.92	60706.47
572.09	60669.03
572.25	60441.99
572.41	60495.83
572.57	60580.09
572.74	60617.53
572.90	60463.06
573.06	60453.70
573.22	60383.48
573.38	60458.38
573.55	60523.91
573.71	60823.50
573.87	60828.18
574.03	60477.10
574.20	60666.69
574.36	60474.76
574.52	60692.43
574.68	60659.66
574.84	60727.54
575.01	60638.60
575.17	60528.59
575.33	60580.09
575.49	60540.30
575.65	60612.85
575.82	60757.97
575.98	60411.57
576.14	60886.70
576.30	60725.20
576.46	60856.27
576.62	60584.77
576.79	60715.84
576.95	60477.10
577.11	60776.69
577.27	60715.84
577.43	60741.58
577.59	60734.56
577.75	60603.49
577.92	60615.19
578.08	60669.03
578.24	60821.16
578.40	60921.80
578.56	60818.82
578.72	60818.82
578.88	60992.02
579.04	60729.88
579.21	60722.86
579.37	60807.12
579.53	60905.42
579.69	60603.49
579.85	60706.47
580.01	60750.94
580.17	60556.68
580.33	60947.55
580.49	61139.47
580.65	60706.47
580.82	60671.37
580.98	60781.37
581.14	60793.07
581.30	60980.32
581.46	60795.42
581.62	60797.76
581.78	60753.29
581.94	60816.48
582.10	60760.31
582.26	60872.65
582.42	60659.66
582.58	60891.38
582.74	61024.79
582.90	60823.50
583.06	60802.44
583.22	60598.81
583.38	60870.31
583.54	61001.38
583.70	60952.23
583.86	60816.48
584.02	60844.57
584.18	61006.06
584.34	60853.93
584.50	61038.83
584.66	60816.48
584.82	60842.23
584.98	60921.80
585.14	60846.91
585.30	60774.35
585.46	60753.29
585.62	61024.79
585.78	61071.60
585.94	60804.78
586.10	60877.33
586.26	61010.74
586.42	60853.93
586.58	61205.01
586.74	61024.79
586.90	60982.66
587.06	60985.00
587.22	61092.66
587.38	61085.64
587.54	61205.01
587.70	61071.60
587.86	60865.63
588.02	61095.00
588.18	61233.10
588.34	60879.67
588.49	60989.68
