SpectraSuite Data File
++++++++++++++++++++++++++++++++++++
Date: Fri Oct 25 11:22:44 EDT 2013
User: price-jones
Dark Spectrum Present: No
Reference Spectrum Present: No
Number of Sampled Component Spectra: 1
Spectrometers: USB2+H05261
Integration Time (usec): 100000 (USB2+H05261)
Spectra Averaged: 1 (USB2+H05261)
Boxcar Smoothing: 0 (USB2+H05261)
Correct for Electrical Dark: No (USB2+H05261)
Strobe/Lamp Enabled: No (USB2+H05261)
Correct for Detector Non-linearity: No (USB2+H05261)
Correct for Stray Light: No (USB2+H05261)
Number of Pixels in Processed Spectrum: 2048
>>>>>Begin Processed Spectral Data<<<<<
365.73	215.33
365.92	215.33
366.12	215.33
366.32	156.82
366.52	133.41
366.72	98.30
366.91	121.71
367.11	98.30
367.31	72.56
367.51	86.60
367.70	93.62
367.90	187.24
368.10	173.20
368.30	117.03
368.49	117.03
368.69	194.26
368.89	88.94
369.09	138.09
369.28	149.79
369.48	142.77
369.68	161.50
369.87	196.60
370.07	248.10
370.27	191.92
370.47	278.52
370.66	561.73
370.86	636.63
371.06	606.20
371.25	660.03
371.45	671.73
371.65	748.97
371.84	603.86
372.04	648.33
372.24	667.05
372.44	645.99
372.63	695.14
372.83	805.14
373.03	688.12
373.22	683.44
373.42	720.88
373.62	758.33
373.81	760.67
374.01	739.61
374.21	877.70
374.40	763.01
374.60	748.97
374.79	781.74
374.99	835.57
375.19	805.14
375.38	828.55
375.58	866.00
375.78	854.30
375.97	880.04
376.17	917.49
376.37	898.77
376.56	830.89
376.76	732.59
376.95	896.43
377.15	870.68
377.35	873.02
377.54	823.87
377.74	849.61
377.93	997.07
378.13	903.45
378.33	929.19
378.52	887.06
378.72	919.83
378.91	891.74
379.11	856.64
379.31	987.71
379.50	938.55
379.70	952.60
379.89	908.13
380.09	968.98
380.28	983.02
380.48	954.94
380.68	961.96
380.87	980.68
381.07	1020.47
381.26	1053.24
381.46	1025.15
381.65	954.94
381.85	1057.92
382.04	985.37
382.24	966.64
382.43	1025.15
382.63	1050.90
382.83	980.68
383.02	1144.52
383.22	1139.84
383.41	1060.26
383.61	1100.05
383.80	1219.42
384.00	1149.20
384.19	1132.82
384.39	1118.78
384.58	1111.75
384.78	1146.86
384.97	1076.65
385.17	1139.84
385.36	1153.88
385.56	1118.78
385.75	1172.61
385.95	1228.78
386.14	1203.04
386.34	1219.42
386.53	1212.40
386.72	1172.61
386.92	1224.10
387.11	1226.44
387.31	1135.16
387.50	1341.13
387.70	1200.69
387.89	1254.53
388.09	1296.66
388.28	1282.61
388.48	1284.95
388.67	1277.93
388.86	1254.53
389.06	1306.02
389.25	1322.40
389.45	1224.10
389.64	1306.02
389.84	1324.74
390.03	1390.28
390.22	1390.28
390.42	1315.38
390.61	1509.65
390.81	1411.34
391.00	1362.19
391.19	1390.28
391.39	1465.18
391.58	1448.79
391.78	1519.01
391.97	1514.33
392.16	1439.43
392.36	1462.83
392.55	1549.43
392.75	1488.58
392.94	1523.69
393.13	1493.26
393.33	1540.07
393.52	1582.20
393.71	1511.99
393.91	1645.40
394.10	1579.86
394.29	1593.90
394.49	1561.14
394.68	1755.40
394.88	1612.63
395.07	1722.63
395.26	1636.03
395.46	1568.16
395.65	1750.72
395.84	1727.32
396.04	1746.04
396.23	1689.87
396.42	1729.66
396.62	1757.74
396.81	1806.89
397.00	1900.52
397.19	1724.97
397.39	1753.06
397.58	1774.13
397.77	1830.30
397.97	1722.63
398.16	1844.34
398.35	1834.98
398.55	1811.57
398.74	1877.11
398.93	2043.29
399.12	1898.17
399.32	1827.96
399.51	1928.60
399.70	1954.35
399.90	1916.90
400.09	2019.88
400.28	2104.14
400.47	2118.18
400.67	2172.02
400.86	2139.25
401.05	2139.25
401.24	2090.10
401.44	2174.36
401.63	2167.34
401.82	2197.76
402.01	2094.78
402.21	2190.74
402.40	2265.64
402.59	2160.31
402.78	2155.63
402.97	2228.19
403.17	2342.88
403.36	2340.54
403.55	2382.67
403.74	2342.88
403.93	2310.11
404.13	2410.75
404.32	2387.35
404.51	2410.75
404.70	2546.50
404.89	2267.98
405.09	2455.22
405.28	2387.35
405.47	2499.69
405.66	2602.68
405.85	2436.50
406.05	2366.28
406.24	2520.76
406.43	2530.12
406.62	2677.57
406.81	2712.68
407.00	2452.88
407.20	2616.72
407.39	2658.85
407.58	2747.79
407.77	2628.42
407.96	2832.05
408.15	2754.81
408.34	2733.75
408.54	2796.94
408.73	2864.82
408.92	2806.30
409.11	2909.29
409.30	3028.65
409.49	2951.42
409.68	3019.29
409.87	2949.08
410.07	3007.59
410.26	3122.27
410.45	3148.02
410.64	3066.10
410.83	2993.55
411.02	3178.45
411.21	3087.17
411.40	3246.32
411.59	3241.64
411.78	3234.62
411.98	3262.71
412.17	3321.22
412.36	3454.63
412.55	3449.95
412.74	3543.57
412.93	3368.03
413.12	3384.41
413.31	3541.23
413.50	3440.59
413.69	3552.93
413.88	3611.45
414.07	3613.79
414.26	3655.92
414.45	3557.61
414.64	3693.37
414.83	3801.03
415.02	3707.41
415.22	3719.11
415.41	3929.76
415.60	3880.61
415.79	3962.53
415.98	4086.58
416.17	3969.55
416.36	4093.60
416.55	4051.47
416.74	4098.28
416.93	4046.79
417.12	4084.23
417.31	4159.13
417.50	4060.83
417.69	4337.01
417.88	4257.43
418.07	4241.05
418.26	4215.30
418.45	4306.59
418.64	4531.28
418.83	4550.00
419.02	4432.97
419.21	4641.28
419.39	4592.13
419.58	4425.95
419.77	4402.55
419.96	4505.53
420.15	4643.62
420.34	4610.86
420.53	4643.62
420.72	4732.56
420.91	4770.01
421.10	4624.90
421.29	4961.94
421.48	4582.77
421.67	4908.10
421.86	4589.79
422.05	4812.14
422.24	4865.97
422.43	4990.02
422.61	5083.64
422.80	5013.43
422.99	4854.27
423.18	5001.72
423.37	4987.68
423.56	4880.02
423.75	4997.04
423.94	4704.48
424.13	4589.79
424.32	4676.39
424.50	4952.57
424.69	5228.76
424.88	5163.22
425.07	5093.01
425.26	4999.38
425.45	5046.20
425.64	4943.21
425.83	4975.98
426.01	5205.35
426.20	5050.88
426.39	5114.07
426.58	4868.31
426.77	5015.77
426.96	5130.45
427.15	5107.05
427.33	5254.50
427.52	5200.67
427.71	5313.02
427.90	5142.16
428.09	5399.62
428.28	5397.28
428.46	5434.72
428.65	5231.10
428.84	5341.10
429.03	5530.69
429.22	5294.29
429.40	5308.34
429.59	5479.19
429.78	5291.95
429.97	5324.72
430.16	5369.19
430.34	5542.39
430.53	5479.19
430.72	5621.97
430.91	5488.56
431.10	5565.79
431.28	5785.80
431.47	5853.68
431.66	6043.26
431.85	5823.25
432.03	5919.21
432.22	6038.58
432.41	5930.92
432.60	6005.81
432.79	5977.73
432.97	5989.43
433.16	5921.56
433.35	5909.85
433.54	6101.78
433.72	6216.46
433.91	6108.80
434.10	6216.46
434.28	6050.28
434.47	6054.97
434.66	6399.02
434.85	6434.13
435.03	6401.37
435.22	6307.74
435.41	6668.19
435.59	6317.11
435.78	6473.92
435.97	6415.41
436.16	6420.09
436.34	6497.33
436.53	6707.98
436.72	6700.95
436.90	6413.07
437.09	6691.59
437.28	6595.63
437.46	6504.35
437.65	6682.23
437.84	6794.58
438.02	6663.51
438.21	6722.02
438.40	6780.53
438.58	7005.22
438.77	7075.44
438.96	6864.79
439.14	7138.63
439.33	7260.34
439.52	7265.02
439.70	7185.44
439.89	7550.57
440.08	7297.79
440.26	7424.18
440.45	7351.62
440.63	7452.27
440.82	7494.40
441.01	7562.27
441.19	7749.51
441.38	7653.55
441.57	7810.37
441.75	7843.14
441.94	7976.55
442.12	7836.11
442.31	8212.94
442.50	8053.78
442.68	7927.39
442.87	8053.78
443.05	8116.98
443.24	8245.71
443.43	8184.85
443.61	8362.73
443.80	8386.14
443.98	7971.86
444.17	8098.25
444.35	8318.26
444.54	8325.29
444.73	8325.29
444.91	8259.75
445.10	8463.38
445.28	8360.39
445.47	8196.56
445.65	8313.58
445.84	8222.30
446.02	8795.73
446.21	8390.82
446.39	8372.10
446.58	8482.10
446.77	8482.10
446.95	8362.73
447.14	8477.42
447.32	8727.86
447.51	8418.91
447.69	8421.25
447.88	8533.59
448.06	8688.07
448.25	8320.60
448.43	8608.49
448.62	8713.81
448.80	8596.79
448.99	8777.01
449.17	8655.30
449.36	8718.50
449.54	8952.55
449.73	8840.20
449.91	9011.06
450.10	8847.22
450.28	8884.67
450.46	9153.84
450.65	9195.96
450.83	9235.75
451.02	9006.38
451.20	9221.71
451.39	9160.86
451.57	9245.12
451.76	8978.30
451.94	9107.02
452.13	9380.87
452.31	9472.15
452.49	9305.97
452.68	9446.40
452.86	9266.18
453.05	9488.53
453.23	9462.79
453.42	9504.92
453.60	9322.35
453.78	9680.46
453.97	9474.49
454.15	9603.22
454.34	9411.29
454.52	9624.28
454.70	9643.01
454.89	9956.64
455.07	10057.28
455.26	9745.99
455.44	9987.07
455.62	10019.83
455.81	9919.19
455.99	10026.86
456.17	9940.26
456.36	10150.90
456.54	10078.35
456.73	10171.97
456.91	10445.81
457.09	10349.85
457.28	10574.54
457.46	10408.36
457.64	10654.12
457.83	10516.03
458.01	10572.20
458.19	10815.62
458.38	10677.52
458.56	10913.92
458.74	10752.42
458.93	10686.89
459.11	10881.15
459.29	10843.70
459.48	10813.28
459.66	10965.41
459.84	10782.85
460.03	11398.41
460.21	11145.63
460.39	11033.29
460.57	11176.06
460.76	11314.15
460.94	11063.71
461.12	11206.48
461.31	11283.72
461.49	11316.49
461.67	11290.74
461.85	11543.52
462.04	11412.45
462.22	11852.47
462.40	11412.45
462.59	11531.82
462.77	11510.75
462.95	11740.13
463.13	11627.78
463.32	11754.17
463.50	11878.22
463.68	11735.45
463.86	11934.39
464.05	11833.75
464.23	11793.96
464.41	11873.54
464.59	11702.68
464.78	12168.45
464.96	11929.71
465.14	11943.75
465.32	12016.31
465.50	12236.32
465.69	12273.77
465.87	12257.39
466.05	12051.42
466.23	12381.43
466.41	12325.26
466.60	12561.66
466.78	12191.85
466.96	12503.14
467.14	12493.78
467.32	12580.38
467.51	12716.13
467.69	12414.20
467.87	12472.71
468.05	12751.24
468.23	12475.06
468.41	12355.69
468.60	12868.27
468.78	12908.05
468.96	12547.61
469.14	12987.63
469.32	13057.85
469.50	12840.18
469.69	13139.77
469.87	13018.06
470.05	13137.43
470.23	13420.63
470.41	13245.09
470.59	13397.23
470.77	13121.04
470.95	13235.73
471.14	13593.83
471.32	13289.56
471.50	13558.72
471.68	13507.23
471.86	13776.39
472.04	13973.00
472.22	14024.49
472.40	13898.10
472.58	13851.29
472.77	14120.45
472.95	14019.81
473.13	14813.25
473.31	13951.93
473.49	14462.17
473.67	14073.64
473.85	14267.91
474.03	14988.79
474.21	14642.39
474.39	14923.26
474.57	14750.06
474.75	14965.39
474.93	15129.22
475.12	15028.58
475.30	15112.84
475.48	15454.56
475.66	15267.31
475.84	15094.11
476.02	15721.38
476.20	15733.08
476.38	15681.59
476.56	16077.14
476.74	16226.93
476.92	16079.48
477.10	15850.11
477.28	16203.53
477.46	16224.59
477.64	16608.44
477.82	16524.18
478.00	17008.67
478.18	17001.65
478.36	16769.94
478.54	17280.18
478.72	17153.79
478.90	17467.42
479.08	17439.33
479.26	17685.09
479.44	17727.22
479.62	18181.28
479.80	18052.55
479.98	17965.95
480.16	18691.52
480.34	18588.53
480.52	18696.20
480.70	18682.16
480.88	18469.17
481.06	18871.74
481.24	19063.66
481.41	19164.31
481.59	19545.81
481.77	19798.59
481.95	19620.71
482.13	19627.73
482.31	19711.99
482.49	20348.62
482.67	20400.11
482.85	20805.02
483.03	20837.79
483.21	21294.19
483.39	20601.40
483.57	21120.99
483.74	21270.79
483.92	21465.05
484.10	21406.54
484.28	21654.64
484.46	22396.59
484.64	22361.48
484.82	22129.77
485.00	22700.86
485.18	22712.56
485.35	23178.33
485.53	23016.83
485.71	23168.96
485.89	23674.52
486.07	23388.97
486.25	23232.16
486.43	23662.82
486.61	24091.13
486.78	23941.34
486.96	24034.96
487.14	24830.74
487.32	24552.22
487.50	25186.50
487.68	25156.08
487.85	25338.64
488.03	25659.29
488.21	26160.17
488.39	25970.58
488.57	26249.11
488.75	26094.63
488.92	26668.06
489.10	26904.46
489.28	26977.01
489.46	27072.98
489.64	27271.92
489.81	27646.41
489.99	27906.21
490.17	28240.90
490.35	28400.06
490.53	28364.95
490.70	28631.77
490.88	28718.37
491.06	29125.63
491.24	29008.60
491.41	29165.42
491.59	29413.51
491.77	29514.16
491.95	29776.30
492.13	30043.12
492.30	30342.70
492.48	30169.51
492.66	30291.21
492.84	30448.03
493.01	30862.30
493.19	30829.54
493.37	31065.93
493.54	30890.39
493.72	31894.48
493.90	31522.34
494.08	31899.16
494.25	32521.74
494.43	32086.40
494.61	32474.93
494.79	32671.54
494.96	33053.05
495.14	32903.25
495.32	33425.19
495.49	33521.15
495.67	33532.86
495.85	33689.67
496.02	34026.71
496.20	33991.60
496.38	34361.40
496.55	34370.77
496.73	34890.37
496.91	34820.15
497.09	35288.26
497.26	35016.75
497.44	35063.57
497.62	35648.70
497.79	35571.46
497.97	35969.35
498.14	35887.43
498.32	36479.59
498.50	36680.88
498.67	36999.19
498.85	36432.78
499.03	36847.05
499.20	37324.52
499.38	37350.27
499.56	37015.57
499.73	37095.15
499.91	37343.25
500.08	38342.66
500.26	37523.47
500.44	37855.82
500.61	38202.22
500.79	38068.81
500.97	38232.65
501.14	38925.45
501.32	38457.34
501.49	38586.07
501.67	39028.43
501.84	39412.28
502.02	39232.06
502.20	39103.33
502.37	39489.52
502.55	39330.36
502.72	39662.72
502.90	39583.14
503.07	39704.85
503.25	40018.48
503.43	39281.21
503.60	40456.16
503.78	40662.13
503.95	40495.95
504.13	40872.78
504.30	40985.12
504.48	40612.98
504.65	40872.78
504.83	41471.95
505.01	41708.35
505.18	41188.75
505.36	41741.11
505.53	40851.71
505.71	41617.07
505.88	42494.77
506.06	41944.74
506.23	41841.76
506.41	41947.08
506.58	42007.94
506.76	42080.49
506.93	42789.67
507.11	42777.97
507.28	42616.47
507.46	43168.84
507.63	42878.61
507.81	43222.67
507.98	43103.31
508.16	43145.44
508.33	43545.67
508.50	43505.88
508.68	43419.28
508.85	44130.80
509.03	43934.20
509.20	43892.07
509.38	44299.32
509.55	44098.03
509.73	44404.64
509.90	45006.16
510.08	44968.71
510.25	44886.79
510.42	44797.85
510.60	45280.00
510.77	45162.98
510.95	45310.43
511.12	45404.05
511.30	45633.42
511.47	46021.95
511.64	45832.37
511.82	45815.99
511.99	46089.83
512.17	46373.03
512.34	45911.95
512.51	46756.88
512.69	46684.33
512.86	46216.22
513.04	46799.01
513.21	46700.71
513.38	46635.17
513.56	47129.03
513.73	46693.69
513.90	47250.74
514.08	47351.38
514.25	47756.29
514.43	47276.48
514.60	47676.71
514.77	47913.11
514.95	48044.18
515.12	47435.64
515.29	47831.19
515.47	48215.04
515.64	48320.36
515.81	48301.64
515.99	48477.18
516.16	48619.95
516.33	48652.72
516.51	48996.77
516.68	48926.56
516.85	48736.98
517.03	48938.26
517.20	49137.21
517.37	49088.06
517.54	49048.27
517.72	49076.35
517.89	49141.89
518.06	48994.43
518.24	49148.91
518.41	49385.30
518.58	49429.77
518.75	49574.89
518.93	49930.65
519.10	49553.82
519.27	49928.31
519.45	50244.28
519.62	50096.83
519.79	50167.04
519.96	50003.20
520.14	50457.27
520.31	50258.32
520.48	50962.82
520.65	50195.13
520.83	50281.73
521.00	50501.74
521.17	50944.10
521.34	50873.88
521.52	50843.46
521.69	51070.49
521.86	51330.29
522.03	51290.50
522.20	51601.79
522.38	51784.35
522.55	51716.48
522.72	51601.79
522.89	51803.08
523.07	51466.04
523.24	51693.07
523.41	51840.53
523.58	51639.24
523.75	51786.69
523.92	51962.23
524.10	51948.19
524.27	52172.88
524.44	52212.67
524.61	52315.65
524.78	52252.46
524.96	52355.44
525.13	52423.32
525.30	52699.50
525.47	52701.84
525.64	52519.28
525.81	52839.93
525.98	52877.38
526.16	52638.65
526.33	52963.98
526.50	53202.72
526.67	53176.97
526.84	52982.71
527.01	52903.13
527.18	53134.84
527.36	53010.79
527.53	53207.40
527.70	53663.80
527.87	53333.79
528.04	53265.91
528.21	53652.10
528.38	53345.49
528.55	53663.80
528.72	53474.22
528.89	53736.36
529.07	53633.38
529.24	53680.19
529.41	53801.89
529.58	53867.43
529.75	53776.15
529.92	53874.45
530.09	53954.03
530.26	54230.21
530.43	54260.64
530.60	54003.18
530.77	54197.44
530.94	54351.92
531.11	54078.08
531.28	54206.81
531.46	54574.27
531.63	54583.63
531.80	54403.41
531.97	54387.03
532.14	54625.76
532.31	54759.17
532.48	54756.83
532.65	54504.06
532.82	54651.51
532.99	54759.17
533.16	54749.81
533.33	54979.18
533.50	55089.19
533.67	55056.42
533.84	55056.42
534.01	55072.81
534.18	55302.18
534.35	55243.66
534.52	55238.98
534.69	55384.10
534.86	55395.80
535.03	55386.44
535.20	55461.33
535.37	55377.08
535.54	55386.44
535.71	55461.33
535.88	55861.57
536.05	55576.02
536.22	55711.77
536.38	55655.60
536.55	55590.06
536.72	55545.59
536.89	55613.47
537.06	55887.31
537.23	55997.32
537.40	55522.19
537.57	55948.17
537.74	55760.92
537.91	56184.56
538.08	56109.66
538.25	55978.59
538.42	56013.70
538.59	56210.31
538.75	56018.38
538.92	56140.09
539.09	56273.50
539.26	56439.68
539.43	56112.00
539.60	56390.53
539.77	56226.69
539.94	56280.52
540.11	56409.25
540.28	56495.85
540.44	56793.10
540.61	56427.98
540.78	56437.34
540.95	56720.54
541.12	56659.69
541.29	56769.69
541.46	56872.68
541.62	56659.69
541.79	56701.82
541.96	56467.76
542.13	57020.13
542.30	56830.55
542.47	56945.23
542.63	57017.79
542.80	56966.30
542.97	57254.18
543.14	57284.61
543.31	57242.48
543.48	57581.86
543.64	57455.47
543.81	57783.15
543.98	57401.64
544.15	57701.23
544.32	57607.61
544.48	57645.05
544.65	57481.22
544.82	57535.05
544.99	57516.32
545.16	57708.25
545.32	57532.71
545.49	57687.18
545.66	57975.07
545.83	57832.30
546.00	57666.12
546.16	57963.37
546.33	57780.81
546.50	57698.89
546.67	57928.26
546.83	57851.02
547.00	58033.58
547.17	57991.45
547.34	57958.69
547.50	58120.18
547.67	58113.16
547.84	58239.55
548.00	58394.03
548.17	58372.96
548.34	58312.11
548.51	58337.85
548.67	58398.71
548.84	58426.79
549.01	58216.14
549.18	58211.46
549.34	58541.48
549.51	58394.03
549.68	58387.00
549.84	58539.14
550.01	58702.98
550.18	58447.86
550.34	58562.54
550.51	58422.11
550.68	58553.18
550.84	58379.98
551.01	58780.21
551.18	58599.99
551.34	58747.45
551.51	58651.48
551.68	58759.15
551.84	58642.12
552.01	58628.08
552.18	58747.45
552.34	58667.87
552.51	58981.50
552.68	58913.62
552.84	58653.82
553.01	59037.67
553.18	58740.42
553.34	59124.27
553.51	58941.71
553.67	58944.05
553.84	59168.74
554.01	59126.61
554.17	58946.39
554.34	59348.96
554.51	59248.32
554.67	59152.36
554.84	59173.42
555.00	59171.08
555.17	59058.74
555.33	59185.13
555.50	59126.61
555.67	59229.60
555.83	58869.15
556.00	59199.17
556.16	59601.74
556.33	59461.31
556.50	59206.19
556.66	59583.02
556.83	59381.73
556.99	59522.16
557.16	59587.70
557.32	59632.17
557.49	59695.36
557.65	59620.47
557.82	59496.42
557.98	59391.09
558.15	59604.08
558.32	59744.51
558.48	59433.22
558.65	59721.11
558.81	59510.46
558.98	59796.01
559.14	59763.24
559.31	59966.87
559.47	59992.61
559.64	59803.03
559.80	59913.03
559.97	59859.20
560.13	59702.38
560.30	59840.48
560.46	59814.73
560.63	59952.82
560.79	59931.76
560.96	60058.15
561.12	60020.70
561.29	60051.12
561.45	59966.87
561.61	59920.05
561.78	60030.06
561.94	60039.42
562.11	60001.97
562.27	60083.89
562.44	60119.00
562.60	60243.05
562.77	60097.94
562.93	59997.29
563.10	60102.62
563.26	59859.20
563.42	60252.41
563.59	60161.13
563.75	60168.15
563.92	60191.56
564.08	60158.79
564.24	60432.63
564.41	60224.32
564.57	60339.01
564.74	60226.66
564.90	60320.29
565.07	60275.82
565.23	60250.07
565.39	60140.07
565.56	60584.77
565.72	60341.35
565.88	60306.24
566.05	60299.22
566.21	60402.21
566.38	60411.57
566.54	60275.82
566.70	60413.91
566.87	60474.76
567.03	60289.86
567.19	60587.11
567.36	60540.30
567.52	60299.22
567.68	60657.32
567.85	60589.45
568.01	60477.10
568.17	60449.02
568.34	60573.06
568.50	60434.97
568.66	60596.47
568.83	60444.33
568.99	60537.96
569.15	60493.49
569.32	60530.93
569.48	60612.85
569.64	60818.82
569.81	60486.46
569.97	60584.77
570.13	60561.36
570.30	60676.05
570.46	60598.81
570.62	60671.37
570.78	60647.96
570.95	60720.52
571.11	60760.31
571.27	60818.82
571.43	60713.50
571.60	60898.40
571.76	60772.01
571.92	60865.63
572.09	60790.73
572.25	60694.77
572.41	60694.77
572.57	60715.84
572.74	60903.08
572.90	60814.14
573.06	60640.94
573.22	60622.22
573.38	60975.64
573.55	60900.74
573.71	60949.89
573.87	60823.50
574.03	60704.13
574.20	60788.39
574.36	60694.77
574.52	60945.21
574.68	60856.27
574.84	61031.81
575.01	60830.52
575.17	60882.02
575.33	60877.33
575.49	60788.39
575.65	60966.27
575.82	60825.84
575.98	60949.89
576.14	60893.72
576.30	60961.59
576.46	60746.26
576.62	60844.57
576.79	60872.65
576.95	60823.50
577.11	60935.85
577.27	60921.80
577.43	61008.40
577.59	60839.89
577.75	60999.04
577.92	60673.71
578.08	61003.72
578.24	60900.74
578.40	61179.26
578.56	61176.92
578.72	60863.29
578.88	61071.60
579.04	61233.10
579.21	61059.90
579.37	61031.81
579.53	61167.56
579.69	60910.10
579.85	61029.47
580.01	60973.30
580.17	61027.13
580.33	61120.75
580.49	61172.24
580.65	61020.11
580.82	61106.71
580.98	60959.25
581.14	60968.61
581.30	61118.41
581.46	61048.19
581.62	61080.96
581.78	61059.90
581.94	61006.06
582.10	60975.64
582.26	60907.76
582.42	60755.63
582.58	61034.15
582.74	60933.51
582.90	61073.94
583.06	61165.22
583.22	61160.54
583.38	61095.00
583.54	61312.67
583.70	61130.11
583.86	61024.79
584.02	61010.74
584.18	61193.31
584.34	61134.79
584.50	61041.17
584.66	60954.57
584.82	61001.38
584.98	61249.48
585.14	61144.16
585.30	61111.39
585.46	61139.47
585.62	61174.58
585.78	61272.88
585.94	60924.14
586.10	61160.54
586.26	61296.29
586.42	61085.64
586.58	61263.52
586.74	61193.31
586.90	61102.03
587.06	61155.86
587.22	61410.98
587.38	61179.26
587.54	61467.15
587.70	61329.06
587.86	61296.29
588.02	61415.66
588.18	61242.46
588.34	61240.12
588.49	61176.92
