SpectraSuite Data File
++++++++++++++++++++++++++++++++++++
Date: Fri Oct 25 11:34:01 EDT 2013
User: price-jones
Dark Spectrum Present: No
Reference Spectrum Present: No
Number of Sampled Component Spectra: 1
Spectrometers: USB2+H05261
Integration Time (usec): 100000 (USB2+H05261)
Spectra Averaged: 1 (USB2+H05261)
Boxcar Smoothing: 0 (USB2+H05261)
Correct for Electrical Dark: No (USB2+H05261)
Strobe/Lamp Enabled: No (USB2+H05261)
Correct for Detector Non-linearity: No (USB2+H05261)
Correct for Stray Light: No (USB2+H05261)
Number of Pixels in Processed Spectrum: 2048
>>>>>Begin Processed Spectral Data<<<<<
365.73	276.18
365.92	276.18
366.12	276.18
366.32	236.39
366.52	154.48
366.72	210.65
366.91	222.35
367.11	191.92
367.31	145.11
367.51	168.52
367.70	168.52
367.90	177.88
368.10	187.24
368.30	147.45
368.49	262.14
368.69	198.95
368.89	149.79
369.09	159.16
369.28	114.69
369.48	222.35
369.68	231.71
369.87	224.69
370.07	208.31
370.27	224.69
370.47	280.86
370.66	535.98
370.86	507.90
371.06	470.45
371.25	603.86
371.45	472.79
371.65	519.60
371.84	557.05
372.04	589.82
372.24	543.00
372.44	589.82
372.63	561.73
372.83	533.64
373.03	589.82
373.22	561.73
373.42	580.45
373.62	601.52
373.81	678.76
374.01	667.05
374.21	615.56
374.40	664.71
374.60	638.97
374.79	709.18
374.99	671.73
375.19	610.88
375.38	601.52
375.58	650.67
375.78	636.63
375.97	648.33
376.17	718.54
376.37	645.99
376.56	671.73
376.76	678.76
376.95	697.48
377.15	690.46
377.35	645.99
377.54	699.82
377.74	777.06
377.93	704.50
378.13	678.76
378.33	638.97
378.52	671.73
378.72	748.97
378.91	774.72
379.11	716.20
379.31	641.31
379.50	695.14
379.70	755.99
379.89	751.31
380.09	725.57
380.28	669.39
380.48	767.70
380.68	744.29
380.87	678.76
381.07	744.29
381.26	809.83
381.46	671.73
381.65	814.51
381.85	716.20
382.04	889.40
382.24	812.17
382.43	767.70
382.63	812.17
382.83	849.61
383.02	833.23
383.22	866.00
383.41	774.72
383.61	763.01
383.80	840.25
384.00	854.30
384.19	835.57
384.39	821.53
384.58	877.70
384.78	929.19
384.97	837.91
385.17	866.00
385.36	842.59
385.56	809.83
385.75	734.93
385.95	828.55
386.14	777.06
386.34	919.83
386.53	863.66
386.72	807.48
386.92	856.64
387.11	849.61
387.31	910.47
387.50	887.06
387.70	847.27
387.89	868.34
388.09	910.47
388.28	943.24
388.48	936.21
388.67	908.13
388.86	882.38
389.06	912.81
389.25	908.13
389.45	919.83
389.64	940.90
389.84	896.43
390.03	1015.79
390.22	966.64
390.42	990.05
390.61	997.07
390.81	910.47
391.00	938.55
391.19	964.30
391.39	980.68
391.58	990.05
391.78	992.39
391.97	1086.01
392.16	994.73
392.36	1006.43
392.55	910.47
392.75	1022.81
392.94	1132.82
393.13	1109.41
393.33	1100.05
393.52	1123.46
393.71	1055.58
393.91	1062.60
394.10	1118.78
394.29	1088.35
394.49	1139.84
394.68	1097.71
394.88	1093.03
395.07	1146.86
395.26	1132.82
395.46	1081.33
395.65	1149.20
395.84	1172.61
396.04	1181.97
396.23	1153.88
396.42	1135.16
396.62	1100.05
396.81	1233.46
397.00	1210.06
397.19	1170.27
397.39	1348.15
397.58	1207.72
397.77	1217.08
397.97	1219.42
398.16	1210.06
398.35	1310.70
398.55	1181.97
398.74	1228.78
398.93	1263.89
399.12	1275.59
399.32	1277.93
399.51	1336.45
399.70	1359.85
399.90	1268.57
400.09	1352.83
400.28	1348.15
400.47	1327.08
400.67	1385.60
400.86	1313.04
401.05	1359.85
401.24	1331.76
401.44	1437.09
401.63	1472.20
401.82	1481.56
402.01	1401.98
402.21	1439.43
402.40	1446.45
402.59	1451.13
402.78	1404.32
402.97	1481.56
403.17	1404.32
403.36	1528.37
403.55	1497.94
403.74	1596.25
403.93	1572.84
404.13	1547.09
404.32	1568.16
404.51	1643.06
404.70	1713.27
404.89	1645.40
405.09	1687.53
405.28	1629.01
405.47	1640.72
405.66	1671.14
405.85	1671.14
406.05	1687.53
406.24	1624.33
406.43	1682.85
406.62	1762.42
406.81	1832.64
407.00	1701.57
407.20	1729.66
407.39	1760.08
407.58	1708.59
407.77	1823.28
407.96	1863.07
408.15	1872.43
408.34	1874.77
408.54	1858.39
408.73	1888.81
408.92	1975.41
409.11	1837.32
409.30	1961.37
409.49	2057.33
409.68	1863.07
409.87	1987.11
410.07	1991.80
410.26	1954.35
410.45	2031.58
410.64	1994.14
410.83	2113.50
411.02	2111.16
411.21	2127.55
411.40	2162.66
411.59	2218.83
411.78	2120.53
411.98	2183.72
412.17	2155.63
412.36	2258.62
412.55	2258.62
412.74	2321.81
412.93	2207.13
413.12	2143.93
413.31	2485.65
413.50	2399.05
413.69	2387.35
413.88	2499.69
414.07	2424.80
414.26	2539.48
414.45	2462.24
414.64	2509.05
414.83	2504.37
415.02	2551.18
415.22	2633.10
415.41	2483.31
415.60	2588.63
415.79	2658.85
415.98	2740.77
416.17	2668.21
416.36	2572.25
416.55	2609.70
416.74	2766.51
416.93	2803.96
417.12	2715.02
417.31	2876.52
417.50	2836.73
417.69	2789.92
417.88	2892.90
418.07	2965.46
418.26	2803.96
418.45	2869.50
418.64	3091.85
418.83	2942.05
419.02	3021.63
419.21	3038.02
419.39	3070.78
419.58	2993.55
419.77	3094.19
419.96	3023.97
420.15	3225.26
420.34	3084.83
420.53	3201.85
420.72	3262.71
420.91	3236.96
421.10	3227.60
421.29	3368.03
421.48	3052.06
421.67	3321.22
421.86	3206.53
422.05	3281.43
422.24	3330.58
422.43	3314.20
422.61	3346.97
422.80	3405.48
422.99	3410.16
423.18	3365.69
423.37	3494.42
423.56	3304.84
423.75	3349.31
423.94	3342.28
424.13	3152.70
424.32	3077.80
424.50	3274.41
424.69	3335.26
424.88	3522.51
425.07	3442.93
425.26	3342.28
425.45	3421.86
425.64	3454.63
425.83	3485.06
426.01	3456.97
426.20	3426.54
426.39	3435.91
426.58	3410.16
426.77	3471.01
426.96	3578.68
427.15	3585.70
427.33	3545.91
427.52	3630.17
427.71	3646.55
427.90	3562.30
428.09	3543.57
428.28	3705.07
428.46	3583.36
428.65	3688.68
428.84	3794.01
429.03	3840.82
429.22	3681.66
429.40	3824.44
429.59	3742.52
429.78	3613.79
429.97	3653.58
430.16	3782.31
430.34	3845.50
430.53	3810.39
430.72	3983.59
430.91	3943.80
431.10	3779.97
431.28	3847.84
431.47	3864.22
431.66	3922.74
431.85	3939.12
432.03	3988.27
432.22	4067.85
432.41	4133.39
432.60	4016.36
432.79	3918.06
432.97	4126.36
433.16	4095.94
433.35	3981.25
433.54	4135.73
433.72	3978.91
433.91	4189.56
434.10	4152.11
434.28	4170.83
434.47	4175.52
434.66	4264.46
434.85	4224.67
435.03	4248.07
435.22	4201.26
435.41	4463.40
435.59	4315.95
435.78	4297.22
435.97	4353.40
436.16	4327.65
436.34	4276.16
436.53	4229.35
436.72	4538.30
436.90	4395.53
437.09	4470.42
437.28	4484.47
437.46	4454.04
437.65	4573.41
437.84	4510.21
438.02	4409.57
438.21	4498.51
438.40	4475.10
438.58	4739.58
438.77	4812.14
438.96	4688.09
439.14	4777.03
439.33	4884.70
439.52	4748.95
439.70	4896.40
439.89	5013.43
440.08	4926.83
440.26	4861.29
440.45	4903.42
440.63	5064.92
440.82	5090.67
441.01	4873.00
441.19	5043.85
441.38	5228.76
441.57	5144.50
441.75	5156.20
441.94	5373.87
442.12	5401.96
442.31	5338.76
442.50	5345.78
442.68	5313.02
442.87	5364.51
443.05	5448.77
443.24	5378.55
443.43	5418.34
443.61	5589.20
443.80	5596.22
443.98	5334.08
444.17	5200.67
444.35	5444.09
444.54	5659.42
444.73	5549.41
444.91	5451.11
445.10	5582.18
445.28	5535.37
445.47	5558.77
445.65	5511.96
445.84	5692.18
446.02	5734.31
446.21	5703.89
446.39	5570.48
446.58	5713.25
446.77	5781.12
446.95	5399.62
447.14	5483.88
447.32	5738.99
447.51	5603.24
447.69	5671.12
447.88	5827.93
448.06	5624.31
448.25	5558.77
448.43	5776.44
448.62	5750.70
448.80	5778.78
448.99	5738.99
449.17	5902.83
449.36	5900.49
449.54	5919.21
449.73	5921.56
449.91	5846.66
450.10	6026.88
450.28	6143.91
450.46	6090.07
450.65	5935.60
450.83	6225.82
451.02	6022.20
451.20	6127.52
451.39	6071.35
451.57	6214.12
451.76	6071.35
451.94	6022.20
452.13	6272.64
452.31	6319.45
452.49	6157.95
452.68	6305.40
452.86	6256.25
453.05	6324.13
453.23	6246.89
453.42	6134.54
453.60	6459.88
453.78	6242.21
453.97	6258.59
454.15	6387.32
454.34	6293.70
454.52	6539.46
454.70	6534.78
454.89	6693.93
455.07	6544.14
455.26	6485.62
455.44	6506.69
455.62	6670.53
455.81	6642.44
455.99	6635.42
456.17	6562.86
456.36	6789.89
456.54	6803.94
456.73	6684.57
456.91	6752.45
457.09	6726.70
457.28	7145.66
457.46	6817.98
457.64	7098.84
457.83	7059.06
458.01	6883.52
458.19	7037.99
458.38	6991.18
458.56	7157.36
458.74	7082.46
458.93	7262.68
459.11	7126.93
459.29	7157.36
459.48	7225.23
459.66	7087.14
459.84	7075.44
460.03	7370.35
460.21	7290.77
460.39	7283.75
460.57	7433.54
460.76	7431.20
460.94	7225.23
461.12	7400.77
461.31	7435.88
461.49	7552.91
461.67	7487.37
461.85	7342.26
462.04	7545.89
462.22	7981.23
462.40	7786.96
462.59	7742.49
462.77	7566.95
462.95	7658.23
463.13	7712.07
463.32	7662.91
463.50	7772.92
463.68	7899.31
463.86	7786.96
464.05	7676.96
464.23	7798.66
464.41	7861.86
464.59	7901.65
464.78	8112.30
464.96	8065.49
465.14	7854.84
465.32	7962.50
465.50	8035.06
465.69	8198.90
465.87	8016.33
466.05	8184.85
466.23	8102.93
466.41	7999.95
466.60	8095.91
466.78	8016.33
466.96	8152.09
467.14	8224.64
467.32	8102.93
467.51	8320.60
467.69	7880.58
467.87	8053.78
468.05	8184.85
468.23	8198.90
468.41	8297.20
468.60	8301.88
468.78	8327.63
468.96	8313.58
469.14	8395.50
469.32	8758.28
469.50	8301.88
469.69	8657.64
469.87	8634.24
470.05	8472.74
470.23	8704.45
470.41	8695.09
470.59	8737.22
470.77	8711.47
470.95	8627.21
471.14	8826.16
471.32	8664.66
471.50	8926.80
471.68	8713.81
471.86	8980.64
472.04	9048.51
472.22	9142.13
472.40	8931.48
472.58	9163.20
472.77	9104.68
472.95	9095.32
473.13	9509.60
473.31	9214.69
473.49	9418.32
473.67	9371.50
473.85	9614.92
474.03	9673.43
474.21	9500.23
474.39	9589.17
474.57	9785.78
474.75	9673.43
474.93	9858.34
475.12	9905.15
475.30	9783.44
475.48	9884.08
475.66	9994.09
475.84	9827.91
476.02	10068.98
476.20	10298.36
476.38	10286.65
476.56	10345.17
476.74	10579.22
476.92	10525.39
477.10	10434.11
477.28	10689.23
477.46	10565.18
477.64	10499.64
477.82	10747.74
478.00	11016.90
478.18	10974.77
478.36	11157.33
478.54	11054.35
478.72	11054.35
478.90	11234.57
479.08	11365.64
479.26	11534.16
479.44	11688.64
479.62	11707.36
479.80	11936.73
479.98	11796.30
480.16	12154.40
480.34	11824.39
480.52	12121.63
480.70	12159.08
480.88	12035.03
481.06	12287.81
481.24	12437.61
481.41	12425.90
481.59	12446.97
481.77	12716.13
481.95	12545.27
482.13	12884.65
482.31	12915.08
482.49	13006.36
482.67	13277.86
482.85	13097.64
483.03	13434.68
483.21	13738.94
483.39	13551.70
483.57	13579.79
483.74	13764.69
483.92	14075.98
484.10	14148.54
484.28	14050.24
484.46	14132.15
484.64	14518.34
484.82	14359.19
485.00	14530.05
485.18	14700.90
485.35	14923.26
485.53	14874.10
485.71	15002.83
485.89	15145.61
486.07	15082.41
486.25	14972.41
486.43	15414.77
486.61	15693.29
486.78	15571.58
486.96	15531.80
487.14	15985.86
487.32	15751.81
487.50	15957.77
487.68	15908.62
487.85	16362.69
488.03	16479.71
488.21	16713.77
488.39	17078.89
488.57	16730.15
488.75	17099.95
488.92	17209.96
489.10	17362.09
489.28	17413.59
489.46	17685.09
489.64	17654.66
489.81	17874.67
489.99	17846.58
490.17	17905.10
490.35	18010.42
490.53	18181.28
490.70	18352.14
490.88	18249.16
491.06	18539.38
491.24	18710.24
491.41	18820.25
491.59	18679.82
491.77	18799.18
491.95	18883.44
492.13	18946.64
492.30	19204.10
492.48	18843.65
492.66	19641.78
492.84	19372.61
493.01	19924.98
493.19	20009.24
493.37	20037.33
493.54	19922.64
493.72	20334.57
493.90	20514.80
494.08	20662.25
494.25	20491.39
494.43	20587.35
494.61	21043.76
494.79	20760.55
494.96	20748.85
495.14	21364.41
495.32	21542.29
495.49	21598.46
495.67	21336.32
495.85	21729.53
496.02	21607.83
496.20	21869.97
496.38	22204.66
496.55	22005.72
496.73	22663.41
496.91	22466.80
497.09	22640.00
497.26	22265.52
497.44	22780.43
497.62	22871.72
497.79	23105.77
497.97	22918.53
498.14	23000.44
498.32	23246.20
498.50	23646.43
498.67	23726.01
498.85	23552.81
499.03	23688.56
499.20	23810.27
499.38	23939.00
499.56	24252.63
499.73	23868.78
499.91	24034.96
500.08	24269.01
500.26	24191.78
500.44	24505.41
500.61	24446.90
500.79	24482.00
500.97	24849.47
501.14	25083.52
501.32	25057.78
501.49	24795.64
501.67	24982.88
501.84	25174.80
502.02	25713.13
502.20	25289.49
502.37	25242.68
502.55	25432.26
502.72	25553.97
502.90	25720.15
503.07	25469.71
503.25	25589.08
503.43	25586.74
503.60	25727.17
503.78	26064.21
503.95	26251.45
504.13	26223.36
504.30	26338.05
504.48	26579.12
504.65	26586.15
504.83	26569.76
505.01	26843.60
505.18	26857.65
505.36	27122.13
505.53	26874.03
505.71	27321.07
505.88	27243.84
506.06	26904.46
506.23	27264.90
506.41	27133.83
506.58	27459.16
506.76	27337.46
506.93	27564.49
507.11	27899.19
507.28	27641.73
507.46	27845.35
507.63	27695.56
507.81	28140.26
507.98	27803.22
508.16	27985.79
508.33	28158.99
508.50	28531.13
508.68	28306.44
508.85	28453.89
509.03	28627.09
509.20	28727.74
509.38	28685.61
509.55	28940.72
509.73	28655.18
509.90	29170.10
510.08	29149.03
510.25	29149.03
510.42	29125.63
510.60	29441.60
510.77	29914.39
510.95	29635.86
511.12	29127.97
511.30	29465.00
511.47	29497.77
511.64	29457.98
511.82	29998.65
511.99	29998.65
512.17	30066.52
512.34	30328.66
512.51	30632.93
512.69	30178.87
512.86	30466.75
513.04	30604.84
513.21	30391.86
513.38	30691.44
513.56	30644.63
513.73	30548.67
513.90	30574.42
514.08	30859.96
514.25	30960.61
514.43	30693.79
514.60	31192.32
514.77	30792.09
514.95	31166.57
515.12	31101.04
515.29	31054.23
515.47	31637.02
515.64	31323.39
515.81	31452.12
515.99	31634.68
516.16	31590.21
516.33	31791.50
516.51	32091.09
516.68	31599.57
516.85	31943.63
517.03	32156.62
517.20	32034.91
517.37	32400.04
517.54	32119.17
517.72	32409.40
517.89	32313.44
518.06	32643.45
518.24	32409.40
518.41	33071.77
518.58	32683.24
518.75	32828.35
518.93	32535.79
519.10	32863.46
519.27	33013.26
519.45	33394.76
519.62	33146.67
519.79	33380.72
519.96	33446.26
520.14	33656.90
520.31	33181.77
520.48	33298.80
520.65	33436.89
520.83	33762.23
521.00	33860.53
521.17	34197.57
521.34	33979.90
521.52	33827.76
521.69	33954.15
521.86	33986.92
522.03	34309.91
522.20	34483.11
522.38	34663.33
522.55	34656.31
522.72	34572.05
522.89	34499.50
523.07	34916.11
523.24	34436.30
523.41	35040.16
523.58	34909.09
523.75	35206.34
523.92	34888.03
524.10	34983.99
524.27	35161.87
524.44	34925.47
524.61	35182.93
524.78	34836.53
524.96	35629.98
525.13	35398.26
525.30	35674.45
525.47	35688.49
525.64	35732.96
525.81	35489.54
525.98	36027.87
526.16	36121.49
526.33	35744.66
526.50	36172.98
526.67	35814.88
526.84	36119.15
527.01	36133.19
527.18	36147.23
527.36	36308.73
527.53	36215.11
527.70	36257.24
527.87	36704.28
528.04	36610.66
528.21	36577.89
528.38	36533.42
528.55	36636.41
528.72	36795.56
528.89	36797.90
529.07	36589.59
529.24	36542.78
529.41	36692.58
529.58	36907.91
529.75	37116.22
529.92	36793.22
530.09	37188.77
530.26	37102.17
530.43	37053.02
530.60	37144.30
530.77	37301.12
530.94	37518.79
531.11	37511.77
531.28	37535.17
531.46	37453.25
531.63	37633.47
531.80	37652.20
531.97	37876.89
532.14	37530.49
532.31	37530.49
532.48	38132.01
532.65	37947.11
532.82	37624.11
532.99	38038.39
533.16	38176.48
533.33	38045.41
533.50	38263.08
533.67	38487.77
533.84	38230.31
534.01	38087.54
534.18	38148.39
534.35	38747.57
534.52	38366.06
534.69	38651.61
534.86	38670.33
535.03	38543.94
535.20	38597.77
535.37	38726.50
535.54	38993.32
535.71	39239.08
535.88	38897.36
536.05	39203.97
536.22	39433.35
536.38	39157.16
536.55	39152.48
536.72	39611.23
536.89	39192.27
537.06	39402.92
537.23	39377.17
537.40	39524.63
537.57	39374.83
537.74	39129.08
537.91	39695.49
538.08	39416.96
538.25	39445.05
538.42	39601.86
538.59	39868.69
538.75	39601.86
538.92	39990.39
539.09	40004.44
539.26	39756.34
539.43	40058.27
539.60	40502.97
539.77	39969.33
539.94	39859.32
540.11	40091.04
540.28	39974.01
540.44	40189.34
540.61	39894.43
540.78	39938.90
540.95	40151.89
541.12	40275.94
541.29	40378.92
541.46	40744.05
541.62	40634.04
541.79	40577.87
541.96	40301.68
542.13	39859.32
542.30	40727.66
542.47	40657.45
542.63	40566.16
542.80	40617.66
542.97	41158.32
543.14	41350.24
543.31	41233.22
543.48	40573.19
543.64	41605.36
543.81	41439.18
543.98	41425.14
544.15	41354.93
544.32	41642.81
544.48	41724.73
544.65	41743.45
544.82	41731.75
544.99	41209.81
545.16	41914.31
545.32	41963.46
545.49	41759.84
545.66	42281.78
545.83	42146.03
546.00	41926.02
546.16	42419.87
546.33	41631.11
546.50	41881.55
546.67	42033.68
546.83	41612.38
547.00	42059.43
547.17	42017.30
547.34	42483.06
547.50	42279.44
547.67	42497.11
547.84	42749.88
548.00	42515.83
548.17	42958.19
548.34	42724.14
548.51	42593.07
548.67	42698.39
548.84	42330.93
549.01	42609.45
549.18	42703.07
549.34	43070.54
549.51	42976.92
549.68	43278.85
549.84	42927.77
550.01	42761.59
550.18	42436.25
550.34	42918.40
550.51	43154.80
550.68	42878.61
550.84	42646.90
551.01	43145.44
551.18	42836.48
551.34	42787.33
551.51	43295.23
551.68	43091.60
551.84	43414.60
552.01	43063.52
552.18	42993.30
552.34	43068.20
552.51	43232.04
552.68	43442.68
552.84	43587.80
553.01	43428.64
553.18	43714.19
553.34	43475.45
553.51	43393.53
553.67	43810.15
553.84	43955.26
554.01	43838.23
554.17	43779.72
554.34	44051.22
554.51	43622.90
554.67	43866.32
554.84	44027.82
555.00	43501.20
555.17	43772.70
555.33	44264.21
555.50	44208.04
555.67	43978.67
555.83	43992.71
556.00	43873.34
556.16	44566.14
556.33	44371.88
556.50	44346.13
556.66	44069.95
556.83	44186.97
556.99	44285.28
557.16	44399.96
557.32	44573.16
557.49	44570.82
557.65	44304.00
557.82	44198.68
557.98	44376.56
558.15	43927.17
558.32	44341.45
558.48	44191.65
558.65	44493.58
558.81	44383.58
558.98	44505.29
559.14	44807.22
559.31	44238.47
559.47	44502.95
559.64	44680.83
559.80	44849.35
559.97	45027.23
560.13	44610.61
560.30	44769.77
560.46	45296.39
560.63	45333.84
560.79	45195.74
560.96	45598.32
561.12	44725.30
561.29	45076.38
561.45	45146.59
561.61	45275.32
561.78	45001.48
561.94	45064.67
562.11	44725.30
562.27	45251.92
562.44	45287.03
562.60	45167.66
562.77	45434.48
562.93	45167.66
563.10	45488.31
563.26	44992.12
563.42	45205.11
563.59	45170.00
563.75	45509.38
563.92	45584.27
564.08	45474.27
564.24	45317.45
564.41	45453.20
564.57	45509.38
564.74	45544.48
564.90	45521.08
565.07	45710.66
565.23	45469.59
565.39	45684.92
565.56	45928.33
565.72	45572.57
565.88	45610.02
566.05	45516.40
566.21	45542.14
566.38	45408.73
566.54	46012.59
566.70	45947.06
566.87	45869.82
567.03	45359.58
567.19	45563.21
567.36	45928.33
567.52	45624.06
567.68	45993.87
567.85	46026.63
568.01	46232.60
568.17	45764.49
568.34	45942.38
568.50	45731.73
568.66	45640.45
568.83	46267.71
568.99	45947.06
569.15	45897.91
569.32	46127.28
569.48	45734.07
569.64	46356.65
569.81	46007.91
569.97	46206.86
570.13	45787.90
570.30	45853.44
570.46	45972.80
570.62	46213.88
570.78	45918.97
570.95	46026.63
571.11	46305.16
571.27	46101.53
571.43	45942.38
571.60	46391.76
571.76	45804.28
571.92	46085.15
572.09	45720.02
572.25	45694.28
572.41	45956.42
572.57	46202.18
572.74	46412.82
572.90	45972.80
573.06	46499.42
573.22	45991.53
573.38	46082.81
573.55	46424.53
573.71	46555.60
573.87	46445.59
574.03	46115.58
574.20	46583.68
574.36	46068.76
574.52	46665.60
574.68	46162.39
574.84	46703.05
575.01	46546.23
575.17	46483.04
575.33	46536.87
575.49	46148.34
575.65	46312.18
575.82	46419.84
575.98	46134.30
576.14	46710.07
576.30	46717.09
576.46	46670.28
576.62	46277.07
576.79	46267.71
576.95	46068.76
577.11	46476.02
577.27	46082.81
577.43	46590.70
577.59	46415.16
577.75	46110.89
577.92	46073.45
578.08	46490.06
578.24	46642.20
578.40	46588.36
578.56	46768.58
578.72	46459.63
578.88	46944.12
579.04	46595.38
579.21	46244.30
579.37	46450.27
579.53	46639.86
579.69	46354.31
579.85	46373.03
580.01	46391.76
580.17	46859.87
580.33	46590.70
580.49	46557.94
580.65	46656.24
580.82	46244.30
580.98	46265.37
581.14	46162.39
581.30	46871.57
581.46	46843.48
581.62	46536.87
581.78	46213.88
581.94	46703.05
582.10	46293.46
582.26	46883.27
582.42	46602.41
582.58	46894.97
582.74	46883.27
582.90	47040.09
583.06	46768.58
583.22	46450.27
583.38	46782.63
583.54	46894.97
583.70	46300.48
583.86	46937.10
584.02	46604.75
584.18	46731.14
584.34	46953.49
584.50	46997.96
584.66	47030.72
584.82	46754.54
584.98	47210.95
585.14	46777.95
585.30	47075.19
585.46	46553.26
585.62	46555.60
585.78	47002.64
585.94	46342.61
586.10	46403.46
586.26	46485.38
586.42	46686.67
586.58	46632.83
586.74	46541.55
586.90	46890.29
587.06	46534.53
587.22	46602.41
587.38	46616.45
587.54	46824.76
587.70	46848.16
587.86	47107.96
588.02	46459.63
588.18	46637.51
588.34	46932.42
588.49	46869.23
588.65	47334.99
588.81	46515.81
588.97	47243.71
589.13	47093.92
589.29	47210.95
589.45	47533.94
589.61	46920.72
589.77	47398.19
589.93	46712.41
590.08	47030.72
