SpectraSuite Data File
++++++++++++++++++++++++++++++++++++
Date: Fri Oct 25 11:25:16 EDT 2013
User: price-jones
Dark Spectrum Present: No
Reference Spectrum Present: No
Number of Sampled Component Spectra: 1
Spectrometers: USB2+H05261
Integration Time (usec): 100000 (USB2+H05261)
Spectra Averaged: 1 (USB2+H05261)
Boxcar Smoothing: 0 (USB2+H05261)
Correct for Electrical Dark: No (USB2+H05261)
Strobe/Lamp Enabled: No (USB2+H05261)
Correct for Detector Non-linearity: No (USB2+H05261)
Correct for Stray Light: No (USB2+H05261)
Number of Pixels in Processed Spectrum: 2048
>>>>>Begin Processed Spectral Data<<<<<
365.73	168.52
365.92	168.52
366.12	168.52
366.32	170.86
366.52	175.54
366.72	161.50
366.91	79.58
367.11	152.13
367.31	168.52
367.51	102.98
367.70	98.30
367.90	159.16
368.10	114.69
368.30	198.95
368.49	126.39
368.69	163.84
368.89	154.48
369.09	168.52
369.28	191.92
369.48	182.56
369.68	194.26
369.87	238.73
370.07	224.69
370.27	290.23
370.47	332.36
370.66	648.33
370.86	608.54
371.06	676.41
371.25	617.90
371.45	690.46
371.65	648.33
371.84	669.39
372.04	720.88
372.24	814.51
372.44	718.54
372.63	669.39
372.83	690.46
373.03	716.20
373.22	702.16
373.42	718.54
373.62	767.70
373.81	805.14
374.01	777.06
374.21	774.72
374.40	777.06
374.60	901.11
374.79	847.27
374.99	734.93
375.19	866.00
375.38	882.38
375.58	882.38
375.78	901.11
375.97	823.87
376.17	959.62
376.37	851.96
376.56	837.91
376.76	840.25
376.95	861.32
377.15	819.19
377.35	933.87
377.54	950.26
377.74	891.74
377.93	887.06
378.13	915.15
378.33	957.28
378.52	957.28
378.72	980.68
378.91	987.71
379.11	954.94
379.31	990.05
379.50	905.79
379.70	912.81
379.89	987.71
380.09	959.62
380.28	922.17
380.48	992.39
380.68	966.64
380.87	1078.99
381.07	1015.79
381.26	1041.54
381.46	1107.07
381.65	1032.18
381.85	1095.37
382.04	1034.52
382.24	1086.01
382.43	1118.78
382.63	1022.81
382.83	1093.03
383.02	1095.37
383.22	1177.29
383.41	1043.88
383.61	1121.12
383.80	1151.54
384.00	1053.24
384.19	1034.52
384.39	1104.73
384.58	1184.31
384.78	1125.80
384.97	1214.74
385.17	1177.29
385.36	1144.52
385.56	1153.88
385.75	1128.14
385.95	1177.29
386.14	1153.88
386.34	1172.61
386.53	1196.01
386.72	1184.31
386.92	1224.10
387.11	1160.91
387.31	1245.16
387.50	1240.48
387.70	1303.68
387.89	1282.61
388.09	1275.59
388.28	1277.93
388.48	1371.55
388.67	1320.06
388.86	1210.06
389.06	1245.16
389.25	1228.78
389.45	1376.24
389.64	1371.55
389.84	1376.24
390.03	1362.19
390.22	1334.11
390.42	1348.15
390.61	1320.06
390.81	1409.00
391.00	1462.83
391.19	1500.28
391.39	1439.43
391.58	1430.07
391.78	1460.49
391.97	1504.96
392.16	1451.13
392.36	1537.73
392.55	1509.65
392.75	1547.09
392.94	1432.41
393.13	1495.60
393.33	1568.16
393.52	1523.69
393.71	1481.56
393.91	1549.43
394.10	1650.08
394.29	1657.10
394.49	1500.28
394.68	1607.95
394.88	1661.78
395.07	1598.59
395.26	1699.23
395.46	1554.12
395.65	1659.44
395.84	1636.03
396.04	1710.93
396.23	1708.59
396.42	1717.95
396.62	1762.42
396.81	1729.66
397.00	1753.06
397.19	1825.62
397.39	1811.57
397.58	1893.49
397.77	1799.87
397.97	1877.11
398.16	1823.28
398.35	1933.28
398.55	1844.34
398.74	1856.04
398.93	1961.37
399.12	1975.41
399.32	1952.01
399.51	1898.17
399.70	1907.54
399.90	2026.90
400.09	1944.99
400.28	2019.88
400.47	2090.10
400.67	2054.99
400.86	2057.33
401.05	2017.54
401.24	2125.21
401.44	2026.90
401.63	2080.74
401.82	2083.08
402.01	2174.36
402.21	2200.10
402.40	2141.59
402.59	2204.78
402.78	2179.04
402.97	2122.87
403.17	2246.91
403.36	2314.79
403.55	2347.56
403.74	2361.60
403.93	2326.49
404.13	2555.86
404.32	2459.90
404.51	2347.56
404.70	2363.94
404.89	2328.83
405.09	2532.46
405.28	2537.14
405.47	2420.11
405.66	2523.10
405.85	2518.42
406.05	2541.82
406.24	2480.97
406.43	2427.14
406.62	2555.86
406.81	2630.76
407.00	2471.61
407.20	2703.32
407.39	2698.64
407.58	2726.72
407.77	2665.87
407.96	2719.70
408.15	2778.22
408.34	2607.36
408.54	2745.45
408.73	2822.69
408.92	2815.66
409.11	2857.79
409.30	2862.48
409.49	2722.04
409.68	2928.01
409.87	2956.10
410.07	2998.23
410.26	2899.92
410.45	2974.82
410.64	2909.29
410.83	3042.70
411.02	3091.85
411.21	3199.51
411.40	3119.93
411.59	3281.43
411.78	3260.37
411.98	3143.34
412.17	3243.98
412.36	3176.11
412.55	3419.52
412.74	3442.93
412.93	3314.20
413.12	3283.77
413.31	3368.03
413.50	3382.07
413.69	3424.20
413.88	3616.13
414.07	3545.91
414.26	3620.81
414.45	3503.78
414.64	3749.54
414.83	3784.65
415.02	3723.79
415.22	3768.26
415.41	3829.12
415.60	3805.71
415.79	3775.28
415.98	3918.06
416.17	3964.87
416.36	3817.41
416.55	3852.52
416.74	4051.47
416.93	3960.19
417.12	4234.03
417.31	3995.29
417.50	4107.64
417.69	4173.18
417.88	4191.90
418.07	4245.73
418.26	4194.24
418.45	4245.73
418.64	4367.44
418.83	4470.42
419.02	4454.04
419.21	4580.43
419.39	4634.26
419.58	4325.31
419.77	4470.42
419.96	4603.83
420.15	4545.32
420.34	4711.50
420.53	4503.19
420.72	4622.56
420.91	4643.62
421.10	4648.30
421.29	4734.90
421.48	4664.69
421.67	4669.37
421.86	4856.61
422.05	4697.46
422.24	4807.46
422.43	4851.93
422.61	4819.16
422.80	4870.65
422.99	4835.55
423.18	4936.19
423.37	4837.89
423.56	5001.72
423.75	4994.70
423.94	4957.25
424.13	4528.94
424.32	4683.41
424.50	4882.36
424.69	4980.66
424.88	5174.92
425.07	4940.87
425.26	4819.16
425.45	5032.15
425.64	5034.49
425.83	5057.90
426.01	5123.43
426.20	5083.64
426.39	5046.20
426.58	5067.26
426.77	5043.85
426.96	5191.31
427.15	4931.51
427.33	5107.05
427.52	5004.07
427.71	5165.56
427.90	5203.01
428.09	5203.01
428.28	5224.08
428.46	5268.55
428.65	5327.06
428.84	5430.04
429.03	5315.36
429.22	5245.14
429.40	5502.60
429.59	5385.57
429.78	5151.52
429.97	5280.25
430.16	5535.37
430.34	5694.52
430.53	5523.66
430.72	5540.05
430.91	5530.69
431.10	5638.35
431.28	5664.10
431.47	5736.65
431.66	5748.36
431.85	5687.50
432.03	5919.21
432.22	5916.87
432.41	5778.78
432.60	5881.77
432.79	5907.51
432.97	5834.96
433.16	5975.39
433.35	6099.44
433.54	6148.59
433.72	6120.50
433.91	6094.76
434.10	6031.56
434.28	6104.12
434.47	6073.69
434.66	6129.86
434.85	6270.30
435.03	6242.21
435.22	6139.23
435.41	6408.39
435.59	6246.89
435.78	6181.35
435.97	6307.74
436.16	6356.90
436.34	6246.89
436.53	6525.41
436.72	6612.01
436.90	6314.77
437.09	6581.59
437.28	6459.88
437.46	6686.91
437.65	6607.33
437.84	6544.14
438.02	6799.26
438.21	6539.46
438.40	6595.63
438.58	6981.82
438.77	7110.55
438.96	6787.55
439.14	7122.25
439.33	7091.82
439.52	7225.23
439.70	7241.62
439.89	7426.52
440.08	7400.77
440.26	7241.62
440.45	7225.23
440.63	7377.37
440.82	7487.37
441.01	7330.56
441.19	7503.76
441.38	7737.81
441.57	7548.23
441.75	7653.55
441.94	7789.30
442.12	7674.62
442.31	7882.92
442.50	7854.84
442.68	7882.92
442.87	8006.97
443.05	8093.57
443.24	8201.24
443.43	8053.78
443.61	8081.87
443.80	8269.11
443.98	7920.37
444.17	7915.69
444.35	8159.11
444.54	8294.86
444.73	8390.82
444.91	8383.80
445.10	8355.71
445.28	8311.24
445.47	8306.56
445.65	8229.32
445.84	8360.39
446.02	8346.35
446.21	8468.06
446.39	8390.82
446.58	8739.56
446.77	8280.82
446.95	8311.24
447.14	8428.27
447.32	8493.80
447.51	8278.47
447.69	8262.09
447.88	8320.60
448.06	8414.23
448.25	8313.58
448.43	8484.44
448.62	8383.80
448.80	8531.25
448.99	8711.47
449.17	8458.70
449.36	8542.96
449.54	8725.52
449.73	8879.99
449.91	8875.31
450.10	8938.51
450.28	9039.15
450.46	8943.19
450.65	8737.22
450.83	8849.57
451.02	8912.76
451.20	9245.12
451.39	9020.42
451.57	8945.53
451.76	9032.13
451.94	8842.54
452.13	9376.19
452.31	9163.20
452.49	9001.70
452.68	9174.90
452.86	9287.25
453.05	9572.79
453.23	9418.32
453.42	9348.10
453.60	9327.03
453.78	9589.17
453.97	9352.78
454.15	9540.02
454.34	9423.00
454.52	9673.43
454.70	9598.54
454.89	9619.60
455.07	9626.62
455.26	9778.76
455.44	9839.61
455.62	9617.26
455.81	9867.70
455.99	9844.29
456.17	9975.36
456.36	10071.33
456.54	10235.16
456.73	10043.24
456.91	10223.46
457.09	10501.98
457.28	10579.22
457.46	10085.37
457.64	10464.54
457.83	10544.11
458.01	10340.49
458.19	10579.22
458.38	10396.66
458.56	10761.78
458.74	10438.79
458.93	10719.65
459.11	10434.11
459.29	10445.81
459.48	10509.01
459.66	10827.32
459.84	10951.37
460.03	11183.08
460.21	10918.60
460.39	10665.82
460.57	10848.38
460.76	10927.96
460.94	10916.26
461.12	10977.11
461.31	11194.78
461.49	11035.63
461.67	11023.92
461.85	11229.89
462.04	11204.14
462.22	11698.00
462.40	11634.80
462.59	11538.84
462.77	11447.56
462.95	11683.95
463.13	11428.84
463.32	11604.38
463.50	11754.17
463.68	11754.17
463.86	11875.88
464.05	11644.17
464.23	11571.61
464.41	11522.46
464.59	11475.65
464.78	12133.34
464.96	12081.85
465.14	11817.36
465.32	12051.42
465.50	12077.16
465.69	12189.51
465.87	11850.13
466.05	12189.51
466.23	12231.64
466.41	12098.23
466.60	12355.69
466.78	11981.20
466.96	12112.27
467.14	12217.60
467.32	12271.43
467.51	12372.07
467.69	11892.26
467.87	12184.83
468.05	12507.82
468.23	12325.26
468.41	12322.92
468.60	12503.14
468.78	12554.63
468.96	12418.88
469.14	12765.28
469.32	12793.37
469.50	12425.90
469.69	12744.22
469.87	13238.07
470.05	12765.28
470.23	13083.59
470.41	12994.65
470.59	13312.97
470.77	13116.36
470.95	13064.87
471.14	13287.22
471.32	12931.46
471.50	13575.11
471.68	13308.29
471.86	13626.60
472.04	13593.83
472.22	14064.28
472.40	13570.43
472.58	13713.20
472.77	13680.43
472.95	14033.85
473.13	14415.36
473.31	13767.03
473.49	14047.90
473.67	14232.80
473.85	14045.55
474.03	14452.81
474.21	14736.01
474.39	14684.52
474.57	14511.32
474.75	14595.58
474.93	14773.46
475.12	14930.28
475.30	14974.75
475.48	15030.92
475.66	15126.88
475.84	15204.12
476.02	15286.04
476.20	15297.74
476.38	15730.74
476.56	15812.66
476.74	15686.27
476.92	15899.26
477.10	15822.02
477.28	15887.56
477.46	16086.50
477.64	15957.77
477.82	16587.38
478.00	16800.37
478.18	16681.00
478.36	16676.32
478.54	16847.18
478.72	16957.18
478.90	17366.78
479.08	17322.30
479.26	17357.41
479.44	17401.88
479.62	17626.57
479.80	17965.95
479.98	17961.27
480.16	18333.42
480.34	17795.09
480.52	18511.30
480.70	18312.35
480.88	18174.26
481.06	18665.77
481.24	18874.08
481.41	18909.19
481.59	19262.61
481.77	19737.74
481.95	19506.02
482.13	19580.92
482.31	19407.72
482.49	20173.08
482.67	20285.42
482.85	20278.40
483.03	20271.38
483.21	20329.89
483.39	20753.53
483.57	20645.87
483.74	20819.07
483.92	21104.61
484.10	20826.09
484.28	21975.29
484.46	21968.27
484.64	22253.81
484.82	21816.13
485.00	22099.34
485.18	22630.64
485.35	22391.91
485.53	22560.42
485.71	23016.83
485.89	23285.99
486.07	23241.52
486.25	23047.26
486.43	23805.59
486.61	23758.78
486.78	23733.03
486.96	23768.14
487.14	24414.13
487.32	24617.75
487.50	24875.21
487.68	25076.50
487.85	25153.74
488.03	25226.29
488.21	25584.40
488.39	25895.69
488.57	25809.09
488.75	25605.46
488.92	26024.42
489.10	26735.94
489.28	26441.03
489.46	27363.20
489.64	26808.50
489.81	27098.72
489.99	27388.95
490.17	27702.58
490.35	27976.42
490.53	27850.03
490.70	28016.21
490.88	27810.25
491.06	28835.40
491.24	28664.54
491.41	28479.64
491.59	28804.97
491.77	28863.49
491.95	29483.73
492.13	29685.01
492.30	29785.66
492.48	29621.82
492.66	29916.73
492.84	30087.59
493.01	30607.19
493.19	30209.29
493.37	30710.17
493.54	31302.32
493.72	31452.12
493.90	31147.85
494.08	31213.38
494.25	31711.92
494.43	31997.46
494.61	32231.52
494.79	32268.97
494.96	32250.24
495.14	32582.60
495.32	32985.17
495.49	32847.08
495.67	32844.74
495.85	33212.20
496.02	33516.47
496.20	33811.38
496.38	33942.45
496.55	34085.22
496.73	34321.62
496.91	34352.04
497.09	34581.42
497.26	34693.76
497.44	34422.26
497.62	35175.91
497.79	35501.25
497.97	35112.72
498.14	35796.15
498.32	35959.99
498.50	35789.13
498.67	36182.34
498.85	36226.81
499.03	36273.62
499.20	36058.29
499.38	36449.16
499.56	36655.13
499.73	36830.67
499.91	37219.20
500.08	37659.22
500.26	36907.91
500.44	37661.56
500.61	37766.88
500.79	37837.10
500.97	37596.03
501.14	38143.71
501.32	38043.07
501.49	38539.26
501.67	38307.55
501.84	38270.10
502.02	38295.85
502.20	38873.96
502.37	39372.49
502.55	39302.28
502.72	39220.36
502.90	39220.36
503.07	38962.90
503.25	39744.64
503.43	39777.40
503.60	39604.20
503.78	39585.48
503.95	39880.39
504.13	40205.72
504.30	40364.88
504.48	40603.61
504.65	40758.09
504.83	40830.65
505.01	40811.92
505.18	40533.40
505.36	40994.48
505.53	40849.37
505.71	41219.17
505.88	41502.38
506.06	41375.99
506.23	41574.94
506.41	41464.93
506.58	41935.38
506.76	41874.52
506.93	41769.20
507.11	41670.90
507.28	42078.15
507.46	42277.10
507.63	42436.25
507.81	42803.72
507.98	42747.54
508.16	43047.13
508.33	43297.57
508.50	43166.50
508.68	43320.98
508.85	43571.41
509.03	43540.99
509.20	43421.62
509.38	43821.85
509.55	44137.82
509.73	43777.38
509.90	44151.87
510.08	44329.75
510.25	44371.88
510.42	44498.26
510.60	45254.26
510.77	44949.99
510.95	44947.65
511.12	44697.21
511.30	44865.73
511.47	44994.46
511.64	45289.37
511.82	45902.59
511.99	45373.63
512.17	45535.12
512.34	45523.42
512.51	45886.20
512.69	46122.60
512.86	46176.43
513.04	46459.63
513.21	46197.49
513.38	46625.81
513.56	46740.50
513.73	46478.36
513.90	46806.03
514.08	46515.81
514.25	47222.65
514.43	47201.58
514.60	47276.48
514.77	47222.65
514.95	47494.15
515.12	47147.75
515.29	47206.26
515.47	47384.15
515.64	47662.67
515.81	47608.84
515.99	47807.78
516.16	48149.50
516.33	47730.54
516.51	48687.82
516.68	48119.07
516.85	48069.92
517.03	48533.35
517.20	48598.88
517.37	48437.39
517.54	48776.76
517.72	48755.70
517.89	48741.66
518.06	48818.89
518.24	49249.55
518.41	49013.16
518.58	48837.62
518.75	49081.03
518.93	49181.68
519.10	49242.53
519.27	49593.61
519.45	49483.61
519.62	49633.40
519.79	49712.98
519.96	49591.27
520.14	49935.33
520.31	49886.18
520.48	50131.93
520.65	50099.17
520.83	50225.56
521.00	50326.20
521.17	50653.87
521.34	50475.99
521.52	50424.50
521.69	50602.38
521.86	50796.65
522.03	51037.72
522.20	51026.02
522.38	51360.72
522.55	51040.06
522.72	50887.93
522.89	50962.82
523.07	51650.94
523.24	51147.73
523.41	51522.21
523.58	51264.75
523.75	51531.57
523.92	51316.25
524.10	51538.60
524.27	51915.42
524.44	51650.94
524.61	51931.81
524.78	51941.17
524.96	52009.04
525.13	52102.67
525.30	52074.58
525.47	52238.42
525.64	52423.32
525.81	52568.43
525.98	52388.21
526.16	52207.99
526.33	52428.00
526.50	52568.43
526.67	52828.23
526.84	52612.90
527.01	52800.15
527.18	52832.91
527.36	52636.31
527.53	52924.19
527.70	52971.00
527.87	52809.51
528.04	53013.13
528.21	53083.35
528.38	52982.71
528.55	53387.62
528.72	52987.39
528.89	53535.07
529.07	53111.44
529.24	53066.97
529.41	53366.55
529.58	53429.75
529.75	53308.04
529.92	53439.11
530.09	53422.73
530.26	53848.71
530.43	53778.49
530.60	53333.79
530.77	53570.18
530.94	53778.49
531.11	53844.02
531.28	53991.48
531.46	54010.20
531.63	54190.42
531.80	54265.32
531.97	54096.80
532.14	54377.67
532.31	54293.41
532.48	54017.22
532.65	54494.69
532.82	54351.92
532.99	54487.67
533.16	54571.93
533.33	54468.95
533.50	54658.53
533.67	54307.45
533.84	54548.53
534.01	54761.51
534.18	54899.61
534.35	54941.74
534.52	55004.93
534.69	54747.47
534.86	55124.30
535.03	54983.86
535.20	55091.53
535.37	54983.86
535.54	55173.45
535.71	54939.39
535.88	55114.94
536.05	55150.04
536.22	55545.59
536.38	55140.68
536.55	55533.89
536.72	55365.37
536.89	55302.18
537.06	55571.34
537.23	55770.28
537.40	55386.44
537.57	55508.14
537.74	55711.77
537.91	55592.40
538.08	55664.96
538.25	55496.44
538.42	55690.71
538.59	55824.12
538.75	55828.80
538.92	55784.33
539.09	56009.02
539.26	55800.71
539.43	55899.01
539.60	56083.92
539.77	56067.53
539.94	56317.97
540.11	56044.13
540.28	56032.42
540.44	56254.78
540.61	56264.14
540.78	56179.88
540.95	56135.41
541.12	56207.97
541.29	56353.08
541.46	56390.53
541.62	56334.35
541.79	56631.60
541.96	56240.73
542.13	56390.53
542.30	56486.49
542.47	56725.22
542.63	56666.71
542.80	56683.09
542.97	57006.09
543.14	57045.88
543.31	56776.72
543.48	56963.96
543.64	57298.65
543.81	57368.87
543.98	57207.37
544.15	57198.01
544.32	57181.63
544.48	57396.96
544.65	57132.48
544.82	57216.74
544.99	57181.63
545.16	57205.03
545.32	57029.49
545.49	57616.97
545.66	57453.13
545.83	57457.81
546.00	57771.44
546.16	57516.32
546.33	57190.99
546.50	57172.27
546.67	57427.38
546.83	57427.38
547.00	57719.95
547.17	57521.01
547.34	57616.97
547.50	57935.28
547.67	57811.23
547.84	57736.34
548.00	57886.13
548.17	57921.24
548.34	57855.70
548.51	58113.16
548.67	58155.29
548.84	57972.73
549.01	57703.57
549.18	57982.09
549.34	58106.14
549.51	58199.76
549.68	58239.55
549.84	58197.42
550.01	58169.33
550.18	58159.97
550.34	58255.93
550.51	58459.56
550.68	58277.00
550.84	58188.06
551.01	58426.79
551.18	58389.34
551.34	58314.45
551.51	58251.25
551.68	58599.99
551.84	58358.92
552.01	58267.64
552.18	58581.27
552.34	58642.12
552.51	58419.77
552.68	58375.30
552.84	58536.80
553.01	58766.17
553.18	58646.80
553.34	58787.24
553.51	58293.38
553.67	58782.55
553.84	58646.80
554.01	58688.93
554.17	58838.73
554.34	58871.49
554.51	58894.90
554.67	58742.77
554.84	58904.26
555.00	58834.05
555.17	58810.64
555.33	58829.37
555.50	58976.82
555.67	58721.70
555.83	58688.93
556.00	58937.03
556.16	59306.83
556.33	59047.04
556.50	58983.84
556.66	59140.66
556.83	58960.44
556.99	59042.35
557.16	59423.86
557.32	59166.40
557.49	59533.87
557.65	59185.13
557.82	59250.66
557.98	59089.16
558.15	59016.61
558.32	59482.37
558.48	59196.83
558.65	59201.51
558.81	59241.30
558.98	59318.54
559.14	59365.35
559.31	59402.80
559.47	59498.76
559.64	59568.97
559.80	59510.46
559.97	59529.19
560.13	59313.86
560.30	59657.91
560.46	59540.89
560.63	59641.53
560.79	59718.77
560.96	59690.68
561.12	59683.66
561.29	59536.21
561.45	59650.89
561.61	59585.36
561.78	59730.47
561.94	59615.79
562.11	59529.19
562.27	59599.40
562.44	59714.09
562.60	59821.75
562.77	59781.96
562.93	59739.83
563.10	59894.31
563.26	59629.83
563.42	59873.24
563.59	59482.37
563.75	59737.49
563.92	59889.63
564.08	59634.51
564.24	60041.76
564.41	59959.84
564.57	60048.78
564.74	59882.61
564.90	59812.39
565.07	60221.98
565.23	59849.84
565.39	59950.48
565.56	60130.70
565.72	59987.93
565.88	60018.36
566.05	60065.17
566.21	59859.20
566.38	60032.40
566.54	60151.77
566.70	60240.71
566.87	60114.32
567.03	60116.66
567.19	60107.30
567.36	60212.62
567.52	60123.68
567.68	60477.10
567.85	60137.72
568.01	60343.69
568.17	60013.68
568.34	60275.82
568.50	60191.56
568.66	60261.77
568.83	60250.07
568.99	60327.31
569.15	60271.14
569.32	60221.98
569.48	60273.48
569.64	60315.61
569.81	60191.56
569.97	60193.90
570.13	60191.56
570.30	60104.96
570.46	60240.71
570.62	60285.18
570.78	60357.74
570.95	60381.14
571.11	60406.89
571.27	60212.62
571.43	60409.23
571.60	60404.55
571.76	60250.07
571.92	60441.99
572.09	60346.03
572.25	60317.95
572.41	60193.90
572.57	60371.78
572.74	60441.99
572.90	60168.15
573.06	60360.08
573.22	60324.97
573.38	60374.12
573.55	60420.93
573.71	60617.53
573.87	60629.24
574.03	60296.88
574.20	60554.34
574.36	60441.99
574.52	60671.37
574.68	60582.43
574.84	60434.97
575.01	60596.47
575.17	60409.23
575.33	60486.46
575.49	60404.55
575.65	60481.78
575.82	60629.24
575.98	60484.12
576.14	60757.97
576.30	60540.30
576.46	60512.21
576.62	60680.73
576.79	60486.46
576.95	60397.52
577.11	60640.94
577.27	60633.92
577.43	60725.20
577.59	60617.53
577.75	60708.82
577.92	60650.30
578.08	60505.19
578.24	60633.92
578.40	61073.94
578.56	60917.12
578.72	60739.24
578.88	60729.88
579.04	60917.12
579.21	60849.25
579.37	60739.24
579.53	60783.71
579.69	60486.46
579.85	60708.82
580.01	60495.83
580.17	60561.36
580.33	60624.56
580.49	60755.63
580.65	60662.00
580.82	60594.13
580.98	60647.96
581.14	60559.02
581.30	60938.19
581.46	60622.22
581.62	60762.65
581.78	60683.07
581.94	60835.20
582.10	60793.07
582.26	60846.91
582.42	60762.65
582.58	60783.71
582.74	60835.20
582.90	60844.57
583.06	60970.96
583.22	60673.71
583.38	60884.36
583.54	60788.39
583.70	60685.41
583.86	60671.37
584.02	60720.52
584.18	60823.50
584.34	60750.94
584.50	60624.56
584.66	60603.49
584.82	60678.39
584.98	61034.15
585.14	60910.10
585.30	60821.16
585.46	60867.97
585.62	60853.93
585.78	61090.32
585.94	60706.47
586.10	60804.78
586.26	60994.36
586.42	60809.46
586.58	60821.16
586.74	60865.63
586.90	60699.45
587.06	60954.57
587.22	61034.15
587.38	61013.08
587.54	61045.85
587.70	60989.68
587.86	60783.71
588.02	60886.70
588.18	60905.42
588.34	60858.61
588.49	60849.25
