SpectraSuite Data File
++++++++++++++++++++++++++++++++++++
Date: Fri Oct 25 10:44:17 EDT 2013
User: price-jones
Dark Spectrum Present: No
Reference Spectrum Present: No
Number of Sampled Component Spectra: 1
Spectrometers: USB2+H05261
Integration Time (usec): 100000 (USB2+H05261)
Spectra Averaged: 1 (USB2+H05261)
Boxcar Smoothing: 0 (USB2+H05261)
Correct for Electrical Dark: No (USB2+H05261)
Strobe/Lamp Enabled: No (USB2+H05261)
Correct for Detector Non-linearity: No (USB2+H05261)
Correct for Stray Light: No (USB2+H05261)
Number of Pixels in Processed Spectrum: 2048
>>>>>Begin Processed Spectral Data<<<<<
365.73	156.82
365.92	156.82
366.12	156.82
366.32	42.13
366.52	2.34
366.72	56.17
366.91	32.77
367.11	35.11
367.31	28.09
367.51	0.00
367.70	0.00
367.90	95.96
368.10	14.04
368.30	51.49
368.49	0.00
368.69	0.00
368.89	84.26
369.09	28.09
369.28	46.81
369.48	0.00
369.68	79.58
369.87	102.98
370.07	14.04
370.27	154.48
370.47	159.16
370.66	447.04
370.86	414.27
371.06	458.74
371.25	479.81
371.45	435.34
371.65	533.64
371.84	468.11
372.04	397.89
372.24	519.60
372.44	493.85
372.63	517.26
372.83	543.00
373.03	517.26
373.22	500.87
373.42	571.09
373.62	519.60
373.81	564.07
374.01	514.92
374.21	615.56
374.40	575.77
374.60	538.32
374.79	669.39
374.99	589.82
375.19	575.77
375.38	641.31
375.58	601.52
375.78	627.26
375.97	685.78
376.17	624.92
376.37	601.52
376.56	564.07
376.76	552.37
376.95	601.52
377.15	720.88
377.35	660.03
377.54	617.90
377.74	636.63
377.93	622.58
378.13	653.01
378.33	643.65
378.52	648.33
378.72	681.10
378.91	638.97
379.11	725.57
379.31	629.60
379.50	638.97
379.70	634.29
379.89	645.99
380.09	601.52
380.28	653.01
380.48	676.41
380.68	725.57
380.87	744.29
381.07	704.50
381.26	732.59
381.46	725.57
381.65	781.74
381.85	695.14
382.04	734.93
382.24	702.16
382.43	723.23
382.63	638.97
382.83	720.88
383.02	669.39
383.22	763.01
383.41	751.31
383.61	814.51
383.80	751.31
384.00	748.97
384.19	699.82
384.39	779.40
384.58	800.46
384.78	889.40
384.97	795.78
385.17	737.27
385.36	873.02
385.56	826.21
385.75	716.20
385.95	877.70
386.14	915.15
386.34	884.72
386.53	915.15
386.72	849.61
386.92	877.70
387.11	905.79
387.31	816.85
387.50	866.00
387.70	809.83
387.89	851.96
388.09	828.55
388.28	901.11
388.48	994.73
388.67	903.45
388.86	891.74
389.06	917.49
389.25	938.55
389.45	978.34
389.64	1039.20
389.84	1055.58
390.03	966.64
390.22	1018.13
390.42	985.37
390.61	1081.33
390.81	1029.84
391.00	1057.92
391.19	1181.97
391.39	1060.26
391.58	1013.45
391.78	1004.09
391.97	1018.13
392.16	978.34
392.36	1041.54
392.55	1060.26
392.75	1067.28
392.94	1025.15
393.13	968.98
393.33	952.60
393.52	1069.62
393.71	1177.29
393.91	1146.86
394.10	1088.35
394.29	1121.12
394.49	1170.27
394.68	1247.51
394.88	1249.85
395.07	1259.21
395.26	1348.15
395.46	1203.04
395.65	1313.04
395.84	1172.61
396.04	1273.25
396.23	1156.22
396.42	1137.50
396.62	1177.29
396.81	1256.87
397.00	1259.21
397.19	1181.97
397.39	1289.64
397.58	1324.74
397.77	1390.28
397.97	1306.02
398.16	1401.98
398.35	1451.13
398.55	1423.05
398.74	1495.60
398.93	1526.03
399.12	1488.58
399.32	1472.20
399.51	1497.94
399.70	1605.61
399.90	1600.93
400.09	1535.39
400.28	1633.69
400.47	1556.46
400.67	1621.99
400.86	1699.23
401.05	1631.35
401.24	1643.06
401.44	1797.53
401.63	1724.97
401.82	1757.74
402.01	1734.34
402.21	1790.51
402.40	1750.72
402.59	1797.53
402.78	1727.32
402.97	1722.63
403.17	1710.93
403.36	1764.76
403.55	1818.60
403.74	1935.62
403.93	1921.58
404.13	1877.11
404.32	1867.75
404.51	1867.75
404.70	1926.26
404.89	1959.03
405.09	1954.35
405.28	1947.33
405.47	1980.09
405.66	1959.03
405.85	2015.20
406.05	1987.11
406.24	2111.16
406.43	2122.87
406.62	2054.99
406.81	2106.48
407.00	2047.97
407.20	2024.56
407.39	2090.10
407.58	2083.08
407.77	2136.91
407.96	2211.81
408.15	2132.23
408.34	2162.66
408.54	2279.68
408.73	2317.13
408.92	2207.13
409.11	2258.62
409.30	2345.22
409.49	2235.21
409.68	2352.24
409.87	2263.30
410.07	2282.02
410.26	2272.66
410.45	2408.41
410.64	2464.58
410.83	2513.74
411.02	2555.86
411.21	2605.02
411.40	2438.84
411.59	2677.57
411.78	2605.02
411.98	2523.10
412.17	2661.19
412.36	2696.30
412.55	2775.88
412.74	2696.30
412.93	2679.91
413.12	2722.04
413.31	2946.73
413.50	2792.26
413.69	2796.94
413.88	2897.58
414.07	2892.90
414.26	2909.29
414.45	3035.67
414.64	3077.80
414.83	2963.12
415.02	3101.21
415.22	3155.04
415.41	3077.80
415.60	3122.27
415.79	3155.04
415.98	3316.54
416.17	3187.81
416.36	3241.64
416.55	3183.13
416.74	3246.32
416.93	3162.06
417.12	3384.41
417.31	3445.27
417.50	3384.41
417.69	3452.29
417.88	3447.61
418.07	3433.57
418.26	3412.50
418.45	3473.36
418.64	3557.61
418.83	3499.10
419.02	3597.40
419.21	3517.83
419.39	3478.04
419.58	3585.70
419.77	3520.17
419.96	3772.94
420.15	3796.35
420.34	3672.30
420.53	3686.34
420.72	3754.22
420.91	3859.54
421.10	3887.63
421.29	3836.14
421.48	3819.75
421.67	3831.46
421.86	3812.73
422.05	3805.71
422.24	3843.16
422.43	3838.48
422.61	3913.38
422.80	3920.40
422.99	4032.74
423.18	3829.12
423.37	3939.12
423.56	3880.61
423.75	3817.41
423.94	3892.31
424.13	3721.45
424.32	3786.99
424.50	3941.46
424.69	3887.63
424.88	4021.04
425.07	3829.12
425.26	3861.88
425.45	3955.51
425.64	3920.40
425.83	4002.32
426.01	4016.36
426.20	3960.19
426.39	3817.41
426.58	4004.66
426.77	3892.31
426.96	4030.40
427.15	4023.38
427.33	4100.62
427.52	4074.87
427.71	4077.21
427.90	4119.34
428.09	4105.30
428.28	4194.24
428.46	4159.13
428.65	4107.64
428.84	4227.01
429.03	4318.29
429.22	4177.86
429.40	3995.29
429.59	4262.12
429.78	3999.98
429.97	4009.34
430.16	4023.38
430.34	4063.17
430.53	4236.37
430.72	4292.54
430.91	4278.50
431.10	4404.89
431.28	4587.45
431.47	4601.49
431.66	4669.37
431.85	4535.96
432.03	4678.73
432.22	4706.82
432.41	4718.52
432.60	4629.58
432.79	4781.71
432.97	4800.44
433.16	4727.88
433.35	4608.51
433.54	4697.46
433.72	4692.77
433.91	4503.19
434.10	4884.70
434.28	4720.86
434.47	4933.85
434.66	4943.21
434.85	4812.14
435.03	4983.00
435.22	4847.25
435.41	5083.64
435.59	4990.02
435.78	4971.30
435.97	5210.03
436.16	5135.14
436.34	5165.56
436.53	5104.71
436.72	5270.89
436.90	5076.62
437.09	5156.20
437.28	5207.69
437.46	5247.48
437.65	5114.07
437.84	5231.10
438.02	5109.39
438.21	5198.33
438.40	5163.22
438.58	5369.19
438.77	5582.18
438.96	5451.11
439.14	5624.31
439.33	5586.86
439.52	5657.07
439.70	5607.92
439.89	5731.97
440.08	5682.82
440.26	5907.51
440.45	5643.03
440.63	5825.59
440.82	5832.62
441.01	5872.40
441.19	5909.85
441.38	6076.03
441.57	6108.80
441.75	6197.74
441.94	6459.88
442.12	6237.53
442.31	6424.77
442.50	6347.53
442.68	6359.24
442.87	6193.06
443.05	6389.66
443.24	6438.81
443.43	6298.38
443.61	6417.75
443.80	6497.33
443.98	6375.62
444.17	6380.30
444.35	6609.67
444.54	6677.55
444.73	6492.65
444.91	6544.14
445.10	6347.53
445.28	6551.16
445.47	6345.19
445.65	6424.77
445.84	6525.41
446.02	6485.62
446.21	6600.31
446.39	6715.00
446.58	6626.06
446.77	6619.04
446.95	6471.58
447.14	6600.31
447.32	6609.67
447.51	6616.69
447.69	6661.16
447.88	6586.27
448.06	6672.87
448.25	6792.23
448.43	6782.87
448.62	6810.96
448.80	6827.34
448.99	7026.29
449.17	6712.66
449.36	6815.64
449.54	6920.96
449.73	7045.01
449.91	7192.47
450.10	7105.87
450.28	7023.95
450.46	7138.63
450.65	7330.56
450.83	7318.86
451.02	7115.23
451.20	7300.13
451.39	7433.54
451.57	7159.70
451.76	7056.72
451.94	7311.83
452.13	7323.54
452.31	7178.42
452.49	7232.26
452.68	7339.92
452.86	7274.38
453.05	7157.36
453.23	7344.60
453.42	7360.98
453.60	7265.02
453.78	7676.96
453.97	7346.94
454.15	7428.86
454.34	7440.56
454.52	7545.89
454.70	7459.29
454.89	7517.80
455.07	7735.47
455.26	7653.55
455.44	8021.02
455.62	7660.57
455.81	7772.92
455.99	8058.46
456.17	7845.48
456.36	7936.76
456.54	8049.10
456.73	7932.08
456.91	8079.53
457.09	8287.84
457.28	8100.59
457.46	8105.28
457.64	8135.70
457.83	7957.82
458.01	8060.80
458.19	8271.45
458.38	8201.24
458.56	8283.16
458.74	8280.82
458.93	8280.82
459.11	8285.50
459.29	8222.30
459.48	8437.63
459.66	8421.25
459.84	8444.65
460.03	8414.23
460.21	8662.32
460.39	8388.48
460.57	8425.93
460.76	8449.33
460.94	8725.52
461.12	8734.88
461.31	8662.32
461.49	8645.94
461.67	8510.19
461.85	8992.34
462.04	8826.16
462.22	8889.35
462.40	8793.39
462.59	8982.98
462.77	8821.48
462.95	8952.55
463.13	8833.18
463.32	8997.02
463.50	8987.66
463.68	8961.91
463.86	9055.53
464.05	8805.10
464.23	8945.53
464.41	9186.60
464.59	8812.12
464.78	9057.87
464.96	9233.41
465.14	9013.40
465.32	9207.67
465.50	9219.37
465.69	9453.42
465.87	9448.74
466.05	9312.99
466.23	9167.88
466.41	9116.39
466.60	9355.12
466.78	9437.04
466.96	9338.74
467.14	9397.25
467.32	9350.44
467.51	9514.28
467.69	9242.78
467.87	9448.74
468.05	9575.13
468.23	9462.79
468.41	9467.47
468.60	9458.10
468.78	9605.56
468.96	9547.05
469.14	9673.43
469.32	9909.83
469.50	9509.60
469.69	9734.29
469.87	9820.89
470.05	9846.63
470.23	9788.12
470.41	9951.96
470.59	9944.94
470.77	9781.10
470.95	10061.96
471.14	10162.61
471.32	10246.87
471.50	10312.40
471.68	10359.21
471.86	10272.61
472.04	10373.25
472.22	10611.99
472.40	10403.68
472.58	10661.14
472.77	10497.30
472.95	10731.36
473.13	10817.96
473.31	10579.22
473.49	10597.95
473.67	10729.02
473.85	10724.33
474.03	11049.67
474.21	11115.20
474.39	10944.34
474.57	10953.71
474.75	11309.47
474.93	11424.15
475.12	11215.85
475.30	11356.28
475.48	11140.95
475.66	11489.69
475.84	11260.32
476.02	11419.47
476.20	11290.74
476.38	11543.52
476.56	11819.71
476.74	11751.83
476.92	11812.68
477.10	11988.22
477.28	12149.72
477.46	12271.43
477.64	12222.28
477.82	12489.10
478.00	12741.88
478.18	12453.99
478.36	12496.12
478.54	12615.49
478.72	12741.88
478.90	12669.32
479.08	13020.40
479.26	13200.62
479.44	13362.12
479.62	13282.54
479.80	13315.31
479.98	13544.68
480.16	13558.72
480.34	13528.30
480.52	14038.53
480.70	13701.50
480.88	13406.59
481.06	13942.57
481.24	13827.88
481.41	14216.41
481.59	14637.71
481.77	14436.42
481.95	14429.40
482.13	14478.55
482.31	14354.51
482.49	14878.79
482.67	14698.56
482.85	15105.82
483.03	15342.21
483.21	15335.19
483.39	15499.03
483.57	15264.97
483.74	15613.71
483.92	15426.47
484.10	15573.92
484.28	15999.90
484.46	15807.98
484.64	16407.16
484.82	16297.15
485.00	16374.39
485.18	16578.01
485.35	16472.69
485.53	16044.37
485.71	16299.49
485.89	16582.70
486.07	16238.64
486.25	16610.78
486.43	16816.75
486.61	17029.74
486.78	17373.80
486.96	17160.81
487.14	17774.03
487.32	17877.01
487.50	18108.72
487.68	18321.71
487.85	18253.84
488.03	18640.03
488.21	18668.11
488.39	18405.97
488.57	18647.05
488.75	19040.26
488.92	18951.32
489.10	19379.64
489.28	19295.38
489.46	19515.39
489.64	19845.40
489.81	20224.57
489.99	20063.07
490.17	20465.64
490.35	20610.76
490.53	20327.55
490.70	20519.48
490.88	20285.42
491.06	20833.11
491.24	20875.24
491.41	20741.83
491.59	20957.16
491.77	21081.21
491.95	20919.71
492.13	21455.69
492.30	21448.67
492.48	21708.47
492.66	22061.89
492.84	21624.21
493.01	21876.99
493.19	21869.97
493.37	22389.56
493.54	22066.57
493.72	22504.25
493.90	22710.22
494.08	22951.29
494.25	23419.40
494.43	23520.04
494.61	23590.26
494.79	23400.68
494.96	23651.11
495.14	23929.64
495.32	23449.83
495.49	23777.50
495.67	24088.79
495.85	24224.54
496.02	24325.19
496.20	24018.58
496.38	24259.65
496.55	24779.25
496.73	25006.28
496.91	25116.29
497.09	25090.54
497.26	25378.43
497.44	24975.86
497.62	24959.47
497.79	25289.49
497.97	25259.06
498.14	25568.01
498.32	25769.30
498.50	25841.85
498.67	25846.54
498.85	26103.99
499.03	26251.45
499.20	26242.09
499.38	26618.91
499.56	26501.89
499.73	26298.26
499.91	26621.25
500.08	26808.50
500.26	26548.70
500.44	26656.36
500.61	26787.43
500.79	26616.57
500.97	26782.75
501.14	27569.17
501.32	27225.11
501.49	27435.76
501.67	27431.08
501.84	27934.29
502.02	27384.27
502.20	27578.53
502.37	28140.26
502.55	27758.75
502.72	27859.40
502.90	28154.30
503.07	28149.62
503.25	28245.58
503.43	28135.58
503.60	28407.08
503.78	28568.58
503.95	28346.23
504.13	28666.88
504.30	28982.85
504.48	28842.42
504.65	28828.38
504.83	28727.74
505.01	29219.25
505.18	29179.46
505.36	29668.63
505.53	29535.22
505.71	29816.08
505.88	29692.04
506.06	29722.46
506.23	29652.25
506.41	29469.69
506.58	29736.51
506.76	29872.26
506.93	30225.68
507.11	29806.72
507.28	30403.56
507.46	29968.22
507.63	30256.11
507.81	30494.84
507.98	30260.79
508.16	30305.26
508.33	30630.59
508.50	31124.44
508.68	31414.67
508.85	30869.33
509.03	31058.91
509.20	31234.45
509.38	31309.35
509.55	31407.65
509.73	31309.35
509.90	31260.20
510.08	31627.66
510.25	31754.05
510.42	31922.57
510.60	31761.07
510.77	32006.83
510.95	32175.34
511.12	31948.31
511.30	32390.67
511.47	32601.32
511.64	32598.98
511.82	32275.99
511.99	32364.93
512.17	32694.94
512.34	32580.26
512.51	32744.09
512.69	32659.84
512.86	33017.94
513.04	32879.85
513.21	33078.79
513.38	32797.93
513.56	33347.95
513.73	32943.04
513.90	33226.24
514.08	33043.68
514.25	33539.88
514.43	32898.57
514.60	33572.64
514.77	33546.90
514.95	33900.32
515.12	33654.56
515.29	33731.80
515.47	34050.11
515.64	33951.81
515.81	33734.14
515.99	34146.08
516.16	34029.05
516.33	33694.35
516.51	33439.23
516.68	33495.41
516.85	33469.66
517.03	34059.48
517.20	33888.62
517.37	34183.52
517.54	34298.21
517.72	34249.06
517.89	34443.32
518.06	34338.00
518.24	34192.89
518.41	34422.26
518.58	34703.12
518.75	34728.87
518.93	35173.57
519.10	35428.69
519.27	35225.06
519.45	35512.95
519.62	35103.35
519.79	35704.87
519.96	35274.21
520.14	35700.19
520.31	35639.34
520.48	35768.07
520.65	35606.57
520.83	36229.15
521.00	35845.30
521.17	36257.24
521.34	35896.80
521.52	36388.31
521.69	36512.36
521.86	36554.49
522.03	36196.38
522.20	36196.38
522.38	36683.22
522.55	36549.81
522.72	36355.54
522.89	36474.91
523.07	36884.50
523.24	36584.91
523.41	37113.87
523.58	37322.18
523.75	37560.92
523.92	37579.64
524.10	37670.92
524.27	37539.85
524.44	37479.00
524.61	37282.39
524.78	37549.21
524.96	37780.93
525.13	37439.21
525.30	37851.14
525.47	38227.97
525.64	38000.94
525.81	37801.99
525.98	37663.90
526.16	37912.00
526.33	37130.26
526.50	37345.59
526.67	37631.13
526.84	37645.18
527.01	37390.06
527.18	38075.84
527.36	38094.56
527.53	38522.88
527.70	38749.91
527.87	38686.71
528.04	38511.17
528.21	38389.47
528.38	38747.57
528.55	38862.26
528.72	38930.13
528.89	39005.03
529.07	39115.03
529.24	38628.20
529.41	39035.45
529.58	38974.60
529.75	38859.91
529.92	38967.58
530.09	39271.85
530.26	39117.37
530.43	39454.41
530.60	38955.88
530.77	39555.05
530.94	39728.25
531.11	39466.11
531.28	39791.45
531.46	39452.07
531.63	39981.03
531.80	39545.69
531.97	39838.26
532.14	39438.03
532.31	39269.51
532.48	39658.04
532.65	39580.80
532.82	39864.00
532.99	40299.34
533.16	39419.30
533.33	40119.12
533.50	40428.07
533.67	40369.56
533.84	40297.00
534.01	40233.81
534.18	39943.58
534.35	40278.28
534.52	40519.35
534.69	40755.75
534.86	40683.19
535.03	40268.92
535.20	41074.06
535.37	40800.22
535.54	41411.10
535.71	40612.98
535.88	41074.06
536.05	40980.44
536.22	41223.86
536.38	41069.38
536.55	41074.06
536.72	40549.78
536.89	40992.14
537.06	40734.68
537.23	41375.99
537.40	40985.12
537.57	40648.08
537.74	41521.10
537.91	41706.01
538.08	40847.03
538.25	41139.60
538.42	41273.01
538.59	41539.83
538.75	41193.43
538.92	41324.50
539.09	41081.08
539.26	41092.79
539.43	41553.87
539.60	41638.13
539.77	41371.31
539.94	41469.61
540.11	41233.22
540.28	42029.00
540.44	41219.17
540.61	41921.34
540.78	41504.72
540.95	41270.67
541.12	41661.54
541.29	42174.11
541.46	41867.50
541.62	42241.99
541.79	42284.12
541.96	41710.69
542.13	41825.37
542.30	42057.09
542.47	42146.03
542.63	42092.19
542.80	42480.72
542.97	42314.55
543.14	42941.81
543.31	42897.34
543.48	42862.23
543.64	43400.55
543.81	43358.42
543.98	43075.22
544.15	42579.03
544.32	43105.65
544.48	43662.69
544.65	43084.58
544.82	43196.93
544.99	43098.62
545.16	43220.33
545.32	43152.46
545.49	43449.70
545.66	43863.98
545.83	43765.68
546.00	43372.47
546.16	43264.80
546.33	42700.73
546.50	43241.40
546.67	43428.64
546.83	43171.18
547.00	43257.78
547.17	43494.18
547.34	43512.90
547.50	43648.65
547.67	43608.86
547.84	43562.05
548.00	44086.33
548.17	44154.21
548.34	44018.46
548.51	44149.53
548.67	44083.99
548.84	44191.65
549.01	43899.09
549.18	43978.67
549.34	43878.02
549.51	43981.01
549.68	44261.87
549.84	44271.23
550.01	44577.84
550.18	44128.46
550.34	44163.57
550.51	43863.98
550.68	44018.46
550.84	43540.99
551.01	44245.49
551.18	44156.55
551.34	43655.67
551.51	44566.14
551.68	44357.83
551.84	44868.07
552.01	44453.79
552.18	44626.99
552.34	44622.31
552.51	44308.68
552.68	44137.82
552.84	44882.11
553.01	44589.55
553.18	44729.98
553.34	44435.07
553.51	44491.24
553.67	44734.66
553.84	44921.90
554.01	44437.41
554.17	45258.94
554.34	45027.23
554.51	44896.16
554.67	44865.73
554.84	44917.22
555.00	45085.74
555.17	44500.61
555.33	44760.40
555.50	44839.98
555.67	45071.70
555.83	44694.87
556.00	44903.18
556.16	45689.60
556.33	44886.79
556.50	44814.24
556.66	45385.33
556.83	44762.75
556.99	45343.20
557.16	45511.72
557.32	45680.24
557.49	45895.56
557.65	45153.62
557.82	44835.30
557.98	45640.45
558.15	45036.59
558.32	45500.01
558.48	45301.07
558.65	45439.16
558.81	45198.09
558.98	45317.45
559.14	45263.62
559.31	45380.65
559.47	45457.88
559.64	45357.24
559.80	45741.09
559.97	45312.77
560.13	45251.92
560.30	45467.25
560.46	45251.92
560.63	45633.42
560.79	45900.25
560.96	45975.14
561.12	45551.51
561.29	45874.50
561.45	45167.66
561.61	45504.70
561.78	45214.47
561.94	45476.61
562.11	45560.87
562.27	45504.70
562.44	45617.04
562.60	45811.31
562.77	45904.93
562.93	45549.17
563.10	46071.10
563.26	45647.47
563.42	45968.12
563.59	45385.33
563.75	45528.10
563.92	46017.27
564.08	45778.54
564.24	45865.14
564.41	45607.68
564.57	45436.82
564.74	46342.61
564.90	46071.10
565.07	45970.46
565.23	46040.68
565.39	45998.55
565.56	46052.38
565.72	45680.24
565.88	45675.55
566.05	45783.22
566.21	45961.10
566.38	45663.85
566.54	45883.86
566.70	45820.67
566.87	45940.04
567.03	45991.53
567.19	46403.46
567.36	46052.38
567.52	46473.68
567.68	46504.10
567.85	45698.96
568.01	46052.38
568.17	45879.18
568.34	46143.66
568.50	46176.43
568.66	45839.39
568.83	46209.20
568.99	45757.47
569.15	45869.82
569.32	45848.75
569.48	46302.82
569.64	46351.97
569.81	46162.39
569.97	46454.95
570.13	45949.40
570.30	46258.35
570.46	46101.53
570.62	45179.36
570.78	45867.48
570.95	45624.06
571.11	45989.19
571.27	45837.05
571.43	45745.77
571.60	45928.33
571.76	46157.70
571.92	46045.36
572.09	45958.76
572.25	45689.60
572.41	45790.24
572.57	46424.53
572.74	46445.59
572.90	45963.44
573.06	46153.02
573.22	46115.58
573.38	46321.54
573.55	46457.29
573.71	45996.21
573.87	46848.16
574.03	45933.01
574.20	46295.80
574.36	46106.21
574.52	46335.59
574.68	46326.22
574.84	46333.24
575.01	45876.84
575.17	46337.93
575.33	45888.54
575.49	46005.57
575.65	46499.42
575.82	46419.84
575.98	45441.50
576.14	46124.94
576.30	46354.31
576.46	46487.72
576.62	46155.36
576.79	46014.93
576.95	45940.04
577.11	46239.62
577.27	45909.61
577.43	46136.64
577.59	46408.14
577.75	46305.16
577.92	45780.88
578.08	46424.53
578.24	45785.56
578.40	46153.02
578.56	46211.54
578.72	46110.89
578.88	46827.10
579.04	46160.05
579.21	46274.73
579.37	46319.20
579.53	46553.26
579.69	46319.20
579.85	45902.59
580.01	46724.11
580.17	46557.94
580.33	46473.68
580.49	46382.40
580.65	46625.81
580.82	46225.58
580.98	46349.63
581.14	46347.29
581.30	46356.65
581.46	46656.24
581.62	46326.22
581.78	46050.04
581.94	46157.70
582.10	46092.17
582.26	46183.45
582.42	46092.17
582.58	46150.68
582.74	46052.38
582.90	46288.77
583.06	46260.69
583.22	46419.84
583.38	46829.44
583.54	46611.77
583.70	46717.09
583.86	46361.33
584.02	46181.11
584.18	46543.89
584.34	46630.49
584.50	46752.20
584.66	46316.86
584.82	46724.11
584.98	46127.28
585.14	46366.01
585.30	46279.41
585.46	46518.15
585.62	46354.31
585.78	46213.88
585.94	46651.56
586.10	46422.19
586.26	46220.90
586.42	46134.30
586.58	46574.32
586.74	46270.05
586.90	46380.06
587.06	46518.15
587.22	46571.98
587.38	46014.93
587.54	46342.61
587.70	46366.01
587.86	46660.92
588.02	46642.20
588.18	45853.44
588.34	46326.22
588.49	45937.69
588.65	45860.46
588.81	46014.93
588.97	45670.87
589.13	45731.73
589.29	46358.99
589.45	46148.34
589.61	46550.91
589.77	46529.85
589.93	46241.96
