SpectraSuite Data File
++++++++++++++++++++++++++++++++++++
Date: Fri Oct 25 10:48:19 EDT 2013
User: price-jones
Dark Spectrum Present: No
Reference Spectrum Present: No
Number of Sampled Component Spectra: 1
Spectrometers: USB2+H05261
Integration Time (usec): 100000 (USB2+H05261)
Spectra Averaged: 1 (USB2+H05261)
Boxcar Smoothing: 0 (USB2+H05261)
Correct for Electrical Dark: No (USB2+H05261)
Strobe/Lamp Enabled: No (USB2+H05261)
Correct for Detector Non-linearity: No (USB2+H05261)
Correct for Stray Light: No (USB2+H05261)
Number of Pixels in Processed Spectrum: 2048
>>>>>Begin Processed Spectral Data<<<<<
365.73	152.13
365.92	152.13
366.12	152.13
366.32	102.98
366.52	32.77
366.72	65.54
366.91	9.36
367.11	32.77
367.31	9.36
367.51	37.45
367.70	63.19
367.90	37.45
368.10	30.43
368.30	0.00
368.49	79.58
368.69	70.22
368.89	2.34
369.09	84.26
369.28	72.56
369.48	60.85
369.68	93.62
369.87	133.41
370.07	74.90
370.27	154.48
370.47	159.16
370.66	433.00
370.86	451.72
371.06	514.92
371.25	510.24
371.45	482.15
371.65	535.98
371.84	477.47
372.04	458.74
372.24	561.73
372.44	505.56
372.63	554.71
372.83	554.71
373.03	571.09
373.22	592.16
373.42	538.32
373.62	519.60
373.81	573.43
374.01	610.88
374.21	613.22
374.40	599.18
374.60	552.37
374.79	664.71
374.99	613.22
375.19	599.18
375.38	585.13
375.58	606.20
375.78	617.90
375.97	634.29
376.17	702.16
376.37	624.92
376.56	685.78
376.76	645.99
376.95	650.67
377.15	674.07
377.35	655.35
377.54	751.31
377.74	706.84
377.93	578.11
378.13	706.84
378.33	727.91
378.52	690.46
378.72	645.99
378.91	727.91
379.11	709.18
379.31	681.10
379.50	702.16
379.70	641.31
379.89	697.48
380.09	779.40
380.28	706.84
380.48	807.48
380.68	746.63
380.87	676.41
381.07	720.88
381.26	713.86
381.46	746.63
381.65	737.27
381.85	723.23
382.04	765.36
382.24	624.92
382.43	793.44
382.63	802.80
382.83	760.67
383.02	765.36
383.22	809.83
383.41	760.67
383.61	791.10
383.80	837.91
384.00	772.38
384.19	891.74
384.39	903.45
384.58	774.72
384.78	821.53
384.97	910.47
385.17	891.74
385.36	905.79
385.56	849.61
385.75	891.74
385.95	994.73
386.14	805.14
386.34	901.11
386.53	887.06
386.72	901.11
386.92	912.81
387.11	894.08
387.31	1001.75
387.50	903.45
387.70	858.98
387.89	915.15
388.09	978.34
388.28	992.39
388.48	966.64
388.67	1032.18
388.86	1027.50
389.06	968.98
389.25	978.34
389.45	1102.39
389.64	997.07
389.84	1006.43
390.03	1074.31
390.22	990.05
390.42	1156.22
390.61	1123.46
390.81	1107.07
391.00	1097.71
391.19	1172.61
391.39	1174.95
391.58	1156.22
391.78	1116.44
391.97	1146.86
392.16	1146.86
392.36	1111.75
392.55	1109.41
392.75	1097.71
392.94	1015.79
393.13	1041.54
393.33	1067.28
393.52	1153.88
393.71	1109.41
393.91	1121.12
394.10	1104.73
394.29	1196.01
394.49	1177.29
394.68	1268.57
394.88	1275.59
395.07	1303.68
395.26	1275.59
395.46	1315.38
395.65	1371.55
395.84	1322.40
396.04	1336.45
396.23	1284.95
396.42	1284.95
396.62	1294.32
396.81	1284.95
397.00	1397.30
397.19	1378.58
397.39	1399.64
397.58	1404.32
397.77	1434.75
397.97	1437.09
398.16	1497.94
398.35	1519.01
398.55	1526.03
398.74	1476.88
398.93	1614.97
399.12	1593.90
399.32	1563.48
399.51	1526.03
399.70	1659.44
399.90	1631.35
400.09	1671.14
400.28	1563.48
400.47	1572.84
400.67	1750.72
400.86	1703.91
401.05	1790.51
401.24	1762.42
401.44	1802.21
401.63	1804.55
401.82	1867.75
402.01	1734.34
402.21	1834.98
402.40	1891.15
402.59	1809.23
402.78	1827.96
402.97	1865.41
403.17	1952.01
403.36	1991.80
403.55	1949.67
403.74	1930.94
403.93	1973.07
404.13	2047.97
404.32	1947.33
404.51	1980.09
404.70	2045.63
404.89	2029.24
405.09	2087.76
405.28	2005.84
405.47	2022.22
405.66	2087.76
405.85	2108.82
406.05	2087.76
406.24	2085.42
406.43	2099.46
406.62	2244.57
406.81	2244.57
407.00	2076.06
407.20	2258.62
407.39	2214.15
407.58	2211.81
407.77	2260.96
407.96	2321.81
408.15	2396.71
408.34	2239.89
408.54	2258.62
408.73	2382.67
408.92	2338.20
409.11	2427.14
409.30	2424.80
409.49	2359.26
409.68	2441.18
409.87	2370.96
410.07	2319.47
410.26	2427.14
410.45	2420.11
410.64	2511.39
410.83	2595.65
411.02	2689.28
411.21	2703.32
411.40	2656.51
411.59	2715.02
411.78	2651.83
411.98	2775.88
412.17	2787.58
412.36	2949.08
412.55	2939.71
412.74	2935.03
412.93	2897.58
413.12	2871.84
413.31	2916.31
413.50	2888.22
413.69	3035.67
413.88	2998.23
414.07	3073.12
414.26	3082.49
414.45	3028.65
414.64	3026.31
414.83	3225.26
415.02	3131.64
415.22	3267.39
415.41	3162.06
415.60	3293.13
415.79	3323.56
415.98	3435.91
416.17	3384.41
416.36	3454.63
416.55	3365.69
416.74	3344.63
416.93	3407.82
417.12	3410.16
417.31	3459.31
417.50	3538.89
417.69	3681.66
417.88	3611.45
418.07	3520.17
418.26	3501.44
418.45	3686.34
418.64	3777.62
418.83	3730.81
419.02	3578.68
419.21	3728.47
419.39	3716.77
419.58	3672.30
419.77	3660.60
419.96	3822.09
420.15	3925.08
420.34	3733.15
420.53	3859.54
420.72	4011.68
420.91	3950.82
421.10	3889.97
421.29	4016.36
421.48	3929.76
421.67	4021.04
421.86	3969.55
422.05	3918.06
422.24	3978.91
422.43	4056.15
422.61	4023.38
422.80	4109.98
422.99	4109.98
423.18	3999.98
423.37	4053.81
423.56	4142.75
423.75	3950.82
423.94	3964.87
424.13	3915.72
424.32	3847.84
424.50	4025.72
424.69	4203.60
424.88	4161.47
425.07	4044.45
425.26	3957.85
425.45	4044.45
425.64	4016.36
425.83	3971.89
426.01	4351.06
426.20	4241.05
426.39	4138.07
426.58	4037.42
426.77	4037.42
426.96	4236.37
427.15	4170.83
427.33	4294.88
427.52	4180.20
427.71	4255.09
427.90	4219.99
428.09	4428.29
428.28	4329.99
428.46	4257.43
428.65	4245.73
428.84	4533.62
429.03	4355.74
429.22	4266.80
429.40	4351.06
429.59	4304.25
429.78	4023.38
429.97	4126.36
430.16	4156.79
430.34	4245.73
430.53	4346.37
430.72	4353.40
430.91	4365.10
431.10	4362.76
431.28	4793.42
431.47	4816.82
431.66	4770.01
431.85	4620.22
432.03	4795.76
432.22	4837.89
432.41	4805.12
432.60	4784.06
432.79	4868.31
432.97	5022.79
433.16	5034.49
433.35	4751.29
433.54	4865.97
433.72	4877.68
433.91	4851.93
434.10	4788.74
434.28	4947.89
434.47	4971.30
434.66	5090.67
434.85	5132.79
435.03	5238.12
435.22	5158.54
435.41	5210.03
435.59	5310.68
435.78	5394.93
435.97	5270.89
436.16	5224.08
436.34	5298.97
436.53	5376.21
436.72	5483.88
436.90	5224.08
437.09	5549.41
437.28	5254.50
437.46	5249.82
437.65	5369.19
437.84	5500.26
438.02	5359.83
438.21	5387.91
438.40	5362.17
438.58	5591.54
438.77	5809.21
438.96	5476.85
439.14	5811.55
439.33	5778.78
439.52	5696.86
439.70	5785.80
439.89	5792.83
440.08	5813.89
440.26	5959.00
440.45	5923.90
440.63	6050.28
440.82	6328.81
441.01	6106.46
441.19	6092.41
441.38	6347.53
441.57	6263.27
441.75	6305.40
441.94	6377.96
442.12	6562.86
442.31	6644.78
442.50	6361.58
442.68	6539.46
442.87	6487.96
443.05	6726.70
443.24	6815.64
443.43	6637.76
443.61	6686.91
443.80	6902.24
443.98	6473.92
444.17	6478.60
444.35	6689.25
444.54	6944.37
444.73	6693.93
444.91	6775.85
445.10	6869.47
445.28	6628.40
445.47	6715.00
445.65	6733.72
445.84	6778.19
446.02	6927.99
446.21	6707.98
446.39	6759.47
446.58	6857.77
446.77	6977.14
446.95	6743.08
447.14	6857.77
447.32	6874.15
447.51	6806.28
447.69	6911.60
447.88	6850.75
448.06	7073.10
448.25	6956.07
448.43	7052.03
448.62	6960.75
448.80	6869.47
448.99	7335.24
449.17	7236.94
449.36	6918.62
449.54	7445.24
449.73	7318.86
449.91	7445.24
450.10	7304.81
450.28	7667.60
450.46	7424.18
450.65	7487.37
450.83	7478.01
451.02	7349.28
451.20	7452.27
451.39	7503.76
451.57	7564.61
451.76	7386.73
451.94	7627.81
452.13	7557.59
452.31	7449.93
452.49	7330.56
452.68	7463.97
452.86	7583.34
453.05	7573.97
453.23	7332.90
453.42	7573.97
453.60	7588.02
453.78	7733.13
453.97	7698.02
454.15	7651.21
454.34	7501.42
454.52	7763.56
454.70	7903.99
454.89	7742.49
455.07	7903.99
455.26	7782.28
455.44	8116.98
455.62	8053.78
455.81	7978.89
455.99	8224.64
456.17	8201.24
456.36	8217.62
456.54	8210.60
456.73	8365.07
456.91	8559.34
457.09	8360.39
457.28	8606.15
457.46	8304.22
457.64	8402.52
457.83	8500.83
458.01	8285.50
458.19	8531.25
458.38	8517.21
458.56	8535.93
458.74	8542.96
458.93	8561.68
459.11	8638.92
459.29	8706.79
459.48	8610.83
459.66	8432.95
459.84	8730.20
460.03	8861.27
460.21	8650.62
460.39	8812.12
460.57	8851.91
460.76	8762.97
460.94	8678.71
461.12	8929.14
461.31	9015.74
461.49	9034.47
461.67	9039.15
461.85	9057.87
462.04	9055.53
462.22	9404.27
462.40	9287.25
462.59	9247.46
462.77	9233.41
462.95	9149.15
463.13	9284.91
463.32	9406.61
463.50	9305.97
463.68	9472.15
463.86	9350.44
464.05	9144.47
464.23	9404.27
464.41	9469.81
464.59	9270.86
464.78	9537.68
464.96	9217.03
465.14	9348.10
465.32	9486.19
465.50	9572.79
465.69	9666.41
465.87	9446.40
466.05	9432.36
466.23	9420.66
466.41	9544.70
466.60	9460.45
466.78	9437.04
466.96	9556.41
467.14	9607.90
467.32	9884.08
467.51	9762.37
467.69	9741.31
467.87	9799.82
468.05	9853.66
468.23	9760.03
468.41	9933.23
468.60	9841.95
468.78	10094.73
468.96	9886.42
469.14	9996.43
469.32	10186.01
469.50	9991.75
469.69	10122.82
469.87	10113.45
470.05	10216.44
470.23	10434.11
470.41	9961.32
470.59	10380.28
470.77	10204.74
470.95	10328.78
471.14	10417.72
471.32	10595.61
471.50	10609.65
471.68	10721.99
471.86	10843.70
472.04	10848.38
472.22	10897.53
472.40	10644.76
472.58	10700.93
472.77	10773.49
472.95	10937.32
473.13	11026.26
473.31	10860.09
473.49	10988.82
473.67	11110.52
473.85	11094.14
474.03	11356.28
474.21	11234.57
474.39	11506.07
474.57	11522.46
474.75	11559.91
474.93	11653.53
475.12	11665.23
475.30	11527.14
475.48	11733.11
475.66	11777.58
475.84	11901.62
476.02	11829.07
476.20	11840.77
476.38	11962.48
476.56	12411.86
476.74	12142.70
476.92	12451.65
477.10	12222.28
477.28	12650.60
477.46	12517.18
477.64	12762.94
477.82	12884.65
478.00	13135.09
478.18	12760.60
478.36	13034.44
478.54	13149.13
478.72	13179.56
478.90	13530.64
479.08	13406.59
479.26	13778.73
479.44	13877.04
479.62	13846.61
479.80	14052.58
479.98	13760.01
480.16	14113.43
480.34	14054.92
480.52	14263.22
480.70	14223.44
480.88	14153.22
481.06	14155.56
481.24	14628.35
481.41	14586.22
481.59	14853.04
481.77	14853.04
481.95	15096.46
482.13	15021.56
482.31	15145.61
482.49	15510.73
482.67	15417.11
482.85	15545.84
483.03	15983.52
483.21	15810.32
483.39	16191.83
483.57	15740.10
483.74	15983.52
483.92	16278.43
484.10	16306.51
484.28	16648.23
484.46	16652.91
484.64	16915.05
484.82	16585.04
485.00	16664.61
485.18	17015.69
485.35	16945.48
485.53	16762.92
485.71	16596.74
485.89	17268.47
486.07	16666.95
486.25	17242.73
486.43	17324.65
486.61	17518.91
486.78	17867.65
486.96	18164.90
487.14	18511.30
487.32	18104.04
487.50	18567.47
487.68	18934.93
487.85	18948.98
488.03	19091.75
488.21	19325.80
488.39	18902.17
488.57	19042.60
488.75	19204.10
488.92	19552.84
489.10	19899.23
489.28	20114.56
489.46	20290.10
489.64	20482.03
489.81	20786.30
489.99	20762.89
490.17	21191.21
490.35	21226.32
490.53	20931.41
490.70	21371.43
490.88	21451.01
491.06	21572.72
491.24	21305.90
491.41	21504.84
491.59	21624.21
491.77	21434.63
491.95	21954.22
492.13	21818.47
492.30	22038.48
492.48	22450.42
492.66	22583.83
492.84	22483.19
493.01	22801.50
493.19	22953.63
493.37	22766.39
493.54	22970.02
493.72	23454.51
493.90	23651.11
494.08	23950.70
494.25	23908.57
494.43	23927.30
494.61	24353.27
494.79	24397.74
494.96	23859.42
495.14	24046.66
495.32	24437.53
495.49	24528.81
495.67	24891.60
495.85	24589.67
496.02	25535.24
496.20	25336.30
496.38	25266.08
496.55	25340.98
496.73	25687.38
496.91	25823.13
497.09	25685.04
497.26	25596.10
497.44	25867.60
497.62	26026.76
497.79	26305.28
497.97	25968.24
498.14	26527.63
498.32	26426.99
498.50	26445.71
498.67	26792.11
498.85	26773.39
499.03	27084.68
499.20	27190.00
499.38	27330.44
499.56	27646.41
499.73	27346.82
499.91	27468.53
500.08	27733.01
500.26	27211.07
500.44	27660.45
500.61	27784.50
500.79	27491.93
500.97	27899.19
501.14	28137.92
501.32	28142.60
501.49	28203.46
501.67	28074.73
501.84	28168.35
502.02	28231.54
502.20	28594.32
502.37	28744.12
502.55	28786.25
502.72	29046.05
502.90	29043.71
503.07	29134.99
503.25	29434.58
503.43	29020.30
503.60	29268.40
503.78	29099.88
503.95	29326.91
504.13	29252.02
504.30	29465.00
504.48	29605.44
504.65	29778.64
504.83	30192.91
505.01	29984.60
505.18	30064.18
505.36	30775.70
505.53	29975.24
505.71	30689.10
505.88	31007.42
506.06	30616.55
506.23	31030.82
506.41	30508.88
506.58	30663.36
506.76	31208.70
506.93	31180.62
507.11	30689.10
507.28	31033.16
507.46	31079.97
507.63	30785.07
507.81	31051.89
507.98	30707.83
508.16	31527.02
508.33	31662.77
508.50	31386.58
508.68	31892.14
508.85	32177.68
509.03	31690.85
509.20	31957.67
509.38	32037.25
509.55	32226.84
509.73	32381.31
509.90	32350.88
510.08	32079.38
510.25	32477.27
510.42	32664.52
510.60	32624.73
510.77	32769.84
510.95	33200.50
511.12	32776.86
511.30	33132.62
511.47	33322.21
511.64	33734.14
511.82	33684.99
511.99	33479.02
512.17	33614.77
512.34	33783.29
512.51	33479.02
512.69	33968.19
512.86	33825.42
513.04	33785.63
513.21	34068.84
513.38	33759.89
513.56	33530.51
513.73	33708.40
513.90	34117.99
514.08	33984.58
514.25	34125.01
514.43	33937.77
514.60	34382.47
514.77	34216.29
514.95	34892.71
515.12	34209.27
515.29	34579.07
515.47	34902.07
515.64	35070.59
515.81	34822.49
515.99	34759.30
516.16	34637.59
516.33	34710.14
516.51	34944.20
516.68	34298.21
516.85	34274.80
517.03	34677.38
517.20	35023.78
517.37	35213.36
517.54	35267.19
517.72	35644.02
517.89	35131.44
518.06	35133.78
518.24	34969.94
518.41	35541.03
518.58	35498.91
518.75	35517.63
518.93	36264.26
519.10	35941.27
519.27	36149.57
519.45	36325.11
519.62	36753.43
519.79	36617.68
519.96	36416.40
520.14	36582.57
520.31	36598.96
520.48	36353.20
520.65	36552.15
520.83	37301.12
521.00	36931.31
521.17	36802.58
521.34	37064.72
521.52	37085.79
521.69	37050.68
521.86	37467.30
522.03	37340.91
522.20	37312.82
522.38	37446.23
522.55	37546.87
522.72	37907.32
522.89	37668.58
523.07	37827.74
523.24	37621.77
523.41	38136.69
523.58	37596.03
523.75	38504.15
523.92	38265.42
524.10	38742.89
524.27	38550.96
524.44	37989.24
524.61	38646.93
524.78	38555.64
524.96	38597.77
525.13	38471.39
525.30	39288.23
525.47	39262.49
525.64	38485.43
525.81	38986.30
525.98	38625.86
526.16	38363.72
526.33	38209.25
526.50	38827.15
526.67	38256.06
526.84	38515.86
527.01	38307.55
527.18	38885.66
527.36	39129.08
527.53	39182.91
527.70	39398.24
527.87	39393.56
528.04	39494.20
528.21	39496.54
528.38	39304.62
528.55	40610.64
528.72	39653.36
528.89	39917.84
529.07	39754.00
529.24	39564.42
529.41	40233.81
529.58	39629.95
529.75	40341.47
529.92	40357.86
530.09	40411.69
530.26	40467.86
530.43	40243.17
530.60	40299.34
530.77	40187.00
530.94	40765.11
531.11	40390.62
531.28	40758.09
531.46	40807.24
531.63	41029.59
531.80	40893.84
531.97	40779.15
532.14	40416.37
532.31	40624.68
532.48	40334.45
532.65	40734.68
532.82	40868.09
532.99	40877.46
533.16	41181.73
533.33	41235.56
533.50	41432.16
533.67	41383.01
533.84	40907.88
534.01	40982.78
534.18	41336.20
534.35	41703.67
534.52	41647.49
534.69	41649.83
534.86	41848.78
535.03	41181.73
535.20	41916.65
535.37	42080.49
535.54	42326.25
535.71	41853.46
535.88	41647.49
536.05	41773.88
536.22	42155.39
536.38	41633.45
536.55	41778.56
536.72	42040.70
536.89	41373.65
537.06	41947.08
537.23	42199.86
537.40	42443.27
537.57	42249.01
537.74	42167.09
537.91	43061.18
538.08	42553.28
538.25	42108.58
538.42	42595.41
538.59	42873.93
538.75	42190.50
538.92	42323.91
539.09	42808.40
539.26	42225.60
539.43	42593.07
539.60	42464.34
539.77	42639.88
539.94	43061.18
540.11	42431.57
540.28	42536.90
540.44	42511.15
540.61	42742.86
540.78	42562.64
540.95	42576.69
541.12	42522.85
541.29	43126.71
541.46	42784.99
541.62	43035.43
541.79	43093.94
541.96	42525.19
542.13	43021.39
542.30	43629.93
542.47	43096.28
542.63	43143.09
542.80	43384.17
542.97	43632.27
543.14	43622.90
543.31	43126.71
543.48	43763.34
543.64	44308.68
543.81	44114.42
543.98	44009.09
544.15	44163.57
544.32	43824.19
544.48	44348.47
544.65	44086.33
544.82	44282.94
544.99	43704.82
545.16	43936.54
545.32	44091.01
545.49	44236.12
545.66	44477.20
545.83	43971.64
546.00	44694.87
546.16	44182.29
546.33	43847.60
546.50	43948.24
546.67	44273.57
546.83	44088.67
547.00	44343.79
547.17	44395.28
547.34	44362.51
547.50	44414.01
547.67	44589.55
547.84	44601.25
548.00	45298.73
548.17	44933.60
548.34	44800.19
548.51	45247.24
548.67	45095.10
548.84	45233.19
549.01	45160.64
549.18	44926.58
549.34	45092.76
549.51	45352.56
549.68	45258.94
549.84	45282.34
550.01	45062.33
550.18	45083.40
550.34	44818.92
550.51	44910.20
550.68	44985.10
550.84	44811.90
551.01	45179.36
551.18	45450.86
551.34	45364.26
551.51	45467.25
551.68	45661.51
551.84	45497.67
552.01	45226.17
552.18	45333.84
552.34	45350.22
552.51	45755.13
552.68	45581.93
552.84	45647.47
553.01	46010.25
553.18	45404.05
553.34	44975.73
553.51	45684.92
553.67	45670.87
553.84	45631.08
554.01	45998.55
554.17	45668.53
554.34	46040.68
554.51	45883.86
554.67	45949.40
554.84	45839.39
555.00	45724.71
555.17	45708.32
555.33	46223.24
555.50	45792.58
555.67	46366.01
555.83	46066.42
556.00	46078.13
556.16	46277.07
556.33	45933.01
556.50	46220.90
556.66	46176.43
556.83	45572.57
556.99	46375.37
557.16	46485.38
557.32	45734.07
557.49	46256.01
557.65	46122.60
557.82	46054.72
557.98	46415.16
558.15	45890.88
558.32	46443.25
558.48	46157.70
558.65	46508.79
558.81	46667.94
558.98	46220.90
559.14	46431.55
559.31	46382.40
559.47	46562.62
559.64	46667.94
559.80	46920.72
559.97	46904.34
560.13	46525.17
560.30	46274.73
560.46	46930.08
560.63	46370.69
560.79	46986.25
560.96	46799.01
561.12	46349.63
561.29	46422.19
561.45	46223.24
561.61	46586.02
561.78	46576.66
561.94	46738.16
562.11	46780.29
562.27	46586.02
562.44	46799.01
562.60	47419.25
562.77	46738.16
562.93	46777.95
563.10	46925.40
563.26	46691.35
563.42	46817.74
563.59	46487.72
563.75	46564.96
563.92	47063.49
564.08	46574.32
564.24	47126.69
564.41	47072.85
564.57	47222.65
564.74	46983.91
564.90	46993.28
565.07	46707.73
565.23	46351.97
565.39	46754.54
565.56	47023.70
565.72	46707.73
565.88	46476.02
566.05	46899.65
566.21	46944.12
566.38	46761.56
566.54	46976.89
566.70	47349.04
566.87	47306.91
567.03	47126.69
567.19	47412.23
567.36	47112.64
567.52	46422.19
567.68	47026.04
567.85	47138.39
568.01	46761.56
568.17	47145.41
568.34	47065.83
568.50	46930.08
568.66	46684.33
568.83	46838.80
568.99	46717.09
569.15	47210.95
569.32	46958.17
569.48	47262.44
569.64	47262.44
569.81	47306.91
569.97	47072.85
570.13	46930.08
570.30	46848.16
570.46	46803.69
570.62	46859.87
570.78	46953.49
570.95	46443.25
571.11	47026.04
571.27	46759.22
571.43	46866.89
571.60	47372.44
571.76	46719.43
571.92	46866.89
572.09	47173.50
572.25	47262.44
572.41	46836.46
572.57	47473.09
572.74	47796.08
572.90	47508.19
573.06	47299.89
573.22	47531.60
573.38	47147.75
573.55	47124.35
573.71	47393.51
573.87	47206.26
574.03	47019.02
574.20	46951.15
574.36	47447.34
574.52	47367.76
574.68	47473.09
574.84	47313.93
575.01	47290.52
575.17	47262.44
575.33	47274.14
575.49	47040.09
575.65	47311.59
575.82	47459.04
575.98	47440.32
576.14	47426.28
576.30	47402.87
576.46	46658.58
576.62	46829.44
576.79	47243.71
576.95	46689.01
577.11	47154.77
577.27	47292.86
577.43	47524.58
577.59	47049.45
577.75	46995.62
577.92	46887.95
578.08	46574.32
578.24	46600.07
578.40	47000.30
578.56	46899.65
578.72	47318.61
578.88	47473.09
579.04	47636.92
579.21	47086.90
579.37	47566.71
579.53	46997.96
579.69	46986.25
579.85	47075.19
580.01	47349.04
580.17	47412.23
580.33	47374.78
580.49	47220.31
580.65	47669.69
580.82	47229.67
580.98	46979.23
581.14	47033.07
581.30	47739.91
581.46	47185.20
581.62	47096.26
581.78	47416.91
581.94	47742.25
582.10	47311.59
582.26	47620.54
582.42	47517.56
582.58	47388.83
582.74	47332.65
582.90	47503.51
583.06	47728.20
583.22	47552.66
583.38	47536.28
583.54	46993.28
583.70	47613.52
583.86	47437.98
584.02	47445.00
584.18	47360.74
584.34	47437.98
584.50	47482.45
584.66	46815.40
584.82	47358.40
584.98	48133.12
585.14	47208.61
585.30	47260.10
585.46	47629.90
585.62	47269.46
585.78	47288.18
585.94	47192.22
586.10	47224.99
586.26	47009.66
586.42	47274.14
586.58	47622.88
586.74	47421.59
586.90	47402.87
587.06	47463.72
587.22	47405.21
587.38	47356.06
587.54	47501.17
587.70	47695.44
587.86	47140.73
588.02	47339.68
588.18	47519.90
588.34	46707.73
588.49	46738.16
588.65	46827.10
588.81	46454.95
588.97	46763.90
589.13	46717.09
589.29	46717.09
589.45	47140.73
589.61	47150.09
589.77	47412.23
