SpectraSuite Data File
++++++++++++++++++++++++++++++++++++
Date: Fri Oct 25 10:43:38 EDT 2013
User: price-jones
Dark Spectrum Present: No
Reference Spectrum Present: No
Number of Sampled Component Spectra: 1
Spectrometers: USB2+H05261
Integration Time (usec): 100000 (USB2+H05261)
Spectra Averaged: 1 (USB2+H05261)
Boxcar Smoothing: 0 (USB2+H05261)
Correct for Electrical Dark: No (USB2+H05261)
Strobe/Lamp Enabled: No (USB2+H05261)
Correct for Detector Non-linearity: No (USB2+H05261)
Correct for Stray Light: No (USB2+H05261)
Number of Pixels in Processed Spectrum: 2048
>>>>>Begin Processed Spectral Data<<<<<
365.73	170.86
365.92	170.86
366.12	170.86
366.32	0.00
366.52	37.45
366.72	77.24
366.91	21.06
367.11	18.72
367.31	0.00
367.51	0.00
367.70	0.00
367.90	56.17
368.10	25.75
368.30	0.00
368.49	21.06
368.69	21.06
368.89	4.68
369.09	0.00
369.28	35.11
369.48	0.00
369.68	100.64
369.87	74.90
370.07	84.26
370.27	154.48
370.47	215.33
370.66	369.80
370.86	428.32
371.06	540.66
371.25	493.85
371.45	425.98
371.65	433.00
371.84	440.02
372.04	435.34
372.24	491.51
372.44	526.62
372.63	533.64
372.83	517.26
373.03	535.98
373.22	449.38
373.42	477.47
373.62	477.47
373.81	472.79
374.01	500.87
374.21	589.82
374.40	454.06
374.60	624.92
374.79	521.94
374.99	592.16
375.19	589.82
375.38	580.45
375.58	620.24
375.78	706.84
375.97	667.05
376.17	617.90
376.37	585.13
376.56	638.97
376.76	636.63
376.95	540.66
377.15	702.16
377.35	730.25
377.54	587.47
377.74	650.67
377.93	683.44
378.13	653.01
378.33	638.97
378.52	564.07
378.72	655.35
378.91	720.88
379.11	674.07
379.31	725.57
379.50	685.78
379.70	725.57
379.89	702.16
380.09	734.93
380.28	685.78
380.48	765.36
380.68	624.92
380.87	641.31
381.07	786.42
381.26	748.97
381.46	767.70
381.65	723.23
381.85	718.54
382.04	774.72
382.24	734.93
382.43	725.57
382.63	683.44
382.83	681.10
383.02	744.29
383.22	702.16
383.41	746.63
383.61	744.29
383.80	748.97
384.00	816.85
384.19	753.65
384.39	819.19
384.58	763.01
384.78	891.74
384.97	828.55
385.17	830.89
385.36	837.91
385.56	866.00
385.75	737.27
385.95	840.25
386.14	823.87
386.34	868.34
386.53	798.12
386.72	894.08
386.92	870.68
387.11	830.89
387.31	826.21
387.50	936.21
387.70	912.81
387.89	922.17
388.09	1004.09
388.28	929.19
388.48	849.61
388.67	1025.15
388.86	919.83
389.06	924.51
389.25	992.39
389.45	980.68
389.64	931.53
389.84	1013.45
390.03	938.55
390.22	976.00
390.42	1027.50
390.61	978.34
390.81	973.66
391.00	1088.35
391.19	1032.18
391.39	1008.77
391.58	968.98
391.78	1067.28
391.97	1057.92
392.16	1064.94
392.36	1086.01
392.55	1121.12
392.75	1088.35
392.94	1006.43
393.13	1076.65
393.33	1043.88
393.52	1020.47
393.71	1090.69
393.91	1123.46
394.10	1125.80
394.29	1090.69
394.49	1135.16
394.68	1172.61
394.88	1240.48
395.07	1238.14
395.26	1238.14
395.46	1219.42
395.65	1203.04
395.84	1240.48
396.04	1144.52
396.23	1174.95
396.42	1036.86
396.62	1153.88
396.81	1235.80
397.00	1242.82
397.19	1329.42
397.39	1420.71
397.58	1420.71
397.77	1306.02
397.97	1376.24
398.16	1455.81
398.35	1533.05
398.55	1462.83
398.74	1434.75
398.93	1561.14
399.12	1495.60
399.32	1533.05
399.51	1465.18
399.70	1582.20
399.90	1600.93
400.09	1600.93
400.28	1673.48
400.47	1654.76
400.67	1624.33
400.86	1638.38
401.05	1790.51
401.24	1638.38
401.44	1715.61
401.63	1701.57
401.82	1685.19
402.01	1689.87
402.21	1715.61
402.40	1706.25
402.59	1755.40
402.78	1816.26
402.97	1837.32
403.17	1722.63
403.36	1849.02
403.55	1797.53
403.74	1816.26
403.93	1799.87
404.13	1956.69
404.32	1935.62
404.51	1825.62
404.70	1935.62
404.89	1893.49
405.09	1947.33
405.28	1928.60
405.47	1900.52
405.66	2104.14
405.85	1900.52
406.05	1959.03
406.24	2059.67
406.43	2076.06
406.62	2106.48
406.81	2167.34
407.00	2022.22
407.20	2097.12
407.39	2019.88
407.58	2141.59
407.77	2162.66
407.96	2193.08
408.15	2293.72
408.34	2221.17
408.54	2286.70
408.73	2317.13
408.92	2293.72
409.11	2277.34
409.30	2317.13
409.49	2387.35
409.68	2319.47
409.87	2307.77
410.07	2380.32
410.26	2462.24
410.45	2422.45
410.64	2443.52
410.83	2548.84
411.02	2457.56
411.21	2609.70
411.40	2621.40
411.59	2609.70
411.78	2672.89
411.98	2691.62
412.17	2686.94
412.36	2670.55
412.55	2726.72
412.74	2820.35
412.93	2855.45
413.12	2750.13
413.31	2920.99
413.50	2853.11
413.69	2918.65
413.88	2942.05
414.07	3014.61
414.26	3063.76
414.45	2920.99
414.64	2991.20
414.83	2895.24
415.02	3028.65
415.22	3080.14
415.41	3309.52
415.60	3208.87
415.79	3159.72
415.98	3258.03
416.17	3344.63
416.36	3248.66
416.55	3361.01
416.74	3311.86
416.93	3358.67
417.12	3307.18
417.31	3314.20
417.50	3468.67
417.69	3562.30
417.88	3499.10
418.07	3555.27
418.26	3599.74
418.45	3585.70
418.64	3737.84
418.83	3705.07
419.02	3641.87
419.21	3665.28
419.39	3564.64
419.58	3674.64
419.77	3557.61
419.96	3716.77
420.15	3735.50
420.34	3707.41
420.53	3749.54
420.72	3859.54
420.91	3789.33
421.10	3922.74
421.29	3826.78
421.48	3843.16
421.67	3758.90
421.86	3794.01
422.05	3943.80
422.24	3726.13
422.43	3751.88
422.61	3934.44
422.80	3868.91
422.99	3826.78
423.18	3981.25
423.37	3932.10
423.56	3852.52
423.75	4007.00
423.94	3875.93
424.13	3754.22
424.32	3744.86
424.50	4049.13
424.69	4133.39
424.88	4159.13
425.07	3971.89
425.26	3833.80
425.45	3976.57
425.64	3927.42
425.83	3978.91
426.01	4109.98
426.20	4074.87
426.39	3913.38
426.58	3918.06
426.77	4035.08
426.96	4016.36
427.15	4107.64
427.33	4084.23
427.52	4105.30
427.71	4163.81
427.90	4093.60
428.09	4114.66
428.28	4248.07
428.46	4222.33
428.65	4098.28
428.84	4430.63
429.03	4227.01
429.22	4231.69
429.40	4329.99
429.59	4102.96
429.78	3927.42
429.97	3906.35
430.16	3957.85
430.34	4086.58
430.53	4250.41
430.72	4304.25
430.91	4294.88
431.10	4416.59
431.28	4557.02
431.47	4730.22
431.66	4758.31
431.85	4421.27
432.03	4683.41
432.22	4765.33
432.41	4690.43
432.60	4664.69
432.79	4744.27
432.97	4905.76
433.16	4849.59
433.35	4596.81
433.54	4767.67
433.72	4697.46
433.91	4770.01
434.10	4887.04
434.28	4940.87
434.47	4798.10
434.66	4978.32
434.85	5020.45
435.03	5036.83
435.22	5149.18
435.41	5069.60
435.59	5132.79
435.78	5121.09
435.97	5313.02
436.16	5153.86
436.34	5064.92
436.53	5200.67
436.72	5394.93
436.90	5200.67
437.09	5275.57
437.28	5170.24
437.46	5275.57
437.65	5139.82
437.84	4980.66
438.02	5188.97
438.21	5371.53
438.40	4915.12
438.58	5362.17
438.77	5462.81
438.96	5540.05
439.14	5551.75
439.33	5596.22
439.52	5701.54
439.70	5720.27
439.89	5762.40
440.08	5687.50
440.26	5729.63
440.45	5764.74
440.63	5837.30
440.82	5980.07
441.01	5956.66
441.19	6022.20
441.38	6221.14
441.57	6223.48
441.75	6069.01
441.94	6333.49
442.12	6260.93
442.31	6438.81
442.50	6370.94
442.68	6387.32
442.87	6377.96
443.05	6431.79
443.24	6483.28
443.43	6509.03
443.61	6607.33
443.80	6604.99
443.98	6525.41
444.17	6345.19
444.35	6623.72
444.54	6836.70
444.73	6480.94
444.91	6707.98
445.10	6464.56
445.28	6487.96
445.47	6490.31
445.65	6686.91
445.84	6672.87
446.02	6689.25
446.21	6766.49
446.39	6574.56
446.58	6789.89
446.77	6717.34
446.95	6586.27
447.14	6703.29
447.32	6949.05
447.51	6637.76
447.69	6579.25
447.88	6920.96
448.06	6771.17
448.25	6874.15
448.43	6754.79
448.62	6663.51
448.80	6916.28
448.99	7005.22
449.17	6927.99
449.36	7016.93
449.54	7070.76
449.73	7145.66
449.91	7276.73
450.10	7171.40
450.28	7356.30
450.46	7290.77
450.65	7199.49
450.83	7386.73
451.02	7126.93
451.20	7281.41
451.39	7253.32
451.57	7082.46
451.76	7187.79
451.94	7419.50
452.13	7346.94
452.31	7368.01
452.49	7122.25
452.68	7250.98
452.86	7164.38
453.05	7447.58
453.23	7405.46
453.42	7351.62
453.60	7358.64
453.78	7700.36
453.97	7466.31
454.15	7452.27
454.34	7304.81
454.52	7667.60
454.70	7613.76
454.89	7492.05
455.07	7595.04
455.26	7597.38
455.44	7768.24
455.62	7892.29
455.81	7651.21
455.99	7901.65
456.17	7894.63
456.36	7801.01
456.54	8131.02
456.73	8138.04
456.91	8140.38
457.09	8142.72
457.28	8182.51
457.46	8182.51
457.64	8131.02
457.83	8208.26
458.01	8163.79
458.19	8341.67
458.38	8231.66
458.56	8271.45
458.74	8198.90
458.93	8257.41
459.11	8278.47
459.29	8496.14
459.48	8400.18
459.66	8362.73
459.84	8454.02
460.03	8784.03
460.21	8699.77
460.39	8554.66
460.57	8542.96
460.76	8631.90
460.94	8610.83
461.12	8870.63
461.31	8638.92
461.49	8779.35
461.67	8669.34
461.85	8987.66
462.04	8854.25
462.22	9408.95
462.40	8933.82
462.59	8994.68
462.77	9008.72
462.95	9011.06
463.13	8975.95
463.32	9071.92
463.50	9156.18
463.68	8954.89
463.86	9114.05
464.05	9048.51
464.23	9174.90
464.41	9268.52
464.59	8999.36
464.78	9233.41
464.96	9172.56
465.14	9128.09
465.32	9481.51
465.50	9406.61
465.69	9376.19
465.87	9376.19
466.05	9352.78
466.23	9291.93
466.41	9165.54
466.60	9364.48
466.78	9114.05
466.96	9331.72
467.14	9289.59
467.32	9406.61
467.51	9453.42
467.69	9280.22
467.87	9331.72
468.05	9483.85
468.23	9530.66
468.41	9682.80
468.60	9643.01
468.78	9769.40
468.96	9415.98
469.14	9767.06
469.32	9715.56
469.50	9760.03
469.69	9750.67
469.87	10136.86
470.05	9928.55
470.23	9919.19
470.41	9804.50
470.59	9921.53
470.77	9841.95
470.95	10050.26
471.14	10363.89
471.32	10047.92
471.50	10340.49
471.68	10263.25
471.86	10490.28
472.04	10525.39
472.22	10684.55
472.40	10366.23
472.58	10506.66
472.77	10490.28
472.95	10565.18
473.13	11042.65
473.31	10768.80
473.49	10384.96
473.67	10707.95
473.85	10773.49
474.03	10939.66
474.21	11009.88
474.39	11332.87
474.57	11265.00
474.75	11302.45
474.93	11321.17
475.12	11400.75
475.30	11477.99
475.48	11236.91
475.66	11426.50
475.84	11407.77
476.02	11562.25
476.20	11307.13
476.38	11555.22
476.56	11896.94
476.74	11913.33
476.92	11985.88
477.10	11976.52
477.28	11906.31
477.46	12269.09
477.64	12423.56
477.82	12568.68
478.00	12678.68
478.18	12542.93
478.36	12580.38
478.54	12589.74
478.72	12837.84
478.90	12861.24
479.08	12912.74
479.26	13240.41
479.44	13298.92
479.62	13240.41
479.80	13572.77
479.98	13584.47
480.16	13762.35
480.34	13540.00
480.52	14047.90
480.70	13947.25
480.88	13743.63
481.06	14108.75
481.24	14160.24
481.41	14125.13
481.59	14644.73
481.77	14504.30
481.95	14689.20
482.13	14710.27
482.31	14696.22
482.49	15133.90
482.67	14951.34
482.85	15103.48
483.03	15309.44
483.21	15470.94
483.39	15508.39
483.57	15531.80
483.74	15506.05
483.92	15775.21
484.10	15826.70
484.28	15789.25
484.46	16215.23
484.64	16489.07
484.82	16290.13
485.00	16404.81
485.18	16709.08
485.35	16774.62
485.53	16339.28
485.71	16145.02
485.89	16395.45
486.07	16624.83
486.25	17090.59
486.43	16947.82
486.61	17039.10
486.78	17008.67
486.96	17427.63
487.14	17771.69
487.32	17846.58
487.50	17689.77
487.68	18312.35
487.85	18630.66
488.03	18569.81
488.21	18635.35
488.39	18548.75
488.57	18785.14
488.75	18579.17
488.92	19304.74
489.10	19618.37
489.28	19286.01
489.46	19939.02
489.64	19854.76
489.81	20175.42
489.99	20327.55
490.17	20503.09
490.35	20627.14
490.53	20308.83
490.70	20762.89
490.88	20688.00
491.06	20889.28
491.24	20868.22
491.41	21001.63
491.59	21032.05
491.77	20940.77
491.95	21104.61
492.13	21516.54
492.30	21687.40
492.48	21907.41
492.66	21860.60
492.84	21884.01
493.01	22267.86
493.19	22237.43
493.37	22185.94
493.54	22548.72
493.72	22787.46
493.90	22888.10
494.08	23101.09
494.25	23199.39
494.43	23641.75
494.61	23372.59
494.79	23370.25
494.96	23772.82
495.14	23866.44
495.32	24264.33
495.49	23864.10
495.67	24030.28
495.85	24123.90
496.02	24428.17
496.20	24610.73
496.38	24470.30
496.55	24797.98
496.73	25352.68
496.91	24947.77
497.09	24879.89
497.26	25223.95
497.44	25296.51
497.62	25303.53
497.79	25771.64
497.97	25467.37
498.14	25450.99
498.32	25766.96
498.50	25916.75
498.67	26314.64
498.85	25968.24
499.03	26597.85
499.20	26244.43
499.38	26169.53
499.56	26728.92
499.73	26909.14
499.91	26787.43
500.08	26419.97
500.26	26417.63
500.44	26546.36
500.61	27255.54
500.79	26424.65
500.97	27112.77
501.14	27358.52
501.32	27119.79
501.49	27108.08
501.67	27126.81
501.84	27545.76
502.02	27569.17
502.20	27927.27
502.37	27931.95
502.55	27931.95
502.72	27917.91
502.90	28601.35
503.07	28140.26
503.25	28503.04
503.43	28610.71
503.60	28549.85
503.78	28383.68
503.95	28680.92
504.13	28870.51
504.30	28833.06
504.48	28594.32
504.65	28905.62
504.83	29359.68
505.01	29378.40
505.18	29369.04
505.36	29855.87
505.53	29687.36
505.71	30017.37
505.88	29972.90
506.06	29668.63
506.23	29907.37
506.41	29699.06
506.58	30223.34
506.76	30146.10
506.93	30164.82
507.11	29907.37
507.28	30422.28
507.46	29921.41
507.63	30122.69
507.81	30286.53
507.98	30309.94
508.16	30597.82
508.33	30780.39
508.50	30756.98
508.68	31250.83
508.85	31253.17
509.03	31147.85
509.20	31311.69
509.38	31632.34
509.55	32048.96
509.73	31374.88
509.90	31592.55
510.08	31611.28
510.25	31639.36
510.42	31768.09
510.60	31969.38
510.77	31667.45
510.95	32275.99
511.12	32306.41
511.30	32067.68
511.47	32336.84
511.64	32678.56
511.82	32697.28
511.99	32542.81
512.17	32591.96
512.34	32411.74
512.51	33043.68
512.69	32678.56
512.86	32638.77
513.04	33303.48
513.21	32952.40
513.38	33127.94
513.56	33177.09
513.73	32992.19
513.90	33188.80
514.08	33263.69
514.25	33479.02
514.43	33614.77
514.60	33696.69
514.77	33792.65
514.95	33961.17
515.12	33715.42
515.29	34134.37
515.47	34394.17
515.64	34265.44
515.81	33914.36
515.99	33851.17
516.16	34253.74
516.33	33626.48
516.51	33699.03
516.68	33745.84
516.85	33415.83
517.03	33771.59
517.20	34265.44
517.37	34405.88
517.54	34628.23
517.72	34539.29
517.89	34588.44
518.06	34197.57
518.24	34419.92
518.41	34473.75
518.58	34721.85
518.75	34291.19
518.93	34969.94
519.10	34738.23
519.27	35171.23
519.45	35433.37
519.62	35452.09
519.79	35908.50
519.96	35744.66
520.14	35419.33
520.31	35644.02
520.48	35711.89
520.65	35662.74
520.83	36100.42
521.00	36077.02
521.17	36023.19
521.34	36107.44
521.52	36472.57
521.69	36123.83
521.86	36339.16
522.03	36479.59
522.20	36224.47
522.38	36306.39
522.55	36577.89
522.72	36617.68
522.89	36664.49
523.07	36760.45
523.24	36741.73
523.41	37048.34
523.58	36964.08
523.75	37729.44
523.92	37390.06
524.10	37626.45
524.27	37600.71
524.44	37376.01
524.61	37553.90
524.78	37954.13
524.96	37919.02
525.13	37820.72
525.30	37965.83
525.47	38117.96
525.64	37642.84
525.81	37940.08
525.98	37797.31
526.16	37385.38
526.33	37258.99
526.50	38019.66
526.67	37420.48
526.84	37694.33
527.01	37605.39
527.18	38176.48
527.36	38607.14
527.53	38724.16
527.70	38728.84
527.87	38651.61
528.04	38188.18
528.21	38557.99
528.38	38948.85
528.55	39225.04
528.72	39054.18
528.89	39222.70
529.07	38955.88
529.24	38979.28
529.41	39316.32
529.58	39037.80
529.75	39445.05
529.92	39445.05
530.09	39604.20
530.26	39093.97
530.43	39290.57
530.60	39208.65
530.77	39192.27
530.94	39445.05
531.11	39564.42
531.28	39896.77
531.46	39751.66
531.63	40009.12
531.80	39632.29
531.97	39688.46
532.14	39662.72
532.31	39533.99
532.48	39590.16
532.65	39875.71
532.82	40060.61
532.99	40060.61
533.16	39789.11
533.33	40423.39
533.50	39756.34
533.67	40325.09
533.84	39880.39
534.01	40474.88
534.18	39915.50
534.35	40238.49
534.52	40659.79
534.69	40552.12
534.86	40741.71
535.03	40776.81
535.20	40807.24
535.37	40954.69
535.54	41420.46
535.71	40779.15
535.88	41120.87
536.05	40884.48
536.22	40905.54
536.38	40851.71
536.55	40650.42
536.72	41092.79
536.89	40617.66
537.06	41013.21
537.23	41060.02
537.40	40891.50
537.57	41694.30
537.74	41453.23
537.91	41588.98
538.08	41570.25
538.25	41319.82
538.42	41462.59
538.59	41862.82
538.75	40985.12
538.92	41507.06
539.09	41834.74
539.26	41549.19
539.43	41638.13
539.60	41691.96
539.77	41429.82
539.94	41502.38
540.11	41574.94
540.28	42082.83
540.44	41661.54
540.61	41902.61
540.78	41727.07
540.95	41610.04
541.12	41673.24
541.29	42094.53
541.46	41961.12
541.62	41998.57
541.79	42529.87
541.96	41565.57
542.13	41736.43
542.30	42251.35
542.47	42440.93
542.63	42487.74
542.80	42312.20
542.97	42724.14
543.14	42930.11
543.31	42787.33
543.48	42733.50
543.64	43206.29
543.81	42916.06
543.98	43402.89
544.15	42567.32
544.32	43313.95
544.48	43430.98
544.65	43320.98
544.82	43152.46
544.99	42359.02
545.16	43054.15
545.32	43161.82
545.49	43330.34
545.66	43608.86
545.83	43161.82
546.00	43367.79
546.16	43105.65
546.33	43290.55
546.50	43253.10
546.67	43948.24
546.83	43129.05
547.00	43175.86
547.17	43578.43
547.34	43330.34
547.50	43775.04
547.67	43620.56
547.84	43789.08
548.00	43910.79
548.17	44184.63
548.34	43800.79
548.51	44058.24
548.67	44261.87
548.84	43882.70
549.01	43985.69
549.18	43220.33
549.34	43487.15
549.51	43819.51
549.68	43814.83
549.84	43995.05
550.01	43929.51
550.18	44091.01
550.34	43934.20
550.51	44107.40
550.68	44439.75
550.84	43906.11
551.01	44580.18
551.18	44259.53
551.34	44144.84
551.51	44524.01
551.68	44734.66
551.84	44554.44
552.01	44264.21
552.18	44156.55
552.34	43931.86
552.51	44524.01
552.68	44781.47
552.84	44741.68
553.01	44746.36
553.18	44325.07
553.34	44067.61
553.51	44341.45
553.67	45167.66
553.84	45036.59
554.01	45008.50
554.17	45340.86
554.34	45034.25
554.51	44900.84
554.67	45095.10
554.84	45151.27
555.00	45184.04
555.17	44847.00
555.33	44999.14
555.50	45160.64
555.67	44949.99
555.83	45277.66
556.00	44842.32
556.16	45315.11
556.33	45036.59
556.50	44505.29
556.66	45127.87
556.83	44868.07
556.99	45244.90
557.16	45230.85
557.32	45361.92
557.49	45214.47
557.65	45022.54
557.82	45186.38
557.98	45703.64
558.15	44982.76
558.32	45455.54
558.48	44655.08
558.65	44795.51
558.81	45223.83
558.98	45397.03
559.14	45490.65
559.31	45055.31
559.47	45235.53
559.64	45439.16
559.80	45284.68
559.97	45727.05
560.13	45343.20
560.30	45291.71
560.46	45626.40
560.63	45904.93
560.79	45799.60
560.96	45724.71
561.12	45322.13
561.29	45008.50
561.45	45504.70
561.61	45766.84
561.78	45645.13
561.94	45404.05
562.11	45563.21
562.27	45361.92
562.44	45638.11
562.60	45682.58
562.77	45624.06
562.93	45886.20
563.10	45612.36
563.26	45680.24
563.42	45853.44
563.59	45806.62
563.75	46047.70
563.92	46326.22
564.08	45949.40
564.24	45766.84
564.41	45841.73
564.57	45600.66
564.74	45940.04
564.90	45659.17
565.07	46003.23
565.23	46057.06
565.39	45794.92
565.56	45944.72
565.72	45226.17
565.88	46021.95
566.05	45673.21
566.21	45727.05
566.38	45972.80
566.54	45853.44
566.70	45846.41
566.87	46129.62
567.03	46305.16
567.19	46281.75
567.36	45872.16
567.52	45846.41
567.68	46459.63
567.85	46078.13
568.01	46366.01
568.17	45745.77
568.34	46141.32
568.50	45811.31
568.66	45839.39
568.83	46096.85
568.99	45778.54
569.15	45970.46
569.32	45916.63
569.48	45860.46
569.64	46171.75
569.81	46305.16
569.97	46209.20
570.13	45930.67
570.30	45876.84
570.46	45823.01
570.62	45572.57
570.78	45530.44
570.95	45954.08
571.11	46251.33
571.27	45668.53
571.43	45687.26
571.60	46036.00
571.76	46078.13
571.92	46639.86
572.09	46478.36
572.25	46064.08
572.41	46398.78
572.57	46586.02
572.74	46436.23
572.90	46511.13
573.06	46309.84
573.22	46438.57
573.38	46078.13
573.55	46024.29
573.71	46967.53
573.87	46300.48
574.03	45909.61
574.20	46113.23
574.36	46061.74
574.52	46181.11
574.68	46012.59
574.84	46115.58
575.01	46138.98
575.17	45954.08
575.33	45881.52
575.49	45925.99
575.65	46560.28
575.82	46440.91
575.98	46232.60
576.14	46494.74
576.30	46747.52
576.46	46057.06
576.62	46181.11
576.79	46167.07
576.95	45902.59
577.11	46431.55
577.27	46143.66
577.43	46197.49
577.59	45867.48
577.75	46082.81
577.92	45677.90
578.08	45823.01
578.24	45855.78
578.40	45792.58
578.56	46291.12
578.72	46520.49
578.88	46363.67
579.04	46305.16
579.21	45944.72
579.37	46492.40
579.53	46426.87
579.69	46038.34
579.85	46279.41
580.01	46347.29
580.17	46358.99
580.33	45996.21
580.49	46473.68
580.65	45928.33
580.82	46071.10
580.98	46536.87
581.14	46361.33
581.30	46279.41
581.46	46564.96
581.62	46092.17
581.78	46277.07
581.94	46312.18
582.10	46532.19
582.26	46429.21
582.42	46127.28
582.58	46550.91
582.74	46052.38
582.90	46590.70
583.06	46827.10
583.22	46452.61
583.38	46557.94
583.54	46799.01
583.70	46649.22
583.86	46036.00
584.02	46607.09
584.18	46550.91
584.34	46309.84
584.50	46302.82
584.66	46274.73
584.82	45933.01
584.98	46593.04
585.14	46595.38
585.30	46281.75
585.46	46354.31
585.62	46148.34
585.78	45869.82
585.94	45464.91
586.10	46309.84
586.26	45956.42
586.42	46429.21
586.58	46529.85
586.74	46110.89
586.90	46394.10
587.06	46330.90
587.22	46562.62
587.38	46429.21
587.54	46344.95
587.70	46251.33
587.86	46050.04
588.02	46373.03
588.18	46380.06
588.34	46279.41
588.49	45883.86
588.65	45350.22
588.81	45881.52
588.97	46043.02
589.13	45989.19
589.29	46031.32
589.45	46127.28
589.61	46075.79
589.77	46625.81
589.93	46571.98
