SpectraSuite Data File
++++++++++++++++++++++++++++++++++++
Date: Fri Oct 25 11:25:35 EDT 2013
User: price-jones
Dark Spectrum Present: No
Reference Spectrum Present: No
Number of Sampled Component Spectra: 1
Spectrometers: USB2+H05261
Integration Time (usec): 100000 (USB2+H05261)
Spectra Averaged: 1 (USB2+H05261)
Boxcar Smoothing: 0 (USB2+H05261)
Correct for Electrical Dark: No (USB2+H05261)
Strobe/Lamp Enabled: No (USB2+H05261)
Correct for Detector Non-linearity: No (USB2+H05261)
Correct for Stray Light: No (USB2+H05261)
Number of Pixels in Processed Spectrum: 2048
>>>>>Begin Processed Spectral Data<<<<<
365.73	243.42
365.92	243.42
366.12	243.42
366.32	191.92
366.52	163.84
366.72	198.95
366.91	142.77
367.11	161.50
367.31	100.64
367.51	114.69
367.70	208.31
367.90	154.48
368.10	114.69
368.30	44.47
368.49	170.86
368.69	170.86
368.89	166.18
369.09	117.03
369.28	163.84
369.48	149.79
369.68	142.77
369.87	198.95
370.07	194.26
370.27	259.80
370.47	337.04
370.66	629.60
370.86	627.26
371.06	718.54
371.25	645.99
371.45	601.52
371.65	688.12
371.84	706.84
372.04	615.56
372.24	671.73
372.44	690.46
372.63	674.07
372.83	704.50
373.03	713.86
373.22	723.23
373.42	737.27
373.62	730.25
373.81	767.70
374.01	898.77
374.21	882.38
374.40	713.86
374.60	835.57
374.79	786.42
374.99	814.51
375.19	826.21
375.38	835.57
375.58	910.47
375.78	889.40
375.97	915.15
376.17	880.04
376.37	905.79
376.56	943.24
376.76	842.59
376.95	889.40
377.15	947.92
377.35	933.87
377.54	882.38
377.74	912.81
377.93	917.49
378.13	933.87
378.33	936.21
378.52	891.74
378.72	947.92
378.91	1015.79
379.11	947.92
379.31	875.36
379.50	894.08
379.70	976.00
379.89	971.32
380.09	919.83
380.28	1006.43
380.48	961.96
380.68	957.28
380.87	999.41
381.07	1048.56
381.26	997.07
381.46	966.64
381.65	1069.62
381.85	978.34
382.04	992.39
382.24	1128.14
382.43	1137.50
382.63	1046.22
382.83	1128.14
383.02	1114.10
383.22	1167.93
383.41	1046.22
383.61	1057.92
383.80	1125.80
384.00	1156.22
384.19	1081.33
384.39	1167.93
384.58	1188.99
384.78	1165.59
384.97	1191.33
385.17	1039.20
385.36	1177.29
385.56	1231.12
385.75	1254.53
385.95	1233.46
386.14	1219.42
386.34	1165.59
386.53	1210.06
386.72	1210.06
386.92	1184.31
387.11	1212.40
387.31	1214.74
387.50	1214.74
387.70	1247.51
387.89	1196.01
388.09	1247.51
388.28	1310.70
388.48	1287.29
388.67	1313.04
388.86	1294.32
389.06	1263.89
389.25	1294.32
389.45	1345.81
389.64	1331.76
389.84	1359.85
390.03	1362.19
390.22	1350.49
390.42	1315.38
390.61	1446.45
390.81	1425.39
391.00	1439.43
391.19	1362.19
391.39	1423.05
391.58	1444.11
391.78	1523.69
391.97	1423.05
392.16	1451.13
392.36	1554.12
392.55	1586.88
392.75	1507.30
392.94	1481.56
393.13	1465.18
393.33	1490.92
393.52	1577.52
393.71	1652.42
393.91	1610.29
394.10	1577.52
394.29	1556.46
394.49	1528.37
394.68	1650.08
394.88	1682.85
395.07	1610.29
395.26	1776.47
395.46	1678.16
395.65	1724.97
395.84	1680.50
396.04	1832.64
396.23	1781.15
396.42	1739.02
396.62	1746.04
396.81	1743.70
397.00	1724.97
397.19	1715.61
397.39	1757.74
397.58	1844.34
397.77	1809.23
397.97	1905.20
398.16	1858.39
398.35	1912.22
398.55	1888.81
398.74	1963.71
398.93	1935.62
399.12	1891.15
399.32	1937.96
399.51	1921.58
399.70	2017.54
399.90	2043.29
400.09	1994.14
400.28	2047.97
400.47	1970.73
400.67	2134.57
400.86	2047.97
401.05	2073.71
401.24	2062.01
401.44	2090.10
401.63	2069.03
401.82	2069.03
402.01	2115.84
402.21	2193.08
402.40	2101.80
402.59	2214.15
402.78	2172.02
402.97	2174.36
403.17	2263.30
403.36	2256.28
403.55	2244.57
403.74	2338.20
403.93	2375.64
404.13	2256.28
404.32	2375.64
404.51	2356.92
404.70	2354.58
404.89	2361.60
405.09	2506.71
405.28	2448.20
405.47	2516.08
405.66	2431.82
405.85	2438.84
406.05	2502.03
406.24	2527.78
406.43	2485.65
406.62	2588.63
406.81	2693.96
407.00	2560.55
407.20	2471.61
407.39	2677.57
407.58	2853.11
407.77	2684.59
407.96	2813.32
408.15	2853.11
408.34	2745.45
408.54	2792.26
408.73	2773.53
408.92	2782.90
409.11	3028.65
409.30	2874.18
409.49	2813.32
409.68	2956.10
409.87	2951.42
410.07	2991.20
410.26	3016.95
410.45	2932.69
410.64	3108.23
410.83	3091.85
411.02	3056.74
411.21	3098.87
411.40	3187.81
411.59	3157.38
411.78	3054.40
411.98	3243.98
412.17	3351.65
412.36	3178.45
412.55	3346.97
412.74	3314.20
412.93	3372.71
413.12	3405.48
413.31	3566.98
413.50	3344.63
413.69	3510.80
413.88	3637.19
414.07	3492.08
414.26	3569.32
414.45	3578.68
414.64	3637.19
414.83	3667.62
415.02	3798.69
415.22	3728.47
415.41	3861.88
415.60	3824.44
415.79	3911.04
415.98	3838.48
416.17	3878.27
416.36	3843.16
416.55	4023.38
416.74	4063.17
416.93	3995.29
417.12	4046.79
417.31	4145.09
417.50	4222.33
417.69	4145.09
417.88	4212.96
418.07	4297.22
418.26	4236.37
418.45	4355.74
418.64	4470.42
418.83	4505.53
419.02	4482.13
419.21	4428.29
419.39	4538.30
419.58	4322.97
419.77	4418.93
419.96	4451.70
420.15	4524.26
420.34	4500.85
420.53	4554.68
420.72	4699.80
420.91	4664.69
421.10	4812.14
421.29	4681.07
421.48	4671.71
421.67	4772.35
421.86	4685.75
422.05	4765.33
422.24	4751.29
422.43	4908.10
422.61	4926.83
422.80	4938.53
422.99	4795.76
423.18	4877.68
423.37	4917.47
423.56	5069.60
423.75	4961.94
423.94	4837.89
424.13	4582.77
424.32	4807.46
424.50	4926.83
424.69	5291.95
424.88	4973.64
425.07	4961.94
425.26	4880.02
425.45	5109.39
425.64	4959.60
425.83	4952.57
426.01	4964.28
426.20	5018.11
426.39	5128.11
426.58	5050.88
426.77	5055.56
426.96	5053.22
427.15	5205.35
427.33	5380.89
427.52	5048.54
427.71	5336.42
427.90	5252.16
428.09	5219.39
428.28	5425.36
428.46	5273.23
428.65	5186.63
428.84	5451.11
429.03	5514.30
429.22	5448.77
429.40	5556.43
429.59	5682.82
429.78	5287.27
429.97	5317.70
430.16	5350.46
430.34	5572.82
430.53	5727.29
430.72	5708.57
430.91	5600.90
431.10	5556.43
431.28	5753.04
431.47	5605.58
431.66	5860.70
431.85	5764.74
432.03	5947.30
432.22	5933.26
432.41	5853.68
432.60	5949.64
432.79	5916.87
432.97	5914.53
433.16	5902.83
433.35	5912.19
433.54	5996.45
433.72	6015.18
433.91	5940.28
434.10	6099.44
434.28	6061.99
434.47	6148.59
434.66	6188.38
434.85	6324.13
435.03	6253.91
435.22	6279.66
435.41	6457.54
435.59	6422.43
435.78	6413.07
435.97	6342.85
436.16	6427.11
436.34	6359.24
436.53	6338.17
436.72	6555.84
436.90	6284.34
437.09	6593.29
437.28	6506.69
437.46	6647.12
437.65	6764.15
437.84	6729.04
438.02	6539.46
438.21	6626.06
438.40	6792.23
438.58	7082.46
438.77	6913.94
438.96	6892.88
439.14	7012.24
439.33	7157.36
439.52	7105.87
439.70	7150.34
439.89	7145.66
440.08	7328.22
440.26	7314.17
440.45	7260.34
440.63	7382.05
440.82	7623.12
441.01	7386.73
441.19	7667.60
441.38	7581.00
441.57	7747.17
441.75	7705.04
441.94	7810.37
442.12	7892.29
442.31	8021.02
442.50	8088.89
442.68	7918.03
442.87	8006.97
443.05	8208.26
443.24	8226.98
443.43	7899.31
443.61	8217.62
443.80	8517.21
443.98	8131.02
444.17	7742.49
444.35	8175.49
444.54	8215.28
444.73	8348.69
444.91	8182.51
445.10	8222.30
445.28	8367.42
445.47	8491.46
445.65	8304.22
445.84	8414.23
446.02	8339.33
446.21	8407.20
446.39	8545.30
446.58	8514.87
446.77	8304.22
446.95	8404.86
447.14	8336.99
447.32	8477.42
447.51	8355.71
447.69	8418.91
447.88	8283.16
448.06	8376.78
448.25	8463.38
448.43	8496.14
448.62	8837.86
448.80	8444.65
448.99	8465.72
449.17	8723.18
449.36	8561.68
449.54	8746.58
449.73	8966.59
449.91	8919.78
450.10	8919.78
450.28	8891.70
450.46	9060.21
450.65	8915.10
450.83	9144.47
451.02	9142.13
451.20	9242.78
451.39	9188.94
451.57	9116.39
451.76	9092.98
451.94	9345.76
452.13	9170.22
452.31	9427.68
452.49	9186.60
452.68	9296.61
452.86	9303.63
453.05	9343.42
453.23	9324.69
453.42	9275.54
453.60	9462.79
453.78	9600.88
453.97	9401.93
454.15	9568.11
454.34	9338.74
454.52	9710.88
454.70	9523.64
454.89	9682.80
455.07	9767.06
455.26	9886.42
455.44	10029.20
455.62	9643.01
455.81	9802.16
455.99	9951.96
456.17	9947.28
456.36	10064.30
456.54	10008.13
456.73	10204.74
456.91	10480.92
457.09	10377.94
457.28	10434.11
457.46	10174.31
457.64	10441.13
457.83	10576.88
458.01	10494.96
458.19	10778.17
458.38	10499.64
458.56	10616.67
458.74	10565.18
458.93	10560.50
459.11	10663.48
459.29	10691.57
459.48	10937.32
459.66	10696.25
459.84	10736.04
460.03	11070.73
460.21	10906.90
460.39	10822.64
460.57	11143.29
460.76	10979.45
460.94	11225.21
461.12	11119.89
461.31	11150.31
461.49	11279.04
461.67	11365.64
461.85	11405.43
462.04	11169.04
462.22	11634.80
462.40	11506.07
462.59	11356.28
462.77	11627.78
462.95	11393.73
463.13	11386.71
463.32	11365.64
463.50	11964.82
463.68	11833.75
463.86	11845.45
464.05	11576.29
464.23	11494.37
464.41	11967.16
464.59	11791.62
464.78	12163.76
464.96	11913.33
465.14	11857.15
465.32	11922.69
465.50	12095.89
465.69	11990.56
465.87	12107.59
466.05	11995.25
466.23	12217.60
466.41	11981.20
466.60	12320.58
466.78	12011.63
466.96	12322.92
467.14	12351.01
467.32	12266.75
467.51	12341.64
467.69	12060.78
467.87	12348.67
468.05	12552.29
468.23	12379.09
468.41	12463.35
468.60	12594.42
468.78	12475.06
468.96	12290.15
469.14	12599.10
469.32	12917.42
469.50	12629.53
469.69	12994.65
469.87	13055.51
470.05	12908.05
470.23	12816.77
470.41	12901.03
470.59	13186.58
470.77	12924.44
470.95	13048.49
471.14	13558.72
471.32	12917.42
471.50	13441.70
471.68	13628.94
471.86	13547.02
472.04	13862.99
472.22	13872.36
472.40	13673.41
472.58	13736.60
472.77	13781.07
472.95	14024.49
473.13	14422.38
473.31	14333.44
473.49	13944.91
473.67	14113.43
473.85	14008.11
474.03	14806.23
474.21	14443.45
474.39	14679.84
474.57	14977.09
474.75	14637.71
474.93	14956.02
475.12	14817.93
475.30	15044.96
475.48	14991.13
475.66	15016.88
475.84	15126.88
476.02	15400.72
476.20	15311.78
476.38	15903.94
476.56	16252.68
476.74	15845.43
476.92	15777.55
477.10	15641.80
477.28	15807.98
477.46	16173.10
477.64	16264.38
477.82	16400.13
478.00	17109.32
478.18	16791.00
478.36	16809.73
478.54	17022.72
478.72	16933.78
478.90	17207.62
479.08	17205.28
479.26	17781.05
479.44	17855.95
479.62	18073.62
479.80	17996.38
479.98	18094.68
480.16	18616.62
480.34	18153.20
480.52	18506.62
480.70	18492.57
480.88	18490.23
481.06	18614.28
481.24	18789.82
481.41	19054.30
481.59	19243.88
481.77	19578.58
481.95	19407.72
482.13	19407.72
482.31	19419.42
482.49	20100.52
482.67	19836.04
482.85	20147.33
483.03	20482.03
483.21	20453.94
483.39	20865.88
483.57	20706.72
483.74	20915.03
483.92	21144.40
484.10	20938.43
484.28	21507.18
484.46	22038.48
484.64	22080.61
484.82	22113.38
485.00	22363.82
485.18	22551.06
485.35	22817.88
485.53	22892.78
485.71	22874.06
485.89	23192.37
486.07	23180.67
486.25	23372.59
486.43	23630.05
486.61	23845.38
486.78	23964.75
486.96	24032.62
487.14	24301.78
487.32	24514.77
487.50	24870.53
487.68	25146.72
487.85	24980.54
488.03	25448.64
488.21	25694.40
488.39	25703.76
488.57	26019.74
488.75	26249.11
488.92	26515.93
489.10	26354.43
489.28	26408.26
489.46	26827.22
489.64	26939.57
489.81	27529.38
489.99	27573.85
490.17	27793.86
490.35	27819.61
490.53	28212.82
490.70	27899.19
490.88	28030.26
491.06	28802.63
491.24	28638.80
491.41	28936.04
491.59	29291.80
491.77	29067.11
491.95	29340.96
492.13	29432.24
492.30	29869.92
492.48	30192.91
492.66	29965.88
492.84	30394.20
493.01	30501.86
493.19	30485.48
493.37	30850.60
493.54	31033.16
493.72	31400.63
493.90	31592.55
494.08	31770.43
494.25	32004.49
494.43	32168.32
494.61	32126.19
494.79	32116.83
494.96	32428.12
495.14	32613.02
495.32	33017.94
495.49	33214.54
495.67	33406.47
495.85	33350.29
496.02	33722.44
496.20	33975.22
496.38	33724.78
496.55	34199.91
496.73	34745.25
496.91	34628.23
497.09	34909.09
497.26	34721.85
497.44	34885.68
497.62	35199.32
497.79	35431.03
497.97	35377.20
498.14	35864.03
498.32	35608.91
498.50	36278.30
498.67	36353.20
498.85	36297.03
499.03	36100.42
499.20	36737.05
499.38	37137.28
499.56	37067.06
499.73	36760.45
499.91	36907.91
500.08	37273.03
500.26	37090.47
500.44	37476.66
500.61	37488.36
500.79	37488.36
500.97	37661.56
501.14	38473.73
501.32	38485.43
501.49	38534.58
501.67	38022.00
501.84	38689.06
502.02	38642.24
502.20	38625.86
502.37	39253.12
502.55	39227.38
502.72	39306.96
502.90	39374.83
503.07	39232.06
503.25	39864.00
503.43	39601.86
503.60	39775.06
503.78	40142.53
503.95	39861.66
504.13	40648.08
504.30	40208.06
504.48	40498.29
504.65	40645.74
504.83	40847.03
505.01	40725.32
505.18	40603.61
505.36	41261.30
505.53	41268.33
505.71	41125.55
505.88	41610.04
506.06	41095.13
506.23	41663.88
506.41	41617.07
506.58	41598.34
506.76	42153.05
506.93	42705.41
507.11	42405.83
507.28	42415.19
507.46	42616.47
507.63	42703.07
507.81	42880.95
507.98	42375.40
508.16	42962.87
508.33	43028.41
508.50	43210.97
508.68	43391.19
508.85	43709.50
509.03	43599.50
509.20	44098.03
509.38	43814.83
509.55	44065.27
509.73	44535.71
509.90	44238.47
510.08	43934.20
510.25	44201.02
510.42	44575.50
510.60	44561.46
510.77	45151.27
510.95	45270.64
511.12	44847.00
511.30	44893.82
511.47	45158.30
511.64	45549.17
511.82	45888.54
511.99	45619.38
512.17	45804.28
512.34	45610.02
512.51	46171.75
512.69	46394.10
512.86	46307.50
513.04	46607.09
513.21	46557.94
513.38	46490.06
513.56	46656.24
513.73	46593.04
513.90	46831.78
514.08	46735.82
514.25	47042.43
514.43	47295.21
514.60	47194.56
514.77	47068.17
514.95	47697.78
515.12	47012.00
515.29	47519.90
515.47	47648.63
515.64	48114.39
515.81	47543.30
515.99	47950.56
516.16	48332.06
516.33	48360.15
516.51	48430.36
516.68	48105.03
516.85	48093.33
517.03	48956.99
517.20	48633.99
517.37	48538.03
517.54	48769.74
517.72	48638.67
517.89	49141.89
518.06	48608.25
518.24	49282.32
518.41	48659.74
518.58	49322.11
518.75	49258.91
518.93	49537.44
519.10	49148.91
519.27	49549.14
519.45	49703.62
519.62	49455.52
519.79	49963.42
519.96	49951.71
520.14	49841.71
520.31	49776.17
520.48	49977.46
520.65	49628.72
520.83	50234.92
521.00	50394.07
521.17	50120.23
521.34	50513.44
521.52	50611.74
521.69	50681.96
521.86	50609.40
522.03	50869.20
522.20	51276.46
522.38	51550.30
522.55	51363.06
522.72	50988.57
522.89	51285.82
523.07	51283.48
523.24	51562.00
523.41	51625.20
523.58	51159.43
523.75	51629.88
523.92	51517.53
524.10	51976.28
524.27	51789.03
524.44	52041.81
524.61	52081.60
524.78	52072.24
524.96	52350.76
525.13	51992.66
525.30	52493.54
525.47	52097.98
525.64	52229.05
525.81	52516.94
525.98	52580.13
526.16	52350.76
526.33	52669.08
526.50	52830.57
526.67	52659.71
526.84	52889.09
527.01	52849.30
527.18	52999.09
527.36	53015.47
527.53	52643.33
527.70	53162.93
527.87	53172.29
528.04	53169.95
528.21	53401.66
528.38	53460.18
528.55	53469.54
528.72	53109.10
528.89	53705.93
529.07	53296.34
529.24	53090.37
529.41	53401.66
529.58	53741.04
529.75	53598.27
529.92	53422.73
530.09	53553.80
530.26	53771.47
530.43	53876.79
530.60	53750.40
530.77	53450.81
530.94	53769.13
531.11	53822.96
531.28	54103.82
531.46	53846.36
531.63	54134.25
531.80	54183.40
531.97	54277.02
532.14	54087.44
532.31	54408.09
532.48	54220.85
532.65	54384.69
532.82	54302.77
532.99	54501.71
533.16	54209.15
533.33	54817.69
533.50	54855.14
533.67	54749.81
533.84	54663.21
534.01	54974.50
534.18	54857.48
534.35	55068.12
534.52	54953.44
534.69	55004.93
534.86	55131.32
535.03	54724.07
535.20	55133.66
535.37	55299.84
535.54	54979.18
535.71	55189.83
535.88	55309.20
536.05	55302.18
536.22	55269.41
536.38	55639.22
536.55	55458.99
536.72	55587.72
536.89	55372.39
537.06	55398.14
537.23	55463.67
537.40	55444.95
537.57	55477.72
537.74	55718.79
537.91	55482.40
538.08	55880.29
538.25	55487.08
538.42	55613.47
538.59	56172.86
538.75	55721.13
538.92	55997.32
539.09	55889.65
539.26	56025.40
539.43	55824.12
539.60	56044.13
539.77	56123.71
539.94	56381.16
540.11	56285.20
540.28	56151.79
540.44	56418.61
540.61	56186.90
540.78	56140.09
540.95	56381.16
541.12	56236.05
541.29	56491.17
541.46	56430.32
541.62	56411.59
541.79	56603.52
541.96	56278.18
542.13	56500.53
542.30	56580.11
542.47	56879.70
542.63	56671.39
542.80	56624.58
542.97	56877.36
543.14	57006.09
543.31	57050.56
543.48	56949.92
543.64	57305.68
543.81	57387.60
543.98	57338.44
544.15	57186.31
544.32	57490.58
544.48	57593.56
544.65	57183.97
544.82	57556.11
544.99	57301.00
545.16	57228.44
545.32	57298.65
545.49	57759.74
545.66	57621.65
545.83	57261.21
546.00	57799.53
546.16	57443.77
546.33	57331.42
546.50	57120.77
546.67	57640.37
546.83	57298.65
547.00	57808.89
547.17	57612.29
547.34	57865.06
547.50	57560.79
547.67	57958.69
547.84	57705.91
548.00	58066.35
548.17	58045.29
548.34	57965.71
548.51	58047.63
548.67	57977.41
548.84	58045.29
549.01	57876.77
549.18	57836.98
549.34	57998.48
549.51	58169.33
549.68	58162.31
549.84	58181.04
550.01	58237.21
550.18	58145.93
550.34	58342.53
550.51	58183.38
550.68	58274.66
550.84	58267.64
551.01	58536.80
551.18	58560.20
551.34	58342.53
551.51	58499.35
551.68	58387.00
551.84	58649.14
552.01	58466.58
552.18	58571.91
552.34	58614.04
552.51	58555.52
552.68	58305.09
552.84	58581.27
553.01	58930.01
553.18	58635.10
553.34	58820.00
553.51	58632.76
553.67	58688.93
553.84	58782.55
554.01	58899.58
554.17	58885.54
554.34	58857.45
554.51	58803.62
554.67	59182.79
554.84	58962.78
555.00	58958.09
555.17	58775.53
555.33	59061.08
555.50	58777.87
555.67	58937.03
555.83	58974.48
556.00	59145.34
556.16	59316.20
556.33	59091.51
556.50	59018.95
556.66	59248.32
556.83	58993.20
556.99	59264.70
557.16	59416.84
557.32	59618.13
557.49	59416.84
557.65	59236.62
557.82	59465.99
557.98	59147.68
558.15	59395.77
558.32	59421.52
558.48	59208.53
558.65	59456.63
558.81	59536.21
558.98	59363.01
559.14	59461.31
559.31	59365.35
559.47	59545.57
559.64	59498.76
559.80	59426.20
559.97	59447.27
560.13	59660.26
560.30	59484.72
560.46	59639.19
560.63	59423.86
560.79	59842.82
560.96	59793.67
561.12	59735.15
561.29	59859.20
561.45	59662.60
561.61	59810.05
561.78	59667.28
561.94	59681.32
562.11	59751.54
562.27	59821.75
562.44	59831.11
562.60	59880.27
562.77	59796.01
562.93	59657.91
563.10	59934.10
563.26	59793.67
563.42	60020.70
563.59	59999.63
563.75	59859.20
563.92	59941.12
564.08	59688.34
564.24	60100.28
564.41	60025.38
564.57	60168.15
564.74	59826.43
564.90	59955.16
565.07	60011.34
565.23	59959.84
565.39	59943.46
565.56	60151.77
565.72	59910.69
565.88	60219.64
566.05	59852.18
566.21	60128.36
566.38	60044.10
566.54	60100.28
566.70	60294.54
566.87	60161.13
567.03	60133.04
567.19	60214.96
567.36	60200.92
567.52	60102.62
567.68	60423.27
567.85	60282.84
568.01	60360.08
568.17	60207.94
568.34	60278.16
568.50	60245.39
568.66	60273.48
568.83	60280.50
568.99	60217.30
569.15	60217.30
569.32	60339.01
569.48	60341.35
569.64	60411.57
569.81	60282.84
569.97	60364.76
570.13	60320.29
570.30	60083.89
570.46	60191.56
570.62	60397.52
570.78	60411.57
570.95	60530.93
571.11	60619.88
571.27	60306.24
571.43	60591.79
571.60	60589.45
571.76	60502.85
571.92	60214.96
572.09	60320.29
572.25	60441.99
572.41	60519.23
572.57	60580.09
572.74	60711.16
572.90	60343.69
573.06	60591.79
573.22	60413.91
573.38	60528.59
573.55	60498.17
573.71	60631.58
573.87	60764.99
574.03	60437.31
574.20	60622.22
574.36	60615.19
574.52	60664.35
574.68	60449.02
574.84	60692.43
575.01	60636.26
575.17	60654.98
575.33	60322.63
575.49	60320.29
575.65	60643.28
575.82	60858.61
575.98	60685.41
576.14	60987.34
576.30	60750.94
576.46	60582.43
576.62	60669.03
576.79	60470.08
576.95	60250.07
577.11	60842.23
577.27	60839.89
577.43	60589.45
577.59	60652.64
577.75	60683.07
577.92	60420.93
578.08	60570.72
578.24	60636.26
578.40	60711.16
578.56	60889.04
578.72	60874.99
578.88	60942.87
579.04	60814.14
579.21	60617.53
579.37	60802.44
579.53	60919.46
579.69	60523.91
579.85	60669.03
580.01	60760.31
580.17	60729.88
580.33	60907.76
580.49	61048.19
580.65	60706.47
580.82	60781.37
580.98	60764.99
581.14	60867.97
581.30	60842.23
581.46	60837.54
581.62	60552.00
581.78	60933.51
581.94	60874.99
582.10	60762.65
582.26	60694.77
582.42	60748.60
582.58	60774.35
582.74	60757.97
582.90	60725.20
583.06	60928.83
583.22	60720.52
583.38	60720.52
583.54	60823.50
583.70	60804.78
583.86	60828.18
584.02	60741.58
584.18	60942.87
584.34	60966.27
584.50	60816.48
584.66	60685.41
584.82	60793.07
584.98	60985.00
585.14	60912.44
585.30	60821.16
585.46	61029.47
585.62	60945.21
585.78	60999.04
585.94	60849.25
586.10	60867.97
586.26	60961.59
586.42	60889.04
586.58	60907.76
586.74	61055.21
586.90	61034.15
587.06	60898.40
587.22	61050.53
587.38	60860.95
587.54	60893.72
587.70	61066.92
587.86	60802.44
588.02	60898.40
588.18	60989.68
588.34	60753.29
588.49	60736.90
