SpectraSuite Data File
++++++++++++++++++++++++++++++++++++
Date: Fri Oct 25 10:48:00 EDT 2013
User: price-jones
Dark Spectrum Present: No
Reference Spectrum Present: No
Number of Sampled Component Spectra: 1
Spectrometers: USB2+H05261
Integration Time (usec): 100000 (USB2+H05261)
Spectra Averaged: 1 (USB2+H05261)
Boxcar Smoothing: 0 (USB2+H05261)
Correct for Electrical Dark: No (USB2+H05261)
Strobe/Lamp Enabled: No (USB2+H05261)
Correct for Detector Non-linearity: No (USB2+H05261)
Correct for Stray Light: No (USB2+H05261)
Number of Pixels in Processed Spectrum: 2048
>>>>>Begin Processed Spectral Data<<<<<
365.73	93.62
365.92	93.62
366.12	93.62
366.32	72.56
366.52	35.11
366.72	42.13
366.91	9.36
367.11	117.03
367.31	0.00
367.51	28.09
367.70	0.00
367.90	51.49
368.10	16.38
368.30	44.47
368.49	81.92
368.69	53.83
368.89	23.41
369.09	86.60
369.28	154.48
369.48	84.26
369.68	74.90
369.87	49.15
370.07	117.03
370.27	154.48
370.47	198.95
370.66	348.74
370.86	388.53
371.06	451.72
371.25	545.34
371.45	465.77
371.65	430.66
371.84	388.53
372.04	404.91
372.24	454.06
372.44	461.09
372.63	475.13
372.83	503.22
373.03	433.00
373.22	589.82
373.42	465.77
373.62	510.24
373.81	547.69
374.01	603.86
374.21	547.69
374.40	514.92
374.60	545.34
374.79	531.30
374.99	578.11
375.19	538.32
375.38	592.16
375.58	648.33
375.78	643.65
375.97	538.32
376.17	589.82
376.37	571.09
376.56	660.03
376.76	627.26
376.95	634.29
377.15	606.20
377.35	610.88
377.54	603.86
377.74	603.86
377.93	603.86
378.13	594.50
378.33	587.47
378.52	622.58
378.72	615.56
378.91	608.54
379.11	638.97
379.31	650.67
379.50	629.60
379.70	676.41
379.89	692.80
380.09	641.31
380.28	631.94
380.48	643.65
380.68	669.39
380.87	678.76
381.07	634.29
381.26	678.76
381.46	674.07
381.65	671.73
381.85	636.63
382.04	678.76
382.24	739.61
382.43	692.80
382.63	643.65
382.83	662.37
383.02	830.89
383.22	699.82
383.41	723.23
383.61	678.76
383.80	737.27
384.00	748.97
384.19	683.44
384.39	739.61
384.58	741.95
384.78	798.12
384.97	741.95
385.17	760.67
385.36	704.50
385.56	725.57
385.75	777.06
385.95	851.96
386.14	819.19
386.34	763.01
386.53	833.23
386.72	788.76
386.92	772.38
387.11	849.61
387.31	840.25
387.50	758.33
387.70	765.36
387.89	784.08
388.09	849.61
388.28	772.38
388.48	830.89
388.67	910.47
388.86	954.94
389.06	812.17
389.25	805.14
389.45	802.80
389.64	851.96
389.84	901.11
390.03	933.87
390.22	898.77
390.42	875.36
390.61	1029.84
390.81	891.74
391.00	915.15
391.19	1039.20
391.39	1015.79
391.58	947.92
391.78	957.28
391.97	917.49
392.16	961.96
392.36	1057.92
392.55	884.72
392.75	922.17
392.94	959.62
393.13	1053.24
393.33	971.32
393.52	985.37
393.71	1006.43
393.91	1041.54
394.10	1029.84
394.29	992.39
394.49	985.37
394.68	1036.86
394.88	1064.94
395.07	1118.78
395.26	1090.69
395.46	1062.60
395.65	1174.95
395.84	1128.14
396.04	1146.86
396.23	1142.18
396.42	1142.18
396.62	1184.31
396.81	1109.41
397.00	1088.35
397.19	1118.78
397.39	1181.97
397.58	1268.57
397.77	1240.48
397.97	1240.48
398.16	1256.87
398.35	1273.25
398.55	1256.87
398.74	1306.02
398.93	1310.70
399.12	1322.40
399.32	1352.83
399.51	1238.14
399.70	1303.68
399.90	1334.11
400.09	1322.40
400.28	1334.11
400.47	1341.13
400.67	1453.47
400.86	1394.96
401.05	1439.43
401.24	1514.33
401.44	1507.30
401.63	1423.05
401.82	1497.94
402.01	1458.15
402.21	1474.54
402.40	1516.67
402.59	1526.03
402.78	1586.88
402.97	1490.92
403.17	1575.18
403.36	1568.16
403.55	1530.71
403.74	1556.46
403.93	1530.71
404.13	1668.80
404.32	1537.73
404.51	1614.97
404.70	1619.65
404.89	1664.12
405.09	1689.87
405.28	1769.44
405.47	1614.97
405.66	1771.79
405.85	1715.61
406.05	1685.19
406.24	1774.13
406.43	1748.38
406.62	1785.83
406.81	1844.34
407.00	1685.19
407.20	1746.04
407.39	1783.49
407.58	1818.60
407.77	1888.81
407.96	1912.22
408.15	1844.34
408.34	1853.70
408.54	1994.14
408.73	1944.99
408.92	1973.07
409.11	1937.96
409.30	2040.95
409.49	1966.05
409.68	2073.71
409.87	1963.71
410.07	2026.90
410.26	2080.74
410.45	2026.90
410.64	2127.55
410.83	2125.21
411.02	2169.68
411.21	2352.24
411.40	2193.08
411.59	2275.00
411.78	2270.32
411.98	2174.36
412.17	2345.22
412.36	2277.34
412.55	2380.32
412.74	2387.35
412.93	2462.24
413.12	2328.83
413.31	2443.52
413.50	2441.18
413.69	2476.29
413.88	2621.40
414.07	2525.44
414.26	2647.15
414.45	2633.10
414.64	2581.61
414.83	2665.87
415.02	2658.85
415.22	2590.97
415.41	2682.25
415.60	2651.83
415.79	2686.94
415.98	2890.56
416.17	2785.24
416.36	2871.84
416.55	2729.06
416.74	2944.39
416.93	2810.98
417.12	2918.65
417.31	3021.63
417.50	2953.76
417.69	3122.27
417.88	3030.99
418.07	2984.18
418.26	3070.78
418.45	3019.29
418.64	3136.32
418.83	3070.78
419.02	3164.40
419.21	3101.21
419.39	3185.47
419.58	3103.55
419.77	3028.65
419.96	3262.71
420.15	3173.77
420.34	3171.43
420.53	3171.43
420.72	3330.58
420.91	3459.31
421.10	3368.03
421.29	3365.69
421.48	3346.97
421.67	3400.80
421.86	3311.86
422.05	3316.54
422.24	3276.75
422.43	3473.36
422.61	3403.14
422.80	3389.10
422.99	3274.41
423.18	3384.41
423.37	3578.68
423.56	3471.01
423.75	3487.40
423.94	3349.31
424.13	3295.47
424.32	3323.56
424.50	3618.47
424.69	3576.34
424.88	3634.85
425.07	3508.46
425.26	3459.31
425.45	3377.39
425.64	3480.38
425.83	3466.33
426.01	3531.87
426.20	3634.85
426.39	3494.42
426.58	3501.44
426.77	3534.21
426.96	3538.89
427.15	3616.13
427.33	3592.72
427.52	3585.70
427.71	3733.15
427.90	3702.73
428.09	3627.83
428.28	3691.02
428.46	3843.16
428.65	3735.50
428.84	3796.35
429.03	3826.78
429.22	3775.28
429.40	3716.77
429.59	3625.49
429.78	3719.11
429.97	3679.32
430.16	3857.20
430.34	3929.76
430.53	3740.18
430.72	3901.67
430.91	3772.94
431.10	3946.14
431.28	4063.17
431.47	4070.19
431.66	4021.04
431.85	3929.76
432.03	4100.62
432.22	4346.37
432.41	4098.28
432.60	4159.13
432.79	4081.89
432.97	4201.26
433.16	4187.22
433.35	4065.51
433.54	4177.86
433.72	4032.74
433.91	4276.16
434.10	4095.94
434.28	4182.54
434.47	4152.11
434.66	4318.29
434.85	4456.38
435.03	4400.21
435.22	4369.78
435.41	4470.42
435.59	4512.55
435.78	4540.64
435.97	4531.28
436.16	4477.44
436.34	4484.47
436.53	4578.09
436.72	4676.39
436.90	4386.16
437.09	4624.90
437.28	4587.45
437.46	4617.88
437.65	4486.81
437.84	4688.09
438.02	4706.82
438.21	4547.66
438.40	4702.14
438.58	4695.11
438.77	4873.00
438.96	4819.16
439.14	4777.03
439.33	5015.77
439.52	4992.36
439.70	5060.24
439.89	5212.37
440.08	4933.85
440.26	5135.14
440.45	4947.89
440.63	5249.82
440.82	5291.95
441.01	5184.29
441.19	5343.44
441.38	5343.44
441.57	5320.04
441.75	5439.40
441.94	5462.81
442.12	5526.00
442.31	5696.86
442.50	5579.84
442.68	5530.69
442.87	5554.09
443.05	5537.71
443.24	5593.88
443.43	5631.33
443.61	5738.99
443.80	5914.53
443.98	5657.07
444.17	5579.84
444.35	5813.89
444.54	5727.29
444.73	5657.07
444.91	5799.85
445.10	5710.91
445.28	5741.33
445.47	5504.94
445.65	5530.69
445.84	5856.02
446.02	5846.66
446.21	5750.70
446.39	5802.19
446.58	5886.45
446.77	5802.19
446.95	6001.13
447.14	5961.34
447.32	6038.58
447.51	5893.47
447.69	5851.34
447.88	5891.13
448.06	5792.83
448.25	5877.09
448.43	5984.75
448.62	5963.68
448.80	5895.81
448.99	6174.33
449.17	6024.54
449.36	5870.06
449.54	6083.05
449.73	6256.25
449.91	6387.32
450.10	6352.21
450.28	6361.58
450.46	6214.12
450.65	6347.53
450.83	6455.20
451.02	6282.00
451.20	6441.15
451.39	6324.13
451.57	6289.02
451.76	6312.42
451.94	6504.35
452.13	6384.98
452.31	6267.95
452.49	6209.44
452.68	6506.69
452.86	6452.86
453.05	6565.20
453.23	6476.26
453.42	6338.17
453.60	6485.62
453.78	6523.07
453.97	6640.10
454.15	6394.34
454.34	6499.67
454.52	6616.69
454.70	6590.95
454.89	6658.82
455.07	6532.44
455.26	6881.18
455.44	6867.13
455.62	6707.98
455.81	6843.73
455.99	7019.27
456.17	6918.62
456.36	7094.16
456.54	7014.59
456.73	7077.78
456.91	7122.25
457.09	7115.23
457.28	7300.13
457.46	7311.83
457.64	7166.72
457.83	7295.45
458.01	6993.52
458.19	7314.17
458.38	7157.36
458.56	7342.26
458.74	7419.50
458.93	7023.95
459.11	7328.22
459.29	7274.38
459.48	7499.08
459.66	7482.69
459.84	7693.34
460.03	7543.55
460.21	7426.52
460.39	7517.80
460.57	7466.31
460.76	7468.65
460.94	7768.24
461.12	7606.74
461.31	7405.46
461.49	7866.54
461.67	7604.40
461.85	7824.41
462.04	7756.54
462.22	8077.19
462.40	7948.46
462.59	7817.39
462.77	7913.35
462.95	7887.61
463.13	7925.05
463.32	7826.75
463.50	7871.22
463.68	7798.66
463.86	8116.98
464.05	7775.26
464.23	7925.05
464.41	8128.68
464.59	7887.61
464.78	8224.64
464.96	8049.10
465.14	8065.49
465.32	8208.26
465.50	8133.36
465.69	8262.09
465.87	8175.49
466.05	8311.24
466.23	8135.70
466.41	8273.79
466.60	8203.58
466.78	8322.94
466.96	8315.92
467.14	8327.63
467.32	8451.67
467.51	8472.74
467.69	8397.84
467.87	8416.57
468.05	8388.48
468.23	8601.47
468.41	8482.10
468.60	8547.64
468.78	8840.20
468.96	8421.25
469.14	8540.61
469.32	8535.93
469.50	8304.22
469.69	8690.41
469.87	8784.03
470.05	8751.26
470.23	8823.82
470.41	8645.94
470.59	8971.27
470.77	8968.93
470.95	9029.79
471.14	9177.24
471.32	9020.42
471.50	9254.48
471.68	9121.07
471.86	9415.98
472.04	9188.94
472.22	9167.88
472.40	9142.13
472.58	9322.35
472.77	9481.51
472.95	9497.89
473.13	9612.58
473.31	9533.00
473.49	9537.68
473.67	9497.89
473.85	9699.18
474.03	9820.89
474.21	9783.44
474.39	9907.49
474.57	9858.34
474.75	9916.85
474.93	10001.11
475.12	10015.15
475.30	10200.05
475.48	10083.03
475.66	10029.20
475.84	10167.29
476.02	10043.24
476.20	10244.52
476.38	10462.19
476.56	10583.90
476.74	10562.84
476.92	10647.10
477.10	10677.52
477.28	11007.54
477.46	10869.45
477.64	10930.30
477.82	11117.54
478.00	11274.36
478.18	11265.00
478.36	11288.40
478.54	11286.06
478.72	11571.61
478.90	11438.20
479.08	11772.89
479.26	11672.25
479.44	11733.11
479.62	11920.35
479.80	11740.13
479.98	12002.27
480.16	12318.24
480.34	12049.08
480.52	12325.26
480.70	12276.11
480.88	12079.50
481.06	12437.61
481.24	12638.89
481.41	12891.67
481.59	12629.53
481.77	12868.27
481.95	12933.80
482.13	12889.33
482.31	13104.66
482.49	13479.15
482.67	13181.90
482.85	13469.78
483.03	13582.13
483.21	13741.29
483.39	13809.16
483.57	13958.96
483.74	14080.66
483.92	14183.65
484.10	14068.96
484.28	14104.07
484.46	14576.86
484.64	14635.37
484.82	14539.41
485.00	14574.52
485.18	15033.26
485.35	15096.46
485.53	14885.81
485.71	14876.44
485.89	15176.03
486.07	15077.73
486.25	15115.18
486.43	15538.82
486.61	15707.34
486.78	15538.82
486.96	15765.85
487.14	16095.86
487.32	16039.69
487.50	16056.08
487.68	16196.51
487.85	16280.77
488.03	16673.98
488.21	16711.42
488.39	16861.22
488.57	17151.45
488.75	17195.92
488.92	17053.14
489.10	17277.83
489.28	17635.94
489.46	17898.08
489.64	17678.07
489.81	17954.25
489.99	18352.14
490.17	18197.67
490.35	18246.82
490.53	18225.75
490.70	18532.36
490.88	18600.24
491.06	18831.95
491.24	18672.79
491.41	18960.68
491.59	18743.01
491.77	18934.93
491.95	19105.79
492.13	19211.12
492.30	19609.01
492.48	19534.11
492.66	19967.11
492.84	19798.59
493.01	19864.13
493.19	19927.32
493.37	20051.37
493.54	20215.21
493.72	20294.79
493.90	20414.15
494.08	20996.95
494.25	21202.91
494.43	20905.66
494.61	21343.35
494.79	20996.95
494.96	21401.86
495.14	21291.85
495.32	21809.11
495.49	21589.10
495.67	21729.53
495.85	21914.44
496.02	22057.21
496.20	22239.77
496.38	22230.41
496.55	21977.63
496.73	22614.26
496.91	22312.33
497.09	22630.64
497.26	22492.55
497.44	22860.01
497.62	22855.33
497.79	23159.60
497.97	23049.60
498.14	23175.98
498.32	23166.62
498.50	23641.75
498.67	23433.44
498.85	23803.25
499.03	23845.38
499.20	23899.21
499.38	23857.08
499.56	23772.82
499.73	23953.04
499.91	24460.94
500.08	24325.19
500.26	24315.83
500.44	24489.03
500.61	24285.40
500.79	24500.73
500.97	24706.70
501.14	24915.00
501.32	25053.09
501.49	25160.76
501.67	24641.16
501.84	25362.04
502.02	25247.36
502.20	25453.33
502.37	25483.75
502.55	25383.11
502.72	25406.52
502.90	25500.14
503.07	25474.39
503.25	25816.11
503.43	25785.68
503.60	26143.78
503.78	25865.26
503.95	26099.31
504.13	25865.26
504.30	26232.72
504.48	26155.49
504.65	26389.54
504.83	26707.85
505.01	26670.40
505.18	26794.45
505.36	26827.22
505.53	26242.09
505.71	27019.14
505.88	26977.01
506.06	27110.43
506.23	27292.99
506.41	27283.62
506.58	27302.35
506.76	27325.75
506.93	27459.16
507.11	27573.85
507.28	27229.79
507.46	27524.70
507.63	27538.74
507.81	28048.98
507.98	27707.26
508.16	27917.91
508.33	27999.83
508.50	28297.08
508.68	28086.43
508.85	28680.92
509.03	28276.01
509.20	28481.98
509.38	28739.44
509.55	28435.17
509.73	28666.88
509.90	28900.94
510.08	28896.25
510.25	29036.69
510.42	28980.51
510.60	29404.15
510.77	28952.43
510.95	29266.06
511.12	29567.99
511.30	29294.14
511.47	29907.37
511.64	29474.37
511.82	30080.56
511.99	29654.59
512.17	29654.59
512.34	29502.45
512.51	30398.88
512.69	30127.38
512.86	30211.64
513.04	30859.96
513.21	30129.72
513.38	30185.89
513.56	30593.14
513.73	30211.64
513.90	30752.30
514.08	30691.44
514.25	30370.79
514.43	30768.68
514.60	31145.51
514.77	30962.95
514.95	31304.67
515.12	31028.48
515.29	31122.10
515.47	31225.09
515.64	31398.29
515.81	31264.88
515.99	31208.70
516.16	31681.49
516.33	31229.77
516.51	31531.70
516.68	31140.83
516.85	31498.93
517.03	31227.43
517.20	31634.68
517.37	32093.43
517.54	32091.09
517.72	31894.48
517.89	31992.78
518.06	31920.23
518.24	31772.77
518.41	32182.37
518.58	32109.81
518.75	32266.63
518.93	32629.41
519.10	32364.93
519.27	32631.75
519.45	32498.34
519.62	32718.35
519.79	32746.44
519.96	33181.77
520.14	33291.78
520.31	32891.55
520.48	33001.55
520.65	32999.21
520.83	33242.63
521.00	33446.26
521.17	33467.32
521.34	33635.84
521.52	33816.06
521.69	33612.43
521.86	33928.41
522.03	33441.57
522.20	34066.50
522.38	33975.22
522.55	34000.96
522.72	33813.72
522.89	33912.02
523.07	34293.53
523.24	33696.69
523.41	34206.93
523.58	34139.05
523.75	34595.46
523.92	34384.81
524.10	34759.30
524.27	34820.15
524.44	34691.42
524.61	34691.42
524.78	34508.86
524.96	35131.44
525.13	34684.40
525.30	34672.70
525.47	34958.24
525.64	35026.12
525.81	35297.62
525.98	35246.13
526.16	34670.36
526.33	35026.12
526.50	35290.60
526.67	35227.40
526.84	35442.73
527.01	35091.65
527.18	35129.10
527.36	35791.47
527.53	35714.23
527.70	36093.40
527.87	35976.37
528.04	35854.67
528.21	35938.93
528.38	35732.96
528.55	35988.08
528.72	36011.48
528.89	36524.06
529.07	36121.49
529.24	36044.25
529.41	36285.33
529.58	36414.05
529.75	36081.70
529.92	36549.81
530.09	36563.85
530.26	36212.77
530.43	36690.24
530.60	36362.56
530.77	36493.63
530.94	36905.57
531.11	36854.08
531.28	37069.40
531.46	37156.00
531.63	36840.03
531.80	36863.44
531.97	36671.51
532.14	37013.23
532.31	36837.69
532.48	37010.89
532.65	37493.04
532.82	37223.88
532.99	37401.76
533.16	37006.21
533.33	37441.55
533.50	37551.56
533.67	37469.64
533.84	37331.54
534.01	37280.05
534.18	37771.57
534.35	38052.43
534.52	37523.47
534.69	37846.46
534.86	38295.85
535.03	37380.70
535.20	37926.04
535.37	38464.36
535.54	38291.16
535.71	38181.16
535.88	38061.79
536.05	37968.17
536.22	38099.24
536.38	38712.46
536.55	37961.15
536.72	38476.07
536.89	37841.78
537.06	38635.22
537.23	38532.24
537.40	38595.43
537.57	38813.10
537.74	38380.10
537.91	38742.89
538.08	38696.08
538.25	38363.72
538.42	38787.36
538.59	38953.54
538.75	38660.97
538.92	38565.01
539.09	39037.80
539.26	39009.71
539.43	39253.12
539.60	38958.22
539.77	38948.85
539.94	39152.48
540.11	39131.42
540.28	39285.89
540.44	39267.17
540.61	39292.91
540.78	39058.86
540.95	39077.58
541.12	39077.58
541.29	39414.62
541.46	39222.70
541.62	39496.54
541.79	39543.35
541.96	39398.24
542.13	39693.15
542.30	39730.59
542.47	39716.55
542.63	39601.86
542.80	39585.48
542.97	39831.24
543.14	40142.53
543.31	40329.77
543.48	40032.52
543.64	40900.86
543.81	40854.05
543.98	40196.36
544.15	40388.28
544.32	40514.67
544.48	40608.29
544.65	40552.12
544.82	40416.37
544.99	40175.30
545.16	40718.30
545.32	40421.05
545.49	41198.11
545.66	40519.35
545.83	40746.39
546.00	40570.85
546.16	40985.12
546.33	40339.13
546.50	40142.53
546.67	40748.73
546.83	40542.76
547.00	41118.53
547.17	40886.82
547.34	40573.19
547.50	41022.57
547.67	41015.55
547.84	41102.15
548.00	41476.63
548.17	41303.43
548.34	41324.50
548.51	41427.48
548.67	41497.70
548.84	41874.52
549.01	40924.27
549.18	41663.88
549.34	41462.59
549.51	41507.06
549.68	41778.56
549.84	41500.04
550.01	41830.05
550.18	41441.53
550.34	41813.67
550.51	41406.42
550.68	41483.66
550.84	41558.55
551.01	41991.55
551.18	41542.17
551.34	41794.95
551.51	42300.50
551.68	42342.63
551.84	41766.86
552.01	41790.27
552.18	42120.28
552.34	41860.48
552.51	42277.10
552.68	42316.89
552.84	42220.92
553.01	42431.57
553.18	42110.92
553.34	42305.18
553.51	41682.60
553.67	42426.89
553.84	42211.56
554.01	42703.07
554.17	42454.98
554.34	42768.61
554.51	42651.58
554.67	42370.72
554.84	42857.55
555.00	42305.18
555.17	42356.67
555.33	42363.70
555.50	42749.88
555.67	42382.42
555.83	42733.50
556.00	42667.97
556.16	42663.28
556.33	42841.17
556.50	42501.79
556.66	42703.07
556.83	42656.26
556.99	43051.81
557.16	42850.53
557.32	42735.84
557.49	42600.09
557.65	42845.85
557.82	42649.24
557.98	43007.34
558.15	42770.95
558.32	42946.49
558.48	42976.92
558.65	42822.44
558.81	43299.91
558.98	43356.08
559.14	42838.83
559.31	43042.45
559.47	42581.37
559.64	43447.36
559.80	43463.75
559.97	43442.68
560.13	43257.78
560.30	43377.15
560.46	43498.86
560.63	42862.23
560.79	43133.73
560.96	43594.82
561.12	43927.17
561.29	43576.09
561.45	43164.16
561.61	43494.18
561.78	43229.69
561.94	43269.48
562.11	43318.64
562.27	43367.79
562.44	43358.42
562.60	43793.76
562.77	43693.12
562.93	43381.83
563.10	43620.56
563.26	43232.04
563.42	43496.52
563.59	43679.08
563.75	43599.50
563.92	43723.55
564.08	43873.34
564.24	44198.68
564.41	43934.20
564.57	43931.86
564.74	43344.38
564.90	43669.72
565.07	43564.39
565.23	43524.60
565.39	43976.33
565.56	43744.61
565.72	43894.41
565.88	43524.60
566.05	43730.57
566.21	43746.95
566.38	43629.93
566.54	44062.93
566.70	43714.19
566.87	44264.21
567.03	43732.91
567.19	44343.79
567.36	43899.09
567.52	44456.14
567.68	44030.16
567.85	43833.55
568.01	43882.70
568.17	43669.72
568.34	44140.16
568.50	44020.80
568.66	43997.39
568.83	44273.57
568.99	43629.93
569.15	43983.35
569.32	44245.49
569.48	44032.50
569.64	44238.47
569.81	44051.22
569.97	43807.81
570.13	44273.57
570.30	43688.44
570.46	44252.51
570.62	44009.09
570.78	43999.73
570.95	43688.44
571.11	44334.43
571.27	43847.60
571.43	43737.59
571.60	44083.99
571.76	44107.40
571.92	44154.21
572.09	43978.67
572.25	44210.38
572.41	43861.64
572.57	44280.60
572.74	44959.35
572.90	44240.81
573.06	44034.84
573.22	44128.46
573.38	44105.06
573.55	44215.06
573.71	44404.64
573.87	44481.88
574.03	43658.01
574.20	44289.96
574.36	44034.84
574.52	44275.91
574.68	44325.07
574.84	44507.63
575.01	43728.23
575.17	44535.71
575.33	43639.29
575.49	44343.79
575.65	44444.43
575.82	44823.60
575.98	44004.41
576.14	44807.22
576.30	44392.94
576.46	44353.15
576.62	44133.14
576.79	44201.02
576.95	44409.32
577.11	43943.56
577.27	44041.86
577.43	44587.21
577.59	44261.87
577.75	44074.63
577.92	44140.16
578.08	44184.63
578.24	44067.61
578.40	44161.23
578.56	44240.81
578.72	43838.23
578.88	44734.66
579.04	44336.77
579.21	44353.15
579.37	44346.13
579.53	44299.32
579.69	44676.15
579.85	44385.92
580.01	44289.96
580.17	44467.84
580.33	44664.44
580.49	44570.82
580.65	44765.09
580.82	44638.70
580.98	44032.50
581.14	43992.71
581.30	44608.27
581.46	44554.44
581.62	44781.47
581.78	44074.63
581.94	44566.14
582.10	44147.18
582.26	44425.71
582.42	44500.61
582.58	44561.46
582.74	44306.34
582.90	44591.89
583.06	44645.72
583.22	44568.48
583.38	44758.06
583.54	44512.31
583.70	44184.63
583.86	44690.19
584.02	44144.84
584.18	44264.21
584.34	44357.83
584.50	44629.34
584.66	44608.27
584.82	44046.54
584.98	44645.72
585.14	44652.74
585.30	44570.82
585.46	44762.75
585.62	44748.70
585.78	44004.41
585.94	44208.04
586.10	44680.83
586.26	44727.64
586.42	44514.65
586.58	45017.86
586.74	44299.32
586.90	44304.00
587.06	44208.04
587.22	44765.09
587.38	43936.54
587.54	44982.76
587.70	44837.64
587.86	44509.97
588.02	44577.84
588.18	44847.00
588.34	44306.34
588.49	44177.61
588.65	44397.62
588.81	44201.02
588.97	44385.92
589.13	44334.43
589.29	44259.53
589.45	44816.58
589.61	44664.44
589.77	44898.50
589.93	44814.24
590.08	44975.73
590.24	44467.84
