SpectraSuite Data File
++++++++++++++++++++++++++++++++++++
Date: Fri Oct 25 11:26:28 EDT 2013
User: price-jones
Dark Spectrum Present: No
Reference Spectrum Present: No
Number of Sampled Component Spectra: 1
Spectrometers: USB2+H05261
Integration Time (usec): 100000 (USB2+H05261)
Spectra Averaged: 1 (USB2+H05261)
Boxcar Smoothing: 0 (USB2+H05261)
Correct for Electrical Dark: No (USB2+H05261)
Strobe/Lamp Enabled: No (USB2+H05261)
Correct for Detector Non-linearity: No (USB2+H05261)
Correct for Stray Light: No (USB2+H05261)
Number of Pixels in Processed Spectrum: 2048
>>>>>Begin Processed Spectral Data<<<<<
365.73	208.31
365.92	208.31
366.12	208.31
366.32	112.35
366.52	63.19
366.72	142.77
366.91	93.62
367.11	131.07
367.31	152.13
367.51	201.29
367.70	145.11
367.90	191.92
368.10	154.48
368.30	140.43
368.49	145.11
368.69	147.45
368.89	128.73
369.09	152.13
369.28	175.54
369.48	135.75
369.68	248.10
369.87	182.56
370.07	170.86
370.27	243.42
370.47	325.33
370.66	599.18
370.86	683.44
371.06	657.69
371.25	699.82
371.45	720.88
371.65	678.76
371.84	667.05
372.04	636.63
372.24	655.35
372.44	758.33
372.63	732.59
372.83	720.88
373.03	734.93
373.22	781.74
373.42	763.01
373.62	877.70
373.81	755.99
374.01	753.65
374.21	823.87
374.40	882.38
374.60	770.04
374.79	875.36
374.99	854.30
375.19	873.02
375.38	849.61
375.58	856.64
375.78	882.38
375.97	875.36
376.17	922.17
376.37	901.11
376.56	828.55
376.76	891.74
376.95	915.15
377.15	929.19
377.35	840.25
377.54	901.11
377.74	891.74
377.93	847.27
378.13	931.53
378.33	947.92
378.52	887.06
378.72	950.26
378.91	976.00
379.11	990.05
379.31	1011.11
379.50	858.98
379.70	1029.84
379.89	1074.31
380.09	945.58
380.28	1004.09
380.48	1018.13
380.68	978.34
380.87	929.19
381.07	1020.47
381.26	952.60
381.46	943.24
381.65	1088.35
381.85	1102.39
382.04	1020.47
382.24	1074.31
382.43	1102.39
382.63	1057.92
382.83	1039.20
383.02	1125.80
383.22	1156.22
383.41	1036.86
383.61	1116.44
383.80	1128.14
384.00	1111.75
384.19	1111.75
384.39	1076.65
384.58	1097.71
384.78	1158.57
384.97	1174.95
385.17	1160.91
385.36	1132.82
385.56	1165.59
385.75	1146.86
385.95	1123.46
386.14	1224.10
386.34	1165.59
386.53	1200.69
386.72	1242.82
386.92	1254.53
387.11	1350.49
387.31	1217.08
387.50	1205.38
387.70	1252.19
387.89	1256.87
388.09	1378.58
388.28	1289.64
388.48	1341.13
388.67	1275.59
388.86	1369.21
389.06	1301.34
389.25	1378.58
389.45	1280.27
389.64	1308.36
389.84	1317.72
390.03	1453.47
390.22	1392.62
390.42	1371.55
390.61	1331.76
390.81	1383.26
391.00	1427.73
391.19	1376.24
391.39	1418.36
391.58	1493.26
391.78	1411.34
391.97	1462.83
392.16	1455.81
392.36	1430.07
392.55	1551.78
392.75	1500.28
392.94	1476.88
393.13	1507.30
393.33	1481.56
393.52	1659.44
393.71	1483.90
393.91	1547.09
394.10	1647.74
394.29	1589.22
394.49	1614.97
394.68	1659.44
394.88	1687.53
395.07	1706.25
395.26	1734.34
395.46	1652.42
395.65	1640.72
395.84	1708.59
396.04	1820.94
396.23	1739.02
396.42	1741.36
396.62	1795.19
396.81	1825.62
397.00	1678.16
397.19	1785.83
397.39	1769.44
397.58	1781.15
397.77	1774.13
397.97	1886.47
398.16	1914.56
398.35	1919.24
398.55	1872.43
398.74	1888.81
398.93	2031.58
399.12	1949.67
399.32	1877.11
399.51	1944.99
399.70	2019.88
399.90	1954.35
400.09	2010.52
400.28	2057.33
400.47	2064.35
400.67	2087.76
400.86	1987.11
401.05	2040.95
401.24	2092.44
401.44	2179.04
401.63	2090.10
401.82	2099.46
402.01	1994.14
402.21	2200.10
402.40	2125.21
402.59	2256.28
402.78	2143.93
402.97	2289.04
403.17	2253.94
403.36	2190.74
403.55	2204.78
403.74	2366.28
403.93	2284.36
404.13	2361.60
404.32	2417.77
404.51	2307.77
404.70	2455.22
404.89	2338.20
405.09	2565.23
405.28	2492.67
405.47	2473.95
405.66	2513.74
405.85	2595.65
406.05	2499.69
406.24	2595.65
406.43	2537.14
406.62	2715.02
406.81	2698.64
407.00	2567.57
407.20	2658.85
407.39	2782.90
407.58	2740.77
407.77	2633.10
407.96	2754.81
408.15	2729.06
408.34	2747.79
408.54	2888.22
408.73	2778.22
408.92	2867.16
409.11	2876.52
409.30	2836.73
409.49	2899.92
409.68	2902.26
409.87	2818.00
410.07	3068.44
410.26	3082.49
410.45	2956.10
410.64	3023.97
410.83	2981.84
411.02	3129.30
411.21	3073.12
411.40	3145.68
411.59	3105.89
411.78	3201.85
411.98	3183.13
412.17	3215.90
412.36	3403.14
412.55	3417.18
412.74	3559.95
412.93	3454.63
413.12	3492.08
413.31	3651.24
413.50	3522.51
413.69	3419.52
413.88	3613.79
414.07	3616.13
414.26	3578.68
414.45	3548.25
414.64	3723.79
414.83	3756.56
415.02	3733.15
415.22	3868.91
415.41	3817.41
415.60	3892.31
415.79	3873.59
415.98	3967.21
416.17	4070.19
416.36	3831.46
416.55	3840.82
416.74	4152.11
416.93	4072.53
417.12	4053.81
417.31	4311.27
417.50	4119.34
417.69	4285.52
417.88	4231.69
418.07	4311.27
418.26	4236.37
418.45	4346.37
418.64	4547.66
418.83	4329.99
419.02	4407.23
419.21	4568.73
419.39	4573.41
419.58	4351.06
419.77	4650.64
419.96	4432.97
420.15	4662.35
420.34	4568.73
420.53	4554.68
420.72	4765.33
420.91	4650.64
421.10	4812.14
421.29	4851.93
421.48	4627.24
421.67	4762.99
421.86	4793.42
422.05	4931.51
422.24	4854.27
422.43	4788.74
422.61	4856.61
422.80	4898.74
422.99	4903.42
423.18	4971.30
423.37	4880.02
423.56	4931.51
423.75	4992.36
423.94	4788.74
424.13	4573.41
424.32	4692.77
424.50	5078.96
424.69	5167.90
424.88	4903.42
425.07	5050.88
425.26	4950.23
425.45	5027.47
425.64	4997.04
425.83	4952.57
426.01	5022.79
426.20	5076.62
426.39	5048.54
426.58	5041.51
426.77	4980.66
426.96	5071.94
427.15	5062.58
427.33	5268.55
427.52	5144.50
427.71	5308.34
427.90	5158.54
428.09	5320.04
428.28	5298.97
428.46	5310.68
428.65	5282.59
428.84	5540.05
429.03	5607.92
429.22	5331.74
429.40	5406.64
429.59	5371.53
429.78	5280.25
429.97	5268.55
430.16	5331.74
430.34	5575.16
430.53	5596.22
430.72	5502.60
430.91	5582.18
431.10	5661.76
431.28	5748.36
431.47	5881.77
431.66	5879.43
431.85	5837.30
432.03	5797.51
432.22	5907.51
432.41	6033.90
432.60	6064.33
432.79	5956.66
432.97	5834.96
433.16	5900.49
433.35	5912.19
433.54	6228.17
433.72	6228.17
433.91	6155.61
434.10	6162.63
434.28	6069.01
434.47	6289.02
434.66	6352.21
434.85	6274.98
435.03	6176.67
435.22	6291.36
435.41	6401.37
435.59	6335.83
435.78	6483.28
435.97	6415.41
436.16	6408.39
436.34	6471.58
436.53	6516.05
436.72	6623.72
436.90	6342.85
437.09	6630.74
437.28	6392.00
437.46	6612.01
437.65	6661.16
437.84	6703.29
438.02	6722.02
438.21	6923.30
438.40	6651.80
438.58	6897.56
438.77	6956.07
438.96	6902.24
439.14	7204.17
439.33	7075.44
439.52	7187.79
439.70	7105.87
439.89	7368.01
440.08	7400.77
440.26	7372.69
440.45	7365.67
440.63	7531.84
440.82	7459.29
441.01	7590.36
441.19	7595.04
441.38	7719.09
441.57	7583.34
441.75	7592.70
441.94	7946.12
442.12	7932.08
442.31	7875.90
442.50	8049.10
442.68	7833.77
442.87	8070.17
443.05	8152.09
443.24	8210.60
443.43	8250.39
443.61	8243.37
443.80	8285.50
443.98	8107.62
444.17	8013.99
444.35	8212.94
444.54	8404.86
444.73	8400.18
444.91	8292.52
445.10	8311.24
445.28	8414.23
445.47	8159.11
445.65	8287.84
445.84	8484.44
446.02	8594.45
446.21	8430.61
446.39	8336.99
446.58	8594.45
446.77	8496.14
446.95	8351.03
447.14	8439.97
447.32	8503.17
447.51	8390.82
447.69	8484.44
447.88	8624.87
448.06	8463.38
448.25	8482.10
448.43	8737.22
448.62	8617.85
448.80	8479.76
448.99	8704.45
449.17	8835.52
449.36	8613.17
449.54	8837.86
449.73	8830.84
449.91	8912.76
450.10	8978.30
450.28	9060.21
450.46	8837.86
450.65	9273.20
450.83	9200.65
451.02	9235.75
451.20	9249.80
451.39	9191.28
451.57	9221.71
451.76	9221.71
451.94	9130.43
452.13	9406.61
452.31	9355.12
452.49	8987.66
452.68	9210.01
452.86	9284.91
453.05	9490.87
453.23	9542.36
453.42	9430.02
453.60	9434.70
453.78	9385.55
453.97	9556.41
454.15	9352.78
454.34	9329.38
454.52	9654.71
454.70	9563.43
454.89	9907.49
455.07	9940.26
455.26	9867.70
455.44	9956.64
455.62	9872.38
455.81	10005.79
455.99	9977.70
456.17	10097.07
456.36	10085.37
456.54	10267.93
456.73	10209.42
456.91	10494.96
457.09	10296.02
457.28	10583.90
457.46	10221.12
457.64	10583.90
457.83	10537.09
458.01	10279.63
458.19	10658.80
458.38	10443.47
458.56	10654.12
458.74	10778.17
458.93	10771.15
459.11	10602.63
459.29	10827.32
459.48	10743.06
459.66	10710.29
459.84	10782.85
460.03	11215.85
460.21	10890.51
460.39	11140.95
460.57	10885.83
460.76	11023.92
460.94	11019.24
461.12	11180.74
461.31	11147.97
461.49	11262.66
461.67	11220.53
461.85	11199.46
462.04	11637.14
462.22	11557.57
462.40	11459.26
462.59	11487.35
462.77	11393.73
462.95	11698.00
463.13	11456.92
463.32	11768.21
463.50	11587.99
463.68	11683.95
463.86	11798.64
464.05	11597.35
464.23	11929.71
464.41	11763.53
464.59	11770.55
464.78	11997.59
464.96	11953.12
465.14	11733.11
465.32	12025.67
465.50	12287.81
465.69	12304.20
465.87	12236.32
466.05	12119.29
466.23	12072.48
466.41	12166.10
466.60	12365.05
466.78	12077.16
466.96	12287.81
467.14	12105.25
467.32	12322.92
467.51	12545.27
467.69	12224.62
467.87	12449.31
468.05	12542.93
468.23	12421.22
468.41	12496.12
468.60	12622.51
468.78	12826.14
468.96	12760.60
469.14	12683.36
469.32	13025.08
469.50	12690.38
469.69	12823.80
469.87	13111.68
470.05	12823.80
470.23	13144.45
470.41	12830.82
470.59	13404.25
470.77	13004.02
470.95	13334.03
471.14	13429.99
471.32	13156.15
471.50	13493.19
471.68	13502.55
471.86	13540.00
472.04	13717.88
472.22	13818.52
472.40	13586.81
472.58	13652.34
472.77	14169.60
472.95	13944.91
473.13	14387.27
473.31	13970.66
473.49	14115.77
473.67	14026.83
473.85	14389.61
474.03	14487.92
474.21	14452.81
474.39	14743.03
474.57	14693.88
474.75	14766.44
474.93	14892.83
475.12	14836.66
475.30	15208.80
475.48	14970.07
475.66	15283.70
475.84	15035.60
476.02	15342.21
476.20	15365.62
476.38	15864.15
476.56	15915.64
476.74	15939.05
476.92	15770.53
477.10	15747.12
477.28	16116.93
477.46	16208.21
477.64	16369.71
477.82	16664.61
478.00	16915.05
478.18	16634.19
478.36	16950.16
478.54	17132.72
478.72	17088.25
478.90	17266.13
479.08	17497.84
479.26	17762.33
479.44	17614.87
479.62	18087.66
479.80	18218.73
479.98	17921.48
480.16	18312.35
480.34	18153.20
480.52	18616.62
480.70	18691.52
480.88	18616.62
481.06	18647.05
481.24	18696.20
481.41	19080.05
481.59	19183.03
481.77	19363.25
481.95	19517.73
482.13	19529.43
482.31	19700.29
482.49	20088.82
482.67	20187.12
482.85	20446.92
483.03	20678.63
483.21	20617.78
483.39	20903.32
483.57	21057.80
483.74	21097.59
483.92	21252.06
484.10	21275.47
484.28	21460.37
484.46	21933.16
484.64	22113.38
484.82	22174.24
485.00	22398.93
485.18	22829.59
485.35	22831.93
485.53	22916.19
485.71	22934.91
485.89	23606.64
486.07	23250.88
486.25	23351.52
486.43	23459.19
486.61	23676.86
486.78	23718.99
486.96	24451.58
487.14	24376.68
487.32	24617.75
487.50	24933.73
487.68	25282.47
487.85	25238.00
488.03	25369.07
488.21	25614.82
488.39	25490.77
488.57	26157.83
488.75	26103.99
488.92	26235.06
489.10	26647.00
489.28	26885.73
489.46	26829.56
489.64	26651.68
489.81	27367.88
489.99	27353.84
490.17	27641.73
490.35	28130.90
490.53	28226.86
490.70	27920.25
490.88	28091.11
491.06	28816.68
491.24	28774.55
491.41	29109.24
491.59	28940.72
491.77	29371.38
491.95	29469.69
492.13	30073.54
492.30	30017.37
492.48	29839.49
492.66	30284.19
492.84	30312.28
493.01	30766.34
493.19	30490.16
493.37	30932.52
493.54	31346.79
493.72	31360.84
493.90	31391.26
494.08	31615.96
494.25	31967.04
494.43	31828.95
494.61	32086.40
494.79	32708.99
494.96	32540.47
495.14	32914.95
495.32	32903.25
495.49	33312.84
495.67	33242.63
495.85	33167.73
496.02	33724.78
496.20	33860.53
496.38	34204.59
496.55	34206.93
496.73	34831.85
496.91	34160.12
497.09	34820.15
497.26	34590.78
497.44	35248.47
497.62	35358.47
497.79	35580.82
497.97	35264.85
498.14	35894.46
498.32	36315.75
498.50	36023.19
498.67	36526.40
498.85	36250.22
499.03	36491.29
499.20	36334.48
499.38	36381.29
499.56	36802.58
499.73	37198.13
499.91	37167.71
500.08	37694.33
500.26	37792.63
500.44	37502.40
500.61	37446.23
500.79	37551.56
500.97	37818.38
501.14	38515.86
501.32	38209.25
501.49	38080.52
501.67	38768.63
501.84	38831.83
502.02	38742.89
502.20	39159.50
502.37	39171.21
502.55	39171.21
502.72	39344.41
502.90	39550.37
503.07	39653.36
503.25	39709.53
503.43	39290.57
503.60	39744.64
503.78	40261.90
503.95	39927.20
504.13	40524.04
504.30	40790.86
504.48	40421.05
504.65	40840.01
504.83	41177.04
505.01	41214.49
505.18	41614.72
505.36	41631.11
505.53	41198.11
505.71	41270.67
505.88	41916.65
506.06	41528.13
506.23	41621.75
506.41	42071.13
506.58	41883.89
506.76	41956.44
506.93	42204.54
507.11	42089.85
507.28	42768.61
507.46	42822.44
507.63	42639.88
507.81	43297.57
507.98	42710.10
508.16	42930.11
508.33	43814.83
508.50	43522.26
508.68	43840.57
508.85	43906.11
509.03	43894.41
509.20	43971.64
509.38	44336.77
509.55	44074.63
509.73	44652.74
509.90	44491.24
510.08	44198.68
510.25	44500.61
510.42	44697.21
510.60	44416.35
510.77	45352.56
510.95	45153.62
511.12	44753.38
511.30	45322.13
511.47	45144.25
511.64	45429.80
511.82	45837.05
511.99	46279.41
512.17	45818.33
512.34	45794.92
512.51	45961.10
512.69	46115.58
512.86	46384.74
513.04	46557.94
513.21	46597.73
513.38	46925.40
513.56	47040.09
513.73	47040.09
513.90	47068.17
514.08	46796.67
514.25	47332.65
514.43	47288.18
514.60	46791.99
514.77	47082.22
514.95	47349.04
515.12	47372.44
515.29	47405.21
515.47	47842.89
515.64	47810.12
515.81	47772.67
515.99	48191.63
516.16	48514.62
516.33	47997.37
516.51	48676.12
516.68	48238.44
516.85	48479.52
517.03	48708.89
517.20	48910.17
517.37	48648.03
517.54	48451.43
517.72	49116.14
517.89	49123.16
518.06	49125.50
518.24	48814.21
518.41	49015.50
518.58	49050.61
518.75	49221.47
518.93	49453.18
519.10	49441.48
519.27	49546.80
519.45	49495.31
519.62	50031.29
519.79	49624.04
519.96	50277.05
520.14	50171.72
520.31	49797.24
520.48	49851.07
520.65	50075.76
520.83	50515.78
521.00	50422.16
521.17	50508.76
521.34	50665.58
521.52	50759.20
521.69	50670.26
521.86	50965.17
522.03	50712.39
522.20	51070.49
522.38	51557.32
522.55	51447.32
522.72	51267.09
522.89	51035.38
523.07	51622.86
523.24	51466.04
523.41	51669.67
523.58	51201.56
523.75	51545.62
523.92	52069.90
524.10	51702.43
524.27	51807.76
524.44	51634.56
524.61	51583.07
524.78	51920.10
524.96	51978.62
525.13	52172.88
525.30	52259.48
525.47	52289.91
525.64	52245.44
525.81	52460.77
525.98	52376.51
526.16	52526.30
526.33	52493.54
526.50	52926.53
526.67	52760.36
526.84	52818.87
527.01	52882.06
527.18	53038.88
527.36	52889.09
527.53	52987.39
527.70	53429.75
527.87	53296.34
528.04	53064.63
528.21	53176.97
528.38	53059.94
528.55	53439.11
528.72	53551.46
528.89	53542.10
529.07	53326.77
529.24	53385.28
529.41	53455.50
529.58	53549.12
529.75	53322.08
529.92	53666.14
530.09	53453.15
530.26	53680.19
530.43	53717.64
530.60	53427.41
530.77	53656.78
530.94	54052.33
531.11	53801.89
531.28	54279.36
531.46	54162.34
531.63	54152.97
531.80	54248.94
531.97	54185.74
532.14	54419.80
532.31	54316.81
532.48	54408.09
532.65	54632.78
532.82	54232.55
532.99	54468.95
533.16	54672.57
533.33	54614.06
533.50	54805.98
533.67	54747.47
533.84	54600.02
534.01	55021.31
534.18	54848.11
534.35	55000.25
534.52	55009.61
534.69	54941.74
534.86	54918.33
535.03	54995.57
535.20	55161.75
535.37	55215.58
535.54	55152.38
535.71	54967.48
535.88	55182.81
536.05	55180.47
536.22	55550.27
536.38	55419.20
536.55	55379.42
536.72	55538.57
536.89	55255.37
537.06	55496.44
537.23	55798.37
537.40	55590.06
537.57	55552.62
537.74	55711.77
537.91	55697.73
538.08	55805.39
538.25	55781.99
538.42	56062.85
538.59	56093.28
538.75	55987.95
538.92	56172.86
539.09	56226.69
539.26	55819.44
539.43	55962.21
539.60	56292.22
539.77	56226.69
539.94	56247.75
540.11	56306.27
540.28	56158.81
540.44	56324.99
540.61	56175.20
540.78	56259.46
540.95	56540.32
541.12	56376.48
541.29	56315.63
541.46	56392.87
541.62	56636.28
541.79	56603.52
541.96	56364.78
542.13	56797.78
542.30	56722.88
542.47	56746.29
542.63	56985.02
542.80	56825.87
542.97	57308.02
543.14	57212.06
543.31	57130.14
543.48	57223.76
543.64	57249.50
543.81	57345.47
543.98	57282.27
544.15	57343.12
544.32	57333.76
544.48	57635.69
544.65	57499.94
544.82	57237.80
544.99	57155.88
545.16	57579.52
545.32	57338.44
545.49	57542.07
545.66	57427.38
545.83	57652.08
546.00	57858.04
546.16	57553.77
546.33	57539.73
546.50	57209.71
546.67	57743.36
546.83	57422.70
547.00	57659.10
547.17	57741.02
547.34	57609.95
547.50	57935.28
547.67	57827.62
547.84	57726.97
548.00	57932.94
548.17	58141.25
548.34	57909.53
548.51	58178.70
548.67	58145.93
548.84	58152.95
549.01	58181.04
549.18	58113.16
549.34	58223.17
549.51	58342.53
549.68	58213.80
549.84	58031.24
550.01	58204.44
550.18	58141.25
550.34	58438.50
550.51	58574.25
550.68	58309.77
550.84	58066.35
551.01	58452.54
551.18	58274.66
551.34	58518.07
551.51	58464.24
551.68	58665.53
551.84	58515.73
552.01	58239.55
552.18	58536.80
552.34	58347.21
552.51	58480.63
552.68	58576.59
552.84	58611.70
553.01	58789.58
553.18	58766.17
553.34	59035.33
553.51	58546.16
553.67	58894.90
553.84	58901.92
554.01	59042.35
554.17	58824.68
554.34	58845.75
554.51	58857.45
554.67	58948.73
554.84	58894.90
555.00	58951.07
555.17	59112.57
555.33	58918.31
555.50	59000.22
555.67	58958.09
555.83	58824.68
556.00	59154.70
556.16	59086.82
556.33	59255.34
556.50	59175.76
556.66	59192.15
556.83	59175.76
556.99	59454.29
557.16	59353.65
557.32	59414.50
557.49	59440.24
557.65	59093.85
557.82	59297.47
557.98	59519.82
558.15	59379.39
558.32	59622.81
558.48	59370.03
558.65	59487.06
558.81	59341.94
558.98	59554.93
559.14	59463.65
559.31	59468.33
559.47	59529.19
559.64	59423.86
559.80	59620.47
559.97	59583.02
560.13	59547.91
560.30	59784.30
560.46	59751.54
560.63	59519.82
560.79	59849.84
560.96	59718.77
561.12	59891.97
561.29	59643.87
561.45	59669.62
561.61	59798.35
561.78	59742.17
561.94	59770.26
562.11	59695.36
562.27	59828.77
562.44	59992.61
562.60	59990.27
562.77	59901.33
562.93	59812.39
563.10	60137.72
563.26	59938.78
563.42	60196.24
563.59	59908.35
563.75	60013.68
563.92	60156.45
564.08	59859.20
564.24	60074.53
564.41	60179.85
564.57	60128.36
564.74	59920.05
564.90	60072.19
565.07	59901.33
565.23	60018.36
565.39	59859.20
565.56	60172.83
565.72	60079.21
565.88	60114.32
566.05	60041.76
566.21	59929.42
566.38	59943.46
566.54	60130.70
566.70	60336.67
566.87	60231.35
567.03	60107.30
567.19	60514.55
567.36	60093.25
567.52	60350.71
567.68	60308.58
567.85	60439.65
568.01	60285.18
568.17	60395.18
568.34	60432.63
568.50	60247.73
568.66	60229.01
568.83	60200.92
568.99	60207.94
569.15	60306.24
569.32	60083.89
569.48	60369.44
569.64	60282.84
569.81	60360.08
569.97	60123.68
570.13	60364.76
570.30	60331.99
570.46	60491.15
570.62	60303.90
570.78	60441.99
570.95	60357.74
571.11	60495.83
571.27	60430.29
571.43	60505.19
571.60	60662.00
571.76	60413.91
571.92	60582.43
572.09	60612.85
572.25	60659.66
572.41	60425.61
572.57	60636.26
572.74	60605.83
572.90	60334.33
573.06	60472.42
573.22	60423.27
573.38	60636.26
573.55	60615.19
573.71	60729.88
573.87	60594.13
574.03	60472.42
574.20	60397.52
574.36	60608.17
574.52	60743.92
574.68	60753.29
574.84	60842.23
575.01	60732.22
575.17	60608.17
575.33	60533.28
575.49	60636.26
575.65	60671.37
575.82	60692.43
575.98	60683.07
576.14	60687.75
576.30	60764.99
576.46	60825.84
576.62	60575.40
576.79	60715.84
576.95	60456.04
577.11	60612.85
577.27	60750.94
577.43	60837.54
577.59	60671.37
577.75	60704.13
577.92	60769.67
578.08	60664.35
578.24	60870.31
578.40	60823.50
578.56	60947.55
578.72	60741.58
578.88	60996.70
579.04	60837.54
579.21	60858.61
579.37	60917.12
579.53	60898.40
579.69	60584.77
579.85	60729.88
580.01	60757.97
580.17	60690.09
580.33	60961.59
580.49	60940.53
580.65	60893.72
580.82	60795.42
580.98	60963.93
581.14	60636.26
581.30	61036.49
581.46	60882.02
581.62	60893.72
581.78	60809.46
581.94	60893.72
582.10	60788.39
582.26	60837.54
582.42	60729.88
582.58	60697.11
582.74	60818.82
582.90	60832.86
583.06	60750.94
583.22	60755.63
583.38	60828.18
583.54	60898.40
583.70	60947.55
583.86	60987.34
584.02	60762.65
584.18	61027.13
584.34	61031.81
584.50	60968.61
584.66	60917.12
584.82	60800.10
584.98	61111.39
585.14	60884.36
585.30	60921.80
585.46	61146.50
585.62	60999.04
585.78	61087.98
585.94	60767.33
586.10	60940.53
586.26	61020.11
586.42	61146.50
586.58	61064.58
586.74	60874.99
586.90	60772.01
587.06	61179.26
587.22	61179.26
587.38	60800.10
587.54	61085.64
587.70	61118.41
587.86	61034.15
588.02	61071.60
588.18	61254.16
588.34	60968.61
588.49	60968.61
