SpectraSuite Data File
++++++++++++++++++++++++++++++++++++
Date: Fri Oct 25 11:22:27 EDT 2013
User: price-jones
Dark Spectrum Present: No
Reference Spectrum Present: No
Number of Sampled Component Spectra: 1
Spectrometers: USB2+H05261
Integration Time (usec): 100000 (USB2+H05261)
Spectra Averaged: 1 (USB2+H05261)
Boxcar Smoothing: 0 (USB2+H05261)
Correct for Electrical Dark: No (USB2+H05261)
Strobe/Lamp Enabled: No (USB2+H05261)
Correct for Detector Non-linearity: No (USB2+H05261)
Correct for Stray Light: No (USB2+H05261)
Number of Pixels in Processed Spectrum: 2048
>>>>>Begin Processed Spectral Data<<<<<
365.73	234.05
365.92	234.05
366.12	234.05
366.32	100.64
366.52	166.18
366.72	170.86
366.91	95.96
367.11	168.52
367.31	121.71
367.51	91.28
367.70	84.26
367.90	147.45
368.10	114.69
368.30	180.22
368.49	117.03
368.69	212.99
368.89	121.71
369.09	133.41
369.28	241.08
369.48	166.18
369.68	128.73
369.87	154.48
370.07	191.92
370.27	180.22
370.47	318.31
370.66	554.71
370.86	582.79
371.06	734.93
371.25	713.86
371.45	594.50
371.65	716.20
371.84	664.71
372.04	603.86
372.24	711.52
372.44	755.99
372.63	727.91
372.83	739.61
373.03	720.88
373.22	711.52
373.42	732.59
373.62	788.76
373.81	713.86
374.01	847.27
374.21	814.51
374.40	758.33
374.60	791.10
374.79	812.17
374.99	791.10
375.19	823.87
375.38	870.68
375.58	784.08
375.78	858.98
375.97	894.08
376.17	940.90
376.37	814.51
376.56	863.66
376.76	905.79
376.95	833.23
377.15	966.64
377.35	898.77
377.54	873.02
377.74	882.38
377.93	863.66
378.13	936.21
378.33	985.37
378.52	894.08
378.72	943.24
378.91	940.90
379.11	936.21
379.31	926.85
379.50	1006.43
379.70	1032.18
379.89	971.32
380.09	997.07
380.28	1025.15
380.48	994.73
380.68	903.45
380.87	985.37
381.07	1032.18
381.26	1081.33
381.46	1074.31
381.65	987.71
381.85	959.62
382.04	985.37
382.24	1062.60
382.43	1008.77
382.63	1053.24
382.83	1048.56
383.02	1088.35
383.22	1039.20
383.41	1116.44
383.61	1128.14
383.80	1121.12
384.00	1095.37
384.19	1095.37
384.39	1179.63
384.58	1121.12
384.78	1137.50
384.97	1224.10
385.17	1135.16
385.36	1160.91
385.56	1109.41
385.75	1170.27
385.95	1191.33
386.14	1247.51
386.34	1219.42
386.53	1186.65
386.72	1231.12
386.92	1191.33
387.11	1221.76
387.31	1252.19
387.50	1247.51
387.70	1130.48
387.89	1308.36
388.09	1249.85
388.28	1179.63
388.48	1266.23
388.67	1317.72
388.86	1310.70
389.06	1364.53
389.25	1383.26
389.45	1458.15
389.64	1380.92
389.84	1359.85
390.03	1385.60
390.22	1437.09
390.42	1371.55
390.61	1364.53
390.81	1376.24
391.00	1448.79
391.19	1462.83
391.39	1430.07
391.58	1425.39
391.78	1444.11
391.97	1472.20
392.16	1474.54
392.36	1502.62
392.55	1614.97
392.75	1507.30
392.94	1584.54
393.13	1577.52
393.33	1502.62
393.52	1586.88
393.71	1603.27
393.91	1509.65
394.10	1577.52
394.29	1533.05
394.49	1596.25
394.68	1619.65
394.88	1629.01
395.07	1678.16
395.26	1603.27
395.46	1647.74
395.65	1661.78
395.84	1767.10
396.04	1741.36
396.23	1729.66
396.42	1771.79
396.62	1783.49
396.81	1856.04
397.00	1701.57
397.19	1685.19
397.39	1842.00
397.58	1846.68
397.77	1818.60
397.97	1790.51
398.16	1849.02
398.35	1762.42
398.55	1802.21
398.74	2038.61
398.93	1902.86
399.12	1893.49
399.32	1893.49
399.51	1968.39
399.70	1935.62
399.90	1947.33
400.09	1966.05
400.28	2069.03
400.47	2076.06
400.67	2148.61
400.86	2179.04
401.05	2097.12
401.24	2036.27
401.44	2186.06
401.63	2148.61
401.82	2125.21
402.01	2064.35
402.21	2179.04
402.40	2181.38
402.59	2265.64
402.78	2321.81
402.97	2284.36
403.17	2382.67
403.36	2312.45
403.55	2223.51
403.74	2361.60
403.93	2434.16
404.13	2291.38
404.32	2417.77
404.51	2441.18
404.70	2490.33
404.89	2530.12
405.09	2509.05
405.28	2469.27
405.47	2490.33
405.66	2487.99
405.85	2464.58
406.05	2621.40
406.24	2649.49
406.43	2551.18
406.62	2628.42
406.81	2745.45
407.00	2630.76
407.20	2633.10
407.39	2616.72
407.58	2668.21
407.77	2801.62
407.96	2686.94
408.15	2785.24
408.34	2740.77
408.54	2883.54
408.73	2722.04
408.92	2876.52
409.11	2867.16
409.30	2930.35
409.49	2981.84
409.68	3000.57
409.87	2946.73
410.07	2897.58
410.26	3094.19
410.45	3005.25
410.64	3091.85
410.83	3169.09
411.02	3089.51
411.21	3262.71
411.40	3103.55
411.59	3346.97
411.78	3281.43
411.98	3110.57
412.17	3398.46
412.36	3328.24
412.55	3265.05
412.74	3414.84
412.93	3321.22
413.12	3419.52
413.31	3515.48
413.50	3574.00
413.69	3356.33
413.88	3527.19
414.07	3585.70
414.26	3538.89
414.45	3700.39
414.64	3651.24
414.83	3791.67
415.02	3810.39
415.22	3810.39
415.41	3843.16
415.60	3981.25
415.79	3957.85
415.98	4018.70
416.17	3939.12
416.36	3992.95
416.55	4088.92
416.74	4081.89
416.93	4065.51
417.12	4039.76
417.31	4252.75
417.50	4332.33
417.69	4362.76
417.88	4245.73
418.07	4348.72
418.26	4339.35
418.45	4498.51
418.64	4407.23
418.83	4603.83
419.02	4374.46
419.21	4578.09
419.39	4437.66
419.58	4557.02
419.77	4500.85
419.96	4528.94
420.15	4608.51
420.34	4386.16
420.53	4664.69
420.72	4741.93
420.91	4884.70
421.10	4732.56
421.29	4861.29
421.48	4884.70
421.67	4786.40
421.86	4648.30
422.05	4919.81
422.24	5046.20
422.43	4954.91
422.61	4910.44
422.80	5046.20
422.99	5083.64
423.18	4954.91
423.37	5095.35
423.56	4915.12
423.75	4943.21
423.94	4997.04
424.13	4688.09
424.32	4873.00
424.50	5076.62
424.69	5078.96
424.88	4985.34
425.07	5013.43
425.26	4828.53
425.45	5015.77
425.64	5013.43
425.83	5055.56
426.01	5128.11
426.20	5097.69
426.39	5104.71
426.58	5020.45
426.77	5109.39
426.96	5226.42
427.15	5303.65
427.33	5188.97
427.52	5083.64
427.71	5465.15
427.90	5294.29
428.09	5399.62
428.28	5600.90
428.46	5397.28
428.65	5502.60
428.84	5692.18
429.03	5575.16
429.22	5315.36
429.40	5673.46
429.59	5607.92
429.78	5270.89
429.97	5301.31
430.16	5614.95
430.34	5598.56
430.53	5757.72
430.72	5764.74
430.91	5614.95
431.10	5626.65
431.28	5645.37
431.47	5935.60
431.66	5968.37
431.85	5863.04
432.03	6104.12
432.22	6073.69
432.41	5916.87
432.60	6157.95
432.79	6139.23
432.97	6001.13
433.16	6115.82
433.35	6155.61
433.54	6155.61
433.72	6097.10
433.91	6134.54
434.10	6139.23
434.28	6118.16
434.47	6244.55
434.66	6237.53
434.85	6497.33
435.03	6384.98
435.22	6326.47
435.41	6539.46
435.59	6424.77
435.78	6600.31
435.97	6590.95
436.16	6506.69
436.34	6520.73
436.53	6551.16
436.72	6670.53
436.90	6555.84
437.09	6794.58
437.28	6726.70
437.46	6707.98
437.65	6686.91
437.84	6876.49
438.02	6733.72
438.21	6813.30
438.40	6778.19
438.58	7023.95
438.77	7148.00
438.96	6920.96
439.14	7148.00
439.33	7211.19
439.52	7166.72
439.70	7403.11
439.89	7344.60
440.08	7344.60
440.26	7407.80
440.45	7360.98
440.63	7508.44
440.82	7754.19
441.01	7428.86
441.19	7709.72
441.38	7578.65
441.57	7639.51
441.75	7658.23
441.94	7983.57
442.12	8013.99
442.31	8088.89
442.50	8294.86
442.68	8025.70
442.87	8016.33
443.05	8196.56
443.24	8245.71
443.43	8145.06
443.61	8339.33
443.80	8336.99
443.98	8086.55
444.17	8006.97
444.35	8383.80
444.54	8397.84
444.73	8376.78
444.91	8421.25
445.10	8636.58
445.28	8334.65
445.47	8297.20
445.65	8507.85
445.84	8594.45
446.02	8629.56
446.21	8638.92
446.39	8252.73
446.58	8564.02
446.77	8601.47
446.95	8367.42
447.14	8554.66
447.32	8821.48
447.51	8638.92
447.69	8535.93
447.88	8606.15
448.06	8755.94
448.25	8636.58
448.43	8779.35
448.62	8645.94
448.80	8549.98
448.99	8779.35
449.17	8868.29
449.36	8856.59
449.54	8809.78
449.73	8861.27
449.91	9247.46
450.10	8999.36
450.28	9245.12
450.46	9308.31
450.65	9102.34
450.83	9240.44
451.02	9303.63
451.20	9139.79
451.39	9266.18
451.57	9324.69
451.76	9114.05
451.94	9324.69
452.13	9430.02
452.31	9404.27
452.49	9205.33
452.68	9486.19
452.86	9488.53
453.05	9425.34
453.23	9806.84
453.42	9390.23
453.60	9614.92
453.78	9701.52
453.97	9432.36
454.15	9645.35
454.34	9533.00
454.52	9860.68
454.70	9717.90
454.89	9778.76
455.07	9928.55
455.26	9895.78
455.44	10066.64
455.62	10076.01
455.81	10068.98
455.99	10111.11
456.17	9977.70
456.36	10031.54
456.54	10181.33
456.73	10394.32
456.91	10604.97
457.09	10614.33
457.28	10541.77
457.46	10326.44
457.64	10511.35
457.83	10394.32
458.01	10590.92
458.19	10822.64
458.38	10600.29
458.56	10806.25
458.74	10731.36
458.93	10689.23
459.11	10920.94
459.29	10738.38
459.48	10867.11
459.66	11080.10
459.84	10939.66
460.03	11236.91
460.21	11117.54
460.39	10930.30
460.57	10984.13
460.76	11293.08
460.94	11496.71
461.12	11412.45
461.31	11138.61
461.49	11272.02
461.67	11382.03
461.85	11365.64
462.04	11342.24
462.22	11618.42
462.40	11690.98
462.59	11555.22
462.77	11606.72
462.95	11606.72
463.13	11789.28
463.32	11552.88
463.50	11899.28
463.68	11674.59
463.86	11873.54
464.05	11683.95
464.23	11662.89
464.41	11918.01
464.59	11690.98
464.78	12121.63
464.96	12168.45
465.14	12072.48
465.32	12138.02
465.50	12386.12
465.69	12269.09
465.87	12278.45
466.05	12135.68
466.23	12386.12
466.41	12641.23
466.60	12444.63
466.78	12320.58
466.96	12451.65
467.14	12145.04
467.32	12608.47
467.51	12582.72
467.69	12351.01
467.87	12650.60
468.05	12765.28
468.23	12624.85
468.41	12482.08
468.60	12769.96
468.78	12730.17
468.96	12741.88
469.14	12865.92
469.32	13057.85
469.50	12917.42
469.69	13076.57
469.87	13242.75
470.05	13235.73
470.23	13205.30
470.41	13444.04
470.59	13540.00
470.77	13209.98
470.95	13486.17
471.14	13764.69
471.32	13289.56
471.50	13973.00
471.68	13804.48
471.86	13748.31
472.04	13650.00
472.22	14146.20
472.40	13706.18
472.58	14202.37
472.77	14171.94
472.95	14253.86
473.13	14794.53
473.31	14237.48
473.49	14204.71
473.67	14078.32
473.85	14506.64
474.03	14998.15
474.21	14789.85
474.39	14932.62
474.57	14862.40
474.75	15164.33
474.93	15063.69
475.12	15044.96
475.30	15276.68
475.48	15115.18
475.66	15543.50
475.84	15225.18
476.02	15325.83
476.20	15819.68
476.38	15833.72
476.56	16039.69
476.74	16095.86
476.92	16053.73
477.10	15896.92
477.28	16657.59
477.46	16339.28
477.64	16589.72
477.82	16533.54
478.00	17170.17
478.18	17151.45
478.36	16964.20
478.54	17329.33
478.72	17467.42
478.90	17575.08
479.08	17682.75
479.26	17743.60
479.44	17816.16
479.62	18075.96
479.80	18122.77
479.98	18464.49
480.16	18548.75
480.34	18635.35
480.52	18796.84
480.70	19000.47
480.88	18478.53
481.06	18855.36
481.24	18984.09
481.41	19183.03
481.59	19578.58
481.77	19566.88
481.95	19901.58
482.13	19831.36
482.31	19950.73
482.49	20606.08
482.67	20379.04
482.85	20739.49
483.03	20849.49
483.21	20837.79
483.39	21039.08
483.57	21039.08
483.74	21085.89
483.92	21465.05
484.10	21366.75
484.28	21855.92
484.46	22235.09
484.64	22431.69
484.82	22207.00
485.00	22579.15
485.18	22963.00
485.35	23056.62
485.53	23087.04
485.71	23047.26
485.89	23997.51
486.07	23461.53
486.25	23522.38
486.43	23655.79
486.61	23967.09
486.78	23978.79
486.96	24489.03
487.14	24868.19
487.32	24959.47
487.50	25432.26
487.68	24828.40
487.85	25474.39
488.03	25837.17
488.21	26307.62
488.39	26218.68
488.57	26368.48
488.75	26361.45
488.92	26562.74
489.10	26717.22
489.28	26923.18
489.46	27805.56
489.64	27662.79
489.81	28060.68
489.99	27784.50
490.17	28224.52
490.35	28596.67
490.53	28362.61
490.70	29078.82
490.88	29041.37
491.06	28898.59
491.24	29237.97
491.41	29237.97
491.59	29652.25
491.77	29310.53
491.95	30043.12
492.13	29979.92
492.30	30450.37
492.48	30267.81
492.66	30684.42
492.84	30864.64
493.01	30934.86
493.19	30923.16
493.37	31220.41
493.54	31297.64
493.72	31885.12
493.90	31873.42
494.08	32020.87
494.25	32243.22
494.43	32121.51
494.61	32737.07
494.79	32912.61
494.96	32950.06
495.14	32989.85
495.32	33336.25
495.49	33549.24
495.67	33144.33
495.85	33790.31
496.02	33912.02
496.20	34464.39
496.38	34553.33
496.55	34389.49
496.73	35461.46
496.91	34916.11
497.09	35452.09
497.26	35424.01
497.44	34726.53
497.62	35358.47
497.79	36123.83
497.97	35962.33
498.14	36294.69
498.32	36584.91
498.50	36730.03
498.67	37289.42
498.85	36725.35
499.03	36868.12
499.20	37383.04
499.38	36947.70
499.56	37338.57
499.73	37605.39
499.91	37778.59
500.08	37907.32
500.26	37666.24
500.44	38171.80
500.61	38288.82
500.79	38019.66
500.97	38813.10
501.14	38845.87
501.32	39007.37
501.49	39208.65
501.67	39203.97
501.84	39023.75
502.02	39311.64
502.20	39679.10
502.37	39569.10
502.55	39746.98
502.72	40095.72
502.90	40032.52
503.07	39531.65
503.25	40582.55
503.43	39997.41
503.60	40404.67
503.78	40329.77
503.95	40676.17
504.13	40926.61
504.30	40975.76
504.48	40816.60
504.65	41471.95
504.83	41324.50
505.01	41846.44
505.18	41158.32
505.36	41991.55
505.53	41603.02
505.71	42080.49
505.88	42185.82
506.06	41577.28
506.23	42492.43
506.41	42447.96
506.58	42075.81
506.76	42359.02
506.93	42808.40
507.11	42536.90
507.28	43077.56
507.46	43285.87
507.63	43381.83
507.81	43608.86
507.98	43519.92
508.16	43529.28
508.33	44058.24
508.50	43887.39
508.68	44086.33
508.85	44147.18
509.03	44299.32
509.20	44528.69
509.38	45064.67
509.55	44872.75
509.73	45024.89
509.90	45209.79
510.08	45254.26
510.25	45010.84
510.42	45317.45
510.60	45401.71
510.77	45441.50
510.95	46181.11
511.12	45764.49
511.30	45984.51
511.47	46218.56
511.64	45937.69
511.82	46150.68
511.99	46007.91
512.17	46185.79
512.34	45958.76
512.51	46703.05
512.69	47098.60
512.86	46735.82
513.04	47239.03
513.21	46923.06
513.38	46960.51
513.56	47077.54
513.73	47016.68
513.90	47510.53
514.08	47433.30
514.25	47817.14
514.43	48296.95
514.60	47491.81
514.77	47962.26
514.95	48268.87
515.12	48137.80
515.29	48236.10
515.47	48074.60
515.64	48584.84
515.81	48339.08
515.99	48765.06
516.16	48402.28
516.33	48779.10
516.51	49200.40
516.68	48959.33
516.85	49516.37
517.03	49066.99
517.20	49308.07
517.37	49200.40
517.54	49153.59
517.72	49193.38
517.89	49813.62
518.06	49617.02
518.24	49528.08
518.41	49647.44
518.58	49734.04
518.75	49813.62
518.93	50005.55
519.10	49827.66
519.27	49801.92
519.45	49902.56
519.62	50174.06
519.79	50691.32
519.96	50307.47
520.14	50916.01
520.31	50398.76
520.48	50707.71
520.65	50611.74
520.83	51023.68
521.00	50904.31
521.17	50869.20
521.34	50859.84
521.52	51248.37
521.69	51143.05
521.86	51264.75
522.03	51543.28
522.20	51854.57
522.38	51973.94
522.55	51732.86
522.72	51524.55
522.89	51742.22
523.07	52238.42
523.24	51765.63
523.41	52055.85
523.58	51901.38
523.75	52292.25
523.92	52051.17
524.10	52357.78
524.27	52355.44
524.44	52292.25
524.61	52463.11
524.78	52236.08
524.96	52444.38
525.13	52437.36
525.30	52727.59
525.47	52748.65
525.64	53027.18
525.81	52753.33
525.98	53008.45
526.16	52846.96
526.33	53139.52
526.50	53272.93
526.67	53291.66
526.84	53083.35
527.01	53169.95
527.18	53083.35
527.36	53492.94
527.53	53324.43
527.70	53846.36
527.87	53640.40
528.04	53677.85
528.21	53748.06
528.38	53612.31
528.55	53897.86
528.72	53680.19
528.89	53645.08
529.07	53698.91
529.24	53825.30
529.41	54089.78
529.58	53914.24
529.75	53914.24
529.92	54057.01
530.09	54307.45
530.26	54504.06
530.43	54384.69
530.60	54197.44
530.77	54536.82
530.94	54452.56
531.11	54241.92
531.28	54361.28
531.46	54513.42
531.63	54695.98
531.80	54721.72
531.97	54731.09
532.14	54836.41
532.31	54754.49
532.48	54808.32
532.65	54927.69
532.82	54695.98
532.99	55051.74
533.16	54761.51
533.33	55128.98
533.50	55304.52
533.67	54930.03
533.84	55023.65
534.01	55161.75
534.18	55325.58
534.35	55819.44
534.52	55379.42
534.69	55501.12
534.86	55283.45
535.03	55412.18
535.20	55557.30
535.37	55477.72
535.54	55721.13
535.71	55526.87
535.88	55756.24
536.05	55868.59
536.22	55952.85
536.38	55765.60
536.55	55835.82
536.72	55877.95
536.89	55753.90
537.06	55852.20
537.23	56048.81
537.40	55934.12
537.57	56088.60
537.74	56348.40
537.91	56245.41
538.08	56011.36
538.25	56051.15
538.42	56324.99
538.59	56498.19
538.75	56334.35
538.92	56231.37
539.09	56615.22
539.26	56381.16
539.43	56507.55
539.60	56388.19
539.77	56362.44
539.94	56788.42
540.11	56734.59
540.28	56863.32
540.44	56856.29
540.61	56835.23
540.78	56690.12
540.95	56910.13
541.12	56666.71
541.29	56690.12
541.46	56891.40
541.62	56736.93
541.79	57111.41
541.96	56858.63
542.13	56882.04
542.30	56743.95
542.47	57296.31
542.63	57151.20
542.80	56858.63
542.97	57474.20
543.14	57373.55
543.31	57457.81
543.48	57516.32
543.64	57623.99
543.81	57560.79
543.98	57488.24
544.15	57673.14
544.32	57602.92
544.48	57879.11
544.65	57499.94
544.82	57605.26
544.99	57340.78
545.16	57836.98
545.32	57621.65
545.49	57951.66
545.66	57961.03
545.83	57982.09
546.00	57989.11
546.16	58049.97
546.33	57776.12
546.50	57698.89
546.67	57904.85
546.83	57703.57
547.00	58049.97
547.17	58110.82
547.34	58131.89
547.50	58241.89
547.67	58342.53
547.84	58284.02
548.00	58443.18
548.17	58522.76
548.34	58424.45
548.51	58578.93
548.67	58588.29
548.84	58466.58
549.01	58267.64
549.18	58429.13
549.34	58602.33
549.51	58461.90
549.68	58532.12
549.84	58541.48
550.01	58541.48
550.18	58632.76
550.34	58522.76
550.51	58834.05
550.68	58714.68
550.84	58548.50
551.01	58827.02
551.18	58742.77
551.34	58880.86
551.51	58824.68
551.68	58693.61
551.84	58775.53
552.01	58688.93
552.18	58913.62
552.34	58756.81
552.51	59047.04
552.68	58892.56
552.84	58922.99
553.01	59192.15
553.18	59061.08
553.34	59337.26
553.51	58990.86
553.67	58962.78
553.84	59323.22
554.01	59140.66
554.17	59194.49
554.34	59065.76
554.51	59231.94
554.67	59451.95
554.84	59374.71
555.00	59248.32
555.17	59339.60
555.33	59295.13
555.50	59245.98
555.67	59150.02
555.83	59285.77
556.00	59348.96
556.16	59852.18
556.33	59774.94
556.50	59566.63
556.66	59749.20
556.83	59428.54
556.99	59739.83
557.16	59725.79
557.32	59613.44
557.49	60044.10
557.65	59409.82
557.82	59751.54
557.98	59704.73
558.15	59711.75
558.32	59681.32
558.48	59681.32
558.65	59557.27
558.81	59732.81
558.98	59742.17
559.14	59835.80
559.31	59859.20
559.47	59990.27
559.64	59891.97
559.80	59950.48
559.97	59852.18
560.13	59753.88
560.30	59994.95
560.46	59936.44
560.63	60037.08
560.79	60149.43
560.96	60229.01
561.12	59915.37
561.29	60324.97
561.45	60257.09
561.61	60189.22
561.78	60030.06
561.94	60196.24
562.11	60016.02
562.27	60126.02
562.44	60320.29
562.60	60355.39
562.77	60205.60
562.93	59987.93
563.10	60245.39
563.26	60020.70
563.42	60488.80
563.59	60336.67
563.75	60193.90
563.92	60254.75
564.08	60128.36
564.24	60568.38
564.41	60381.14
564.57	60402.21
564.74	60369.44
564.90	60259.43
565.07	60111.98
565.23	60369.44
565.39	60446.68
565.56	60463.06
565.72	60126.02
565.88	60411.57
566.05	60294.54
566.21	60463.06
566.38	60420.93
566.54	60692.43
566.70	60516.89
566.87	60566.04
567.03	60420.93
567.19	60582.43
567.36	60516.89
567.52	60402.21
567.68	60516.89
567.85	60608.17
568.01	60549.66
568.17	60488.80
568.34	60720.52
568.50	60509.87
568.66	60669.03
568.83	60444.33
568.99	60594.13
569.15	60774.35
569.32	60781.37
569.48	60743.92
569.64	60624.56
569.81	60760.31
569.97	60458.38
570.13	60533.28
570.30	60657.32
570.46	60734.56
570.62	60755.63
570.78	60793.07
570.95	60872.65
571.11	60952.23
571.27	60816.48
571.43	60844.57
571.60	61127.77
571.76	61001.38
571.92	60867.97
572.09	60872.65
572.25	61055.21
572.41	60640.94
572.57	60760.31
572.74	60966.27
572.90	60816.48
573.06	60853.93
573.22	60900.74
573.38	60961.59
573.55	60687.75
573.71	61059.90
573.87	60725.20
574.03	60814.14
574.20	61003.72
574.36	60769.67
574.52	60989.68
574.68	60891.38
574.84	60954.57
575.01	60966.27
575.17	60919.46
575.33	61038.83
575.49	60884.36
575.65	60945.21
575.82	60825.84
575.98	61057.56
576.14	61116.07
576.30	61219.05
576.46	61022.45
576.62	61062.24
576.79	61066.92
576.95	61055.21
577.11	61151.18
577.27	61151.18
577.43	61041.17
577.59	60931.17
577.75	61137.13
577.92	61097.34
578.08	60917.12
578.24	61076.28
578.40	61462.47
578.56	61188.63
578.72	61106.71
578.88	61130.11
579.04	61137.13
579.21	61183.94
579.37	61202.67
579.53	61298.63
579.69	60830.52
579.85	61087.98
580.01	61024.79
580.17	60985.00
580.33	61202.67
580.49	61160.54
580.65	61153.52
580.82	60814.14
580.98	60987.34
581.14	61022.45
581.30	61120.75
581.46	61237.78
581.62	61130.11
581.78	61307.99
581.94	61174.58
582.10	61263.52
582.26	61109.05
582.42	61127.77
582.58	61223.73
582.74	61083.30
582.90	61029.47
583.06	61080.96
583.22	61195.65
583.38	61022.45
583.54	61195.65
583.70	61410.98
583.86	60992.02
584.02	61134.79
584.18	61160.54
584.34	61322.04
584.50	61275.22
584.66	61048.19
584.82	61116.07
584.98	61413.32
585.14	61317.35
585.30	61076.28
585.46	61169.90
585.62	61125.43
585.78	61300.97
585.94	61066.92
586.10	61172.24
586.26	61305.65
586.42	61532.68
586.58	61277.57
586.74	61209.69
586.90	61076.28
587.06	61059.90
587.22	61403.95
587.38	61300.97
587.54	61446.08
587.70	61504.60
587.86	61219.05
588.02	61366.51
588.18	61392.25
588.34	61333.74
588.49	61282.25
