SpectraSuite Data File
++++++++++++++++++++++++++++++++++++
Date: Fri Oct 25 11:22:47 EDT 2013
User: price-jones
Dark Spectrum Present: No
Reference Spectrum Present: No
Number of Sampled Component Spectra: 1
Spectrometers: USB2+H05261
Integration Time (usec): 100000 (USB2+H05261)
Spectra Averaged: 1 (USB2+H05261)
Boxcar Smoothing: 0 (USB2+H05261)
Correct for Electrical Dark: No (USB2+H05261)
Strobe/Lamp Enabled: No (USB2+H05261)
Correct for Detector Non-linearity: No (USB2+H05261)
Correct for Stray Light: No (USB2+H05261)
Number of Pixels in Processed Spectrum: 2048
>>>>>Begin Processed Spectral Data<<<<<
365.73	220.01
365.92	220.01
366.12	220.01
366.32	184.90
366.52	145.11
366.72	124.05
366.91	159.16
367.11	131.07
367.31	142.77
367.51	133.41
367.70	114.69
367.90	159.16
368.10	79.58
368.30	138.09
368.49	166.18
368.69	138.09
368.89	102.98
369.09	124.05
369.28	184.90
369.48	194.26
369.68	224.69
369.87	170.86
370.07	229.37
370.27	231.71
370.47	287.89
370.66	540.66
370.86	592.16
371.06	688.12
371.25	648.33
371.45	599.18
371.65	746.63
371.84	662.37
372.04	657.69
372.24	692.80
372.44	763.01
372.63	791.10
372.83	751.31
373.03	887.06
373.22	814.51
373.42	720.88
373.62	763.01
373.81	697.48
374.01	784.08
374.21	915.15
374.40	765.36
374.60	870.68
374.79	807.48
374.99	763.01
375.19	833.23
375.38	798.12
375.58	866.00
375.78	854.30
375.97	821.53
376.17	929.19
376.37	833.23
376.56	884.72
376.76	861.32
376.95	828.55
377.15	882.38
377.35	903.45
377.54	903.45
377.74	873.02
377.93	898.77
378.13	898.77
378.33	959.62
378.52	868.34
378.72	950.26
378.91	990.05
379.11	985.37
379.31	898.77
379.50	954.94
379.70	1029.84
379.89	1020.47
380.09	964.30
380.28	964.30
380.48	1034.52
380.68	1006.43
380.87	978.34
381.07	940.90
381.26	1057.92
381.46	1078.99
381.65	1067.28
381.85	1043.88
382.04	1046.22
382.24	1050.90
382.43	1025.15
382.63	1018.13
382.83	1055.58
383.02	1137.50
383.22	1097.71
383.41	1109.41
383.61	1001.75
383.80	1191.33
384.00	1086.01
384.19	1142.18
384.39	1067.28
384.58	1093.03
384.78	1090.69
384.97	1174.95
385.17	1156.22
385.36	1181.97
385.56	1104.73
385.75	1252.19
385.95	1191.33
386.14	1151.54
386.34	1219.42
386.53	1205.38
386.72	1219.42
386.92	1303.68
387.11	1275.59
387.31	1200.69
387.50	1165.59
387.70	1291.98
387.89	1275.59
388.09	1242.82
388.28	1331.76
388.48	1355.17
388.67	1275.59
388.86	1376.24
389.06	1345.81
389.25	1392.62
389.45	1338.79
389.64	1322.40
389.84	1313.04
390.03	1441.77
390.22	1362.19
390.42	1441.77
390.61	1343.47
390.81	1406.66
391.00	1483.90
391.19	1394.96
391.39	1460.49
391.58	1406.66
391.78	1521.35
391.97	1446.45
392.16	1554.12
392.36	1521.35
392.55	1551.78
392.75	1584.54
392.94	1565.82
393.13	1528.37
393.33	1514.33
393.52	1554.12
393.71	1664.12
393.91	1692.21
394.10	1614.97
394.29	1600.93
394.49	1467.52
394.68	1701.57
394.88	1678.16
395.07	1694.55
395.26	1720.29
395.46	1591.56
395.65	1724.97
395.84	1769.44
396.04	1739.02
396.23	1792.85
396.42	1781.15
396.62	1799.87
396.81	1755.40
397.00	1724.97
397.19	1767.10
397.39	1827.96
397.58	1746.04
397.77	1856.04
397.97	1891.15
398.16	1952.01
398.35	1863.07
398.55	1919.24
398.74	1825.62
398.93	1944.99
399.12	1954.35
399.32	1956.69
399.51	1867.75
399.70	2026.90
399.90	1956.69
400.09	2078.40
400.28	2031.58
400.47	2043.29
400.67	2076.06
400.86	2120.53
401.05	2087.76
401.24	2087.76
401.44	2005.84
401.63	2033.93
401.82	2239.89
402.01	2064.35
402.21	2188.40
402.40	2176.70
402.59	2298.41
402.78	2167.34
402.97	2284.36
403.17	2298.41
403.36	2324.15
403.55	2321.81
403.74	2354.58
403.93	2366.28
404.13	2298.41
404.32	2406.07
404.51	2263.30
404.70	2431.82
404.89	2354.58
405.09	2476.29
405.28	2504.37
405.47	2506.71
405.66	2541.82
405.85	2459.90
406.05	2469.27
406.24	2523.10
406.43	2532.46
406.62	2602.68
406.81	2574.59
407.00	2658.85
407.20	2619.06
407.39	2576.93
407.58	2722.04
407.77	2750.13
407.96	2691.62
408.15	2792.26
408.34	2722.04
408.54	2834.39
408.73	2869.50
408.92	2733.75
409.11	2939.71
409.30	2881.20
409.49	2803.96
409.68	2960.78
409.87	2918.65
410.07	2993.55
410.26	2993.55
410.45	2963.12
410.64	2988.86
410.83	3033.33
411.02	3080.14
411.21	3197.17
411.40	3201.85
411.59	3201.85
411.78	3208.87
411.98	3246.32
412.17	3232.28
412.36	3197.17
412.55	3419.52
412.74	3433.57
412.93	3492.08
413.12	3337.60
413.31	3531.87
413.50	3588.04
413.69	3485.06
413.88	3726.13
414.07	3651.24
414.26	3641.87
414.45	3625.49
414.64	3672.30
414.83	3712.09
415.02	3700.39
415.22	3894.65
415.41	3878.27
415.60	3859.54
415.79	3754.22
415.98	3929.76
416.17	3948.48
416.36	3932.10
416.55	4021.04
416.74	4079.55
416.93	4074.87
417.12	4044.45
417.31	4262.12
417.50	4147.43
417.69	4173.18
417.88	4315.95
418.07	4248.07
418.26	4334.67
418.45	4327.65
418.64	4456.38
418.83	4425.95
419.02	4344.03
419.21	4592.13
419.39	4435.32
419.58	4531.28
419.77	4540.64
419.96	4599.15
420.15	4601.49
420.34	4571.07
420.53	4589.79
420.72	4798.10
420.91	4720.86
421.10	4798.10
421.29	4823.84
421.48	4674.05
421.67	4992.36
421.86	4863.63
422.05	4884.70
422.24	4814.48
422.43	4931.51
422.61	4975.98
422.80	4973.64
422.99	4992.36
423.18	5146.84
423.37	5011.09
423.56	5022.79
423.75	4950.23
423.94	4896.40
424.13	4662.35
424.32	4800.44
424.50	5097.69
424.69	5181.95
424.88	5076.62
425.07	5008.75
425.26	4978.32
425.45	4983.00
425.64	4854.27
425.83	4971.30
426.01	5160.88
426.20	5076.62
426.39	5034.49
426.58	5015.77
426.77	4931.51
426.96	5282.59
427.15	5109.39
427.33	5212.37
427.52	5249.82
427.71	5261.52
427.90	5282.59
428.09	5453.45
428.28	5268.55
428.46	5542.39
428.65	5444.09
428.84	5668.78
429.03	5628.99
429.22	5439.40
429.40	5603.24
429.59	5509.62
429.78	5268.55
429.97	5123.43
430.16	5420.68
430.34	5558.77
430.53	5741.33
430.72	5603.24
430.91	5710.91
431.10	5598.56
431.28	5619.63
431.47	5701.54
431.66	5783.46
431.85	5858.36
432.03	5921.56
432.22	5989.43
432.41	5881.77
432.60	5959.00
432.79	6031.56
432.97	5998.79
433.16	6040.92
433.35	6033.90
433.54	6017.52
433.72	6274.98
433.91	6064.33
434.10	6209.44
434.28	6181.35
434.47	6310.08
434.66	6239.87
434.85	6487.96
435.03	6387.32
435.22	6249.23
435.41	6644.78
435.59	6335.83
435.78	6448.18
435.97	6511.37
436.16	6445.84
436.34	6707.98
436.53	6502.01
436.72	6497.33
436.90	6590.95
437.09	6810.96
437.28	6516.05
437.46	6604.99
437.65	6780.53
437.84	6729.04
438.02	6693.93
438.21	6607.33
438.40	6715.00
438.58	7066.08
438.77	7033.31
438.96	6977.14
439.14	7148.00
439.33	7325.88
439.52	7194.81
439.70	7260.34
439.89	7410.14
440.08	7243.96
440.26	7494.40
440.45	7410.14
440.63	7424.18
440.82	7770.58
441.01	7527.16
441.19	7595.04
441.38	7714.41
441.57	7779.94
441.75	7803.35
441.94	8035.06
442.12	8060.80
442.31	8079.53
442.50	8121.66
442.68	8091.23
442.87	8037.40
443.05	8252.73
443.24	8196.56
443.43	8297.20
443.61	8215.28
443.80	8482.10
443.98	7967.18
444.17	7817.39
444.35	8166.13
444.54	8461.04
444.73	8259.75
444.91	8308.90
445.10	8477.42
445.28	8517.21
445.47	8189.53
445.65	8376.78
445.84	8374.44
446.02	8575.72
446.21	8388.48
446.39	8264.43
446.58	8376.78
446.77	8510.19
446.95	8402.52
447.14	8514.87
447.32	8669.34
447.51	8545.30
447.69	8592.11
447.88	8538.27
448.06	8446.99
448.25	8739.56
448.43	8683.39
448.62	8681.05
448.80	8470.40
448.99	8788.71
449.17	8821.48
449.36	8812.12
449.54	8830.84
449.73	8826.16
449.91	8936.17
450.10	9064.89
450.28	9181.92
450.46	9123.41
450.65	9296.61
450.83	9118.73
451.02	9139.79
451.20	9254.48
451.39	9153.84
451.57	9294.27
451.76	9158.52
451.94	9160.86
452.13	9469.81
452.31	9371.50
452.49	9453.42
452.68	9420.66
452.86	9310.65
453.05	9411.29
453.23	9465.13
453.42	9350.44
453.60	9352.78
453.78	9366.82
453.97	9444.06
454.15	9547.05
454.34	9593.86
454.52	9640.67
454.70	9830.25
454.89	9834.93
455.07	9743.65
455.26	9813.87
455.44	10066.64
455.62	9944.94
455.81	9722.59
455.99	9956.64
456.17	10277.29
456.36	10193.03
456.54	10108.77
456.73	10141.54
456.91	10527.73
457.09	10527.73
457.28	10721.99
457.46	10265.59
457.64	10450.49
457.83	10588.58
458.01	10684.55
458.19	10904.56
458.38	10644.76
458.56	10850.72
458.74	10799.23
458.93	10801.57
459.11	10686.89
459.29	10855.40
459.48	10927.96
459.66	10827.32
459.84	11112.86
460.03	11023.92
460.21	10773.49
460.39	11044.99
460.57	11094.14
460.76	10953.71
460.94	11016.90
461.12	11318.83
461.31	11360.96
461.49	11215.85
461.67	11318.83
461.85	11389.05
462.04	11316.49
462.22	11791.62
462.40	11789.28
462.59	11487.35
462.77	11662.89
462.95	11950.78
463.13	11744.81
463.32	11676.93
463.50	11712.04
463.68	12016.31
463.86	11690.98
464.05	11679.27
464.23	11742.47
464.41	11976.52
464.59	11800.98
464.78	12182.49
464.96	11894.60
465.14	12081.85
465.32	12170.79
465.50	12084.19
465.69	12030.35
465.87	12283.13
466.05	12098.23
466.23	12327.60
466.41	12311.22
466.60	12692.73
466.78	12374.41
466.96	12313.56
467.14	12210.57
467.32	12435.27
467.51	12629.53
467.69	12131.00
467.87	12535.91
468.05	12769.96
468.23	12393.14
468.41	12580.38
468.60	12744.22
468.78	12828.48
468.96	12842.52
469.14	12992.31
469.32	12915.08
469.50	12769.96
469.69	13177.22
469.87	13071.89
470.05	13205.30
470.23	13329.35
470.41	13327.01
470.59	13413.61
470.77	13205.30
470.95	13331.69
471.14	13577.45
471.32	13305.95
471.50	13640.64
471.68	13736.60
471.86	13947.25
472.04	13790.44
472.22	13855.97
472.40	13706.18
472.58	13912.14
472.77	13837.25
472.95	14059.60
473.13	14745.38
473.31	14043.21
473.49	14207.05
473.67	14389.61
473.85	14333.44
474.03	14696.22
474.21	14689.20
474.39	14862.40
474.57	14941.98
474.75	14916.23
474.93	14864.74
475.12	14967.73
475.30	15056.67
475.48	15309.44
475.66	15363.28
475.84	15133.90
476.02	15623.08
476.20	15431.15
476.38	15637.12
476.56	16229.27
476.74	16056.08
476.92	15824.36
477.10	15826.70
477.28	16460.99
477.46	16248.00
477.64	16358.00
477.82	16706.74
478.00	17090.59
478.18	17060.16
478.36	16926.75
478.54	17135.06
478.72	17380.82
478.90	17678.07
479.08	17570.40
479.26	17743.60
479.44	17675.73
479.62	17813.82
479.80	17886.37
479.98	18251.50
480.16	18375.55
480.34	18424.70
480.52	18703.22
480.70	18644.71
480.88	18633.00
481.06	19005.15
481.24	18785.14
481.41	19131.54
481.59	19784.55
481.77	19475.60
481.95	19730.72
482.13	20046.69
482.31	19742.42
482.49	20255.00
482.67	20116.90
482.85	20950.14
483.03	20680.97
483.21	21219.30
483.39	20996.95
483.57	21123.33
483.74	21273.13
483.92	21853.58
484.10	21537.61
484.28	21664.00
484.46	22061.89
484.64	22155.51
484.82	22221.05
485.00	22817.88
485.18	23026.19
485.35	23236.84
485.53	22913.84
485.71	23051.94
485.89	23559.83
486.07	23531.75
486.25	23616.01
486.43	23616.01
486.61	23899.21
486.78	24056.03
486.96	24226.89
487.14	24489.03
487.32	24734.78
487.50	24800.32
487.68	25263.74
487.85	25668.66
488.03	25827.81
488.21	25923.77
488.39	25799.73
488.57	26279.54
488.75	26382.52
488.92	26771.05
489.10	26874.03
489.28	27187.66
489.46	27283.62
489.64	27307.03
489.81	27821.95
489.99	27742.37
490.17	28304.10
490.35	28311.12
490.53	28465.60
490.70	28774.55
490.88	28481.98
491.06	28910.30
491.24	29081.16
491.41	29212.23
491.59	29216.91
491.77	29993.97
491.95	29771.61
492.13	29771.61
492.30	30387.18
492.48	30211.64
492.66	30417.60
492.84	30359.09
493.01	30951.24
493.19	30885.71
493.37	31194.66
493.54	31283.60
493.72	31512.97
493.90	31536.38
494.08	31840.65
494.25	32173.00
494.43	32205.77
494.61	32189.39
494.79	32580.26
494.96	32716.01
495.14	33092.83
495.32	33455.62
495.49	33677.97
495.67	33214.54
495.85	34195.23
496.02	34036.07
496.20	33888.62
496.38	34649.29
496.55	34206.93
496.73	35398.26
496.91	34927.81
497.09	35086.97
497.26	35667.42
497.44	35372.52
497.62	35728.28
497.79	36191.70
497.97	35232.08
498.14	36444.48
498.32	36657.47
498.50	36301.71
498.67	37099.83
498.85	36575.55
499.03	37158.34
499.20	37015.57
499.38	37081.11
499.56	37284.73
499.73	37343.25
499.91	37647.52
500.08	37846.46
500.26	37614.75
500.44	38019.66
500.61	38178.82
500.79	38078.18
500.97	37881.57
501.14	38672.67
501.32	38639.90
501.49	38834.17
501.67	38913.75
501.84	39494.20
502.02	39110.35
502.20	39393.56
502.37	39543.35
502.55	39433.35
502.72	39552.71
502.90	39824.22
503.07	39882.73
503.25	40222.11
503.43	40025.50
503.60	40203.38
503.78	40306.37
503.95	40617.66
504.13	40470.20
504.30	41174.70
504.48	40662.13
504.65	41170.02
504.83	41422.80
505.01	41572.60
505.18	41558.55
505.36	41408.76
505.53	41598.34
505.71	42389.44
505.88	42000.91
506.06	41706.01
506.23	41991.55
506.41	42122.62
506.58	42342.63
506.76	43136.07
506.93	42794.36
507.11	42319.23
507.28	42885.64
507.46	42946.49
507.63	43000.32
507.81	43388.85
507.98	43435.66
508.16	43899.09
508.33	43419.28
508.50	43571.41
508.68	43917.81
508.85	44411.67
509.03	44203.36
509.20	44081.65
509.38	44456.14
509.55	44961.69
509.73	44821.26
509.90	44828.28
510.08	44706.57
510.25	45179.36
510.42	45099.78
510.60	45310.43
510.77	45237.87
510.95	45628.74
511.12	45619.38
511.30	45125.53
511.47	45565.55
511.64	45148.93
511.82	45996.21
511.99	46291.12
512.17	46162.39
512.34	46202.18
512.51	46621.13
512.69	46515.81
512.86	46417.50
513.04	47033.07
513.21	46941.78
513.38	46869.23
513.56	47026.04
513.73	46562.62
513.90	47185.20
514.08	46838.80
514.25	47189.88
514.43	47711.82
514.60	47650.97
514.77	47737.57
514.95	47868.64
515.12	47723.52
515.29	47978.64
515.47	48311.00
515.64	48713.57
515.81	48090.99
515.99	48390.58
516.16	48830.60
516.33	48301.64
516.51	48751.02
516.68	48811.87
516.85	48376.53
517.03	49434.45
517.20	49244.87
517.37	48811.87
517.54	49106.78
517.72	49118.48
517.89	49022.52
518.06	49544.46
518.24	49371.26
518.41	49752.77
518.58	49558.50
518.75	49593.61
518.93	49879.16
519.10	49776.17
519.27	50089.80
519.45	50171.72
519.62	50504.08
519.79	50021.93
519.96	49738.72
520.14	50309.82
520.31	50284.07
520.48	50593.02
520.65	50534.51
520.83	50637.49
521.00	50883.25
521.17	50962.82
521.34	50794.31
521.52	51154.75
521.69	51047.08
521.86	51473.06
522.03	51566.68
522.20	51669.67
522.38	51859.25
522.55	51564.34
522.72	51849.89
522.89	51821.80
523.07	51810.10
523.24	51625.20
523.41	52004.36
523.58	51494.13
523.75	52044.15
523.92	51810.10
524.10	52488.85
524.27	52027.77
524.44	52477.15
524.61	52442.04
524.78	52500.56
524.96	52392.89
525.13	52561.41
525.30	52589.50
525.47	52554.39
525.64	52662.05
525.81	52753.33
525.98	52629.29
526.16	52800.15
526.33	52725.25
526.50	53228.46
526.67	52928.87
526.84	53038.88
527.01	53172.29
527.18	53125.48
527.36	53277.61
527.53	53081.01
527.70	53301.02
527.87	53614.65
528.04	53233.14
528.21	53551.46
528.38	53736.36
528.55	53666.14
528.72	53551.46
528.89	53897.86
529.07	53422.73
529.24	53460.18
529.41	53942.33
529.58	53811.26
529.75	53958.71
529.92	54124.89
530.09	53996.16
530.26	54218.51
530.43	53958.71
530.60	54204.47
530.77	54017.22
530.94	54363.62
531.11	54101.48
531.28	54232.55
531.46	54459.58
531.63	54436.18
531.80	54443.20
531.97	54459.58
532.14	54532.14
532.31	54593.00
532.48	54782.58
532.65	54784.92
532.82	54534.48
532.99	54831.73
533.16	54820.03
533.33	55018.97
533.50	55157.06
533.67	54948.76
533.84	54808.32
534.01	55089.19
534.18	55231.96
534.35	55627.51
534.52	55210.90
534.69	55313.88
534.86	55161.75
535.03	55311.54
535.20	55393.46
535.37	55451.97
535.54	55632.19
535.71	55491.76
535.88	55674.32
536.05	55540.91
536.22	55796.03
536.38	55859.23
536.55	55789.01
536.72	55863.91
536.89	55866.25
537.06	55707.09
537.23	55707.09
537.40	55618.15
537.57	56086.26
537.74	55917.74
537.91	56163.50
538.08	55990.30
538.25	55791.35
538.42	56144.77
538.59	56301.59
538.75	55915.40
538.92	56378.82
539.09	56264.14
539.26	56409.25
539.43	56282.86
539.60	56406.91
539.77	56435.00
539.94	56657.35
540.11	56594.15
540.28	56629.26
540.44	56762.67
540.61	56647.99
540.78	56568.41
540.95	56617.56
541.12	56615.22
541.29	56741.61
541.46	56662.03
541.62	56797.78
541.79	56786.08
541.96	56423.29
542.13	56666.71
542.30	56844.59
542.47	56851.61
542.63	56989.70
542.80	57055.24
542.97	57256.53
543.14	57272.91
543.31	57310.36
543.48	57457.81
543.64	57572.50
543.81	57513.98
543.98	57464.83
544.15	57495.26
544.32	57539.73
544.48	57642.71
544.65	57425.04
544.82	57642.71
544.99	57549.09
545.16	57642.71
545.32	57666.12
545.49	57755.06
545.66	57989.11
545.83	57946.98
546.00	57963.37
546.16	58075.71
546.33	57820.59
546.50	57588.88
546.67	57867.40
546.83	57645.05
547.00	57991.45
547.17	57970.39
547.34	57998.48
547.50	58220.83
547.67	58178.70
547.84	58080.39
548.00	58309.77
548.17	58354.24
548.34	58230.19
548.51	58478.28
548.67	58258.27
548.84	58398.71
549.01	58246.57
549.18	58417.43
549.34	58368.28
549.51	58518.07
549.68	58562.54
549.84	58410.41
550.01	58370.62
550.18	58419.77
550.34	58628.08
550.51	58588.29
550.68	58539.14
550.84	58464.24
551.01	58766.17
551.18	58452.54
551.34	58761.49
551.51	58688.93
551.68	58780.21
551.84	58644.46
552.01	58445.52
552.18	58820.00
552.34	58691.27
552.51	58782.55
552.68	58878.52
552.84	58754.47
553.01	59086.82
553.18	58796.60
553.34	58983.84
553.51	58852.77
553.67	58845.75
553.84	59182.79
554.01	58843.41
554.17	59360.67
554.34	59206.19
554.51	59217.89
554.67	59208.53
554.84	59126.61
555.00	59192.15
555.17	59063.42
555.33	59187.47
555.50	58948.73
555.67	59051.72
555.83	58997.88
556.00	59353.65
556.16	59458.97
556.33	59536.21
556.50	59316.20
556.66	59732.81
556.83	59215.55
556.99	59573.66
557.16	59524.50
557.32	59583.02
557.49	59913.03
557.65	59433.22
557.82	59407.48
557.98	59440.24
558.15	59590.04
558.32	59625.15
558.48	59781.96
558.65	59611.10
558.81	59660.26
558.98	59760.90
559.14	59676.64
559.31	59674.30
559.47	59833.46
559.64	59805.37
559.80	59765.58
559.97	59997.29
560.13	59533.87
560.30	59898.99
560.46	59959.84
560.63	59992.61
560.79	59997.29
560.96	60097.94
561.12	60039.42
561.29	59990.27
561.45	60182.19
561.61	59791.33
561.78	60083.89
561.94	60205.60
562.11	60023.04
562.27	60025.38
562.44	60102.62
562.60	60236.03
562.77	60076.87
562.93	60004.31
563.10	60229.01
563.26	60027.72
563.42	60336.67
563.59	60315.61
563.75	60107.30
563.92	60158.79
564.08	60128.36
564.24	60273.48
564.41	60257.09
564.57	60224.32
564.74	60303.90
564.90	60341.35
565.07	60261.77
565.23	60233.69
565.39	60306.24
565.56	60259.43
565.72	60322.63
565.88	60369.44
566.05	60360.08
566.21	60303.90
566.38	60444.33
566.54	60416.25
566.70	60645.62
566.87	60603.49
567.03	60233.69
567.19	60795.42
567.36	60301.56
567.52	60374.12
567.68	60446.68
567.85	60472.42
568.01	60537.96
568.17	60746.26
568.34	60605.83
568.50	60601.15
568.66	60411.57
568.83	60481.78
568.99	60451.36
569.15	60596.47
569.32	60645.62
569.48	60615.19
569.64	60690.09
569.81	60547.32
569.97	60570.72
570.13	60629.24
570.30	60601.15
570.46	60523.91
570.62	60568.38
570.78	60516.89
570.95	60837.54
571.11	60961.59
571.27	60601.15
571.43	60528.59
571.60	60870.31
571.76	60727.54
571.92	60814.14
572.09	60767.33
572.25	60821.16
572.41	60631.58
572.57	60701.79
572.74	60992.02
572.90	60617.53
573.06	60814.14
573.22	60704.13
573.38	60783.71
573.55	60802.44
573.71	61013.08
573.87	60774.35
574.03	60629.24
574.20	60912.44
574.36	60652.64
574.52	60720.52
574.68	60874.99
574.84	60935.85
575.01	60872.65
575.17	60961.59
575.33	60718.18
575.49	60849.25
575.65	60994.36
575.82	61130.11
575.98	60996.70
576.14	61181.60
576.30	61048.19
576.46	60900.74
576.62	60870.31
576.79	60896.06
576.95	60772.01
577.11	60914.78
577.27	61155.86
577.43	60891.38
577.59	60893.72
577.75	60928.83
577.92	60966.27
578.08	60816.48
578.24	60924.14
578.40	61120.75
578.56	61244.80
578.72	60882.02
578.88	61144.16
579.04	61382.89
579.21	61120.75
579.37	61289.27
579.53	61111.39
579.69	60893.72
579.85	60942.87
580.01	61155.86
580.17	60987.34
580.33	61228.41
580.49	61118.41
580.65	61113.73
580.82	61216.71
580.98	60860.95
581.14	60947.55
581.30	61347.78
581.46	60994.36
581.62	60942.87
581.78	61200.33
581.94	61038.83
582.10	61106.71
582.26	61144.16
582.42	60940.53
582.58	61076.28
582.74	60970.96
582.90	60825.84
583.06	61010.74
583.22	60842.23
583.38	61214.37
583.54	61083.30
583.70	61069.26
583.86	61233.10
584.02	61141.81
584.18	61272.88
584.34	61048.19
584.50	61188.63
584.66	61286.93
584.82	60980.32
584.98	61282.25
585.14	61286.93
585.30	61017.77
585.46	61162.88
585.62	61064.58
585.78	61312.67
585.94	61055.21
586.10	61036.49
586.26	61144.16
586.42	61158.20
586.58	61446.08
586.74	61001.38
586.90	61172.24
587.06	61106.71
587.22	61410.98
587.38	61387.57
587.54	61633.33
587.70	61296.29
587.86	61071.60
588.02	61265.86
588.18	61195.65
588.34	61066.92
