SpectraSuite Data File
++++++++++++++++++++++++++++++++++++
Date: Fri Oct 25 11:25:03 EDT 2013
User: price-jones
Dark Spectrum Present: No
Reference Spectrum Present: No
Number of Sampled Component Spectra: 1
Spectrometers: USB2+H05261
Integration Time (usec): 100000 (USB2+H05261)
Spectra Averaged: 1 (USB2+H05261)
Boxcar Smoothing: 0 (USB2+H05261)
Correct for Electrical Dark: No (USB2+H05261)
Strobe/Lamp Enabled: No (USB2+H05261)
Correct for Detector Non-linearity: No (USB2+H05261)
Correct for Stray Light: No (USB2+H05261)
Number of Pixels in Processed Spectrum: 2048
>>>>>Begin Processed Spectral Data<<<<<
365.73	184.90
365.92	184.90
366.12	184.90
366.32	210.65
366.52	175.54
366.72	163.84
366.91	131.07
367.11	119.37
367.31	156.82
367.51	140.43
367.70	100.64
367.90	175.54
368.10	79.58
368.30	72.56
368.49	135.75
368.69	147.45
368.89	145.11
369.09	245.76
369.28	163.84
369.48	100.64
369.68	210.65
369.87	154.48
370.07	180.22
370.27	269.16
370.47	369.80
370.66	678.76
370.86	624.92
371.06	641.31
371.25	648.33
371.45	678.76
371.65	678.76
371.84	648.33
372.04	664.71
372.24	716.20
372.44	734.93
372.63	695.14
372.83	741.95
373.03	826.21
373.22	709.18
373.42	784.08
373.62	809.83
373.81	774.72
374.01	866.00
374.21	760.67
374.40	851.96
374.60	798.12
374.79	753.65
374.99	936.21
375.19	840.25
375.38	791.10
375.58	849.61
375.78	847.27
375.97	835.57
376.17	903.45
376.37	840.25
376.56	957.28
376.76	950.26
376.95	861.32
377.15	966.64
377.35	917.49
377.54	919.83
377.74	870.68
377.93	858.98
378.13	910.47
378.33	952.60
378.52	908.13
378.72	877.70
378.91	842.59
379.11	954.94
379.31	931.53
379.50	919.83
379.70	910.47
379.89	997.07
380.09	1011.11
380.28	952.60
380.48	1018.13
380.68	985.37
380.87	1027.50
381.07	999.41
381.26	1050.90
381.46	952.60
381.65	1062.60
381.85	999.41
382.04	1074.31
382.24	1013.45
382.43	1109.41
382.63	1116.44
382.83	1153.88
383.02	1139.84
383.22	1130.48
383.41	1158.57
383.61	1174.95
383.80	1057.92
384.00	1060.26
384.19	1022.81
384.39	1132.82
384.58	1121.12
384.78	1144.52
384.97	1123.46
385.17	1163.25
385.36	1217.08
385.56	1081.33
385.75	1280.27
385.95	1170.27
386.14	1233.46
386.34	1153.88
386.53	1191.33
386.72	1186.65
386.92	1181.97
387.11	1170.27
387.31	1313.04
387.50	1291.98
387.70	1228.78
387.89	1273.25
388.09	1174.95
388.28	1310.70
388.48	1284.95
388.67	1369.21
388.86	1329.42
389.06	1287.29
389.25	1345.81
389.45	1329.42
389.64	1350.49
389.84	1432.41
390.03	1425.39
390.22	1385.60
390.42	1406.66
390.61	1308.36
390.81	1392.62
391.00	1406.66
391.19	1462.83
391.39	1418.36
391.58	1439.43
391.78	1434.75
391.97	1523.69
392.16	1483.90
392.36	1544.75
392.55	1528.37
392.75	1526.03
392.94	1514.33
393.13	1563.48
393.33	1591.56
393.52	1528.37
393.71	1617.31
393.91	1572.84
394.10	1572.84
394.29	1586.88
394.49	1596.25
394.68	1554.12
394.88	1563.48
395.07	1692.21
395.26	1680.50
395.46	1764.76
395.65	1654.76
395.84	1778.81
396.04	1680.50
396.23	1741.36
396.42	1788.17
396.62	1739.02
396.81	1837.32
397.00	1708.59
397.19	1739.02
397.39	1760.08
397.58	1832.64
397.77	1755.40
397.97	1823.28
398.16	1825.62
398.35	1933.28
398.55	1863.07
398.74	1961.37
398.93	1888.81
399.12	1879.45
399.32	1863.07
399.51	1984.77
399.70	1987.11
399.90	1963.71
400.09	2047.97
400.28	2073.71
400.47	1987.11
400.67	2090.10
400.86	2111.16
401.05	2057.33
401.24	2115.84
401.44	2097.12
401.63	2120.53
401.82	2153.29
402.01	2064.35
402.21	2251.60
402.40	2317.13
402.59	2270.32
402.78	2160.31
402.97	2181.38
403.17	2167.34
403.36	2155.63
403.55	2235.21
403.74	2251.60
403.93	2328.83
404.13	2466.92
404.32	2401.39
404.51	2296.07
404.70	2387.35
404.89	2408.41
405.09	2389.69
405.28	2504.37
405.47	2473.95
405.66	2495.01
405.85	2429.48
406.05	2406.07
406.24	2490.33
406.43	2647.15
406.62	2642.46
406.81	2628.42
407.00	2623.74
407.20	2644.81
407.39	2696.30
407.58	2586.29
407.77	2738.43
407.96	2738.43
408.15	2724.38
408.34	2705.66
408.54	2801.62
408.73	2747.79
408.92	2803.96
409.11	2874.18
409.30	2860.13
409.49	2874.18
409.68	2937.37
409.87	2928.01
410.07	2953.76
410.26	3073.12
410.45	3014.61
410.64	3112.91
410.83	3091.85
411.02	3098.87
411.21	3176.11
411.40	3218.24
411.59	3218.24
411.78	3314.20
411.98	3208.87
412.17	3229.94
412.36	3290.79
412.55	3400.80
412.74	3363.35
412.93	3225.26
413.12	3361.01
413.31	3602.08
413.50	3471.01
413.69	3417.18
413.88	3620.81
414.07	3566.98
414.26	3616.13
414.45	3716.77
414.64	3564.64
414.83	3737.84
415.02	3623.15
415.22	3817.41
415.41	3786.99
415.60	3852.52
415.79	3817.41
415.98	3779.97
416.17	3960.19
416.36	3852.52
416.55	3983.59
416.74	4039.76
416.93	4133.39
417.12	4063.17
417.31	4074.87
417.50	4170.83
417.69	4271.48
417.88	4287.86
418.07	4102.96
418.26	4383.82
418.45	4262.12
418.64	4542.98
418.83	4367.44
419.02	4325.31
419.21	4524.26
419.39	4603.83
419.58	4409.57
419.77	4442.34
419.96	4622.56
420.15	4512.55
420.34	4482.13
420.53	4334.67
420.72	4699.80
420.91	4608.51
421.10	4716.18
421.29	4788.74
421.48	4636.60
421.67	4798.10
421.86	4847.25
422.05	4882.36
422.24	4755.97
422.43	4856.61
422.61	4713.84
422.80	5043.85
422.99	4896.40
423.18	4901.08
423.37	4992.36
423.56	4980.66
423.75	4861.29
423.94	4786.40
424.13	4531.28
424.32	4809.80
424.50	4957.25
424.69	5170.24
424.88	5043.85
425.07	5004.07
425.26	4922.15
425.45	5008.75
425.64	4999.38
425.83	5109.39
426.01	4950.23
426.20	4961.94
426.39	5027.47
426.58	5029.81
426.77	4990.02
426.96	5193.65
427.15	5046.20
427.33	5149.18
427.52	5055.56
427.71	5149.18
427.90	5135.14
428.09	5364.51
428.28	5320.04
428.46	5336.42
428.65	5238.12
428.84	5437.06
429.03	5659.42
429.22	5303.65
429.40	5472.17
429.59	5336.42
429.78	5210.03
429.97	5313.02
430.16	5617.29
430.34	5472.17
430.53	5692.18
430.72	5645.37
430.91	5357.49
431.10	5617.29
431.28	5738.99
431.47	5727.29
431.66	5851.34
431.85	5804.53
432.03	5799.85
432.22	5994.11
432.41	5947.30
432.60	6050.28
432.79	5818.57
432.97	5893.47
433.16	6127.52
433.35	6010.50
433.54	6038.58
433.72	6125.18
433.91	6022.20
434.10	6253.91
434.28	5944.96
434.47	6134.54
434.66	6253.91
434.85	6253.91
435.03	6399.02
435.22	6218.80
435.41	6384.98
435.59	6267.95
435.78	6354.55
435.97	6434.13
436.16	6373.28
436.34	6340.51
436.53	6604.99
436.72	6567.54
436.90	6420.09
437.09	6670.53
437.28	6469.24
437.46	6647.12
437.65	6565.20
437.84	6808.62
438.02	6771.17
438.21	6792.23
438.40	6590.95
438.58	6867.13
438.77	6984.16
438.96	6892.88
439.14	7138.63
439.33	7138.63
439.52	7063.74
439.70	7164.38
439.89	7396.09
440.08	7143.32
440.26	7552.91
440.45	7368.01
440.63	7494.40
440.82	7473.33
441.01	7482.69
441.19	7592.70
441.38	7683.98
441.57	7536.52
441.75	7742.49
441.94	7948.46
442.12	7887.61
442.31	8070.17
442.50	8133.36
442.68	8063.15
442.87	7793.98
443.05	8086.55
443.24	8203.58
443.43	8044.42
443.61	8231.66
443.80	8561.68
443.98	8074.85
444.17	7819.73
444.35	8255.07
444.54	8362.73
444.73	8320.60
444.91	8290.18
445.10	8407.20
445.28	8215.28
445.47	8325.29
445.65	8311.24
445.84	8402.52
446.02	8491.46
446.21	8217.62
446.39	8491.46
446.58	8334.65
446.77	8571.04
446.95	8353.37
447.14	8346.35
447.32	8519.55
447.51	8439.97
447.69	8397.84
447.88	8507.85
448.06	8568.70
448.25	8664.66
448.43	8636.58
448.62	8681.05
448.80	8468.06
448.99	8496.14
449.17	8755.94
449.36	8753.60
449.54	8835.52
449.73	8760.63
449.91	8940.85
450.10	8952.55
450.28	9067.24
450.46	9174.90
450.65	8877.65
450.83	9043.83
451.02	9076.60
451.20	9219.37
451.39	9081.28
451.57	9043.83
451.76	9256.82
451.94	9149.15
452.13	9043.83
452.31	9418.32
452.49	9011.06
452.68	9256.82
452.86	9224.05
453.05	9308.31
453.23	9415.98
453.42	9364.48
453.60	9362.14
453.78	9504.92
453.97	9575.13
454.15	9460.45
454.34	9394.91
454.52	9834.93
454.70	9680.46
454.89	9664.07
455.07	9785.78
455.26	9827.91
455.44	9973.02
455.62	9907.49
455.81	9968.34
455.99	9942.60
456.17	10071.33
456.36	10052.60
456.54	10214.10
456.73	10211.76
456.91	10382.62
457.09	10359.21
457.28	10551.14
457.46	10331.12
457.64	10539.43
457.83	10457.51
458.01	10459.85
458.19	10710.29
458.38	10630.71
458.56	10607.31
458.74	10764.12
458.93	10703.27
459.11	10609.65
459.29	10810.93
459.48	10698.59
459.66	10846.04
459.84	10911.58
460.03	10967.75
460.21	10972.43
460.39	10918.60
460.57	10832.00
460.76	10911.58
460.94	10899.87
461.12	11236.91
461.31	11108.18
461.49	11157.33
461.67	11162.01
461.85	11412.45
462.04	11052.01
462.22	11808.00
462.40	11527.14
462.59	11400.75
462.77	11681.61
462.95	11707.36
463.13	11550.54
463.32	11683.95
463.50	11712.04
463.68	11852.47
463.86	11803.32
464.05	11712.04
464.23	11494.37
464.41	11976.52
464.59	11566.93
464.78	11997.59
464.96	11878.22
465.14	11913.33
465.32	11976.52
465.50	12149.72
465.69	12095.89
465.87	12053.76
466.05	12098.23
466.23	12039.72
466.41	12114.61
466.60	12545.27
466.78	12313.56
466.96	12107.59
467.14	12222.28
467.32	12353.35
467.51	12453.99
467.69	12313.56
467.87	12217.60
468.05	12587.40
468.23	12451.65
468.41	12524.21
468.60	12666.98
468.78	12713.79
468.96	12514.84
469.14	12837.84
469.32	13027.42
469.50	12807.41
469.69	12884.65
469.87	13191.26
470.05	13107.00
470.23	13205.30
470.41	13186.58
470.59	13547.02
470.77	12975.93
470.95	12994.65
471.14	13458.08
471.32	13071.89
471.50	13568.09
471.68	13586.81
471.86	13769.37
472.04	13652.34
472.22	14010.45
472.40	13532.98
472.58	13750.65
472.77	13926.19
472.95	14214.07
473.13	14534.73
473.31	13961.30
473.49	14485.58
473.67	13937.89
473.85	14242.16
474.03	14850.70
474.21	14424.72
474.39	14684.52
474.57	14621.33
474.75	14740.69
474.93	14995.81
475.12	14986.45
475.30	15105.82
475.48	14827.29
475.66	15105.82
475.84	15154.97
476.02	15363.28
476.20	15293.06
476.38	15920.32
476.56	15934.37
476.74	16088.84
476.92	15875.85
477.10	15967.13
477.28	15878.19
477.46	16072.46
477.64	16126.29
477.82	16755.90
478.00	16938.46
478.18	16912.71
478.36	16959.52
478.54	16870.58
478.72	17179.53
478.90	17226.34
479.08	17305.92
479.26	17626.57
479.44	17467.42
479.62	17755.30
479.80	18279.58
479.98	18324.05
480.16	18523.00
480.34	18118.09
480.52	18473.85
480.70	18192.98
480.88	18174.26
481.06	18853.02
481.24	18831.95
481.41	19145.58
481.59	19417.08
481.77	19566.88
481.95	19480.28
482.13	19761.14
482.31	19672.20
482.49	20107.54
482.67	20276.06
482.85	20381.38
483.03	20793.32
483.21	20561.61
483.39	21179.51
483.57	20861.19
483.74	20943.11
483.92	21369.09
484.10	20999.29
484.28	21694.43
484.46	21975.29
484.64	22185.94
484.82	22045.51
485.00	22593.19
485.18	22403.61
485.35	22930.23
485.53	22888.10
485.71	22995.76
485.89	23353.87
486.07	23559.83
486.25	23639.41
486.43	23807.93
486.61	23726.01
486.78	23957.72
486.96	24215.18
487.14	24180.07
487.32	24645.84
487.50	24961.81
487.68	24900.96
487.85	25156.08
488.03	25380.77
488.21	25530.56
488.39	25921.43
488.57	26146.12
488.75	26001.01
488.92	26466.78
489.10	26700.83
489.28	26647.00
489.46	27192.34
489.64	27040.21
489.81	27620.66
489.99	27445.12
490.17	27630.02
490.35	27857.06
490.53	28180.05
490.70	28393.04
490.88	28173.03
491.06	28716.03
491.24	28617.73
491.41	29273.08
491.59	29322.23
491.77	29467.34
491.95	29570.33
492.13	29699.06
492.30	30040.78
492.48	30223.34
492.66	29979.92
492.84	30377.81
493.01	30824.86
493.19	30759.32
493.37	31119.76
493.54	31435.74
493.72	31454.46
493.90	31374.88
494.08	31445.10
494.25	31999.80
494.43	31634.68
494.61	32215.13
494.79	32355.57
494.96	32554.51
495.14	32582.60
495.32	33041.34
495.49	33315.19
495.67	33008.58
495.85	33354.97
496.02	33553.92
496.20	34075.86
496.38	34176.50
496.55	34309.91
496.73	34675.04
496.91	34185.86
497.09	34572.05
497.26	35110.38
497.44	35229.74
497.62	34937.18
497.79	35632.32
497.97	35409.96
498.14	35899.14
498.32	36416.40
498.50	36168.30
498.67	36582.57
498.85	36290.01
499.03	36437.46
499.20	36924.29
499.38	36627.04
499.56	37120.90
499.73	37167.71
499.91	37677.94
500.08	37357.29
500.26	37104.51
500.44	37469.64
500.61	38040.73
500.79	37989.24
500.97	38139.03
501.14	38590.75
501.32	38354.36
501.49	38314.57
501.67	38703.10
501.84	39019.07
502.02	38770.97
502.20	38972.26
502.37	39276.53
502.55	39297.59
502.72	39349.09
502.90	39601.86
503.07	39438.03
503.25	39622.93
503.43	39957.63
503.60	39803.15
503.78	40037.20
503.95	40123.80
504.13	40128.48
504.30	40451.48
504.48	40378.92
504.65	40760.43
504.83	41050.66
505.01	41345.56
505.18	40807.24
505.36	41429.82
505.53	41205.13
505.71	41476.63
505.88	42031.34
506.06	41886.23
506.23	41500.04
506.41	42181.13
506.58	42188.16
506.76	42150.71
506.93	42244.33
507.11	42340.29
507.28	42267.73
507.46	42749.88
507.63	42752.23
507.81	43320.98
507.98	42438.59
508.16	43257.78
508.33	43295.23
508.50	43475.45
508.68	43665.03
508.85	43674.40
509.03	43306.93
509.20	43875.68
509.38	44294.64
509.55	44292.30
509.73	44044.20
509.90	44334.43
510.08	44488.90
510.25	44584.86
510.42	44662.10
510.60	45048.29
510.77	44854.03
510.95	45612.36
511.12	45071.70
511.30	45139.57
511.47	45900.25
511.64	45212.13
511.82	46183.45
511.99	45656.83
512.17	45834.71
512.34	45633.42
512.51	46171.75
512.69	46361.33
512.86	46047.70
513.04	46581.34
513.21	46464.32
513.38	46153.02
513.56	46852.84
513.73	47093.92
513.90	46820.08
514.08	46883.27
514.25	47688.42
514.43	47192.22
514.60	47625.22
514.77	47475.43
514.95	47749.27
515.12	47555.00
515.29	47468.40
515.47	48390.58
515.64	47920.13
515.81	47540.96
515.99	48303.98
516.16	48470.15
516.33	47735.23
516.51	48645.69
516.68	48385.89
516.85	48320.36
517.03	48641.01
517.20	48580.16
517.37	48746.34
517.54	48772.08
517.72	48889.11
517.89	49319.77
518.06	49294.02
518.24	49052.95
518.41	49038.90
518.58	49251.89
518.75	49118.48
518.93	49146.57
519.10	49588.93
519.27	49633.40
519.45	49485.95
519.62	49579.57
519.79	49736.38
519.96	49848.73
520.14	50433.86
520.31	50038.31
520.48	50277.05
520.65	50365.99
520.83	50618.77
521.00	50555.57
521.17	50368.33
521.34	50403.44
521.52	50646.85
521.69	50768.56
521.86	50705.37
522.03	51161.77
522.20	51299.86
522.38	51585.41
522.55	51239.01
522.72	51414.55
522.89	51447.32
523.07	51903.72
523.24	51676.69
523.41	51920.10
523.58	51297.52
523.75	51744.56
523.92	51812.44
524.10	52013.73
524.27	51899.04
524.44	51789.03
524.61	52165.86
524.78	51805.42
524.96	51917.76
525.13	52168.20
525.30	52343.74
525.47	52549.71
525.64	52463.11
525.81	52708.86
525.98	52481.83
526.16	52652.69
526.33	52685.46
526.50	52809.51
526.67	52772.06
526.84	52765.04
527.01	53003.77
527.18	52762.70
527.36	52701.84
527.53	52954.62
527.70	53350.17
527.87	53357.19
528.04	53078.67
528.21	53371.24
528.38	53450.81
528.55	53385.28
528.72	53179.31
528.89	53406.34
529.07	53441.45
529.24	53221.44
529.41	53443.79
529.58	53492.94
529.75	53523.37
529.92	53329.11
530.09	53551.46
530.26	53776.15
530.43	54183.40
530.60	53628.69
530.77	53829.98
530.94	54012.54
531.11	53909.56
531.28	54059.35
531.46	54042.97
531.63	54234.89
531.80	54178.72
531.97	54314.47
532.14	54354.26
532.31	54370.64
532.48	54553.21
532.65	54520.44
532.82	54436.18
532.99	54742.79
533.16	54550.87
533.33	54972.16
533.50	54976.84
533.67	54698.32
533.84	54576.61
534.01	54958.12
534.18	54487.67
534.35	55210.90
534.52	54820.03
534.69	55128.98
534.86	55274.09
535.03	54993.23
535.20	55196.85
535.37	55154.72
535.54	55351.33
535.71	55065.78
535.88	55585.38
536.05	55290.48
536.22	55849.86
536.38	55674.32
536.55	55707.09
536.72	55491.76
536.89	55367.71
537.06	55676.66
537.23	55800.71
537.40	55597.09
537.57	55592.40
537.74	55749.22
537.91	55899.01
538.08	55821.78
538.25	55543.25
538.42	55800.71
538.59	55927.10
538.75	56013.70
538.92	56053.49
539.09	55941.14
539.26	56140.09
539.43	56135.41
539.60	56137.75
539.77	56203.28
539.94	56432.66
540.11	56416.27
540.28	56430.32
540.44	56341.38
540.61	56582.45
540.78	56240.73
540.95	56123.71
541.12	56385.85
541.29	56233.71
541.46	56488.83
541.62	56624.58
541.79	56566.07
541.96	56374.14
542.13	56495.85
542.30	56610.54
542.47	56821.19
542.63	56720.54
542.80	56839.91
542.97	56924.17
543.14	57172.27
543.31	57120.77
543.48	57209.71
543.64	57436.75
543.81	57141.84
543.98	57436.75
544.15	57109.07
544.32	57275.25
544.48	57350.15
544.65	57244.82
544.82	57469.51
544.99	57242.48
545.16	57263.55
545.32	57476.54
545.49	57785.49
545.66	57869.75
545.83	57542.07
546.00	57867.40
546.16	57574.84
546.33	57631.01
546.50	57312.70
546.67	57614.63
546.83	57303.34
547.00	57621.65
547.17	57780.81
547.34	57764.42
547.50	57916.56
547.67	58206.78
547.84	57925.92
548.00	58035.92
548.17	58148.27
548.34	57869.75
548.51	58269.98
548.67	58239.55
548.84	58248.91
549.01	58075.71
549.18	58122.52
549.34	58190.40
549.51	58335.51
549.68	58319.13
549.84	58389.34
550.01	58391.68
550.18	58258.27
550.34	58461.90
550.51	58459.56
550.68	58096.78
550.84	58176.36
551.01	58424.45
551.18	58408.07
551.34	58501.69
551.51	58485.31
551.68	58599.99
551.84	58637.44
552.01	58269.98
552.18	58576.59
552.34	58457.22
552.51	58555.52
552.68	58576.59
552.84	58684.25
553.01	58834.05
553.18	58784.90
553.34	58850.43
553.51	58724.04
553.67	58665.53
553.84	58820.00
554.01	58908.94
554.17	59077.46
554.34	58913.62
554.51	59040.01
554.67	59217.89
554.84	58791.92
555.00	58869.15
555.17	59093.85
555.33	59018.95
555.50	59054.06
555.67	58913.62
555.83	58794.26
556.00	59152.36
556.16	59473.01
556.33	59269.39
556.50	59227.26
556.66	59470.67
556.83	59171.08
556.99	59374.71
557.16	59613.44
557.32	59494.08
557.49	59526.84
557.65	59203.85
557.82	59281.09
557.98	59157.04
558.15	59391.09
558.32	59398.12
558.48	59262.36
558.65	59426.20
558.81	59313.86
558.98	59391.09
559.14	59613.44
559.31	59667.28
559.47	59540.89
559.64	59667.28
559.80	59503.44
559.97	59690.68
560.13	59463.65
560.30	59803.03
560.46	59461.31
560.63	59767.92
560.79	59798.35
560.96	59702.38
561.12	59758.56
561.29	59777.28
561.45	59753.88
561.61	59707.07
561.78	59873.24
561.94	59688.34
562.11	59805.37
562.27	59774.94
562.44	59945.80
562.60	59978.57
562.77	59894.31
562.93	59676.64
563.10	60264.11
563.26	59807.71
563.42	60128.36
563.59	59978.57
563.75	59917.71
563.92	60097.94
564.08	60020.70
564.24	60088.57
564.41	59973.89
564.57	60147.09
564.74	60074.53
564.90	59994.95
565.07	59877.93
565.23	60133.04
565.39	59929.42
565.56	60238.37
565.72	59800.69
565.88	60119.00
566.05	60097.94
566.21	60027.72
566.38	60046.44
566.54	60172.83
566.70	60221.98
566.87	60198.58
567.03	60306.24
567.19	60423.27
567.36	60315.61
567.52	60306.24
567.68	60388.16
567.85	60289.86
568.01	60296.88
568.17	60224.32
568.34	60243.05
568.50	60264.11
568.66	60404.55
568.83	60289.86
568.99	60388.16
569.15	60449.02
569.32	60207.94
569.48	60381.14
569.64	60605.83
569.81	60334.33
569.97	60418.59
570.13	60285.18
570.30	60303.90
570.46	60369.44
570.62	60535.62
570.78	60509.87
570.95	60488.80
571.11	60547.32
571.27	60439.65
571.43	60488.80
571.60	60420.93
571.76	60533.28
571.92	60638.60
572.09	60425.61
572.25	60701.79
572.41	60404.55
572.57	60582.43
572.74	60718.18
572.90	60552.00
573.06	60636.26
573.22	60430.29
573.38	60640.94
573.55	60669.03
573.71	60795.42
573.87	60463.06
574.03	60484.12
574.20	60701.79
574.36	60521.57
574.52	60764.99
574.68	60657.32
574.84	60556.68
575.01	60598.81
575.17	60610.51
575.33	60509.87
575.49	60566.04
575.65	60626.90
575.82	60659.66
575.98	60825.84
576.14	60877.33
576.30	60823.50
576.46	60767.33
576.62	60753.29
576.79	60610.51
576.95	60631.58
577.11	60900.74
577.27	60687.75
577.43	60839.89
577.59	60666.69
577.75	60924.14
577.92	60741.58
578.08	60704.13
578.24	60832.86
578.40	61097.34
578.56	60903.08
578.72	60844.57
578.88	61017.77
579.04	60980.32
579.21	60767.33
579.37	61038.83
579.53	60891.38
579.69	60434.97
579.85	60825.84
580.01	60774.35
580.17	60692.43
580.33	61034.15
580.49	60828.18
580.65	61092.66
580.82	60919.46
580.98	60867.97
581.14	60872.65
581.30	60846.91
581.46	60919.46
581.62	60811.80
581.78	60832.86
581.94	61038.83
582.10	60949.89
582.26	60992.02
582.42	60889.04
582.58	60835.20
582.74	60905.42
582.90	60931.17
583.06	60947.55
583.22	60683.07
583.38	61050.53
583.54	60982.66
583.70	60947.55
583.86	60982.66
584.02	60992.02
584.18	61127.77
584.34	60750.94
584.50	60994.36
584.66	60800.10
584.82	60697.11
584.98	61139.47
585.14	61219.05
585.30	60870.31
585.46	60921.80
585.62	61057.56
585.78	61148.84
585.94	60844.57
586.10	61043.51
586.26	61001.38
586.42	61008.40
586.58	61160.54
586.74	60844.57
586.90	60919.46
587.06	60870.31
587.22	61256.50
587.38	61069.26
587.54	61064.58
587.70	61146.50
587.86	60977.98
588.02	61006.06
588.18	61022.45
588.34	61244.80
588.49	61010.74
