SpectraSuite Data File
++++++++++++++++++++++++++++++++++++
Date: Fri Oct 25 11:25:42 EDT 2013
User: price-jones
Dark Spectrum Present: No
Reference Spectrum Present: No
Number of Sampled Component Spectra: 1
Spectrometers: USB2+H05261
Integration Time (usec): 100000 (USB2+H05261)
Spectra Averaged: 1 (USB2+H05261)
Boxcar Smoothing: 0 (USB2+H05261)
Correct for Electrical Dark: No (USB2+H05261)
Strobe/Lamp Enabled: No (USB2+H05261)
Correct for Detector Non-linearity: No (USB2+H05261)
Correct for Stray Light: No (USB2+H05261)
Number of Pixels in Processed Spectrum: 2048
>>>>>Begin Processed Spectral Data<<<<<
365.73	203.63
365.92	203.63
366.12	203.63
366.32	194.26
366.52	131.07
366.72	212.99
366.91	105.32
367.11	133.41
367.31	203.63
367.51	205.97
367.70	145.11
367.90	184.90
368.10	79.58
368.30	140.43
368.49	166.18
368.69	177.88
368.89	145.11
369.09	126.39
369.28	133.41
369.48	175.54
369.68	180.22
369.87	252.78
370.07	203.63
370.27	283.20
370.47	315.97
370.66	479.81
370.86	589.82
371.06	638.97
371.25	678.76
371.45	739.61
371.65	709.18
371.84	660.03
372.04	702.16
372.24	615.56
372.44	690.46
372.63	732.59
372.83	692.80
373.03	734.93
373.22	781.74
373.42	788.76
373.62	786.42
373.81	772.38
374.01	816.85
374.21	760.67
374.40	793.44
374.60	847.27
374.79	753.65
374.99	856.64
375.19	807.48
375.38	844.93
375.58	821.53
375.78	812.17
375.97	908.13
376.17	861.32
376.37	849.61
376.56	828.55
376.76	889.40
376.95	908.13
377.15	847.27
377.35	894.08
377.54	938.55
377.74	945.58
377.93	884.72
378.13	954.94
378.33	917.49
378.52	1018.13
378.72	919.83
378.91	1034.52
379.11	919.83
379.31	926.85
379.50	891.74
379.70	940.90
379.89	1001.75
380.09	922.17
380.28	931.53
380.48	973.66
380.68	957.28
380.87	976.00
381.07	976.00
381.26	1041.54
381.46	915.15
381.65	1048.56
381.85	1039.20
382.04	1137.50
382.24	1036.86
382.43	1039.20
382.63	1132.82
382.83	1060.26
383.02	1116.44
383.22	1067.28
383.41	1018.13
383.61	1102.39
383.80	1116.44
384.00	1156.22
384.19	1076.65
384.39	1086.01
384.58	1114.10
384.78	1116.44
384.97	1135.16
385.17	1123.46
385.36	1114.10
385.56	1174.95
385.75	1048.56
385.95	1198.35
386.14	1186.65
386.34	1191.33
386.53	1277.93
386.72	1158.57
386.92	1254.53
387.11	1310.70
387.31	1299.00
387.50	1224.10
387.70	1247.51
387.89	1296.66
388.09	1240.48
388.28	1221.76
388.48	1366.87
388.67	1301.34
388.86	1317.72
389.06	1240.48
389.25	1387.94
389.45	1366.87
389.64	1394.96
389.84	1373.89
390.03	1416.02
390.22	1359.85
390.42	1390.28
390.61	1336.45
390.81	1387.94
391.00	1486.24
391.19	1434.75
391.39	1490.92
391.58	1369.21
391.78	1486.24
391.97	1425.39
392.16	1394.96
392.36	1493.26
392.55	1519.01
392.75	1416.02
392.94	1537.73
393.13	1549.43
393.33	1511.99
393.52	1474.54
393.71	1549.43
393.91	1666.46
394.10	1558.80
394.29	1582.20
394.49	1671.14
394.68	1729.66
394.88	1598.59
395.07	1629.01
395.26	1624.33
395.46	1603.27
395.65	1682.85
395.84	1640.72
396.04	1774.13
396.23	1736.68
396.42	1832.64
396.62	1717.95
396.81	1722.63
397.00	1746.04
397.19	1715.61
397.39	1832.64
397.58	1771.79
397.77	1834.98
397.97	1837.32
398.16	1846.68
398.35	1926.26
398.55	1856.04
398.74	1933.28
398.93	1877.11
399.12	1865.41
399.32	1947.33
399.51	1994.14
399.70	2033.93
399.90	1970.73
400.09	1933.28
400.28	2040.95
400.47	2033.93
400.67	2073.71
400.86	2054.99
401.05	2125.21
401.24	1973.07
401.44	2071.37
401.63	2122.87
401.82	2214.15
402.01	2232.87
402.21	2188.40
402.40	2253.94
402.59	2223.51
402.78	2211.81
402.97	2246.91
403.17	2228.19
403.36	2275.00
403.55	2284.36
403.74	2385.01
403.93	2452.88
404.13	2225.85
404.32	2321.81
404.51	2511.39
404.70	2347.56
404.89	2317.13
405.09	2502.03
405.28	2534.80
405.47	2420.11
405.66	2551.18
405.85	2569.91
406.05	2436.50
406.24	2551.18
406.43	2600.34
406.62	2600.34
406.81	2700.98
407.00	2480.97
407.20	2551.18
407.39	2689.28
407.58	2698.64
407.77	2724.38
407.96	2661.19
408.15	2822.69
408.34	2579.27
408.54	2764.17
408.73	2853.11
408.92	2719.70
409.11	2899.92
409.30	2834.39
409.49	2897.58
409.68	2867.16
409.87	2871.84
410.07	2892.90
410.26	2928.01
410.45	2995.89
410.64	3026.31
410.83	3000.57
411.02	3098.87
411.21	3033.33
411.40	3094.19
411.59	3328.24
411.78	3185.47
411.98	3169.09
412.17	3260.37
412.36	3229.94
412.55	3363.35
412.74	3442.93
412.93	3379.73
413.12	3258.03
413.31	3501.44
413.50	3365.69
413.69	3454.63
413.88	3524.85
414.07	3625.49
414.26	3737.84
414.45	3674.64
414.64	3590.38
414.83	3634.85
415.02	3751.88
415.22	3826.78
415.41	3735.50
415.60	3866.56
415.79	3880.61
415.98	4011.68
416.17	3995.29
416.36	3927.42
416.55	3878.27
416.74	4086.58
416.93	3929.76
417.12	4102.96
417.31	4166.15
417.50	4105.30
417.69	4318.29
417.88	4325.31
418.07	4351.06
418.26	4166.15
418.45	4393.19
418.64	4533.62
418.83	4327.65
419.02	4252.75
419.21	4355.74
419.39	4519.57
419.58	4470.42
419.77	4407.23
419.96	4648.30
420.15	4561.70
420.34	4638.94
420.53	4622.56
420.72	4578.09
420.91	4608.51
421.10	4751.29
421.29	4725.54
421.48	4671.71
421.67	4774.69
421.86	4638.94
422.05	4821.50
422.24	4896.40
422.43	4910.44
422.61	4875.34
422.80	4990.02
422.99	4938.53
423.18	4840.23
423.37	4837.89
423.56	4819.16
423.75	5067.26
423.94	4802.78
424.13	4526.60
424.32	4643.62
424.50	4938.53
424.69	5088.32
424.88	5076.62
425.07	4887.04
425.26	4751.29
425.45	5074.28
425.64	4915.12
425.83	5025.13
426.01	5121.09
426.20	5032.15
426.39	5025.13
426.58	4915.12
426.77	4901.08
426.96	5170.24
427.15	5109.39
427.33	5128.11
427.52	5104.71
427.71	5275.57
427.90	5259.18
428.09	5142.16
428.28	5336.42
428.46	5423.02
428.65	5348.12
428.84	5518.98
429.03	5455.79
429.22	5315.36
429.40	5589.20
429.59	5472.17
429.78	5277.91
429.97	5217.05
430.16	5441.75
430.34	5518.98
430.53	5675.80
430.72	5767.08
430.91	5565.79
431.10	5537.71
431.28	5884.11
431.47	5778.78
431.66	5991.77
431.85	5788.14
432.03	5877.09
432.22	5956.66
432.41	5858.36
432.60	5741.33
432.79	5928.58
432.97	5813.89
433.16	5844.32
433.35	5884.11
433.54	5966.03
433.72	6033.90
433.91	6029.22
434.10	6076.03
434.28	6005.81
434.47	6204.76
434.66	6244.55
434.85	6204.76
435.03	6279.66
435.22	6282.00
435.41	6572.22
435.59	6401.37
435.78	6487.96
435.97	6291.36
436.16	6406.05
436.34	6274.98
436.53	6490.31
436.72	6724.36
436.90	6492.65
437.09	6590.95
437.28	6356.90
437.46	6595.63
437.65	6679.89
437.84	6715.00
438.02	6590.95
438.21	6581.59
438.40	6698.61
438.58	7028.63
438.77	6843.73
438.96	7035.65
439.14	7246.30
439.33	7089.48
439.52	7162.04
439.70	7283.75
439.89	7201.83
440.08	7351.62
440.26	7459.29
440.45	7297.79
440.63	7433.54
440.82	7716.75
441.01	7368.01
441.19	7609.08
441.38	7695.68
441.57	7665.25
441.75	7651.21
441.94	7761.22
442.12	7974.21
442.31	7983.57
442.50	8030.38
442.68	7892.29
442.87	7943.78
443.05	8032.72
443.24	8243.37
443.43	8238.69
443.61	8241.03
443.80	8503.17
443.98	8093.57
444.17	7864.20
444.35	8079.53
444.54	8163.79
444.73	8362.73
444.91	8119.32
445.10	8545.30
445.28	8325.29
445.47	8201.24
445.65	8313.58
445.84	8468.06
446.02	8599.13
446.21	8484.44
446.39	8372.10
446.58	8322.94
446.77	8395.50
446.95	8313.58
447.14	8299.54
447.32	8589.77
447.51	8500.83
447.69	8442.31
447.88	8561.68
448.06	8449.33
448.25	8484.44
448.43	8533.59
448.62	8690.41
448.80	8650.62
448.99	8631.90
449.17	8643.60
449.36	8669.34
449.54	8816.80
449.73	9067.24
449.91	8985.32
450.10	9064.89
450.28	8868.29
450.46	8968.93
450.65	9011.06
450.83	8952.55
451.02	8931.48
451.20	9289.59
451.39	9249.80
451.57	9090.64
451.76	9001.70
451.94	9338.74
452.13	9366.82
452.31	9392.57
452.49	9041.49
452.68	9462.79
452.86	9151.49
453.05	9291.93
453.23	9474.49
453.42	9479.17
453.60	9308.31
453.78	9497.89
453.97	9500.23
454.15	9455.76
454.34	9500.23
454.52	9598.54
454.70	9654.71
454.89	9628.96
455.07	9635.99
455.26	9605.56
455.44	9760.03
455.62	9734.29
455.81	9860.68
455.99	9846.63
456.17	9860.68
456.36	10155.58
456.54	10090.05
456.73	10256.23
456.91	10373.25
457.09	10459.85
457.28	10518.37
457.46	10260.91
457.64	10635.39
457.83	10345.17
458.01	10338.15
458.19	10586.24
458.38	10399.00
458.56	10822.64
458.74	10654.12
458.93	10581.56
459.11	10609.65
459.29	10581.56
459.48	10740.72
459.66	10846.04
459.84	10855.40
460.03	10822.64
460.21	11173.72
460.39	10871.79
460.57	11052.01
460.76	11019.24
460.94	11094.14
461.12	11169.04
461.31	11250.96
461.49	11094.14
461.67	11147.97
461.85	11330.53
462.04	11442.88
462.22	11604.38
462.40	11829.07
462.59	11339.90
462.77	11485.01
462.95	11466.28
463.13	11442.88
463.32	11559.91
463.50	11690.98
463.68	11587.99
463.86	11789.28
464.05	11566.93
464.23	11726.08
464.41	11698.00
464.59	12140.36
464.78	12053.76
464.96	11573.95
465.14	11761.19
465.32	11899.28
465.50	12030.35
465.69	12044.40
465.87	12210.57
466.05	12241.00
466.23	12163.76
466.41	12212.92
466.60	12491.44
466.78	12112.27
466.96	12142.70
467.14	12381.43
467.32	12351.01
467.51	12753.58
467.69	12025.67
467.87	12381.43
468.05	12451.65
468.23	12465.69
468.41	12517.18
468.60	12531.23
468.78	12732.51
468.96	12599.10
469.14	12807.41
469.32	13013.38
469.50	12388.46
469.69	12966.57
469.87	12894.01
470.05	13078.91
470.23	13048.49
470.41	13153.81
470.59	13345.73
470.77	13125.72
470.95	13153.81
471.14	13549.36
471.32	13032.10
471.50	13605.53
471.68	13392.55
471.86	13385.52
472.04	13724.90
472.22	13760.01
472.40	13666.39
472.58	14019.81
472.77	13919.17
472.95	13994.06
473.13	14834.32
473.31	14057.26
473.49	14066.62
473.67	14075.98
473.85	14155.56
474.03	14466.85
474.21	14494.94
474.39	14698.56
474.57	14464.51
474.75	14738.35
474.93	14817.93
475.12	14651.75
475.30	14967.73
475.48	15054.33
475.66	15026.24
475.84	15126.88
476.02	15222.84
476.20	15150.29
476.38	15721.38
476.56	15889.90
476.74	15583.29
476.92	15679.25
477.10	15812.66
477.28	16060.76
477.46	16245.66
477.64	16369.71
477.82	16329.92
478.00	16858.88
478.18	16713.77
478.36	16954.84
478.54	17221.66
478.72	17106.98
478.90	17224.00
479.08	17453.37
479.26	17455.72
479.44	17720.20
479.62	17603.17
479.80	18080.64
479.98	18190.64
480.16	18403.63
480.34	18312.35
480.52	18490.23
480.70	18518.32
480.88	18319.37
481.06	18625.98
481.24	18838.97
481.41	19049.62
481.59	18951.32
481.77	19468.58
481.95	19508.37
482.13	19410.06
482.31	19594.96
482.49	20079.46
482.67	19971.79
482.85	20311.17
483.03	20467.98
483.21	20989.92
483.39	20699.70
483.57	20636.50
483.74	21022.69
483.92	21322.28
484.10	21390.16
484.28	21612.51
484.46	21685.06
484.64	22001.04
484.82	21958.91
485.00	22038.48
485.18	22546.38
485.35	22721.92
485.53	22735.96
485.71	22728.94
485.89	23452.17
486.07	22937.25
486.25	23608.98
486.43	23592.60
486.61	23716.65
486.78	24524.13
486.96	23718.99
487.14	24446.90
487.32	24306.46
487.50	24819.04
487.68	24795.64
487.85	24968.84
488.03	25308.21
488.21	25553.97
488.39	25469.71
488.57	26171.87
488.75	26066.55
488.92	26867.01
489.10	26595.51
489.28	26614.23
489.46	26785.09
489.64	27379.59
489.81	27585.55
489.99	27674.49
490.17	27604.28
490.35	28233.88
490.53	28109.83
490.70	28287.71
490.88	28198.77
491.06	28683.27
491.24	28591.98
491.41	28900.94
491.59	29188.82
491.77	28840.08
491.95	29387.77
492.13	29537.56
492.30	30008.01
492.48	29893.32
492.66	29862.90
492.84	30237.38
493.01	30373.13
493.19	30223.34
493.37	30941.88
493.54	31197.00
493.72	31250.83
493.90	30979.33
494.08	31351.48
494.25	31538.72
494.43	32074.70
494.61	32163.64
494.79	32058.32
494.96	32341.52
495.14	32491.32
495.32	33116.24
495.49	32945.38
495.67	33228.59
495.85	33481.36
496.02	33469.66
496.20	33745.84
496.38	33902.66
496.55	33570.30
496.73	34841.21
496.91	34218.63
497.09	34494.82
497.26	34834.19
497.44	34677.38
497.62	34824.83
497.79	35505.93
497.97	35632.32
498.14	35690.83
498.32	36336.82
498.50	35995.10
498.67	36390.65
498.85	36133.19
499.03	36175.32
499.20	36584.91
499.38	36706.62
499.56	36943.02
499.73	36959.40
499.91	36954.72
500.08	37209.84
500.26	37315.16
500.44	37305.80
500.61	37509.43
500.79	37717.73
500.97	37848.80
501.14	38401.17
501.32	38597.77
501.49	38227.97
501.67	38511.17
501.84	38766.29
502.02	38775.66
502.20	38625.86
502.37	38789.70
502.55	38930.13
502.72	39367.81
502.90	39555.05
503.07	39189.93
503.25	39461.43
503.43	39784.43
503.60	40133.17
503.78	39948.26
503.95	39873.37
504.13	40559.14
504.30	41034.27
504.48	40051.25
504.65	40772.13
504.83	40968.74
505.01	41212.15
505.18	40858.73
505.36	41181.73
505.53	41069.38
505.71	41235.56
505.88	41834.74
506.06	41048.32
506.23	42462.00
506.41	41635.79
506.58	41888.57
506.76	41687.28
506.93	42499.45
507.11	41902.61
507.28	42672.65
507.46	41949.42
507.63	42609.45
507.81	42972.24
507.98	42780.31
508.16	43168.84
508.33	43126.71
508.50	43365.45
508.68	43466.09
508.85	43632.27
509.03	43559.71
509.20	43601.84
509.38	43997.39
509.55	44233.78
509.73	44114.42
509.90	44390.60
510.08	44161.23
510.25	44385.92
510.42	44727.64
510.60	44847.00
510.77	44910.20
510.95	45031.91
511.12	44921.90
511.30	45099.78
511.47	45563.21
511.64	45408.73
511.82	45846.41
511.99	45605.34
512.17	45961.10
512.34	45207.45
512.51	46101.53
512.69	45666.19
512.86	45897.91
513.04	46583.68
513.21	46323.88
513.38	46593.04
513.56	46571.98
513.73	46646.88
513.90	46745.18
514.08	46490.06
514.25	47028.38
514.43	46962.85
514.60	47454.36
514.77	46822.42
514.95	47412.23
515.12	47086.90
515.29	47571.39
515.47	47533.94
515.64	48264.19
515.81	47669.69
515.99	48208.01
516.16	48222.06
516.33	48062.90
516.51	48161.20
516.68	48376.53
516.85	48409.30
517.03	48772.08
517.20	48856.34
517.37	48692.50
517.54	48769.74
517.72	48708.89
517.89	48905.49
518.06	48879.75
518.24	48964.01
518.41	49015.50
518.58	49127.84
518.75	49188.70
518.93	49385.30
519.10	49242.53
519.27	49673.19
519.45	49701.28
519.62	49785.54
519.79	49539.78
519.96	49656.81
520.14	50145.98
520.31	49998.52
520.48	49954.05
520.65	49837.03
520.83	50291.09
521.00	50468.97
521.17	50534.51
521.34	50183.43
521.52	50520.46
521.69	50616.43
521.86	50932.40
522.03	51072.83
522.20	51168.79
522.38	51407.53
522.55	51313.90
522.72	51112.62
522.89	51168.79
523.07	51550.30
523.24	51168.79
523.41	51435.61
523.58	51049.42
523.75	51957.55
523.92	51536.26
524.10	51758.61
524.27	52107.35
524.44	51648.60
524.61	52147.14
524.78	52093.30
524.96	52158.84
525.13	52210.33
525.30	52397.57
525.47	52327.36
525.64	52275.87
525.81	52523.96
525.98	52636.31
526.16	52584.82
526.33	52559.07
526.50	52736.95
526.67	52355.44
526.84	53029.52
527.01	52956.96
527.18	52856.32
527.36	52767.38
527.53	52774.40
527.70	53223.78
527.87	53294.00
528.04	53003.77
528.21	53247.19
528.38	53066.97
528.55	53432.09
528.72	53036.54
528.89	53322.08
529.07	53436.77
529.24	53123.14
529.41	53485.92
529.58	53619.33
529.75	53652.10
529.92	54071.06
530.09	53652.10
530.26	53759.76
530.43	53923.60
530.60	53602.95
530.77	53656.78
530.94	53986.80
531.11	53869.77
531.28	53939.99
531.46	54106.16
531.63	54162.34
531.80	54040.63
531.97	54248.94
532.14	54227.87
532.31	54234.89
532.48	54450.22
532.65	54424.48
532.82	54412.77
532.99	54623.42
533.16	54461.93
533.33	54621.08
533.50	54791.94
533.67	54918.33
533.84	54426.82
534.01	54810.67
534.18	54878.54
534.35	55093.87
534.52	54918.33
534.69	54941.74
534.86	55110.25
535.03	54930.03
535.20	55093.87
535.37	55210.90
535.54	55257.71
535.71	55136.00
535.88	55391.12
536.05	55381.76
536.22	55400.48
536.38	55360.69
536.55	55423.89
536.72	55503.46
536.89	55229.62
537.06	55428.57
537.23	55641.56
537.40	55578.36
537.57	55608.79
537.74	55749.22
537.91	56037.11
538.08	55615.81
538.25	55639.22
538.42	55983.27
538.59	56002.00
538.75	55545.59
538.92	55796.03
539.09	56168.18
539.26	55803.05
539.43	56041.79
539.60	56156.47
539.77	56116.68
539.94	56353.08
540.11	56200.94
540.28	56341.38
540.44	56388.19
540.61	56385.85
540.78	56397.55
540.95	56374.14
541.12	56268.82
541.29	56498.19
541.46	56399.89
541.62	56367.12
541.79	56603.52
541.96	56273.50
542.13	56509.89
542.30	56580.11
542.47	56760.33
542.63	56849.27
542.80	56671.39
542.97	56975.66
543.14	57174.61
543.31	56875.02
543.48	57226.10
543.64	57469.51
543.81	57560.79
543.98	57106.73
544.15	57200.35
544.32	57291.63
544.48	57481.22
544.65	57340.78
544.82	57319.72
544.99	57088.01
545.16	57190.99
545.32	57340.78
545.49	57544.41
545.66	57516.32
545.83	57495.26
546.00	57549.09
546.16	57343.12
546.33	57439.09
546.50	57361.85
546.67	57453.13
546.83	57340.78
547.00	57457.81
547.17	57504.62
547.34	57560.79
547.50	57876.77
547.67	57794.85
547.84	57703.57
548.00	57921.24
548.17	57792.51
548.34	58012.52
548.51	58012.52
548.67	57993.79
548.84	57998.48
549.01	57844.00
549.18	58251.25
549.34	58251.25
549.51	57993.79
549.68	58272.32
549.84	58117.84
550.01	58424.45
550.18	58145.93
550.34	58337.85
550.51	58497.01
550.68	58326.15
550.84	58054.65
551.01	58375.30
551.18	58351.90
551.34	58532.12
551.51	58471.26
551.68	58468.92
551.84	58401.05
552.01	58379.98
552.18	58578.93
552.34	58408.07
552.51	58658.51
552.68	58298.06
552.84	58710.00
553.01	58731.06
553.18	58656.17
553.34	59009.59
553.51	58599.99
553.67	58569.57
553.84	58714.68
554.01	58855.11
554.17	59023.63
554.34	58887.88
554.51	58906.60
554.67	58876.18
554.84	59025.97
555.00	58920.65
555.17	58824.68
555.33	58913.62
555.50	58983.84
555.67	58780.21
555.83	58747.45
556.00	59065.76
556.16	59124.27
556.33	59285.77
556.50	59126.61
556.66	59311.52
556.83	58962.78
556.99	59128.95
557.16	59274.07
557.32	59552.59
557.49	59465.99
557.65	59269.39
557.82	59400.46
557.98	59201.51
558.15	59344.28
558.32	59473.01
558.48	59245.98
558.65	59367.69
558.81	59400.46
558.98	59435.56
559.14	59377.05
559.31	59531.53
559.47	59728.13
559.64	59440.24
559.80	59620.47
559.97	59604.08
560.13	59662.60
560.30	59554.93
560.46	59753.88
560.63	59678.98
560.79	59718.77
560.96	59723.45
561.12	59667.28
561.29	59756.22
561.45	59770.26
561.61	59800.69
561.78	59597.06
561.94	59653.23
562.11	59678.98
562.27	59957.50
562.44	59807.71
562.60	59959.84
562.77	60048.78
562.93	59784.30
563.10	59992.61
563.26	59810.05
563.42	60140.07
563.59	59922.40
563.75	59835.80
563.92	59772.60
564.08	60011.34
564.24	60074.53
564.41	59934.10
564.57	60060.49
564.74	59908.35
564.90	60212.62
565.07	60130.70
565.23	59826.43
565.39	60097.94
565.56	60121.34
565.72	59983.25
565.88	59962.18
566.05	59978.57
566.21	60027.72
566.38	60102.62
566.54	60128.36
566.70	60236.03
566.87	60383.48
567.03	60034.74
567.19	60299.22
567.36	60231.35
567.52	60177.51
567.68	60437.31
567.85	60196.24
568.01	60350.71
568.17	60273.48
568.34	60320.29
568.50	60329.65
568.66	60250.07
568.83	60388.16
568.99	60114.32
569.15	60140.07
569.32	60196.24
569.48	60301.56
569.64	60617.53
569.81	60427.95
569.97	60285.18
570.13	60514.55
570.30	60229.01
570.46	60397.52
570.62	60280.50
570.78	60498.17
570.95	60299.22
571.11	60313.26
571.27	60369.44
571.43	60219.64
571.60	60669.03
571.76	60575.40
571.92	60329.65
572.09	60434.97
572.25	60378.80
572.41	60310.92
572.57	60418.59
572.74	60451.36
572.90	60416.25
573.06	60544.98
573.22	60472.42
573.38	60753.29
573.55	60582.43
573.71	60591.79
573.87	60605.83
574.03	60528.59
574.20	60533.28
574.36	60573.06
574.52	60825.84
574.68	60676.05
574.84	60830.52
575.01	60640.94
575.17	60322.63
575.33	60552.00
575.49	60587.11
575.65	60598.81
575.82	60755.63
575.98	60767.33
576.14	60823.50
576.30	60727.54
576.46	60626.90
576.62	60687.75
576.79	60629.24
576.95	60554.34
577.11	60849.25
577.27	60687.75
577.43	60814.14
577.59	60793.07
577.75	60603.49
577.92	60512.21
578.08	60755.63
578.24	60636.26
578.40	60898.40
578.56	60903.08
578.72	60711.16
578.88	60811.80
579.04	60952.23
579.21	60821.16
579.37	60949.89
579.53	60764.99
579.69	60711.16
579.85	60596.47
580.01	60973.30
580.17	60577.75
580.33	60809.46
580.49	60835.20
580.65	60882.02
580.82	60654.98
580.98	60715.84
581.14	60701.79
581.30	60891.38
581.46	60764.99
581.62	61029.47
581.78	60685.41
581.94	60720.52
582.10	60879.67
582.26	60622.22
582.42	60772.01
582.58	60755.63
582.74	60837.54
582.90	60802.44
583.06	60647.96
583.22	60650.30
583.38	60797.76
583.54	60767.33
583.70	60849.25
583.86	61062.24
584.02	60633.92
584.18	60914.78
584.34	60851.59
584.50	60931.17
584.66	60727.54
584.82	61092.66
584.98	61186.28
585.14	60942.87
585.30	60718.18
585.46	60931.17
585.62	60896.06
585.78	61076.28
585.94	60816.48
586.10	60889.04
586.26	60858.61
586.42	60879.67
586.58	60947.55
586.74	60800.10
586.90	60809.46
587.06	60872.65
587.22	60931.17
587.38	60912.44
587.54	61167.56
587.70	61256.50
587.86	60945.21
588.02	61071.60
588.18	61022.45
588.34	60966.27
588.49	60863.29
