SpectraSuite Data File
++++++++++++++++++++++++++++++++++++
Date: Fri Oct 25 11:22:44 EDT 2013
User: price-jones
Dark Spectrum Present: No
Reference Spectrum Present: No
Number of Sampled Component Spectra: 1
Spectrometers: USB2+H05261
Integration Time (usec): 100000 (USB2+H05261)
Spectra Averaged: 1 (USB2+H05261)
Boxcar Smoothing: 0 (USB2+H05261)
Correct for Electrical Dark: No (USB2+H05261)
Strobe/Lamp Enabled: No (USB2+H05261)
Correct for Detector Non-linearity: No (USB2+H05261)
Correct for Stray Light: No (USB2+H05261)
Number of Pixels in Processed Spectrum: 2048
>>>>>Begin Processed Spectral Data<<<<<
365.73	215.33
365.92	215.33
366.12	215.33
366.32	121.71
366.52	79.58
366.72	187.24
366.91	88.94
367.11	173.20
367.31	135.75
367.51	81.92
367.70	58.51
367.90	145.11
368.10	131.07
368.30	114.69
368.49	149.79
368.69	201.29
368.89	30.43
369.09	152.13
369.28	156.82
369.48	208.31
369.68	124.05
369.87	241.08
370.07	189.58
370.27	170.86
370.47	407.25
370.66	667.05
370.86	594.50
371.06	683.44
371.25	631.94
371.45	599.18
371.65	620.24
371.84	624.92
372.04	636.63
372.24	674.07
372.44	732.59
372.63	709.18
372.83	819.19
373.03	779.40
373.22	755.99
373.42	802.80
373.62	748.97
373.81	858.98
374.01	786.42
374.21	777.06
374.40	798.12
374.60	840.25
374.79	814.51
374.99	809.83
375.19	802.80
375.38	826.21
375.58	940.90
375.78	908.13
375.97	884.72
376.17	901.11
376.37	922.17
376.56	812.17
376.76	844.93
376.95	835.57
377.15	919.83
377.35	847.27
377.54	889.40
377.74	866.00
377.93	940.90
378.13	866.00
378.33	1020.47
378.52	868.34
378.72	954.94
378.91	877.70
379.11	973.66
379.31	945.58
379.50	964.30
379.70	922.17
379.89	990.05
380.09	908.13
380.28	943.24
380.48	973.66
380.68	945.58
380.87	985.37
381.07	976.00
381.26	945.58
381.46	978.34
381.65	987.71
381.85	1048.56
382.04	1060.26
382.24	1088.35
382.43	1015.79
382.63	1128.14
382.83	1074.31
383.02	1048.56
383.22	1184.31
383.41	1053.24
383.61	1144.52
383.80	1107.07
384.00	1062.60
384.19	1217.08
384.39	1121.12
384.58	1153.88
384.78	1074.31
384.97	1158.57
385.17	1142.18
385.36	1163.25
385.56	1198.35
385.75	1123.46
385.95	1048.56
386.14	1160.91
386.34	1191.33
386.53	1170.27
386.72	1184.31
386.92	1291.98
387.11	1167.93
387.31	1186.65
387.50	1221.76
387.70	1219.42
387.89	1263.89
388.09	1254.53
388.28	1287.29
388.48	1280.27
388.67	1240.48
388.86	1350.49
389.06	1315.38
389.25	1416.02
389.45	1359.85
389.64	1296.66
389.84	1409.00
390.03	1343.47
390.22	1324.74
390.42	1327.08
390.61	1425.39
390.81	1406.66
391.00	1350.49
391.19	1467.52
391.39	1488.58
391.58	1486.24
391.78	1469.86
391.97	1511.99
392.16	1467.52
392.36	1495.60
392.55	1483.90
392.75	1551.78
392.94	1514.33
393.13	1500.28
393.33	1558.80
393.52	1603.27
393.71	1563.48
393.91	1561.14
394.10	1596.25
394.29	1596.25
394.49	1575.18
394.68	1605.61
394.88	1621.99
395.07	1687.53
395.26	1654.76
395.46	1699.23
395.65	1701.57
395.84	1666.46
396.04	1818.60
396.23	1799.87
396.42	1813.92
396.62	1816.26
396.81	1636.03
397.00	1739.02
397.19	1802.21
397.39	1795.19
397.58	1856.04
397.77	1799.87
397.97	1781.15
398.16	1851.36
398.35	1888.81
398.55	1834.98
398.74	1879.45
398.93	1952.01
399.12	1893.49
399.32	1907.54
399.51	1998.82
399.70	1975.41
399.90	1973.07
400.09	2045.63
400.28	1968.39
400.47	2134.57
400.67	2080.74
400.86	2038.61
401.05	2031.58
401.24	2125.21
401.44	2045.63
401.63	2188.40
401.82	2146.27
402.01	2069.03
402.21	2176.70
402.40	2104.14
402.59	2157.97
402.78	2218.83
402.97	2352.24
403.17	2251.60
403.36	2284.36
403.55	2387.35
403.74	2279.68
403.93	2312.45
404.13	2385.01
404.32	2450.54
404.51	2399.05
404.70	2466.92
404.89	2377.98
405.09	2387.35
405.28	2532.46
405.47	2607.36
405.66	2485.65
405.85	2424.80
406.05	2495.01
406.24	2588.63
406.43	2637.78
406.62	2724.38
406.81	2637.78
407.00	2551.18
407.20	2684.59
407.39	2616.72
407.58	2630.76
407.77	2612.04
407.96	2717.36
408.15	2815.66
408.34	2696.30
408.54	2832.05
408.73	2768.85
408.92	2853.11
409.11	2822.69
409.30	2827.37
409.49	2881.20
409.68	2920.99
409.87	2956.10
410.07	3073.12
410.26	3075.46
410.45	2993.55
410.64	3073.12
410.83	3047.38
411.02	3094.19
411.21	3215.90
411.40	3183.13
411.59	3206.53
411.78	3052.06
411.98	3126.96
412.17	3241.64
412.36	3398.46
412.55	3344.63
412.74	3421.86
412.93	3351.65
413.12	3351.65
413.31	3559.95
413.50	3400.80
413.69	3616.13
413.88	3590.38
414.07	3566.98
414.26	3712.09
414.45	3655.92
414.64	3658.26
414.83	3681.66
415.02	3768.26
415.22	3822.09
415.41	3906.35
415.60	3885.29
415.79	3934.44
415.98	3911.04
416.17	3850.18
416.36	4109.98
416.55	4028.06
416.74	4081.89
416.93	4067.85
417.12	4119.34
417.31	4112.32
417.50	4224.67
417.69	4374.46
417.88	4182.54
418.07	4198.92
418.26	4409.57
418.45	4400.21
418.64	4582.77
418.83	4512.55
419.02	4365.10
419.21	4386.16
419.39	4631.92
419.58	4477.44
419.77	4571.07
419.96	4580.43
420.15	4561.70
420.34	4554.68
420.53	4662.35
420.72	4631.92
420.91	4758.31
421.10	4784.06
421.29	4772.35
421.48	4702.14
421.67	4645.96
421.86	4809.80
422.05	4755.97
422.24	4823.84
422.43	4896.40
422.61	4847.25
422.80	4851.93
422.99	4919.81
423.18	5029.81
423.37	5090.67
423.56	4990.02
423.75	4926.83
423.94	4798.10
424.13	4608.51
424.32	4849.59
424.50	5004.07
424.69	5069.60
424.88	5097.69
425.07	4865.97
425.26	4940.87
425.45	4947.89
425.64	5128.11
425.83	4959.60
426.01	5048.54
426.20	5032.15
426.39	5135.14
426.58	5069.60
426.77	5135.14
426.96	5128.11
427.15	5135.14
427.33	5212.37
427.52	5317.70
427.71	5423.02
427.90	5144.50
428.09	5359.83
428.28	5509.62
428.46	5392.59
428.65	5324.72
428.84	5666.44
429.03	5504.94
429.22	5507.28
429.40	5495.58
429.59	5547.07
429.78	5291.95
429.97	5416.00
430.16	5439.40
430.34	5607.92
430.53	5570.48
430.72	5654.73
430.91	5701.54
431.10	5575.16
431.28	5799.85
431.47	5708.57
431.66	5832.62
431.85	5760.06
432.03	5820.91
432.22	6047.94
432.41	5926.24
432.60	5947.30
432.79	6092.41
432.97	6085.39
433.16	5944.96
433.35	6038.58
433.54	6061.99
433.72	6015.18
433.91	6097.10
434.10	6249.23
434.28	6153.27
434.47	6120.50
434.66	6401.37
434.85	6384.98
435.03	6277.32
435.22	6251.57
435.41	6593.29
435.59	6448.18
435.78	6476.26
435.97	6471.58
436.16	6410.73
436.34	6445.84
436.53	6525.41
436.72	6607.33
436.90	6579.25
437.09	6785.21
437.28	6565.20
437.46	6724.36
437.65	6778.19
437.84	6843.73
438.02	6707.98
438.21	6729.04
438.40	6813.30
438.58	6953.73
438.77	7201.83
438.96	7070.76
439.14	7166.72
439.33	7185.44
439.52	7117.57
439.70	7290.77
439.89	7272.04
440.08	7325.88
440.26	7463.97
440.45	7442.90
440.63	7510.78
440.82	7786.96
441.01	7494.40
441.19	7590.36
441.38	7808.03
441.57	7599.72
441.75	7920.37
441.94	7885.26
442.12	7740.15
442.31	7939.10
442.50	8105.28
442.68	8016.33
442.87	8163.79
443.05	7985.91
443.24	8313.58
443.43	8269.11
443.61	8212.94
443.80	8587.43
443.98	8049.10
444.17	7805.69
444.35	8348.69
444.54	8203.58
444.73	8362.73
444.91	8283.16
445.10	8554.66
445.28	8409.54
445.47	8163.79
445.65	8369.76
445.84	8606.15
446.02	8566.36
446.21	8603.81
446.39	8301.88
446.58	8594.45
446.77	8435.29
446.95	8287.84
447.14	8631.90
447.32	8688.07
447.51	8561.68
447.69	8582.74
447.88	8734.88
448.06	8659.98
448.25	8510.19
448.43	8624.87
448.62	8486.78
448.80	8531.25
448.99	8622.53
449.17	8812.12
449.36	8669.34
449.54	8954.89
449.73	8950.21
449.91	9055.53
450.10	9032.13
450.28	9078.94
450.46	9092.98
450.65	9078.94
450.83	9160.86
451.02	8933.82
451.20	9226.39
451.39	9060.21
451.57	9254.48
451.76	9357.46
451.94	9107.02
452.13	9296.61
452.31	9376.19
452.49	9518.96
452.68	9277.88
452.86	9404.27
453.05	9572.79
453.23	9397.25
453.42	9369.16
453.60	9418.32
453.78	9561.09
453.97	9671.09
454.15	9659.39
454.34	9523.64
454.52	9865.36
454.70	9715.56
454.89	9921.53
455.07	9881.74
455.26	9947.28
455.44	9872.38
455.62	9872.38
455.81	9949.62
455.99	10104.09
456.17	10071.33
456.36	9963.66
456.54	10061.96
456.73	10270.27
456.91	10436.45
457.09	10513.69
457.28	10630.71
457.46	10291.34
457.64	10640.08
457.83	10492.62
458.01	10476.24
458.19	10656.46
458.38	10642.42
458.56	10846.04
458.74	10817.96
458.93	10768.80
459.11	10956.05
459.29	10846.04
459.48	10920.94
459.66	10843.70
459.84	10853.06
460.03	11101.16
460.21	11049.67
460.39	10862.43
460.57	11070.73
460.76	11183.08
460.94	11243.93
461.12	11274.36
461.31	11176.06
461.49	11222.87
461.67	11377.34
461.85	11658.21
462.04	11335.21
462.22	12044.40
462.40	11765.87
462.59	11501.39
462.77	11585.65
462.95	11742.47
463.13	11592.67
463.32	11609.06
463.50	11793.96
463.68	11740.13
463.86	11999.93
464.05	11761.19
464.23	11850.13
464.41	11976.52
464.59	11777.58
464.78	12196.53
464.96	12182.49
465.14	11918.01
465.32	12175.47
465.50	12133.34
465.69	12362.71
465.87	12098.23
466.05	12018.65
466.23	12138.02
466.41	12079.50
466.60	12458.67
466.78	12093.55
466.96	12189.51
467.14	12231.64
467.32	12493.78
467.51	12603.78
467.69	12126.32
467.87	12505.48
468.05	12695.07
468.23	12617.83
468.41	12573.36
468.60	12629.53
468.78	12692.73
468.96	12620.17
469.14	13235.73
469.32	12898.69
469.50	12643.57
469.69	13008.70
469.87	13245.09
470.05	13296.58
470.23	13254.45
470.41	13415.95
470.59	13549.36
470.77	13039.12
470.95	13167.85
471.14	13530.64
471.32	13390.20
471.50	13624.26
471.68	13701.50
471.86	13771.71
472.04	13942.57
472.22	14256.20
472.40	13841.93
472.58	13914.48
472.77	13912.14
472.95	14122.79
473.13	14909.21
473.31	14319.40
473.49	14246.84
473.67	14415.36
473.85	14305.35
474.03	14834.32
474.21	14843.68
474.39	14878.79
474.57	14684.52
474.75	14960.70
474.93	15019.22
475.12	15227.53
475.30	15185.40
475.48	14888.15
475.66	15178.37
475.84	15302.42
476.02	15351.57
476.20	15482.64
476.38	15721.38
476.56	15971.82
476.74	16135.65
476.92	16105.23
477.10	16027.99
477.28	16060.76
477.46	16037.35
477.64	16554.61
477.82	16669.30
478.00	17116.34
478.18	16985.27
478.36	17095.27
478.54	17280.18
478.72	16999.31
478.90	17750.62
479.08	17844.24
479.26	17848.93
479.44	17598.49
479.62	17930.84
479.80	18003.40
479.98	18251.50
480.16	18609.60
480.34	18415.34
480.52	18642.37
480.70	18623.64
480.88	18607.26
481.06	18897.49
481.24	18977.06
481.41	19330.48
481.59	19365.59
481.77	19618.37
481.95	19676.88
482.13	20156.69
482.31	19936.68
482.49	20531.18
482.67	20327.55
482.85	20475.01
483.03	20739.49
483.21	20671.61
483.39	21231.00
483.57	20889.28
483.74	21362.07
483.92	21649.96
484.10	21202.91
484.28	21909.75
484.46	22181.26
484.64	22602.55
484.82	22012.74
485.00	22473.82
485.18	22890.44
485.35	23063.64
485.53	22944.27
485.71	22930.23
485.89	23754.10
486.07	23592.60
486.25	23693.24
486.43	24067.73
486.61	24245.61
486.78	24191.78
486.96	24311.14
487.14	24802.66
487.32	25095.22
487.50	24783.93
487.68	24980.54
487.85	25303.53
488.03	25647.59
488.21	26160.17
488.39	25844.20
488.57	26462.10
488.75	26597.85
488.92	26415.29
489.10	26831.90
489.28	27016.80
489.46	27381.93
489.64	27388.95
489.81	27880.46
489.99	28105.15
490.17	27962.38
490.35	28161.33
490.53	28744.12
490.70	28570.92
490.88	28680.92
491.06	29071.79
491.24	28875.19
491.41	28952.43
491.59	29237.97
491.77	29305.85
491.95	29638.20
492.13	30066.52
492.30	30487.82
492.48	30356.75
492.66	30431.65
492.84	30522.93
493.01	30855.28
493.19	30712.51
493.37	31021.46
493.54	31435.74
493.72	31880.44
493.90	31899.16
494.08	32194.07
494.25	32055.98
494.43	32273.65
494.61	32655.15
494.79	32596.64
494.96	32540.47
495.14	33048.36
495.32	33443.91
495.49	33467.32
495.67	33460.30
495.85	33509.45
496.02	34113.31
496.20	34291.19
496.38	34232.68
496.55	34630.57
496.73	34979.31
496.91	34668.02
497.09	35220.38
497.26	35442.73
497.44	35030.80
497.62	35316.34
497.79	36201.07
497.97	35859.35
498.14	36163.62
498.32	36503.00
498.50	36531.08
498.67	36928.97
498.85	36783.86
499.03	37240.26
499.20	36795.56
499.38	37223.88
499.56	37708.37
499.73	37261.33
499.91	37481.34
500.08	37780.93
500.26	37687.31
500.44	38375.42
500.61	38394.15
500.79	38176.48
500.97	38225.63
501.14	38731.18
501.32	38747.57
501.49	39339.72
501.67	39136.10
501.84	38845.87
502.02	39112.69
502.20	39332.70
502.37	39365.47
502.55	39517.60
502.72	39812.51
502.90	39985.71
503.07	40074.65
503.25	40486.59
503.43	40067.63
503.60	40285.30
503.78	40376.58
503.95	40755.75
504.13	40524.04
504.30	40802.56
504.48	40868.09
504.65	41081.08
504.83	41446.21
505.01	41673.24
505.18	41106.83
505.36	41989.21
505.53	41294.07
505.71	42263.05
505.88	41972.83
506.06	41610.04
506.23	42270.08
506.41	41930.70
506.58	42405.83
506.76	42480.72
506.93	42738.18
507.11	42241.99
507.28	43035.43
507.46	42684.35
507.63	43536.30
507.81	43562.05
507.98	43253.10
508.16	43604.18
508.33	43512.90
508.50	43714.19
508.68	43620.56
508.85	44133.14
509.03	44147.18
509.20	44425.71
509.38	44669.12
509.55	44519.33
509.73	44804.88
509.90	45027.23
510.08	44697.21
510.25	44825.94
510.42	44568.48
510.60	44779.13
510.77	45427.46
510.95	45532.78
511.12	45940.04
511.30	45284.68
511.47	45750.45
511.64	45923.65
511.82	46061.74
511.99	45675.55
512.17	45830.03
512.34	45928.33
512.51	47114.98
512.69	46871.57
512.86	46412.82
513.04	46955.83
513.21	47103.28
513.38	46412.82
513.56	47161.79
513.73	47093.92
513.90	47435.64
514.08	47129.03
514.25	47627.56
514.43	47445.00
514.60	47559.69
514.77	47819.49
514.95	48573.14
515.12	47964.60
515.29	48062.90
515.47	48095.67
515.64	48643.35
515.81	48411.64
515.99	48687.82
516.16	48673.78
516.33	48641.01
516.51	49015.50
516.68	48652.72
516.85	49155.93
517.03	48903.15
517.20	49076.35
517.37	48935.92
517.54	48832.94
517.72	49062.31
517.89	49359.56
518.06	49797.24
518.24	49560.84
518.41	49502.33
518.58	49872.14
518.75	49724.68
518.93	49909.58
519.10	49722.34
519.27	49720.00
519.45	50007.89
519.62	50174.06
519.79	50258.32
519.96	50251.30
520.14	50007.89
520.31	50588.34
520.48	50770.90
520.65	50527.48
520.83	51049.42
521.00	51121.98
521.17	50834.10
521.34	51112.62
521.52	51058.79
521.69	51241.35
521.86	51129.00
522.03	51327.95
522.20	51845.21
522.38	51526.89
522.55	51648.60
522.72	51746.90
522.89	51749.24
523.07	51952.87
523.24	51873.29
523.41	52416.30
523.58	51554.98
523.75	52264.16
523.92	51716.48
524.10	52406.94
524.27	52292.25
524.44	52296.93
524.61	52392.89
524.78	52245.44
524.96	52549.71
525.13	52315.65
525.30	52392.89
525.47	52758.02
525.64	52797.80
525.81	52884.40
525.98	52992.07
526.16	52861.00
526.33	52783.76
526.50	53230.80
526.67	52811.85
526.84	53097.39
527.01	53354.85
527.18	53247.19
527.36	53125.48
527.53	53258.89
527.70	53535.07
527.87	53532.73
528.04	53448.47
528.21	53453.15
528.38	53638.06
528.55	53958.71
528.72	53542.10
528.89	53567.84
529.07	53577.20
529.24	53666.14
529.41	54099.14
529.58	53827.64
529.75	53769.13
529.92	53879.13
530.09	54171.70
530.26	54162.34
530.43	54171.70
530.60	54218.51
530.77	54288.73
530.94	54384.69
531.11	54518.10
531.28	54492.35
531.46	54649.17
531.63	54494.69
531.80	54410.43
531.97	54752.15
532.14	54588.31
532.31	54794.28
532.48	54920.67
532.65	54703.00
532.82	54777.90
532.99	54937.05
533.16	54803.64
533.33	55033.02
533.50	55091.53
533.67	54965.14
533.84	54981.52
534.01	55136.00
534.18	55192.17
534.35	55248.35
534.52	55217.92
534.69	55473.04
534.86	55489.42
535.03	55288.13
535.20	55367.71
535.37	55468.36
535.54	55671.98
535.71	55487.08
535.88	55742.20
536.05	55639.22
536.22	55625.17
536.38	55798.37
536.55	55906.04
536.72	55938.80
536.89	55739.86
537.06	55870.93
537.23	56065.19
537.40	55817.10
537.57	55800.71
537.74	55894.33
537.91	56299.25
538.08	56233.71
538.25	56126.05
538.42	56076.90
538.59	56191.58
538.75	55882.63
538.92	56233.71
539.09	56259.46
539.26	56643.30
539.43	56240.73
539.60	56261.80
539.77	56376.48
539.94	56624.58
540.11	56371.80
540.28	56411.59
540.44	56612.88
540.61	56767.35
540.78	56523.94
540.95	56603.52
541.12	56505.21
541.29	56580.11
541.46	56575.43
541.62	56776.72
541.79	57092.69
541.96	56374.14
542.13	56734.59
542.30	56837.57
542.47	57169.93
542.63	57062.26
542.80	57116.09
542.97	57195.67
543.14	57364.19
543.31	57293.97
543.48	57361.85
543.64	57495.26
543.81	57394.62
543.98	57504.62
544.15	57567.82
544.32	57609.95
544.48	57904.85
544.65	57626.33
544.82	57403.98
544.99	57364.19
545.16	57764.42
545.32	57504.62
545.49	58169.33
545.66	57972.73
545.83	57792.51
546.00	57813.57
546.16	57813.57
546.33	57729.31
546.50	57673.14
546.67	57879.11
546.83	57745.70
547.00	58007.84
547.17	57923.58
547.34	57991.45
547.50	58143.59
547.67	58141.25
547.84	58115.50
548.00	58447.86
548.17	58492.33
548.34	58356.58
548.51	58452.54
548.67	58461.90
548.84	58356.58
549.01	58342.53
549.18	58141.25
549.34	58377.64
549.51	58309.77
549.68	58375.30
549.84	58553.18
550.01	58672.55
550.18	58581.27
550.34	58560.20
550.51	58761.49
550.68	58670.21
550.84	58511.05
551.01	58791.92
551.18	58981.50
551.34	58770.85
551.51	58812.98
551.68	58728.72
551.84	58436.16
552.01	58681.91
552.18	58920.65
552.34	58717.02
552.51	58934.69
552.68	58831.71
552.84	58838.73
553.01	59007.25
553.18	58850.43
553.34	59016.61
553.51	59002.56
553.67	59072.78
553.84	59133.63
554.01	58880.86
554.17	59150.02
554.34	59224.92
554.51	59267.05
554.67	59234.28
554.84	59236.62
555.00	59082.14
555.17	59091.51
555.33	59271.73
555.50	59117.25
555.67	59199.17
555.83	59255.34
556.00	59295.13
556.16	59576.00
556.33	59625.15
556.50	59358.33
556.66	59456.63
556.83	59388.75
556.99	59550.25
557.16	59650.89
557.32	59709.41
557.49	59994.95
557.65	59463.65
557.82	59522.16
557.98	59561.95
558.15	59573.66
558.32	59608.76
558.48	59508.12
558.65	59641.53
558.81	59622.81
558.98	59597.06
559.14	59861.54
559.31	59742.17
559.47	59753.88
559.64	59880.27
559.80	59807.71
559.97	59959.84
560.13	59880.27
560.30	59873.24
560.46	60055.81
560.63	59964.52
560.79	59814.73
560.96	60020.70
561.12	59969.21
561.29	60158.79
561.45	60135.38
561.61	59856.86
561.78	60060.49
561.94	60121.34
562.11	60041.76
562.27	60142.41
562.44	60273.48
562.60	60048.78
562.77	60250.07
562.93	59917.71
563.10	60165.81
563.26	59952.82
563.42	60423.27
563.59	60046.44
563.75	60205.60
563.92	60095.60
564.08	60013.68
564.24	60299.22
564.41	60214.96
564.57	60004.31
564.74	60357.74
564.90	60236.03
565.07	60259.43
565.23	60310.92
565.39	60252.41
565.56	60308.58
565.72	60303.90
565.88	60369.44
566.05	60388.16
566.21	60200.92
566.38	60292.20
566.54	60404.55
566.70	60540.30
566.87	60624.56
567.03	60205.60
567.19	60591.79
567.36	60470.08
567.52	60549.66
567.68	60760.31
567.85	60570.72
568.01	60598.81
568.17	60509.87
568.34	60664.35
568.50	60406.89
568.66	60402.21
568.83	60552.00
568.99	60720.52
569.15	60680.73
569.32	60587.11
569.48	60626.90
569.64	60662.00
569.81	60683.07
569.97	60479.44
570.13	60556.68
570.30	60500.51
570.46	60685.41
570.62	60589.45
570.78	60533.28
570.95	60566.04
571.11	60666.69
571.27	60573.06
571.43	60486.46
571.60	60802.44
571.76	60662.00
571.92	60725.20
572.09	60704.13
572.25	60797.76
572.41	60687.75
572.57	60893.72
572.74	60919.46
572.90	60720.52
573.06	60825.84
573.22	60748.60
573.38	60835.20
573.55	60678.39
573.71	60896.06
573.87	60837.54
574.03	60643.28
574.20	60750.94
574.36	60823.50
574.52	60926.49
574.68	60779.03
574.84	61158.20
575.01	61050.53
575.17	60886.70
575.33	60697.11
575.49	60734.56
575.65	60924.14
575.82	61006.06
575.98	60891.38
576.14	61209.69
576.30	61085.64
576.46	60905.42
576.62	60912.44
576.79	60814.14
576.95	60907.76
577.11	60987.34
577.27	61179.26
577.43	61062.24
577.59	60938.19
577.75	60942.87
577.92	60779.03
578.08	60980.32
578.24	61146.50
578.40	61123.09
578.56	61120.75
578.72	60755.63
578.88	60907.76
579.04	61146.50
579.21	61165.22
579.37	61207.35
579.53	61104.37
579.69	60718.18
579.85	60980.32
580.01	61066.92
580.17	61078.62
580.33	61216.71
580.49	61137.13
580.65	61165.22
580.82	61064.58
580.98	60956.91
581.14	61038.83
581.30	61275.22
581.46	61059.90
581.62	61251.82
581.78	61034.15
581.94	61165.22
582.10	61097.34
582.26	61116.07
582.42	61099.68
582.58	61020.11
582.74	61123.09
582.90	60874.99
583.06	61261.18
583.22	61052.87
583.38	61165.22
583.54	60942.87
583.70	61146.50
583.86	61186.28
584.02	60741.58
584.18	61300.97
584.34	61106.71
584.50	61151.18
584.66	61097.34
584.82	60879.67
584.98	61207.35
585.14	61109.05
585.30	61034.15
585.46	60870.31
585.62	61069.26
585.78	61385.23
585.94	61127.77
586.10	61275.22
586.26	60999.04
586.42	61338.42
586.58	61134.79
586.74	60994.36
586.90	61244.80
587.06	61073.94
587.22	61448.42
587.38	61410.98
587.54	61263.52
587.70	61380.55
587.86	61298.63
588.02	61048.19
588.18	61469.49
588.34	61214.37
588.49	61263.52
