SpectraSuite Data File
++++++++++++++++++++++++++++++++++++
Date: Fri Oct 25 11:25:27 EDT 2013
User: price-jones
Dark Spectrum Present: No
Reference Spectrum Present: No
Number of Sampled Component Spectra: 1
Spectrometers: USB2+H05261
Integration Time (usec): 100000 (USB2+H05261)
Spectra Averaged: 1 (USB2+H05261)
Boxcar Smoothing: 0 (USB2+H05261)
Correct for Electrical Dark: No (USB2+H05261)
Strobe/Lamp Enabled: No (USB2+H05261)
Correct for Detector Non-linearity: No (USB2+H05261)
Correct for Stray Light: No (USB2+H05261)
Number of Pixels in Processed Spectrum: 2048
>>>>>Begin Processed Spectral Data<<<<<
365.73	220.01
365.92	220.01
366.12	220.01
366.32	154.48
366.52	163.84
366.72	128.73
366.91	135.75
367.11	147.45
367.31	163.84
367.51	124.05
367.70	156.82
367.90	135.75
368.10	142.77
368.30	161.50
368.49	70.22
368.69	121.71
368.89	168.52
369.09	147.45
369.28	191.92
369.48	166.18
369.68	222.35
369.87	135.75
370.07	170.86
370.27	210.65
370.47	365.12
370.66	571.09
370.86	594.50
371.06	704.50
371.25	669.39
371.45	603.86
371.65	765.36
371.84	704.50
372.04	688.12
372.24	725.57
372.44	711.52
372.63	737.27
372.83	741.95
373.03	795.78
373.22	760.67
373.42	795.78
373.62	706.84
373.81	882.38
374.01	842.59
374.21	791.10
374.40	837.91
374.60	800.46
374.79	802.80
374.99	835.57
375.19	805.14
375.38	940.90
375.58	847.27
375.78	842.59
375.97	866.00
376.17	978.34
376.37	854.30
376.56	791.10
376.76	819.19
376.95	835.57
377.15	903.45
377.35	936.21
377.54	917.49
377.74	910.47
377.93	997.07
378.13	945.58
378.33	936.21
378.52	858.98
378.72	861.32
378.91	919.83
379.11	898.77
379.31	915.15
379.50	968.98
379.70	971.32
379.89	866.00
380.09	926.85
380.28	971.32
380.48	926.85
380.68	940.90
380.87	910.47
381.07	924.51
381.26	1097.71
381.46	1097.71
381.65	1093.03
381.85	1046.22
382.04	1001.75
382.24	1071.97
382.43	1029.84
382.63	1022.81
382.83	1146.86
383.02	1097.71
383.22	1055.58
383.41	1088.35
383.61	1139.84
383.80	1130.48
384.00	1074.31
384.19	1109.41
384.39	1121.12
384.58	1046.22
384.78	1095.37
384.97	1179.63
385.17	1299.00
385.36	1095.37
385.56	1097.71
385.75	1083.67
385.95	1221.76
386.14	1221.76
386.34	1121.12
386.53	1179.63
386.72	1212.40
386.92	1275.59
387.11	1287.29
387.31	1198.35
387.50	1149.20
387.70	1198.35
387.89	1200.69
388.09	1268.57
388.28	1245.16
388.48	1324.74
388.67	1369.21
388.86	1359.85
389.06	1299.00
389.25	1299.00
389.45	1291.98
389.64	1390.28
389.84	1397.30
390.03	1392.62
390.22	1366.87
390.42	1331.76
390.61	1399.64
390.81	1352.83
391.00	1355.17
391.19	1411.34
391.39	1413.68
391.58	1327.08
391.78	1458.15
391.97	1399.64
392.16	1437.09
392.36	1500.28
392.55	1528.37
392.75	1490.92
392.94	1528.37
393.13	1551.78
393.33	1579.86
393.52	1479.22
393.71	1603.27
393.91	1495.60
394.10	1579.86
394.29	1619.65
394.49	1589.22
394.68	1607.95
394.88	1577.52
395.07	1661.78
395.26	1708.59
395.46	1603.27
395.65	1696.89
395.84	1699.23
396.04	1727.32
396.23	1778.81
396.42	1696.89
396.62	1673.48
396.81	1717.95
397.00	1764.76
397.19	1764.76
397.39	1774.13
397.58	1771.79
397.77	1837.32
397.97	1834.98
398.16	1842.00
398.35	1961.37
398.55	1717.95
398.74	1867.75
398.93	1947.33
399.12	1870.09
399.32	1879.45
399.51	1970.73
399.70	1956.69
399.90	1930.94
400.09	2080.74
400.28	2108.82
400.47	2012.86
400.67	1998.82
400.86	2073.71
401.05	1998.82
401.24	2078.40
401.44	2069.03
401.63	2225.85
401.82	2090.10
402.01	2071.37
402.21	2165.00
402.40	2188.40
402.59	2204.78
402.78	2115.84
402.97	2202.44
403.17	2279.68
403.36	2270.32
403.55	2300.75
403.74	2312.45
403.93	2310.11
404.13	2373.30
404.32	2317.13
404.51	2338.20
404.70	2363.94
404.89	2354.58
405.09	2413.09
405.28	2312.45
405.47	2431.82
405.66	2476.29
405.85	2562.89
406.05	2553.52
406.24	2490.33
406.43	2626.08
406.62	2469.27
406.81	2719.70
407.00	2729.06
407.20	2443.52
407.39	2619.06
407.58	2635.44
407.77	2719.70
407.96	2768.85
408.15	2637.78
408.34	2651.83
408.54	2839.07
408.73	2818.00
408.92	2757.15
409.11	2822.69
409.30	2827.37
409.49	2911.63
409.68	2885.88
409.87	2848.43
410.07	2958.44
410.26	2965.46
410.45	2956.10
410.64	3087.17
410.83	3052.06
411.02	3040.36
411.21	3213.56
411.40	2977.16
411.59	3105.89
411.78	3096.53
411.98	3199.51
412.17	3194.83
412.36	3180.79
412.55	3337.60
412.74	3431.23
412.93	3499.10
413.12	3363.35
413.31	3602.08
413.50	3318.88
413.69	3552.93
413.88	3534.21
414.07	3595.06
414.26	3618.47
414.45	3592.72
414.64	3609.11
414.83	3749.54
415.02	3669.96
415.22	3810.39
415.41	3831.46
415.60	3868.91
415.79	3758.90
415.98	3875.93
416.17	3768.26
416.36	3679.32
416.55	4030.40
416.74	3946.14
416.93	3864.22
417.12	4042.11
417.31	4147.43
417.50	4128.70
417.69	4236.37
417.88	4257.43
418.07	4198.92
418.26	4271.48
418.45	4372.12
418.64	4353.40
418.83	4360.42
419.02	4479.79
419.21	4500.85
419.39	4365.10
419.58	4547.66
419.77	4332.33
419.96	4510.21
420.15	4526.60
420.34	4674.05
420.53	4636.60
420.72	4571.07
420.91	4531.28
421.10	4770.01
421.29	4933.85
421.48	4662.35
421.67	4692.77
421.86	4713.84
422.05	4819.16
422.24	4732.56
422.43	4959.60
422.61	4800.44
422.80	4903.42
422.99	4887.04
423.18	4947.89
423.37	4985.34
423.56	4718.52
423.75	4739.58
423.94	4770.01
424.13	4587.45
424.32	4704.48
424.50	4961.94
424.69	4978.32
424.88	4961.94
425.07	4786.40
425.26	4889.38
425.45	4833.21
425.64	4870.65
425.83	4964.28
426.01	4978.32
426.20	4990.02
426.39	5011.09
426.58	5090.67
426.77	5057.90
426.96	5104.71
427.15	5036.83
427.33	5093.01
427.52	5071.94
427.71	5130.45
427.90	5238.12
428.09	5238.12
428.28	5191.31
428.46	5198.33
428.65	5298.97
428.84	5408.98
429.03	5589.20
429.22	5247.48
429.40	5516.64
429.59	5540.05
429.78	5266.21
429.97	5289.61
430.16	5444.09
430.34	5514.30
430.53	5645.37
430.72	5584.52
430.91	5605.58
431.10	5523.66
431.28	5645.37
431.47	5743.67
431.66	5788.14
431.85	5806.87
432.03	5834.96
432.22	5909.85
432.41	5881.77
432.60	5881.77
432.79	5689.84
432.97	5900.49
433.16	5841.98
433.35	5928.58
433.54	6111.14
433.72	5907.51
433.91	6026.88
434.10	6207.10
434.28	5977.73
434.47	6129.86
434.66	6228.17
434.85	6186.04
435.03	6429.45
435.22	6193.06
435.41	6382.64
435.59	6230.51
435.78	6380.30
435.97	6279.66
436.16	6518.39
436.34	6328.81
436.53	6305.40
436.72	6527.75
436.90	6363.92
437.09	6642.44
437.28	6438.81
437.46	6623.72
437.65	6555.84
437.84	6689.25
438.02	6661.16
438.21	6782.87
438.40	6759.47
438.58	6899.90
438.77	6981.82
438.96	6895.22
439.14	7096.50
439.33	7077.78
439.52	7122.25
439.70	7255.66
439.89	7342.26
440.08	7243.96
440.26	7286.09
440.45	7274.38
440.63	7297.79
440.82	7620.78
441.01	7506.10
441.19	7475.67
441.38	7726.11
441.57	7588.02
441.75	7634.83
441.94	7866.54
442.12	7815.05
442.31	7929.74
442.50	7894.63
442.68	7953.14
442.87	7861.86
443.05	7983.57
443.24	8084.21
443.43	8203.58
443.61	8091.23
443.80	8180.17
443.98	8049.10
444.17	7887.61
444.35	8067.83
444.54	8273.79
444.73	8109.96
444.91	8065.49
445.10	8374.44
445.28	8037.40
445.47	8257.41
445.65	8402.52
445.84	8367.42
446.02	8386.14
446.21	8329.97
446.39	8414.23
446.58	8517.21
446.77	8397.84
446.95	8163.79
447.14	8341.67
447.32	8547.64
447.51	8549.98
447.69	8273.79
447.88	8374.44
448.06	8266.77
448.25	8461.04
448.43	8587.43
448.62	8463.38
448.80	8365.07
448.99	8809.78
449.17	8547.64
449.36	8372.10
449.54	8678.71
449.73	8791.05
449.91	8889.35
450.10	8903.40
450.28	8767.65
450.46	8961.91
450.65	9139.79
450.83	9043.83
451.02	8980.64
451.20	9078.94
451.39	8952.55
451.57	9088.30
451.76	9032.13
451.94	9104.68
452.13	9448.74
452.31	9256.82
452.49	8992.34
452.68	9336.40
452.86	9217.03
453.05	9315.33
453.23	9263.84
453.42	9233.41
453.60	9268.52
453.78	9359.80
453.97	9226.39
454.15	9289.59
454.34	9469.81
454.52	9671.09
454.70	9633.64
454.89	9820.89
455.07	9687.48
455.26	9715.56
455.44	9902.81
455.62	10029.20
455.81	9582.15
455.99	9731.95
456.17	10015.15
456.36	9956.64
456.54	10097.07
456.73	10293.68
456.91	10462.19
457.09	10225.80
457.28	10384.96
457.46	10129.84
457.64	10520.71
457.83	10333.47
458.01	10139.20
458.19	10583.90
458.38	10586.24
458.56	10611.99
458.74	10810.93
458.93	10670.50
459.11	10614.33
459.29	10663.48
459.48	10684.55
459.66	10703.27
459.84	10806.25
460.03	10920.94
460.21	10874.13
460.39	10846.04
460.57	10773.49
460.76	10785.19
460.94	10970.09
461.12	11007.54
461.31	11007.54
461.49	10967.75
461.67	11173.72
461.85	11379.68
462.04	11379.68
462.22	11730.76
462.40	11323.51
462.59	11442.88
462.77	11433.52
462.95	11496.71
463.13	11440.54
463.32	11618.42
463.50	11604.38
463.68	11583.31
463.86	11576.29
464.05	11449.90
464.23	11702.68
464.41	11784.60
464.59	11524.80
464.78	11915.67
464.96	11913.33
465.14	11674.59
465.32	11845.45
465.50	12060.78
465.69	11892.26
465.87	12105.25
466.05	11910.99
466.23	12100.57
466.41	12006.95
466.60	12250.36
466.78	11915.67
466.96	12067.80
467.14	12046.74
467.32	12353.35
467.51	12531.23
467.69	12152.06
467.87	12245.68
468.05	12559.31
468.23	12390.80
468.41	12252.70
468.60	12430.59
468.78	12610.81
468.96	12664.64
469.14	12971.25
469.32	12814.43
469.50	12769.96
469.69	12896.35
469.87	13029.76
470.05	12947.84
470.23	12964.23
470.41	13158.49
470.59	13081.25
470.77	13006.36
470.95	13064.87
471.14	13383.18
471.32	13294.24
471.50	13408.93
471.68	13369.14
471.86	13617.24
472.04	13837.25
472.22	13888.74
472.40	13429.99
472.58	13661.71
472.77	13965.98
472.95	13804.48
473.13	14420.04
473.31	14052.58
473.49	13968.32
473.67	14164.92
473.85	14237.48
474.03	14553.45
474.21	14253.86
474.39	14544.09
474.57	14387.27
474.75	14993.47
474.93	14597.92
475.12	14731.33
475.30	14834.32
475.48	14841.34
475.66	15007.52
475.84	15014.54
476.02	15454.56
476.20	15283.70
476.38	15377.32
476.56	15850.11
476.74	15632.44
476.92	15548.18
477.10	15864.15
477.28	16018.63
477.46	16027.99
477.64	16058.42
477.82	16381.41
478.00	16931.44
478.18	16411.84
478.36	16423.54
478.54	17137.40
478.72	17111.66
478.90	17003.99
479.08	17343.37
479.26	17834.88
479.44	17607.85
479.62	17507.21
479.80	17869.99
479.98	18090.00
480.16	18513.64
480.34	18235.11
480.52	18382.57
480.70	18714.92
480.88	18249.16
481.06	18574.49
481.24	18808.54
481.41	18991.11
481.59	18984.09
481.77	19477.94
481.95	19255.59
482.13	19639.44
482.31	19332.82
482.49	19864.13
482.67	20081.80
482.85	20381.38
483.03	20512.46
483.21	20594.37
483.39	20985.24
483.57	20718.42
483.74	20994.61
483.92	21371.43
484.10	20802.68
484.28	21408.88
484.46	22080.61
484.64	22136.79
484.82	21678.04
485.00	22237.43
485.18	22462.12
485.35	22630.64
485.53	22501.91
485.71	22897.46
485.89	23157.26
486.07	23136.20
486.25	23449.83
486.43	23557.49
486.61	23718.99
486.78	23714.31
486.96	24032.62
487.14	24547.54
487.32	24369.66
487.50	24800.32
487.68	24692.65
487.85	25317.57
488.03	25458.01
488.21	25579.71
488.39	25275.45
488.57	25876.96
488.75	25965.90
488.92	26228.04
489.10	26588.49
489.28	26700.83
489.46	26902.12
489.64	26595.51
489.81	27583.21
489.99	27489.59
490.17	27576.19
490.35	28093.45
490.53	27906.21
490.70	28371.97
490.88	27908.55
491.06	28446.87
491.24	28603.69
491.41	28779.23
491.59	28896.25
491.77	29406.49
491.95	29317.55
492.13	29432.24
492.30	29631.18
492.48	29677.99
492.66	29986.94
492.84	29975.24
493.01	30766.34
493.19	30712.51
493.37	30803.79
493.54	30698.47
493.72	31646.38
493.90	31290.62
494.08	31550.42
494.25	31599.57
494.43	31969.38
494.61	32123.85
494.79	32074.70
494.96	32624.73
495.14	32472.59
495.32	32842.40
495.49	32767.50
495.67	33221.56
495.85	33432.21
496.02	33504.77
496.20	33982.24
496.38	33745.84
496.55	33593.71
496.73	34345.02
496.91	33982.24
497.09	34492.47
497.26	35019.10
497.44	34934.84
497.62	35042.50
497.79	35370.18
497.97	35508.27
498.14	35739.98
498.32	35852.33
498.50	35739.98
498.67	36229.15
498.85	35896.80
499.03	36397.67
499.20	36638.75
499.38	36601.30
499.56	36418.74
499.73	36776.84
499.91	36896.20
500.08	37675.60
500.26	37062.38
500.44	37411.12
500.61	37266.01
500.79	37572.62
500.97	38251.38
501.14	38352.02
501.32	37780.93
501.49	38389.47
501.67	38300.53
501.84	38703.10
502.02	38595.43
502.20	38824.81
502.37	38611.82
502.55	38670.33
502.72	38937.15
502.90	39365.47
503.07	39119.71
503.25	39597.18
503.43	39269.51
503.60	39868.69
503.78	39931.88
503.95	39903.79
504.13	39910.82
504.30	40615.32
504.48	40383.60
504.65	40392.97
504.83	40542.76
505.01	40870.43
505.18	40692.55
505.36	41148.96
505.53	40847.03
505.71	41172.36
505.88	41813.67
506.06	41235.56
506.23	41734.09
506.41	41584.30
506.58	41766.86
506.76	41965.81
506.93	42204.54
507.11	41951.76
507.28	42209.22
507.46	42361.36
507.63	42763.93
507.81	43070.54
507.98	42564.98
508.16	42911.38
508.33	43257.78
508.50	43629.93
508.68	43360.76
508.85	43749.29
509.03	43161.82
509.20	43798.44
509.38	43868.66
509.55	44128.46
509.73	43924.83
509.90	43995.05
510.08	43934.20
510.25	44505.29
510.42	44650.40
510.60	45144.25
510.77	44706.57
510.95	45088.08
511.12	45010.84
511.30	44968.71
511.47	44959.35
511.64	45343.20
511.82	45771.52
511.99	45151.27
512.17	45485.97
512.34	45603.00
512.51	45918.97
512.69	45909.61
512.86	46075.79
513.04	46356.65
513.21	46714.75
513.38	46124.94
513.56	46473.68
513.73	46181.11
513.90	46770.93
514.08	46230.26
514.25	47143.07
514.43	47309.25
514.60	46700.71
514.77	47159.45
514.95	47746.93
515.12	47196.90
515.29	47533.94
515.47	47681.39
515.64	47316.27
515.81	47487.13
515.99	47899.06
516.16	47812.46
516.33	48294.61
516.51	48444.41
516.68	48090.99
516.85	48137.80
517.03	48470.15
517.20	48589.52
517.37	48128.44
517.54	48533.35
517.72	48751.02
517.89	48774.42
518.06	49144.23
518.24	48680.80
518.41	49048.27
518.58	49485.95
518.75	49048.27
518.93	49184.02
519.10	49366.58
519.27	49088.06
519.45	49556.16
519.62	49820.64
519.79	49801.92
519.96	49815.96
520.14	49820.64
520.31	49745.75
520.48	49956.39
520.65	50028.95
520.83	50632.81
521.00	50513.44
521.17	50082.78
521.34	50403.44
521.52	50284.07
521.69	50742.81
521.86	50600.04
522.03	50899.63
522.20	51021.34
522.38	51131.34
522.55	50869.20
522.72	50986.23
522.89	50831.75
523.07	51360.72
523.24	51227.31
523.41	51695.41
523.58	51236.67
523.75	51892.02
523.92	51662.64
524.10	51423.91
524.27	51793.71
524.44	51899.04
524.61	52011.38
524.78	51950.53
524.96	51845.21
525.13	51966.91
525.30	51959.89
525.47	52212.67
525.64	52278.21
525.81	52198.63
525.98	52509.92
526.16	52273.52
526.33	52390.55
526.50	52645.67
526.67	52669.08
526.84	52872.70
527.01	52444.38
527.18	52516.94
527.36	52559.07
527.53	52545.03
527.70	52858.66
527.87	53083.35
528.04	52952.28
528.21	53214.42
528.38	53165.27
528.55	53488.26
528.72	52966.32
528.89	53326.77
529.07	52935.90
529.24	53144.20
529.41	53588.91
529.58	53488.26
529.75	53193.36
529.92	53684.87
530.09	53645.08
530.26	53701.25
530.43	53727.00
530.60	53574.86
530.77	53677.85
530.94	53886.15
531.11	53570.18
531.28	54174.04
531.46	54035.95
531.63	53979.78
531.80	53928.28
531.97	54234.89
532.14	54185.74
532.31	54237.23
532.48	54459.58
532.65	54431.50
532.82	54314.47
532.99	54534.48
533.16	54274.68
533.33	54527.46
533.50	54616.40
533.67	54534.48
533.84	54260.64
534.01	54761.51
534.18	54684.28
534.35	55138.34
534.52	54639.81
534.69	54908.97
534.86	55042.38
535.03	55009.61
535.20	55042.38
535.37	54986.21
535.54	55079.83
535.71	55068.12
535.88	55016.63
536.05	55337.29
536.22	55559.64
536.38	55292.82
536.55	55405.16
536.72	55423.89
536.89	55224.94
537.06	55194.51
537.23	55494.10
537.40	55398.14
537.57	55405.16
537.74	55597.09
537.91	55870.93
538.08	55796.03
538.25	55304.52
538.42	55662.62
538.59	55819.44
538.75	55800.71
538.92	55842.84
539.09	55639.22
539.26	55945.83
539.43	55861.57
539.60	56217.33
539.77	55999.66
539.94	56238.39
540.11	56069.87
540.28	56116.68
540.44	56074.55
540.61	56142.43
540.78	55824.12
540.95	56406.91
541.12	56074.55
541.29	56226.69
541.46	56336.69
541.62	56238.39
541.79	56406.91
541.96	55969.23
542.13	56449.04
542.30	56324.99
542.47	56561.39
542.63	56545.00
542.80	56715.86
542.97	56825.87
543.14	57022.47
543.31	57029.49
543.48	57020.13
543.64	57104.39
543.81	57207.37
543.98	57209.71
544.15	56989.70
544.32	57242.48
544.48	57396.96
544.65	57240.14
544.82	57130.14
544.99	57069.28
545.16	57020.13
545.32	57034.17
545.49	57382.91
545.66	57408.66
545.83	57291.63
546.00	57710.59
546.16	57478.88
546.33	57331.42
546.50	57308.02
546.67	57286.95
546.83	57240.14
547.00	57354.83
547.17	57378.23
547.34	57616.97
547.50	57703.57
547.67	57792.51
547.84	57668.46
548.00	57897.83
548.17	57918.90
548.34	57951.66
548.51	58054.65
548.67	57961.03
548.84	58071.03
549.01	57902.51
549.18	57703.57
549.34	58113.16
549.51	57968.05
549.68	58197.42
549.84	58272.32
550.01	58068.69
550.18	57918.90
550.34	58333.17
550.51	58216.14
550.68	58305.09
550.84	57982.09
551.01	58424.45
551.18	58281.68
551.34	58342.53
551.51	58443.18
551.68	58534.46
551.84	58358.92
552.01	58211.46
552.18	58665.53
552.34	58316.79
552.51	58623.40
552.68	58305.09
552.84	58223.17
553.01	58724.04
553.18	58562.54
553.34	58635.10
553.51	58632.76
553.67	58440.84
553.84	58515.73
554.01	58639.78
554.17	58714.68
554.34	58983.84
554.51	58726.38
554.67	58981.50
554.84	58567.23
555.00	58941.71
555.17	58733.40
555.33	58670.21
555.50	58834.05
555.67	58777.87
555.83	58946.39
556.00	58808.30
556.16	59117.25
556.33	59173.42
556.50	59030.65
556.66	59159.38
556.83	58831.71
556.99	58990.86
557.16	59290.45
557.32	59215.55
557.49	59398.12
557.65	59187.47
557.82	59231.94
557.98	59334.92
558.15	59131.29
558.32	59327.90
558.48	59194.49
558.65	59236.62
558.81	59339.60
558.98	59433.22
559.14	59344.28
559.31	59416.84
559.47	59480.03
559.64	59414.50
559.80	59440.24
559.97	59512.80
560.13	59281.09
560.30	59400.46
560.46	59695.36
560.63	59529.19
560.79	59714.09
560.96	59760.90
561.12	59538.55
561.29	59484.72
561.45	59491.74
561.61	59686.00
561.78	59578.34
561.94	59636.85
562.11	59788.98
562.27	59629.83
562.44	59990.27
562.60	59777.28
562.77	59891.97
562.93	59704.73
563.10	59891.97
563.26	59749.20
563.42	59931.76
563.59	59831.11
563.75	59870.90
563.92	59828.77
564.08	59901.33
564.24	60046.44
564.41	59922.40
564.57	59803.03
564.74	60032.40
564.90	59889.63
565.07	59821.75
565.23	59915.37
565.39	59903.67
565.56	59985.59
565.72	59896.65
565.88	59976.23
566.05	60058.15
566.21	59803.03
566.38	60079.21
566.54	60023.04
566.70	60189.22
566.87	60130.70
567.03	60004.31
567.19	60257.09
567.36	60069.85
567.52	60046.44
567.68	60313.26
567.85	60079.21
568.01	59971.55
568.17	60296.88
568.34	60282.84
568.50	60041.76
568.66	60055.81
568.83	60331.99
568.99	60090.91
569.15	60282.84
569.32	60322.63
569.48	60163.47
569.64	60317.95
569.81	60331.99
569.97	60111.98
570.13	60217.30
570.30	60184.54
570.46	60303.90
570.62	60327.31
570.78	60175.17
570.95	60177.51
571.11	60516.89
571.27	60320.29
571.43	60406.89
571.60	60378.80
571.76	60282.84
571.92	60355.39
572.09	60353.05
572.25	60397.52
572.41	60355.39
572.57	60530.93
572.74	60533.28
572.90	60350.71
573.06	60481.78
573.22	60488.80
573.38	60406.89
573.55	60247.73
573.71	60516.89
573.87	60537.96
574.03	60353.05
574.20	60484.12
574.36	60427.95
574.52	60463.06
574.68	60502.85
574.84	60603.49
575.01	60446.68
575.17	60615.19
575.33	60395.18
575.49	60542.64
575.65	60549.66
575.82	60779.03
575.98	60610.51
576.14	60601.15
576.30	60804.78
576.46	60530.93
576.62	60617.53
576.79	60425.61
576.95	60647.96
577.11	60626.90
577.27	60608.17
577.43	60725.20
577.59	60516.89
577.75	60542.64
577.92	60432.63
578.08	60594.13
578.24	60739.24
578.40	60664.35
578.56	60877.33
578.72	60767.33
578.88	60662.00
579.04	60947.55
579.21	60706.47
579.37	60788.39
579.53	60772.01
579.69	60453.70
579.85	60505.19
580.01	60662.00
580.17	60320.29
580.33	60704.13
580.49	60615.19
580.65	60734.56
580.82	60645.62
580.98	60729.88
581.14	60697.11
581.30	60926.49
581.46	60610.51
581.62	60636.26
581.78	60626.90
581.94	60769.67
582.10	60533.28
582.26	60921.80
582.42	60603.49
582.58	60823.50
582.74	60680.73
582.90	60970.96
583.06	60755.63
583.22	60589.45
583.38	60774.35
583.54	60793.07
583.70	60781.37
583.86	60830.52
584.02	60832.86
584.18	61017.77
584.34	60797.76
584.50	60865.63
584.66	60711.16
584.82	60594.13
584.98	61057.56
585.14	61017.77
585.30	60779.03
585.46	60825.84
585.62	60938.19
585.78	60949.89
585.94	60673.71
586.10	60867.97
586.26	60713.50
586.42	60727.54
586.58	60945.21
586.74	61036.49
586.90	60690.09
587.06	60736.90
587.22	61013.08
587.38	61043.51
587.54	61055.21
587.70	60949.89
587.86	60919.46
588.02	60732.22
588.18	61095.00
588.34	60886.70
588.49	60924.14
