SpectraSuite Data File
++++++++++++++++++++++++++++++++++++
Date: Fri Oct 25 11:22:40 EDT 2013
User: price-jones
Dark Spectrum Present: No
Reference Spectrum Present: No
Number of Sampled Component Spectra: 1
Spectrometers: USB2+H05261
Integration Time (usec): 100000 (USB2+H05261)
Spectra Averaged: 1 (USB2+H05261)
Boxcar Smoothing: 0 (USB2+H05261)
Correct for Electrical Dark: No (USB2+H05261)
Strobe/Lamp Enabled: No (USB2+H05261)
Correct for Detector Non-linearity: No (USB2+H05261)
Correct for Stray Light: No (USB2+H05261)
Number of Pixels in Processed Spectrum: 2048
>>>>>Begin Processed Spectral Data<<<<<
365.73	236.39
365.92	236.39
366.12	236.39
366.32	117.03
366.52	191.92
366.72	170.86
366.91	145.11
367.11	112.35
367.31	70.22
367.51	138.09
367.70	173.20
367.90	117.03
368.10	107.66
368.30	105.32
368.49	135.75
368.69	217.67
368.89	138.09
369.09	212.99
369.28	135.75
369.48	112.35
369.68	177.88
369.87	119.37
370.07	205.97
370.27	229.37
370.47	301.93
370.66	571.09
370.86	685.78
371.06	711.52
371.25	636.63
371.45	613.22
371.65	702.16
371.84	737.27
372.04	620.24
372.24	720.88
372.44	732.59
372.63	685.78
372.83	823.87
373.03	744.29
373.22	795.78
373.42	711.52
373.62	748.97
373.81	777.06
374.01	828.55
374.21	877.70
374.40	800.46
374.60	926.85
374.79	795.78
374.99	716.20
375.19	805.14
375.38	763.01
375.58	809.83
375.78	863.66
375.97	866.00
376.17	924.51
376.37	968.98
376.56	936.21
376.76	882.38
376.95	877.70
377.15	835.57
377.35	861.32
377.54	901.11
377.74	924.51
377.93	933.87
378.13	961.96
378.33	854.30
378.52	926.85
378.72	987.71
378.91	983.02
379.11	882.38
379.31	908.13
379.50	870.68
379.70	964.30
379.89	978.34
380.09	997.07
380.28	983.02
380.48	1050.90
380.68	952.60
380.87	926.85
381.07	1011.11
381.26	971.32
381.46	922.17
381.65	985.37
381.85	1011.11
382.04	1086.01
382.24	1032.18
382.43	994.73
382.63	1135.16
382.83	1071.97
383.02	1104.73
383.22	1111.75
383.41	1125.80
383.61	1074.31
383.80	1188.99
384.00	1067.28
384.19	1186.65
384.39	1081.33
384.58	1151.54
384.78	1128.14
384.97	1163.25
385.17	1144.52
385.36	1177.29
385.56	1212.40
385.75	1158.57
385.95	1151.54
386.14	1172.61
386.34	1165.59
386.53	1231.12
386.72	1097.71
386.92	1273.25
387.11	1219.42
387.31	1322.40
387.50	1174.95
387.70	1284.95
387.89	1193.67
388.09	1207.72
388.28	1303.68
388.48	1291.98
388.67	1320.06
388.86	1378.58
389.06	1331.76
389.25	1364.53
389.45	1359.85
389.64	1364.53
389.84	1423.05
390.03	1364.53
390.22	1357.51
390.42	1434.75
390.61	1373.89
390.81	1371.55
391.00	1390.28
391.19	1511.99
391.39	1444.11
391.58	1427.73
391.78	1465.18
391.97	1399.64
392.16	1439.43
392.36	1547.09
392.55	1472.20
392.75	1495.60
392.94	1423.05
393.13	1643.06
393.33	1444.11
393.52	1544.75
393.71	1516.67
393.91	1673.48
394.10	1612.63
394.29	1540.07
394.49	1664.12
394.68	1673.48
394.88	1540.07
395.07	1783.49
395.26	1654.76
395.46	1666.46
395.65	1741.36
395.84	1760.08
396.04	1724.97
396.23	1750.72
396.42	1664.12
396.62	1820.94
396.81	1781.15
397.00	1703.91
397.19	1809.23
397.39	1825.62
397.58	1783.49
397.77	1853.70
397.97	1823.28
398.16	1895.83
398.35	1944.99
398.55	1874.77
398.74	1874.77
398.93	2026.90
399.12	1877.11
399.32	1926.26
399.51	1891.15
399.70	1916.90
399.90	2005.84
400.09	2057.33
400.28	2120.53
400.47	2122.87
400.67	2040.95
400.86	2026.90
401.05	2165.00
401.24	2108.82
401.44	2064.35
401.63	2157.97
401.82	2190.74
402.01	2118.18
402.21	2204.78
402.40	2200.10
402.59	2251.60
402.78	2282.02
402.97	2251.60
403.17	2225.85
403.36	2300.75
403.55	2298.41
403.74	2406.07
403.93	2352.24
404.13	2347.56
404.32	2464.58
404.51	2300.75
404.70	2462.24
404.89	2394.37
405.09	2487.99
405.28	2595.65
405.47	2492.67
405.66	2473.95
405.85	2640.12
406.05	2459.90
406.24	2490.33
406.43	2605.02
406.62	2670.55
406.81	2684.59
407.00	2623.74
407.20	2640.12
407.39	2684.59
407.58	2717.36
407.77	2658.85
407.96	2752.47
408.15	2663.53
408.34	2813.32
408.54	2864.82
408.73	2827.37
408.92	2810.98
409.11	2902.26
409.30	2808.64
409.49	2890.56
409.68	2998.23
409.87	2892.90
410.07	3021.63
410.26	2946.73
410.45	3056.74
410.64	2951.42
410.83	2972.48
411.02	3143.34
411.21	3164.40
411.40	3227.60
411.59	3286.11
411.78	3211.22
411.98	3098.87
412.17	3295.47
412.36	3328.24
412.55	3377.39
412.74	3531.87
412.93	3440.59
413.12	3377.39
413.31	3566.98
413.50	3494.42
413.69	3566.98
413.88	3625.49
414.07	3583.36
414.26	3730.81
414.45	3552.93
414.64	3632.51
414.83	3634.85
415.02	3843.16
415.22	3861.88
415.41	3812.73
415.60	3927.42
415.79	3887.63
415.98	3997.64
416.17	3964.87
416.36	3999.98
416.55	4051.47
416.74	4138.07
416.93	4011.68
417.12	4184.88
417.31	4065.51
417.50	4238.71
417.69	4285.52
417.88	4292.54
418.07	4278.50
418.26	4411.91
418.45	4341.69
418.64	4503.19
418.83	4362.76
419.02	4531.28
419.21	4564.04
419.39	4512.55
419.58	4512.55
419.77	4521.92
419.96	4507.87
420.15	4674.05
420.34	4688.09
420.53	4690.43
420.72	4760.65
420.91	4727.88
421.10	4746.61
421.29	4807.46
421.48	4723.20
421.67	4777.03
421.86	4868.31
422.05	4706.82
422.24	4685.75
422.43	5135.14
422.61	4950.23
422.80	4973.64
422.99	4915.12
423.18	5128.11
423.37	5163.22
423.56	5069.60
423.75	5076.62
423.94	5064.92
424.13	4744.27
424.32	4739.58
424.50	5013.43
424.69	5128.11
424.88	5165.56
425.07	4835.55
425.26	4896.40
425.45	4990.02
425.64	5203.01
425.83	4964.28
426.01	5020.45
426.20	5062.58
426.39	5060.24
426.58	5088.32
426.77	5018.11
426.96	5139.82
427.15	5207.69
427.33	5266.21
427.52	5247.48
427.71	5308.34
427.90	5226.42
428.09	5359.83
428.28	5406.64
428.46	5497.92
428.65	5315.36
428.84	5626.65
429.03	5561.11
429.22	5317.70
429.40	5596.22
429.59	5502.60
429.78	5411.32
429.97	5301.31
430.16	5521.32
430.34	5668.78
430.53	5717.93
430.72	5856.02
430.91	5621.97
431.10	5748.36
431.28	5806.87
431.47	5959.00
431.66	5834.96
431.85	5694.52
432.03	5881.77
432.22	6008.16
432.41	5982.41
432.60	5879.43
432.79	6073.69
432.97	6101.78
433.16	6017.52
433.35	5984.75
433.54	6113.48
433.72	6209.44
433.91	6080.71
434.10	6134.54
434.28	6073.69
434.47	6139.23
434.66	6097.10
434.85	6307.74
435.03	6300.72
435.22	6237.53
435.41	6616.69
435.59	6312.42
435.78	6670.53
435.97	6471.58
436.16	6487.96
436.34	6408.39
436.53	6626.06
436.72	6600.31
436.90	6431.79
437.09	6630.74
437.28	6649.46
437.46	6628.40
437.65	6593.29
437.84	6843.73
438.02	6656.48
438.21	6874.15
438.40	6658.82
438.58	7187.79
438.77	6874.15
438.96	7204.17
439.14	7215.87
439.33	7206.51
439.52	7073.10
439.70	7332.90
439.89	7335.24
440.08	7485.03
440.26	7536.52
440.45	7524.82
440.63	7360.98
440.82	7705.04
441.01	7559.93
441.19	7679.30
441.38	7679.30
441.57	7911.01
441.75	8070.17
441.94	8252.73
442.12	7857.18
442.31	8145.06
442.50	7999.95
442.68	8042.08
442.87	8028.04
443.05	8287.84
443.24	8124.00
443.43	8119.32
443.61	8341.67
443.80	8463.38
443.98	8170.81
444.17	7899.31
444.35	8201.24
444.54	8297.20
444.73	8421.25
444.91	8353.37
445.10	8498.49
445.28	8421.25
445.47	8400.18
445.65	8297.20
445.84	8524.23
446.02	8706.79
446.21	8336.99
446.39	8390.82
446.58	8636.58
446.77	8484.44
446.95	8301.88
447.14	8486.78
447.32	8720.84
447.51	8533.59
447.69	8292.52
447.88	8578.06
448.06	8713.81
448.25	8594.45
448.43	8559.34
448.62	8578.06
448.80	8765.31
448.99	8636.58
449.17	8777.01
449.36	8765.31
449.54	8847.22
449.73	8926.80
449.91	9186.60
450.10	8999.36
450.28	9085.96
450.46	9081.28
450.65	9071.92
450.83	9242.78
451.02	9202.99
451.20	9179.58
451.39	9240.44
451.57	9158.52
451.76	9139.79
451.94	9364.48
452.13	9500.23
452.31	9317.67
452.49	9277.88
452.68	9448.74
452.86	9451.08
453.05	9528.32
453.23	9657.05
453.42	9565.77
453.60	9565.77
453.78	9434.70
453.97	9687.48
454.15	9657.05
454.34	9516.62
454.52	9797.48
454.70	9720.24
454.89	9951.96
455.07	9839.61
455.26	9921.53
455.44	10204.74
455.62	9907.49
455.81	10033.88
455.99	10045.58
456.17	10312.40
456.36	10134.52
456.54	10064.30
456.73	10380.28
456.91	10546.45
457.09	10373.25
457.28	10581.56
457.46	10237.50
457.64	10820.30
457.83	10537.09
458.01	10658.80
458.19	11070.73
458.38	10668.16
458.56	10998.18
458.74	10939.66
458.93	10635.39
459.11	10743.06
459.29	10874.13
459.48	11021.58
459.66	10817.96
459.84	11047.33
460.03	11108.18
460.21	11150.31
460.39	11133.93
460.57	11295.43
460.76	11250.96
460.94	11246.27
461.12	11208.83
461.31	11398.41
461.49	11431.18
461.67	11283.72
461.85	11569.27
462.04	11358.62
462.22	12056.10
462.40	11751.83
462.59	11623.10
462.77	11517.78
462.95	11599.70
463.13	11534.16
463.32	11667.57
463.50	11606.72
463.68	12025.67
463.86	11915.67
464.05	11983.54
464.23	11796.30
464.41	12121.63
464.59	11754.17
464.78	12250.36
464.96	11969.50
465.14	12100.57
465.32	12264.41
465.50	12131.00
465.69	12292.49
465.87	12313.56
466.05	12245.68
466.23	12372.07
466.41	12446.97
466.60	12847.20
466.78	12086.53
466.96	12369.73
467.14	12468.03
467.32	12624.85
467.51	12458.67
467.69	12299.52
467.87	12421.22
468.05	12784.01
468.23	12505.48
468.41	12393.14
468.60	12596.76
468.78	12814.43
468.96	12599.10
469.14	13139.77
469.32	13177.22
469.50	12482.08
469.69	12966.57
469.87	13163.17
470.05	13327.01
470.23	13317.65
470.41	13291.90
470.59	13366.80
470.77	13193.60
470.95	13528.30
471.14	13439.36
471.32	13200.62
471.50	13675.75
471.68	13572.77
471.86	13462.76
472.04	13853.63
472.22	14127.47
472.40	13881.72
472.58	14295.99
472.77	14183.65
472.95	14134.50
473.13	14764.10
473.31	13977.68
473.49	14225.78
473.67	14345.14
473.85	14288.97
474.03	14923.26
474.21	14525.36
474.39	14705.59
474.57	14831.97
474.75	14998.15
474.93	15250.93
475.12	14946.66
475.30	15054.33
475.48	14974.75
475.66	15400.72
475.84	15194.76
476.02	15754.15
476.20	15393.70
476.38	15768.19
476.56	16201.19
476.74	16255.02
476.92	15833.72
477.10	15950.75
477.28	15995.22
477.46	16210.55
477.64	16545.25
477.82	16634.19
478.00	17018.04
478.18	16961.86
478.36	16847.18
478.54	17348.05
478.72	17329.33
478.90	17788.07
479.08	17998.72
479.26	17572.74
479.44	17699.13
479.62	18001.06
479.80	17745.94
479.98	18368.52
480.16	18562.79
480.34	18579.17
480.52	18934.93
480.70	18855.36
480.88	18654.07
481.06	19129.20
481.24	19075.37
481.41	19435.81
481.59	19372.61
481.77	19562.20
481.95	19866.47
482.13	20126.27
482.31	19901.58
482.49	20290.10
482.67	20240.95
482.85	20554.58
483.03	20718.42
483.21	20947.79
483.39	21139.72
483.57	21158.44
483.74	21186.53
483.92	21635.91
484.10	21373.77
484.28	21799.75
484.46	22185.94
484.64	22616.60
484.82	22221.05
485.00	22471.48
485.18	22965.34
485.35	23192.37
485.53	22759.37
485.71	23143.22
485.89	23960.06
486.07	23826.65
486.25	23974.11
486.43	23775.16
486.61	24271.36
486.78	24362.64
486.96	24662.22
487.14	24659.88
487.32	24793.29
487.50	25289.49
487.68	25245.02
487.85	25748.23
488.03	25652.27
488.21	25893.35
488.39	26075.91
488.57	26445.71
488.75	26288.90
488.92	26438.69
489.10	26836.58
489.28	27080.00
489.46	27318.73
489.64	27541.08
489.81	27751.73
489.99	27690.88
490.17	28081.75
490.35	28505.38
490.53	28570.92
490.70	28893.91
490.88	28510.07
491.06	29448.62
491.24	29132.65
491.41	29280.10
491.59	29567.99
491.77	29469.69
491.95	29692.04
492.13	30218.66
492.30	30272.49
492.48	30286.53
492.66	30312.28
492.84	30799.11
493.01	30838.90
493.19	31072.95
493.37	31433.39
493.54	31367.86
493.72	31768.09
493.90	31580.85
494.08	32180.03
494.25	32552.17
494.43	32357.91
494.61	32549.83
494.79	32744.09
494.96	32907.93
495.14	33076.45
495.32	33383.06
495.49	33453.28
495.67	32968.79
495.85	33717.76
496.02	34202.25
496.20	34277.15
496.38	34232.68
496.55	34595.46
496.73	35571.46
496.91	34836.53
497.09	35196.98
497.26	35550.40
497.44	34955.90
497.62	35957.65
497.79	36620.02
497.97	35967.01
498.14	36039.57
498.32	36636.41
498.50	36257.24
498.67	36886.84
498.85	36423.42
499.03	36493.63
499.20	36472.57
499.38	37024.93
499.56	37713.05
499.73	37361.97
499.91	37968.17
500.08	37818.38
500.26	37738.80
500.44	38162.43
500.61	38539.26
500.79	38129.67
500.97	38555.64
501.14	38920.77
501.32	39070.56
501.49	39016.73
501.67	39285.89
501.84	39264.83
502.02	39555.05
502.20	38906.73
502.37	39662.72
502.55	39594.84
502.72	39981.03
502.90	39667.40
503.07	40329.77
503.25	40224.45
503.43	39922.52
503.60	40285.30
503.78	40617.66
503.95	40509.99
504.13	41083.42
504.30	41053.00
504.48	40706.60
504.65	41462.59
504.83	41219.17
505.01	41846.44
505.18	41598.34
505.36	42106.24
505.53	41645.15
505.71	42040.70
505.88	42356.67
506.06	42092.19
506.23	42209.22
506.41	41986.87
506.58	42784.99
506.76	42206.88
506.93	42958.19
507.11	42808.40
507.28	43040.11
507.46	42707.76
507.63	43386.51
507.81	43700.14
507.98	43140.75
508.16	43000.32
508.33	43901.43
508.50	44076.97
508.68	43777.38
508.85	44280.60
509.03	44149.53
509.20	44931.26
509.38	44741.68
509.55	43941.22
509.73	44751.04
509.90	44982.76
510.08	44889.13
510.25	45333.84
510.42	45392.35
510.60	45322.13
510.77	45748.11
510.95	45808.96
511.12	45652.15
511.30	45563.21
511.47	45851.09
511.64	45713.00
511.82	46192.81
511.99	45942.38
512.17	46293.46
512.34	46454.95
512.51	46693.69
512.69	46705.39
512.86	46550.91
513.04	46801.35
513.21	47100.94
513.38	47246.05
513.56	47337.33
513.73	47253.08
513.90	47306.91
514.08	47037.75
514.25	47800.76
514.43	47697.78
514.60	47606.50
514.77	47622.88
514.95	47723.52
515.12	47866.30
515.29	47973.96
515.47	48107.37
515.64	48170.57
515.81	48289.93
515.99	48313.34
516.16	48755.70
516.33	48837.62
516.51	49188.70
516.68	49294.02
516.85	48725.27
517.03	49193.38
517.20	49291.68
517.37	49184.02
517.54	49081.03
517.72	49443.82
517.89	49401.69
518.06	49469.56
518.24	49963.42
518.41	49731.70
518.58	49682.55
518.75	49441.48
518.93	49780.85
519.10	49352.54
519.27	50068.74
519.45	49752.77
519.62	50267.69
519.79	50232.58
519.96	50267.69
520.14	50412.80
520.31	50223.22
520.48	50908.99
520.65	50454.93
520.83	50981.55
521.00	50803.67
521.17	50988.57
521.34	51056.45
521.52	51065.81
521.69	51019.00
521.86	51140.71
522.03	51199.22
522.20	51494.13
522.38	51660.30
522.55	51845.21
522.72	51863.93
522.89	51943.51
523.07	51746.90
523.24	51861.59
523.41	52069.90
523.58	51892.02
523.75	52268.84
523.92	51959.89
524.10	52023.09
524.27	52619.92
524.44	52355.44
524.61	52587.16
524.78	52336.72
524.96	52507.58
525.13	52552.05
525.30	52678.44
525.47	52940.58
525.64	52725.25
525.81	53081.01
525.98	53050.58
526.16	52835.25
526.33	52762.70
526.50	53305.70
526.67	53221.44
526.84	53352.51
527.01	53076.33
527.18	52989.73
527.36	53134.84
527.53	53289.32
527.70	53450.81
527.87	53797.21
528.04	53219.10
528.21	53698.91
528.38	53567.84
528.55	53542.10
528.72	53572.52
528.89	53790.19
529.07	53542.10
529.24	53535.07
529.41	54005.52
529.58	53860.41
529.75	54169.36
529.92	53947.01
530.09	54351.92
530.26	54382.35
530.43	54452.56
530.60	54216.17
530.77	54148.29
530.94	54195.10
531.11	54482.99
531.28	54134.25
531.46	54630.44
531.63	54670.23
531.80	54436.18
531.97	54972.16
532.14	54906.63
532.31	54754.49
532.48	54794.28
532.65	54937.05
532.82	54677.25
532.99	54789.60
533.16	54820.03
533.33	54990.89
533.50	55283.45
533.67	54904.29
533.84	54976.84
534.01	55128.98
534.18	55323.24
534.35	55517.51
534.52	55370.05
534.69	55557.30
534.86	55494.10
535.03	55480.06
535.20	55501.12
535.37	55590.06
535.54	55613.47
535.71	55283.45
535.88	55849.86
536.05	55599.43
536.22	55604.11
536.38	55753.90
536.55	55756.24
536.72	55887.31
536.89	55592.40
537.06	55847.52
537.23	56090.94
537.40	56053.49
537.57	56226.69
537.74	56069.87
537.91	56109.66
538.08	56154.13
538.25	55980.93
538.42	56217.33
538.59	56388.19
538.75	56254.78
538.92	56390.53
539.09	56507.55
539.26	56214.99
539.43	56437.34
539.60	56334.35
539.77	56493.51
539.94	56912.47
540.11	56694.80
540.28	56743.95
540.44	56486.49
540.61	56659.69
540.78	56868.00
540.95	56680.75
541.12	56685.43
541.29	56640.96
541.46	56699.48
541.62	56687.78
541.79	56982.68
541.96	56645.65
542.13	56786.08
542.30	56978.00
542.47	57118.43
542.63	57099.71
542.80	57303.34
542.97	57296.31
543.14	57488.24
543.31	57373.55
543.48	57432.07
543.64	57593.56
543.81	57375.89
543.98	57483.56
544.15	57464.83
544.32	57525.69
544.48	57965.71
544.65	57705.91
544.82	57867.40
544.99	57523.35
545.16	57525.69
545.32	57659.10
545.49	57890.81
545.66	58078.05
545.83	57911.88
546.00	57853.36
546.16	57844.00
546.33	57836.98
546.50	57689.52
546.67	58106.14
546.83	57687.18
547.00	58047.63
547.17	57975.07
547.34	58007.84
547.50	58049.97
547.67	58124.86
547.84	58267.64
548.00	58396.37
548.17	58305.09
548.34	58361.26
548.51	58485.31
548.67	58410.41
548.84	58487.65
549.01	58223.17
549.18	58433.81
549.34	58372.96
549.51	58426.79
549.68	58532.12
549.84	58482.97
550.01	58702.98
550.18	58571.91
550.34	58478.28
550.51	58773.19
550.68	58674.89
550.84	58529.78
551.01	58871.49
551.18	58614.04
551.34	58880.86
551.51	58817.66
551.68	58782.55
551.84	58745.11
552.01	58721.70
552.18	59096.19
552.34	58518.07
552.51	59154.70
552.68	58777.87
552.84	58911.28
553.01	59269.39
553.18	58997.88
553.34	59159.38
553.51	59028.31
553.67	58944.05
553.84	59210.87
554.01	59068.10
554.17	59313.86
554.34	59257.68
554.51	59143.00
554.67	59318.54
554.84	59065.76
555.00	59257.68
555.17	59166.40
555.33	59245.98
555.50	59128.95
555.67	59201.51
555.83	59297.47
556.00	59283.43
556.16	59611.10
556.33	59599.40
556.50	59559.61
556.66	59721.11
556.83	59318.54
556.99	59580.68
557.16	59728.13
557.32	59737.49
557.49	59760.90
557.65	59583.02
557.82	59648.55
557.98	59454.29
558.15	59695.36
558.32	59845.16
558.48	59473.01
558.65	59447.27
558.81	59639.19
558.98	59735.15
559.14	59756.22
559.31	59798.35
559.47	60023.04
559.64	59966.87
559.80	59941.12
559.97	60074.53
560.13	59929.42
560.30	60109.64
560.46	59969.21
560.63	59880.27
560.79	59880.27
560.96	60151.77
561.12	60121.34
561.29	59990.27
561.45	60039.42
561.61	60093.25
561.78	59992.61
561.94	60020.70
562.11	60034.74
562.27	60083.89
562.44	60149.43
562.60	60516.89
562.77	60156.45
562.93	59987.93
563.10	60198.58
563.26	60245.39
563.42	60413.91
563.59	60285.18
563.75	60083.89
563.92	60308.58
564.08	60411.57
564.24	60493.49
564.41	60306.24
564.57	60430.29
564.74	60313.26
564.90	60460.72
565.07	60439.65
565.23	60254.75
565.39	60367.10
565.56	60367.10
565.72	60250.07
565.88	60317.95
566.05	60519.23
566.21	60509.87
566.38	60573.06
566.54	60420.93
566.70	60479.44
566.87	60544.98
567.03	60547.32
567.19	60720.52
567.36	60629.24
567.52	60495.83
567.68	60781.37
567.85	60612.85
568.01	60601.15
568.17	60460.72
568.34	60568.38
568.50	60587.11
568.66	60409.23
568.83	60673.71
568.99	60535.62
569.15	60582.43
569.32	60493.49
569.48	60530.93
569.64	60816.48
569.81	60680.73
569.97	60472.42
570.13	60608.17
570.30	60739.24
570.46	60556.68
570.62	60697.11
570.78	60722.86
570.95	60851.59
571.11	60949.89
571.27	60844.57
571.43	60715.84
571.60	60917.12
571.76	60617.53
571.92	60788.39
572.09	60776.69
572.25	60935.85
572.41	60933.51
572.57	60774.35
572.74	60938.19
572.90	60856.27
573.06	60917.12
573.22	60734.56
573.38	60874.99
573.55	60919.46
573.71	61064.58
573.87	60793.07
574.03	60729.88
574.20	60772.01
574.36	60893.72
574.52	60896.06
574.68	60924.14
574.84	60959.25
575.01	60776.69
575.17	60797.76
575.33	60842.23
575.49	60786.05
575.65	61001.38
575.82	60900.74
575.98	60870.31
576.14	61205.01
576.30	60938.19
576.46	60872.65
576.62	60914.78
576.79	60863.29
576.95	60842.23
577.11	61123.09
577.27	61162.88
577.43	61293.95
577.59	60928.83
577.75	61001.38
577.92	60917.12
578.08	60919.46
578.24	61055.21
578.40	61003.72
578.56	61127.77
578.72	61085.64
578.88	61099.68
579.04	61176.92
579.21	60996.70
579.37	61275.22
579.53	61256.50
579.69	61095.00
579.85	61195.65
580.01	61240.12
580.17	60844.57
580.33	61080.96
580.49	61254.16
580.65	61144.16
580.82	61045.85
580.98	61029.47
581.14	60912.44
581.30	61240.12
581.46	61195.65
581.62	61134.79
581.78	61080.96
581.94	61123.09
582.10	61066.92
582.26	61036.49
582.42	61085.64
582.58	61090.32
582.74	61139.47
582.90	61120.75
583.06	61090.32
583.22	61073.94
583.38	61202.67
583.54	61235.44
583.70	61141.81
583.86	61233.10
584.02	60928.83
584.18	61176.92
584.34	61116.07
584.50	61073.94
584.66	61247.14
584.82	60968.61
584.98	61298.63
585.14	61132.45
585.30	61057.56
585.46	61139.47
585.62	61083.30
585.78	61160.54
585.94	61134.79
586.10	61265.86
586.26	61317.35
586.42	61455.45
586.58	61144.16
586.74	61174.58
586.90	61277.57
587.06	61181.60
587.22	61387.57
587.38	61284.59
587.54	61394.59
587.70	61584.18
587.86	61197.99
588.02	61249.48
588.18	61345.44
588.34	61118.41
588.49	61361.82
