SpectraSuite Data File
++++++++++++++++++++++++++++++++++++
Date: Fri Oct 25 10:43:16 EDT 2013
User: price-jones
Dark Spectrum Present: No
Reference Spectrum Present: No
Number of Sampled Component Spectra: 1
Spectrometers: USB2+H05261
Integration Time (usec): 100000 (USB2+H05261)
Spectra Averaged: 1 (USB2+H05261)
Boxcar Smoothing: 0 (USB2+H05261)
Correct for Electrical Dark: No (USB2+H05261)
Strobe/Lamp Enabled: No (USB2+H05261)
Correct for Detector Non-linearity: No (USB2+H05261)
Correct for Stray Light: No (USB2+H05261)
Number of Pixels in Processed Spectrum: 2048
>>>>>Begin Processed Spectral Data<<<<<
365.73	152.13
365.92	152.13
366.12	152.13
366.32	84.26
366.52	0.00
366.72	30.43
366.91	14.04
367.11	58.51
367.31	35.11
367.51	49.15
367.70	67.88
367.90	79.58
368.10	0.00
368.30	0.00
368.49	0.00
368.69	18.72
368.89	0.00
369.09	0.00
369.28	63.19
369.48	100.64
369.68	58.51
369.87	65.54
370.07	65.54
370.27	65.54
370.47	191.92
370.66	379.17
370.86	524.28
371.06	437.68
371.25	486.83
371.45	521.94
371.65	468.11
371.84	444.70
372.04	416.62
372.24	470.45
372.44	514.92
372.63	507.90
372.83	496.19
373.03	458.74
373.22	550.03
373.42	475.13
373.62	500.87
373.81	601.52
374.01	477.47
374.21	568.75
374.40	557.05
374.60	573.43
374.79	535.98
374.99	531.30
375.19	655.35
375.38	608.54
375.58	503.22
375.78	578.11
375.97	578.11
376.17	613.22
376.37	507.90
376.56	596.84
376.76	596.84
376.95	573.43
377.15	545.34
377.35	620.24
377.54	645.99
377.74	629.60
377.93	660.03
378.13	627.26
378.33	594.50
378.52	592.16
378.72	638.97
378.91	667.05
379.11	636.63
379.31	636.63
379.50	557.05
379.70	669.39
379.89	660.03
380.09	674.07
380.28	667.05
380.48	669.39
380.68	772.38
380.87	702.16
381.07	678.76
381.26	748.97
381.46	730.25
381.65	741.95
381.85	730.25
382.04	681.10
382.24	720.88
382.43	725.57
382.63	699.82
382.83	702.16
383.02	807.48
383.22	737.27
383.41	695.14
383.61	774.72
383.80	779.40
384.00	709.18
384.19	791.10
384.39	713.86
384.58	800.46
384.78	856.64
384.97	833.23
385.17	734.93
385.36	755.99
385.56	837.91
385.75	833.23
385.95	847.27
386.14	805.14
386.34	795.78
386.53	791.10
386.72	858.98
386.92	821.53
387.11	837.91
387.31	868.34
387.50	849.61
387.70	819.19
387.89	898.77
388.09	861.32
388.28	908.13
388.48	851.96
388.67	992.39
388.86	971.32
389.06	987.71
389.25	964.30
389.45	903.45
389.64	926.85
389.84	943.24
390.03	966.64
390.22	940.90
390.42	973.66
390.61	1116.44
390.81	987.71
391.00	1020.47
391.19	1008.77
391.39	999.41
391.58	1067.28
391.78	992.39
391.97	1071.97
392.16	1055.58
392.36	973.66
392.55	1013.45
392.75	992.39
392.94	971.32
393.13	1034.52
393.33	1064.94
393.52	1036.86
393.71	1046.22
393.91	1125.80
394.10	1102.39
394.29	1104.73
394.49	1149.20
394.68	1172.61
394.88	1184.31
395.07	1228.78
395.26	1144.52
395.46	1217.08
395.65	1261.55
395.84	1235.80
396.04	1280.27
396.23	1273.25
396.42	1226.44
396.62	1139.84
396.81	1193.67
397.00	1217.08
397.19	1357.51
397.39	1327.08
397.58	1329.42
397.77	1345.81
397.97	1413.68
398.16	1317.72
398.35	1392.62
398.55	1413.68
398.74	1423.05
398.93	1530.71
399.12	1526.03
399.32	1537.73
399.51	1497.94
399.70	1465.18
399.90	1554.12
400.09	1645.40
400.28	1741.36
400.47	1556.46
400.67	1528.37
400.86	1675.82
401.05	1703.91
401.24	1703.91
401.44	1685.19
401.63	1732.00
401.82	1689.87
402.01	1692.21
402.21	1692.21
402.40	1778.81
402.59	1799.87
402.78	1724.97
402.97	1846.68
403.17	1734.34
403.36	1811.57
403.55	1834.98
403.74	1860.73
403.93	1856.04
404.13	1930.94
404.32	1799.87
404.51	1834.98
404.70	1982.43
404.89	1832.64
405.09	2008.18
405.28	1877.11
405.47	1996.48
405.66	2010.52
405.85	1940.30
406.05	1970.73
406.24	2066.69
406.43	1973.07
406.62	2033.93
406.81	2157.97
407.00	2057.33
407.20	2078.40
407.39	2047.97
407.58	2054.99
407.77	2216.49
407.96	2146.27
408.15	2232.87
408.34	2179.04
408.54	2328.83
408.73	2251.60
408.92	2370.96
409.11	2246.91
409.30	2263.30
409.49	2429.48
409.68	2249.25
409.87	2242.23
410.07	2345.22
410.26	2256.28
410.45	2434.16
410.64	2415.43
410.83	2385.01
411.02	2553.52
411.21	2609.70
411.40	2583.95
411.59	2572.25
411.78	2700.98
411.98	2597.99
412.17	2654.17
412.36	2509.05
412.55	2792.26
412.74	2729.06
412.93	2806.30
413.12	2719.70
413.31	2747.79
413.50	2731.41
413.69	2857.79
413.88	2834.39
414.07	2909.29
414.26	2928.01
414.45	2881.20
414.64	3082.49
414.83	3033.33
415.02	3023.97
415.22	3056.74
415.41	3087.17
415.60	3143.34
415.79	3117.59
415.98	3243.98
416.17	3330.58
416.36	3290.79
416.55	3211.22
416.74	3276.75
416.93	3258.03
417.12	3321.22
417.31	3335.26
417.50	3375.05
417.69	3538.89
417.88	3365.69
418.07	3506.12
418.26	3480.38
418.45	3407.82
418.64	3581.02
418.83	3623.15
419.02	3543.57
419.21	3695.71
419.39	3592.72
419.58	3604.42
419.77	3562.30
419.96	3648.90
420.15	3590.38
420.34	3681.66
420.53	3751.88
420.72	3871.25
420.91	3880.61
421.10	3843.16
421.29	3763.58
421.48	3756.56
421.67	3894.65
421.86	3831.46
422.05	3735.50
422.24	3824.44
422.43	3749.54
422.61	3789.33
422.80	3864.22
422.99	3918.06
423.18	3878.27
423.37	3992.95
423.56	4030.40
423.75	3936.78
423.94	3918.06
424.13	3819.75
424.32	3782.31
424.50	3868.91
424.69	3992.95
424.88	3960.19
425.07	3796.35
425.26	3960.19
425.45	3878.27
425.64	4065.51
425.83	4014.02
426.01	3880.61
426.20	3936.78
426.39	3915.72
426.58	4088.92
426.77	3786.99
426.96	3983.59
427.15	3964.87
427.33	4072.53
427.52	4004.66
427.71	4121.68
427.90	4126.36
428.09	4170.83
428.28	4234.03
428.46	4196.58
428.65	4201.26
428.84	4348.72
429.03	4264.46
429.22	4243.39
429.40	4119.34
429.59	4219.99
429.78	4004.66
429.97	3918.06
430.16	4051.47
430.34	4140.41
430.53	4138.07
430.72	4285.52
430.91	4135.73
431.10	4219.99
431.28	4575.75
431.47	4624.90
431.66	4650.64
431.85	4477.44
432.03	4557.02
432.22	4606.17
432.41	4751.29
432.60	4629.58
432.79	4643.62
432.97	4758.31
433.16	4699.80
433.35	4690.43
433.54	4755.97
433.72	4758.31
433.91	4610.86
434.10	4821.50
434.28	4826.18
434.47	4746.61
434.66	4950.23
434.85	4889.38
435.03	4898.74
435.22	4842.57
435.41	4997.04
435.59	5177.26
435.78	5074.28
435.97	5193.65
436.16	5067.26
436.34	5273.23
436.53	5158.54
436.72	5336.42
436.90	4978.32
437.09	5121.09
437.28	5053.22
437.46	5343.44
437.65	5090.67
437.84	5151.52
438.02	5247.48
438.21	5280.25
438.40	5088.32
438.58	5399.62
438.77	5331.74
438.96	5425.36
439.14	5451.11
439.33	5584.52
439.52	5612.60
439.70	5710.91
439.89	5565.79
440.08	5692.18
440.26	5790.49
440.45	5692.18
440.63	5804.53
440.82	6076.03
441.01	5841.98
441.19	6071.35
441.38	6120.50
441.57	6132.20
441.75	6179.01
441.94	6324.13
442.12	6179.01
442.31	6436.47
442.50	6410.73
442.68	6422.43
442.87	6420.09
443.05	6413.07
443.24	6511.37
443.43	6384.98
443.61	6607.33
443.80	6572.22
443.98	6300.72
444.17	6204.76
444.35	6541.80
444.54	6377.96
444.73	6707.98
444.91	6485.62
445.10	6518.39
445.28	6663.51
445.47	6221.14
445.65	6300.72
445.84	6518.39
446.02	6597.97
446.21	6609.67
446.39	6291.36
446.58	6546.48
446.77	6759.47
446.95	6595.63
447.14	6729.04
447.32	6885.86
447.51	6581.59
447.69	6600.31
447.88	6640.10
448.06	6696.27
448.25	6827.34
448.43	6792.23
448.62	6691.59
448.80	6623.72
448.99	6787.55
449.17	6848.41
449.36	6771.17
449.54	6925.65
449.73	7199.49
449.91	7075.44
450.10	7190.13
450.28	7152.68
450.46	7241.62
450.65	7316.51
450.83	7215.87
451.02	7068.42
451.20	7304.81
451.39	7241.62
451.57	7192.47
451.76	7183.10
451.94	7248.64
452.13	7241.62
452.31	7262.68
452.49	7119.91
452.68	7243.96
452.86	7030.97
453.05	7129.27
453.23	7272.04
453.42	7356.30
453.60	7321.20
453.78	7379.71
453.97	7199.49
454.15	7311.83
454.34	7391.41
454.52	7604.40
454.70	7501.42
454.89	7304.81
455.07	7529.50
455.26	7468.65
455.44	7843.14
455.62	7674.62
455.81	7588.02
455.99	7803.35
456.17	7808.03
456.36	7716.75
456.54	7838.45
456.73	7899.31
456.91	8276.13
457.09	8053.78
457.28	8250.39
457.46	7791.64
457.64	8042.08
457.83	8126.34
458.01	8025.70
458.19	8355.71
458.38	8180.17
458.56	8177.83
458.74	7995.27
458.93	8386.14
459.11	8407.20
459.29	8156.77
459.48	8241.03
459.66	7929.74
459.84	8374.44
460.03	8482.10
460.21	8381.46
460.39	8624.87
460.57	8369.76
460.76	8489.12
460.94	8580.40
461.12	8594.45
461.31	8608.49
461.49	8669.34
461.67	8589.77
461.85	8807.44
462.04	8823.82
462.22	9207.67
462.40	8929.14
462.59	8807.44
462.77	8814.46
462.95	8915.10
463.13	8924.46
463.32	8990.00
463.50	9158.52
463.68	8826.16
463.86	9128.09
464.05	8840.20
464.23	8889.35
464.41	9020.42
464.59	8835.52
464.78	9235.75
464.96	9013.40
465.14	8954.89
465.32	9198.31
465.50	9100.00
465.69	9350.44
465.87	9329.38
466.05	9163.20
466.23	9348.10
466.41	9233.41
466.60	9549.39
466.78	9390.23
466.96	9193.62
467.14	9050.85
467.32	9273.20
467.51	9507.26
467.69	9001.70
467.87	9343.42
468.05	9493.21
468.23	9469.81
468.41	9355.12
468.60	9528.32
468.78	9666.41
468.96	9345.76
469.14	9713.22
469.32	9809.19
469.50	9378.53
469.69	9551.73
469.87	9753.01
470.05	9879.40
470.23	9755.35
470.41	9647.69
470.59	10090.05
470.77	9923.87
470.95	10012.81
471.14	10143.88
471.32	9912.17
471.50	10296.02
471.68	10328.78
471.86	10417.72
472.04	10403.68
472.22	10281.97
472.40	10244.52
472.58	10349.85
472.77	10396.66
472.95	10459.85
473.13	10839.02
473.31	10525.39
473.49	10406.02
473.67	10483.26
473.85	10555.82
474.03	10967.75
474.21	10768.80
474.39	11126.91
474.57	11021.58
474.75	11108.18
474.93	11124.57
475.12	10958.39
475.30	11349.26
475.48	11297.77
475.66	11204.14
475.84	11468.62
476.02	11318.83
476.20	11344.58
476.38	11630.12
476.56	11712.04
476.74	11641.82
476.92	11611.40
477.10	11868.86
477.28	11976.52
477.46	12229.30
477.64	12231.64
477.82	12657.62
478.00	12453.99
478.18	12610.81
478.36	12514.84
478.54	12753.58
478.72	12648.26
478.90	12720.81
479.08	13139.77
479.26	12973.59
479.44	13179.56
479.62	13088.28
479.80	13256.79
479.98	13256.79
480.16	13565.74
480.34	13453.40
480.52	13528.30
480.70	13743.63
480.88	13685.11
481.06	13968.32
481.24	14228.12
481.41	14295.99
481.59	14679.84
481.77	14345.14
481.95	14518.34
482.13	14551.11
482.31	14555.79
482.49	14736.01
482.67	14766.44
482.85	14960.70
483.03	15164.33
483.21	15211.14
483.39	15396.04
483.57	15208.80
483.74	15367.96
483.92	15580.95
484.10	15522.43
484.28	15707.34
484.46	15838.41
484.64	16184.80
484.82	16081.82
485.00	15899.26
485.18	16102.89
485.35	16524.18
485.53	16159.06
485.71	16060.76
485.89	16311.19
486.07	16437.58
486.25	16578.01
486.43	16634.19
486.61	16947.82
486.78	17415.93
486.96	17399.54
487.14	17570.40
487.32	17755.30
487.50	17998.72
487.68	17961.27
487.85	18150.85
488.03	18216.39
488.21	18544.06
488.39	18555.77
488.57	18581.51
488.75	18757.05
488.92	19168.99
489.10	19346.87
489.28	19328.14
489.46	19740.08
489.64	19365.59
489.81	19899.23
489.99	19768.16
490.17	20004.56
490.35	20365.00
490.53	20372.02
490.70	20725.44
490.88	20276.06
491.06	20847.15
491.24	20772.25
491.41	20594.37
491.59	20683.31
491.77	20823.75
491.95	21102.27
492.13	21387.82
492.30	21666.34
492.48	21881.67
492.66	21561.02
492.84	21631.23
493.01	22178.92
493.19	22113.38
493.37	21862.94
493.54	22221.05
493.72	22621.28
493.90	22640.00
494.08	22785.12
494.25	23138.54
494.43	23105.77
494.61	23274.29
494.79	23283.65
494.96	23253.22
495.14	23115.13
495.32	23803.25
495.49	23367.91
495.67	23929.64
495.85	24229.23
496.02	24154.33
496.20	24121.56
496.38	24350.93
496.55	24713.72
496.73	24940.75
496.91	24599.03
497.09	24945.43
497.26	25240.34
497.44	25057.78
497.62	25282.47
497.79	25399.49
497.97	25186.50
498.14	25502.48
498.32	25879.30
498.50	25876.96
498.67	26031.44
498.85	25771.64
499.03	26148.46
499.20	26291.24
499.38	26066.55
499.56	26335.71
499.73	26621.25
499.91	26670.40
500.08	26700.83
500.26	26143.78
500.44	26429.33
500.61	26738.28
500.79	26387.20
500.97	26560.40
501.14	27180.64
501.32	26817.86
501.49	26965.31
501.67	26972.33
501.84	27161.92
502.02	27571.51
502.20	27562.15
502.37	27962.38
502.55	27681.52
502.72	27742.37
502.90	27985.79
503.07	27821.95
503.25	28130.90
503.43	28100.47
503.60	28065.36
503.78	28170.69
503.95	27985.79
504.13	28343.89
504.30	28369.63
504.48	28563.90
504.65	28994.56
504.83	28833.06
505.01	29074.13
505.18	28938.38
505.36	29362.02
505.53	29310.53
505.71	29198.18
505.88	29397.13
506.06	29401.81
506.23	29680.33
506.41	29329.25
506.58	29879.28
506.76	29975.24
506.93	30054.82
507.11	29785.66
507.28	29853.53
507.46	29640.54
507.63	29743.53
507.81	30115.67
507.98	29961.20
508.16	30415.26
508.33	30471.43
508.50	30691.44
508.68	30866.98
508.85	31065.93
509.03	31070.61
509.20	31054.23
509.38	30991.03
509.55	31204.02
509.73	31058.91
509.90	31133.81
510.08	31042.53
510.25	31391.26
510.42	31562.12
510.60	31583.19
510.77	31782.13
510.95	32025.55
511.12	31882.78
511.30	32046.62
511.47	32292.37
511.64	32353.23
511.82	32428.12
511.99	31768.09
512.17	32701.96
512.34	32142.58
512.51	32542.81
512.69	32865.80
512.86	32835.38
513.04	32872.82
513.21	32535.79
513.38	32968.79
513.56	32818.99
513.73	32491.32
513.90	33228.59
514.08	32435.14
514.25	33249.65
514.43	32961.76
514.60	32879.85
514.77	33027.30
514.95	33242.63
515.12	33287.10
515.29	33659.24
515.47	33457.96
515.64	33914.36
515.81	33687.33
515.99	33502.43
516.16	33771.59
516.33	33378.38
516.51	33596.05
516.68	33439.23
516.85	33109.22
517.03	33226.24
517.20	33972.88
517.37	34394.17
517.54	34415.24
517.72	34099.26
517.89	33371.36
518.06	33905.00
518.24	33675.63
518.41	33893.30
518.58	34471.41
518.75	34073.52
518.93	34518.22
519.10	34668.02
519.27	35009.73
519.45	34948.88
519.62	35147.82
519.79	35229.74
519.96	35608.91
520.14	35119.74
520.31	35108.04
520.48	35264.85
520.65	35543.38
520.83	36112.13
521.00	35789.13
521.17	35503.59
521.34	35578.48
521.52	35763.39
521.69	35812.54
521.86	36322.77
522.03	35983.40
522.20	36250.22
522.38	36011.48
522.55	36488.95
522.72	35985.74
522.89	36608.32
523.07	36058.29
523.24	36519.38
523.41	36603.64
523.58	36638.75
523.75	37390.06
523.92	37048.34
524.10	37092.81
524.27	37205.16
524.44	36973.44
524.61	37088.13
524.78	37275.37
524.96	37184.09
525.13	37525.81
525.30	37457.93
525.47	37600.71
525.64	37488.36
525.81	37474.32
525.98	37572.62
526.16	37329.20
526.33	37064.72
526.50	37247.29
526.67	37493.04
526.84	37439.21
527.01	37567.94
527.18	37607.73
527.36	37893.27
527.53	38321.59
527.70	38656.29
527.87	38611.82
528.04	38272.44
528.21	38213.93
528.38	38146.05
528.55	38735.87
528.72	38883.32
528.89	39339.72
529.07	38415.21
529.24	38244.35
529.41	38422.23
529.58	38588.41
529.75	38436.28
529.92	38920.77
530.09	38899.70
530.26	38895.02
530.43	39379.51
530.60	39171.21
530.77	39096.31
530.94	39330.36
531.11	39313.98
531.28	39225.04
531.46	39381.85
531.63	39487.18
531.80	39068.22
531.97	39566.76
532.14	39416.96
532.31	39363.13
532.48	38752.25
532.65	39349.09
532.82	39309.30
532.99	39758.68
533.16	39913.16
533.33	39917.84
533.50	39852.30
533.67	40002.10
533.84	39772.72
534.01	40074.65
534.18	39903.79
534.35	40271.26
534.52	39578.46
534.69	40308.71
534.86	40081.67
535.03	40233.81
535.20	40671.49
535.37	40287.64
535.54	40407.01
535.71	40540.42
535.88	40524.04
536.05	40591.91
536.22	40950.01
536.38	40648.08
536.55	40552.12
536.72	40517.01
536.89	40692.55
537.06	40500.63
537.23	41235.56
537.40	40776.81
537.57	41022.57
537.74	40964.06
537.91	41371.31
538.08	41174.70
538.25	40713.62
538.42	40985.12
538.59	41352.58
538.75	40921.93
538.92	41041.29
539.09	41223.86
539.26	41186.41
539.43	41013.21
539.60	41038.95
539.77	41116.19
539.94	41591.32
540.11	41354.93
540.28	41565.57
540.44	41420.46
540.61	41680.26
540.78	41062.36
540.95	41502.38
541.12	41397.06
541.29	41350.24
541.46	41301.09
541.62	41698.98
541.79	42085.17
541.96	41392.37
542.13	41598.34
542.30	42057.09
542.47	42003.25
542.63	42237.31
542.80	42239.65
542.97	42249.01
543.14	42288.80
543.31	42171.77
543.48	42120.28
543.64	42859.89
543.81	42787.33
543.98	42424.55
544.15	42398.80
544.32	42651.58
544.48	42955.85
544.65	43136.07
544.82	42698.39
544.99	42770.95
545.16	42787.33
545.32	42775.63
545.49	43330.34
545.66	43311.61
545.83	42967.55
546.00	43098.62
546.16	43009.68
546.33	42831.80
546.50	43000.32
546.67	43152.46
546.83	42742.86
547.00	43215.65
547.17	43047.13
547.34	42602.43
547.50	43196.93
547.67	43512.90
547.84	43648.65
548.00	43475.45
548.17	43393.53
548.34	43409.92
548.51	43976.33
548.67	43608.86
548.84	43718.87
549.01	43208.63
549.18	43459.07
549.34	43480.13
549.51	43732.91
549.68	43681.42
549.84	43571.41
550.01	43831.21
550.18	43498.86
550.34	43786.74
550.51	43746.95
550.68	43512.90
550.84	43538.65
551.01	43768.02
551.18	43388.85
551.34	43847.60
551.51	43599.50
551.68	43849.94
551.84	43824.19
552.01	43594.82
552.18	44175.27
552.34	43690.78
552.51	44264.21
552.68	44158.89
552.84	44158.89
553.01	44465.50
553.18	43807.81
553.34	43990.37
553.51	43878.02
553.67	44208.04
553.84	44772.11
554.01	44917.22
554.17	44739.34
554.34	44584.86
554.51	44477.20
554.67	44610.61
554.84	44582.52
555.00	44612.95
555.17	44617.63
555.33	44690.19
555.50	44465.50
555.67	44491.24
555.83	44626.99
556.00	44175.27
556.16	45167.66
556.33	44594.23
556.50	44652.74
556.66	44500.61
556.83	44374.22
556.99	44772.11
557.16	44837.64
557.32	44893.82
557.49	44713.59
557.65	44737.00
557.82	44790.83
557.98	44629.34
558.15	45406.39
558.32	44825.94
558.48	44472.52
558.65	44727.64
558.81	44669.12
558.98	44844.66
559.14	45006.16
559.31	44678.49
559.47	44924.24
559.64	44835.30
559.80	44495.92
559.97	45132.55
560.13	44318.04
560.30	45062.33
560.46	44753.38
560.63	45024.89
560.79	45268.30
560.96	45549.17
561.12	45146.59
561.29	45020.20
561.45	45219.15
561.61	45209.79
561.78	45432.14
561.94	44928.92
562.11	45284.68
562.27	45043.61
562.44	45394.69
562.60	45092.76
562.77	45429.80
562.93	45174.68
563.10	45815.99
563.26	45158.30
563.42	45446.18
563.59	45474.27
563.75	45453.20
563.92	45579.59
564.08	45413.41
564.24	45776.20
564.41	45282.34
564.57	45462.57
564.74	45268.30
564.90	45263.62
565.07	45261.28
565.23	45382.99
565.39	45553.85
565.56	45574.91
565.72	45132.55
565.88	45254.26
566.05	45017.86
566.21	44931.26
566.38	45193.40
566.54	45116.17
566.70	46223.24
566.87	45464.91
567.03	45860.46
567.19	46024.29
567.36	46021.95
567.52	45434.48
567.68	45387.67
567.85	45502.35
568.01	45385.33
568.17	45743.43
568.34	45745.77
568.50	45600.66
568.66	45500.01
568.83	45549.17
568.99	45263.62
569.15	45600.66
569.32	45895.56
569.48	45546.82
569.64	45804.28
569.81	45918.97
569.97	45698.96
570.13	45872.16
570.30	45528.10
570.46	45401.71
570.62	45343.20
570.78	45132.55
570.95	45148.93
571.11	45942.38
571.27	45689.60
571.43	45804.28
571.60	45614.70
571.76	45191.06
571.92	45691.94
572.09	45911.95
572.25	46141.32
572.41	46380.06
572.57	45911.95
572.74	45830.03
572.90	45605.34
573.06	45928.33
573.22	45628.74
573.38	45741.09
573.55	45588.95
573.71	45827.69
573.87	46071.10
574.03	45701.30
574.20	45743.43
574.36	45727.05
574.52	46028.98
574.68	45748.11
574.84	45720.02
575.01	45659.17
575.17	45640.45
575.33	45933.01
575.49	45525.76
575.65	46085.15
575.82	45961.10
575.98	45453.20
576.14	46045.36
576.30	45619.38
576.46	45874.50
576.62	45621.72
576.79	45411.07
576.95	45588.95
577.11	45860.46
577.27	46129.62
577.43	45457.88
577.59	45565.55
577.75	45600.66
577.92	45361.92
578.08	45528.10
578.24	45359.58
578.40	45619.38
578.56	45635.77
578.72	45993.87
578.88	46157.70
579.04	46073.45
579.21	45612.36
579.37	45570.23
579.53	45815.99
579.69	45832.37
579.85	45558.53
580.01	45940.04
580.17	45916.63
580.33	45659.17
580.49	45867.48
580.65	45858.12
580.82	46426.87
580.98	45366.60
581.14	45303.41
581.30	45865.14
581.46	45605.34
581.62	45729.39
581.78	46211.54
581.94	46412.82
582.10	46059.40
582.26	46043.02
582.42	45797.26
582.58	45853.44
582.74	45895.56
582.90	46227.92
583.06	45897.91
583.22	46595.38
583.38	46171.75
583.54	46080.47
583.70	45748.11
583.86	45902.59
584.02	46073.45
584.18	45600.66
584.34	45890.88
584.50	46176.43
584.66	46087.49
584.82	45521.08
584.98	45921.31
585.14	45996.21
585.30	45659.17
585.46	45574.91
585.62	45773.86
585.78	45572.57
585.94	45748.11
586.10	45198.09
586.26	45558.53
586.42	46204.52
586.58	46232.60
586.74	46265.37
586.90	46120.26
587.06	46417.50
587.22	45825.35
587.38	45748.11
587.54	46078.13
587.70	46270.05
587.86	45869.82
588.02	45549.17
588.18	45687.26
588.34	45530.44
588.49	45392.35
588.65	45354.90
588.81	45319.79
588.97	45382.99
589.13	45352.56
589.29	45336.18
589.45	45626.40
589.61	45694.28
589.77	46344.95
589.93	46263.03
590.08	46012.59
