SpectraSuite Data File
++++++++++++++++++++++++++++++++++++
Date: Fri Oct 25 10:48:24 EDT 2013
User: price-jones
Dark Spectrum Present: No
Reference Spectrum Present: No
Number of Sampled Component Spectra: 1
Spectrometers: USB2+H05261
Integration Time (usec): 100000 (USB2+H05261)
Spectra Averaged: 1 (USB2+H05261)
Boxcar Smoothing: 0 (USB2+H05261)
Correct for Electrical Dark: No (USB2+H05261)
Strobe/Lamp Enabled: No (USB2+H05261)
Correct for Detector Non-linearity: No (USB2+H05261)
Correct for Stray Light: No (USB2+H05261)
Number of Pixels in Processed Spectrum: 2048
>>>>>Begin Processed Spectral Data<<<<<
365.73	95.96
365.92	95.96
366.12	95.96
366.32	81.92
366.52	58.51
366.72	44.47
366.91	56.17
367.11	98.30
367.31	44.47
367.51	25.75
367.70	0.00
367.90	18.72
368.10	37.45
368.30	0.00
368.49	72.56
368.69	98.30
368.89	70.22
369.09	121.71
369.28	4.68
369.48	58.51
369.68	128.73
369.87	70.22
370.07	124.05
370.27	191.92
370.47	231.71
370.66	444.70
370.86	416.62
371.06	421.30
371.25	482.15
371.45	465.77
371.65	514.92
371.84	428.32
372.04	493.85
372.24	482.15
372.44	538.32
372.63	491.51
372.83	404.91
373.03	545.34
373.22	475.13
373.42	507.90
373.62	550.03
373.81	550.03
374.01	596.84
374.21	617.90
374.40	526.62
374.60	554.71
374.79	571.09
374.99	601.52
375.19	550.03
375.38	608.54
375.58	559.39
375.78	592.16
375.97	547.69
376.17	594.50
376.37	566.41
376.56	587.47
376.76	603.86
376.95	620.24
377.15	683.44
377.35	641.31
377.54	718.54
377.74	617.90
377.93	627.26
378.13	622.58
378.33	711.52
378.52	638.97
378.72	695.14
378.91	655.35
379.11	655.35
379.31	690.46
379.50	695.14
379.70	779.40
379.89	758.33
380.09	678.76
380.28	685.78
380.48	653.01
380.68	641.31
380.87	599.18
381.07	713.86
381.26	683.44
381.46	671.73
381.65	674.07
381.85	718.54
382.04	720.88
382.24	744.29
382.43	690.46
382.63	643.65
382.83	702.16
383.02	648.33
383.22	779.40
383.41	669.39
383.61	786.42
383.80	770.04
384.00	697.48
384.19	830.89
384.39	812.17
384.58	772.38
384.78	734.93
384.97	851.96
385.17	858.98
385.36	788.76
385.56	800.46
385.75	805.14
385.95	844.93
386.14	863.66
386.34	809.83
386.53	830.89
386.72	821.53
386.92	802.80
387.11	922.17
387.31	908.13
387.50	858.98
387.70	849.61
387.89	826.21
388.09	858.98
388.28	821.53
388.48	868.34
388.67	985.37
388.86	973.66
389.06	875.36
389.25	1022.81
389.45	1062.60
389.64	994.73
389.84	1015.79
390.03	999.41
390.22	1001.75
390.42	950.26
390.61	983.02
390.81	1022.81
391.00	1057.92
391.19	1004.09
391.39	987.71
391.58	1025.15
391.78	1057.92
391.97	992.39
392.16	1032.18
392.36	1086.01
392.55	1011.11
392.75	1015.79
392.94	919.83
393.13	985.37
393.33	1018.13
393.52	1015.79
393.71	1095.37
393.91	1074.31
394.10	1060.26
394.29	1093.03
394.49	1198.35
394.68	1191.33
394.88	1135.16
395.07	1191.33
395.26	1224.10
395.46	1308.36
395.65	1245.16
395.84	1193.67
396.04	1355.17
396.23	1214.74
396.42	1207.72
396.62	1165.59
396.81	1252.19
397.00	1172.61
397.19	1252.19
397.39	1275.59
397.58	1261.55
397.77	1308.36
397.97	1453.47
398.16	1385.60
398.35	1390.28
398.55	1366.87
398.74	1434.75
398.93	1575.18
399.12	1516.67
399.32	1427.73
399.51	1394.96
399.70	1483.90
399.90	1481.56
400.09	1526.03
400.28	1614.97
400.47	1544.75
400.67	1631.35
400.86	1727.32
401.05	1636.03
401.24	1703.91
401.44	1769.44
401.63	1673.48
401.82	1708.59
402.01	1736.68
402.21	1633.69
402.40	1783.49
402.59	1746.04
402.78	1652.42
402.97	1666.46
403.17	1750.72
403.36	1863.07
403.55	1886.47
403.74	1802.21
403.93	1774.13
404.13	1867.75
404.32	1802.21
404.51	1842.00
404.70	1944.99
404.89	1851.36
405.09	1933.28
405.28	1863.07
405.47	1928.60
405.66	1879.45
405.85	1914.56
406.05	1842.00
406.24	2017.54
406.43	1900.52
406.62	1977.75
406.81	1980.09
407.00	1937.96
407.20	1996.48
407.39	1937.96
407.58	2150.95
407.77	2031.58
407.96	2113.50
408.15	2108.82
408.34	2148.61
408.54	2197.76
408.73	2246.91
408.92	2228.19
409.11	2242.23
409.30	2244.57
409.49	2289.04
409.68	2211.81
409.87	2200.10
410.07	2188.40
410.26	2242.23
410.45	2209.47
410.64	2312.45
410.83	2389.69
411.02	2492.67
411.21	2513.74
411.40	2415.43
411.59	2562.89
411.78	2534.80
411.98	2518.42
412.17	2595.65
412.36	2539.48
412.55	2555.86
412.74	2504.37
412.93	2689.28
413.12	2590.97
413.31	2850.77
413.50	2567.57
413.69	2693.96
413.88	2799.28
414.07	2757.15
414.26	2764.17
414.45	2881.20
414.64	2832.05
414.83	3007.59
415.02	2986.52
415.22	3070.78
415.41	2951.42
415.60	3028.65
415.79	2972.48
415.98	3096.53
416.17	3096.53
416.36	3103.55
416.55	3152.70
416.74	3246.32
416.93	3171.43
417.12	3180.79
417.31	3290.79
417.50	3159.72
417.69	3262.71
417.88	3391.44
418.07	3328.24
418.26	3379.73
418.45	3421.86
418.64	3503.78
418.83	3499.10
419.02	3473.36
419.21	3559.95
419.39	3426.54
419.58	3426.54
419.77	3459.31
419.96	3538.89
420.15	3571.66
420.34	3588.04
420.53	3552.93
420.72	3595.06
420.91	3576.34
421.10	3515.48
421.29	3674.64
421.48	3529.53
421.67	3822.09
421.86	3566.98
422.05	3705.07
422.24	3637.19
422.43	3658.26
422.61	3672.30
422.80	3838.48
422.99	3861.88
423.18	3765.92
423.37	3824.44
423.56	3791.67
423.75	3871.25
423.94	3763.58
424.13	3552.93
424.32	3751.88
424.50	3794.01
424.69	3957.85
424.88	4009.34
425.07	3810.39
425.26	3728.47
425.45	3744.86
425.64	3730.81
425.83	3765.92
426.01	3859.54
426.20	3857.20
426.39	3875.93
426.58	3866.56
426.77	3847.84
426.96	3927.42
427.15	3801.03
427.33	3927.42
427.52	3990.61
427.71	4014.02
427.90	3932.10
428.09	3978.91
428.28	3974.23
428.46	3978.91
428.65	3920.40
428.84	4114.66
429.03	4208.28
429.22	3896.99
429.40	4063.17
429.59	4119.34
429.78	3964.87
429.97	3772.94
430.16	3946.14
430.34	3978.91
430.53	4016.36
430.72	4084.23
430.91	4095.94
431.10	4210.62
431.28	4496.17
431.47	4306.59
431.66	4493.83
431.85	4500.85
432.03	4447.02
432.22	4533.62
432.41	4533.62
432.60	4458.72
432.79	4507.87
432.97	4505.53
433.16	4634.26
433.35	4526.60
433.54	4437.66
433.72	4519.57
433.91	4465.74
434.10	4758.31
434.28	4624.90
434.47	4744.27
434.66	4720.86
434.85	4905.76
435.03	4896.40
435.22	4816.82
435.41	4919.81
435.59	5041.51
435.78	4990.02
435.97	4917.47
436.16	4891.72
436.34	4884.70
436.53	4887.04
436.72	5116.41
436.90	4945.55
437.09	5067.26
437.28	4966.62
437.46	5053.22
437.65	5041.51
437.84	5032.15
438.02	4966.62
438.21	5057.90
438.40	5050.88
438.58	5151.52
438.77	5329.40
438.96	5107.05
439.14	5245.14
439.33	5355.15
439.52	5514.30
439.70	5565.79
439.89	5544.73
440.08	5507.28
440.26	5551.75
440.45	5481.53
440.63	5722.61
440.82	5841.98
441.01	5715.59
441.19	5792.83
441.38	5949.64
441.57	5764.74
441.75	5928.58
441.94	6001.13
442.12	6085.39
442.31	6186.04
442.50	6162.63
442.68	6256.25
442.87	6293.70
443.05	6017.52
443.24	6331.15
443.43	6260.93
443.61	6015.18
443.80	6249.23
443.98	6216.46
444.17	6001.13
444.35	6387.32
444.54	6387.32
444.73	6293.70
444.91	6303.06
445.10	6204.76
445.28	6352.21
445.47	6157.95
445.65	6253.91
445.84	6361.58
446.02	6448.18
446.21	6291.36
446.39	6244.55
446.58	6429.45
446.77	6476.26
446.95	6445.84
447.14	6438.81
447.32	6506.69
447.51	6525.41
447.69	6394.34
447.88	6518.39
448.06	6410.73
448.25	6452.86
448.43	6492.65
448.62	6485.62
448.80	6574.56
448.99	6665.85
449.17	6743.08
449.36	6583.93
449.54	6757.13
449.73	6792.23
449.91	7002.88
450.10	6890.54
450.28	7002.88
450.46	6925.65
450.65	6988.84
450.83	6892.88
451.02	6949.05
451.20	7094.16
451.39	7103.53
451.57	6988.84
451.76	6750.10
451.94	6883.52
452.13	7035.65
452.31	7080.12
452.49	6963.09
452.68	7063.74
452.86	7138.63
453.05	7005.22
453.23	7265.02
453.42	6939.69
453.60	7047.35
453.78	7269.70
453.97	7005.22
454.15	7138.63
454.34	7073.10
454.52	7328.22
454.70	7222.89
454.89	7372.69
455.07	7300.13
455.26	7337.58
455.44	7506.10
455.62	7632.49
455.81	7485.03
455.99	7515.46
456.17	7562.27
456.36	7564.61
456.54	7733.13
456.73	7709.72
456.91	7836.11
457.09	7772.92
457.28	8046.76
457.46	7662.91
457.64	7798.66
457.83	8035.06
458.01	7749.51
458.19	8030.38
458.38	7822.07
458.56	8187.19
458.74	7918.03
458.93	8149.75
459.11	7939.10
459.29	8070.17
459.48	8344.01
459.66	8079.53
459.84	8248.05
460.03	8166.13
460.21	8114.64
460.39	8241.03
460.57	8362.73
460.76	8365.07
460.94	8521.89
461.12	8306.56
461.31	8360.39
461.49	8386.14
461.67	8493.80
461.85	8655.30
462.04	8514.87
462.22	8982.98
462.40	8695.09
462.59	8786.37
462.77	8674.03
462.95	8606.15
463.13	8669.34
463.32	8662.32
463.50	8842.54
463.68	8835.52
463.86	8821.48
464.05	8636.58
464.23	8585.08
464.41	9107.02
464.59	8659.98
464.78	8987.66
464.96	9174.90
465.14	8631.90
465.32	9008.72
465.50	9034.47
465.69	8940.85
465.87	8950.21
466.05	9163.20
466.23	8842.54
466.41	8997.02
466.60	9039.15
466.78	8903.40
466.96	9284.91
467.14	9011.06
467.32	9146.81
467.51	9334.06
467.69	8870.63
467.87	9022.77
468.05	9343.42
468.23	8943.19
468.41	9078.94
468.60	9144.47
468.78	9327.03
468.96	9156.18
469.14	9324.69
469.32	9521.30
469.50	9324.69
469.69	9493.21
469.87	9643.01
470.05	9624.28
470.23	9502.58
470.41	9643.01
470.59	9778.76
470.77	9614.92
470.95	9708.54
471.14	9764.72
471.32	9689.82
471.50	9788.12
471.68	9905.15
471.86	10050.26
472.04	10073.67
472.22	10272.61
472.40	9741.31
472.58	10068.98
472.77	10281.97
472.95	10366.23
473.13	10731.36
473.31	10253.89
473.49	10186.01
473.67	10167.29
473.85	10541.77
474.03	10609.65
474.21	10555.82
474.39	10654.12
474.57	10597.95
474.75	10719.65
474.93	11087.12
475.12	10832.00
475.30	10963.07
475.48	10892.85
475.66	11138.61
475.84	11000.52
476.02	11009.88
476.20	11157.33
476.38	11321.17
476.56	11754.17
476.74	11627.78
476.92	11492.03
477.10	11534.16
477.28	11620.76
477.46	11737.79
477.64	11983.54
477.82	12243.34
478.00	12444.63
478.18	12184.83
478.36	12102.91
478.54	12147.38
478.72	12519.53
478.90	12688.04
479.08	12718.47
479.26	12751.24
479.44	12849.54
479.62	12767.62
479.80	12828.48
479.98	13111.68
480.16	13252.11
480.34	13151.47
480.52	13355.10
480.70	13528.30
480.88	13254.45
481.06	13432.33
481.24	13577.45
481.41	13788.10
481.59	13851.29
481.77	14085.34
481.95	14270.25
482.13	14307.69
482.31	14169.60
482.49	14546.43
482.67	14338.12
482.85	14586.22
483.03	14876.44
483.21	14635.37
483.39	15103.48
483.57	14960.70
483.74	15131.56
483.92	15236.89
484.10	15122.20
484.28	15351.57
484.46	15606.69
484.64	15999.90
484.82	15510.73
485.00	15826.70
485.18	15847.77
485.35	16194.17
485.53	15536.48
485.71	15885.22
485.89	16561.63
486.07	16212.89
486.25	16243.32
486.43	16622.48
486.61	16662.27
486.78	16982.93
486.96	17238.05
487.14	17303.58
487.32	17357.41
487.50	17418.27
487.68	17692.11
487.85	17937.87
488.03	18225.75
488.21	18338.10
488.39	18188.30
488.57	18326.39
488.75	18272.56
488.92	18427.04
489.10	19063.66
489.28	18689.18
489.46	19199.41
489.64	18927.91
489.81	19658.16
489.99	19845.40
490.17	19697.95
490.35	19594.96
490.53	19711.99
490.70	20051.37
490.88	19978.81
491.06	20383.73
491.24	20306.49
491.41	20350.96
491.59	20477.35
491.77	20357.98
491.95	20802.68
492.13	20856.51
492.30	21104.61
492.48	21223.98
492.66	21312.92
492.84	21067.16
493.01	21507.18
493.19	21252.06
493.37	21741.24
493.54	21848.90
493.72	21965.93
493.90	21799.75
494.08	22052.53
494.25	22750.01
494.43	22670.43
494.61	22941.93
494.79	23077.68
494.96	22686.81
495.14	23208.75
495.32	23110.45
495.49	23297.69
495.67	22963.00
495.85	23653.45
496.02	23585.58
496.20	23754.10
496.38	23974.11
496.55	23817.29
496.73	24465.62
496.91	23981.13
497.09	24458.60
497.26	24659.88
497.44	24599.03
497.62	24676.27
497.79	24886.92
497.97	24664.57
498.14	25184.16
498.32	25284.81
498.50	25284.81
498.67	25149.06
498.85	25493.12
499.03	25652.27
499.20	25551.63
499.38	25418.22
499.56	26082.93
499.73	26218.68
499.91	26253.79
500.08	26199.96
500.26	25781.00
500.44	26096.97
500.61	26529.97
500.79	26263.15
500.97	26455.08
501.14	27182.98
501.32	26452.73
501.49	26558.06
501.67	26466.78
501.84	26661.04
502.02	26909.14
502.20	27220.43
502.37	27206.39
502.55	27147.87
502.72	27569.17
502.90	27531.72
503.07	27264.90
503.25	27669.81
503.43	27550.45
503.60	27756.41
503.78	27850.03
503.95	27835.99
504.13	28313.46
504.30	28563.90
504.48	28133.24
504.65	28411.76
504.83	28573.26
505.01	28837.74
505.18	28526.45
505.36	29053.07
505.53	29034.35
505.71	29275.42
505.88	29343.30
506.06	29081.16
506.23	29076.48
506.41	29156.05
506.58	29397.13
506.76	29701.40
506.93	29099.88
507.11	29528.20
507.28	29249.67
507.46	30089.93
507.63	29851.19
507.81	29825.45
507.98	29696.72
508.16	29584.37
508.33	30113.33
508.50	30197.59
508.68	30059.50
508.85	30595.48
509.03	30831.88
509.20	30384.83
509.38	30754.64
509.55	30342.70
509.73	31005.08
509.90	31040.18
510.08	30551.01
510.25	30953.58
510.42	30979.33
510.60	31243.81
510.77	31686.17
510.95	31351.48
511.12	31262.54
511.30	31498.93
511.47	31578.51
511.64	31543.40
511.82	31842.99
511.99	31503.61
512.17	31894.48
512.34	32051.30
512.51	32285.35
512.69	32343.86
512.86	31971.72
513.04	32437.48
513.21	32264.28
513.38	32077.04
513.56	32250.24
513.73	32540.47
513.90	32650.47
514.08	32587.28
514.25	32545.15
514.43	32671.54
514.60	32613.02
514.77	32793.25
514.95	32720.69
515.12	32718.35
515.29	33191.14
515.47	33024.96
515.64	33610.09
515.81	33081.13
515.99	33259.01
516.16	33069.43
516.33	33333.91
516.51	33205.18
516.68	32943.04
516.85	33158.37
517.03	33401.79
517.20	33661.58
517.37	33818.40
517.54	33933.09
517.72	34153.10
517.89	33703.71
518.06	33640.52
518.24	33577.33
518.41	33949.47
518.58	34150.76
518.75	33799.68
518.93	34464.39
519.10	34213.95
519.27	34045.43
519.45	34157.78
519.62	34934.84
519.79	34864.62
519.96	34976.97
520.14	35665.08
520.31	34705.46
520.48	35065.91
520.65	35115.06
520.83	35622.95
521.00	35690.83
521.17	35524.65
521.34	35578.48
521.52	35711.89
521.69	35573.80
521.86	36067.66
522.03	35938.93
522.20	35648.70
522.38	35964.67
522.55	36282.98
522.72	35512.95
522.89	35754.02
523.07	35793.81
523.24	35534.01
523.41	36687.90
523.58	36093.40
523.75	36783.86
523.92	36893.86
524.10	36861.10
524.27	36821.31
524.44	37041.32
524.61	36830.67
524.78	37308.14
524.96	36800.24
525.13	37177.07
525.30	37673.26
525.47	36959.40
525.64	37258.99
525.81	37153.66
525.98	37251.97
526.16	36795.56
526.33	36854.08
526.50	37191.11
526.67	36760.45
526.84	36835.35
527.01	37256.65
527.18	37474.32
527.36	37855.82
527.53	37647.52
527.70	38300.53
527.87	37729.44
528.04	37876.89
528.21	38124.99
528.38	38036.05
528.55	38422.23
528.72	38136.69
528.89	38373.08
529.07	38150.73
529.24	38494.79
529.41	38525.22
529.58	38134.35
529.75	38359.04
529.92	38565.01
530.09	38813.10
530.26	38281.80
530.43	38572.03
530.60	38548.62
530.77	38873.96
530.94	39044.82
531.11	38822.47
531.28	39218.02
531.46	39232.06
531.63	39363.13
531.80	39194.61
531.97	38981.62
532.14	38988.64
532.31	38871.62
532.48	39030.77
532.65	39388.88
532.82	39470.79
532.99	39473.13
533.16	39168.87
533.33	39372.49
533.50	39477.82
533.67	39608.89
533.84	39526.97
534.01	39475.48
534.18	39732.93
534.35	39976.35
534.52	39487.18
534.69	39871.03
534.86	40116.78
535.03	39688.46
535.20	40603.61
535.37	40477.22
535.54	40423.39
535.71	40273.60
535.88	40133.17
536.05	39985.71
536.22	40240.83
536.38	40488.93
536.55	40451.48
536.72	40498.29
536.89	39927.20
537.06	40517.01
537.23	40781.49
537.40	40257.21
537.57	40580.21
537.74	40741.71
537.91	40959.38
538.08	40650.42
538.25	40631.70
538.42	40690.21
538.59	40940.65
538.75	40411.69
538.92	40830.65
539.09	41429.82
539.26	40844.69
539.43	41247.26
539.60	41214.49
539.77	40851.71
539.94	40634.04
540.11	40732.34
540.28	41038.95
540.44	41181.73
540.61	41148.96
540.78	40924.27
540.95	41546.85
541.12	40900.86
541.29	41359.61
541.46	41560.89
541.62	41535.15
541.79	41626.43
541.96	41418.12
542.13	41612.38
542.30	41937.72
542.47	41567.91
542.63	41275.35
542.80	41820.69
542.97	41923.68
543.14	42190.50
543.31	42270.08
543.48	42419.87
543.64	42721.80
543.81	42782.65
543.98	42234.97
544.15	42707.76
544.32	42904.36
544.48	42679.67
544.65	42850.53
544.82	42394.12
544.99	42103.90
545.16	42513.49
545.32	42834.14
545.49	43164.16
545.66	43236.72
545.83	43122.03
546.00	42962.87
546.16	43201.61
546.33	42820.10
546.50	42557.96
546.67	43124.37
546.83	42581.37
547.00	43098.62
547.17	42749.88
547.34	42925.42
547.50	43023.73
547.67	43505.88
547.84	43131.39
548.00	43519.92
548.17	43475.45
548.34	42941.81
548.51	43826.53
548.67	43702.48
548.84	43838.23
549.01	43126.71
549.18	43522.26
549.34	43697.80
549.51	43641.63
549.68	43966.96
549.84	43686.10
550.01	44002.07
550.18	43704.82
550.34	43519.92
550.51	43929.51
550.68	43548.01
550.84	43751.63
551.01	44025.48
551.18	43636.95
551.34	44025.48
551.51	43529.28
551.68	44053.56
551.84	44268.89
552.01	43683.76
552.18	43578.43
552.34	43899.09
552.51	44341.45
552.68	44208.04
552.84	44079.31
553.01	44341.45
553.18	44383.58
553.34	44254.85
553.51	44369.54
553.67	44098.03
553.84	44287.62
554.01	44715.93
554.17	44348.47
554.34	45118.51
554.51	44622.31
554.67	44418.69
554.84	44514.65
555.00	44165.91
555.17	44261.87
555.33	44521.67
555.50	44390.60
555.67	44470.18
555.83	44664.44
556.00	44081.65
556.16	44680.83
556.33	44526.35
556.50	44570.82
556.66	44975.73
556.83	44463.16
556.99	45130.21
557.16	45081.06
557.32	45055.31
557.49	44701.89
557.65	44484.22
557.82	44889.13
557.98	44701.89
558.15	44748.70
558.32	45088.08
558.48	44573.16
558.65	44968.71
558.81	44851.69
558.98	45240.21
559.14	45200.43
559.31	45120.85
559.47	44737.00
559.64	45584.27
559.80	45308.09
559.97	45312.77
560.13	45457.88
560.30	45275.32
560.46	45191.06
560.63	45350.22
560.79	45579.59
560.96	45184.04
561.12	44945.31
561.29	45392.35
561.45	45205.11
561.61	45120.85
561.78	45689.60
561.94	45137.23
562.11	45181.70
562.27	45382.99
562.44	45200.43
562.60	45418.10
562.77	45600.66
562.93	44952.33
563.10	46138.98
563.26	44954.67
563.42	45265.96
563.59	45106.80
563.75	45652.15
563.92	45614.70
564.08	45298.73
564.24	45617.04
564.41	45359.58
564.57	45624.06
564.74	45680.24
564.90	45610.02
565.07	45261.28
565.23	45296.39
565.39	45181.70
565.56	45851.09
565.72	45443.84
565.88	46059.40
566.05	45727.05
566.21	45619.38
566.38	45354.90
566.54	45612.36
566.70	46043.02
566.87	45947.06
567.03	45418.10
567.19	45797.26
567.36	45729.39
567.52	45710.66
567.68	45607.68
567.85	45883.86
568.01	45954.08
568.17	45511.72
568.34	45617.04
568.50	46050.04
568.66	45801.94
568.83	45799.60
568.99	45455.54
569.15	45904.93
569.32	45820.67
569.48	45556.19
569.64	45858.12
569.81	45635.77
569.97	45776.20
570.13	46328.56
570.30	45642.79
570.46	45708.32
570.62	45291.71
570.78	45584.27
570.95	45904.93
571.11	46050.04
571.27	46162.39
571.43	46007.91
571.60	46071.10
571.76	45680.24
571.92	46211.54
572.09	45628.74
572.25	45394.69
572.41	46101.53
572.57	45837.05
572.74	46239.62
572.90	46260.69
573.06	46227.92
573.22	46230.26
573.38	45815.99
573.55	45846.41
573.71	46218.56
573.87	45834.71
574.03	46085.15
574.20	45844.07
574.36	46019.61
574.52	46113.23
574.68	46000.89
574.84	45778.54
575.01	45940.04
575.17	45670.87
575.33	45390.01
575.49	45928.33
575.65	46232.60
575.82	46401.12
575.98	46162.39
576.14	46433.89
576.30	45963.44
576.46	46021.95
576.62	45979.82
576.79	45757.47
576.95	45713.00
577.11	46059.40
577.27	45544.48
577.43	46012.59
577.59	45947.06
577.75	45867.48
577.92	45263.62
578.08	46223.24
578.24	45741.09
578.40	46043.02
578.56	46043.02
578.72	45839.39
578.88	46162.39
579.04	46188.13
579.21	45911.95
579.37	46305.16
579.53	46106.21
579.69	45282.34
579.85	45897.91
580.01	46412.82
580.17	46157.70
580.33	46457.29
580.49	46384.74
580.65	46068.76
580.82	46000.89
580.98	46087.49
581.14	45862.80
581.30	46036.00
581.46	46054.72
581.62	46174.09
581.78	46370.69
581.94	46571.98
582.10	46017.27
582.26	46656.24
582.42	46431.55
582.58	46618.79
582.74	46223.24
582.90	46354.31
583.06	46433.89
583.22	46234.94
583.38	46597.73
583.54	45942.38
583.70	46117.92
583.86	46244.30
584.02	45696.62
584.18	45853.44
584.34	46117.92
584.50	46426.87
584.66	46473.68
584.82	46251.33
584.98	46066.42
585.14	46040.68
585.30	46211.54
585.46	46028.98
585.62	45715.34
585.78	46148.34
585.94	45741.09
586.10	46106.21
586.26	45860.46
586.42	46476.02
586.58	46623.47
586.74	46057.06
586.90	45731.73
587.06	46110.89
587.22	46157.70
587.38	46075.79
587.54	46576.66
587.70	46539.21
587.86	46007.91
588.02	46260.69
588.18	46106.21
588.34	45883.86
588.49	46024.29
588.65	45120.85
588.81	45682.58
588.97	45886.20
589.13	46094.51
589.29	46213.88
589.45	46337.93
589.61	46518.15
589.77	46616.45
589.93	46354.31
590.08	46401.12
