SpectraSuite Data File
++++++++++++++++++++++++++++++++++++
Date: Fri Oct 25 11:23:07 EDT 2013
User: price-jones
Dark Spectrum Present: No
Reference Spectrum Present: No
Number of Sampled Component Spectra: 1
Spectrometers: USB2+H05261
Integration Time (usec): 100000 (USB2+H05261)
Spectra Averaged: 1 (USB2+H05261)
Boxcar Smoothing: 0 (USB2+H05261)
Correct for Electrical Dark: No (USB2+H05261)
Strobe/Lamp Enabled: No (USB2+H05261)
Correct for Detector Non-linearity: No (USB2+H05261)
Correct for Stray Light: No (USB2+H05261)
Number of Pixels in Processed Spectrum: 2048
>>>>>Begin Processed Spectral Data<<<<<
365.73	278.52
365.92	278.52
366.12	278.52
366.32	166.18
366.52	135.75
366.72	126.39
366.91	98.30
367.11	215.33
367.31	126.39
367.51	121.71
367.70	86.60
367.90	142.77
368.10	86.60
368.30	107.66
368.49	140.43
368.69	149.79
368.89	191.92
369.09	222.35
369.28	231.71
369.48	114.69
369.68	180.22
369.87	182.56
370.07	189.58
370.27	196.60
370.47	285.55
370.66	573.43
370.86	568.75
371.06	582.79
371.25	732.59
371.45	683.44
371.65	720.88
371.84	664.71
372.04	744.29
372.24	655.35
372.44	688.12
372.63	746.63
372.83	753.65
373.03	744.29
373.22	777.06
373.42	758.33
373.62	835.57
373.81	816.85
374.01	840.25
374.21	805.14
374.40	772.38
374.60	837.91
374.79	765.36
374.99	919.83
375.19	910.47
375.38	798.12
375.58	837.91
375.78	854.30
375.97	901.11
376.17	894.08
376.37	884.72
376.56	861.32
376.76	863.66
376.95	774.72
377.15	926.85
377.35	889.40
377.54	905.79
377.74	842.59
377.93	924.51
378.13	924.51
378.33	976.00
378.52	966.64
378.72	915.15
378.91	1104.73
379.11	929.19
379.31	978.34
379.50	891.74
379.70	1074.31
379.89	1018.13
380.09	870.68
380.28	917.49
380.48	992.39
380.68	952.60
380.87	959.62
381.07	1060.26
381.26	1029.84
381.46	1006.43
381.65	1036.86
381.85	1006.43
382.04	1142.18
382.24	999.41
382.43	1064.94
382.63	1086.01
382.83	1078.99
383.02	1135.16
383.22	1170.27
383.41	1076.65
383.61	1203.04
383.80	1125.80
384.00	1111.75
384.19	1109.41
384.39	1149.20
384.58	1198.35
384.78	1139.84
384.97	1144.52
385.17	1144.52
385.36	1116.44
385.56	1188.99
385.75	1097.71
385.95	1116.44
386.14	1235.80
386.34	1151.54
386.53	1179.63
386.72	1207.72
386.92	1203.04
387.11	1263.89
387.31	1259.21
387.50	1238.14
387.70	1284.95
387.89	1294.32
388.09	1219.42
388.28	1252.19
388.48	1270.91
388.67	1310.70
388.86	1245.16
389.06	1221.76
389.25	1324.74
389.45	1369.21
389.64	1378.58
389.84	1385.60
390.03	1455.81
390.22	1420.71
390.42	1380.92
390.61	1397.30
390.81	1348.15
391.00	1451.13
391.19	1500.28
391.39	1511.99
391.58	1497.94
391.78	1460.49
391.97	1579.86
392.16	1542.41
392.36	1434.75
392.55	1533.05
392.75	1544.75
392.94	1544.75
393.13	1523.69
393.33	1556.46
393.52	1614.97
393.71	1629.01
393.91	1511.99
394.10	1675.82
394.29	1636.03
394.49	1607.95
394.68	1603.27
394.88	1598.59
395.07	1699.23
395.26	1657.10
395.46	1598.59
395.65	1652.42
395.84	1645.40
396.04	1755.40
396.23	1703.91
396.42	1694.55
396.62	1717.95
396.81	1816.26
397.00	1830.30
397.19	1839.66
397.39	1818.60
397.58	1792.85
397.77	1851.36
397.97	1832.64
398.16	1844.34
398.35	1860.73
398.55	1825.62
398.74	1987.11
398.93	1973.07
399.12	1928.60
399.32	1968.39
399.51	2017.54
399.70	2012.86
399.90	2043.29
400.09	1923.92
400.28	2052.65
400.47	1987.11
400.67	2054.99
400.86	2125.21
401.05	2010.52
401.24	2062.01
401.44	2122.87
401.63	2146.27
401.82	2160.31
402.01	2204.78
402.21	2167.34
402.40	2090.10
402.59	2225.85
402.78	2176.70
402.97	2169.68
403.17	2335.85
403.36	2300.75
403.55	2368.62
403.74	2516.08
403.93	2394.37
404.13	2462.24
404.32	2473.95
404.51	2333.51
404.70	2436.50
404.89	2457.56
405.09	2476.29
405.28	2525.44
405.47	2445.86
405.66	2438.84
405.85	2478.63
406.05	2385.01
406.24	2565.23
406.43	2560.55
406.62	2677.57
406.81	2679.91
407.00	2593.31
407.20	2583.95
407.39	2715.02
407.58	2782.90
407.77	2883.54
407.96	2712.68
408.15	2717.36
408.34	2698.64
408.54	2820.35
408.73	2909.29
408.92	2825.03
409.11	2904.60
409.30	2909.29
409.49	2906.95
409.68	2949.08
409.87	3047.38
410.07	3052.06
410.26	3108.23
410.45	3007.59
410.64	3026.31
410.83	3129.30
411.02	3002.91
411.21	3091.85
411.40	3173.77
411.59	3325.90
411.78	3190.15
411.98	3276.75
412.17	3307.18
412.36	3337.60
412.55	3403.14
412.74	3471.01
412.93	3391.44
413.12	3368.03
413.31	3726.13
413.50	3550.59
413.69	3445.27
413.88	3655.92
414.07	3592.72
414.26	3625.49
414.45	3681.66
414.64	3709.75
414.83	3730.81
415.02	3831.46
415.22	3768.26
415.41	3899.33
415.60	3908.69
415.79	4053.81
415.98	3997.64
416.17	4037.42
416.36	3988.27
416.55	4025.72
416.74	4126.36
416.93	3969.55
417.12	4044.45
417.31	4222.33
417.50	4369.78
417.69	4360.42
417.88	4301.90
418.07	4322.97
418.26	4463.40
418.45	4451.70
418.64	4645.96
418.83	4468.08
419.02	4353.40
419.21	4564.04
419.39	4561.70
419.58	4542.98
419.77	4428.29
419.96	4461.06
420.15	4645.96
420.34	4606.17
420.53	4650.64
420.72	4692.77
420.91	4636.60
421.10	4842.57
421.29	4786.40
421.48	4777.03
421.67	4713.84
421.86	4746.61
422.05	4835.55
422.24	4884.70
422.43	4994.70
422.61	5011.09
422.80	5029.81
422.99	4957.25
423.18	4968.96
423.37	5135.14
423.56	5032.15
423.75	4929.17
423.94	4842.57
424.13	4519.57
424.32	4709.16
424.50	5041.51
424.69	5142.16
424.88	5165.56
425.07	5064.92
425.26	4908.10
425.45	4901.08
425.64	4999.38
425.83	4990.02
426.01	5015.77
426.20	5067.26
426.39	5048.54
426.58	5055.56
426.77	5170.24
426.96	5130.45
427.15	5284.93
427.33	5228.76
427.52	5146.84
427.71	5210.03
427.90	5275.57
428.09	5355.15
428.28	5390.25
428.46	5434.72
428.65	5446.43
428.84	5547.07
429.03	5624.31
429.22	5336.42
429.40	5652.39
429.59	5397.28
429.78	5322.38
429.97	5329.40
430.16	5551.75
430.34	5851.34
430.53	5738.99
430.72	5675.80
430.91	5617.29
431.10	5830.27
431.28	5731.97
431.47	5909.85
431.66	5841.98
431.85	5806.87
432.03	5926.24
432.22	6134.54
432.41	5956.66
432.60	5846.66
432.79	6087.73
432.97	6059.65
433.16	6101.78
433.35	5909.85
433.54	5968.37
433.72	6010.50
433.91	6214.12
434.10	6134.54
434.28	6235.19
434.47	6260.93
434.66	6370.94
434.85	6246.89
435.03	6335.83
435.22	6251.57
435.41	6555.84
435.59	6516.05
435.78	6511.37
435.97	6623.72
436.16	6413.07
436.34	6604.99
436.53	6516.05
436.72	6857.77
436.90	6572.22
437.09	6815.64
437.28	6532.44
437.46	6710.32
437.65	6799.26
437.84	6899.90
438.02	6848.41
438.21	6698.61
438.40	6773.51
438.58	6937.35
438.77	7068.42
438.96	6949.05
439.14	7250.98
439.33	7255.66
439.52	7293.11
439.70	7332.90
439.89	7309.49
440.08	7286.09
440.26	7332.90
440.45	7456.95
440.63	7660.57
440.82	7651.21
441.01	7466.31
441.19	7815.05
441.38	7625.47
441.57	7838.45
441.75	7838.45
441.94	8016.33
442.12	7918.03
442.31	8044.42
442.50	8028.04
442.68	8063.15
442.87	8114.64
443.05	8259.75
443.24	8231.66
443.43	8205.92
443.61	8231.66
443.80	8512.53
443.98	8128.68
444.17	8138.04
444.35	8252.73
444.54	8449.33
444.73	8126.34
444.91	8489.12
445.10	8493.80
445.28	8545.30
445.47	8505.51
445.65	8402.52
445.84	8575.72
446.02	8533.59
446.21	8580.40
446.39	8561.68
446.58	8437.63
446.77	8393.16
446.95	8383.80
447.14	8683.39
447.32	8568.70
447.51	8486.78
447.69	8547.64
447.88	8629.56
448.06	8713.81
448.25	8439.97
448.43	8645.94
448.62	8578.06
448.80	8652.96
448.99	8828.50
449.17	8788.71
449.36	8802.75
449.54	8744.24
449.73	9125.75
449.91	9137.45
450.10	9018.08
450.28	9198.31
450.46	9188.94
450.65	9018.08
450.83	9118.73
451.02	9029.79
451.20	9167.88
451.39	9273.20
451.57	9317.67
451.76	9163.20
451.94	9423.00
452.13	9483.85
452.31	9268.52
452.49	9415.98
452.68	9420.66
452.86	9455.76
453.05	9586.83
453.23	9600.88
453.42	9247.46
453.60	9383.21
453.78	9673.43
453.97	9575.13
454.15	9696.84
454.34	9650.03
454.52	9804.50
454.70	9893.44
454.89	9743.65
455.07	9830.25
455.26	10038.56
455.44	10064.30
455.62	9874.72
455.81	9764.72
455.99	10099.41
456.17	10064.30
456.36	10190.69
456.54	10314.74
456.73	10324.10
456.91	10562.84
457.09	10506.66
457.28	10661.14
457.46	10532.41
457.64	10480.92
457.83	10544.11
458.01	10289.00
458.19	10705.61
458.38	10682.20
458.56	10757.10
458.74	10602.63
458.93	10970.09
459.11	10782.85
459.29	10995.84
459.48	10934.98
459.66	10785.19
459.84	10792.21
460.03	10970.09
460.21	10995.84
460.39	11030.94
460.57	11094.14
460.76	11311.81
460.94	11215.85
461.12	11389.05
461.31	11112.86
461.49	11234.57
461.67	11171.38
461.85	11531.82
462.04	11421.81
462.22	11618.42
462.40	11452.24
462.59	11688.64
462.77	11501.39
462.95	11768.21
463.13	11810.34
463.32	12006.95
463.50	11779.92
463.68	11922.69
463.86	11765.87
464.05	11714.38
464.23	11992.90
464.41	12121.63
464.59	11948.43
464.78	12175.47
464.96	12327.60
465.14	11943.75
465.32	12229.30
465.50	12166.10
465.69	12257.39
465.87	12067.80
466.05	12414.20
466.23	11964.82
466.41	12367.39
466.60	12423.56
466.78	12409.52
466.96	12414.20
467.14	12353.35
467.32	12556.97
467.51	12535.91
467.69	12456.33
467.87	12636.55
468.05	12837.84
468.23	12620.17
468.41	12652.94
468.60	12751.24
468.78	13029.76
468.96	12950.18
469.14	12816.77
469.32	12957.21
469.50	12812.09
469.69	13018.06
469.87	13275.52
470.05	13163.17
470.23	13135.09
470.41	13355.10
470.59	13488.51
470.77	13439.36
470.95	13397.23
471.14	13703.84
471.32	13298.92
471.50	13547.02
471.68	13549.36
471.86	13713.20
472.04	13795.12
472.22	14054.92
472.40	13982.36
472.58	13790.44
472.77	14326.42
472.95	14377.91
473.13	14366.21
473.31	14040.87
473.49	14279.61
473.67	14167.26
473.85	14672.82
474.03	14661.12
474.21	14717.29
474.39	14808.57
474.57	15094.11
474.75	15112.84
474.93	14927.94
475.12	15246.25
475.30	15199.44
475.48	15487.32
475.66	15314.13
475.84	15580.95
476.02	15360.94
476.20	15892.24
476.38	15761.17
476.56	16201.19
476.74	16379.07
476.92	15740.10
477.10	16027.99
477.28	16105.23
477.46	16322.90
477.64	16587.38
477.82	16676.32
478.00	16774.62
478.18	17090.59
478.36	17130.38
478.54	17394.86
478.72	17181.87
478.90	17715.51
479.08	17649.98
479.26	17635.94
479.44	17755.30
479.62	17813.82
479.80	18005.74
479.98	18518.32
480.16	18761.73
480.34	18595.56
480.52	18607.26
480.70	18560.45
480.88	18567.47
481.06	18857.70
481.24	19185.37
481.41	19274.31
481.59	19276.65
481.77	19922.64
481.95	19810.29
482.13	19805.61
482.31	20102.86
482.49	20479.69
482.67	20435.22
482.85	20718.42
483.03	20863.54
483.21	21106.95
483.39	21043.76
483.57	20966.52
483.74	21209.93
483.92	21841.88
484.10	21544.63
484.28	22082.95
484.46	21762.30
484.64	22408.29
484.82	22354.46
485.00	22764.05
485.18	22899.80
485.35	23061.30
485.53	23222.80
485.71	23367.91
485.89	24004.53
486.07	23255.56
486.25	23288.33
486.43	23981.13
486.61	23796.23
486.78	24191.78
486.96	24418.81
487.14	24690.31
487.32	25027.35
487.50	25139.69
487.68	25116.29
487.85	25369.07
488.03	25460.35
488.21	26214.00
488.39	26178.89
488.57	26532.31
488.75	26450.39
488.92	26450.39
489.10	26689.13
489.28	27145.53
489.46	27889.82
489.64	27597.26
489.81	27756.41
489.99	28077.07
490.17	28140.26
490.35	28395.38
490.53	28589.64
490.70	28720.71
490.88	28292.40
491.06	28996.90
491.24	29289.46
491.41	29200.52
491.59	29425.22
491.77	29586.71
491.95	30192.91
492.13	29750.55
492.30	30054.82
492.48	30199.93
492.66	30211.64
492.84	30410.58
493.01	30855.28
493.19	30813.15
493.37	31206.36
493.54	31489.57
493.72	32046.62
493.90	31646.38
494.08	32287.69
494.25	32479.61
494.43	32315.78
494.61	32208.11
494.79	32643.45
494.96	32854.10
495.14	33242.63
495.32	33364.34
495.49	33436.89
495.67	33614.77
495.85	33638.18
496.02	34230.33
496.20	34476.09
496.38	34253.74
496.55	34490.13
496.73	35491.88
496.91	35002.71
497.09	35372.52
497.26	35559.76
497.44	35309.32
497.62	35618.27
497.79	35821.90
497.97	36098.08
498.14	36147.23
498.32	36435.12
498.50	36568.53
498.67	36498.31
498.85	36947.70
499.03	37027.28
499.20	37048.34
499.38	37085.79
499.56	37336.23
499.73	37757.52
499.91	37963.49
500.08	37816.04
500.26	38012.64
500.44	38024.34
500.61	38251.38
500.79	37972.85
500.97	38618.84
501.14	39115.03
501.32	39131.42
501.49	38883.32
501.67	38930.13
501.84	39679.10
502.02	39002.69
502.20	39192.27
502.37	39629.95
502.55	39828.90
502.72	39758.68
502.90	39849.96
503.07	40168.27
503.25	40191.68
503.43	40247.85
503.60	40208.06
503.78	40844.69
503.95	40982.78
504.13	40870.43
504.30	41287.05
504.48	40699.58
504.65	41317.48
504.83	41612.38
505.01	41874.52
505.18	41790.27
505.36	41834.74
505.53	41556.21
505.71	41865.16
505.88	42082.83
506.06	41668.56
506.23	42356.67
506.41	42305.18
506.58	42391.78
506.76	42796.70
506.93	43178.20
507.11	42782.65
507.28	43061.18
507.46	43161.82
507.63	43299.91
507.81	43999.73
507.98	43402.89
508.16	43143.09
508.33	44233.78
508.50	43601.84
508.68	44491.24
508.85	44456.14
509.03	44385.92
509.20	44428.05
509.38	44882.11
509.55	44612.95
509.73	44912.54
509.90	45022.54
510.08	44856.37
510.25	44830.62
510.42	44765.09
510.60	45361.92
510.77	45972.80
510.95	45518.74
511.12	45443.84
511.30	45380.65
511.47	45965.78
511.64	45574.91
511.82	46138.98
511.99	46057.06
512.17	46375.37
512.34	46131.96
512.51	46721.77
512.69	47063.49
512.86	46569.64
513.04	46876.25
513.21	47047.11
513.38	47063.49
513.56	47576.07
513.73	46894.97
513.90	46965.19
514.08	47206.26
514.25	47533.94
514.43	47639.26
514.60	47840.55
514.77	47875.66
514.95	48065.24
515.12	47983.32
515.29	47803.10
515.47	48126.10
515.64	48624.63
515.81	48376.53
515.99	48313.34
516.16	48629.31
516.33	48526.33
516.51	49078.69
516.68	49045.93
516.85	48886.77
517.03	49240.19
517.20	49272.96
517.37	49263.60
517.54	49324.45
517.72	49186.36
517.89	49457.86
518.06	49890.86
518.24	49427.43
518.41	49773.83
518.58	49481.27
518.75	49483.61
518.93	49942.35
519.10	50007.89
519.27	49822.98
519.45	50150.66
519.62	50354.29
519.79	50237.26
519.96	50380.03
520.14	50382.37
520.31	50466.63
520.48	50890.27
520.65	50363.65
520.83	51093.89
521.00	51124.32
521.17	50859.84
521.34	50845.80
521.52	51056.45
521.69	51180.49
521.86	51341.99
522.03	51393.48
522.20	51744.56
522.38	52184.58
522.55	51302.20
522.72	51449.66
522.89	51863.93
523.07	52184.58
523.24	52184.58
523.41	52177.56
523.58	51845.21
523.75	51826.48
523.92	52367.15
524.10	52287.57
524.27	52233.74
524.44	52273.52
524.61	52488.85
524.78	52559.07
524.96	52830.57
525.13	52608.22
525.30	52512.26
525.47	52856.32
525.64	52931.22
525.81	52924.19
525.98	52935.90
526.16	52926.53
526.33	52914.83
526.50	53336.13
526.67	52868.02
526.84	53183.99
527.01	53048.24
527.18	52931.22
527.36	53240.17
527.53	53413.37
527.70	53560.82
527.87	53415.71
528.04	53357.19
528.21	53649.76
528.38	53565.50
528.55	53909.56
528.72	53399.32
528.89	53844.02
529.07	53841.68
529.24	53886.15
529.41	53844.02
529.58	54192.76
529.75	53954.03
529.92	54064.03
530.09	54021.90
530.26	54258.30
530.43	54120.21
530.60	53970.41
530.77	54101.48
530.94	54429.16
531.11	54356.60
531.28	54361.28
531.46	54431.50
531.63	54628.10
531.80	54813.01
531.97	54859.82
532.14	54787.26
532.31	54625.76
532.48	54920.67
532.65	54756.83
532.82	54796.62
532.99	54939.39
533.16	54937.05
533.33	54983.86
533.50	55196.85
533.67	55128.98
533.84	55068.12
534.01	54894.92
534.18	55035.36
534.35	55409.84
534.52	55313.88
534.69	55325.58
534.86	55426.23
535.03	55583.04
535.20	55491.76
535.37	55449.63
535.54	55627.51
535.71	55639.22
535.88	55767.94
536.05	55709.43
536.22	55781.99
536.38	55756.24
536.55	55929.44
536.72	55753.90
536.89	55746.88
537.06	55882.63
537.23	56086.26
537.40	55828.80
537.57	55992.64
537.74	56205.62
537.91	56236.05
538.08	56004.34
538.25	56032.42
538.42	56133.07
538.59	56329.67
538.75	56191.58
538.92	56200.94
539.09	56629.26
539.26	56444.36
539.43	56233.71
539.60	56442.02
539.77	56545.00
539.94	56828.21
540.11	56596.49
540.28	56685.43
540.44	56830.55
540.61	56694.80
540.78	56746.29
540.95	56727.56
541.12	56839.91
541.29	56793.10
541.46	56757.99
541.62	56884.38
541.79	56662.03
541.96	56860.97
542.13	56846.93
542.30	56755.65
542.47	57244.82
542.63	57111.41
542.80	57120.77
542.97	57174.61
543.14	57284.61
543.31	57244.82
543.48	57270.57
543.64	57741.02
543.81	57450.79
543.98	57586.54
544.15	57513.98
544.32	57787.83
544.48	57881.45
544.65	57602.92
544.82	57518.67
544.99	57359.51
545.16	57839.32
545.32	57778.46
545.49	58131.89
545.66	57977.41
545.83	57853.36
546.00	57935.28
546.16	57755.06
546.33	57792.51
546.50	57731.65
546.67	58117.84
546.83	57523.35
547.00	58017.20
547.17	57897.83
547.34	58010.18
547.50	58279.34
547.67	58204.44
547.84	58323.81
548.00	58183.38
548.17	58410.41
548.34	58370.62
548.51	58639.78
548.67	58326.15
548.84	58134.23
549.01	58445.52
549.18	58342.53
549.34	58457.22
549.51	58433.81
549.68	58656.17
549.84	58546.16
550.01	58618.72
550.18	58457.22
550.34	58497.01
550.51	58944.05
550.68	58410.41
550.84	58218.49
551.01	58773.19
551.18	58688.93
551.34	58763.83
551.51	58820.00
551.68	58672.55
551.84	58855.11
552.01	58684.25
552.18	58810.64
552.34	58632.76
552.51	59021.29
552.68	58873.84
552.84	58775.53
553.01	59262.36
553.18	58920.65
553.34	59093.85
553.51	59047.04
553.67	59257.68
553.84	59072.78
554.01	59084.48
554.17	59267.05
554.34	59217.89
554.51	59304.49
554.67	59323.22
554.84	59255.34
555.00	59215.55
555.17	59203.85
555.33	59182.79
555.50	59442.59
555.67	59245.98
555.83	59405.14
556.00	59419.18
556.16	59571.32
556.33	59470.67
556.50	59374.71
556.66	59702.38
556.83	59358.33
556.99	59564.29
557.16	59669.62
557.32	59522.16
557.49	59854.52
557.65	59494.08
557.82	59765.58
557.98	59547.91
558.15	59566.63
558.32	59662.60
558.48	59578.34
558.65	59550.25
558.81	59695.36
558.98	59884.95
559.14	59866.22
559.31	59866.22
559.47	59976.23
559.64	59835.80
559.80	59964.52
559.97	59962.18
560.13	59716.43
560.30	60219.64
560.46	59913.03
560.63	59962.18
560.79	59868.56
560.96	60072.19
561.12	60011.34
561.29	59976.23
561.45	59929.42
561.61	60133.04
561.78	60020.70
561.94	60123.68
562.11	60142.41
562.27	60046.44
562.44	60329.65
562.60	60156.45
562.77	60221.98
562.93	60093.25
563.10	60346.03
563.26	60165.81
563.42	60420.93
563.59	60341.35
563.75	60324.97
563.92	60133.04
564.08	60500.51
564.24	60449.02
564.41	60250.07
564.57	60505.19
564.74	60133.04
564.90	60287.52
565.07	60371.78
565.23	60502.85
565.39	60594.13
565.56	60346.03
565.72	60214.96
565.88	60416.25
566.05	60322.63
566.21	60556.68
566.38	60582.43
566.54	60336.67
566.70	60678.39
566.87	60542.64
567.03	60341.35
567.19	60669.03
567.36	60647.96
567.52	60397.52
567.68	60769.67
567.85	60631.58
568.01	60907.76
568.17	60575.40
568.34	60568.38
568.50	60362.42
568.66	60563.70
568.83	60685.41
568.99	60643.28
569.15	60638.60
569.32	60690.09
569.48	60605.83
569.64	60654.98
569.81	60458.38
569.97	60643.28
570.13	60701.79
570.30	60612.85
570.46	60793.07
570.62	60823.50
570.78	60893.72
570.95	60748.60
571.11	60762.65
571.27	60718.18
571.43	60757.97
571.60	60907.76
571.76	60720.52
571.92	60692.43
572.09	60853.93
572.25	60645.62
572.41	60584.77
572.57	60676.05
572.74	61181.60
572.90	60928.83
573.06	60687.75
573.22	61092.66
573.38	61013.08
573.55	60816.48
573.71	60858.61
573.87	61034.15
574.03	60811.80
574.20	60786.05
574.36	60919.46
574.52	60790.73
574.68	60783.71
574.84	61116.07
575.01	60982.66
575.17	61085.64
575.33	60846.91
575.49	60896.06
575.65	60921.80
575.82	61071.60
575.98	61050.53
576.14	61169.90
576.30	61085.64
576.46	61043.51
576.62	61022.45
576.79	60940.53
576.95	60779.03
577.11	61022.45
577.27	61228.41
577.43	61022.45
577.59	60853.93
577.75	61069.26
577.92	60926.49
578.08	61006.06
578.24	61144.16
578.40	61183.94
578.56	61087.98
578.72	61144.16
578.88	60996.70
579.04	61300.97
579.21	61050.53
579.37	61092.66
579.53	61104.37
579.69	61020.11
579.85	61183.94
580.01	61076.28
580.17	60942.87
580.33	61226.07
580.49	61237.78
580.65	61188.63
580.82	60879.67
580.98	61151.18
581.14	61003.72
581.30	61233.10
581.46	60938.19
581.62	61310.33
581.78	61090.32
581.94	61141.81
582.10	61085.64
582.26	61132.45
582.42	61132.45
582.58	61036.49
582.74	61104.37
582.90	61132.45
583.06	61134.79
583.22	61188.63
583.38	61202.67
583.54	61233.10
583.70	61329.06
583.86	61331.40
584.02	60963.93
584.18	61113.73
584.34	61265.86
584.50	61242.46
584.66	61010.74
584.82	61029.47
584.98	61324.38
585.14	61340.76
585.30	61034.15
585.46	61048.19
585.62	61244.80
585.78	61448.42
585.94	61071.60
586.10	61165.22
586.26	61219.05
586.42	61474.17
586.58	61286.93
586.74	61394.59
586.90	61186.28
587.06	61251.82
587.22	61378.21
587.38	61202.67
587.54	61343.10
587.70	61368.85
587.86	61172.24
588.02	61478.85
588.18	61312.67
588.34	61378.21
588.49	61338.42
