SpectraSuite Data File
++++++++++++++++++++++++++++++++++++
Date: Fri Oct 25 11:23:44 EDT 2013
User: price-jones
Dark Spectrum Present: No
Reference Spectrum Present: No
Number of Sampled Component Spectra: 1
Spectrometers: USB2+H05261
Integration Time (usec): 100000 (USB2+H05261)
Spectra Averaged: 1 (USB2+H05261)
Boxcar Smoothing: 0 (USB2+H05261)
Correct for Electrical Dark: No (USB2+H05261)
Strobe/Lamp Enabled: No (USB2+H05261)
Correct for Detector Non-linearity: No (USB2+H05261)
Correct for Stray Light: No (USB2+H05261)
Number of Pixels in Processed Spectrum: 2048
>>>>>Begin Processed Spectral Data<<<<<
365.73	290.23
365.92	290.23
366.12	290.23
366.32	161.50
366.52	110.01
366.72	187.24
366.91	98.30
367.11	154.48
367.31	175.54
367.51	84.26
367.70	138.09
367.90	147.45
368.10	91.28
368.30	154.48
368.49	95.96
368.69	110.01
368.89	112.35
369.09	112.35
369.28	112.35
369.48	173.20
369.68	212.99
369.87	147.45
370.07	208.31
370.27	266.82
370.47	365.12
370.66	603.86
370.86	603.86
371.06	704.50
371.25	709.18
371.45	695.14
371.65	727.91
371.84	650.67
372.04	690.46
372.24	704.50
372.44	660.03
372.63	741.95
372.83	667.05
373.03	753.65
373.22	732.59
373.42	770.04
373.62	774.72
373.81	798.12
374.01	828.55
374.21	847.27
374.40	800.46
374.60	816.85
374.79	812.17
374.99	807.48
375.19	823.87
375.38	931.53
375.58	791.10
375.78	851.96
375.97	884.72
376.17	954.94
376.37	901.11
376.56	870.68
376.76	800.46
376.95	760.67
377.15	968.98
377.35	908.13
377.54	943.24
377.74	919.83
377.93	905.79
378.13	992.39
378.33	910.47
378.52	894.08
378.72	936.21
378.91	992.39
379.11	952.60
379.31	943.24
379.50	964.30
379.70	961.96
379.89	950.26
380.09	990.05
380.28	999.41
380.48	952.60
380.68	896.43
380.87	954.94
381.07	1029.84
381.26	1039.20
381.46	943.24
381.65	1022.81
381.85	1118.78
382.04	1050.90
382.24	980.68
382.43	1022.81
382.63	1013.45
382.83	999.41
383.02	1062.60
383.22	1153.88
383.41	1125.80
383.61	1095.37
383.80	1081.33
384.00	1114.10
384.19	1109.41
384.39	1139.84
384.58	1086.01
384.78	1174.95
384.97	1203.04
385.17	1146.86
385.36	1170.27
385.56	1149.20
385.75	1114.10
385.95	1160.91
386.14	1158.57
386.34	1174.95
386.53	1078.99
386.72	1095.37
386.92	1221.76
387.11	1233.46
387.31	1289.64
387.50	1270.91
387.70	1275.59
387.89	1135.16
388.09	1219.42
388.28	1313.04
388.48	1315.38
388.67	1359.85
388.86	1430.07
389.06	1411.34
389.25	1399.64
389.45	1371.55
389.64	1313.04
389.84	1306.02
390.03	1397.30
390.22	1453.47
390.42	1355.17
390.61	1322.40
390.81	1341.13
391.00	1275.59
391.19	1479.22
391.39	1458.15
391.58	1441.77
391.78	1427.73
391.97	1416.02
392.16	1465.18
392.36	1516.67
392.55	1488.58
392.75	1516.67
392.94	1650.08
393.13	1479.22
393.33	1462.83
393.52	1540.07
393.71	1600.93
393.91	1561.14
394.10	1610.29
394.29	1643.06
394.49	1638.38
394.68	1572.84
394.88	1654.76
395.07	1692.21
395.26	1598.59
395.46	1699.23
395.65	1755.40
395.84	1710.93
396.04	1762.42
396.23	1713.27
396.42	1689.87
396.62	1853.70
396.81	1783.49
397.00	1792.85
397.19	1732.00
397.39	1708.59
397.58	1851.36
397.77	1799.87
397.97	1928.60
398.16	1834.98
398.35	1820.94
398.55	1881.79
398.74	1900.52
398.93	1975.41
399.12	1933.28
399.32	1954.35
399.51	1933.28
399.70	2019.88
399.90	2015.20
400.09	1952.01
400.28	2115.84
400.47	1982.43
400.67	2017.54
400.86	2125.21
401.05	2080.74
401.24	2062.01
401.44	2132.23
401.63	2132.23
401.82	2108.82
402.01	2071.37
402.21	2183.72
402.40	2085.42
402.59	2153.29
402.78	2165.00
402.97	2321.81
403.17	2253.94
403.36	2338.20
403.55	2326.49
403.74	2366.28
403.93	2342.88
404.13	2387.35
404.32	2413.09
404.51	2333.51
404.70	2303.09
404.89	2387.35
405.09	2511.39
405.28	2583.95
405.47	2483.31
405.66	2583.95
405.85	2483.31
406.05	2513.74
406.24	2506.71
406.43	2654.17
406.62	2733.75
406.81	2693.96
407.00	2565.23
407.20	2619.06
407.39	2722.04
407.58	2668.21
407.77	2782.90
407.96	2771.19
408.15	2757.15
408.34	2803.96
408.54	2825.03
408.73	2853.11
408.92	2712.68
409.11	2892.90
409.30	2937.37
409.49	2888.22
409.68	2899.92
409.87	2979.50
410.07	3026.31
410.26	3014.61
410.45	2937.37
410.64	3148.02
410.83	3019.29
411.02	3045.04
411.21	3241.64
411.40	3260.37
411.59	3288.45
411.78	3091.85
411.98	3087.17
412.17	3314.20
412.36	3300.16
412.55	3414.84
412.74	3424.20
412.93	3417.18
413.12	3255.69
413.31	3566.98
413.50	3482.72
413.69	3417.18
413.88	3548.25
414.07	3559.95
414.26	3627.83
414.45	3775.28
414.64	3747.20
414.83	3665.28
415.02	3805.71
415.22	3887.63
415.41	4046.79
415.60	3896.99
415.79	3929.76
415.98	3901.67
416.17	3988.27
416.36	3962.53
416.55	3955.51
416.74	4145.09
416.93	4086.58
417.12	4058.49
417.31	4229.35
417.50	4095.94
417.69	4318.29
417.88	4374.46
418.07	4322.97
418.26	4231.69
418.45	4383.82
418.64	4643.62
418.83	4468.08
419.02	4477.44
419.21	4643.62
419.39	4521.92
419.58	4498.51
419.77	4461.06
419.96	4542.98
420.15	4585.11
420.34	4716.18
420.53	4634.26
420.72	4781.71
420.91	4732.56
421.10	4774.69
421.29	4795.76
421.48	4608.51
421.67	4674.05
421.86	4800.44
422.05	4798.10
422.24	4861.29
422.43	5004.07
422.61	4964.28
422.80	5006.41
422.99	4830.87
423.18	4926.83
423.37	5020.45
423.56	5057.90
423.75	4828.53
423.94	4858.95
424.13	4741.93
424.32	4704.48
424.50	5107.05
424.69	5125.77
424.88	5184.29
425.07	4964.28
425.26	4947.89
425.45	5078.96
425.64	4938.53
425.83	5018.11
426.01	5111.73
426.20	5130.45
426.39	5090.67
426.58	4971.30
426.77	5158.54
426.96	5123.43
427.15	5167.90
427.33	5203.01
427.52	5142.16
427.71	5193.65
427.90	5156.20
428.09	5444.09
428.28	5313.02
428.46	5355.15
428.65	5432.38
428.84	5647.71
429.03	5533.03
429.22	5483.88
429.40	5493.24
429.59	5514.30
429.78	5327.06
429.97	5195.99
430.16	5413.66
430.34	5563.45
430.53	5762.40
430.72	5748.36
430.91	5631.33
431.10	5685.16
431.28	5654.73
431.47	5748.36
431.66	5746.02
431.85	5872.40
432.03	5966.03
432.22	5970.71
432.41	5987.09
432.60	6052.63
432.79	6015.18
432.97	6045.60
433.16	6003.47
433.35	5944.96
433.54	6043.26
433.72	6029.22
433.91	6204.76
434.10	6218.80
434.28	6122.84
434.47	6239.87
434.66	6389.66
434.85	6452.86
435.03	6338.17
435.22	6132.20
435.41	6387.32
435.59	6394.34
435.78	6359.24
435.97	6389.66
436.16	6492.65
436.34	6436.47
436.53	6569.88
436.72	6665.85
436.90	6750.10
437.09	6663.51
437.28	6586.27
437.46	6668.19
437.65	6715.00
437.84	6775.85
438.02	6719.68
438.21	6836.70
438.40	6803.94
438.58	7014.59
438.77	7007.56
438.96	6909.26
439.14	7293.11
439.33	7126.93
439.52	7169.06
439.70	7246.30
439.89	7321.20
440.08	7379.71
440.26	7365.67
440.45	7431.20
440.63	7487.37
440.82	7576.31
441.01	7543.55
441.19	7555.25
441.38	7707.38
441.57	7859.52
441.75	7801.01
441.94	7999.95
442.12	7906.33
442.31	8177.83
442.50	8142.72
442.68	8102.93
442.87	8098.25
443.05	8149.75
443.24	8140.38
443.43	8053.78
443.61	8194.22
443.80	8458.70
443.98	8142.72
444.17	7838.45
444.35	8257.41
444.54	8344.01
444.73	8224.64
444.91	8273.79
445.10	8411.89
445.28	8461.04
445.47	8358.05
445.65	8489.12
445.84	8362.73
446.02	8498.49
446.21	8236.35
446.39	8428.27
446.58	8327.63
446.77	8514.87
446.95	8238.69
447.14	8594.45
447.32	8725.52
447.51	8580.40
447.69	8435.29
447.88	8510.19
448.06	8713.81
448.25	8315.92
448.43	8777.01
448.62	8854.25
448.80	8634.24
448.99	8730.20
449.17	8894.04
449.36	8737.22
449.54	8879.99
449.73	8786.37
449.91	9121.07
450.10	8957.23
450.28	9067.24
450.46	9160.86
450.65	9092.98
450.83	8929.14
451.02	9001.70
451.20	9212.35
451.39	9200.65
451.57	9432.36
451.76	9102.34
451.94	9217.03
452.13	9355.12
452.31	9455.76
452.49	9383.21
452.68	9474.49
452.86	9380.87
453.05	9387.89
453.23	9540.02
453.42	9380.87
453.60	9460.45
453.78	9488.53
453.97	9404.27
454.15	9514.28
454.34	9671.09
454.52	9778.76
454.70	9767.06
454.89	9678.12
455.07	9841.95
455.26	9895.78
455.44	10029.20
455.62	9949.62
455.81	10157.92
455.99	10073.67
456.17	10080.69
456.36	10171.97
456.54	10242.18
456.73	10637.73
456.91	10471.56
457.09	10438.79
457.28	10579.22
457.46	10534.75
457.64	10417.72
457.83	10593.26
458.01	10335.81
458.19	10836.68
458.38	10752.42
458.56	10820.30
458.74	10913.92
458.93	10644.76
459.11	10740.72
459.29	10684.55
459.48	10862.43
459.66	10649.44
459.84	10913.92
460.03	11351.60
460.21	10899.87
460.39	11002.86
460.57	11122.23
460.76	11227.55
460.94	11236.91
461.12	11337.56
461.31	11222.87
461.49	11145.63
461.67	11459.26
461.85	11398.41
462.04	11246.27
462.22	11737.79
462.40	11700.34
462.59	11648.85
462.77	11609.06
462.95	11829.07
463.13	11658.21
463.32	11702.68
463.50	11838.43
463.68	11880.56
463.86	11651.19
464.05	11683.95
464.23	11831.41
464.41	11800.98
464.59	11742.47
464.78	12140.36
464.96	12011.63
465.14	11939.07
465.32	12072.48
465.50	12060.78
465.69	12301.86
465.87	12259.73
466.05	12224.62
466.23	12145.04
466.41	12526.55
466.60	12629.53
466.78	12187.17
466.96	12374.41
467.14	12360.37
467.32	12461.01
467.51	12875.29
467.69	12348.67
467.87	12472.71
468.05	12807.41
468.23	12423.56
468.41	12503.14
468.60	12603.78
468.78	12807.41
468.96	12837.84
469.14	12917.42
469.32	13116.36
469.50	12711.45
469.69	13107.00
469.87	13081.25
470.05	13172.54
470.23	13160.83
470.41	13132.75
470.59	13406.59
470.77	13111.68
470.95	13343.39
471.14	13589.15
471.32	13242.75
471.50	13745.97
471.68	13811.50
471.86	13661.71
472.04	13851.29
472.22	14090.02
472.40	13900.44
472.58	14080.66
472.77	13949.59
472.95	14071.30
473.13	14534.73
473.31	14375.57
473.49	14223.44
473.67	14305.35
473.85	14434.08
474.03	14965.39
474.21	14572.18
474.39	14675.16
474.57	14841.34
474.75	14958.36
474.93	15056.67
475.12	15037.94
475.30	15489.67
475.48	14981.77
475.66	15496.69
475.84	15293.06
476.02	15482.64
476.20	15496.69
476.38	15796.28
476.56	16166.08
476.74	16105.23
476.92	15915.64
477.10	15936.71
477.28	16180.12
477.46	16559.29
477.64	16713.77
477.82	16807.39
478.00	17055.48
478.18	16950.16
478.36	17156.13
478.54	17418.27
478.72	17675.73
478.90	17455.72
479.08	17469.76
479.26	17916.80
479.44	17954.25
479.62	17841.90
479.80	18281.92
479.98	18317.03
480.16	18698.54
480.34	18438.74
480.52	18743.01
480.70	18728.97
480.88	18740.67
481.06	19157.28
481.24	18700.88
481.41	19538.79
481.59	19491.98
481.77	19552.84
481.95	19805.61
482.13	19943.70
482.31	19410.06
482.49	20463.30
482.67	20575.65
482.85	20807.36
483.03	20758.21
483.21	21022.69
483.39	21165.46
483.57	21235.68
483.74	21223.98
483.92	21348.03
484.10	21366.75
484.28	21979.97
484.46	21902.73
484.64	22427.01
484.82	22441.06
485.00	22735.96
485.18	22787.46
485.35	23264.92
485.53	22787.46
485.71	23087.04
485.89	23885.17
486.07	23388.97
486.25	23810.27
486.43	24030.28
486.61	24037.30
486.78	24128.58
486.96	24191.78
487.14	25032.03
487.32	24613.07
487.50	24830.74
487.68	25186.50
487.85	25504.82
488.03	25844.20
488.21	25963.56
488.39	26059.52
488.57	26333.37
488.75	26342.73
488.92	26583.80
489.10	26934.88
489.28	27021.48
489.46	27274.26
489.64	26925.52
489.81	27653.43
489.99	27709.60
490.17	27866.42
490.35	28690.29
490.53	28308.78
490.70	28566.24
490.88	28589.64
491.06	28704.33
491.24	29191.16
491.41	29553.94
491.59	29174.78
491.77	29610.12
491.95	29713.10
492.13	29795.02
492.30	29951.84
492.48	30239.72
492.66	30607.19
492.84	30555.69
493.01	30789.75
493.19	31316.37
493.37	31356.16
493.54	31686.17
493.72	31587.87
493.90	31594.89
494.08	31955.33
494.25	32084.06
494.43	32173.00
494.61	32652.81
494.79	32453.87
494.96	32797.93
495.14	32936.02
495.32	32980.49
495.49	33074.11
495.67	33390.08
495.85	33727.12
496.02	34410.56
496.20	34089.90
496.38	34015.01
496.55	34192.89
496.73	35175.91
496.91	34625.89
497.09	35309.32
497.26	35072.93
497.44	34976.97
497.62	35398.26
497.79	36130.85
497.97	35374.86
498.14	36325.11
498.32	36053.61
498.50	36290.01
498.67	36748.75
498.85	36788.54
499.03	36713.64
499.20	36924.29
499.38	37376.01
499.56	37708.37
499.73	37394.74
499.91	37317.50
500.08	37830.08
500.26	37219.20
500.44	37556.24
500.61	38206.90
500.79	38094.56
500.97	38384.79
501.14	38501.81
501.32	38677.35
501.49	38878.64
501.67	38845.87
501.84	39028.43
502.02	39384.19
502.20	39023.75
502.37	39395.90
502.55	39510.58
502.72	39510.58
502.90	40058.27
503.07	39758.68
503.25	40280.62
503.43	39854.64
503.60	40346.15
503.78	40545.10
503.95	40437.44
504.13	41186.41
504.30	40978.10
504.48	40975.76
504.65	41275.35
504.83	41591.32
505.01	41397.06
505.18	41579.62
505.36	41785.58
505.53	41322.16
505.71	41687.28
505.88	42057.09
506.06	41816.01
506.23	42047.72
506.41	41895.59
506.58	42302.84
506.76	42590.73
506.93	42845.85
507.11	43051.81
507.28	42981.60
507.46	42878.61
507.63	43115.01
507.81	43370.13
507.98	43412.26
508.16	43629.93
508.33	43318.64
508.50	43934.20
508.68	43985.69
508.85	44271.23
509.03	44268.89
509.20	44135.48
509.38	44631.68
509.55	44446.77
509.73	44788.49
509.90	44535.71
510.08	44877.43
510.25	44828.28
510.42	44856.37
510.60	45741.09
510.77	45661.51
510.95	45462.57
511.12	45607.68
511.30	45125.53
511.47	45584.27
511.64	45752.79
511.82	46213.88
511.99	45724.71
512.17	45963.44
512.34	46230.26
512.51	46630.49
512.69	46527.51
512.86	46738.16
513.04	46759.22
513.21	46831.78
513.38	47395.85
513.56	47203.92
513.73	47075.19
513.90	47227.33
514.08	47068.17
514.25	47445.00
514.43	47730.54
514.60	47477.77
514.77	47665.01
514.95	47952.90
515.12	48048.86
515.29	47922.47
515.47	48030.13
515.64	48449.09
515.81	48334.40
515.99	48491.22
516.16	48514.62
516.33	48727.61
516.51	49181.68
516.68	48744.00
516.85	48715.91
517.03	48821.23
517.20	49083.37
517.37	49155.93
517.54	49605.31
517.72	49041.24
517.89	49560.84
518.06	49556.16
518.24	49741.06
518.41	49492.97
518.58	49888.52
518.75	49359.56
518.93	49935.33
519.10	49722.34
519.27	50113.21
519.45	50220.87
519.62	50145.98
519.79	50267.69
519.96	50183.43
520.14	50141.30
520.31	50209.17
520.48	50286.41
520.65	50635.15
520.83	50822.39
521.00	50862.18
521.17	50803.67
521.34	50679.62
521.52	51014.32
521.69	51145.39
521.86	51246.03
522.03	51473.06
522.20	51554.98
522.38	51690.73
522.55	51597.11
522.72	51437.95
522.89	51746.90
523.07	51760.95
523.24	51657.96
523.41	51828.82
523.58	51667.33
523.75	52231.40
523.92	51894.36
524.10	51929.47
524.27	52247.78
524.44	52030.11
524.61	51927.13
524.78	52425.66
524.96	52299.27
525.13	52395.23
525.30	52743.97
525.47	52713.55
525.64	52610.56
525.81	52947.60
525.98	52868.02
526.16	52474.81
526.33	52886.74
526.50	53188.67
526.67	52959.30
526.84	53034.20
527.01	53244.85
527.18	52924.19
527.36	52994.41
527.53	53263.57
527.70	53530.39
527.87	53556.14
528.04	53275.27
528.21	53778.49
528.38	53336.13
528.55	53776.15
528.72	53556.14
528.89	53741.04
529.07	53516.35
529.24	53801.89
529.41	53848.71
529.58	53670.82
529.75	53820.62
529.92	54167.02
530.09	53813.60
530.26	54031.27
530.43	54255.96
530.60	54019.56
530.77	53991.48
530.94	54251.28
531.11	54078.08
531.28	54473.63
531.46	54506.40
531.63	54358.94
531.80	54295.75
531.97	54536.82
532.14	54834.07
532.31	54611.72
532.48	54834.07
532.65	54892.58
532.82	54600.02
532.99	54892.58
533.16	54815.35
533.33	54892.58
533.50	55379.42
533.67	54810.67
533.84	54857.48
534.01	54986.21
534.18	54948.76
534.35	55304.52
534.52	55185.15
534.69	55381.76
534.86	55121.96
535.03	55276.43
535.20	55421.55
535.37	55641.56
535.54	55374.73
535.71	55231.96
535.88	55540.91
536.05	55700.07
536.22	55554.96
536.38	55821.78
536.55	55632.19
536.72	55707.09
536.89	55681.34
537.06	55842.84
537.23	55920.08
537.40	55627.51
537.57	55770.28
537.74	55753.90
537.91	56102.64
538.08	56205.62
538.25	55807.73
538.42	56175.20
538.59	56486.49
538.75	56097.96
538.92	56292.22
539.09	56296.91
539.26	56442.02
539.43	56233.71
539.60	56261.80
539.77	56439.68
539.94	56367.12
540.11	56582.45
540.28	56603.52
540.44	56633.94
540.61	56610.54
540.78	56411.59
540.95	56435.00
541.12	56612.88
541.29	56495.85
541.46	56545.00
541.62	56839.91
541.79	56704.16
541.96	56470.11
542.13	56816.50
542.30	56891.40
542.47	56970.98
542.63	57139.50
542.80	57228.44
542.97	57134.82
543.14	57378.23
543.31	57546.75
543.48	57277.59
543.64	57710.59
543.81	57663.78
543.98	57511.64
544.15	57588.88
544.32	57869.75
544.48	57513.98
544.65	57535.05
544.82	57607.61
544.99	57209.71
545.16	57766.76
545.32	57492.92
545.49	57743.36
545.66	57792.51
545.83	57776.12
546.00	57890.81
546.16	57862.72
546.33	57921.24
546.50	57764.42
546.67	57853.36
546.83	57687.18
547.00	57982.09
547.17	57876.77
547.34	57965.71
547.50	58145.93
547.67	58145.93
547.84	58379.98
548.00	58152.95
548.17	58471.26
548.34	58159.97
548.51	58356.58
548.67	58410.41
548.84	58265.30
549.01	58295.72
549.18	58255.93
549.34	58211.46
549.51	58536.80
549.68	58494.67
549.84	58731.06
550.01	58719.36
550.18	58557.86
550.34	58644.46
550.51	58574.25
550.68	58361.26
550.84	58480.63
551.01	58766.17
551.18	58766.17
551.34	58595.31
551.51	58752.13
551.68	58857.45
551.84	58553.18
552.01	58522.76
552.18	58922.99
552.34	58852.77
552.51	58852.77
552.68	58642.12
552.84	58745.11
553.01	59112.57
553.18	59164.06
553.34	58925.33
553.51	58995.54
553.67	58993.20
553.84	59049.38
554.01	59079.80
554.17	59063.42
554.34	59262.36
554.51	59093.85
554.67	59145.34
554.84	59112.57
555.00	59178.10
555.17	59063.42
555.33	59208.53
555.50	59269.39
555.67	59245.98
555.83	59285.77
556.00	59423.86
556.16	59704.73
556.33	59435.56
556.50	59220.23
556.66	59536.21
556.83	59285.77
556.99	59620.47
557.16	59587.70
557.32	59540.89
557.49	59884.95
557.65	59618.13
557.82	59461.31
557.98	59580.68
558.15	59501.10
558.32	59576.00
558.48	59639.19
558.65	59690.68
558.81	59487.06
558.98	59482.37
559.14	59868.56
559.31	59908.35
559.47	60060.49
559.64	59948.14
559.80	59941.12
559.97	59887.29
560.13	59803.03
560.30	59962.18
560.46	59884.95
560.63	60053.47
560.79	60081.55
560.96	60067.51
561.12	60034.74
561.29	59847.50
561.45	60083.89
561.61	60016.02
561.78	59913.03
561.94	59903.67
562.11	60060.49
562.27	60046.44
562.44	60034.74
562.60	60128.36
562.77	60072.19
562.93	59838.14
563.10	60186.88
563.26	60041.76
563.42	60147.09
563.59	60219.64
563.75	60149.43
563.92	60156.45
564.08	60065.17
564.24	60320.29
564.41	60044.10
564.57	60179.85
564.74	60104.96
564.90	60140.07
565.07	60292.20
565.23	60310.92
565.39	60238.37
565.56	60418.59
565.72	60446.68
565.88	60547.32
566.05	60250.07
566.21	60278.16
566.38	60484.12
566.54	60474.76
566.70	60275.82
566.87	60493.49
567.03	60191.56
567.19	60547.32
567.36	60467.74
567.52	60381.14
567.68	60491.15
567.85	60399.86
568.01	60612.85
568.17	60596.47
568.34	60537.96
568.50	60355.39
568.66	60519.23
568.83	60629.24
568.99	60327.31
569.15	60587.11
569.32	60441.99
569.48	60491.15
569.64	60605.83
569.81	60540.30
569.97	60474.76
570.13	60708.82
570.30	60343.69
570.46	60687.75
570.62	60769.67
570.78	60683.07
570.95	60772.01
571.11	60659.66
571.27	60343.69
571.43	60617.53
571.60	60715.84
571.76	60631.58
571.92	60669.03
572.09	60617.53
572.25	60933.51
572.41	60722.86
572.57	60729.88
572.74	60980.32
572.90	60683.07
573.06	60666.69
573.22	60844.57
573.38	60823.50
573.55	60893.72
573.71	60900.74
573.87	60753.29
574.03	60722.86
574.20	60858.61
574.36	60743.92
574.52	60795.42
574.68	60753.29
574.84	60896.06
575.01	60654.98
575.17	60867.97
575.33	60757.97
575.49	60722.86
575.65	61010.74
575.82	60994.36
575.98	61024.79
576.14	60992.02
576.30	60994.36
576.46	60858.61
576.62	60949.89
576.79	60985.00
576.95	60767.33
577.11	60882.02
577.27	60982.66
577.43	60893.72
577.59	61064.58
577.75	60704.13
577.92	60945.21
578.08	60800.10
578.24	61134.79
578.40	61153.52
578.56	61036.49
578.72	60889.04
578.88	60924.14
579.04	61015.43
579.21	61095.00
579.37	61268.20
579.53	61158.20
579.69	60877.33
579.85	60926.49
580.01	61240.12
580.17	60846.91
580.33	61270.54
580.49	61118.41
580.65	61022.45
580.82	60977.98
580.98	60867.97
581.14	60870.31
581.30	61034.15
581.46	60954.57
581.62	61001.38
581.78	60992.02
581.94	61064.58
582.10	61095.00
582.26	61048.19
582.42	60956.91
582.58	60982.66
582.74	60985.00
582.90	60907.76
583.06	61073.94
583.22	60910.10
583.38	61038.83
583.54	61116.07
583.70	61015.43
583.86	60942.87
584.02	60975.64
584.18	61193.31
584.34	61062.24
584.50	61179.26
584.66	60800.10
584.82	60933.51
584.98	61165.22
585.14	61230.75
585.30	60994.36
585.46	61073.94
585.62	61378.21
585.78	61085.64
585.94	61106.71
586.10	61193.31
586.26	61202.67
586.42	61216.71
586.58	61212.03
586.74	61307.99
586.90	61066.92
587.06	61045.85
587.22	61286.93
587.38	61179.26
587.54	61193.31
587.70	61443.74
587.86	61375.87
588.02	61174.58
588.18	61242.46
588.34	61228.41
588.49	61146.50
