SpectraSuite Data File
++++++++++++++++++++++++++++++++++++
Date: Fri Oct 25 11:33:37 EDT 2013
User: price-jones
Dark Spectrum Present: No
Reference Spectrum Present: No
Number of Sampled Component Spectra: 1
Spectrometers: USB2+H05261
Integration Time (usec): 100000 (USB2+H05261)
Spectra Averaged: 1 (USB2+H05261)
Boxcar Smoothing: 0 (USB2+H05261)
Correct for Electrical Dark: No (USB2+H05261)
Strobe/Lamp Enabled: No (USB2+H05261)
Correct for Detector Non-linearity: No (USB2+H05261)
Correct for Stray Light: No (USB2+H05261)
Number of Pixels in Processed Spectrum: 2048
>>>>>Begin Processed Spectral Data<<<<<
365.73	292.57
365.92	292.57
366.12	292.57
366.32	236.39
366.52	149.79
366.72	173.20
366.91	212.99
367.11	152.13
367.31	128.73
367.51	177.88
367.70	159.16
367.90	203.63
368.10	161.50
368.30	142.77
368.49	191.92
368.69	220.01
368.89	205.97
369.09	208.31
369.28	112.35
369.48	191.92
369.68	271.50
369.87	306.61
370.07	224.69
370.27	283.20
370.47	339.38
370.66	482.15
370.86	430.66
371.06	550.03
371.25	566.41
371.45	578.11
371.65	491.51
371.84	561.73
372.04	519.60
372.24	664.71
372.44	550.03
372.63	578.11
372.83	592.16
373.03	634.29
373.22	566.41
373.42	627.26
373.62	624.92
373.81	561.73
374.01	683.44
374.21	669.39
374.40	608.54
374.60	634.29
374.79	662.37
374.99	624.92
375.19	702.16
375.38	660.03
375.58	678.76
375.78	667.05
375.97	629.60
376.17	725.57
376.37	711.52
376.56	690.46
376.76	601.52
376.95	631.94
377.15	702.16
377.35	737.27
377.54	688.12
377.74	657.69
377.93	744.29
378.13	697.48
378.33	713.86
378.52	657.69
378.72	755.99
378.91	737.27
379.11	692.80
379.31	732.59
379.50	655.35
379.70	695.14
379.89	718.54
380.09	765.36
380.28	751.31
380.48	732.59
380.68	734.93
380.87	674.07
381.07	720.88
381.26	734.93
381.46	767.70
381.65	755.99
381.85	809.83
382.04	791.10
382.24	800.46
382.43	812.17
382.63	770.04
382.83	823.87
383.02	809.83
383.22	833.23
383.41	858.98
383.61	760.67
383.80	835.57
384.00	767.70
384.19	809.83
384.39	786.42
384.58	805.14
384.78	924.51
384.97	786.42
385.17	814.51
385.36	868.34
385.56	947.92
385.75	891.74
385.95	830.89
386.14	861.32
386.34	802.80
386.53	800.46
386.72	905.79
386.92	887.06
387.11	945.58
387.31	894.08
387.50	898.77
387.70	889.40
387.89	910.47
388.09	917.49
388.28	887.06
388.48	894.08
388.67	926.85
388.86	919.83
389.06	938.55
389.25	936.21
389.45	889.40
389.64	929.19
389.84	973.66
390.03	954.94
390.22	910.47
390.42	992.39
390.61	1022.81
390.81	936.21
391.00	947.92
391.19	964.30
391.39	987.71
391.58	1004.09
391.78	1034.52
391.97	1008.77
392.16	898.77
392.36	1057.92
392.55	1081.33
392.75	1097.71
392.94	1013.45
393.13	1093.03
393.33	1039.20
393.52	1090.69
393.71	1067.28
393.91	1125.80
394.10	1069.62
394.29	1083.67
394.49	1093.03
394.68	1093.03
394.88	1163.25
395.07	1102.39
395.26	1137.50
395.46	1128.14
395.65	1289.64
395.84	1163.25
396.04	1238.14
396.23	1242.82
396.42	1165.59
396.62	1132.82
396.81	1217.08
397.00	1196.01
397.19	1280.27
397.39	1294.32
397.58	1231.12
397.77	1139.84
397.97	1308.36
398.16	1315.38
398.35	1242.82
398.55	1280.27
398.74	1306.02
398.93	1338.79
399.12	1301.34
399.32	1345.81
399.51	1366.87
399.70	1383.26
399.90	1345.81
400.09	1409.00
400.28	1390.28
400.47	1390.28
400.67	1453.47
400.86	1376.24
401.05	1406.66
401.24	1425.39
401.44	1413.68
401.63	1523.69
401.82	1455.81
402.01	1460.49
402.21	1390.28
402.40	1451.13
402.59	1446.45
402.78	1516.67
402.97	1448.79
403.17	1629.01
403.36	1542.41
403.55	1575.18
403.74	1589.22
403.93	1561.14
404.13	1598.59
404.32	1605.61
404.51	1575.18
404.70	1589.22
404.89	1671.14
405.09	1689.87
405.28	1652.42
405.47	1650.08
405.66	1621.99
405.85	1692.21
406.05	1750.72
406.24	1764.76
406.43	1736.68
406.62	1715.61
406.81	1856.04
407.00	1797.53
407.20	1811.57
407.39	1806.89
407.58	1846.68
407.77	1785.83
407.96	1973.07
408.15	1907.54
408.34	1795.19
408.54	1902.86
408.73	1982.43
408.92	1937.96
409.11	1902.86
409.30	1928.60
409.49	2022.22
409.68	2010.52
409.87	2139.25
410.07	2097.12
410.26	2005.84
410.45	2076.06
410.64	2031.58
410.83	2057.33
411.02	2160.31
411.21	2204.78
411.40	2157.97
411.59	2345.22
411.78	2214.15
411.98	2026.90
412.17	2230.53
412.36	2237.55
412.55	2284.36
412.74	2284.36
412.93	2326.49
413.12	2260.96
413.31	2424.80
413.50	2427.14
413.69	2415.43
413.88	2448.20
414.07	2546.50
414.26	2471.61
414.45	2525.44
414.64	2572.25
414.83	2523.10
415.02	2628.42
415.22	2593.31
415.41	2651.83
415.60	2612.04
415.79	2778.22
415.98	2754.81
416.17	2738.43
416.36	2696.30
416.55	2642.46
416.74	2792.26
416.93	2754.81
417.12	2684.59
417.31	2832.05
417.50	2876.52
417.69	2984.18
417.88	2920.99
418.07	2991.20
418.26	2857.79
418.45	3026.31
418.64	3178.45
418.83	3049.72
419.02	2958.44
419.21	2991.20
419.39	3246.32
419.58	3098.87
419.77	3077.80
419.96	3028.65
420.15	3089.51
420.34	3138.66
420.53	3133.98
420.72	3236.96
420.91	3272.07
421.10	3265.05
421.29	3246.32
421.48	3164.40
421.67	3342.28
421.86	3412.50
422.05	3400.80
422.24	3318.88
422.43	3302.50
422.61	3445.27
422.80	3356.33
422.99	3417.18
423.18	3459.31
423.37	3480.38
423.56	3426.54
423.75	3349.31
423.94	3410.16
424.13	3267.39
424.32	3344.63
424.50	3426.54
424.69	3520.17
424.88	3534.21
425.07	3496.76
425.26	3363.35
425.45	3456.97
425.64	3368.03
425.83	3349.31
426.01	3459.31
426.20	3407.82
426.39	3463.99
426.58	3501.44
426.77	3426.54
426.96	3562.30
427.15	3658.26
427.33	3595.06
427.52	3658.26
427.71	3611.45
427.90	3616.13
428.09	3623.15
428.28	3742.52
428.46	3627.83
428.65	3728.47
428.84	3756.56
429.03	3850.18
429.22	3730.81
429.40	3838.48
429.59	3754.22
429.78	3646.55
429.97	3604.42
430.16	3754.22
430.34	3892.31
430.53	3784.65
430.72	3962.53
430.91	3932.10
431.10	3904.01
431.28	3948.48
431.47	4112.32
431.66	4065.51
431.85	3920.40
432.03	4004.66
432.22	4112.32
432.41	4016.36
432.60	4112.32
432.79	4093.60
432.97	4117.00
433.16	3971.89
433.35	4004.66
433.54	4212.96
433.72	4154.45
433.91	4236.37
434.10	4208.28
434.28	4212.96
434.47	4266.80
434.66	4299.56
434.85	4344.03
435.03	4411.91
435.22	4367.44
435.41	4381.48
435.59	4374.46
435.78	4440.00
435.97	4322.97
436.16	4376.80
436.34	4344.03
436.53	4451.70
436.72	4503.19
436.90	4489.15
437.09	4702.14
437.28	4297.22
437.46	4554.68
437.65	4526.60
437.84	4685.75
438.02	4484.47
438.21	4648.30
438.40	4521.92
438.58	4723.20
438.77	4896.40
438.96	4786.40
439.14	4964.28
439.33	4933.85
439.52	4901.08
439.70	4748.95
439.89	5116.41
440.08	5034.49
440.26	5022.79
440.45	5018.11
440.63	5067.26
440.82	5011.09
441.01	5146.84
441.19	5294.29
441.38	5296.63
441.57	5149.18
441.75	5217.05
441.94	5458.13
442.12	5441.75
442.31	5434.72
442.50	5448.77
442.68	5411.32
442.87	5479.19
443.05	5500.26
443.24	5708.57
443.43	5614.95
443.61	5582.18
443.80	5713.25
443.98	5406.64
444.17	5308.34
444.35	5376.21
444.54	5708.57
444.73	5767.08
444.91	5495.58
445.10	5603.24
445.28	5504.94
445.47	5488.56
445.65	5633.67
445.84	5713.25
446.02	5626.65
446.21	5720.27
446.39	5839.64
446.58	5788.14
446.77	5694.52
446.95	5785.80
447.14	5746.02
447.32	5799.85
447.51	5783.46
447.69	5706.23
447.88	5863.04
448.06	5741.33
448.25	5804.53
448.43	5790.49
448.62	5846.66
448.80	5802.19
448.99	5755.38
449.17	5907.51
449.36	5717.93
449.54	6022.20
449.73	5996.45
449.91	6216.46
450.10	5991.77
450.28	6120.50
450.46	6202.42
450.65	6083.05
450.83	6169.65
451.02	6169.65
451.20	6129.86
451.39	6200.08
451.57	6267.95
451.76	6265.61
451.94	6244.55
452.13	6260.93
452.31	6328.81
452.49	6450.52
452.68	6321.79
452.86	6169.65
453.05	6459.88
453.23	6555.84
453.42	6396.68
453.60	6277.32
453.78	6513.71
453.97	6335.83
454.15	6494.99
454.34	6406.05
454.52	6560.52
454.70	6562.86
454.89	6710.32
455.07	6642.44
455.26	6787.55
455.44	6731.38
455.62	6525.41
455.81	6736.06
455.99	6672.87
456.17	6771.17
456.36	6827.34
456.54	6923.30
456.73	6771.17
456.91	7129.27
457.09	7140.97
457.28	7054.37
457.46	7016.93
457.64	7021.61
457.83	7007.56
458.01	6949.05
458.19	7302.47
458.38	7009.90
458.56	7206.51
458.74	7162.04
458.93	7307.15
459.11	7325.88
459.29	7131.61
459.48	7384.39
459.66	7255.66
459.84	7262.68
460.03	7524.82
460.21	7398.43
460.39	7382.05
460.57	7356.30
460.76	7506.10
460.94	7531.84
461.12	7396.09
461.31	7492.05
461.49	7503.76
461.67	7569.29
461.85	7791.64
462.04	7651.21
462.22	7988.25
462.40	7597.38
462.59	7875.90
462.77	7730.79
462.95	7831.43
463.13	7695.68
463.32	7815.05
463.50	7833.77
463.68	7943.78
463.86	7946.12
464.05	7906.33
464.23	7852.50
464.41	8072.51
464.59	7817.39
464.78	8035.06
464.96	8018.68
465.14	7894.63
465.32	8039.74
465.50	8175.49
465.69	7934.42
465.87	8215.28
466.05	8084.21
466.23	8140.38
466.41	8114.64
466.60	8292.52
466.78	8257.41
466.96	8219.96
467.14	8182.51
467.32	8388.48
467.51	8400.18
467.69	7985.91
467.87	8334.65
468.05	8339.33
468.23	8374.44
468.41	8395.50
468.60	8243.37
468.78	8589.77
468.96	8482.10
469.14	8629.56
469.32	8702.11
469.50	8538.27
469.69	8903.40
469.87	8798.07
470.05	8622.53
470.23	8830.84
470.41	8842.54
470.59	9013.40
470.77	8809.78
470.95	8849.57
471.14	9069.58
471.32	9015.74
471.50	8980.64
471.68	9022.77
471.86	9193.62
472.04	9144.47
472.22	9497.89
472.40	9188.94
472.58	9202.99
472.77	9254.48
472.95	9394.91
473.13	9547.05
473.31	9263.84
473.49	9511.94
473.67	9610.24
473.85	9635.99
474.03	9694.50
474.21	9797.48
474.39	9736.63
474.57	9958.98
474.75	9865.36
474.93	9907.49
475.12	10040.90
475.30	9954.30
475.48	9982.38
475.66	10249.21
475.84	10186.01
476.02	10153.24
476.20	10216.44
476.38	10492.62
476.56	10640.08
476.74	10480.92
476.92	10410.70
477.10	10558.16
477.28	10843.70
477.46	10665.82
477.64	10719.65
477.82	11068.39
478.00	11274.36
478.18	11000.52
478.36	11243.93
478.54	11293.08
478.72	11534.16
478.90	11531.82
479.08	11782.26
479.26	11620.76
479.44	11564.59
479.62	11747.15
479.80	11850.13
479.98	12011.63
480.16	11957.80
480.34	12147.38
480.52	12358.03
480.70	12252.70
480.88	12119.29
481.06	12107.59
481.24	12610.81
481.41	12500.80
481.59	12744.22
481.77	12678.68
481.95	12730.17
482.13	12875.29
482.31	13004.02
482.49	13362.12
482.67	13338.71
482.85	13371.48
483.03	13605.53
483.21	13635.96
483.39	13713.20
483.57	13860.65
483.74	13575.11
483.92	13958.96
484.10	14090.02
484.28	14291.31
484.46	14295.99
484.64	14633.03
484.82	14471.53
485.00	14647.07
485.18	14853.04
485.35	15105.82
485.53	14829.63
485.71	15234.55
485.89	15590.31
486.07	14963.04
486.25	15421.79
486.43	15527.11
486.61	15627.76
486.78	15885.22
486.96	15934.37
487.14	15967.13
487.32	16231.62
487.50	16362.69
487.68	16580.36
487.85	16786.32
488.03	16898.67
488.21	17151.45
488.39	16802.71
488.57	17046.12
488.75	17226.34
488.92	17453.37
489.10	17659.34
489.28	17453.37
489.46	17839.56
489.64	17900.42
489.81	18249.16
489.99	18405.97
490.17	18026.81
490.35	18192.98
490.53	18295.97
490.70	18625.98
490.88	18609.60
491.06	18965.36
491.24	19019.19
491.41	19030.90
491.59	19033.24
491.77	19173.67
491.95	19389.00
492.13	19524.75
492.30	19885.19
492.48	19646.46
492.66	20004.56
492.84	19681.56
493.01	19920.30
493.19	20088.82
493.37	20329.89
493.54	20507.77
493.72	20716.08
493.90	20730.12
494.08	20585.01
494.25	21137.38
494.43	20821.41
494.61	21284.83
494.79	21469.73
494.96	21474.42
495.14	21429.94
495.32	21762.30
495.49	22080.61
495.67	22024.44
495.85	21738.90
496.02	22139.13
496.20	22291.26
496.38	22586.17
496.55	22080.61
496.73	22960.66
496.91	22590.85
497.09	22707.88
497.26	22874.06
497.44	22677.45
497.62	23009.81
497.79	23566.85
497.97	22937.25
498.14	23428.76
498.32	23550.47
498.50	23733.03
498.67	24334.55
498.85	23655.79
499.03	24147.31
499.20	23939.00
499.38	24346.25
499.56	24329.87
499.73	24334.55
499.91	24673.93
500.08	24683.29
500.26	24425.83
500.44	24856.49
500.61	24936.07
500.79	24608.39
500.97	25493.12
501.14	25418.22
501.32	25256.72
501.49	25106.93
501.67	25546.95
501.84	25429.92
502.02	25479.07
502.20	25900.37
502.37	25998.67
502.55	25638.23
502.72	26181.23
502.90	26345.07
503.07	25933.14
503.25	26352.09
503.43	26108.68
503.60	26426.99
503.78	26368.48
503.95	26319.32
504.13	26757.00
504.30	27253.20
504.48	26721.90
504.65	27028.51
504.83	26752.32
505.01	27131.49
505.18	27232.13
505.36	27300.01
505.53	27206.39
505.71	27438.10
505.88	27529.38
506.06	27475.55
506.23	27824.29
506.41	27290.65
506.58	27910.89
506.76	27744.71
506.93	27892.16
507.11	28201.11
507.28	28147.28
507.46	28149.62
507.63	28535.81
507.81	28465.60
507.98	28428.15
508.16	28362.61
508.33	28622.41
508.50	29046.05
508.68	28718.37
508.85	29020.30
509.03	28657.52
509.20	29305.85
509.38	29315.21
509.55	29446.28
509.73	29708.42
509.90	29181.80
510.08	29216.91
510.25	29369.04
510.42	29535.22
510.60	29942.47
510.77	29893.32
510.95	30127.38
511.12	30026.73
511.30	30000.99
511.47	30068.86
511.64	30068.86
511.82	30295.89
511.99	30057.16
512.17	30471.43
512.34	30927.84
512.51	30820.17
512.69	31012.10
512.86	30314.62
513.04	30728.89
513.21	31033.16
513.38	31220.41
513.56	31421.69
513.73	31349.14
513.90	31213.38
514.08	31030.82
514.25	31732.98
514.43	31707.24
514.60	31550.42
514.77	31606.59
514.95	31821.92
515.12	31615.96
515.29	31915.54
515.47	32058.32
515.64	32100.45
515.81	32261.94
515.99	32381.31
516.16	32446.85
516.33	32151.94
516.51	32652.81
516.68	32165.98
516.85	32727.71
517.03	32914.95
517.20	32940.70
517.37	32643.45
517.54	32531.11
517.72	33015.60
517.89	32929.00
518.06	33209.86
518.24	33034.32
518.41	33064.75
518.58	33057.73
518.75	33050.70
518.93	33516.47
519.10	33598.39
519.27	33584.35
519.45	33387.74
519.62	33879.25
519.79	33579.67
519.96	33912.02
520.14	33888.62
520.31	33546.90
520.48	34230.33
520.65	34150.76
520.83	34366.09
521.00	34749.93
521.17	34244.38
521.34	34274.80
521.52	34508.86
521.69	34403.53
521.86	34958.24
522.03	35091.65
522.20	35180.59
522.38	34920.79
522.55	34934.84
522.72	35009.73
522.89	35367.84
523.07	35491.88
523.24	35140.80
523.41	35604.23
523.58	35248.47
523.75	35571.46
523.92	35393.58
524.10	35730.62
524.27	35833.60
524.44	35864.03
524.61	36051.27
524.78	36062.97
524.96	35955.31
525.13	36196.38
525.30	36175.32
525.47	36402.35
525.64	35974.03
525.81	36711.30
525.98	36346.18
526.16	36297.03
526.33	36318.09
526.50	36507.68
526.67	36423.42
526.84	36706.62
527.01	36648.11
527.18	37127.92
527.36	36982.80
527.53	37146.64
527.70	37343.25
527.87	37240.26
528.04	37062.38
528.21	36811.95
528.38	37223.88
528.55	37886.25
528.72	37219.20
528.89	37156.00
529.07	37067.06
529.24	37214.52
529.41	37745.82
529.58	37584.32
529.75	37198.13
529.92	37855.82
530.09	37361.97
530.26	38031.36
530.43	37773.91
530.60	37659.22
530.77	37638.15
530.94	37881.57
531.11	37853.48
531.28	38038.39
531.46	38356.70
531.63	38211.59
531.80	38223.29
531.97	38340.32
532.14	38141.37
532.31	38216.27
532.48	38588.41
532.65	38625.86
532.82	38323.93
532.99	38644.59
533.16	38576.71
533.33	38838.85
533.50	38780.34
533.67	38990.98
533.84	38745.23
534.01	38965.24
534.18	38848.21
534.35	39480.16
534.52	39136.10
534.69	39555.05
534.86	39573.78
535.03	39112.69
535.20	39480.16
535.37	39676.76
535.54	39433.35
535.71	39440.37
535.88	39798.47
536.05	39899.11
536.22	39990.39
536.38	39864.00
536.55	40009.12
536.72	39796.13
536.89	39585.48
537.06	40076.99
537.23	40327.43
537.40	39864.00
537.57	39454.41
537.74	40222.11
537.91	40507.65
538.08	39854.64
538.25	39880.39
538.42	39913.16
538.59	40254.87
538.75	40498.29
538.92	40713.62
539.09	40875.12
539.26	40493.61
539.43	40299.34
539.60	40315.73
539.77	41076.40
539.94	40697.24
540.11	40919.59
540.28	40999.16
540.44	40715.96
540.61	41352.58
540.78	40844.69
540.95	41013.21
541.12	41364.29
541.29	41060.02
541.46	40858.73
541.62	41343.22
541.79	41301.09
541.96	41160.66
542.13	40266.58
542.30	41380.67
542.47	41289.39
542.63	41191.09
542.80	42185.82
542.97	42181.13
543.14	42202.20
543.31	42192.84
543.48	42155.39
543.64	42564.98
543.81	41727.07
543.98	42452.64
544.15	42026.66
544.32	42321.57
544.48	42356.67
544.65	42431.57
544.82	42244.33
544.99	41958.78
545.16	42267.73
545.32	42249.01
545.49	42295.82
545.66	42862.23
545.83	42899.68
546.00	43084.58
546.16	42607.11
546.33	42550.94
546.50	42466.68
546.67	42770.95
546.83	42127.30
547.00	42515.83
547.17	42590.73
547.34	42625.84
547.50	42543.92
547.67	42944.15
547.84	42997.98
548.00	43260.12
548.17	43533.96
548.34	42784.99
548.51	43337.36
548.67	43042.45
548.84	43632.27
549.01	43122.03
549.18	43096.28
549.34	43686.10
549.51	43746.95
549.68	43351.40
549.84	42960.53
550.01	43814.83
550.18	43143.09
550.34	43356.08
550.51	43358.42
550.68	43793.76
550.84	43421.62
551.01	44133.14
551.18	43608.86
551.34	43845.26
551.51	43796.10
551.68	44144.84
551.84	43917.81
552.01	43636.95
552.18	43964.62
552.34	43615.88
552.51	43880.36
552.68	43966.96
552.84	44336.77
553.01	44233.78
553.18	44432.73
553.34	44189.31
553.51	44327.41
553.67	44135.48
553.84	44767.43
554.01	44531.03
554.17	44357.83
554.34	44938.29
554.51	44048.88
554.67	44907.86
554.84	44690.19
555.00	44758.06
555.17	44673.81
555.33	44910.20
555.50	44704.23
555.67	44856.37
555.83	44477.20
556.00	44708.91
556.16	45553.85
556.33	44432.73
556.50	44886.79
556.66	44830.62
556.83	44793.17
556.99	45240.21
557.16	45448.52
557.32	45680.24
557.49	45460.23
557.65	45127.87
557.82	44945.31
557.98	45495.33
558.15	45303.41
558.32	45385.33
558.48	44914.88
558.65	45153.62
558.81	45200.43
558.98	44938.29
559.14	45745.77
559.31	45027.23
559.47	45523.42
559.64	45663.85
559.80	45584.27
559.97	45769.18
560.13	45319.79
560.30	45289.37
560.46	45603.00
560.63	45478.95
560.79	45689.60
560.96	45808.96
561.12	45743.43
561.29	45937.69
561.45	45970.46
561.61	45776.20
561.78	45778.54
561.94	45720.02
562.11	45375.97
562.27	46127.28
562.44	45682.58
562.60	45867.48
562.77	46148.34
562.93	45631.08
563.10	46043.02
563.26	45848.75
563.42	46220.90
563.59	45804.28
563.75	46171.75
563.92	46124.94
564.08	45925.99
564.24	45989.19
564.41	45883.86
564.57	46026.63
564.74	46124.94
564.90	45539.80
565.07	46220.90
565.23	45853.44
565.39	46380.06
565.56	46080.47
565.72	46366.01
565.88	46328.56
566.05	46155.36
566.21	45923.65
566.38	46560.28
566.54	46831.78
566.70	46651.56
566.87	46199.83
567.03	45865.14
567.19	46485.38
567.36	46148.34
567.52	46117.92
567.68	46768.58
567.85	46588.36
568.01	46829.44
568.17	46705.39
568.34	46614.11
568.50	46595.38
568.66	46426.87
568.83	46504.10
568.99	46644.54
569.15	46595.38
569.32	46436.23
569.48	46628.15
569.64	47014.34
569.81	46583.68
569.97	47021.36
570.13	46672.62
570.30	46160.05
570.46	46366.01
570.62	46607.09
570.78	46857.52
570.95	46876.25
571.11	47203.92
571.27	46555.60
571.43	46667.94
571.60	46815.40
571.76	46389.42
571.92	46562.62
572.09	46670.28
572.25	46436.23
572.41	46134.30
572.57	46972.21
572.74	46997.96
572.90	46930.08
573.06	46813.05
573.22	47171.16
573.38	46817.74
573.55	47222.65
573.71	47515.22
573.87	47033.07
574.03	46955.83
574.20	47131.37
574.36	47311.59
574.52	47100.94
574.68	46993.28
574.84	47339.68
575.01	47386.49
575.17	46969.87
575.33	46686.67
575.49	46761.56
575.65	47023.70
575.82	47110.30
575.98	47140.73
576.14	47309.25
576.30	47154.77
576.46	47056.47
576.62	46752.20
576.79	47246.05
576.95	46705.39
577.11	46883.27
577.27	46843.48
577.43	46813.05
577.59	46981.57
577.75	47210.95
577.92	46794.33
578.08	47182.86
578.24	46827.10
578.40	47510.53
578.56	47363.08
578.72	47285.84
578.88	47325.63
579.04	47023.70
579.21	46948.81
579.37	47290.52
579.53	47239.03
579.69	47246.05
579.85	46993.28
580.01	46890.29
580.17	47299.89
580.33	47224.99
580.49	47344.36
580.65	47402.87
580.82	47253.08
580.98	47098.60
581.14	46939.44
581.30	47402.87
581.46	47136.05
581.62	47173.50
581.78	46974.55
581.94	47604.16
582.10	47260.10
582.26	47571.39
582.42	47295.21
582.58	47421.59
582.74	47297.55
582.90	47524.58
583.06	47288.18
583.22	47049.45
583.38	47119.66
583.54	47267.12
583.70	47529.26
583.86	47367.76
584.02	47257.76
584.18	47679.05
584.34	47377.12
584.50	47526.92
584.66	47744.59
584.82	47831.19
584.98	47634.58
585.14	47627.56
585.30	47267.12
585.46	47302.23
585.62	47356.06
585.78	47519.90
585.94	47159.45
586.10	47409.89
586.26	47182.86
586.42	47014.34
586.58	47290.52
586.74	47309.25
586.90	47344.36
587.06	47503.51
587.22	47707.14
587.38	47056.47
587.54	47606.50
587.70	48034.81
587.86	47695.44
588.02	47285.84
588.18	47522.24
588.34	47817.14
588.49	47707.14
588.65	47002.64
588.81	47423.93
588.97	47657.99
589.13	47491.81
589.29	47393.51
589.45	47665.01
589.61	47597.13
589.77	47648.63
589.93	47882.68
590.08	47604.16
