SpectraSuite Data File
++++++++++++++++++++++++++++++++++++
Date: Fri Oct 25 11:22:43 EDT 2013
User: price-jones
Dark Spectrum Present: No
Reference Spectrum Present: No
Number of Sampled Component Spectra: 1
Spectrometers: USB2+H05261
Integration Time (usec): 100000 (USB2+H05261)
Spectra Averaged: 1 (USB2+H05261)
Boxcar Smoothing: 0 (USB2+H05261)
Correct for Electrical Dark: No (USB2+H05261)
Strobe/Lamp Enabled: No (USB2+H05261)
Correct for Detector Non-linearity: No (USB2+H05261)
Correct for Stray Light: No (USB2+H05261)
Number of Pixels in Processed Spectrum: 2048
>>>>>Begin Processed Spectral Data<<<<<
365.73	198.95
365.92	198.95
366.12	198.95
366.32	124.05
366.52	142.77
366.72	138.09
366.91	110.01
367.11	175.54
367.31	112.35
367.51	135.75
367.70	114.69
367.90	161.50
368.10	182.56
368.30	105.32
368.49	126.39
368.69	126.39
368.89	124.05
369.09	121.71
369.28	156.82
369.48	124.05
369.68	135.75
369.87	159.16
370.07	205.97
370.27	201.29
370.47	330.02
370.66	533.64
370.86	613.22
371.06	615.56
371.25	702.16
371.45	664.71
371.65	734.93
371.84	657.69
372.04	678.76
372.24	624.92
372.44	711.52
372.63	725.57
372.83	755.99
373.03	704.50
373.22	716.20
373.42	800.46
373.62	795.78
373.81	821.53
374.01	816.85
374.21	833.23
374.40	858.98
374.60	809.83
374.79	823.87
374.99	844.93
375.19	786.42
375.38	800.46
375.58	870.68
375.78	851.96
375.97	894.08
376.17	1008.77
376.37	889.40
376.56	781.74
376.76	816.85
376.95	936.21
377.15	922.17
377.35	912.81
377.54	912.81
377.74	912.81
377.93	936.21
378.13	896.43
378.33	976.00
378.52	931.53
378.72	952.60
378.91	990.05
379.11	844.93
379.31	922.17
379.50	887.06
379.70	964.30
379.89	999.41
380.09	1034.52
380.28	980.68
380.48	968.98
380.68	987.71
380.87	957.28
381.07	976.00
381.26	980.68
381.46	1083.67
381.65	1053.24
381.85	1039.20
382.04	1004.09
382.24	1053.24
382.43	940.90
382.63	1053.24
382.83	1022.81
383.02	1130.48
383.22	1111.75
383.41	1022.81
383.61	1254.53
383.80	1060.26
384.00	1086.01
384.19	1097.71
384.39	1116.44
384.58	1095.37
384.78	1135.16
384.97	1198.35
385.17	1095.37
385.36	1114.10
385.56	1102.39
385.75	1156.22
385.95	1146.86
386.14	1130.48
386.34	1153.88
386.53	1188.99
386.72	1123.46
386.92	1160.91
387.11	1240.48
387.31	1259.21
387.50	1137.50
387.70	1231.12
387.89	1207.72
388.09	1277.93
388.28	1275.59
388.48	1284.95
388.67	1322.40
388.86	1378.58
389.06	1301.34
389.25	1308.36
389.45	1362.19
389.64	1336.45
389.84	1380.92
390.03	1446.45
390.22	1418.36
390.42	1406.66
390.61	1345.81
390.81	1343.47
391.00	1406.66
391.19	1423.05
391.39	1427.73
391.58	1476.88
391.78	1500.28
391.97	1427.73
392.16	1490.92
392.36	1469.86
392.55	1596.25
392.75	1598.59
392.94	1547.09
393.13	1535.39
393.33	1614.97
393.52	1453.47
393.71	1612.63
393.91	1624.33
394.10	1614.97
394.29	1488.58
394.49	1659.44
394.68	1591.56
394.88	1572.84
395.07	1682.85
395.26	1694.55
395.46	1610.29
395.65	1703.91
395.84	1764.76
396.04	1778.81
396.23	1732.00
396.42	1734.34
396.62	1832.64
396.81	1811.57
397.00	1792.85
397.19	1746.04
397.39	1734.34
397.58	1811.57
397.77	1788.17
397.97	1818.60
398.16	1783.49
398.35	1827.96
398.55	1746.04
398.74	1907.54
398.93	1870.09
399.12	1813.92
399.32	1916.90
399.51	1952.01
399.70	2008.18
399.90	1937.96
400.09	1980.09
400.28	2033.93
400.47	1975.41
400.67	2127.55
400.86	1975.41
401.05	2080.74
401.24	2064.35
401.44	2139.25
401.63	2047.97
401.82	2122.87
402.01	2085.42
402.21	2172.02
402.40	2394.37
402.59	2129.89
402.78	2221.17
402.97	2251.60
403.17	2246.91
403.36	2347.56
403.55	2349.90
403.74	2415.43
403.93	2413.09
404.13	2366.28
404.32	2401.39
404.51	2363.94
404.70	2516.08
404.89	2370.96
405.09	2509.05
405.28	2436.50
405.47	2492.67
405.66	2420.11
405.85	2516.08
406.05	2436.50
406.24	2595.65
406.43	2569.91
406.62	2532.46
406.81	2806.30
407.00	2504.37
407.20	2576.93
407.39	2548.84
407.58	2693.96
407.77	2752.47
407.96	2752.47
408.15	2785.24
408.34	2628.42
408.54	2759.49
408.73	2874.18
408.92	2771.19
409.11	2871.84
409.30	2963.12
409.49	2745.45
409.68	2853.11
409.87	2970.14
410.07	2967.80
410.26	2998.23
410.45	3096.53
410.64	2963.12
410.83	3089.51
411.02	3103.55
411.21	3141.00
411.40	3087.17
411.59	3162.06
411.78	3148.02
411.98	3213.56
412.17	3246.32
412.36	3428.88
412.55	3372.71
412.74	3311.86
412.93	3384.41
413.12	3400.80
413.31	3536.55
413.50	3433.57
413.69	3515.48
413.88	3676.98
414.07	3595.06
414.26	3632.51
414.45	3660.60
414.64	3681.66
414.83	3618.47
415.02	3765.92
415.22	3857.20
415.41	3796.35
415.60	3906.35
415.79	3974.23
415.98	3999.98
416.17	3943.80
416.36	3896.99
416.55	3934.44
416.74	3960.19
416.93	4065.51
417.12	4138.07
417.31	4170.83
417.50	4304.25
417.69	4348.72
417.88	4297.22
418.07	4248.07
418.26	4397.87
418.45	4337.01
418.64	4479.79
418.83	4348.72
419.02	4449.36
419.21	4472.76
419.39	4505.53
419.58	4526.60
419.77	4454.04
419.96	4538.30
420.15	4571.07
420.34	4681.07
420.53	4671.71
420.72	4744.27
420.91	4589.79
421.10	4648.30
421.29	4781.71
421.48	4674.05
421.67	4781.71
421.86	4891.72
422.05	4779.37
422.24	4784.06
422.43	4868.31
422.61	4912.78
422.80	4992.36
422.99	4947.89
423.18	5109.39
423.37	4889.38
423.56	4807.46
423.75	4917.47
423.94	4936.19
424.13	4645.96
424.32	4781.71
424.50	4966.62
424.69	5217.05
424.88	5081.30
425.07	4947.89
425.26	5041.51
425.45	5036.83
425.64	4919.81
425.83	4994.70
426.01	5214.71
426.20	5111.73
426.39	5170.24
426.58	5149.18
426.77	5093.01
426.96	5135.14
427.15	5231.10
427.33	5289.61
427.52	5186.63
427.71	5294.29
427.90	5240.46
428.09	5238.12
428.28	5329.40
428.46	5308.34
428.65	5420.68
428.84	5509.62
429.03	5561.11
429.22	5366.85
429.40	5551.75
429.59	5476.85
429.78	5366.85
429.97	5348.12
430.16	5500.26
430.34	5664.10
430.53	5715.59
430.72	5788.14
430.91	5657.07
431.10	5750.70
431.28	5813.89
431.47	5900.49
431.66	5769.42
431.85	5818.57
432.03	5909.85
432.22	5895.81
432.41	5954.32
432.60	5699.20
432.79	5951.98
432.97	5942.62
433.16	5942.62
433.35	6054.97
433.54	5984.75
433.72	6017.52
433.91	6066.67
434.10	6155.61
434.28	6115.82
434.47	6237.53
434.66	6319.45
434.85	6319.45
435.03	6305.40
435.22	6354.55
435.41	6562.86
435.59	6422.43
435.78	6567.54
435.97	6644.78
436.16	6441.15
436.34	6251.57
436.53	6581.59
436.72	6640.10
436.90	6441.15
437.09	6707.98
437.28	6588.61
437.46	6675.21
437.65	6595.63
437.84	6794.58
438.02	6761.81
438.21	6780.53
438.40	6817.98
438.58	7005.22
438.77	6986.50
438.96	6942.03
439.14	7187.79
439.33	7171.40
439.52	7084.80
439.70	7265.02
439.89	7267.36
440.08	7466.31
440.26	7368.01
440.45	7339.92
440.63	7428.86
440.82	7630.15
441.01	7592.70
441.19	7634.83
441.38	7672.28
441.57	7740.15
441.75	7861.86
441.94	7960.16
442.12	7946.12
442.31	8056.12
442.50	7992.93
442.68	8138.04
442.87	7894.63
443.05	8124.00
443.24	8262.09
443.43	8189.53
443.61	8222.30
443.80	8444.65
443.98	8173.15
444.17	7887.61
444.35	8365.07
444.54	8468.06
444.73	8222.30
444.91	8285.50
445.10	8269.11
445.28	8154.43
445.47	8393.16
445.65	8531.25
445.84	8528.91
446.02	8542.96
446.21	8451.67
446.39	8308.90
446.58	8542.96
446.77	8353.37
446.95	8297.20
447.14	8428.27
447.32	8566.36
447.51	8524.23
447.69	8531.25
447.88	8491.46
448.06	8802.75
448.25	8582.74
448.43	8791.05
448.62	8706.79
448.80	8608.49
448.99	8795.73
449.17	8842.54
449.36	8697.43
449.54	8898.72
449.73	8938.51
449.91	9034.47
450.10	9067.24
450.28	8891.70
450.46	9041.49
450.65	8945.53
450.83	9167.88
451.02	9170.22
451.20	9210.01
451.39	9111.71
451.57	9013.40
451.76	9153.84
451.94	9294.27
452.13	9507.26
452.31	9289.59
452.49	9291.93
452.68	9270.86
452.86	9415.98
453.05	9418.32
453.23	9444.06
453.42	9401.93
453.60	9408.95
453.78	9657.05
453.97	9535.34
454.15	9401.93
454.34	9493.21
454.52	9813.87
454.70	9643.01
454.89	9661.73
455.07	9872.38
455.26	9914.51
455.44	9926.21
455.62	10012.81
455.81	9848.97
455.99	9980.04
456.17	10118.14
456.36	10115.80
456.54	10092.39
456.73	10190.69
456.91	10504.32
457.09	10768.80
457.28	10616.67
457.46	10246.87
457.64	10569.86
457.83	10389.64
458.01	10429.43
458.19	10934.98
458.38	10476.24
458.56	10750.08
458.74	10583.90
458.93	10801.57
459.11	10832.00
459.29	10696.25
459.48	10836.68
459.66	10848.38
459.84	11026.26
460.03	11084.78
460.21	11138.61
460.39	11117.54
460.57	11066.05
460.76	11283.72
460.94	11239.25
461.12	11391.39
461.31	11187.76
461.49	11236.91
461.67	11227.55
461.85	11517.78
462.04	11344.58
462.22	11864.18
462.40	11885.24
462.59	11580.97
462.77	11585.65
462.95	11840.77
463.13	11805.66
463.32	11702.68
463.50	11901.62
463.68	11992.90
463.86	11669.91
464.05	11660.55
464.23	11721.40
464.41	12217.60
464.59	11810.34
464.78	11864.18
464.96	11758.85
465.14	11901.62
465.32	12093.55
465.50	12159.08
465.69	12271.43
465.87	12039.72
466.05	12489.10
466.23	12348.67
466.41	12339.30
466.60	12688.04
466.78	12039.72
466.96	12418.88
467.14	12250.36
467.32	12425.90
467.51	12479.74
467.69	12187.17
467.87	12805.07
468.05	12662.30
468.23	12353.35
468.41	12540.59
468.60	12472.71
468.78	12964.23
468.96	12552.29
469.14	12833.16
469.32	12945.50
469.50	12645.91
469.69	13055.51
469.87	13046.15
470.05	13135.09
470.23	13364.46
470.41	13341.05
470.59	13310.63
470.77	13235.73
470.95	13245.09
471.14	13444.04
471.32	13336.37
471.50	13584.47
471.68	13415.95
471.86	13678.09
472.04	13577.45
472.22	13884.06
472.40	13664.05
472.58	13867.67
472.77	14047.90
472.95	14139.18
473.13	14518.34
473.31	14003.43
473.49	14436.42
473.67	14235.14
473.85	14319.40
474.03	14728.99
474.21	14705.59
474.39	14853.04
474.57	14846.02
474.75	14853.04
474.93	14963.04
475.12	15178.37
475.30	15384.34
475.48	15115.18
475.66	15342.21
475.84	15335.19
476.02	15470.94
476.20	15623.08
476.38	15754.15
476.56	16332.26
476.74	16149.70
476.92	16086.50
477.10	15782.23
477.28	16168.42
477.46	16271.40
477.64	16301.83
477.82	16685.68
478.00	17193.58
478.18	16762.92
478.36	17011.01
478.54	17324.65
478.72	17128.04
478.90	17415.93
479.08	17507.21
479.26	17855.95
479.44	17738.92
479.62	17614.87
479.80	18127.45
479.98	18148.51
480.16	18855.36
480.34	18548.75
480.52	18794.50
480.70	18724.29
480.88	18090.00
481.06	18607.26
481.24	18909.19
481.41	19227.50
481.59	19714.33
481.77	19491.98
481.95	19501.34
482.13	19908.60
482.31	19758.80
482.49	20123.93
482.67	20226.91
482.85	20802.68
483.03	20786.30
483.21	21106.95
483.39	20882.26
483.57	20805.02
483.74	21266.11
483.92	21467.39
484.10	21336.32
484.28	21713.15
484.46	21975.29
484.64	22199.98
484.82	22040.82
485.00	22249.13
485.18	22808.52
485.35	23150.24
485.53	22836.61
485.71	22869.37
485.89	23538.77
486.07	23545.79
486.25	23688.56
486.43	23459.19
486.61	23880.49
486.78	24161.35
486.96	24301.78
487.14	24641.16
487.32	24603.71
487.50	24739.46
487.68	25336.30
487.85	25366.73
488.03	25663.97
488.21	25813.77
488.39	25986.97
488.57	26258.47
488.75	26281.88
488.92	26286.56
489.10	26597.85
489.28	26569.76
489.46	27080.00
489.64	27302.35
489.81	27473.21
489.99	27775.14
490.17	28081.75
490.35	28404.74
490.53	28528.79
490.70	28788.59
490.88	28334.53
491.06	29034.35
491.24	28898.59
491.41	28973.49
491.59	29223.93
491.77	29579.69
491.95	29949.50
492.13	29486.07
492.30	30302.92
492.48	30012.69
492.66	30483.14
492.84	30464.41
493.01	30689.10
493.19	30824.86
493.37	31452.12
493.54	31136.15
493.72	31569.15
493.90	31964.70
494.08	31974.06
494.25	32313.44
494.43	31964.70
494.61	32629.41
494.79	32362.59
494.96	32371.95
495.14	32830.69
495.32	33294.12
495.49	33315.19
495.67	33308.16
495.85	33366.68
496.02	33940.11
496.20	34110.97
496.38	34370.77
496.55	34117.99
496.73	35285.92
496.91	34656.31
497.09	34925.47
497.26	35236.77
497.44	34742.91
497.62	35386.56
497.79	35952.97
497.97	35857.01
498.14	36299.37
498.32	35983.40
498.50	36044.25
498.67	36226.81
498.85	36481.93
499.03	36842.37
499.20	36540.44
499.38	37207.50
499.56	37364.31
499.73	37570.28
499.91	37462.61
500.08	37516.45
500.26	37287.07
500.44	37841.78
500.61	38160.09
500.79	38036.05
500.97	38363.72
501.14	38567.35
501.32	38553.30
501.49	38787.36
501.67	38792.04
501.84	39400.58
502.02	38927.79
502.20	39023.75
502.37	39278.87
502.55	39033.11
502.72	39700.17
502.90	39686.12
503.07	39384.19
503.25	39941.24
503.43	39541.01
503.60	40095.72
503.78	40079.33
503.95	40226.79
504.13	40746.39
504.30	40453.82
504.48	40760.43
504.65	41064.70
504.83	41160.66
505.01	41233.22
505.18	41570.25
505.36	41371.31
505.53	41401.74
505.71	41848.78
505.88	42043.04
506.06	41801.97
506.23	42230.29
506.41	42316.89
506.58	42239.65
506.76	42359.02
506.93	42469.02
507.11	42443.27
507.28	42667.97
507.46	42745.20
507.63	43253.10
507.81	43416.94
507.98	43178.20
508.16	43215.65
508.33	43505.88
508.50	43861.64
508.68	43742.27
508.85	44128.46
509.03	44109.74
509.20	44264.21
509.38	44638.70
509.55	44657.42
509.73	44449.11
509.90	44975.73
510.08	44493.58
510.25	44996.80
510.42	44926.58
510.60	45029.57
510.77	45434.48
510.95	45535.12
511.12	45422.78
511.30	45041.27
511.47	45485.97
511.64	45315.11
511.82	46003.23
511.99	45759.81
512.17	46195.15
512.34	46003.23
512.51	46490.06
512.69	46670.28
512.86	46700.71
513.04	47004.98
513.21	46859.87
513.38	46923.06
513.56	47070.51
513.73	46850.50
513.90	46834.12
514.08	47510.53
514.25	47683.73
514.43	47700.12
514.60	47253.08
514.77	47948.21
514.95	48060.56
515.12	47760.97
515.29	47688.42
515.47	47997.37
515.64	48573.14
515.81	47782.04
515.99	48069.92
516.16	48900.81
516.33	48245.46
516.51	48924.22
516.68	48610.59
516.85	48669.10
517.03	48875.07
517.20	48839.96
517.37	49539.78
517.54	49036.56
517.72	48910.17
517.89	49111.46
518.06	49581.91
518.24	49481.27
518.41	48924.22
518.58	49855.75
518.75	49553.82
518.93	49628.72
519.10	49530.42
519.27	49586.59
519.45	49750.43
519.62	50050.02
519.79	50213.85
519.96	50293.43
520.14	50326.20
520.31	50153.00
520.48	50436.20
520.65	50513.44
520.83	50880.91
521.00	50941.76
521.17	50576.64
521.34	50836.44
521.52	51227.31
521.69	50642.17
521.86	51241.35
522.03	51334.97
522.20	51398.16
522.38	51564.34
522.55	51620.52
522.72	51524.55
522.89	51250.71
523.07	51856.91
523.24	51763.29
523.41	51796.06
523.58	51271.78
523.75	51765.63
523.92	51646.26
524.10	52257.14
524.27	52011.38
524.44	52303.95
524.61	52212.67
524.78	52374.17
524.96	51999.68
525.13	52498.22
525.30	52542.69
525.47	52509.92
525.64	52804.83
525.81	52781.42
525.98	52872.70
526.16	52648.01
526.33	52573.11
526.50	52992.07
526.67	53045.90
526.84	53148.88
527.01	53111.44
527.18	53013.13
527.36	53146.54
527.53	52940.58
527.70	53378.26
527.87	53219.10
528.04	53036.54
528.21	53633.38
528.38	53457.84
528.55	53609.97
528.72	53254.21
528.89	53628.69
529.07	53588.91
529.24	53654.44
529.41	53956.37
529.58	53827.64
529.75	53579.54
529.92	54220.85
530.09	53858.07
530.26	54026.59
530.43	54220.85
530.60	53902.54
530.77	54026.59
530.94	54429.16
531.11	54391.71
531.28	54272.34
531.46	54433.84
531.63	54209.15
531.80	54693.64
531.97	54281.70
532.14	54721.72
532.31	54564.91
532.48	54848.11
532.65	54763.85
532.82	54684.28
532.99	54541.50
533.16	54609.38
533.33	54962.80
533.50	54990.89
533.67	54787.26
533.84	54773.22
534.01	54918.33
534.18	54946.42
534.35	55334.95
534.52	55269.41
534.69	55234.30
534.86	55526.87
535.03	55264.73
535.20	55398.14
535.37	55451.97
535.54	55435.59
535.71	55416.86
535.88	55557.30
536.05	55569.00
536.22	55681.34
536.38	55554.96
536.55	55835.82
536.72	55763.26
536.89	55674.32
537.06	55924.76
537.23	55845.18
537.40	55824.12
537.57	55819.44
537.74	55798.37
537.91	56161.15
538.08	56016.04
538.25	55704.75
538.42	55852.20
538.59	56266.48
538.75	56158.81
538.92	56137.75
539.09	56404.57
539.26	56226.69
539.43	56158.81
539.60	56299.25
539.77	56383.51
539.94	56596.49
540.11	56294.56
540.28	56633.94
540.44	56442.02
540.61	56769.69
540.78	56591.81
540.95	56479.47
541.12	56540.32
541.29	56451.38
541.46	56673.73
541.62	56746.29
541.79	56924.17
541.96	56561.39
542.13	56793.10
542.30	56903.10
542.47	57102.05
542.63	57080.98
542.80	57249.50
542.97	57151.20
543.14	57329.08
543.31	57317.38
543.48	57439.09
543.64	57556.11
543.81	57216.74
543.98	57483.56
544.15	57567.82
544.32	57511.64
544.48	57607.61
544.65	57455.47
544.82	57525.69
544.99	57429.72
545.16	57619.31
545.32	57495.26
545.49	57862.72
545.66	57811.23
545.83	57815.91
546.00	57829.96
546.16	57738.68
546.33	57640.37
546.50	57563.14
546.67	57748.04
546.83	57668.46
547.00	57829.96
547.17	57785.49
547.34	57813.57
547.50	58223.17
547.67	58052.31
547.84	58005.50
548.00	58234.87
548.17	58482.97
548.34	58192.74
548.51	58541.48
548.67	58253.59
548.84	58363.60
549.01	58115.50
549.18	58262.96
549.34	58277.00
549.51	58398.71
549.68	58485.31
549.84	58513.39
550.01	58492.33
550.18	58347.21
550.34	58527.44
550.51	58597.65
550.68	58372.96
550.84	58473.60
551.01	58724.04
551.18	58513.39
551.34	58513.39
551.51	58721.70
551.68	58630.42
551.84	58642.12
552.01	58541.48
552.18	58759.15
552.34	58422.11
552.51	58798.94
552.68	58548.50
552.84	58740.42
553.01	59126.61
553.18	59103.21
553.34	59302.15
553.51	58700.64
553.67	58848.09
553.84	59021.29
554.01	58979.16
554.17	59054.06
554.34	58939.37
554.51	59061.08
554.67	58953.41
554.84	59044.69
555.00	59159.38
555.17	59065.76
555.33	59089.16
555.50	59032.99
555.67	59288.11
555.83	59007.25
556.00	59229.60
556.16	59458.97
556.33	59456.63
556.50	59238.96
556.66	59473.01
556.83	59323.22
556.99	59554.93
557.16	59599.40
557.32	59667.28
557.49	59620.47
557.65	59416.84
557.82	59557.27
557.98	59709.41
558.15	59620.47
558.32	59566.63
558.48	59465.99
558.65	59517.48
558.81	59625.15
558.98	59735.15
559.14	59779.62
559.31	59552.59
559.47	59924.74
559.64	59842.82
559.80	59774.94
559.97	60011.34
560.13	59714.09
560.30	59880.27
560.46	59732.81
560.63	59969.21
560.79	59723.45
560.96	60095.60
561.12	59957.50
561.29	60044.10
561.45	60123.68
561.61	59817.07
561.78	59856.86
561.94	59882.61
562.11	59915.37
562.27	59882.61
562.44	59917.71
562.60	60292.20
562.77	60041.76
562.93	59739.83
563.10	60186.88
563.26	59973.89
563.42	60399.86
563.59	60140.07
563.75	59952.82
563.92	60140.07
564.08	60060.49
564.24	60179.85
564.41	60369.44
564.57	60133.04
564.74	60149.43
564.90	60041.76
565.07	60315.61
565.23	60177.51
565.39	60172.83
565.56	60446.68
565.72	60102.62
565.88	60254.75
566.05	60224.32
566.21	60285.18
566.38	60317.95
566.54	60411.57
566.70	60467.74
566.87	60488.80
567.03	60114.32
567.19	60418.59
567.36	60374.12
567.52	60324.97
567.68	60540.30
567.85	60474.76
568.01	60437.31
568.17	60264.11
568.34	60348.37
568.50	60570.72
568.66	60367.10
568.83	60638.60
568.99	60378.80
569.15	60364.76
569.32	60423.27
569.48	60528.59
569.64	60542.64
569.81	60589.45
569.97	60554.34
570.13	60596.47
570.30	60505.19
570.46	60734.56
570.62	60727.54
570.78	60734.56
570.95	60666.69
571.11	60835.20
571.27	60605.83
571.43	60505.19
571.60	60764.99
571.76	60690.09
571.92	60755.63
572.09	60619.88
572.25	60519.23
572.41	60755.63
572.57	60706.47
572.74	60886.70
572.90	60736.90
573.06	60662.00
573.22	60781.37
573.38	60694.77
573.55	60699.45
573.71	60839.89
573.87	60921.80
574.03	60563.70
574.20	60692.43
574.36	60444.33
574.52	60718.18
574.68	60910.10
574.84	60835.20
575.01	60945.21
575.17	60879.67
575.33	60886.70
575.49	60788.39
575.65	60851.59
575.82	60755.63
575.98	60884.36
576.14	61179.26
576.30	60874.99
576.46	60889.04
576.62	60767.33
576.79	60839.89
576.95	60662.00
577.11	60963.93
577.27	60891.38
577.43	60809.46
577.59	60853.93
577.75	60772.01
577.92	60837.54
578.08	60818.82
578.24	60933.51
578.40	60872.65
578.56	61130.11
578.72	60903.08
578.88	60985.00
579.04	61151.18
579.21	60956.91
579.37	60919.46
579.53	61097.34
579.69	60893.72
579.85	60907.76
580.01	60987.34
580.17	60919.46
580.33	60989.68
580.49	61153.52
580.65	61066.92
580.82	60917.12
580.98	60935.85
581.14	60851.59
581.30	61001.38
581.46	60985.00
581.62	60977.98
581.78	60750.94
581.94	61155.86
582.10	61041.17
582.26	60926.49
582.42	60865.63
582.58	61200.33
582.74	60872.65
582.90	61015.43
583.06	60940.53
583.22	61008.40
583.38	60959.25
583.54	61069.26
583.70	61399.27
583.86	61272.88
584.02	60889.04
584.18	61141.81
584.34	61195.65
584.50	61167.56
584.66	61010.74
584.82	60715.84
584.98	61160.54
585.14	61183.94
585.30	60952.23
585.46	61013.08
585.62	61008.40
585.78	61144.16
585.94	60938.19
586.10	61172.24
586.26	61027.13
586.42	61017.77
586.58	61144.16
586.74	61202.67
586.90	61118.41
587.06	61165.22
587.22	61336.08
587.38	61195.65
587.54	61347.78
587.70	61602.90
587.86	61226.07
588.02	61148.84
588.18	61364.17
588.34	61202.67
588.49	61195.65
