SpectraSuite Data File
++++++++++++++++++++++++++++++++++++
Date: Fri Oct 25 11:25:34 EDT 2013
User: price-jones
Dark Spectrum Present: No
Reference Spectrum Present: No
Number of Sampled Component Spectra: 1
Spectrometers: USB2+H05261
Integration Time (usec): 100000 (USB2+H05261)
Spectra Averaged: 1 (USB2+H05261)
Boxcar Smoothing: 0 (USB2+H05261)
Correct for Electrical Dark: No (USB2+H05261)
Strobe/Lamp Enabled: No (USB2+H05261)
Correct for Detector Non-linearity: No (USB2+H05261)
Correct for Stray Light: No (USB2+H05261)
Number of Pixels in Processed Spectrum: 2048
>>>>>Begin Processed Spectral Data<<<<<
365.73	301.93
365.92	301.93
366.12	301.93
366.32	86.60
366.52	191.92
366.72	159.16
366.91	91.28
367.11	138.09
367.31	133.41
367.51	117.03
367.70	194.26
367.90	133.41
368.10	159.16
368.30	159.16
368.49	88.94
368.69	124.05
368.89	187.24
369.09	182.56
369.28	128.73
369.48	168.52
369.68	210.65
369.87	201.29
370.07	161.50
370.27	238.73
370.47	341.72
370.66	589.82
370.86	657.69
371.06	638.97
371.25	709.18
371.45	603.86
371.65	704.50
371.84	699.82
372.04	727.91
372.24	676.41
372.44	739.61
372.63	781.74
372.83	725.57
373.03	723.23
373.22	709.18
373.42	706.84
373.62	781.74
373.81	823.87
374.01	788.76
374.21	816.85
374.40	826.21
374.60	786.42
374.79	858.98
374.99	858.98
375.19	891.74
375.38	926.85
375.58	807.48
375.78	823.87
375.97	812.17
376.17	922.17
376.37	858.98
376.56	870.68
376.76	851.96
376.95	856.64
377.15	873.02
377.35	1004.09
377.54	910.47
377.74	985.37
377.93	896.43
378.13	910.47
378.33	912.81
378.52	922.17
378.72	968.98
378.91	894.08
379.11	1039.20
379.31	903.45
379.50	889.40
379.70	943.24
379.89	926.85
380.09	1025.15
380.28	994.73
380.48	987.71
380.68	964.30
380.87	1046.22
381.07	947.92
381.26	1097.71
381.46	1036.86
381.65	1053.24
381.85	1015.79
382.04	1102.39
382.24	1086.01
382.43	1104.73
382.63	1001.75
382.83	1067.28
383.02	1095.37
383.22	1076.65
383.41	1076.65
383.61	1111.75
383.80	1184.31
384.00	1151.54
384.19	1142.18
384.39	1121.12
384.58	1144.52
384.78	1135.16
384.97	1144.52
385.17	1086.01
385.36	1121.12
385.56	1210.06
385.75	1196.01
385.95	1181.97
386.14	1238.14
386.34	1282.61
386.53	1174.95
386.72	1214.74
386.92	1137.50
387.11	1273.25
387.31	1277.93
387.50	1149.20
387.70	1224.10
387.89	1294.32
388.09	1163.25
388.28	1348.15
388.48	1186.65
388.67	1303.68
388.86	1329.42
389.06	1362.19
389.25	1378.58
389.45	1320.06
389.64	1387.94
389.84	1303.68
390.03	1439.43
390.22	1324.74
390.42	1385.60
390.61	1329.42
390.81	1331.76
391.00	1448.79
391.19	1413.68
391.39	1383.26
391.58	1472.20
391.78	1444.11
391.97	1437.09
392.16	1460.49
392.36	1533.05
392.55	1605.61
392.75	1549.43
392.94	1476.88
393.13	1528.37
393.33	1504.96
393.52	1640.72
393.71	1589.22
393.91	1542.41
394.10	1547.09
394.29	1607.95
394.49	1565.82
394.68	1624.33
394.88	1685.19
395.07	1647.74
395.26	1764.76
395.46	1710.93
395.65	1771.79
395.84	1659.44
396.04	1811.57
396.23	1739.02
396.42	1715.61
396.62	1699.23
396.81	1785.83
397.00	1732.00
397.19	1753.06
397.39	1867.75
397.58	1877.11
397.77	1813.92
397.97	1804.55
398.16	1748.38
398.35	1849.02
398.55	1788.17
398.74	1849.02
398.93	1944.99
399.12	1982.43
399.32	1949.67
399.51	1975.41
399.70	1977.75
399.90	2017.54
400.09	2029.24
400.28	1989.46
400.47	2059.67
400.67	2029.24
400.86	1975.41
401.05	2087.76
401.24	2026.90
401.44	2146.27
401.63	2106.48
401.82	2146.27
402.01	2115.84
402.21	2232.87
402.40	2172.02
402.59	2188.40
402.78	2134.57
402.97	2225.85
403.17	2209.47
403.36	2113.50
403.55	2361.60
403.74	2408.41
403.93	2335.85
404.13	2324.15
404.32	2282.02
404.51	2296.07
404.70	2495.01
404.89	2459.90
405.09	2363.94
405.28	2410.75
405.47	2424.80
405.66	2385.01
405.85	2539.48
406.05	2623.74
406.24	2583.95
406.43	2480.97
406.62	2576.93
406.81	2619.06
407.00	2607.36
407.20	2534.80
407.39	2576.93
407.58	2661.19
407.77	2626.08
407.96	2700.98
408.15	2752.47
408.34	2787.58
408.54	2799.28
408.73	2857.79
408.92	2761.83
409.11	2787.58
409.30	2850.77
409.49	2951.42
409.68	2935.03
409.87	2981.84
410.07	2949.08
410.26	2984.18
410.45	2944.39
410.64	3016.95
410.83	3108.23
411.02	3028.65
411.21	3187.81
411.40	3166.74
411.59	3220.58
411.78	3150.36
411.98	3112.91
412.17	3311.86
412.36	3206.53
412.55	3220.58
412.74	3229.94
412.93	3316.54
413.12	3419.52
413.31	3384.41
413.50	3506.12
413.69	3447.61
413.88	3667.62
414.07	3641.87
414.26	3517.83
414.45	3709.75
414.64	3655.92
414.83	3700.39
415.02	3744.86
415.22	3719.11
415.41	3786.99
415.60	3859.54
415.79	3878.27
415.98	3992.95
416.17	4056.15
416.36	3953.16
416.55	3962.53
416.74	3962.53
416.93	4063.17
417.12	4133.39
417.31	4044.45
417.50	3843.16
417.69	4156.79
417.88	4227.01
418.07	4329.99
418.26	4014.02
418.45	4262.12
418.64	4512.55
418.83	4386.16
419.02	4395.53
419.21	4486.81
419.39	4528.94
419.58	4344.03
419.77	4500.85
419.96	4636.60
420.15	4428.29
420.34	4468.08
420.53	4610.86
420.72	4655.33
420.91	4601.49
421.10	4706.82
421.29	4716.18
421.48	4657.67
421.67	4840.23
421.86	4788.74
422.05	4840.23
422.24	4952.57
422.43	4844.91
422.61	4840.23
422.80	4830.87
422.99	4945.55
423.18	4873.00
423.37	4945.55
423.56	4905.76
423.75	4917.47
423.94	4711.50
424.13	4615.54
424.32	4706.82
424.50	4919.81
424.69	5130.45
424.88	5050.88
425.07	4851.93
425.26	4842.57
425.45	5015.77
425.64	4919.81
425.83	4945.55
426.01	5062.58
426.20	5022.79
426.39	5020.45
426.58	5071.94
426.77	5043.85
426.96	5057.90
427.15	5114.07
427.33	5268.55
427.52	5158.54
427.71	5313.02
427.90	5247.48
428.09	5238.12
428.28	5275.57
428.46	5308.34
428.65	5167.90
428.84	5313.02
429.03	5364.51
429.22	5355.15
429.40	5413.66
429.59	5341.10
429.78	5298.97
429.97	5235.78
430.16	5408.98
430.34	5537.71
430.53	5797.51
430.72	5748.36
430.91	5600.90
431.10	5577.50
431.28	5650.05
431.47	5856.02
431.66	5790.49
431.85	5738.99
432.03	5837.30
432.22	5933.26
432.41	5888.79
432.60	5750.70
432.79	5930.92
432.97	5961.34
433.16	5888.79
433.35	6036.24
433.54	6033.90
433.72	6029.22
433.91	6183.70
434.10	6022.20
434.28	6202.42
434.47	6291.36
434.66	6237.53
434.85	6413.07
435.03	6218.80
435.22	6174.33
435.41	6394.34
435.59	6338.17
435.78	6335.83
435.97	6368.60
436.16	6499.67
436.34	6342.85
436.53	6506.69
436.72	6705.63
436.90	6310.08
437.09	6490.31
437.28	6307.74
437.46	6588.61
437.65	6560.52
437.84	6665.85
438.02	6785.21
438.21	6724.36
438.40	6703.29
438.58	6843.73
438.77	6883.52
438.96	6841.39
439.14	7101.19
439.33	7124.59
439.52	7241.62
439.70	7227.57
439.89	7449.93
440.08	7243.96
440.26	7119.91
440.45	7410.14
440.63	7379.71
440.82	7552.91
441.01	7407.80
441.19	7375.03
441.38	7676.96
441.57	7695.68
441.75	7779.94
441.94	7960.16
442.12	7852.50
442.31	7971.86
442.50	8013.99
442.68	7946.12
442.87	7995.27
443.05	8035.06
443.24	8334.65
443.43	8002.29
443.61	8243.37
443.80	8329.97
443.98	8077.19
444.17	7744.83
444.35	8081.87
444.54	8252.73
444.73	8304.22
444.91	8252.73
445.10	8152.09
445.28	8238.69
445.47	8077.19
445.65	8290.18
445.84	8329.97
446.02	8517.21
446.21	8505.51
446.39	8388.48
446.58	8332.31
446.77	8439.97
446.95	8210.60
447.14	8411.89
447.32	8397.84
447.51	8442.31
447.69	8367.42
447.88	8446.99
448.06	8273.79
448.25	8425.93
448.43	8545.30
448.62	8538.27
448.80	8395.50
448.99	8645.94
449.17	8634.24
449.36	8568.70
449.54	8762.97
449.73	8884.67
449.91	9125.75
450.10	9001.70
450.28	9060.21
450.46	9008.72
450.65	8882.33
450.83	8917.44
451.02	8823.82
451.20	8978.30
451.39	9174.90
451.57	9167.88
451.76	8898.72
451.94	9146.81
452.13	9245.12
452.31	9366.82
452.49	9259.16
452.68	9088.30
452.86	9057.87
453.05	9296.61
453.23	9392.57
453.42	9320.01
453.60	9303.63
453.78	9500.23
453.97	9376.19
454.15	9303.63
454.34	9341.08
454.52	9694.50
454.70	9525.98
454.89	9612.58
455.07	9680.46
455.26	9654.71
455.44	9839.61
455.62	9926.21
455.81	9848.97
455.99	10008.13
456.17	10087.71
456.36	9921.53
456.54	9949.62
456.73	10218.78
456.91	10413.04
457.09	10293.68
457.28	10370.91
457.46	10289.00
457.64	10504.32
457.83	10597.95
458.01	10324.10
458.19	10611.99
458.38	10359.21
458.56	10555.82
458.74	10714.97
458.93	10525.39
459.11	10714.97
459.29	10637.73
459.48	10707.95
459.66	10644.76
459.84	10665.82
460.03	11023.92
460.21	10991.16
460.39	10881.15
460.57	10745.40
460.76	11147.97
460.94	11178.40
461.12	11131.59
461.31	10988.82
461.49	11112.86
461.67	11265.00
461.85	11466.28
462.04	11084.78
462.22	11779.92
462.40	11681.61
462.59	11669.91
462.77	11332.87
462.95	11730.76
463.13	11531.82
463.32	11487.35
463.50	11590.33
463.68	11658.21
463.86	11726.08
464.05	11466.28
464.23	11508.41
464.41	11812.68
464.59	11412.45
464.78	11985.88
464.96	11796.30
465.14	11747.15
465.32	12025.67
465.50	12198.87
465.69	11915.67
465.87	12241.00
466.05	12226.96
466.23	12182.49
466.41	12219.94
466.60	12571.02
466.78	11969.50
466.96	12039.72
467.14	12304.20
467.32	12313.56
467.51	12418.88
467.69	12365.05
467.87	12461.01
468.05	12453.99
468.23	12367.39
468.41	12458.67
468.60	12556.97
468.78	12957.21
468.96	12500.80
469.14	12692.73
469.32	12896.35
469.50	12643.57
469.69	12950.18
469.87	13083.59
470.05	13076.57
470.23	13130.41
470.41	13025.08
470.59	13153.81
470.77	13088.28
470.95	13334.03
471.14	13554.04
471.32	12996.99
471.50	13727.24
471.68	13397.23
471.86	13731.92
472.04	13626.60
472.22	13970.66
472.40	13502.55
472.58	13685.11
472.77	13877.04
472.95	13877.04
473.13	14525.36
473.31	13804.48
473.49	13909.80
473.67	13998.74
473.85	14024.49
474.03	14611.96
474.21	14356.85
474.39	14600.26
474.57	14831.97
474.75	14703.25
474.93	14834.32
475.12	14724.31
475.30	15021.56
475.48	15028.58
475.66	15115.18
475.84	15126.88
476.02	15187.74
476.20	15311.78
476.38	15529.45
476.56	15964.79
476.74	15796.28
476.92	16060.76
477.10	15779.89
477.28	16119.27
477.46	16294.81
477.64	16086.50
477.82	16472.69
478.00	16999.31
478.18	16819.09
478.36	16580.36
478.54	16952.50
478.72	16842.50
478.90	17338.69
479.08	17568.06
479.26	17689.77
479.44	17523.59
479.62	17600.83
479.80	17827.86
479.98	17942.55
480.16	18527.68
480.34	18391.93
480.52	18611.94
480.70	18471.51
480.88	18464.49
481.06	18616.62
481.24	18298.31
481.41	18881.10
481.59	19138.56
481.77	19459.21
481.95	19260.27
482.13	19506.02
482.31	19157.28
482.49	20046.69
482.67	20226.91
482.85	20290.10
483.03	20367.34
483.21	20772.25
483.39	20779.28
483.57	20898.64
483.74	21010.99
483.92	21406.54
484.10	21273.13
484.28	21703.79
484.46	21830.18
484.64	22218.71
484.82	21923.80
485.00	21879.33
485.18	22408.29
485.35	23133.86
485.53	22740.64
485.71	22647.02
485.89	23548.13
486.07	23424.08
486.25	23356.21
486.43	23323.44
486.61	23871.12
486.78	24030.28
486.96	24044.32
487.14	24254.97
487.32	24425.83
487.50	24718.40
487.68	24830.74
487.85	25261.40
488.03	25399.49
488.21	25844.20
488.39	25628.87
488.57	26010.37
488.75	26347.41
488.92	26403.58
489.10	27101.06
489.28	26614.23
489.46	26969.99
489.64	26888.07
489.81	27714.28
489.99	27421.72
490.17	27426.40
490.35	28051.32
490.53	28151.96
490.70	28079.41
490.88	28020.89
491.06	28659.86
491.24	28723.05
491.41	28905.62
491.59	29237.97
491.77	29298.83
491.95	29680.33
492.13	29277.76
492.30	29516.50
492.48	29942.47
492.66	30155.46
492.84	30246.74
493.01	30761.66
493.19	30134.40
493.37	30679.74
493.54	30930.18
493.72	31344.45
493.90	31131.47
494.08	31459.14
494.25	31828.95
494.43	31871.07
494.61	32196.41
494.79	32336.84
494.96	32559.19
495.14	32479.61
495.32	33282.42
495.49	33137.30
495.67	33172.41
495.85	33137.30
496.02	33996.28
496.20	33603.07
496.38	33614.77
496.55	33855.85
496.73	34785.04
496.91	34515.88
497.09	34721.85
497.26	34445.66
497.44	34726.53
497.62	35005.05
497.79	35868.71
497.97	35330.39
498.14	35849.99
498.32	35934.24
498.50	36165.96
498.67	36411.71
498.85	36615.34
499.03	36697.26
499.20	36472.57
499.38	36854.08
499.56	36720.66
499.73	36999.19
499.91	36938.33
500.08	37174.73
500.26	37256.65
500.44	37647.52
500.61	37757.52
500.79	37755.18
500.97	37645.18
501.14	38466.70
501.32	38693.74
501.49	38136.69
501.67	38522.88
501.84	38335.63
502.02	38433.94
502.20	38682.03
502.37	38799.06
502.55	38602.46
502.72	39225.04
502.90	39381.85
503.07	39583.14
503.25	39435.69
503.43	39461.43
503.60	40039.54
503.78	39882.73
503.95	39896.77
504.13	40428.07
504.30	40524.04
504.48	40233.81
504.65	40601.27
504.83	40634.04
505.01	40954.69
505.18	40952.35
505.36	41298.75
505.53	40985.12
505.71	41219.17
505.88	41738.77
506.06	41375.99
506.23	41717.71
506.41	41038.95
506.58	41982.19
506.76	41869.84
506.93	42230.29
507.11	42164.75
507.28	42153.05
507.46	42160.07
507.63	42719.46
507.81	43201.61
507.98	42635.20
508.16	42656.26
508.33	43115.01
508.50	43278.85
508.68	43407.58
508.85	43442.68
509.03	43655.67
509.20	43655.67
509.38	44098.03
509.55	44116.76
509.73	44495.92
509.90	44320.38
510.08	43983.35
510.25	44678.49
510.42	44746.36
510.60	44949.99
510.77	45043.61
510.95	45315.11
511.12	44830.62
511.30	45097.44
511.47	45109.14
511.64	45139.57
511.82	45621.72
511.99	45474.27
512.17	45797.26
512.34	45457.88
512.51	46234.94
512.69	45993.87
512.86	46087.49
513.04	46373.03
513.21	46586.02
513.38	46569.64
513.56	46759.22
513.73	46932.42
513.90	46923.06
514.08	46389.42
514.25	46745.18
514.43	47192.22
514.60	47161.79
514.77	47517.56
514.95	47353.72
515.12	46969.87
515.29	47063.49
515.47	47578.41
515.64	47988.00
515.81	47625.22
515.99	48165.88
516.16	48048.86
516.33	47959.92
516.51	48009.07
516.68	48240.78
516.85	48200.99
517.03	48573.14
517.20	48650.38
517.37	48367.17
517.54	48554.41
517.72	48631.65
517.89	48582.50
518.06	48767.40
518.24	48779.10
518.41	48975.71
518.58	49333.81
518.75	49186.36
518.93	49441.48
519.10	49509.35
519.27	49277.64
519.45	49507.01
519.62	49911.92
519.79	49684.89
519.96	49942.35
520.14	49930.65
520.31	49820.64
520.48	50293.43
520.65	49886.18
520.83	50611.74
521.00	50424.50
521.17	50340.24
521.34	50475.99
521.52	50726.43
521.69	50365.99
521.86	50508.76
522.03	51119.64
522.20	50988.57
522.38	51480.08
522.55	51346.67
522.72	51180.49
522.89	50918.35
523.07	51269.43
523.24	51501.15
523.41	51573.70
523.58	51152.41
523.75	51718.82
523.92	51407.53
524.10	51742.22
524.27	51892.02
524.44	52076.92
524.61	51915.42
524.78	51882.66
524.96	52109.69
525.13	52006.70
525.30	52425.66
525.47	52353.10
525.64	52320.34
525.81	52498.22
525.98	52500.56
526.16	52472.47
526.33	52610.56
526.50	52577.79
526.67	52444.38
526.84	52610.56
527.01	52797.80
527.18	52371.83
527.36	52673.76
527.53	52830.57
527.70	53254.21
527.87	53195.70
528.04	53134.84
528.21	53305.70
528.38	53200.38
528.55	53378.26
528.72	52961.64
528.89	53249.53
529.07	53312.72
529.24	53202.72
529.41	53380.60
529.58	53446.13
529.75	53556.14
529.92	53815.94
530.09	53759.76
530.26	53663.80
530.43	53799.55
530.60	53790.19
530.77	53490.60
530.94	53848.71
531.11	53911.90
531.28	54040.63
531.46	54157.66
531.63	54199.79
531.80	53991.48
531.97	54321.49
532.14	54389.37
532.31	54337.88
532.48	54384.69
532.65	54284.04
532.82	54693.64
532.99	54478.31
533.16	54628.10
533.33	54763.85
533.50	54836.41
533.67	54553.21
533.84	54513.42
534.01	54754.49
534.18	54820.03
534.35	55136.00
534.52	55121.96
534.69	55018.97
534.86	55187.49
535.03	54958.12
535.20	55278.77
535.37	55086.85
535.54	55248.35
535.71	55276.43
535.88	55159.41
536.05	55040.04
536.22	55409.84
536.38	55227.28
536.55	55327.92
536.72	55208.56
536.89	55292.82
537.06	55407.50
537.23	55583.04
537.40	55554.96
537.57	55430.91
537.74	55643.90
537.91	56060.51
538.08	55866.25
538.25	55585.38
538.42	55718.79
538.59	55952.85
538.75	55716.45
538.92	55969.23
539.09	55927.10
539.26	56137.75
539.43	56053.49
539.60	56170.52
539.77	56119.02
539.94	56575.43
540.11	56147.11
540.28	56231.37
540.44	56280.52
540.61	56367.12
540.78	56112.00
540.95	56350.74
541.12	56224.35
541.29	56563.73
541.46	56432.66
541.62	56493.51
541.79	56360.10
541.96	56371.80
542.13	56413.93
542.30	56484.15
542.47	56605.86
542.63	56748.63
542.80	56619.90
542.97	56659.69
543.14	57017.79
543.31	57111.41
543.48	57153.54
543.64	57165.24
543.81	56914.81
543.98	57167.58
544.15	56886.72
544.32	57436.75
544.48	57340.78
544.65	57106.73
544.82	57209.71
544.99	57155.88
545.16	57286.95
545.32	57286.95
545.49	57558.45
545.66	57588.88
545.83	57631.01
546.00	57560.79
546.16	57729.31
546.33	57474.20
546.50	57495.26
546.67	57626.33
546.83	57251.84
547.00	57649.74
547.17	57464.83
547.34	57748.04
547.50	57900.17
547.67	57787.83
547.84	57965.71
548.00	58049.97
548.17	57949.32
548.34	57776.12
548.51	57771.44
548.67	57916.56
548.84	58078.05
549.01	57825.28
549.18	58124.86
549.34	57991.45
549.51	58223.17
549.68	58145.93
549.84	58164.65
550.01	58305.09
550.18	57851.02
550.34	58372.96
550.51	58171.67
550.68	58305.09
550.84	58209.12
551.01	58372.96
551.18	58223.17
551.34	58426.79
551.51	58295.72
551.68	58394.03
551.84	58316.79
552.01	58237.21
552.18	58602.33
552.34	58422.11
552.51	58534.46
552.68	58188.06
552.84	58560.20
553.01	58829.37
553.18	58497.01
553.34	58925.33
553.51	58632.76
553.67	58585.95
553.84	58717.02
554.01	58698.30
554.17	58965.12
554.34	58990.86
554.51	58651.48
554.67	59152.36
554.84	58897.24
555.00	58660.85
555.17	58927.67
555.33	58955.75
555.50	58852.77
555.67	58742.77
555.83	59016.61
556.00	58787.24
556.16	59238.96
556.33	58932.35
556.50	59058.74
556.66	59215.55
556.83	58972.14
556.99	59210.87
557.16	59337.26
557.32	59332.58
557.49	59503.44
557.65	59175.76
557.82	59288.11
557.98	59196.83
558.15	59285.77
558.32	59281.09
558.48	59098.53
558.65	59475.35
558.81	59264.70
558.98	59440.24
559.14	59405.14
559.31	59419.18
559.47	59505.78
559.64	59484.72
559.80	59536.21
559.97	59674.30
560.13	59358.33
560.30	59618.13
560.46	59557.27
560.63	59653.23
560.79	59615.79
560.96	59765.58
561.12	59611.10
561.29	59817.07
561.45	59817.07
561.61	59540.89
561.78	59559.61
561.94	59641.53
562.11	59852.18
562.27	59536.21
562.44	59803.03
562.60	59737.49
562.77	59807.71
562.93	59639.19
563.10	59798.35
563.26	59728.13
563.42	60198.58
563.59	59732.81
563.75	59800.69
563.92	59838.14
564.08	59744.51
564.24	59990.27
564.41	59999.63
564.57	60111.98
564.74	59976.23
564.90	59835.80
565.07	59894.31
565.23	60072.19
565.39	59887.29
565.56	60013.68
565.72	59941.12
565.88	59997.29
566.05	60025.38
566.21	59992.61
566.38	60165.81
566.54	60060.49
566.70	60259.43
566.87	60292.20
567.03	59847.50
567.19	60203.26
567.36	60163.47
567.52	60090.91
567.68	60413.91
567.85	60324.97
568.01	60219.64
568.17	60074.53
568.34	60268.79
568.50	60119.00
568.66	60264.11
568.83	60224.32
568.99	60308.58
569.15	60278.16
569.32	60285.18
569.48	60214.96
569.64	60680.73
569.81	60341.35
569.97	60306.24
570.13	60081.55
570.30	60252.41
570.46	60460.72
570.62	60420.93
570.78	60280.50
570.95	60137.72
571.11	60477.10
571.27	60521.57
571.43	60240.71
571.60	60343.69
571.76	60577.75
571.92	60509.87
572.09	60219.64
572.25	60413.91
572.41	60587.11
572.57	60367.10
572.74	60673.71
572.90	60467.74
573.06	60509.87
573.22	60399.86
573.38	60549.66
573.55	60603.49
573.71	60919.46
573.87	60582.43
574.03	60559.02
574.20	60561.36
574.36	60554.34
574.52	60814.14
574.68	60575.40
574.84	60720.52
575.01	60519.23
575.17	60676.05
575.33	60495.83
575.49	60474.76
575.65	60652.64
575.82	60535.62
575.98	60596.47
576.14	60954.57
576.30	60760.31
576.46	60666.69
576.62	60622.22
576.79	60460.72
576.95	60594.13
577.11	60715.84
577.27	60645.62
577.43	60678.39
577.59	60458.38
577.75	60601.15
577.92	60608.17
578.08	60622.22
578.24	60776.69
578.40	60764.99
578.56	60825.84
578.72	60701.79
578.88	60772.01
579.04	60603.49
579.21	60662.00
579.37	60687.75
579.53	60968.61
579.69	60669.03
579.85	60500.51
580.01	60767.33
580.17	60645.62
580.33	60786.05
580.49	60860.95
580.65	60678.39
580.82	60666.69
580.98	60434.97
581.14	60704.13
581.30	60786.05
581.46	60804.78
581.62	60853.93
581.78	60690.09
581.94	60821.16
582.10	60685.41
582.26	60610.51
582.42	60622.22
582.58	60966.27
582.74	60683.07
582.90	60772.01
583.06	60697.11
583.22	60739.24
583.38	60727.54
583.54	60954.57
583.70	60907.76
583.86	60844.57
584.02	60870.31
584.18	60942.87
584.34	60729.88
584.50	60886.70
584.66	60748.60
584.82	60678.39
584.98	60919.46
585.14	61095.00
585.30	60856.27
585.46	60708.82
585.62	60898.40
585.78	61097.34
585.94	60699.45
586.10	60589.45
586.26	60940.53
586.42	60800.10
586.58	60910.10
586.74	60970.96
586.90	60851.59
587.06	60879.67
587.22	60907.76
587.38	60835.20
587.54	61132.45
587.70	61010.74
587.86	60982.66
588.02	60870.31
588.18	61013.08
588.34	60807.12
588.49	61050.53
