SpectraSuite Data File
++++++++++++++++++++++++++++++++++++
Date: Fri Oct 25 11:22:36 EDT 2013
User: price-jones
Dark Spectrum Present: No
Reference Spectrum Present: No
Number of Sampled Component Spectra: 1
Spectrometers: USB2+H05261
Integration Time (usec): 100000 (USB2+H05261)
Spectra Averaged: 1 (USB2+H05261)
Boxcar Smoothing: 0 (USB2+H05261)
Correct for Electrical Dark: No (USB2+H05261)
Strobe/Lamp Enabled: No (USB2+H05261)
Correct for Detector Non-linearity: No (USB2+H05261)
Correct for Stray Light: No (USB2+H05261)
Number of Pixels in Processed Spectrum: 2048
>>>>>Begin Processed Spectral Data<<<<<
365.73	224.69
365.92	224.69
366.12	224.69
366.32	100.64
366.52	95.96
366.72	142.77
366.91	140.43
367.11	161.50
367.31	74.90
367.51	180.22
367.70	37.45
367.90	175.54
368.10	126.39
368.30	91.28
368.49	95.96
368.69	175.54
368.89	166.18
369.09	91.28
369.28	149.79
369.48	117.03
369.68	187.24
369.87	194.26
370.07	187.24
370.27	250.44
370.47	325.33
370.66	638.97
370.86	571.09
371.06	624.92
371.25	699.82
371.45	669.39
371.65	716.20
371.84	685.78
372.04	723.23
372.24	711.52
372.44	688.12
372.63	727.91
372.83	770.04
373.03	779.40
373.22	767.70
373.42	772.38
373.62	774.72
373.81	816.85
374.01	826.21
374.21	823.87
374.40	770.04
374.60	758.33
374.79	793.44
374.99	767.70
375.19	821.53
375.38	887.06
375.58	880.04
375.78	837.91
375.97	800.46
376.17	875.36
376.37	882.38
376.56	910.47
376.76	919.83
376.95	863.66
377.15	873.02
377.35	901.11
377.54	903.45
377.74	868.34
377.93	903.45
378.13	983.02
378.33	954.94
378.52	849.61
378.72	924.51
378.91	994.73
379.11	1006.43
379.31	877.70
379.50	976.00
379.70	957.28
379.89	992.39
380.09	976.00
380.28	954.94
380.48	999.41
380.68	922.17
380.87	976.00
381.07	1055.58
381.26	1025.15
381.46	999.41
381.65	1011.11
381.85	1027.50
382.04	1069.62
382.24	987.71
382.43	1123.46
382.63	1076.65
382.83	1027.50
383.02	1039.20
383.22	1083.67
383.41	1083.67
383.61	1107.07
383.80	1078.99
384.00	1104.73
384.19	1174.95
384.39	1160.91
384.58	1088.35
384.78	1102.39
384.97	1217.08
385.17	1086.01
385.36	1102.39
385.56	1235.80
385.75	1181.97
385.95	1231.12
386.14	1125.80
386.34	1226.44
386.53	1224.10
386.72	1214.74
386.92	1310.70
387.11	1317.72
387.31	1303.68
387.50	1226.44
387.70	1299.00
387.89	1268.57
388.09	1259.21
388.28	1179.63
388.48	1341.13
388.67	1315.38
388.86	1373.89
389.06	1256.87
389.25	1380.92
389.45	1348.15
389.64	1338.79
389.84	1350.49
390.03	1413.68
390.22	1439.43
390.42	1423.05
390.61	1460.49
390.81	1385.60
391.00	1359.85
391.19	1458.15
391.39	1465.18
391.58	1385.60
391.78	1411.34
391.97	1469.86
392.16	1519.01
392.36	1406.66
392.55	1504.96
392.75	1537.73
392.94	1526.03
393.13	1565.82
393.33	1544.75
393.52	1474.54
393.71	1645.40
393.91	1699.23
394.10	1643.06
394.29	1673.48
394.49	1617.31
394.68	1661.78
394.88	1596.25
395.07	1788.17
395.26	1671.14
395.46	1600.93
395.65	1764.76
395.84	1767.10
396.04	1760.08
396.23	1710.93
396.42	1813.92
396.62	1743.70
396.81	1715.61
397.00	1851.36
397.19	1849.02
397.39	1776.47
397.58	1753.06
397.77	1699.23
397.97	1921.58
398.16	1959.03
398.35	1902.86
398.55	1853.70
398.74	1891.15
398.93	2003.50
399.12	1837.32
399.32	1839.66
399.51	1989.46
399.70	2045.63
399.90	2069.03
400.09	2026.90
400.28	2059.67
400.47	2066.69
400.67	2090.10
400.86	2094.78
401.05	2076.06
401.24	2174.36
401.44	2148.61
401.63	2085.42
401.82	2186.06
402.01	2073.71
402.21	2197.76
402.40	2139.25
402.59	2235.21
402.78	2181.38
402.97	2195.42
403.17	2167.34
403.36	2300.75
403.55	2314.79
403.74	2275.00
403.93	2345.22
404.13	2452.88
404.32	2438.84
404.51	2445.86
404.70	2480.97
404.89	2427.14
405.09	2558.21
405.28	2434.16
405.47	2527.78
405.66	2593.31
405.85	2511.39
406.05	2548.84
406.24	2635.44
406.43	2455.22
406.62	2574.59
406.81	2698.64
407.00	2644.81
407.20	2525.44
407.39	2658.85
407.58	2747.79
407.77	2782.90
407.96	2757.15
408.15	2747.79
408.34	2733.75
408.54	2803.96
408.73	2864.82
408.92	2878.86
409.11	2988.86
409.30	2874.18
409.49	2822.69
409.68	2876.52
409.87	3063.76
410.07	3023.97
410.26	3108.23
410.45	3084.83
410.64	3082.49
410.83	3094.19
411.02	3211.22
411.21	3185.47
411.40	3274.41
411.59	3208.87
411.78	3222.92
411.98	3131.64
412.17	3288.45
412.36	3288.45
412.55	3365.69
412.74	3346.97
412.93	3236.96
413.12	3389.10
413.31	3559.95
413.50	3489.74
413.69	3513.14
413.88	3667.62
414.07	3571.66
414.26	3651.24
414.45	3681.66
414.64	3662.94
414.83	3679.32
415.02	3786.99
415.22	3922.74
415.41	3798.69
415.60	3882.95
415.79	3803.37
415.98	3981.25
416.17	3978.91
416.36	4091.26
416.55	4056.15
416.74	4037.42
416.93	4184.88
417.12	4180.20
417.31	4283.18
417.50	4210.62
417.69	4318.29
417.88	4273.82
418.07	4243.39
418.26	4175.52
418.45	4224.67
418.64	4535.96
418.83	4447.02
419.02	4440.00
419.21	4491.49
419.39	4538.30
419.58	4442.34
419.77	4517.23
419.96	4629.58
420.15	4662.35
420.34	4589.79
420.53	4617.88
420.72	4751.29
420.91	4858.95
421.10	4793.42
421.29	4748.95
421.48	4746.61
421.67	4880.02
421.86	4891.72
422.05	4748.95
422.24	4734.90
422.43	4933.85
422.61	5046.20
422.80	4999.38
422.99	4933.85
423.18	5039.17
423.37	5151.52
423.56	4889.38
423.75	4940.87
423.94	4959.60
424.13	4671.71
424.32	4884.70
424.50	5228.76
424.69	5078.96
424.88	5064.92
425.07	5027.47
425.26	4959.60
425.45	4952.57
425.64	5022.79
425.83	5053.22
426.01	5172.58
426.20	5013.43
426.39	5118.75
426.58	5064.92
426.77	4938.53
426.96	5240.46
427.15	5100.03
427.33	5186.63
427.52	5242.80
427.71	5338.76
427.90	5273.23
428.09	5359.83
428.28	5441.75
428.46	5444.09
428.65	5507.28
428.84	5584.52
429.03	5455.79
429.22	5423.02
429.40	5462.81
429.59	5565.79
429.78	5273.23
429.97	5125.77
430.16	5427.70
430.34	5699.20
430.53	5898.15
430.72	5692.18
430.91	5736.65
431.10	5671.12
431.28	5640.69
431.47	5841.98
431.66	5710.91
431.85	5750.70
432.03	5710.91
432.22	6132.20
432.41	5799.85
432.60	5966.03
432.79	5872.40
432.97	6029.22
433.16	6162.63
433.35	5980.07
433.54	6127.52
433.72	6204.76
433.91	6015.18
434.10	6207.10
434.28	6155.61
434.47	6345.19
434.66	6314.77
434.85	6300.72
435.03	6443.49
435.22	6347.53
435.41	6612.01
435.59	6317.11
435.78	6492.65
435.97	6476.26
436.16	6436.47
436.34	6459.88
436.53	6658.82
436.72	6684.57
436.90	6565.20
437.09	6534.78
437.28	6504.35
437.46	6684.57
437.65	6614.35
437.84	6757.13
438.02	6803.94
438.21	7035.65
438.40	6745.42
438.58	6993.52
438.77	7105.87
438.96	6892.88
439.14	7178.42
439.33	7126.93
439.52	7300.13
439.70	7272.04
439.89	7283.75
440.08	7414.82
440.26	7384.39
440.45	7421.84
440.63	7288.43
440.82	7683.98
441.01	7611.42
441.19	7578.65
441.38	7686.32
441.57	7765.90
441.75	7726.11
441.94	8063.15
442.12	7906.33
442.31	8114.64
442.50	7999.95
442.68	8067.83
442.87	8241.03
443.05	8175.49
443.24	8355.71
443.43	8145.06
443.61	8395.50
443.80	8479.76
443.98	8203.58
444.17	8119.32
444.35	8341.67
444.54	8411.89
444.73	8121.66
444.91	8393.16
445.10	8439.97
445.28	8432.95
445.47	8243.37
445.65	8278.47
445.84	8622.53
446.02	8351.03
446.21	8468.06
446.39	8549.98
446.58	8706.79
446.77	8540.61
446.95	8346.35
447.14	8568.70
447.32	8580.40
447.51	8613.17
447.69	8521.89
447.88	8535.93
448.06	8582.74
448.25	8402.52
448.43	8575.72
448.62	8760.63
448.80	8622.53
448.99	8781.69
449.17	8524.23
449.36	8629.56
449.54	9158.52
449.73	8952.55
449.91	8926.80
450.10	9008.72
450.28	8999.36
450.46	9224.05
450.65	9085.96
450.83	9186.60
451.02	9097.66
451.20	9217.03
451.39	9249.80
451.57	9174.90
451.76	9188.94
451.94	9394.91
452.13	9390.23
452.31	9322.35
452.49	9102.34
452.68	9376.19
452.86	9504.92
453.05	9406.61
453.23	9547.05
453.42	9336.40
453.60	9394.91
453.78	9481.51
453.97	9568.11
454.15	9724.93
454.34	9598.54
454.52	9764.72
454.70	9554.07
454.89	9652.37
455.07	9860.68
455.26	9820.89
455.44	10104.09
455.62	10031.54
455.81	10052.60
455.99	10033.88
456.17	10073.67
456.36	10267.93
456.54	10015.15
456.73	10375.59
456.91	10583.90
457.09	10459.85
457.28	10719.65
457.46	10527.73
457.64	10672.84
457.83	10583.90
458.01	10506.66
458.19	10864.77
458.38	10569.86
458.56	10644.76
458.74	10796.89
458.93	10745.40
459.11	10864.77
459.29	10820.30
459.48	10899.87
459.66	11030.94
459.84	11171.38
460.03	11290.74
460.21	11246.27
460.39	11243.93
460.57	11073.07
460.76	11023.92
460.94	11489.69
461.12	11119.89
461.31	11122.23
461.49	11463.94
461.67	11358.62
461.85	11681.61
462.04	11417.13
462.22	11796.30
462.40	11620.76
462.59	11611.40
462.77	11735.45
462.95	11817.36
463.13	11772.89
463.32	11609.06
463.50	11957.80
463.68	11789.28
463.86	12006.95
464.05	11716.72
464.23	12046.74
464.41	11960.14
464.59	11754.17
464.78	12395.48
464.96	12100.57
465.14	12013.97
465.32	12126.32
465.50	12098.23
465.69	12400.16
465.87	12191.85
466.05	12224.62
466.23	12409.52
466.41	12444.63
466.60	12559.31
466.78	12276.11
466.96	12198.87
467.14	12170.79
467.32	12547.61
467.51	12870.61
467.69	12280.79
467.87	12566.34
468.05	12912.74
468.23	12379.09
468.41	12503.14
468.60	12606.13
468.78	13048.49
468.96	12854.22
469.14	13170.19
469.32	13025.08
469.50	12624.85
469.69	13193.60
469.87	13191.26
470.05	13291.90
470.23	12985.29
470.41	13212.32
470.59	13310.63
470.77	13170.19
470.95	13369.14
471.14	13525.96
471.32	13437.02
471.50	13774.05
471.68	13731.92
471.86	13891.08
472.04	13874.70
472.22	14389.61
472.40	13696.82
472.58	13965.98
472.77	14134.50
472.95	14120.45
473.13	14654.09
473.31	14223.44
473.49	13991.72
473.67	14101.73
473.85	14434.08
474.03	14654.09
474.21	14579.20
474.39	14988.79
474.57	14841.34
474.75	14984.11
474.93	15108.16
475.12	15117.52
475.30	15487.32
475.48	14923.26
475.66	15440.51
475.84	15325.83
476.02	15438.17
476.20	15372.64
476.38	15861.81
476.56	16262.04
476.74	16166.08
476.92	16023.31
477.10	15964.79
477.28	16592.06
477.46	16252.68
477.64	16393.11
477.82	16786.32
478.00	17207.62
478.18	16795.68
478.36	17153.79
478.54	17198.26
478.72	17439.33
478.90	17554.02
479.08	17713.17
479.26	17991.70
479.44	17933.18
479.62	18256.18
479.80	18263.20
479.98	18277.24
480.16	18782.80
480.34	18677.48
480.52	18939.62
480.70	18853.02
480.88	18518.32
481.06	19096.43
481.24	18892.80
481.41	19283.67
481.59	19222.82
481.77	19442.83
481.95	19604.33
482.13	20018.60
482.31	19822.00
482.49	20470.33
482.67	20608.42
482.85	20563.95
483.03	20716.08
483.21	21064.82
483.39	21319.94
483.57	21380.79
483.74	21546.97
483.92	21633.57
484.10	21397.18
484.28	21766.98
484.46	22202.32
484.64	22735.96
484.82	22120.40
485.00	22462.12
485.18	23058.96
485.35	22951.29
485.53	22951.29
485.71	23356.21
485.89	23868.78
486.07	23487.28
486.25	23866.44
486.43	23798.57
486.61	24011.56
486.78	24280.72
486.96	24559.24
487.14	24828.40
487.32	25013.31
487.50	25207.57
487.68	25102.25
487.85	25785.68
488.03	25685.04
488.21	26455.08
488.39	26284.22
488.57	26569.76
488.75	26256.13
488.92	26955.95
489.10	27009.78
489.28	26876.37
489.46	27367.88
489.64	27246.18
489.81	27789.18
489.99	27630.02
490.17	28306.44
490.35	28416.44
490.53	28334.53
490.70	28599.01
490.88	28357.93
491.06	29024.98
491.24	29020.30
491.41	29020.30
491.59	29642.88
491.77	29441.60
491.95	30043.12
492.13	30148.44
492.30	30668.04
492.48	30448.03
492.66	30614.21
492.84	30808.47
493.01	30932.52
493.19	30934.86
493.37	31021.46
493.54	31468.50
493.72	31599.57
493.90	31566.81
494.08	31948.31
494.25	32720.69
494.43	32505.36
494.61	32711.33
494.79	32680.90
494.96	32989.85
495.14	32975.81
495.32	33483.70
495.49	33495.41
495.67	33699.03
495.85	33605.41
496.02	34157.78
496.20	34377.79
496.38	34443.32
496.55	34602.48
496.73	35019.10
496.91	34759.30
497.09	35281.24
497.26	34841.21
497.44	35264.85
497.62	35655.72
497.79	36259.58
497.97	35526.99
498.14	36311.07
498.32	36566.19
498.50	37003.87
498.67	37165.37
498.85	37050.68
499.03	37249.63
499.20	37053.02
499.38	37338.57
499.56	37214.52
499.73	37221.54
499.91	37972.85
500.08	38071.15
500.26	37661.56
500.44	38031.36
500.61	38457.34
500.79	38513.52
500.97	38122.65
501.14	38993.32
501.32	38820.13
501.49	38756.93
501.67	38960.56
501.84	39559.73
502.02	39426.32
502.20	39365.47
502.37	39896.77
502.55	39538.67
502.72	39875.71
502.90	39819.53
503.07	39742.30
503.25	40046.57
503.43	40217.43
503.60	40577.87
503.78	40423.39
503.95	40851.71
504.13	40720.64
504.30	41031.93
504.48	41191.09
504.65	40987.46
504.83	41265.99
505.01	41834.74
505.18	41610.04
505.36	41869.84
505.53	41738.77
505.71	41961.12
505.88	41853.46
506.06	41975.17
506.23	42337.95
506.41	42548.60
506.58	42792.01
506.76	42728.82
506.93	42607.11
507.11	42635.20
507.28	43515.24
507.46	43049.47
507.63	43349.06
507.81	43807.81
507.98	43201.61
508.16	43686.10
508.33	43899.09
508.50	43793.76
508.68	44034.84
508.85	44226.76
509.03	44404.64
509.20	44285.28
509.38	44701.89
509.55	44247.83
509.73	44931.26
509.90	45347.88
510.08	45574.91
510.25	45043.61
510.42	45125.53
510.60	45249.58
510.77	45446.18
510.95	45607.68
511.12	45537.46
511.30	45427.46
511.47	45546.82
511.64	45956.42
511.82	46291.12
511.99	46160.05
512.17	46504.10
512.34	46284.09
512.51	46829.44
512.69	46920.72
512.86	46511.13
513.04	46923.06
513.21	47093.92
513.38	47320.95
513.56	47540.96
513.73	47260.10
513.90	47693.10
514.08	47250.74
514.25	47697.78
514.43	47660.33
514.60	48350.79
514.77	47763.31
514.95	47927.15
515.12	48044.18
515.29	48076.94
515.47	48591.86
515.64	48643.35
515.81	48245.46
515.99	48825.92
516.16	48741.66
516.33	48701.87
516.51	48891.45
516.68	48633.99
516.85	48800.17
517.03	49333.81
517.20	49076.35
517.37	49392.33
517.54	49361.90
517.72	49303.38
517.89	49766.81
518.06	49771.49
518.24	49790.22
518.41	49598.29
518.58	49954.05
518.75	49621.70
518.93	49841.71
519.10	49715.32
519.27	49827.66
519.45	50204.49
519.62	50326.20
519.79	50251.30
519.96	50160.02
520.14	50602.38
520.31	50555.57
520.48	50703.03
520.65	50646.85
520.83	50838.78
521.00	50988.57
521.17	50937.08
521.34	50941.76
521.52	51019.00
521.69	51030.70
521.86	51515.19
522.03	51746.90
522.20	51683.71
522.38	51739.88
522.55	51742.22
522.72	51798.40
522.89	51784.35
523.07	51611.15
523.24	52231.40
523.41	52175.22
523.58	51737.54
523.75	52287.57
523.92	52060.54
524.10	52154.16
524.27	52416.30
524.44	52231.40
524.61	52383.53
524.78	52456.09
524.96	52472.47
525.13	52526.30
525.30	52451.41
525.47	52692.48
525.64	52942.92
525.81	52755.68
525.98	53069.31
526.16	52839.93
526.33	52912.49
526.50	53453.15
526.67	53132.50
526.84	53579.54
527.01	53099.73
527.18	53160.59
527.36	53703.59
527.53	53364.21
527.70	53654.44
527.87	53780.83
528.04	53347.83
528.21	53443.79
528.38	53647.42
528.55	53743.38
528.72	53794.87
528.89	53900.20
529.07	53680.19
529.24	53647.42
529.41	53993.82
529.58	53808.92
529.75	53923.60
529.92	53986.80
530.09	54197.44
530.26	54234.89
530.43	54305.11
530.60	54192.76
530.77	54302.77
530.94	54504.06
531.11	54171.70
531.28	54382.35
531.46	54672.57
531.63	54630.44
531.80	54539.16
531.97	54681.94
532.14	54962.80
532.31	54897.27
532.48	54789.60
532.65	54876.20
532.82	54820.03
532.99	55145.36
533.16	54850.45
533.33	54997.91
533.50	55407.50
533.67	55140.68
533.84	54843.43
534.01	55262.39
534.18	55173.45
534.35	55309.20
534.52	55402.82
534.69	55269.41
534.86	55674.32
535.03	55159.41
535.20	55554.96
535.37	55770.28
535.54	55725.81
535.71	55473.04
535.88	55803.05
536.05	55627.51
536.22	55807.73
536.38	55538.57
536.55	55931.78
536.72	56016.04
536.89	55742.20
537.06	55880.29
537.23	56130.73
537.40	55800.71
537.57	55950.51
537.74	55964.55
537.91	56292.22
538.08	56097.96
538.25	56048.81
538.42	56238.39
538.59	56420.95
538.75	56172.86
538.92	56273.50
539.09	56528.62
539.26	56481.81
539.43	56460.74
539.60	56264.14
539.77	56392.87
539.94	56657.35
540.11	56685.43
540.28	56767.35
540.44	56655.01
540.61	56582.45
540.78	56573.09
540.95	56655.01
541.12	56374.14
541.29	56655.01
541.46	56945.23
541.62	56655.01
541.79	56804.80
541.96	56893.74
542.13	56823.53
542.30	56954.60
542.47	57097.37
542.63	57064.60
542.80	57275.25
542.97	57317.38
543.14	57352.49
543.31	57361.85
543.48	57495.26
543.64	57497.60
543.81	57635.69
543.98	57432.07
544.15	57612.29
544.32	57474.20
544.48	57832.30
544.65	57628.67
544.82	57511.64
544.99	57406.32
545.16	57841.66
545.32	57570.16
545.49	57986.77
545.66	57858.04
545.83	57888.47
546.00	57785.49
546.16	57893.15
546.33	57897.83
546.50	57642.71
546.67	58061.67
546.83	57839.32
547.00	57977.41
547.17	58197.42
547.34	58103.80
547.50	58120.18
547.67	58412.75
547.84	58223.17
548.00	58328.49
548.17	58541.48
548.34	58262.96
548.51	58576.59
548.67	58356.58
548.84	58422.11
549.01	57958.69
549.18	58291.04
549.34	58419.77
549.51	58473.60
549.68	58452.54
549.84	58731.06
550.01	58693.61
550.18	58529.78
550.34	58829.37
550.51	58796.60
550.68	58494.67
550.84	58534.46
551.01	58829.37
551.18	58738.08
551.34	58677.23
551.51	58798.94
551.68	58862.13
551.84	58908.94
552.01	58525.10
552.18	59070.44
552.34	58726.38
552.51	59007.25
552.68	58843.41
552.84	58976.82
553.01	59208.53
553.18	58941.71
553.34	59178.10
553.51	58873.84
553.67	59178.10
553.84	59103.21
554.01	59091.51
554.17	59257.68
554.34	59290.45
554.51	59241.30
554.67	59419.18
554.84	59236.62
555.00	59117.25
555.17	59189.81
555.33	59271.73
555.50	59021.29
555.67	59260.02
555.83	59344.28
556.00	59278.75
556.16	59625.15
556.33	59512.80
556.50	59601.74
556.66	59718.77
556.83	59363.01
556.99	59639.19
557.16	59838.14
557.32	59793.67
557.49	59950.48
557.65	59505.78
557.82	59508.12
557.98	59580.68
558.15	59671.96
558.32	59721.11
558.48	59477.69
558.65	59669.62
558.81	59625.15
558.98	59742.17
559.14	59955.16
559.31	59943.46
559.47	59973.89
559.64	60013.68
559.80	59973.89
559.97	59950.48
560.13	59812.39
560.30	60100.28
560.46	59987.93
560.63	59999.63
560.79	60039.42
560.96	60039.42
561.12	60149.43
561.29	60172.83
561.45	59973.89
561.61	60055.81
561.78	59964.52
561.94	60119.00
562.11	60102.62
562.27	60126.02
562.44	60081.55
562.60	60219.64
562.77	60378.80
562.93	60186.88
563.10	60355.39
563.26	60151.77
563.42	60559.02
563.59	60331.99
563.75	60198.58
563.92	60240.71
564.08	60212.62
564.24	60299.22
564.41	60409.23
564.57	60275.82
564.74	60491.15
564.90	60484.12
565.07	60308.58
565.23	60245.39
565.39	60374.12
565.56	60308.58
565.72	60154.11
565.88	60268.79
566.05	60299.22
566.21	60423.27
566.38	60369.44
566.54	60282.84
566.70	60481.78
566.87	60554.34
567.03	60491.15
567.19	60521.57
567.36	60575.40
567.52	60385.82
567.68	60781.37
567.85	60626.90
568.01	60748.60
568.17	60587.11
568.34	60638.60
568.50	60690.09
568.66	60530.93
568.83	60722.86
568.99	60514.55
569.15	60605.83
569.32	60725.20
569.48	60851.59
569.64	60594.13
569.81	60687.75
569.97	60772.01
570.13	60772.01
570.30	60575.40
570.46	60851.59
570.62	60816.48
570.78	60781.37
570.95	60772.01
571.11	60856.27
571.27	60757.97
571.43	60776.69
571.60	60954.57
571.76	60952.23
571.92	60823.50
572.09	60790.73
572.25	60996.70
572.41	60790.73
572.57	60755.63
572.74	61006.06
572.90	60804.78
573.06	60821.16
573.22	60769.67
573.38	61176.92
573.55	60828.18
573.71	61083.30
573.87	60776.69
574.03	60725.20
574.20	60844.57
574.36	60795.42
574.52	61008.40
574.68	60989.68
574.84	60867.97
575.01	61062.24
575.17	60949.89
575.33	60832.86
575.49	60835.20
575.65	60917.12
575.82	61045.85
575.98	61092.66
576.14	61099.68
576.30	60954.57
576.46	60933.51
576.62	60966.27
576.79	60949.89
576.95	60919.46
577.11	60947.55
577.27	61048.19
577.43	60970.96
577.59	60872.65
577.75	60912.44
577.92	60973.30
578.08	60999.04
578.24	61048.19
578.40	61197.99
578.56	61095.00
578.72	61195.65
578.88	61125.43
579.04	61130.11
579.21	61111.39
579.37	61242.46
579.53	61286.93
579.69	60818.82
579.85	61050.53
580.01	61090.32
580.17	60949.89
580.33	61263.52
580.49	61223.73
580.65	61146.50
580.82	61010.74
580.98	60926.49
581.14	60956.91
581.30	61134.79
581.46	61050.53
581.62	61258.84
581.78	61244.80
581.94	61310.33
582.10	61104.37
582.26	61300.97
582.42	60982.66
582.58	61209.69
582.74	61083.30
582.90	61205.01
583.06	61293.95
583.22	61123.09
583.38	61006.06
583.54	61361.82
583.70	61378.21
583.86	61354.80
584.02	61048.19
584.18	61181.60
584.34	61307.99
584.50	61179.26
584.66	61151.18
584.82	61132.45
584.98	61394.59
585.14	61413.32
585.30	61022.45
585.46	61394.59
585.62	61324.38
585.78	61600.56
585.94	61013.08
586.10	61389.91
586.26	61258.84
586.42	61518.64
586.58	61371.19
586.74	61289.27
586.90	61069.26
587.06	61125.43
587.22	61401.61
587.38	61155.86
587.54	61436.72
587.70	61528.00
587.86	61425.02
588.02	61373.53
588.18	61448.42
588.34	61317.35
588.49	61113.73
