SpectraSuite Data File
++++++++++++++++++++++++++++++++++++
Date: Fri Oct 25 11:34:41 EDT 2013
User: price-jones
Dark Spectrum Present: No
Reference Spectrum Present: No
Number of Sampled Component Spectra: 1
Spectrometers: USB2+H05261
Integration Time (usec): 100000 (USB2+H05261)
Spectra Averaged: 1 (USB2+H05261)
Boxcar Smoothing: 0 (USB2+H05261)
Correct for Electrical Dark: No (USB2+H05261)
Strobe/Lamp Enabled: No (USB2+H05261)
Correct for Detector Non-linearity: No (USB2+H05261)
Correct for Stray Light: No (USB2+H05261)
Number of Pixels in Processed Spectrum: 2048
>>>>>Begin Processed Spectral Data<<<<<
365.73	355.76
365.92	355.76
366.12	355.76
366.32	201.29
366.52	210.65
366.72	222.35
366.91	163.84
367.11	184.90
367.31	77.24
367.51	170.86
367.70	201.29
367.90	126.39
368.10	133.41
368.30	182.56
368.49	227.03
368.69	236.39
368.89	205.97
369.09	184.90
369.28	243.42
369.48	212.99
369.68	145.11
369.87	210.65
370.07	250.44
370.27	404.91
370.47	320.65
370.66	458.74
370.86	505.56
371.06	550.03
371.25	631.94
371.45	442.36
371.65	531.30
371.84	437.68
372.04	566.41
372.24	594.50
372.44	622.58
372.63	557.05
372.83	514.92
373.03	596.84
373.22	622.58
373.42	599.18
373.62	592.16
373.81	594.50
374.01	610.88
374.21	685.78
374.40	695.14
374.60	676.41
374.79	610.88
374.99	622.58
375.19	667.05
375.38	634.29
375.58	688.12
375.78	641.31
375.97	695.14
376.17	690.46
376.37	753.65
376.56	573.43
376.76	690.46
376.95	692.80
377.15	645.99
377.35	685.78
377.54	734.93
377.74	657.69
377.93	678.76
378.13	697.48
378.33	711.52
378.52	709.18
378.72	695.14
378.91	737.27
379.11	683.44
379.31	622.58
379.50	702.16
379.70	713.86
379.89	645.99
380.09	713.86
380.28	706.84
380.48	732.59
380.68	699.82
380.87	718.54
381.07	645.99
381.26	704.50
381.46	856.64
381.65	723.23
381.85	641.31
382.04	681.10
382.24	786.42
382.43	706.84
382.63	751.31
382.83	758.33
383.02	716.20
383.22	748.97
383.41	816.85
383.61	765.36
383.80	828.55
384.00	737.27
384.19	798.12
384.39	816.85
384.58	723.23
384.78	793.44
384.97	800.46
385.17	777.06
385.36	866.00
385.56	847.27
385.75	788.76
385.95	795.78
386.14	856.64
386.34	828.55
386.53	763.01
386.72	858.98
386.92	880.04
387.11	877.70
387.31	821.53
387.50	800.46
387.70	908.13
387.89	802.80
388.09	854.30
388.28	849.61
388.48	856.64
388.67	898.77
388.86	947.92
389.06	964.30
389.25	882.38
389.45	854.30
389.64	919.83
389.84	912.81
390.03	952.60
390.22	922.17
390.42	929.19
390.61	896.43
390.81	891.74
391.00	945.58
391.19	997.07
391.39	980.68
391.58	919.83
391.78	997.07
391.97	1074.31
392.16	938.55
392.36	990.05
392.55	1104.73
392.75	1093.03
392.94	1097.71
393.13	1029.84
393.33	945.58
393.52	1053.24
393.71	1053.24
393.91	1083.67
394.10	1032.18
394.29	1057.92
394.49	1050.90
394.68	1067.28
394.88	971.32
395.07	1076.65
395.26	1128.14
395.46	1097.71
395.65	1123.46
395.84	1111.75
396.04	1123.46
396.23	1228.78
396.42	1167.93
396.62	1214.74
396.81	1205.38
397.00	1174.95
397.19	1196.01
397.39	1198.35
397.58	1193.67
397.77	1273.25
397.97	1228.78
398.16	1179.63
398.35	1184.31
398.55	1177.29
398.74	1191.33
398.93	1198.35
399.12	1184.31
399.32	1210.06
399.51	1172.61
399.70	1287.29
399.90	1277.93
400.09	1341.13
400.28	1359.85
400.47	1385.60
400.67	1334.11
400.86	1299.00
401.05	1399.64
401.24	1401.98
401.44	1390.28
401.63	1390.28
401.82	1413.68
402.01	1369.21
402.21	1406.66
402.40	1425.39
402.59	1364.53
402.78	1495.60
402.97	1385.60
403.17	1472.20
403.36	1446.45
403.55	1514.33
403.74	1495.60
403.93	1584.54
404.13	1530.71
404.32	1577.52
404.51	1500.28
404.70	1626.67
404.89	1474.54
405.09	1593.90
405.28	1652.42
405.47	1607.95
405.66	1577.52
405.85	1565.82
406.05	1661.78
406.24	1652.42
406.43	1657.10
406.62	1708.59
406.81	1703.91
407.00	1706.25
407.20	1689.87
407.39	1785.83
407.58	1774.13
407.77	1755.40
407.96	1755.40
408.15	1818.60
408.34	1699.23
408.54	1795.19
408.73	1940.30
408.92	1832.64
409.11	1893.49
409.30	1865.41
409.49	1933.28
409.68	1956.69
409.87	1987.11
410.07	2024.56
410.26	2010.52
410.45	1954.35
410.64	1909.88
410.83	2019.88
411.02	2019.88
411.21	2097.12
411.40	2036.27
411.59	2085.42
411.78	2132.23
411.98	2104.14
412.17	2106.48
412.36	2150.95
412.55	2162.66
412.74	2202.44
412.93	2251.60
413.12	2071.37
413.31	2328.83
413.50	2265.64
413.69	2232.87
413.88	2363.94
414.07	2335.85
414.26	2387.35
414.45	2445.86
414.64	2385.01
414.83	2429.48
415.02	2455.22
415.22	2511.39
415.41	2541.82
415.60	2506.71
415.79	2506.71
415.98	2544.16
416.17	2623.74
416.36	2530.12
416.55	2576.93
416.74	2633.10
416.93	2700.98
417.12	2815.66
417.31	2640.12
417.50	2874.18
417.69	2808.64
417.88	2745.45
418.07	2738.43
418.26	2857.79
418.45	2860.13
418.64	2944.39
418.83	2857.79
419.02	3009.93
419.21	2946.73
419.39	2909.29
419.58	2899.92
419.77	2965.46
419.96	2974.82
420.15	2963.12
420.34	2939.71
420.53	3056.74
420.72	3028.65
420.91	3108.23
421.10	3129.30
421.29	3075.46
421.48	3066.10
421.67	3080.14
421.86	3063.76
422.05	3054.40
422.24	3096.53
422.43	3176.11
422.61	3225.26
422.80	3304.84
422.99	3180.79
423.18	3307.18
423.37	3356.33
423.56	3176.11
423.75	3206.53
423.94	3164.40
424.13	3077.80
424.32	3103.55
424.50	3117.59
424.69	3246.32
424.88	3286.11
425.07	3169.09
425.26	3176.11
425.45	3204.19
425.64	3136.32
425.83	3279.09
426.01	3286.11
426.20	3267.39
426.39	3272.07
426.58	3300.16
426.77	3255.69
426.96	3410.16
427.15	3428.88
427.33	3410.16
427.52	3445.27
427.71	3417.18
427.90	3372.71
428.09	3386.76
428.28	3562.30
428.46	3513.14
428.65	3590.38
428.84	3524.85
429.03	3592.72
429.22	3447.61
429.40	3445.27
429.59	3487.40
429.78	3431.23
429.97	3475.70
430.16	3625.49
430.34	3576.34
430.53	3669.96
430.72	3838.48
430.91	3583.36
431.10	3700.39
431.28	3756.56
431.47	3775.28
431.66	3822.09
431.85	3885.29
432.03	3730.81
432.22	3772.94
432.41	3744.86
432.60	3896.99
432.79	3817.41
432.97	3873.59
433.16	3932.10
433.35	3859.54
433.54	3969.55
433.72	4030.40
433.91	3887.63
434.10	3906.35
434.28	3967.21
434.47	4067.85
434.66	3957.85
434.85	4138.07
435.03	4119.34
435.22	3983.59
435.41	4161.47
435.59	4227.01
435.78	4173.18
435.97	4187.22
436.16	4159.13
436.34	4084.23
436.53	4283.18
436.72	4198.92
436.90	4084.23
437.09	4198.92
437.28	4163.81
437.46	4241.05
437.65	4248.07
437.84	4444.68
438.02	4423.61
438.21	4255.09
438.40	4411.91
438.58	4491.49
438.77	4662.35
438.96	4430.63
439.14	4613.20
439.33	4568.73
439.52	4638.94
439.70	4835.55
439.89	4610.86
440.08	4737.24
440.26	4903.42
440.45	4821.50
440.63	4851.93
440.82	4821.50
441.01	4828.53
441.19	4959.60
441.38	5067.26
441.57	5029.81
441.75	5060.24
441.94	5102.37
442.12	5053.22
442.31	5018.11
442.50	4997.04
442.68	5088.32
442.87	5130.45
443.05	5135.14
443.24	5174.92
443.43	5114.07
443.61	5195.99
443.80	5130.45
443.98	5249.82
444.17	5062.58
444.35	5336.42
444.54	5380.89
444.73	5252.16
444.91	5315.36
445.10	5275.57
445.28	5238.12
445.47	5224.08
445.65	5313.02
445.84	5366.85
446.02	5437.06
446.21	5275.57
446.39	5362.17
446.58	5448.77
446.77	5453.45
446.95	5467.49
447.14	5432.38
447.32	5427.70
447.51	5390.25
447.69	5526.00
447.88	5425.36
448.06	5540.05
448.25	5451.11
448.43	5682.82
448.62	5558.77
448.80	5493.24
448.99	5540.05
449.17	5554.09
449.36	5540.05
449.54	5650.05
449.73	5813.89
449.91	5750.70
450.10	5710.91
450.28	5921.56
450.46	5678.14
450.65	5825.59
450.83	5872.40
451.02	5954.32
451.20	5996.45
451.39	5933.26
451.57	5919.21
451.76	5811.55
451.94	5921.56
452.13	6024.54
452.31	5912.19
452.49	5895.81
452.68	5877.09
452.86	5977.73
453.05	5977.73
453.23	6265.61
453.42	5837.30
453.60	5970.71
453.78	6087.73
453.97	5942.62
454.15	6029.22
454.34	6066.67
454.52	6113.48
454.70	6038.58
454.89	6031.56
455.07	6235.19
455.26	6363.92
455.44	6249.23
455.62	6338.17
455.81	6340.51
455.99	6441.15
456.17	6373.28
456.36	6340.51
456.54	6537.12
456.73	6485.62
456.91	6612.01
457.09	6581.59
457.28	6743.08
457.46	6635.42
457.64	6527.75
457.83	6565.20
458.01	6619.04
458.19	6679.89
458.38	6647.12
458.56	6796.92
458.74	6803.94
458.93	6780.53
459.11	6810.96
459.29	6871.81
459.48	6911.60
459.66	6810.96
459.84	6939.69
460.03	7037.99
460.21	7054.37
460.39	6942.03
460.57	7007.56
460.76	7213.53
460.94	7056.72
461.12	7110.55
461.31	6888.20
461.49	7157.36
461.67	7070.76
461.85	7384.39
462.04	7035.65
462.22	7534.18
462.40	7332.90
462.59	7204.17
462.77	7447.58
462.95	7356.30
463.13	7377.37
463.32	7262.68
463.50	7431.20
463.68	7248.64
463.86	7330.56
464.05	7286.09
464.23	7316.51
464.41	7772.92
464.59	7506.10
464.78	7688.66
464.96	7559.93
465.14	7487.37
465.32	7552.91
465.50	7747.17
465.69	7786.96
465.87	7531.84
466.05	7655.89
466.23	7641.85
466.41	7779.94
466.60	7831.43
466.78	7737.81
466.96	7681.64
467.14	7861.86
467.32	7824.41
467.51	8004.63
467.69	7775.26
467.87	7793.98
468.05	7789.30
468.23	7854.84
468.41	7791.64
468.60	7859.52
468.78	8030.38
468.96	7918.03
469.14	7978.89
469.32	8084.21
469.50	7925.05
469.69	8131.02
469.87	8353.37
470.05	8280.82
470.23	8383.80
470.41	8262.09
470.59	8280.82
470.77	8388.48
470.95	8332.31
471.14	8571.04
471.32	8336.99
471.50	8439.97
471.68	8451.67
471.86	8620.19
472.04	8561.68
472.22	8917.44
472.40	8578.06
472.58	8594.45
472.77	8634.24
472.95	8835.52
473.13	9006.38
473.31	8760.63
473.49	8982.98
473.67	8945.53
473.85	8926.80
474.03	8968.93
474.21	9263.84
474.39	9329.38
474.57	9233.41
474.75	9380.87
474.93	9533.00
475.12	9207.67
475.30	9427.68
475.48	9479.17
475.66	9565.77
475.84	9348.10
476.02	9792.80
476.20	9661.73
476.38	9699.18
476.56	10160.27
476.74	10010.47
476.92	9703.86
477.10	9975.36
477.28	10113.45
477.46	10080.69
477.64	10270.27
477.82	10469.22
478.00	10572.20
478.18	10595.61
478.36	10633.05
478.54	10864.77
478.72	10611.99
478.90	10836.68
479.08	11009.88
479.26	11080.10
479.44	11023.92
479.62	11173.72
479.80	11279.04
479.98	11295.43
480.16	11496.71
480.34	11461.60
480.52	11456.92
480.70	11529.48
480.88	11412.45
481.06	11655.87
481.24	11672.25
481.41	11927.37
481.59	11882.90
481.77	12177.81
481.95	12208.23
482.13	12231.64
482.31	12109.93
482.49	12540.59
482.67	12545.27
482.85	12535.91
483.03	12699.75
483.21	13011.04
483.39	13043.81
483.57	12945.50
483.74	13371.48
483.92	13181.90
484.10	13212.32
484.28	13366.80
484.46	13696.82
484.64	13848.95
484.82	13603.19
485.00	13703.84
485.18	13961.30
485.35	14211.73
485.53	14244.50
485.71	14216.41
485.89	14368.55
486.07	14530.05
486.25	14459.83
486.43	14665.80
486.61	14829.63
486.78	14981.77
486.96	14743.03
487.14	14855.38
487.32	15272.00
487.50	15389.02
487.68	15405.41
487.85	15508.39
488.03	15704.99
488.21	15798.62
488.39	16105.23
488.57	16130.97
488.75	16285.45
488.92	16353.32
489.10	16449.28
489.28	16304.17
489.46	16732.49
489.64	16664.61
489.81	17130.38
489.99	17191.23
490.17	17209.96
490.35	17436.99
490.53	17128.04
490.70	17521.25
490.88	17530.61
491.06	17860.63
491.24	17462.74
491.41	17961.27
491.59	18059.57
491.77	18073.62
491.95	17893.40
492.13	18415.34
492.30	18466.83
492.48	18548.75
492.66	18693.86
492.84	18897.49
493.01	18820.25
493.19	18743.01
493.37	19356.23
493.54	19269.63
493.72	19517.73
493.90	19538.79
494.08	19674.54
494.25	19747.10
494.43	19672.20
494.61	19892.21
494.79	20428.20
494.96	19995.20
495.14	20266.70
495.32	20503.09
495.49	20521.82
495.67	20556.93
495.85	20482.03
496.02	21010.99
496.20	20744.17
496.38	21099.93
496.55	21205.25
496.73	21610.17
496.91	21109.29
497.09	21263.77
497.26	21546.97
497.44	21542.29
497.62	21390.16
497.79	22026.78
497.97	21895.71
498.14	22085.30
498.32	22277.22
498.50	22157.85
498.67	22412.97
498.85	22328.71
499.03	22654.05
499.20	22506.59
499.38	22448.08
499.56	22885.76
499.73	23108.11
499.91	23112.79
500.08	23124.49
500.26	22934.91
500.44	23332.80
500.61	23374.93
500.79	23271.95
500.97	23534.09
501.14	23798.57
501.32	23896.87
501.49	23840.70
501.67	24086.45
501.84	24386.04
502.02	23775.16
502.20	24074.75
502.37	24020.92
502.55	24210.50
502.72	24376.68
502.90	24261.99
503.07	24257.31
503.25	24423.49
503.43	24226.89
503.60	24882.24
503.78	24634.14
503.95	25006.28
504.13	24929.05
504.30	25010.96
504.48	24856.49
504.65	25350.34
504.83	25418.22
505.01	25811.43
505.18	25418.22
505.36	25614.82
505.53	25495.46
505.71	26082.93
505.88	26092.29
506.06	25741.21
506.23	26064.21
506.41	25699.08
506.58	25820.79
506.76	26202.30
506.93	25928.45
507.11	26724.24
507.28	26370.82
507.46	26338.05
507.63	26588.49
507.81	26885.73
507.98	26443.37
508.16	26895.10
508.33	26876.37
508.50	26789.77
508.68	26735.94
508.85	27328.10
509.03	27239.15
509.20	27236.81
509.38	27538.74
509.55	27683.86
509.73	27566.83
509.90	27920.25
510.08	27681.52
510.25	27995.15
510.42	27828.97
510.60	27974.08
510.77	27995.15
510.95	28498.36
511.12	28016.21
511.30	28334.53
511.47	28130.90
511.64	28135.58
511.82	28512.41
511.99	28421.13
512.17	28872.85
512.34	28856.46
512.51	28699.65
512.69	29111.58
512.86	28922.00
513.04	29315.21
513.21	29308.19
513.38	29324.57
513.56	29317.55
513.73	29130.31
513.90	29088.18
514.08	29109.24
514.25	29743.53
514.43	29467.34
514.60	29504.79
514.77	29532.88
514.95	29832.47
515.12	29965.88
515.29	29816.08
515.47	29989.28
515.64	30412.92
515.81	30221.00
515.99	29989.28
516.16	30319.30
516.33	30237.38
516.51	30604.84
516.68	30881.03
516.85	30576.76
517.03	30881.03
517.20	30808.47
517.37	30782.73
517.54	30698.47
517.72	30843.58
517.89	31379.56
518.06	30703.15
518.24	31014.44
518.41	30895.07
518.58	31519.99
518.75	31220.41
518.93	31349.14
519.10	31445.10
519.27	31648.72
519.45	31431.05
519.62	31578.51
519.79	32189.39
519.96	31915.54
520.14	31700.22
520.31	31683.83
520.48	32072.36
520.65	32268.97
520.83	32308.76
521.00	32535.79
521.17	32507.70
521.34	32678.56
521.52	32407.06
521.69	32488.98
521.86	32355.57
522.03	32945.38
522.20	33132.62
522.38	32954.74
522.55	33017.94
522.72	32933.68
522.89	33097.52
523.07	33111.56
523.24	32999.21
523.41	33354.97
523.58	32903.25
523.75	33570.30
523.92	33668.61
524.10	33532.86
524.27	33532.86
524.44	33795.00
524.61	33570.30
524.78	34057.14
524.96	33759.89
525.13	33895.64
525.30	34134.37
525.47	34260.76
525.64	34162.46
525.81	34249.06
525.98	34497.16
526.16	34433.96
526.33	34197.57
526.50	34611.84
526.67	34061.82
526.84	34506.52
527.01	34672.70
527.18	34417.58
527.36	34370.77
527.53	34878.66
527.70	34866.96
527.87	35110.38
528.04	34967.60
528.21	34499.50
528.38	34696.10
528.55	34911.43
528.72	34703.12
528.89	35152.51
529.07	35288.26
529.24	34925.47
529.41	35276.55
529.58	35325.71
529.75	35297.62
529.92	35346.77
530.09	35637.00
530.26	35398.26
530.43	35594.87
530.60	35182.93
530.77	35243.79
530.94	35882.75
531.11	35395.92
531.28	35917.86
531.46	35716.58
531.63	36093.40
531.80	35529.33
531.97	36037.23
532.14	36088.72
532.31	36100.42
532.48	36231.49
532.65	36613.00
532.82	35985.74
532.99	36797.90
533.16	36631.72
533.33	36201.07
533.50	36598.96
533.67	36287.67
533.84	35995.10
534.01	36760.45
534.18	36390.65
534.35	36907.91
534.52	36891.52
534.69	37195.79
534.86	36746.41
535.03	37106.85
535.20	37046.00
535.37	37092.81
535.54	37390.06
535.71	36837.69
535.88	37118.56
536.05	37153.66
536.22	37469.64
536.38	37422.83
536.55	37024.93
536.72	37455.59
536.89	37294.10
537.06	37446.23
537.23	37507.08
537.40	37345.59
537.57	37170.05
537.74	37233.24
537.91	37764.54
538.08	37619.43
538.25	37504.74
538.42	38124.99
538.59	38380.10
538.75	37652.20
538.92	38094.56
539.09	38099.24
539.26	38110.94
539.43	37954.13
539.60	38487.77
539.77	38492.45
539.94	38675.01
540.11	38415.21
540.28	38333.29
540.44	38457.34
540.61	38312.23
540.78	38602.46
540.95	38534.58
541.12	38440.96
541.29	38155.41
541.46	38988.64
541.62	38525.22
541.79	38700.76
541.96	38127.33
542.13	38466.70
542.30	38913.75
542.47	39091.63
542.63	38976.94
542.80	39213.34
542.97	39124.40
543.14	39688.46
543.31	39203.97
543.48	39381.85
543.64	39541.01
543.81	39590.16
543.98	39978.69
544.15	39531.65
544.32	39971.67
544.48	40034.86
544.65	39983.37
544.82	39421.64
544.99	40025.50
545.16	39882.73
545.32	39704.85
545.49	40119.12
545.66	40657.45
545.83	40023.16
546.00	40680.85
546.16	40465.52
546.33	39665.06
546.50	39861.66
546.67	40531.06
546.83	39861.66
547.00	40051.25
547.17	40048.91
547.34	40172.96
547.50	39995.07
547.67	41027.25
547.84	40793.20
548.00	40767.45
548.17	40627.02
548.34	40842.35
548.51	40898.52
548.67	41256.62
548.84	40776.81
549.01	40865.75
549.18	41078.74
549.34	40989.80
549.51	41352.58
549.68	40783.83
549.84	40790.86
550.01	40982.78
550.18	40877.46
550.34	41214.49
550.51	41109.17
550.68	41160.66
550.84	40814.26
551.01	41261.30
551.18	41095.13
551.34	41359.61
551.51	41141.94
551.68	41486.00
551.84	41352.58
552.01	41467.27
552.18	41387.69
552.34	40994.48
552.51	41633.45
552.68	41357.27
552.84	41607.70
553.01	41546.85
553.18	41968.15
553.34	41998.57
553.51	42014.96
553.67	41848.78
553.84	41769.20
554.01	41666.22
554.17	41720.05
554.34	41614.72
554.51	41858.14
554.67	42351.99
554.84	41935.38
555.00	42026.66
555.17	41631.11
555.33	42176.45
555.50	41916.65
555.67	42188.16
555.83	42181.13
556.00	42309.86
556.16	42567.32
556.33	42543.92
556.50	42419.87
556.66	42742.86
556.83	41942.40
556.99	42735.84
557.16	42834.14
557.32	42770.95
557.49	42810.74
557.65	42630.52
557.82	42710.10
557.98	41991.55
558.15	42396.46
558.32	42478.38
558.48	42239.65
558.65	42831.80
558.81	42682.01
558.98	42768.61
559.14	42515.83
559.31	42689.03
559.47	42822.44
559.64	42948.83
559.80	42937.13
559.97	43000.32
560.13	42756.91
560.30	42689.03
560.46	43037.77
560.63	43138.41
560.79	43147.78
560.96	43213.31
561.12	43033.09
561.29	42555.62
561.45	43133.73
561.61	43000.32
561.78	43100.97
561.94	42981.60
562.11	43351.40
562.27	43154.80
562.44	43365.45
562.60	43440.34
562.77	43501.20
562.93	43089.26
563.10	43906.11
563.26	43173.52
563.42	43285.87
563.59	43653.33
563.75	43047.13
563.92	43136.07
564.08	43566.73
564.24	43709.50
564.41	43257.78
564.57	43122.03
564.74	43269.48
564.90	43358.42
565.07	43569.07
565.23	43477.79
565.39	43222.67
565.56	43566.73
565.72	43611.20
565.88	43796.10
566.05	43463.75
566.21	43852.28
566.38	44074.63
566.54	43540.99
566.70	43875.68
566.87	43761.00
567.03	43782.06
567.19	43725.89
567.36	43517.58
567.52	43697.80
567.68	43885.04
567.85	43878.02
568.01	44257.19
568.17	43988.03
568.34	43798.44
568.50	43810.15
568.66	43487.15
568.83	43964.62
568.99	43964.62
569.15	43988.03
569.32	43519.92
569.48	43885.04
569.64	44465.50
569.81	44067.61
569.97	44020.80
570.13	44629.34
570.30	43845.26
570.46	44395.28
570.62	43941.22
570.78	43882.70
570.95	43899.09
571.11	44245.49
571.27	43995.05
571.43	44062.93
571.60	44243.15
571.76	43599.50
571.92	44072.29
572.09	44032.50
572.25	44334.43
572.41	43803.13
572.57	44292.30
572.74	44355.49
572.90	43885.04
573.06	44224.42
573.22	44411.67
573.38	44573.16
573.55	44872.75
573.71	44608.27
573.87	44203.36
574.03	44002.07
574.20	44423.37
574.36	44814.24
574.52	44329.75
574.68	44376.56
574.84	44383.58
575.01	44942.97
575.17	44626.99
575.33	44559.12
575.49	44353.15
575.65	44102.71
575.82	44514.65
575.98	44100.37
576.14	44285.28
576.30	44861.05
576.46	44683.17
576.62	44502.95
576.79	44589.55
576.95	43803.13
577.11	44182.29
577.27	44116.76
577.43	44760.40
577.59	44184.63
577.75	44083.99
577.92	44641.04
578.08	44573.16
578.24	44727.64
578.40	44264.21
578.56	44718.28
578.72	44570.82
578.88	44577.84
579.04	44591.89
579.21	44346.13
579.37	44865.73
579.53	44676.15
579.69	44528.69
579.85	44456.14
580.01	44814.24
580.17	44411.67
580.33	44912.54
580.49	44107.40
580.65	44692.53
580.82	44334.43
580.98	44753.38
581.14	44371.88
581.30	44697.21
581.46	44624.65
581.62	44112.08
581.78	44591.89
581.94	44676.15
582.10	44861.05
582.26	44795.51
582.42	44828.28
582.58	44657.42
582.74	44596.57
582.90	44418.69
583.06	44800.19
583.22	44481.88
583.38	44687.85
583.54	44783.81
583.70	44802.53
583.86	44996.80
584.02	44296.98
584.18	45158.30
584.34	44952.33
584.50	44931.26
584.66	44842.32
584.82	44947.65
584.98	45139.57
585.14	44849.35
585.30	44552.10
585.46	44809.56
585.62	44421.03
585.78	44856.37
585.94	44257.19
586.10	44779.13
586.26	44875.09
586.42	44446.77
586.58	44701.89
586.74	44643.38
586.90	44339.11
587.06	44669.12
587.22	44701.89
587.38	44694.87
587.54	44872.75
587.70	45162.98
587.86	44816.58
588.02	44732.32
588.18	44933.60
588.34	44807.22
588.49	44648.06
588.65	44832.96
588.81	45219.15
588.97	44720.62
589.13	44694.87
589.29	44839.98
589.45	44804.88
589.61	44821.26
589.77	45113.83
589.93	44821.26
590.08	45095.10
590.24	45446.18
