SpectraSuite Data File
++++++++++++++++++++++++++++++++++++
Date: Fri Oct 25 11:33:45 EDT 2013
User: price-jones
Dark Spectrum Present: No
Reference Spectrum Present: No
Number of Sampled Component Spectra: 1
Spectrometers: USB2+H05261
Integration Time (usec): 100000 (USB2+H05261)
Spectra Averaged: 1 (USB2+H05261)
Boxcar Smoothing: 0 (USB2+H05261)
Correct for Electrical Dark: No (USB2+H05261)
Strobe/Lamp Enabled: No (USB2+H05261)
Correct for Detector Non-linearity: No (USB2+H05261)
Correct for Stray Light: No (USB2+H05261)
Number of Pixels in Processed Spectrum: 2048
>>>>>Begin Processed Spectral Data<<<<<
365.73	297.25
365.92	297.25
366.12	297.25
366.32	224.69
366.52	135.75
366.72	170.86
366.91	100.64
367.11	163.84
367.31	224.69
367.51	142.77
367.70	210.65
367.90	208.31
368.10	152.13
368.30	121.71
368.49	212.99
368.69	187.24
368.89	156.82
369.09	231.71
369.28	194.26
369.48	252.78
369.68	220.01
369.87	332.36
370.07	264.48
370.27	262.14
370.47	269.16
370.66	421.30
370.86	528.96
371.06	561.73
371.25	528.96
371.45	531.30
371.65	503.22
371.84	559.39
372.04	627.26
372.24	528.96
372.44	547.69
372.63	664.71
372.83	657.69
373.03	596.84
373.22	638.97
373.42	585.13
373.62	601.52
373.81	601.52
374.01	650.67
374.21	603.86
374.40	697.48
374.60	594.50
374.79	653.01
374.99	608.54
375.19	671.73
375.38	688.12
375.58	695.14
375.78	664.71
375.97	690.46
376.17	681.10
376.37	784.08
376.56	667.05
376.76	662.37
376.95	641.31
377.15	746.63
377.35	678.76
377.54	748.97
377.74	657.69
377.93	629.60
378.13	638.97
378.33	753.65
378.52	685.78
378.72	699.82
378.91	760.67
379.11	648.33
379.31	725.57
379.50	725.57
379.70	786.42
379.89	716.20
380.09	667.05
380.28	683.44
380.48	706.84
380.68	699.82
380.87	669.39
381.07	720.88
381.26	816.85
381.46	793.44
381.65	800.46
381.85	849.61
382.04	809.83
382.24	807.48
382.43	802.80
382.63	809.83
382.83	751.31
383.02	793.44
383.22	884.72
383.41	821.53
383.61	779.40
383.80	772.38
384.00	812.17
384.19	802.80
384.39	849.61
384.58	791.10
384.78	795.78
384.97	788.76
385.17	844.93
385.36	823.87
385.56	901.11
385.75	814.51
385.95	812.17
386.14	819.19
386.34	854.30
386.53	903.45
386.72	844.93
386.92	837.91
387.11	880.04
387.31	976.00
387.50	901.11
387.70	894.08
387.89	891.74
388.09	854.30
388.28	947.92
388.48	863.66
388.67	929.19
388.86	936.21
389.06	968.98
389.25	964.30
389.45	957.28
389.64	919.83
389.84	1011.11
390.03	917.49
390.22	938.55
390.42	966.64
390.61	1004.09
390.81	938.55
391.00	990.05
391.19	997.07
391.39	1036.86
391.58	1071.97
391.78	1015.79
391.97	1025.15
392.16	1069.62
392.36	1025.15
392.55	1013.45
392.75	1128.14
392.94	1086.01
393.13	1039.20
393.33	1076.65
393.52	1027.50
393.71	1118.78
393.91	1109.41
394.10	1057.92
394.29	1184.31
394.49	1142.18
394.68	1170.27
394.88	1167.93
395.07	1116.44
395.26	1067.28
395.46	1238.14
395.65	1163.25
395.84	1245.16
396.04	1188.99
396.23	1160.91
396.42	1102.39
396.62	1200.69
396.81	1296.66
397.00	1179.63
397.19	1249.85
397.39	1181.97
397.58	1214.74
397.77	1249.85
397.97	1266.23
398.16	1212.40
398.35	1254.53
398.55	1205.38
398.74	1348.15
398.93	1284.95
399.12	1310.70
399.32	1296.66
399.51	1259.21
399.70	1355.17
399.90	1451.13
400.09	1352.83
400.28	1420.71
400.47	1394.96
400.67	1317.72
400.86	1336.45
401.05	1387.94
401.24	1455.81
401.44	1420.71
401.63	1549.43
401.82	1519.01
402.01	1514.33
402.21	1425.39
402.40	1423.05
402.59	1565.82
402.78	1448.79
402.97	1652.42
403.17	1551.78
403.36	1547.09
403.55	1530.71
403.74	1563.48
403.93	1586.88
404.13	1617.31
404.32	1607.95
404.51	1626.67
404.70	1696.89
404.89	1626.67
405.09	1699.23
405.28	1673.48
405.47	1703.91
405.66	1802.21
405.85	1820.94
406.05	1720.29
406.24	1757.74
406.43	1743.70
406.62	1778.81
406.81	1863.07
407.00	1757.74
407.20	1797.53
407.39	1736.68
407.58	1870.09
407.77	1881.79
407.96	1753.06
408.15	1842.00
408.34	1818.60
408.54	1870.09
408.73	1980.09
408.92	2001.16
409.11	2022.22
409.30	2059.67
409.49	1959.03
409.68	1998.82
409.87	2008.18
410.07	2085.42
410.26	2132.23
410.45	2054.99
410.64	2165.00
410.83	2080.74
411.02	2136.91
411.21	2172.02
411.40	2176.70
411.59	2256.28
411.78	2172.02
411.98	2235.21
412.17	2094.78
412.36	2207.13
412.55	2469.27
412.74	2396.71
412.93	2258.62
413.12	2328.83
413.31	2471.61
413.50	2389.69
413.69	2317.13
413.88	2410.75
414.07	2506.71
414.26	2595.65
414.45	2544.16
414.64	2511.39
414.83	2509.05
415.02	2649.49
415.22	2593.31
415.41	2637.78
415.60	2572.25
415.79	2626.08
415.98	2686.94
416.17	2754.81
416.36	2733.75
416.55	2726.72
416.74	2719.70
416.93	2757.15
417.12	2841.41
417.31	2913.97
417.50	2766.51
417.69	2935.03
417.88	2920.99
418.07	2974.82
418.26	2951.42
418.45	2937.37
418.64	3098.87
418.83	3035.67
419.02	3129.30
419.21	3145.68
419.39	3150.36
419.58	3131.64
419.77	3105.89
419.96	3159.72
420.15	3162.06
420.34	3019.29
420.53	3002.91
420.72	3199.51
420.91	3400.80
421.10	3190.15
421.29	3316.54
421.48	3183.13
421.67	3279.09
421.86	3267.39
422.05	3389.10
422.24	3377.39
422.43	3311.86
422.61	3396.12
422.80	3389.10
422.99	3365.69
423.18	3424.20
423.37	3480.38
423.56	3290.79
423.75	3405.48
423.94	3295.47
424.13	3213.56
424.32	3456.97
424.50	3400.80
424.69	3510.80
424.88	3534.21
425.07	3396.12
425.26	3485.06
425.45	3349.31
425.64	3325.90
425.83	3414.84
426.01	3461.65
426.20	3613.79
426.39	3569.32
426.58	3506.12
426.77	3552.93
426.96	3693.37
427.15	3667.62
427.33	3398.46
427.52	3517.83
427.71	3695.71
427.90	3595.06
428.09	3590.38
428.28	3765.92
428.46	3712.09
428.65	3688.68
428.84	3810.39
429.03	3786.99
429.22	3744.86
429.40	3655.92
429.59	3730.81
429.78	3660.60
429.97	3742.52
430.16	3744.86
430.34	3899.33
430.53	3901.67
430.72	3861.88
430.91	3918.06
431.10	3925.08
431.28	4004.66
431.47	4002.32
431.66	4093.60
431.85	4025.72
432.03	4023.38
432.22	4077.21
432.41	4124.02
432.60	4077.21
432.79	4018.70
432.97	4149.77
433.16	4189.56
433.35	4205.94
433.54	4138.07
433.72	4215.30
433.91	4210.62
434.10	4102.96
434.28	4313.61
434.47	4465.74
434.66	4229.35
434.85	4353.40
435.03	4358.08
435.22	4215.30
435.41	4573.41
435.59	4444.68
435.78	4414.25
435.97	4292.54
436.16	4404.89
436.34	4311.27
436.53	4367.44
436.72	4606.17
436.90	4397.87
437.09	4566.39
437.28	4493.83
437.46	4545.32
437.65	4535.96
437.84	4678.73
438.02	4669.37
438.21	4573.41
438.40	4582.77
438.58	4660.01
438.77	4704.48
438.96	4741.93
439.14	4706.82
439.33	4851.93
439.52	4943.21
439.70	5041.51
439.89	5015.77
440.08	4947.89
440.26	4959.60
440.45	5146.84
440.63	5118.75
440.82	5076.62
441.01	5043.85
441.19	5242.80
441.38	5303.65
441.57	5217.05
441.75	5404.30
441.94	5373.87
442.12	5397.28
442.31	5547.07
442.50	5432.38
442.68	5465.15
442.87	5399.62
443.05	5413.66
443.24	5537.71
443.43	5380.89
443.61	5638.35
443.80	5783.46
443.98	5441.75
444.17	5329.40
444.35	5483.88
444.54	5804.53
444.73	5540.05
444.91	5694.52
445.10	5696.86
445.28	5708.57
445.47	5633.67
445.65	5563.45
445.84	5834.96
446.02	5760.06
446.21	5699.20
446.39	5844.32
446.58	5879.43
446.77	5858.36
446.95	5776.44
447.14	5902.83
447.32	5792.83
447.51	5827.93
447.69	5870.06
447.88	5860.70
448.06	5607.92
448.25	5785.80
448.43	5867.72
448.62	5919.21
448.80	5884.11
448.99	5928.58
449.17	5870.06
449.36	5818.57
449.54	5930.92
449.73	6052.63
449.91	6193.06
450.10	6164.97
450.28	6057.31
450.46	6104.12
450.65	6298.38
450.83	6223.48
451.02	6129.86
451.20	6347.53
451.39	6193.06
451.57	6169.65
451.76	6267.95
451.94	6176.67
452.13	6225.82
452.31	6235.19
452.49	6277.32
452.68	6218.80
452.86	6389.66
453.05	6457.54
453.23	6480.94
453.42	6265.61
453.60	6335.83
453.78	6476.26
453.97	6289.02
454.15	6260.93
454.34	6457.54
454.52	6607.33
454.70	6553.50
454.89	6565.20
455.07	6642.44
455.26	6766.49
455.44	6731.38
455.62	6677.55
455.81	6700.95
455.99	6899.90
456.17	6813.30
456.36	6864.79
456.54	6691.59
456.73	6792.23
456.91	7023.95
457.09	6960.75
457.28	7155.02
457.46	6897.56
457.64	6995.86
457.83	7073.10
458.01	7096.50
458.19	7396.09
458.38	7157.36
458.56	7059.06
458.74	7087.14
458.93	7112.89
459.11	7232.26
459.29	7379.71
459.48	7250.98
459.66	7269.70
459.84	7403.11
460.03	7604.40
460.21	7365.67
460.39	7480.35
460.57	7648.87
460.76	7573.97
460.94	7414.82
461.12	7545.89
461.31	7702.70
461.49	7510.78
461.67	7517.80
461.85	7676.96
462.04	7564.61
462.22	8255.07
462.40	7747.17
462.59	7723.77
462.77	7817.39
462.95	7950.80
463.13	7730.79
463.32	7850.16
463.50	7805.69
463.68	7922.71
463.86	7896.97
464.05	7868.88
464.23	7770.58
464.41	8152.09
464.59	8032.72
464.78	8056.12
464.96	7922.71
465.14	7791.64
465.32	7978.89
465.50	8156.77
465.69	8252.73
465.87	8306.56
466.05	8353.37
466.23	8341.67
466.41	8135.70
466.60	8547.64
466.78	8262.09
466.96	8224.64
467.14	8325.29
467.32	8336.99
467.51	8454.02
467.69	8313.58
467.87	8311.24
468.05	8353.37
468.23	8402.52
468.41	8386.14
468.60	8491.46
468.78	8552.32
468.96	8552.32
469.14	8524.23
469.32	8510.19
469.50	8486.78
469.69	8884.67
469.87	8739.56
470.05	8638.92
470.23	8821.48
470.41	8830.84
470.59	8814.46
470.77	8917.44
470.95	8975.95
471.14	8975.95
471.32	8828.50
471.50	9095.32
471.68	8992.34
471.86	9221.71
472.04	9315.33
472.22	9444.06
472.40	9200.65
472.58	9210.01
472.77	9575.13
472.95	9376.19
473.13	9790.46
473.31	9202.99
473.49	9666.41
473.67	9366.82
473.85	9530.66
474.03	9708.54
474.21	9827.91
474.39	9877.06
474.57	9795.14
474.75	9797.48
474.93	9994.09
475.12	9659.39
475.30	10061.96
475.48	10143.88
475.66	9916.85
475.84	9935.57
476.02	10197.71
476.20	10422.41
476.38	10569.86
476.56	10611.99
476.74	10487.94
476.92	10335.81
477.10	10415.38
477.28	10743.06
477.46	10511.35
477.64	10796.89
477.82	10904.56
478.00	11229.89
478.18	11098.82
478.36	11218.19
478.54	11234.57
478.72	11356.28
478.90	11527.14
479.08	11751.83
479.26	11742.47
479.44	11829.07
479.62	11742.47
479.80	11903.96
479.98	11852.47
480.16	12168.45
480.34	12140.36
480.52	12182.49
480.70	12238.66
480.88	12241.00
481.06	12259.73
481.24	12477.40
481.41	12671.66
481.59	12727.83
481.77	12681.02
481.95	12865.92
482.13	13118.70
482.31	12901.03
482.49	13343.39
482.67	13324.67
482.85	13469.78
483.03	13762.35
483.21	13689.79
483.39	13830.23
483.57	13823.20
483.74	13855.97
483.92	13888.74
484.10	13760.01
484.28	14324.08
484.46	14558.13
484.64	14839.00
484.82	14326.42
485.00	14752.40
485.18	14897.51
485.35	15164.33
485.53	14993.47
485.71	14981.77
485.89	15433.49
486.07	15330.51
486.25	15403.07
486.43	15641.80
486.61	15866.49
486.78	15957.77
486.96	15744.78
487.14	15906.28
487.32	16025.65
487.50	16659.93
487.68	16255.02
487.85	16769.94
488.03	16484.39
488.21	17179.53
488.39	16805.05
488.57	17158.47
488.75	17111.66
488.92	17542.32
489.10	17596.15
489.28	17397.20
489.46	17984.68
489.64	17591.47
489.81	18345.12
489.99	18235.11
490.17	18319.37
490.35	18480.87
490.53	18820.25
490.70	18469.17
490.88	18340.44
491.06	18719.60
491.24	19241.54
491.41	19183.03
491.59	19236.86
491.77	19225.16
491.95	19800.93
492.13	19623.05
492.30	19714.33
492.48	19913.28
492.66	19939.02
492.84	19981.15
493.01	20159.03
493.19	20292.44
493.37	20367.34
493.54	20620.12
493.72	20559.27
493.90	20533.52
494.08	20556.93
494.25	20875.24
494.43	21006.31
494.61	21233.34
494.79	21298.88
494.96	21280.15
495.14	21465.05
495.32	21448.67
495.49	21757.62
495.67	21888.69
495.85	22356.80
496.02	22089.98
496.20	22408.29
496.38	22181.26
496.55	22195.30
496.73	22920.87
496.91	22801.50
497.09	23058.96
497.26	22799.16
497.44	22700.86
497.62	23044.91
497.79	23824.31
497.97	23129.17
498.14	23616.01
498.32	24051.34
498.50	23632.39
498.67	24018.58
498.85	24053.69
499.03	24240.93
499.20	23946.02
499.38	24393.06
499.56	24613.07
499.73	24547.54
499.91	24823.72
500.08	24643.50
500.26	24676.27
500.44	24606.05
500.61	24952.45
500.79	24950.11
500.97	25268.42
501.14	25418.22
501.32	25479.07
501.49	25743.55
501.67	25446.30
501.84	25743.55
502.02	25776.32
502.20	25750.57
502.37	26017.40
502.55	25788.02
502.72	26270.17
502.90	26026.76
503.07	25919.09
503.25	25935.48
503.43	25876.96
503.60	26347.41
503.78	26419.97
503.95	26441.03
504.13	26878.71
504.30	26525.29
504.48	27012.12
504.65	26752.32
504.83	27154.90
505.01	27339.80
505.18	27255.54
505.36	27412.35
505.53	27119.79
505.71	27360.86
505.88	27627.68
506.06	27281.28
506.23	27475.55
506.41	27498.95
506.58	27590.24
506.76	27924.93
506.93	28109.83
507.11	28077.07
507.28	28126.22
507.46	28348.57
507.63	28704.33
507.81	28622.41
507.98	28762.84
508.16	28547.51
508.33	28549.85
508.50	28914.98
508.68	28744.12
508.85	29116.26
509.03	28748.80
509.20	29301.17
509.38	29130.31
509.55	28978.17
509.73	29605.44
509.90	29404.15
510.08	29785.66
510.25	29497.77
510.42	29600.76
510.60	29956.52
510.77	30134.40
510.95	30635.27
511.12	29701.40
511.30	29912.05
511.47	30183.55
511.64	29956.52
511.82	30541.65
511.99	30558.03
512.17	31000.40
512.34	30270.15
512.51	30852.94
512.69	31061.25
512.86	30946.56
513.04	31103.38
513.21	31309.35
513.38	31461.48
513.56	31180.62
513.73	31271.90
513.90	31124.44
514.08	31445.10
514.25	31559.78
514.43	31805.54
514.60	31349.14
514.77	31714.26
514.95	31548.08
515.12	31730.64
515.29	31704.90
515.47	31910.86
515.64	32116.83
515.81	32290.03
515.99	32519.40
516.16	32184.71
516.33	32512.38
516.51	32589.62
516.68	32177.68
516.85	32542.81
517.03	32774.52
517.20	32833.04
517.37	32833.04
517.54	32783.88
517.72	33006.23
517.89	32907.93
518.06	33266.03
518.24	33069.43
518.41	33149.01
518.58	33127.94
518.75	32933.68
518.93	33628.82
519.10	33486.04
519.27	33259.01
519.45	33553.92
519.62	33919.04
519.79	34019.69
519.96	34190.55
520.14	33818.40
520.31	33923.72
520.48	34232.68
520.65	34223.31
520.83	34188.21
521.00	34637.59
521.17	34082.88
521.34	34754.61
521.52	34588.44
521.69	34583.76
521.86	34801.43
522.03	34979.31
522.20	34747.59
522.38	35302.30
522.55	35229.74
522.72	35314.00
522.89	35175.91
523.07	35622.95
523.24	35234.42
523.41	35515.29
523.58	35208.68
523.75	35517.63
523.92	35714.23
524.10	35580.82
524.27	35440.39
524.44	35653.38
524.61	35920.20
524.78	35611.25
524.96	36170.64
525.13	35917.86
525.30	36194.04
525.47	36055.95
525.64	36346.18
525.81	36400.01
525.98	36318.09
526.16	36657.47
526.33	35974.03
526.50	36575.55
526.67	36135.53
526.84	36793.22
527.01	36252.56
527.18	36458.52
527.36	36783.86
527.53	37092.81
527.70	37219.20
527.87	37425.17
528.04	37006.21
528.21	37310.48
528.38	36975.78
528.55	37486.02
528.72	37446.23
528.89	37195.79
529.07	37067.06
529.24	37230.90
529.41	37502.40
529.58	37820.72
529.75	37193.45
529.92	37617.09
530.09	37853.48
530.26	37928.38
530.43	37699.01
530.60	37645.18
530.77	37642.84
530.94	38014.98
531.11	37949.45
531.28	38162.43
531.46	38230.31
531.63	38312.23
531.80	38387.13
531.97	38394.15
532.14	38134.35
532.31	38352.02
532.48	38904.38
532.65	38747.57
532.82	38490.11
532.99	38464.36
533.16	38600.12
533.33	38923.11
533.50	38630.54
533.67	38817.78
533.84	38583.73
534.01	39220.36
534.18	39428.66
534.35	39541.01
534.52	39213.34
534.69	39681.44
534.86	39880.39
535.03	39543.35
535.20	39131.42
535.37	39431.01
535.54	39936.56
535.71	39632.29
535.88	39810.17
536.05	39473.13
536.22	40069.97
536.38	39686.12
536.55	40084.01
536.72	39562.08
536.89	39700.17
537.06	39903.79
537.23	40411.69
537.40	39751.66
537.57	39852.30
537.74	39791.45
537.91	40451.48
538.08	40325.09
538.25	39821.87
538.42	40175.30
538.59	40573.19
538.75	40947.67
538.92	40725.32
539.09	40479.57
539.26	40685.53
539.43	40631.70
539.60	40823.62
539.77	41120.87
539.94	40877.46
540.11	40933.63
540.28	40905.54
540.44	40947.67
540.61	40924.27
540.78	40509.99
540.95	41146.62
541.12	41027.25
541.29	40718.30
541.46	41436.84
541.62	41406.42
541.79	41193.43
541.96	40919.59
542.13	41106.83
542.30	40980.44
542.47	41752.82
542.63	41614.72
542.80	41893.25
542.97	41706.01
543.14	41839.42
543.31	41631.11
543.48	41778.56
543.64	42347.31
543.81	42183.48
543.98	42375.40
544.15	41958.78
544.32	42040.70
544.48	42396.46
544.65	42405.83
544.82	42253.69
544.99	41661.54
545.16	42506.47
545.32	42103.90
545.49	42761.59
545.66	42843.51
545.83	42377.74
546.00	43267.14
546.16	42560.30
546.33	42623.50
546.50	42721.80
546.67	42768.61
546.83	42480.72
547.00	42806.06
547.17	43035.43
547.34	42635.20
547.50	43255.44
547.67	43421.62
547.84	42934.79
548.00	43182.88
548.17	43208.63
548.34	43463.75
548.51	43168.84
548.67	43714.19
548.84	43477.79
549.01	43662.69
549.18	43292.89
549.34	43456.73
549.51	43707.16
549.68	43543.33
549.84	43452.05
550.01	44348.47
550.18	43367.79
550.34	44058.24
550.51	43920.15
550.68	43679.08
550.84	43482.47
551.01	44053.56
551.18	43210.97
551.34	43711.84
551.51	43917.81
551.68	43812.49
551.84	43913.13
552.01	44079.31
552.18	44074.63
552.34	44072.29
552.51	44093.35
552.68	44191.65
552.84	44428.05
553.01	44236.12
553.18	43899.09
553.34	44191.65
553.51	44002.07
553.67	44280.60
553.84	44477.20
554.01	44631.68
554.17	44512.31
554.34	44554.44
554.51	44531.03
554.67	44727.64
554.84	45141.91
555.00	44870.41
555.17	44470.18
555.33	44942.97
555.50	44744.02
555.67	44786.15
555.83	45254.26
556.00	44767.43
556.16	45193.40
556.33	45090.42
556.50	44910.20
556.66	44912.54
556.83	45027.23
556.99	45588.95
557.16	45247.24
557.32	45230.85
557.49	45605.34
557.65	44985.10
557.82	45137.23
557.98	45207.45
558.15	45228.51
558.32	45336.18
558.48	44978.07
558.65	45202.77
558.81	45219.15
558.98	45284.68
559.14	45570.23
559.31	45296.39
559.47	45408.73
559.64	45340.86
559.80	45495.33
559.97	45453.20
560.13	45336.18
560.30	45151.27
560.46	45827.69
560.63	45652.15
560.79	45968.12
560.96	46000.89
561.12	45684.92
561.29	45408.73
561.45	45998.55
561.61	45769.18
561.78	45476.61
561.94	45399.37
562.11	45794.92
562.27	45848.75
562.44	45617.04
562.60	45876.84
562.77	46059.40
562.93	45640.45
563.10	46366.01
563.26	46031.32
563.42	46412.82
563.59	46375.37
563.75	45741.09
563.92	45797.26
564.08	46178.77
564.24	46382.40
564.41	46021.95
564.57	46398.78
564.74	46452.61
564.90	45804.28
565.07	46024.29
565.23	45823.01
565.39	45759.81
565.56	46595.38
565.72	46309.84
565.88	46518.15
566.05	46307.50
566.21	46260.69
566.38	46396.44
566.54	46445.59
566.70	46286.43
566.87	46569.64
567.03	45586.61
567.19	46679.64
567.36	46555.60
567.52	46583.68
567.68	47051.79
567.85	46466.66
568.01	46681.98
568.17	46293.46
568.34	46476.02
568.50	46562.62
568.66	46160.05
568.83	46363.67
568.99	46351.97
569.15	46550.91
569.32	46623.47
569.48	46667.94
569.64	46887.95
569.81	46916.04
569.97	46679.64
570.13	46916.04
570.30	46571.98
570.46	46796.67
570.62	47058.81
570.78	46672.62
570.95	46642.20
571.11	46953.49
571.27	46604.75
571.43	46693.69
571.60	46801.35
571.76	46368.35
571.92	46513.47
572.09	46911.36
572.25	46932.42
572.41	46595.38
572.57	46787.31
572.74	47299.89
572.90	46838.80
573.06	46916.04
573.22	46923.06
573.38	46944.12
573.55	46693.69
573.71	46941.78
573.87	46990.94
574.03	46909.02
574.20	47529.26
574.36	47107.96
574.52	47021.36
574.68	46897.31
574.84	47103.28
575.01	47096.26
575.17	47096.26
575.33	47133.71
575.49	46677.30
575.65	47175.84
575.82	47533.94
575.98	46967.53
576.14	47143.07
576.30	47356.06
576.46	47026.04
576.62	46969.87
576.79	46681.98
576.95	46857.52
577.11	47152.43
577.27	47175.84
577.43	47065.83
577.59	47239.03
577.75	47290.52
577.92	46974.55
578.08	47084.56
578.24	47040.09
578.40	47552.66
578.56	47246.05
578.72	47304.57
578.88	47110.30
579.04	47145.41
579.21	47002.64
579.37	47119.66
579.53	47482.45
579.69	47044.77
579.85	46979.23
580.01	47152.43
580.17	46866.89
580.33	47182.86
580.49	47494.15
580.65	47210.95
580.82	47445.00
580.98	47234.35
581.14	46595.38
581.30	47281.16
581.46	46983.91
581.62	47051.79
581.78	47323.29
581.94	47461.38
582.10	47466.06
582.26	47391.17
582.42	47267.12
582.58	47129.03
582.74	47327.97
582.90	47356.06
583.06	47473.09
583.22	46911.36
583.38	47292.86
583.54	46916.04
583.70	47091.58
583.86	47721.18
584.02	47311.59
584.18	47753.95
584.34	47526.92
584.50	47648.63
584.66	47690.76
584.82	47505.85
584.98	47922.47
585.14	47667.35
585.30	47311.59
585.46	47334.99
585.62	46902.00
585.78	47662.67
585.94	47189.88
586.10	47477.77
586.26	47182.86
586.42	47433.30
586.58	47920.13
586.74	47480.11
586.90	47423.93
587.06	47700.12
587.22	47557.35
587.38	47608.84
587.54	47859.27
587.70	47775.02
587.86	47459.04
588.02	47161.79
588.18	47459.04
588.34	47566.71
588.49	47583.09
588.65	47318.61
588.81	47634.58
588.97	47653.31
589.13	47828.85
589.29	47746.93
589.45	47643.94
589.61	47517.56
589.77	47875.66
589.93	47620.54
590.08	47629.90
