SpectraSuite Data File
++++++++++++++++++++++++++++++++++++
Date: Fri Oct 25 10:44:09 EDT 2013
User: price-jones
Dark Spectrum Present: No
Reference Spectrum Present: No
Number of Sampled Component Spectra: 1
Spectrometers: USB2+H05261
Integration Time (usec): 100000 (USB2+H05261)
Spectra Averaged: 1 (USB2+H05261)
Boxcar Smoothing: 0 (USB2+H05261)
Correct for Electrical Dark: No (USB2+H05261)
Strobe/Lamp Enabled: No (USB2+H05261)
Correct for Detector Non-linearity: No (USB2+H05261)
Correct for Stray Light: No (USB2+H05261)
Number of Pixels in Processed Spectrum: 2048
>>>>>Begin Processed Spectral Data<<<<<
365.73	142.77
365.92	142.77
366.12	142.77
366.32	39.79
366.52	0.00
366.72	65.54
366.91	14.04
367.11	39.79
367.31	18.72
367.51	0.00
367.70	4.68
367.90	16.38
368.10	70.22
368.30	39.79
368.49	49.15
368.69	46.81
368.89	18.72
369.09	72.56
369.28	53.83
369.48	58.51
369.68	84.26
369.87	67.88
370.07	60.85
370.27	81.92
370.47	273.84
370.66	383.85
370.86	404.91
371.06	421.30
371.25	531.30
371.45	395.55
371.65	472.79
371.84	477.47
372.04	510.24
372.24	470.45
372.44	440.02
372.63	463.43
372.83	519.60
373.03	454.06
373.22	517.26
373.42	477.47
373.62	535.98
373.81	545.34
374.01	486.83
374.21	543.00
374.40	496.19
374.60	465.77
374.79	528.96
374.99	627.26
375.19	589.82
375.38	617.90
375.58	634.29
375.78	575.77
375.97	561.73
376.17	589.82
376.37	521.94
376.56	676.41
376.76	629.60
376.95	657.69
377.15	571.09
377.35	667.05
377.54	578.11
377.74	667.05
377.93	636.63
378.13	664.71
378.33	725.57
378.52	629.60
378.72	653.01
378.91	596.84
379.11	634.29
379.31	697.48
379.50	643.65
379.70	718.54
379.89	720.88
380.09	720.88
380.28	608.54
380.48	748.97
380.68	699.82
380.87	657.69
381.07	688.12
381.26	716.20
381.46	674.07
381.65	643.65
381.85	674.07
382.04	713.86
382.24	699.82
382.43	664.71
382.63	716.20
382.83	655.35
383.02	774.72
383.22	751.31
383.41	763.01
383.61	718.54
383.80	763.01
384.00	779.40
384.19	894.08
384.39	821.53
384.58	781.74
384.78	779.40
384.97	812.17
385.17	791.10
385.36	770.04
385.56	844.93
385.75	770.04
385.95	802.80
386.14	840.25
386.34	814.51
386.53	887.06
386.72	807.48
386.92	854.30
387.11	929.19
387.31	791.10
387.50	870.68
387.70	915.15
387.89	875.36
388.09	870.68
388.28	889.40
388.48	868.34
388.67	915.15
388.86	961.96
389.06	894.08
389.25	1027.50
389.45	950.26
389.64	936.21
389.84	992.39
390.03	1006.43
390.22	957.28
390.42	891.74
390.61	929.19
390.81	968.98
391.00	987.71
391.19	1097.71
391.39	1064.94
391.58	1013.45
391.78	1027.50
391.97	1006.43
392.16	976.00
392.36	1062.60
392.55	952.60
392.75	1022.81
392.94	1018.13
393.13	1048.56
393.33	1083.67
393.52	1018.13
393.71	1076.65
393.91	1020.47
394.10	1022.81
394.29	1186.65
394.49	1036.86
394.68	1233.46
394.88	1186.65
395.07	1289.64
395.26	1294.32
395.46	1226.44
395.65	1181.97
395.84	1174.95
396.04	1203.04
396.23	1188.99
396.42	1050.90
396.62	1170.27
396.81	1210.06
397.00	1277.93
397.19	1242.82
397.39	1296.66
397.58	1317.72
397.77	1317.72
397.97	1336.45
398.16	1397.30
398.35	1430.07
398.55	1373.89
398.74	1519.01
398.93	1549.43
399.12	1516.67
399.32	1413.68
399.51	1446.45
399.70	1561.14
399.90	1568.16
400.09	1652.42
400.28	1643.06
400.47	1579.86
400.67	1724.97
400.86	1523.69
401.05	1610.29
401.24	1668.80
401.44	1696.89
401.63	1788.17
401.82	1720.29
402.01	1689.87
402.21	1722.63
402.40	1624.33
402.59	1654.76
402.78	1724.97
402.97	1748.38
403.17	1746.04
403.36	1701.57
403.55	1823.28
403.74	1877.11
403.93	1783.49
404.13	1811.57
404.32	1795.19
404.51	1816.26
404.70	1963.71
404.89	1844.34
405.09	1956.69
405.28	1944.99
405.47	1858.39
405.66	1970.73
405.85	1909.88
406.05	1898.17
406.24	2064.35
406.43	2092.44
406.62	2120.53
406.81	2064.35
407.00	2047.97
407.20	2036.27
407.39	2073.71
407.58	2122.87
407.77	2125.21
407.96	2136.91
408.15	2169.68
408.34	2181.38
408.54	2073.71
408.73	2256.28
408.92	2146.27
409.11	2317.13
409.30	2340.54
409.49	2218.83
409.68	2296.07
409.87	2296.07
410.07	2415.43
410.26	2300.75
410.45	2492.67
410.64	2392.03
410.83	2417.77
411.02	2473.95
411.21	2511.39
411.40	2480.97
411.59	2656.51
411.78	2576.93
411.98	2583.95
412.17	2579.27
412.36	2686.94
412.55	2675.23
412.74	2602.68
412.93	2689.28
413.12	2612.04
413.31	2902.26
413.50	2789.92
413.69	2853.11
413.88	2712.68
414.07	2932.69
414.26	2916.31
414.45	2888.22
414.64	2951.42
414.83	3068.44
415.02	2951.42
415.22	3115.25
415.41	3049.72
415.60	3056.74
415.79	3056.74
415.98	3171.43
416.17	3136.32
416.36	3283.77
416.55	3213.56
416.74	3232.28
416.93	3185.47
417.12	3248.66
417.31	3246.32
417.50	3234.62
417.69	3358.67
417.88	3389.10
418.07	3279.09
418.26	3370.37
418.45	3471.01
418.64	3478.04
418.83	3473.36
419.02	3597.40
419.21	3496.76
419.39	3550.59
419.58	3655.92
419.77	3461.65
419.96	3543.57
420.15	3723.79
420.34	3566.98
420.53	3562.30
420.72	3672.30
420.91	3808.05
421.10	3765.92
421.29	3852.52
421.48	3723.79
421.67	3721.45
421.86	3679.32
422.05	3775.28
422.24	3702.73
422.43	3836.14
422.61	3805.71
422.80	3899.33
422.99	3819.75
423.18	3845.50
423.37	4051.47
423.56	3822.09
423.75	3911.04
423.94	3810.39
424.13	3756.56
424.32	3801.03
424.50	3950.82
424.69	3915.72
424.88	3999.98
425.07	3817.41
425.26	3857.20
425.45	3885.29
425.64	3929.76
425.83	3889.97
426.01	3852.52
426.20	4002.32
426.39	4035.08
426.58	4067.85
426.77	3936.78
426.96	3936.78
427.15	3967.21
427.33	4035.08
427.52	3967.21
427.71	4086.58
427.90	4168.49
428.09	4107.64
428.28	3964.87
428.46	4070.19
428.65	4088.92
428.84	4142.75
429.03	4140.41
429.22	4058.49
429.40	4175.52
429.59	4100.62
429.78	3899.33
429.97	3922.74
430.16	3922.74
430.34	4044.45
430.53	4091.26
430.72	4168.49
430.91	4269.14
431.10	4437.66
431.28	4573.41
431.47	4458.72
431.66	4514.89
431.85	4465.74
432.03	4606.17
432.22	4685.75
432.41	4517.23
432.60	4557.02
432.79	4641.28
432.97	4805.12
433.16	4706.82
433.35	4664.69
433.54	4671.71
433.72	4596.81
433.91	4482.13
434.10	4690.43
434.28	4781.71
434.47	4786.40
434.66	4840.23
434.85	5078.96
435.03	4753.63
435.22	4784.06
435.41	4950.23
435.59	5123.43
435.78	5034.49
435.97	5203.01
436.16	5008.75
436.34	5027.47
436.53	5139.82
436.72	5125.77
436.90	5011.09
437.09	5165.56
437.28	5004.07
437.46	5139.82
437.65	5102.37
437.84	5041.51
438.02	5207.69
438.21	5085.98
438.40	4971.30
438.58	5163.22
438.77	5329.40
438.96	5320.04
439.14	5488.56
439.33	5731.97
439.52	5675.80
439.70	5481.53
439.89	5593.88
440.08	5687.50
440.26	5633.67
440.45	5600.90
440.63	5860.70
440.82	5947.30
441.01	5816.23
441.19	5912.19
441.38	5991.77
441.57	6150.93
441.75	6052.63
441.94	6305.40
442.12	6361.58
442.31	6403.71
442.50	6354.55
442.68	6232.85
442.87	6310.08
443.05	6179.01
443.24	6359.24
443.43	6293.70
443.61	6516.05
443.80	6506.69
443.98	6319.45
444.17	6370.94
444.35	6478.60
444.54	6679.89
444.73	6483.28
444.91	6387.32
445.10	6443.49
445.28	6434.13
445.47	6225.82
445.65	6527.75
445.84	6394.34
446.02	6595.63
446.21	6448.18
446.39	6422.43
446.58	6497.33
446.77	6455.20
446.95	6422.43
447.14	6626.06
447.32	6675.21
447.51	6656.48
447.69	6602.65
447.88	6511.37
448.06	6595.63
448.25	6562.86
448.43	6597.97
448.62	6715.00
448.80	6513.71
448.99	6923.30
449.17	6803.94
449.36	6740.74
449.54	6986.50
449.73	6935.01
449.91	6932.67
450.10	6984.16
450.28	7204.17
450.46	7117.57
450.65	7187.79
450.83	7140.97
451.02	6981.82
451.20	7140.97
451.39	7143.32
451.57	7131.61
451.76	6970.12
451.94	7164.38
452.13	7215.87
452.31	7248.64
452.49	6876.49
452.68	7419.50
452.86	7096.50
453.05	7164.38
453.23	7283.75
453.42	6946.71
453.60	7178.42
453.78	7520.14
453.97	7321.20
454.15	7300.13
454.34	7349.28
454.52	7421.84
454.70	7384.39
454.89	7435.88
455.07	7499.08
455.26	7496.74
455.44	7609.08
455.62	7754.19
455.81	7721.43
455.99	7714.41
456.17	7606.74
456.36	7639.51
456.54	7819.73
456.73	7918.03
456.91	7990.59
457.09	8065.49
457.28	8372.10
457.46	7859.52
457.64	8180.17
457.83	8072.51
458.01	8056.12
458.19	8138.04
458.38	8074.85
458.56	8205.92
458.74	8131.02
458.93	8175.49
459.11	8369.76
459.29	8315.92
459.48	8297.20
459.66	8311.24
459.84	8308.90
460.03	8444.65
460.21	8528.91
460.39	8215.28
460.57	8365.07
460.76	8416.57
460.94	8540.61
461.12	8484.44
461.31	8507.85
461.49	8683.39
461.67	8514.87
461.85	8734.88
462.04	8713.81
462.22	8809.78
462.40	8830.84
462.59	8688.07
462.77	8968.93
462.95	9029.79
463.13	8762.97
463.32	8767.65
463.50	9032.13
463.68	8917.44
463.86	8992.34
464.05	8912.76
464.23	8870.63
464.41	8940.85
464.59	8945.53
464.78	9146.81
464.96	9104.68
465.14	8959.57
465.32	9107.02
465.50	9221.71
465.69	9303.63
465.87	9048.51
466.05	9135.11
466.23	8940.85
466.41	9041.49
466.60	9121.07
466.78	8896.38
466.96	9097.66
467.14	9174.90
467.32	9320.01
467.51	9392.57
467.69	9221.71
467.87	9317.67
468.05	9516.62
468.23	9331.72
468.41	9322.35
468.60	9383.21
468.78	9378.53
468.96	9516.62
469.14	9694.50
469.32	9666.41
469.50	9317.67
469.69	9769.40
469.87	9970.68
470.05	9701.52
470.23	9795.14
470.41	9771.74
470.59	9872.38
470.77	9846.63
470.95	9895.78
471.14	9973.02
471.32	9818.55
471.50	10012.81
471.68	10296.02
471.86	10464.54
472.04	10427.09
472.22	10506.66
472.40	10090.05
472.58	10211.76
472.77	10382.62
472.95	10324.10
473.13	10478.58
473.31	10338.15
473.49	10354.53
473.67	10668.16
473.85	10717.31
474.03	11052.01
474.21	10986.47
474.39	10696.25
474.57	10801.57
474.75	11061.37
474.93	10984.13
475.12	11040.31
475.30	11300.11
475.48	11257.98
475.66	11094.14
475.84	11164.36
476.02	11239.25
476.20	11283.72
476.38	11382.03
476.56	11775.24
476.74	11948.43
476.92	11475.65
477.10	11770.55
477.28	11962.48
477.46	12222.28
477.64	11943.75
477.82	12472.71
478.00	12425.90
478.18	12304.20
478.36	12463.35
478.54	12641.23
478.72	12601.44
478.90	12732.51
479.08	12788.69
479.26	12940.82
479.44	13151.47
479.62	13163.17
479.80	13118.70
479.98	13242.75
480.16	13544.68
480.34	13217.01
480.52	13888.74
480.70	13715.54
480.88	13387.86
481.06	13706.18
481.24	13834.91
481.41	13987.04
481.59	14218.75
481.77	14413.02
481.95	13870.01
482.13	14204.71
482.31	14623.67
482.49	14785.16
482.67	14516.00
482.85	14637.71
483.03	15145.61
483.21	15161.99
483.39	15248.59
483.57	15082.41
483.74	15344.55
483.92	15337.53
484.10	15597.33
484.28	15934.37
484.46	15999.90
484.64	16067.78
484.82	15758.83
485.00	16030.33
485.18	16365.03
485.35	16397.79
485.53	16140.33
485.71	16084.16
485.89	16163.74
486.07	16320.56
486.25	16690.36
486.43	16575.67
486.61	16893.99
486.78	16912.71
486.96	17200.60
487.14	17394.86
487.32	17750.62
487.50	17902.76
487.68	17841.90
487.85	18504.28
488.03	18171.92
488.21	18366.18
488.39	18221.07
488.57	18441.08
488.75	18773.44
488.92	18951.32
489.10	19063.66
489.28	19094.09
489.46	19716.67
489.64	19585.60
489.81	19728.38
489.99	20053.71
490.17	20081.80
490.35	20290.10
490.53	20348.62
490.70	19924.98
490.88	20222.23
491.06	20790.98
491.24	20444.58
491.41	20910.35
491.59	20575.65
491.77	20680.97
491.95	20828.43
492.13	21163.12
492.30	21128.02
492.48	21722.51
492.66	21582.08
492.84	21626.55
493.01	21998.70
493.19	21766.98
493.37	21965.93
493.54	22218.71
493.72	22300.62
493.90	22621.28
494.08	22532.34
494.25	22885.76
494.43	22820.22
494.61	23466.21
494.79	23234.50
494.96	23183.01
495.14	23070.66
495.32	23410.04
495.49	23386.63
495.67	23608.98
495.85	23711.97
496.02	24107.52
496.20	24133.26
496.38	24023.26
496.55	24400.08
496.73	24842.45
496.91	24603.71
497.09	24737.12
497.26	25067.14
497.44	24650.52
497.62	25029.69
497.79	25188.85
497.97	24907.98
498.14	25205.23
498.32	25305.87
498.50	25647.59
498.67	25862.92
498.85	26380.18
499.03	26185.91
499.20	25879.30
499.38	26429.33
499.56	26490.18
499.73	26298.26
499.91	26621.25
500.08	26043.14
500.26	26288.90
500.44	26487.84
500.61	26419.97
500.79	26214.00
500.97	26789.77
501.14	27105.74
501.32	26974.67
501.49	26951.27
501.67	26796.79
501.84	27033.19
502.02	27300.01
502.20	27524.70
502.37	27405.33
502.55	27850.03
502.72	27873.44
502.90	27796.20
503.07	27901.53
503.25	27711.94
503.43	28257.29
503.60	28058.34
503.78	27908.55
503.95	27615.98
504.13	28158.99
504.30	28229.20
504.48	28357.93
504.65	28830.72
504.83	28596.67
505.01	28769.86
505.18	28781.57
505.36	29163.08
505.53	28877.53
505.71	29600.76
505.88	29404.15
506.06	29116.26
506.23	29280.10
506.41	29462.66
506.58	29369.04
506.76	29427.56
506.93	29919.07
507.11	30110.99
507.28	29795.02
507.46	29912.05
507.63	29851.19
507.81	30054.82
507.98	29928.43
508.16	30361.43
508.33	30345.05
508.50	30345.05
508.68	30574.42
508.85	30782.73
509.03	30888.05
509.20	30869.33
509.38	31321.05
509.55	31175.94
509.73	31072.95
509.90	31126.78
510.08	31026.14
510.25	31267.22
510.42	31461.48
510.60	31580.85
510.77	31613.62
510.95	31754.05
511.12	31859.37
511.30	31573.83
511.47	31803.20
511.64	32095.77
511.82	32584.94
511.99	32034.91
512.17	32290.03
512.34	31821.92
512.51	32327.48
512.69	32374.29
512.86	32577.92
513.04	33209.86
513.21	32966.45
513.38	32884.53
513.56	32514.72
513.73	32297.05
513.90	32783.88
514.08	32622.39
514.25	32802.61
514.43	33137.30
514.60	33366.68
514.77	33163.05
514.95	33603.07
515.12	33156.03
515.29	33240.29
515.47	33963.51
515.64	34108.63
515.81	33567.96
515.99	33315.19
516.16	33663.93
516.33	33209.86
516.51	33291.78
516.68	33097.52
516.85	33251.99
517.03	33383.06
517.20	33680.31
517.37	33743.50
517.54	34057.14
517.72	33912.02
517.89	33811.38
518.06	33673.29
518.24	33668.61
518.41	34019.69
518.58	34504.18
518.75	34562.69
518.93	34330.98
519.10	34679.72
519.27	35367.84
519.45	34918.45
519.62	34574.39
519.79	35124.42
519.96	35150.17
520.14	35246.13
520.31	35189.95
520.48	34773.34
520.65	35370.18
520.83	35594.87
521.00	35997.44
521.17	35742.32
521.34	35784.45
521.52	35487.20
521.69	35552.74
521.86	36079.36
522.03	36208.09
522.20	35997.44
522.38	36121.49
522.55	36329.80
522.72	35833.60
522.89	36240.86
523.07	36755.77
523.24	36215.11
523.41	37017.91
523.58	36400.01
523.75	37067.06
523.92	36830.67
524.10	37392.40
524.27	37549.21
524.44	37095.15
524.61	37163.03
524.78	37406.44
524.96	37163.03
525.13	37338.57
525.30	37738.80
525.47	37699.01
525.64	37415.80
525.81	37649.86
525.98	37134.94
526.16	37132.60
526.33	37102.17
526.50	37324.52
526.67	37216.86
526.84	37565.60
527.01	37734.12
527.18	37476.66
527.36	38050.09
527.53	38223.29
527.70	38497.13
527.87	38089.88
528.04	38211.59
528.21	38314.57
528.38	38307.55
528.55	38445.64
528.72	38705.44
528.89	38792.04
529.07	38700.76
529.24	38373.08
529.41	38520.54
529.58	38508.83
529.75	38684.37
529.92	38672.67
530.09	39133.76
530.26	38857.57
530.43	39138.44
530.60	38752.25
530.77	38775.66
530.94	39253.12
531.11	39016.73
531.28	39262.49
531.46	39697.83
531.63	39688.46
531.80	39194.61
531.97	39405.26
532.14	39234.40
532.31	38862.26
532.48	39168.87
532.65	39599.52
532.82	39379.51
532.99	39831.24
533.16	39707.19
533.33	39976.35
533.50	40032.52
533.67	39997.41
533.84	39716.55
534.01	39938.90
534.18	39620.59
534.35	40362.54
534.52	39775.06
534.69	40289.98
534.86	40201.04
535.03	40470.20
535.20	40786.18
535.37	40575.53
535.54	40722.98
535.71	40598.93
535.88	40680.85
536.05	40481.91
536.22	40774.47
536.38	41017.89
536.55	40612.98
536.72	40526.38
536.89	40252.53
537.06	40999.16
537.23	40854.05
537.40	40758.09
537.57	40954.69
537.74	41287.05
537.91	41167.68
538.08	40772.13
538.25	41151.30
538.42	41359.61
538.59	41191.09
538.75	40547.44
538.92	41109.17
539.09	41670.90
539.26	41099.81
539.43	41457.91
539.60	41504.72
539.77	41345.56
539.94	41261.30
540.11	40893.84
540.28	41340.88
540.44	41762.18
540.61	41020.23
540.78	41074.06
540.95	41163.00
541.12	41670.90
541.29	41794.95
541.46	41806.65
541.62	41888.57
541.79	42288.80
541.96	41530.47
542.13	41780.90
542.30	41593.66
542.47	41617.07
542.63	42113.26
542.80	41748.14
542.97	42822.44
543.14	42501.79
543.31	42686.69
543.48	42462.00
543.64	42878.61
543.81	42543.92
543.98	42616.47
544.15	42525.19
544.32	42539.24
544.48	42838.83
544.65	42473.70
544.82	42728.82
544.99	42429.23
545.16	42717.12
545.32	43009.68
545.49	43615.88
545.66	43147.78
545.83	42890.32
546.00	43274.16
546.16	42981.60
546.33	42939.47
546.50	43051.81
546.67	42890.32
546.83	42941.81
547.00	43283.53
547.17	43339.70
547.34	43061.18
547.50	43026.07
547.67	43695.46
547.84	43278.85
548.00	43498.86
548.17	43704.82
548.34	43526.94
548.51	43634.61
548.67	43807.81
548.84	43454.39
549.01	43643.97
549.18	43814.83
549.34	43641.63
549.51	43608.86
549.68	43496.52
549.84	43828.87
550.01	44151.87
550.18	43784.40
550.34	44004.41
550.51	44004.41
550.68	43856.96
550.84	43948.24
551.01	43831.21
551.18	43739.93
551.34	43831.21
551.51	44098.03
551.68	44423.37
551.84	44428.05
552.01	44217.40
552.18	43981.01
552.34	43721.21
552.51	44381.24
552.68	44559.12
552.84	44353.15
553.01	44212.72
553.18	44495.92
553.34	44217.40
553.51	43941.22
553.67	44261.87
553.84	44512.31
554.01	44704.23
554.17	44584.86
554.34	44645.72
554.51	44388.26
554.67	45034.25
554.84	44428.05
555.00	45088.08
555.17	44704.23
555.33	44561.46
555.50	44786.15
555.67	44804.88
555.83	44758.06
556.00	44713.59
556.16	45179.36
556.33	44542.74
556.50	44435.07
556.66	44540.39
556.83	44788.49
556.99	44737.00
557.16	45045.95
557.32	44903.18
557.49	44968.71
557.65	45076.38
557.82	45125.53
557.98	44980.42
558.15	44746.36
558.32	45420.44
558.48	45048.29
558.65	45104.46
558.81	45125.53
558.98	44554.44
559.14	44933.60
559.31	44680.83
559.47	45617.04
559.64	45151.27
559.80	45661.51
559.97	45198.09
560.13	45333.84
560.30	44868.07
560.46	45289.37
560.63	45359.58
560.79	45378.31
560.96	45483.63
561.12	45462.57
561.29	45165.32
561.45	45485.97
561.61	45689.60
561.78	45022.54
561.94	45366.60
562.11	45158.30
562.27	45132.55
562.44	45467.25
562.60	45675.55
562.77	45572.57
562.93	45567.89
563.10	45666.19
563.26	45113.83
563.42	45705.98
563.59	45134.89
563.75	45507.04
563.92	45670.87
564.08	44924.24
564.24	45556.19
564.41	45277.66
564.57	45649.81
564.74	45621.72
564.90	45546.82
565.07	45743.43
565.23	45757.47
565.39	45619.38
565.56	45528.10
565.72	45081.06
565.88	45507.04
566.05	45635.77
566.21	45717.68
566.38	45780.88
566.54	46031.32
566.70	46045.36
566.87	46333.24
567.03	46162.39
567.19	46347.29
567.36	45670.87
567.52	45675.55
567.68	46064.08
567.85	45443.84
568.01	45986.85
568.17	45785.56
568.34	45806.62
568.50	45923.65
568.66	45713.00
568.83	45923.65
568.99	45237.87
569.15	45567.89
569.32	45846.41
569.48	45776.20
569.64	45881.52
569.81	45925.99
569.97	45773.86
570.13	45801.94
570.30	45691.94
570.46	45474.27
570.62	45694.28
570.78	45558.53
570.95	45294.05
571.11	45722.37
571.27	46028.98
571.43	45708.32
571.60	45991.53
571.76	45603.00
571.92	45710.66
572.09	46061.74
572.25	45947.06
572.41	45764.49
572.57	46005.57
572.74	46366.01
572.90	46050.04
573.06	45855.78
573.22	45715.34
573.38	45532.78
573.55	45715.34
573.71	46124.94
573.87	46272.39
574.03	45935.35
574.20	45979.82
574.36	45825.35
574.52	45705.98
574.68	46141.32
574.84	46211.54
575.01	45743.43
575.17	45914.29
575.33	45530.44
575.49	45900.25
575.65	45523.42
575.82	45909.61
575.98	45900.25
576.14	46557.94
576.30	45940.04
576.46	45801.94
576.62	46066.42
576.79	45773.86
576.95	45425.12
577.11	46122.60
577.27	46394.10
577.43	46054.72
577.59	46354.31
577.75	45916.63
577.92	45729.39
578.08	45860.46
578.24	46050.04
578.40	46071.10
578.56	46164.73
578.72	46101.53
578.88	46248.99
579.04	46218.56
579.21	45682.58
579.37	45722.37
579.53	46050.04
579.69	45745.77
579.85	45354.90
580.01	46333.24
580.17	46230.26
580.33	45951.74
580.49	46080.47
580.65	46176.43
580.82	46274.73
580.98	45687.26
581.14	45961.10
581.30	46515.81
581.46	45862.80
581.62	46092.17
581.78	46178.77
581.94	46639.86
582.10	46012.59
582.26	46171.75
582.42	46113.23
582.58	46419.84
582.74	45937.69
582.90	46520.49
583.06	46202.18
583.22	46368.35
583.38	46564.96
583.54	46209.20
583.70	46213.88
583.86	46000.89
584.02	45797.26
584.18	46408.14
584.34	45741.09
584.50	46225.58
584.66	46206.86
584.82	46099.19
584.98	46494.74
585.14	46181.11
585.30	46064.08
585.46	46050.04
585.62	46143.66
585.78	45663.85
585.94	45928.33
586.10	45914.29
586.26	46258.35
586.42	46358.99
586.58	46206.86
586.74	46408.14
586.90	46340.27
587.06	46155.36
587.22	46267.71
587.38	45954.08
587.54	46010.25
587.70	46366.01
587.86	46033.66
588.02	46293.46
588.18	46431.55
588.34	46073.45
588.49	46103.87
588.65	45556.19
588.81	45453.20
588.97	45815.99
589.13	45581.93
589.29	46176.43
589.45	45895.56
589.61	46047.70
589.77	46288.77
589.93	46527.51
590.08	46438.57
