SpectraSuite Data File
++++++++++++++++++++++++++++++++++++
Date: Fri Oct 25 11:25:40 EDT 2013
User: price-jones
Dark Spectrum Present: No
Reference Spectrum Present: No
Number of Sampled Component Spectra: 1
Spectrometers: USB2+H05261
Integration Time (usec): 100000 (USB2+H05261)
Spectra Averaged: 1 (USB2+H05261)
Boxcar Smoothing: 0 (USB2+H05261)
Correct for Electrical Dark: No (USB2+H05261)
Strobe/Lamp Enabled: No (USB2+H05261)
Correct for Detector Non-linearity: No (USB2+H05261)
Correct for Stray Light: No (USB2+H05261)
Number of Pixels in Processed Spectrum: 2048
>>>>>Begin Processed Spectral Data<<<<<
365.73	241.08
365.92	241.08
366.12	241.08
366.32	163.84
366.52	147.45
366.72	212.99
366.91	63.19
367.11	126.39
367.31	100.64
367.51	133.41
367.70	175.54
367.90	114.69
368.10	93.62
368.30	182.56
368.49	81.92
368.69	170.86
368.89	163.84
369.09	77.24
369.28	217.67
369.48	189.58
369.68	227.03
369.87	243.42
370.07	175.54
370.27	292.57
370.47	334.70
370.66	596.84
370.86	634.29
371.06	629.60
371.25	627.26
371.45	669.39
371.65	732.59
371.84	732.59
372.04	674.07
372.24	791.10
372.44	716.20
372.63	697.48
372.83	709.18
373.03	734.93
373.22	641.31
373.42	765.36
373.62	767.70
373.81	784.08
374.01	784.08
374.21	777.06
374.40	793.44
374.60	896.43
374.79	774.72
374.99	784.08
375.19	854.30
375.38	882.38
375.58	844.93
375.78	812.17
375.97	868.34
376.17	833.23
376.37	800.46
376.56	896.43
376.76	812.17
376.95	898.77
377.15	898.77
377.35	854.30
377.54	936.21
377.74	915.15
377.93	908.13
378.13	873.02
378.33	922.17
378.52	814.51
378.72	880.04
378.91	931.53
379.11	1008.77
379.31	917.49
379.50	983.02
379.70	1041.54
379.89	1004.09
380.09	987.71
380.28	915.15
380.48	931.53
380.68	978.34
380.87	973.66
381.07	961.96
381.26	1057.92
381.46	1027.50
381.65	1086.01
381.85	1104.73
382.04	959.62
382.24	1064.94
382.43	1013.45
382.63	1001.75
382.83	1123.46
383.02	1170.27
383.22	1107.07
383.41	1043.88
383.61	1121.12
383.80	1046.22
384.00	1093.03
384.19	1090.69
384.39	1205.38
384.58	1128.14
384.78	1226.44
384.97	1114.10
385.17	1151.54
385.36	1102.39
385.56	1210.06
385.75	1177.29
385.95	1153.88
386.14	1224.10
386.34	1212.40
386.53	1228.78
386.72	1240.48
386.92	1254.53
387.11	1240.48
387.31	1306.02
387.50	1181.97
387.70	1174.95
387.89	1249.85
388.09	1357.51
388.28	1273.25
388.48	1242.82
388.67	1275.59
388.86	1210.06
389.06	1320.06
389.25	1317.72
389.45	1404.32
389.64	1315.38
389.84	1427.73
390.03	1401.98
390.22	1401.98
390.42	1385.60
390.61	1362.19
390.81	1324.74
391.00	1444.11
391.19	1483.90
391.39	1488.58
391.58	1476.88
391.78	1495.60
391.97	1483.90
392.16	1427.73
392.36	1500.28
392.55	1542.41
392.75	1509.65
392.94	1535.39
393.13	1526.03
393.33	1516.67
393.52	1542.41
393.71	1544.75
393.91	1561.14
394.10	1645.40
394.29	1558.80
394.49	1638.38
394.68	1652.42
394.88	1600.93
395.07	1788.17
395.26	1652.42
395.46	1654.76
395.65	1746.04
395.84	1696.89
396.04	1748.38
396.23	1764.76
396.42	1710.93
396.62	1785.83
396.81	1898.17
397.00	1713.27
397.19	1746.04
397.39	1825.62
397.58	1863.07
397.77	1811.57
397.97	1818.60
398.16	1834.98
398.35	1865.41
398.55	1774.13
398.74	1877.11
398.93	1902.86
399.12	1916.90
399.32	1879.45
399.51	1914.56
399.70	2031.58
399.90	1949.67
400.09	1886.47
400.28	2050.31
400.47	1984.77
400.67	2069.03
400.86	2038.61
401.05	2052.65
401.24	2080.74
401.44	2108.82
401.63	2230.53
401.82	2127.55
402.01	2022.22
402.21	2150.95
402.40	2277.34
402.59	2186.06
402.78	2181.38
402.97	2190.74
403.17	2305.43
403.36	2195.42
403.55	2263.30
403.74	2377.98
403.93	2448.20
404.13	2392.03
404.32	2312.45
404.51	2349.90
404.70	2434.16
404.89	2359.26
405.09	2490.33
405.28	2415.43
405.47	2438.84
405.66	2462.24
405.85	2616.72
406.05	2450.54
406.24	2518.42
406.43	2490.33
406.62	2588.63
406.81	2593.31
407.00	2612.04
407.20	2485.65
407.39	2511.39
407.58	2633.10
407.77	2670.55
407.96	2766.51
408.15	2633.10
408.34	2665.87
408.54	2785.24
408.73	2864.82
408.92	2841.41
409.11	2764.17
409.30	2864.82
409.49	2949.08
409.68	2937.37
409.87	2874.18
410.07	2965.46
410.26	2930.35
410.45	2977.16
410.64	3105.89
410.83	3094.19
411.02	3070.78
411.21	3124.62
411.40	3220.58
411.59	3208.87
411.78	3166.74
411.98	3164.40
412.17	3145.68
412.36	3131.64
412.55	3349.31
412.74	3417.18
412.93	3328.24
413.12	3386.76
413.31	3482.72
413.50	3447.61
413.69	3440.59
413.88	3445.27
414.07	3475.70
414.26	3513.14
414.45	3552.93
414.64	3623.15
414.83	3639.53
415.02	3777.62
415.22	3838.48
415.41	3904.01
415.60	3770.60
415.79	3864.22
415.98	3953.16
416.17	3854.86
416.36	3906.35
416.55	3962.53
416.74	4142.75
416.93	4091.26
417.12	4105.30
417.31	4105.30
417.50	4241.05
417.69	4351.06
417.88	4304.25
418.07	4287.86
418.26	4411.91
418.45	4262.12
418.64	4524.26
418.83	4355.74
419.02	4381.48
419.21	4351.06
419.39	4463.40
419.58	4411.91
419.77	4477.44
419.96	4580.43
420.15	4517.23
420.34	4596.81
420.53	4587.45
420.72	4580.43
420.91	4662.35
421.10	4720.86
421.29	4774.69
421.48	4762.99
421.67	4791.08
421.86	4830.87
422.05	4770.01
422.24	4685.75
422.43	4788.74
422.61	4781.71
422.80	4777.03
422.99	4795.76
423.18	4856.61
423.37	4910.44
423.56	4851.93
423.75	4936.19
423.94	4917.47
424.13	4706.82
424.32	4727.88
424.50	4870.65
424.69	5153.86
424.88	4910.44
425.07	4889.38
425.26	4891.72
425.45	4926.83
425.64	4821.50
425.83	4917.47
426.01	4954.91
426.20	5046.20
426.39	5069.60
426.58	5104.71
426.77	4908.10
426.96	4980.66
427.15	5015.77
427.33	5139.82
427.52	5165.56
427.71	5252.16
427.90	5294.29
428.09	5116.41
428.28	5277.91
428.46	5420.68
428.65	5329.40
428.84	5385.57
429.03	5357.49
429.22	5371.53
429.40	5364.51
429.59	5273.23
429.78	5074.28
429.97	5219.39
430.16	5497.92
430.34	5476.85
430.53	5741.33
430.72	5788.14
430.91	5671.12
431.10	5654.73
431.28	5652.39
431.47	5783.46
431.66	5783.46
431.85	5682.82
432.03	5942.62
432.22	6017.52
432.41	5909.85
432.60	6008.16
432.79	5863.04
432.97	5905.17
433.16	5959.00
433.35	5891.13
433.54	5984.75
433.72	6045.60
433.91	6080.71
434.10	6242.21
434.28	5991.77
434.47	6197.74
434.66	6167.31
434.85	6298.38
435.03	6214.12
435.22	6204.76
435.41	6401.37
435.59	6389.66
435.78	6340.51
435.97	6221.14
436.16	6504.35
436.34	6518.39
436.53	6455.20
436.72	6567.54
436.90	6370.94
437.09	6345.19
437.28	6509.03
437.46	6581.59
437.65	6677.55
437.84	6623.72
438.02	6729.04
438.21	6612.01
438.40	6633.08
438.58	6857.77
438.77	6780.53
438.96	6984.16
439.14	7005.22
439.33	7166.72
439.52	7131.61
439.70	7103.53
439.89	7335.24
440.08	7433.54
440.26	7236.94
440.45	7438.22
440.63	7248.64
440.82	7595.04
441.01	7604.40
441.19	7588.02
441.38	7782.28
441.57	7609.08
441.75	7681.64
441.94	7997.61
442.12	8065.49
442.31	7948.46
442.50	7939.10
442.68	7892.29
442.87	7911.01
443.05	8077.19
443.24	8355.71
443.43	8044.42
443.61	8226.98
443.80	8344.01
443.98	8081.87
444.17	7801.01
444.35	8105.28
444.54	8278.47
444.73	8210.60
444.91	8177.83
445.10	8147.40
445.28	8234.00
445.47	8166.13
445.65	8250.39
445.84	8428.27
446.02	8554.66
446.21	8315.92
446.39	8503.17
446.58	8423.59
446.77	8552.32
446.95	8205.92
447.14	8456.36
447.32	8470.40
447.51	8189.53
447.69	8479.76
447.88	8465.72
448.06	8351.03
448.25	8533.59
448.43	8723.18
448.62	8683.39
448.80	8601.47
448.99	8617.85
449.17	8446.99
449.36	8575.72
449.54	8741.90
449.73	8758.28
449.91	9088.30
450.10	8760.63
450.28	9186.60
450.46	8936.17
450.65	9022.77
450.83	8971.27
451.02	8765.31
451.20	9043.83
451.39	9158.52
451.57	8828.50
451.76	9275.54
451.94	9266.18
452.13	9277.88
452.31	9097.66
452.49	9057.87
452.68	9507.26
452.86	9238.09
453.05	9437.04
453.23	9371.50
453.42	9465.13
453.60	9179.58
453.78	9612.58
453.97	9345.76
454.15	9533.00
454.34	9387.89
454.52	9570.45
454.70	9727.27
454.89	9408.95
455.07	9549.39
455.26	9851.31
455.44	9823.23
455.62	9692.16
455.81	9785.78
455.99	10010.47
456.17	10017.49
456.36	9989.41
456.54	10188.35
456.73	10197.71
456.91	10101.75
457.09	10143.88
457.28	10523.05
457.46	10352.19
457.64	10427.09
457.83	10296.02
458.01	10476.24
458.19	10525.39
458.38	10490.28
458.56	10616.67
458.74	10569.86
458.93	10581.56
459.11	10780.51
459.29	10829.66
459.48	10546.45
459.66	10787.53
459.84	10579.22
460.03	10881.15
460.21	10927.96
460.39	10717.31
460.57	10846.04
460.76	11169.04
460.94	11187.76
461.12	10965.41
461.31	11201.80
461.49	11295.43
461.67	11007.54
461.85	11236.91
462.04	10930.30
462.22	11599.70
462.40	11463.94
462.59	11494.37
462.77	11536.50
462.95	11587.99
463.13	11489.69
463.32	11590.33
463.50	11894.60
463.68	11644.17
463.86	11700.34
464.05	11552.88
464.23	11854.81
464.41	11941.41
464.59	11494.37
464.78	12051.42
464.96	11847.79
465.14	11852.47
465.32	12053.76
465.50	11906.31
465.69	12067.80
465.87	12081.85
466.05	12006.95
466.23	11969.50
466.41	12524.21
466.60	12308.88
466.78	12030.35
466.96	12285.47
467.14	12273.77
467.32	12241.00
467.51	12573.36
467.69	12039.72
467.87	12594.42
468.05	12507.82
468.23	12456.33
468.41	12414.20
468.60	12358.03
468.78	12692.73
468.96	12655.28
469.14	12461.01
469.32	13011.04
469.50	12353.35
469.69	12844.86
469.87	12734.85
470.05	13184.24
470.23	13245.09
470.41	13303.60
470.59	13359.78
470.77	12980.61
470.95	13252.11
471.14	13378.50
471.32	13001.68
471.50	13308.29
471.68	13589.15
471.86	13628.94
472.04	13523.62
472.22	13635.96
472.40	13654.69
472.58	13778.73
472.77	13912.14
472.95	13905.12
473.13	14471.53
473.31	14005.77
473.49	13893.42
473.67	14115.77
473.85	14036.19
474.03	14757.08
474.21	14256.20
474.39	14567.49
474.57	14745.38
474.75	14888.15
474.93	14925.60
475.12	14782.82
475.30	14831.97
475.48	14895.17
475.66	15126.88
475.84	15136.24
476.02	15143.27
476.20	15288.38
476.38	15129.22
476.56	15784.57
476.74	15807.98
476.92	15796.28
477.10	15861.81
477.28	16013.95
477.46	16180.12
477.64	16189.49
477.82	16460.99
478.00	16868.24
478.18	16297.15
478.36	16865.90
478.54	16865.90
478.72	17174.85
478.90	17001.65
479.08	17605.51
479.26	17607.85
479.44	17628.92
479.62	17776.37
479.80	17781.05
479.98	18143.83
480.16	18326.39
480.34	18214.05
480.52	18382.57
480.70	18455.12
480.88	18200.01
481.06	18623.64
481.24	18719.60
481.41	18752.37
481.59	19204.10
481.77	19087.07
481.95	19435.81
482.13	19374.95
482.31	19676.88
482.49	20327.55
482.67	20004.56
482.85	20472.67
483.03	20287.76
483.21	20493.73
483.39	20486.71
483.57	20650.55
483.74	20922.05
483.92	21301.22
484.10	20798.00
484.28	21673.36
484.46	22190.62
484.64	22225.73
484.82	21797.41
485.00	22256.15
485.18	22494.89
485.35	22555.74
485.53	22487.87
485.71	23054.28
485.89	23379.61
486.07	23101.09
486.25	23421.74
486.43	23438.12
486.61	23747.08
486.78	23742.39
486.96	24119.22
487.14	24112.20
487.32	24566.26
487.50	24917.34
487.68	24999.26
487.85	25006.28
488.03	25572.69
488.21	25507.16
488.39	25853.56
488.57	25811.43
488.75	25830.15
488.92	26199.96
489.10	26347.41
489.28	26693.81
489.46	26834.24
489.64	27211.07
489.81	27428.74
489.99	27395.97
490.17	27742.37
490.35	27744.71
490.53	27913.23
490.70	28098.13
490.88	27777.48
491.06	28535.81
491.24	28528.79
491.41	28910.30
491.59	29181.80
491.77	29134.99
491.95	29397.13
492.13	29504.79
492.30	29628.84
492.48	30059.50
492.66	30064.18
492.84	30178.87
493.01	30621.23
493.19	30597.82
493.37	30595.48
493.54	30696.13
493.72	31082.31
493.90	31299.98
494.08	31438.08
494.25	31971.72
494.43	31639.36
494.61	31936.61
494.79	32327.48
494.96	32311.10
495.14	32622.39
495.32	32781.54
495.49	32921.98
495.67	32924.32
495.85	33163.05
496.02	33745.84
496.20	33663.93
496.38	33858.19
496.55	33703.71
496.73	34553.33
496.91	34281.83
497.09	34719.51
497.26	34668.02
497.44	34529.92
497.62	34785.04
497.79	35690.83
497.97	35248.47
498.14	35903.82
498.32	35768.07
498.50	35791.47
498.67	36421.08
498.85	36432.78
499.03	36535.76
499.20	36025.53
499.38	36774.50
499.56	36673.85
499.73	36907.91
499.91	36973.44
500.08	37455.59
500.26	37036.64
500.44	37415.80
500.61	37479.00
500.79	37713.05
500.97	38216.27
501.14	38012.64
501.32	38211.59
501.49	38375.42
501.67	38459.68
501.84	38593.09
502.02	39185.25
502.20	38862.26
502.37	38909.07
502.55	39028.43
502.72	39005.03
502.90	39131.42
503.07	39278.87
503.25	39669.74
503.43	39264.83
503.60	39878.05
503.78	39679.10
503.95	40055.93
504.13	40287.64
504.30	40212.74
504.48	40135.51
504.65	40011.46
504.83	40650.42
505.01	40624.68
505.18	40711.28
505.36	41064.70
505.53	40840.01
505.71	41340.88
505.88	41331.52
506.06	41048.32
506.23	41493.02
506.41	41794.95
506.58	41708.35
506.76	41469.61
506.93	42085.17
507.11	41965.81
507.28	42176.45
507.46	42307.52
507.63	42707.76
507.81	42658.60
507.98	42454.98
508.16	42691.37
508.33	43044.79
508.50	43461.41
508.68	43133.73
508.85	43325.66
509.03	43426.30
509.20	43688.44
509.38	43995.05
509.55	43875.68
509.73	44156.55
509.90	44311.02
510.08	44067.61
510.25	44491.24
510.42	44306.34
510.60	44683.17
510.77	44547.42
510.95	45280.00
511.12	44921.90
511.30	45226.17
511.47	45015.52
511.64	45567.89
511.82	45830.03
511.99	45298.73
512.17	45755.13
512.34	45635.77
512.51	46487.72
512.69	46155.36
512.86	46071.10
513.04	46302.82
513.21	46347.29
513.38	46356.65
513.56	46387.08
513.73	46513.47
513.90	46813.05
514.08	46866.89
514.25	47016.68
514.43	46983.91
514.60	46932.42
514.77	46824.76
514.95	47552.66
515.12	47154.77
515.29	47035.41
515.47	47749.27
515.64	48039.50
515.81	47688.42
515.99	47786.72
516.16	47983.32
516.33	48151.84
516.51	48437.39
516.68	47587.77
516.85	47756.29
517.03	48566.12
517.20	48683.14
517.37	48746.34
517.54	48381.21
517.72	48811.87
517.89	48612.93
518.06	48746.34
518.24	48905.49
518.41	48987.41
518.58	49251.89
518.75	49209.76
518.93	49282.32
519.10	48978.05
519.27	49146.57
519.45	49532.76
519.62	49523.40
519.79	49457.86
519.96	49677.87
520.14	49839.37
520.31	49614.68
520.48	49902.56
520.65	50026.61
520.83	50632.81
521.00	50459.61
521.17	50211.51
521.34	50782.60
521.52	50871.54
521.69	50319.18
521.86	50560.25
522.03	50670.26
522.20	50834.10
522.38	51016.66
522.55	51246.03
522.72	50974.53
522.89	51079.85
523.07	51283.48
523.24	51262.41
523.41	51519.87
523.58	50918.35
523.75	51571.36
523.92	51681.37
524.10	51854.57
524.27	51980.96
524.44	51894.36
524.61	51807.76
524.78	51679.03
524.96	51987.98
525.13	51917.76
525.30	52149.48
525.47	52711.20
525.64	52261.82
525.81	52067.56
525.98	52418.64
526.16	52636.31
526.33	52505.24
526.50	52992.07
526.67	52612.90
526.84	52938.24
527.01	52669.08
527.18	52605.88
527.36	52678.44
527.53	52706.52
527.70	52750.99
527.87	52914.83
528.04	52793.12
528.21	53036.54
528.38	52793.12
528.55	53703.59
528.72	53202.72
528.89	53303.36
529.07	53244.85
529.24	53523.37
529.41	53497.62
529.58	53167.61
529.75	53553.80
529.92	53612.31
530.09	53504.65
530.26	53663.80
530.43	53867.43
530.60	53598.27
530.77	53525.71
530.94	53900.20
531.11	53759.76
531.28	54082.76
531.46	53914.24
531.63	54387.03
531.80	54176.38
531.97	54241.92
532.14	54103.82
532.31	54356.60
532.48	54335.54
532.65	54223.19
532.82	54216.17
532.99	54513.42
533.16	54415.11
533.33	54475.97
533.50	54756.83
533.67	54578.95
533.84	54805.98
534.01	54745.13
534.18	54768.54
534.35	54852.80
534.52	55110.25
534.69	55196.85
534.86	54988.55
535.03	54869.18
535.20	54955.78
535.37	55014.29
535.54	55224.94
535.71	54838.75
535.88	55255.37
536.05	55100.89
536.22	55302.18
536.38	55430.91
536.55	55449.63
536.72	55196.85
536.89	55196.85
537.06	55372.39
537.23	55421.55
537.40	55402.82
537.57	55592.40
537.74	55641.56
537.91	55866.25
538.08	55800.71
538.25	55547.93
538.42	55585.38
538.59	55877.95
538.75	55781.99
538.92	55615.81
539.09	56163.50
539.26	55934.12
539.43	55915.40
539.60	55896.67
539.77	56016.04
539.94	56268.82
540.11	56086.26
540.28	56135.41
540.44	56301.59
540.61	56336.69
540.78	56219.67
540.95	56032.42
541.12	56217.33
541.29	56163.50
541.46	56236.05
541.62	56458.40
541.79	56533.30
541.96	56126.05
542.13	56516.92
542.30	56385.85
542.47	56804.80
542.63	56596.49
542.80	56566.07
542.97	56912.47
543.14	56774.37
543.31	56980.34
543.48	57111.41
543.64	57242.48
543.81	57226.10
543.98	57317.38
544.15	57275.25
544.32	57116.09
544.48	57392.28
544.65	57113.75
544.82	57085.67
544.99	57038.86
545.16	57343.12
545.32	57202.69
545.49	57741.02
545.66	57448.45
545.83	57659.10
546.00	57663.78
546.16	57230.78
546.33	57385.25
546.50	57467.17
546.67	57549.09
546.83	57359.51
547.00	57464.83
547.17	57499.94
547.34	57460.15
547.50	57616.97
547.67	57911.88
547.84	57745.70
548.00	58014.86
548.17	57977.41
548.34	57935.28
548.51	57961.03
548.67	57874.43
548.84	57862.72
549.01	57815.91
549.18	58005.50
549.34	58220.83
549.51	57860.38
549.68	58429.13
549.84	58166.99
550.01	58372.96
550.18	58047.63
550.34	58232.53
550.51	58426.79
550.68	58375.30
550.84	58073.37
551.01	58255.93
551.18	58169.33
551.34	58213.80
551.51	58508.71
551.68	58422.11
551.84	58433.81
552.01	58344.87
552.18	58693.61
552.34	58169.33
552.51	58670.21
552.68	58454.88
552.84	58251.25
553.01	58649.14
553.18	58672.55
553.34	58702.98
553.51	58536.80
553.67	58815.32
553.84	58731.06
554.01	58855.11
554.17	58625.74
554.34	58623.40
554.51	58740.42
554.67	59157.04
554.84	58838.73
555.00	58691.27
555.17	58981.50
555.33	58777.87
555.50	58637.44
555.67	58864.47
555.83	58915.96
556.00	58995.54
556.16	59274.07
556.33	59157.04
556.50	59072.78
556.66	59171.08
556.83	58841.07
556.99	59164.06
557.16	59264.70
557.32	59402.80
557.49	59245.98
557.65	59196.83
557.82	59278.75
557.98	59166.40
558.15	59295.13
558.32	59430.88
558.48	59292.79
558.65	59421.52
558.81	59283.43
558.98	59508.12
559.14	59363.01
559.31	59363.01
559.47	59447.27
559.64	59281.09
559.80	59512.80
559.97	59618.13
560.13	59360.67
560.30	59433.22
560.46	59524.50
560.63	59643.87
560.79	59662.60
560.96	59557.27
561.12	59840.48
561.29	59646.21
561.45	59863.88
561.61	59671.96
561.78	59695.36
561.94	59819.41
562.11	59608.76
562.27	59681.32
562.44	59845.16
562.60	59676.64
562.77	59842.82
562.93	59770.26
563.10	59913.03
563.26	59723.45
563.42	60046.44
563.59	59943.46
563.75	59971.55
563.92	59863.88
564.08	59910.69
564.24	59894.31
564.41	60030.06
564.57	59828.77
564.74	59889.63
564.90	59793.67
565.07	60013.68
565.23	60055.81
565.39	60060.49
565.56	60100.28
565.72	60081.55
565.88	59945.80
566.05	60081.55
566.21	59950.48
566.38	59943.46
566.54	60107.30
566.70	60271.14
566.87	60133.04
567.03	59994.95
567.19	60144.75
567.36	60011.34
567.52	60083.89
567.68	60418.59
567.85	60308.58
568.01	60097.94
568.17	60058.15
568.34	60264.11
568.50	60151.77
568.66	60278.16
568.83	60231.35
568.99	60001.97
569.15	60179.85
569.32	60259.43
569.48	60170.49
569.64	60341.35
569.81	60355.39
569.97	60013.68
570.13	60406.89
570.30	60123.68
570.46	60385.82
570.62	60289.86
570.78	60395.18
570.95	60191.56
571.11	60474.76
571.27	60341.35
571.43	60640.94
571.60	60376.46
571.76	60406.89
571.92	60388.16
572.09	60350.71
572.25	60402.21
572.41	60254.75
572.57	60397.52
572.74	60514.55
572.90	60322.63
573.06	60360.08
573.22	60690.09
573.38	60533.28
573.55	60577.75
573.71	60683.07
573.87	60479.44
574.03	60409.23
574.20	60292.20
574.36	60472.42
574.52	60692.43
574.68	60638.60
574.84	60591.79
575.01	60664.35
575.17	60465.40
575.33	60481.78
575.49	60608.17
575.65	60580.09
575.82	60919.46
575.98	60554.34
576.14	60725.20
576.30	60722.86
576.46	60568.38
576.62	60523.91
576.79	60680.73
576.95	60673.71
577.11	60638.60
577.27	60720.52
577.43	60596.47
577.59	60671.37
577.75	60636.26
577.92	60498.17
578.08	60800.10
578.24	60561.36
578.40	60933.51
578.56	60671.37
578.72	60647.96
578.88	60860.95
579.04	60889.04
579.21	60631.58
579.37	60919.46
579.53	60814.14
579.69	60584.77
579.85	60477.10
580.01	60629.24
580.17	60605.83
580.33	60767.33
580.49	60739.24
580.65	60753.29
580.82	60718.18
580.98	60772.01
581.14	60652.64
581.30	60505.19
581.46	60596.47
581.62	60582.43
581.78	60750.94
581.94	60825.84
582.10	60725.20
582.26	60732.22
582.42	60654.98
582.58	60708.82
582.74	60776.69
582.90	60816.48
583.06	60725.20
583.22	60673.71
583.38	60795.42
583.54	60713.50
583.70	60910.10
583.86	60732.22
584.02	60757.97
584.18	60893.72
584.34	60860.95
584.50	60692.43
584.66	60811.80
584.82	60636.26
584.98	60697.11
585.14	60863.29
585.30	60769.67
585.46	60952.23
585.62	60874.99
585.78	60910.10
585.94	60573.06
586.10	60669.03
586.26	60779.03
586.42	61050.53
586.58	61158.20
586.74	60975.64
586.90	60779.03
587.06	60750.94
587.22	60886.70
587.38	60802.44
587.54	61113.73
587.70	61022.45
587.86	61006.06
588.02	60807.12
588.18	61045.85
588.34	61010.74
588.49	61085.64
