SpectraSuite Data File
++++++++++++++++++++++++++++++++++++
Date: Fri Oct 25 11:23:51 EDT 2013
User: price-jones
Dark Spectrum Present: No
Reference Spectrum Present: No
Number of Sampled Component Spectra: 1
Spectrometers: USB2+H05261
Integration Time (usec): 100000 (USB2+H05261)
Spectra Averaged: 1 (USB2+H05261)
Boxcar Smoothing: 0 (USB2+H05261)
Correct for Electrical Dark: No (USB2+H05261)
Strobe/Lamp Enabled: No (USB2+H05261)
Correct for Detector Non-linearity: No (USB2+H05261)
Correct for Stray Light: No (USB2+H05261)
Number of Pixels in Processed Spectrum: 2048
>>>>>Begin Processed Spectral Data<<<<<
365.73	229.37
365.92	229.37
366.12	229.37
366.32	194.26
366.52	177.88
366.72	121.71
366.91	163.84
367.11	133.41
367.31	23.41
367.51	161.50
367.70	163.84
367.90	91.28
368.10	107.66
368.30	138.09
368.49	126.39
368.69	60.85
368.89	194.26
369.09	173.20
369.28	189.58
369.48	147.45
369.68	210.65
369.87	215.33
370.07	215.33
370.27	210.65
370.47	248.10
370.66	573.43
370.86	638.97
371.06	667.05
371.25	704.50
371.45	660.03
371.65	547.69
371.84	650.67
372.04	723.23
372.24	657.69
372.44	657.69
372.63	723.23
372.83	767.70
373.03	777.06
373.22	671.73
373.42	720.88
373.62	781.74
373.81	823.87
374.01	837.91
374.21	830.89
374.40	753.65
374.60	807.48
374.79	816.85
374.99	835.57
375.19	798.12
375.38	877.70
375.58	816.85
375.78	833.23
375.97	828.55
376.17	873.02
376.37	833.23
376.56	929.19
376.76	898.77
376.95	851.96
377.15	826.21
377.35	866.00
377.54	931.53
377.74	947.92
377.93	933.87
378.13	929.19
378.33	917.49
378.52	858.98
378.72	957.28
378.91	971.32
379.11	999.41
379.31	877.70
379.50	943.24
379.70	919.83
379.89	978.34
380.09	1004.09
380.28	976.00
380.48	997.07
380.68	961.96
380.87	954.94
381.07	990.05
381.26	1053.24
381.46	954.94
381.65	1074.31
381.85	1111.75
382.04	1062.60
382.24	1034.52
382.43	1020.47
382.63	1006.43
382.83	1048.56
383.02	1135.16
383.22	1186.65
383.41	1144.52
383.61	1170.27
383.80	1062.60
384.00	1130.48
384.19	1181.97
384.39	1172.61
384.58	1142.18
384.78	1125.80
384.97	1121.12
385.17	1153.88
385.36	1165.59
385.56	1142.18
385.75	1167.93
385.95	1156.22
386.14	1128.14
386.34	1165.59
386.53	1123.46
386.72	1252.19
386.92	1275.59
387.11	1238.14
387.31	1163.25
387.50	1352.83
387.70	1242.82
387.89	1261.55
388.09	1299.00
388.28	1320.06
388.48	1252.19
388.67	1301.34
388.86	1385.60
389.06	1329.42
389.25	1329.42
389.45	1378.58
389.64	1289.64
389.84	1392.62
390.03	1458.15
390.22	1502.62
390.42	1385.60
390.61	1352.83
390.81	1301.34
391.00	1540.07
391.19	1404.32
391.39	1490.92
391.58	1397.30
391.78	1406.66
391.97	1535.39
392.16	1453.47
392.36	1528.37
392.55	1465.18
392.75	1519.01
392.94	1572.84
393.13	1535.39
393.33	1603.27
393.52	1551.78
393.71	1591.56
393.91	1636.03
394.10	1612.63
394.29	1680.50
394.49	1734.34
394.68	1671.14
394.88	1547.09
395.07	1659.44
395.26	1659.44
395.46	1605.61
395.65	1666.46
395.84	1736.68
396.04	1825.62
396.23	1753.06
396.42	1834.98
396.62	1769.44
396.81	1762.42
397.00	1694.55
397.19	1788.17
397.39	1914.56
397.58	1746.04
397.77	1872.43
397.97	1834.98
398.16	1874.77
398.35	1959.03
398.55	1970.73
398.74	1858.39
398.93	1998.82
399.12	1940.30
399.32	1851.36
399.51	2001.16
399.70	1921.58
399.90	1928.60
400.09	2040.95
400.28	1996.48
400.47	2097.12
400.67	2106.48
400.86	1998.82
401.05	2141.59
401.24	2127.55
401.44	2141.59
401.63	2118.18
401.82	2120.53
402.01	2200.10
402.21	2129.89
402.40	2186.06
402.59	2153.29
402.78	2312.45
402.97	2179.04
403.17	2338.20
403.36	2300.75
403.55	2267.98
403.74	2361.60
403.93	2333.51
404.13	2363.94
404.32	2319.47
404.51	2251.60
404.70	2422.45
404.89	2436.50
405.09	2438.84
405.28	2480.97
405.47	2473.95
405.66	2431.82
405.85	2504.37
406.05	2569.91
406.24	2576.93
406.43	2607.36
406.62	2640.12
406.81	2710.34
407.00	2576.93
407.20	2546.50
407.39	2675.23
407.58	2736.09
407.77	2731.41
407.96	2682.25
408.15	2722.04
408.34	2759.49
408.54	2843.75
408.73	2878.86
408.92	2906.95
409.11	2986.52
409.30	2771.19
409.49	2916.31
409.68	2923.33
409.87	2906.95
410.07	2946.73
410.26	3033.33
410.45	2986.52
410.64	2960.78
410.83	3075.46
411.02	3063.76
411.21	3232.28
411.40	3112.91
411.59	3169.09
411.78	3220.58
411.98	3082.49
412.17	3314.20
412.36	3236.96
412.55	3342.28
412.74	3405.48
412.93	3337.60
413.12	3346.97
413.31	3480.38
413.50	3531.87
413.69	3435.91
413.88	3541.23
414.07	3595.06
414.26	3686.34
414.45	3585.70
414.64	3620.81
414.83	3864.22
415.02	3679.32
415.22	3836.14
415.41	3878.27
415.60	3840.82
415.79	3857.20
415.98	3866.56
416.17	4060.83
416.36	4049.13
416.55	3976.57
416.74	4124.02
416.93	4035.08
417.12	4109.98
417.31	4105.30
417.50	4184.88
417.69	4262.12
417.88	4301.90
418.07	4283.18
418.26	4301.90
418.45	4229.35
418.64	4610.86
418.83	4348.72
419.02	4437.66
419.21	4596.81
419.39	4493.83
419.58	4510.21
419.77	4407.23
419.96	4561.70
420.15	4730.22
420.34	4538.30
420.53	4648.30
420.72	4777.03
420.91	4650.64
421.10	4692.77
421.29	4830.87
421.48	4788.74
421.67	4816.82
421.86	4695.11
422.05	4999.38
422.24	4741.93
422.43	4856.61
422.61	4936.19
422.80	4999.38
422.99	4924.49
423.18	4812.14
423.37	5088.32
423.56	5050.88
423.75	4945.55
423.94	4910.44
424.13	4601.49
424.32	4781.71
424.50	4924.49
424.69	5095.35
424.88	5032.15
425.07	4952.57
425.26	4915.12
425.45	5001.72
425.64	4882.36
425.83	4975.98
426.01	5036.83
426.20	5235.78
426.39	5130.45
426.58	5093.01
426.77	5174.92
426.96	5074.28
427.15	5144.50
427.33	5198.33
427.52	5114.07
427.71	5296.63
427.90	5184.29
428.09	5322.38
428.28	5320.04
428.46	5362.17
428.65	5313.02
428.84	5451.11
429.03	5661.76
429.22	5261.52
429.40	5507.28
429.59	5584.52
429.78	5355.15
429.97	5385.57
430.16	5455.79
430.34	5687.50
430.53	5549.41
430.72	5785.80
430.91	5488.56
431.10	5729.63
431.28	5834.96
431.47	5809.21
431.66	5902.83
431.85	5818.57
432.03	5750.70
432.22	5921.56
432.41	5968.37
432.60	5867.72
432.79	5841.98
432.97	5998.79
433.16	6150.93
433.35	5947.30
433.54	6078.37
433.72	6218.80
433.91	6132.20
434.10	6097.10
434.28	6291.36
434.47	6202.42
434.66	6246.89
434.85	6303.06
435.03	6335.83
435.22	6228.17
435.41	6469.24
435.59	6415.41
435.78	6265.61
435.97	6422.43
436.16	6359.24
436.34	6504.35
436.53	6464.56
436.72	6628.40
436.90	6431.79
437.09	6537.12
437.28	6314.77
437.46	6555.84
437.65	6630.74
437.84	6583.93
438.02	6675.21
438.21	6785.21
438.40	6829.68
438.58	6958.41
438.77	7126.93
438.96	6998.20
439.14	7323.54
439.33	7117.57
439.52	7346.94
439.70	7283.75
439.89	7281.41
440.08	7288.43
440.26	7470.99
440.45	7279.07
440.63	7592.70
440.82	7681.64
441.01	7655.89
441.19	7543.55
441.38	7630.15
441.57	7693.34
441.75	7793.98
441.94	7985.91
442.12	8093.57
442.31	8121.66
442.50	7981.23
442.68	7840.79
442.87	8131.02
443.05	8140.38
443.24	8351.03
443.43	8109.96
443.61	8243.37
443.80	8519.55
443.98	8095.91
444.17	7749.51
444.35	8332.31
444.54	8425.93
444.73	8379.12
444.91	8315.92
445.10	8446.99
445.28	8423.59
445.47	8547.64
445.65	8290.18
445.84	8442.31
446.02	8669.34
446.21	8505.51
446.39	8496.14
446.58	8568.70
446.77	8353.37
446.95	8273.79
447.14	8414.23
447.32	8620.19
447.51	8610.83
447.69	8528.91
447.88	8681.05
448.06	8421.25
448.25	8566.36
448.43	8362.73
448.62	8641.26
448.80	8564.02
448.99	8802.75
449.17	8894.04
449.36	8514.87
449.54	8781.69
449.73	8905.74
449.91	9011.06
450.10	8950.21
450.28	9015.74
450.46	9224.05
450.65	8884.67
450.83	9006.38
451.02	9153.84
451.20	9069.58
451.39	9142.13
451.57	9191.28
451.76	9118.73
451.94	9235.75
452.13	9298.95
452.31	9226.39
452.49	9296.61
452.68	9446.40
452.86	9437.04
453.05	9605.56
453.23	9528.32
453.42	9334.06
453.60	9235.75
453.78	9441.72
453.97	9537.68
454.15	9481.51
454.34	9500.23
454.52	9776.42
454.70	9652.37
454.89	9797.48
455.07	9870.04
455.26	9792.80
455.44	10024.51
455.62	9930.89
455.81	9921.53
455.99	9874.72
456.17	10031.54
456.36	9966.00
456.54	10211.76
456.73	10200.05
456.91	10703.27
457.09	10567.52
457.28	10401.34
457.46	10319.42
457.64	10607.31
457.83	10396.66
458.01	10359.21
458.19	10927.96
458.38	10637.73
458.56	10588.58
458.74	10731.36
458.93	10839.02
459.11	10703.27
459.29	10815.62
459.48	10853.06
459.66	10890.51
459.84	10892.85
460.03	11033.29
460.21	10927.96
460.39	10991.16
460.57	11047.33
460.76	11037.97
460.94	11094.14
461.12	11293.08
461.31	11056.69
461.49	11232.23
461.67	11297.77
461.85	11463.94
462.04	11283.72
462.22	11426.50
462.40	11618.42
462.59	11473.31
462.77	11447.56
462.95	11651.19
463.13	11618.42
463.32	11693.32
463.50	11651.19
463.68	11932.05
463.86	11859.49
464.05	11871.20
464.23	11733.11
464.41	12046.74
464.59	11974.18
464.78	11985.88
464.96	12072.48
465.14	11693.32
465.32	12081.85
465.50	12049.08
465.69	12393.14
465.87	12189.51
466.05	12138.02
466.23	12149.72
466.41	12252.70
466.60	12479.74
466.78	12198.87
466.96	12266.75
467.14	12423.56
467.32	12329.94
467.51	12482.08
467.69	12107.59
467.87	12341.64
468.05	12685.70
468.23	12285.47
468.41	12664.64
468.60	12643.57
468.78	12692.73
468.96	12669.32
469.14	12999.34
469.32	13177.22
469.50	12800.39
469.69	12908.05
469.87	12943.16
470.05	13116.36
470.23	13163.17
470.41	13167.85
470.59	13289.56
470.77	13179.56
470.95	13294.24
471.14	13610.22
471.32	13004.02
471.50	13809.16
471.68	13563.40
471.86	13657.03
472.04	13593.83
472.22	14106.41
472.40	13923.85
472.58	13891.08
472.77	14120.45
472.95	14230.46
473.13	14710.27
473.31	14045.55
473.49	14291.31
473.67	13994.06
473.85	14326.42
474.03	14560.47
474.21	14459.83
474.39	14787.50
474.57	14633.03
474.75	14895.17
474.93	14857.72
475.12	14956.02
475.30	15005.17
475.48	15129.22
475.66	15482.64
475.84	15316.47
476.02	15482.64
476.20	15618.39
476.38	15686.27
476.56	16102.89
476.74	16039.69
476.92	16032.67
477.10	15721.38
477.28	16095.86
477.46	16358.00
477.64	16332.26
477.82	16706.74
478.00	16744.19
478.18	17233.36
478.36	17174.85
478.54	16996.97
478.72	17296.56
478.90	17296.56
479.08	17759.98
479.26	17701.47
479.44	17750.62
479.62	17792.75
479.80	18143.83
479.98	18291.29
480.16	18513.64
480.34	18019.78
480.52	18593.22
480.70	18628.32
480.88	18494.91
481.06	18719.60
481.24	18754.71
481.41	19082.39
481.59	19349.21
481.77	19590.28
481.95	19637.09
482.13	19770.51
482.31	19880.51
482.49	20245.63
482.67	20180.10
482.85	20517.14
483.03	20877.58
483.21	20748.85
483.39	21090.57
483.57	21092.91
483.74	20987.58
483.92	21502.50
484.10	21364.41
484.28	21898.05
484.46	21991.67
484.64	22176.58
484.82	22122.74
485.00	22452.76
485.18	22712.56
485.35	22946.61
485.53	22773.41
485.71	23241.52
485.89	23503.66
486.07	23498.98
486.25	23573.88
486.43	23606.64
486.61	24254.97
486.78	23962.40
486.96	24592.01
487.14	24650.52
487.32	24617.75
487.50	25008.62
487.68	24933.73
487.85	25135.01
488.03	25415.88
488.21	25933.14
488.39	25631.21
488.57	26101.65
488.75	26366.13
488.92	26785.09
489.10	26618.91
489.28	26789.77
489.46	27475.55
489.64	27314.05
489.81	27868.76
489.99	27723.65
490.17	27777.48
490.35	28425.81
490.53	28336.87
490.70	28552.20
490.88	28547.51
491.06	28800.29
491.24	29027.32
491.41	29083.50
491.59	29134.99
491.77	29291.80
491.95	29738.85
492.13	29785.66
492.30	30061.84
492.48	30071.20
492.66	30305.26
492.84	30316.96
493.01	30747.62
493.19	30752.30
493.37	30600.16
493.54	31276.58
493.72	31854.69
493.90	31725.96
494.08	32149.60
494.25	32020.87
494.43	32105.13
494.61	32713.67
494.79	32924.32
494.96	32891.55
495.14	32739.41
495.32	33254.33
495.49	33163.05
495.67	33369.02
495.85	33715.42
496.02	33734.14
496.20	34162.46
496.38	34080.54
496.55	34141.39
496.73	35021.44
496.91	34646.95
497.09	34899.73
497.26	35215.70
497.44	34803.77
497.62	35211.02
497.79	35784.45
497.97	35538.69
498.14	35714.23
498.32	36488.95
498.50	36273.62
498.67	36671.51
498.85	36488.95
499.03	36620.02
499.20	36975.78
499.38	36718.32
499.56	36985.15
499.73	36914.93
499.91	37469.64
500.08	37706.03
500.26	37022.59
500.44	37504.74
500.61	37881.57
500.79	37769.22
500.97	38277.12
501.14	38646.93
501.32	38667.99
501.49	38438.62
501.67	38572.03
501.84	39145.46
502.02	38459.68
502.20	39138.44
502.37	39636.97
502.55	39655.70
502.72	39517.60
502.90	39442.71
503.07	39812.51
503.25	40217.43
503.43	39718.89
503.60	40388.28
503.78	40610.64
503.95	40617.66
504.13	40484.25
504.30	40657.45
504.48	40849.37
504.65	41268.33
504.83	41336.20
505.01	41291.73
505.18	41125.55
505.36	41670.90
505.53	41429.82
505.71	41773.88
505.88	42014.96
506.06	41717.71
506.23	42089.85
506.41	42146.03
506.58	42249.01
506.76	42946.49
506.93	42623.50
507.11	42567.32
507.28	42639.88
507.46	43021.39
507.63	43173.52
507.81	43260.12
507.98	43269.48
508.16	43592.48
508.33	43442.68
508.50	43868.66
508.68	43763.34
508.85	44168.25
509.03	43831.21
509.20	44074.63
509.38	44538.05
509.55	44495.92
509.73	44421.03
509.90	44685.51
510.08	44500.61
510.25	45062.33
510.42	44905.52
510.60	45097.44
510.77	44975.73
510.95	45617.04
511.12	45027.23
511.30	45338.52
511.47	45991.53
511.64	45998.55
511.82	46003.23
511.99	45607.68
512.17	45621.72
512.34	46314.52
512.51	46710.07
512.69	46623.47
512.86	46483.04
513.04	47107.96
513.21	46637.51
513.38	46761.56
513.56	46873.91
513.73	46728.80
513.90	47196.90
514.08	46733.48
514.25	47157.11
514.43	47683.73
514.60	47356.06
514.77	47173.50
514.95	47545.64
515.12	47501.17
515.29	47672.03
515.47	48453.77
515.64	48346.11
515.81	47814.80
515.99	48540.37
516.16	48865.70
516.33	48287.59
516.51	48893.79
516.68	48573.14
516.85	48809.53
517.03	48884.43
517.20	49184.02
517.37	48919.54
517.54	48825.92
517.72	48996.77
517.89	48989.75
518.06	49195.72
518.24	49319.77
518.41	49179.34
518.58	49518.71
518.75	49584.25
518.93	49441.48
519.10	49347.86
519.27	49654.47
519.45	49904.90
519.62	50145.98
519.79	50436.20
519.96	50188.11
520.14	50522.80
520.31	49900.22
520.48	50368.33
520.65	50742.81
520.83	50974.53
521.00	50815.37
521.17	50663.24
521.34	50569.61
521.52	50735.79
521.69	51145.39
521.86	51084.53
522.03	51407.53
522.20	51337.31
522.38	51723.50
522.55	51117.30
522.72	51526.89
522.89	51676.69
523.07	51774.99
523.24	51789.03
523.41	51973.94
523.58	51683.71
523.75	51877.97
523.92	51777.33
524.10	52306.29
524.27	51910.74
524.44	52048.83
524.61	52018.41
524.78	52226.71
524.96	52296.93
525.13	52397.57
525.30	52580.13
525.47	52767.38
525.64	52748.65
525.81	52903.13
525.98	52912.49
526.16	52713.55
526.33	52741.63
526.50	53223.78
526.67	52725.25
526.84	53144.20
527.01	52736.95
527.18	52879.72
527.36	53289.32
527.53	53315.06
527.70	53291.66
527.87	53640.40
528.04	53406.34
528.21	53446.13
528.38	53396.98
528.55	53743.38
528.72	53565.50
528.89	53701.25
529.07	53595.93
529.24	53521.03
529.41	53659.12
529.58	53633.38
529.75	53736.36
529.92	53984.46
530.09	53813.60
530.26	54000.84
530.43	53970.41
530.60	53595.93
530.77	53954.03
530.94	54117.87
531.11	54211.49
531.28	54045.31
531.46	54410.43
531.63	54216.17
531.80	54319.15
531.97	54316.81
532.14	54752.15
532.31	54714.70
532.48	54880.88
532.65	54644.49
532.82	54539.16
532.99	54644.49
533.16	54518.10
533.33	54770.88
533.50	54911.31
533.67	54735.77
533.84	54841.09
534.01	54890.24
534.18	54946.42
534.35	55201.53
534.52	55084.51
534.69	55180.47
534.86	55348.99
535.03	55346.65
535.20	55121.96
535.37	55372.39
535.54	55641.56
535.71	55388.78
535.88	55482.40
536.05	55723.47
536.22	55702.41
536.38	55597.09
536.55	55683.69
536.72	55388.78
536.89	55538.57
537.06	55856.88
537.23	56119.02
537.40	55625.17
537.57	55842.84
537.74	55964.55
537.91	55927.10
538.08	56381.16
538.25	56006.68
538.42	55987.95
538.59	56292.22
538.75	56151.79
538.92	56254.78
539.09	56301.59
539.26	56217.33
539.43	56350.74
539.60	56327.33
539.77	56193.92
539.94	56474.79
540.11	56238.39
540.28	56397.55
540.44	56509.89
540.61	56500.53
540.78	56528.62
540.95	56540.32
541.12	56535.64
541.29	56638.62
541.46	56839.91
541.62	56683.09
541.79	56800.12
541.96	56442.02
542.13	56563.73
542.30	56699.48
542.47	57120.77
542.63	56968.64
542.80	56863.32
542.97	57235.46
543.14	57317.38
543.31	57116.09
543.48	57340.78
543.64	57474.20
543.81	57301.00
543.98	57406.32
544.15	57518.67
544.32	57389.94
544.48	57715.27
544.65	57462.49
544.82	57546.75
544.99	57312.70
545.16	57757.40
545.32	57434.41
545.49	57558.45
545.66	57745.70
545.83	57745.70
546.00	57794.85
546.16	57719.95
546.33	57792.51
546.50	57471.85
546.67	57818.25
546.83	57649.74
547.00	57822.93
547.17	57975.07
547.34	57949.32
547.50	58150.61
547.67	58103.80
547.84	57984.43
548.00	58085.07
548.17	58080.39
548.34	58389.34
548.51	58389.34
548.67	58277.00
548.84	58164.65
549.01	58216.14
549.18	58183.38
549.34	58281.68
549.51	58363.60
549.68	58560.20
549.84	58286.36
550.01	58574.25
550.18	58464.24
550.34	58438.50
550.51	58536.80
550.68	58384.66
550.84	58241.89
551.01	58719.36
551.18	58506.37
551.34	58597.65
551.51	58679.57
551.68	58639.78
551.84	58539.14
552.01	58520.41
552.18	58702.98
552.34	58670.21
552.51	58939.37
552.68	58571.91
552.84	58777.87
553.01	59152.36
553.18	58880.86
553.34	58890.22
553.51	58733.40
553.67	58951.07
553.84	58976.82
554.01	59150.02
554.17	58941.71
554.34	58972.14
554.51	58939.37
554.67	59292.79
554.84	59079.80
555.00	59166.40
555.17	59000.22
555.33	59161.72
555.50	59063.42
555.67	59121.93
555.83	59229.60
556.00	59199.17
556.16	59487.06
556.33	59377.05
556.50	59325.56
556.66	59456.63
556.83	59283.43
556.99	59725.79
557.16	59454.29
557.32	59515.14
557.49	59674.30
557.65	59346.62
557.82	59451.95
557.98	59426.20
558.15	59522.16
558.32	59363.01
558.48	59484.72
558.65	59405.14
558.81	59449.61
558.98	59536.21
559.14	59512.80
559.31	59866.22
559.47	59629.83
559.64	59877.93
559.80	59756.22
559.97	59732.81
560.13	59512.80
560.30	59739.83
560.46	59573.66
560.63	59887.29
560.79	59887.29
560.96	59831.11
561.12	60086.23
561.29	59788.98
561.45	59917.71
561.61	59756.22
561.78	60025.38
561.94	59887.29
562.11	59875.58
562.27	59852.18
562.44	60053.47
562.60	60004.31
562.77	60088.57
562.93	59737.49
563.10	60107.30
563.26	60088.57
563.42	60313.26
563.59	60081.55
563.75	60301.56
563.92	60128.36
564.08	59955.16
564.24	60207.94
564.41	60339.01
564.57	60058.15
564.74	60495.83
564.90	60240.71
565.07	60104.96
565.23	60109.64
565.39	60193.90
565.56	60303.90
565.72	60250.07
565.88	60374.12
566.05	60109.64
566.21	60388.16
566.38	60205.60
566.54	60203.26
566.70	60331.99
566.87	60449.02
567.03	60252.41
567.19	60650.30
567.36	60299.22
567.52	60409.23
567.68	60664.35
567.85	60374.12
568.01	60404.55
568.17	60278.16
568.34	60381.14
568.50	60439.65
568.66	60456.04
568.83	60687.75
568.99	60327.31
569.15	60425.61
569.32	60418.59
569.48	60617.53
569.64	60556.68
569.81	60537.96
569.97	60427.95
570.13	60449.02
570.30	60451.36
570.46	60654.98
570.62	60360.08
570.78	60683.07
570.95	60584.77
571.11	60790.73
571.27	60584.77
571.43	60479.44
571.60	60764.99
571.76	60587.11
571.92	60624.56
572.09	60699.45
572.25	60582.43
572.41	60692.43
572.57	60561.36
572.74	60816.48
572.90	60645.62
573.06	60701.79
573.22	60662.00
573.38	60734.56
573.55	60734.56
573.71	60912.44
573.87	60779.03
574.03	60715.84
574.20	60872.65
574.36	60793.07
574.52	60802.44
574.68	60774.35
574.84	60807.12
575.01	60926.49
575.17	60753.29
575.33	60828.18
575.49	60736.90
575.65	60863.29
575.82	60746.26
575.98	60800.10
576.14	60870.31
576.30	60839.89
576.46	60952.23
576.62	60788.39
576.79	60832.86
576.95	60603.49
577.11	60879.67
577.27	60874.99
577.43	60928.83
577.59	60874.99
577.75	60973.30
577.92	60692.43
578.08	60811.80
578.24	60748.60
578.40	61031.81
578.56	61237.78
578.72	60743.92
578.88	61212.03
579.04	61095.00
579.21	60989.68
579.37	61041.17
579.53	61013.08
579.69	60638.60
579.85	60823.50
580.01	60884.36
580.17	60860.95
580.33	60849.25
580.49	61017.77
580.65	61017.77
580.82	60982.66
580.98	60772.01
581.14	60926.49
581.30	61127.77
581.46	61043.51
581.62	61057.56
581.78	60933.51
581.94	60961.59
582.10	60952.23
582.26	61038.83
582.42	60956.91
582.58	60865.63
582.74	61043.51
582.90	60919.46
583.06	60954.57
583.22	60844.57
583.38	61059.90
583.54	60980.32
583.70	61095.00
583.86	60996.70
584.02	60769.67
584.18	61095.00
584.34	60959.25
584.50	60954.57
584.66	60903.08
584.82	60797.76
584.98	61085.64
585.14	61209.69
585.30	60870.31
585.46	61102.03
585.62	60945.21
585.78	61247.14
585.94	60818.82
586.10	61020.11
586.26	61160.54
586.42	60889.04
586.58	61045.85
586.74	61130.11
586.90	61125.43
587.06	61059.90
587.22	61099.68
587.38	61193.31
587.54	61090.32
587.70	61434.38
587.86	61228.41
588.02	61006.06
588.18	61247.14
588.34	61139.47
588.49	61162.88
