SpectraSuite Data File
++++++++++++++++++++++++++++++++++++
Date: Fri Oct 25 10:48:15 EDT 2013
User: price-jones
Dark Spectrum Present: No
Reference Spectrum Present: No
Number of Sampled Component Spectra: 1
Spectrometers: USB2+H05261
Integration Time (usec): 100000 (USB2+H05261)
Spectra Averaged: 1 (USB2+H05261)
Boxcar Smoothing: 0 (USB2+H05261)
Correct for Electrical Dark: No (USB2+H05261)
Strobe/Lamp Enabled: No (USB2+H05261)
Correct for Detector Non-linearity: No (USB2+H05261)
Correct for Stray Light: No (USB2+H05261)
Number of Pixels in Processed Spectrum: 2048
>>>>>Begin Processed Spectral Data<<<<<
365.73	161.50
365.92	161.50
366.12	161.50
366.32	135.75
366.52	46.81
366.72	86.60
366.91	84.26
367.11	21.06
367.31	18.72
367.51	53.83
367.70	95.96
367.90	32.77
368.10	42.13
368.30	18.72
368.49	70.22
368.69	37.45
368.89	100.64
369.09	114.69
369.28	67.88
369.48	18.72
369.68	138.09
369.87	84.26
370.07	126.39
370.27	131.07
370.47	110.01
370.66	416.62
370.86	409.59
371.06	521.94
371.25	493.85
371.45	447.04
371.65	449.38
371.84	416.62
372.04	397.89
372.24	425.98
372.44	442.36
372.63	482.15
372.83	526.62
373.03	573.43
373.22	477.47
373.42	603.86
373.62	486.83
373.81	578.11
374.01	566.41
374.21	540.66
374.40	538.32
374.60	498.53
374.79	559.39
374.99	571.09
375.19	592.16
375.38	657.69
375.58	559.39
375.78	624.92
375.97	631.94
376.17	594.50
376.37	587.47
376.56	634.29
376.76	578.11
376.95	638.97
377.15	601.52
377.35	650.67
377.54	662.37
377.74	545.34
377.93	692.80
378.13	692.80
378.33	734.93
378.52	587.47
378.72	702.16
378.91	727.91
379.11	720.88
379.31	657.69
379.50	596.84
379.70	751.31
379.89	681.10
380.09	648.33
380.28	634.29
380.48	681.10
380.68	692.80
380.87	580.45
381.07	676.41
381.26	746.63
381.46	688.12
381.65	631.94
381.85	655.35
382.04	727.91
382.24	727.91
382.43	615.56
382.63	629.60
382.83	793.44
383.02	751.31
383.22	807.48
383.41	746.63
383.61	758.33
383.80	755.99
384.00	720.88
384.19	706.84
384.39	800.46
384.58	837.91
384.78	823.87
384.97	807.48
385.17	683.44
385.36	781.74
385.56	662.37
385.75	851.96
385.95	763.01
386.14	819.19
386.34	802.80
386.53	760.67
386.72	863.66
386.92	943.24
387.11	802.80
387.31	844.93
387.50	828.55
387.70	887.06
387.89	903.45
388.09	800.46
388.28	877.70
388.48	840.25
388.67	915.15
388.86	940.90
389.06	840.25
389.25	849.61
389.45	954.94
389.64	858.98
389.84	924.51
390.03	896.43
390.22	1001.75
390.42	964.30
390.61	1013.45
390.81	978.34
391.00	917.49
391.19	1057.92
391.39	1076.65
391.58	1022.81
391.78	985.37
391.97	1048.56
392.16	945.58
392.36	1083.67
392.55	1011.11
392.75	952.60
392.94	1027.50
393.13	912.81
393.33	1001.75
393.52	987.71
393.71	1020.47
393.91	1114.10
394.10	1025.15
394.29	1039.20
394.49	1100.05
394.68	1137.50
394.88	1071.97
395.07	1231.12
395.26	1137.50
395.46	1142.18
395.65	1212.40
395.84	1069.62
396.04	1299.00
396.23	1172.61
396.42	1142.18
396.62	1121.12
396.81	1165.59
397.00	1100.05
397.19	1296.66
397.39	1151.54
397.58	1263.89
397.77	1235.80
397.97	1387.94
398.16	1401.98
398.35	1432.41
398.55	1327.08
398.74	1352.83
398.93	1483.90
399.12	1343.47
399.32	1378.58
399.51	1383.26
399.70	1406.66
399.90	1537.73
400.09	1453.47
400.28	1523.69
400.47	1448.79
400.67	1558.80
400.86	1458.15
401.05	1563.48
401.24	1584.54
401.44	1495.60
401.63	1598.59
401.82	1659.44
402.01	1603.27
402.21	1533.05
402.40	1551.78
402.59	1652.42
402.78	1631.35
402.97	1579.86
403.17	1792.85
403.36	1638.38
403.55	1706.25
403.74	1668.80
403.93	1741.36
404.13	1699.23
404.32	1682.85
404.51	1685.19
404.70	1863.07
404.89	1844.34
405.09	1757.74
405.28	1834.98
405.47	1825.62
405.66	1884.13
405.85	1832.64
406.05	1813.92
406.24	1844.34
406.43	1947.33
406.62	1860.73
406.81	1935.62
407.00	1926.26
407.20	1907.54
407.39	1930.94
407.58	2106.48
407.77	1975.41
407.96	2073.71
408.15	2078.40
408.34	2118.18
408.54	2047.97
408.73	2113.50
408.92	2052.65
409.11	2108.82
409.30	2143.93
409.49	2239.89
409.68	2141.59
409.87	2174.36
410.07	2223.51
410.26	2106.48
410.45	2160.31
410.64	2230.53
410.83	2265.64
411.02	2504.37
411.21	2429.48
411.40	2317.13
411.59	2513.74
411.78	2415.43
411.98	2366.28
412.17	2434.16
412.36	2476.29
412.55	2497.35
412.74	2553.52
412.93	2597.99
413.12	2490.33
413.31	2682.25
413.50	2642.46
413.69	2565.23
413.88	2764.17
414.07	2696.30
414.26	2733.75
414.45	2733.75
414.64	2766.51
414.83	2799.28
415.02	2864.82
415.22	2867.16
415.41	2930.35
415.60	2904.60
415.79	2822.69
415.98	2979.50
416.17	3007.59
416.36	2874.18
416.55	3016.95
416.74	2937.37
416.93	3103.55
417.12	3152.70
417.31	3145.68
417.50	3075.46
417.69	3138.66
417.88	3103.55
418.07	3262.71
418.26	3253.34
418.45	3129.30
418.64	3337.60
418.83	3368.03
419.02	3211.22
419.21	3358.67
419.39	3211.22
419.58	3220.58
419.77	3309.52
419.96	3311.86
420.15	3421.86
420.34	3485.06
420.53	3407.82
420.72	3536.55
420.91	3543.57
421.10	3576.34
421.29	3541.23
421.48	3534.21
421.67	3679.32
421.86	3480.38
422.05	3534.21
422.24	3564.64
422.43	3541.23
422.61	3665.28
422.80	3609.11
422.99	3644.21
423.18	3641.87
423.37	3616.13
423.56	3747.20
423.75	3618.47
423.94	3496.76
424.13	3485.06
424.32	3419.52
424.50	3688.68
424.69	3934.44
424.88	3737.84
425.07	3702.73
425.26	3583.36
425.45	3651.24
425.64	3756.56
425.83	3854.86
426.01	3784.65
426.20	3686.34
426.39	3669.96
426.58	3655.92
426.77	3688.68
426.96	3768.26
427.15	3747.20
427.33	3681.66
427.52	3875.93
427.71	3719.11
427.90	3887.63
428.09	3889.97
428.28	3913.38
428.46	3892.31
428.65	3812.73
428.84	4067.85
429.03	4035.08
429.22	3885.29
429.40	3985.93
429.59	3817.41
429.78	3810.39
429.97	3698.05
430.16	3911.04
430.34	4007.00
430.53	4025.72
430.72	4081.89
430.91	4205.94
431.10	4093.60
431.28	4217.65
431.47	4409.57
431.66	4276.16
431.85	4231.69
432.03	4447.02
432.22	4442.34
432.41	4315.95
432.60	4477.44
432.79	4285.52
432.97	4620.22
433.16	4400.21
433.35	4409.57
433.54	4620.22
433.72	4409.57
433.91	4550.00
434.10	4554.68
434.28	4407.23
434.47	4568.73
434.66	4676.39
434.85	4571.07
435.03	4671.71
435.22	4606.17
435.41	4847.25
435.59	4688.09
435.78	4772.35
435.97	4891.72
436.16	4861.29
436.34	4751.29
436.53	4840.23
436.72	4837.89
436.90	4868.31
437.09	4908.10
437.28	4870.65
437.46	4915.12
437.65	4929.17
437.84	4809.80
438.02	4880.02
438.21	5006.41
438.40	4889.38
438.58	4936.19
438.77	5193.65
438.96	5039.17
439.14	5331.74
439.33	5313.02
439.52	5195.99
439.70	5181.95
439.89	5121.09
440.08	5343.44
440.26	5453.45
440.45	5287.27
440.63	5427.70
440.82	5441.75
441.01	5591.54
441.19	5474.51
441.38	5563.45
441.57	5680.48
441.75	5881.77
441.94	5771.76
442.12	5837.30
442.31	5944.96
442.50	5970.71
442.68	5750.70
442.87	5886.45
443.05	5832.62
443.24	5959.00
443.43	6083.05
443.61	6200.08
443.80	6171.99
443.98	6003.47
444.17	5837.30
444.35	6099.44
444.54	6235.19
444.73	6083.05
444.91	6146.25
445.10	6155.61
445.28	6010.50
445.47	5893.47
445.65	5987.09
445.84	6097.10
446.02	6087.73
446.21	6148.59
446.39	6047.94
446.58	6223.48
446.77	6207.10
446.95	6139.23
447.14	6282.00
447.32	6235.19
447.51	6104.12
447.69	6104.12
447.88	6272.64
448.06	6256.25
448.25	6113.48
448.43	6363.92
448.62	6125.18
448.80	6380.30
448.99	6272.64
449.17	6279.66
449.36	6235.19
449.54	6555.84
449.73	6700.95
449.91	6682.23
450.10	6530.09
450.28	6654.14
450.46	6684.57
450.65	6743.08
450.83	6766.49
451.02	6743.08
451.20	6789.89
451.39	6626.06
451.57	6754.79
451.76	6541.80
451.94	6906.92
452.13	6810.96
452.31	6722.02
452.49	6551.16
452.68	6628.40
452.86	6787.55
453.05	6766.49
453.23	6778.19
453.42	6778.19
453.60	6817.98
453.78	6972.46
453.97	6759.47
454.15	6949.05
454.34	6881.18
454.52	7129.27
454.70	7075.44
454.89	6986.50
455.07	7140.97
455.26	7012.24
455.44	7265.02
455.62	7068.42
455.81	7133.95
455.99	7309.49
456.17	7283.75
456.36	7190.13
456.54	7461.63
456.73	7358.64
456.91	7536.52
457.09	7882.92
457.28	7744.83
457.46	7337.58
457.64	7683.98
457.83	7674.62
458.01	7506.10
458.19	7777.60
458.38	7698.02
458.56	7843.14
458.74	7571.63
458.93	7698.02
459.11	7634.83
459.29	7747.17
459.48	7838.45
459.66	7772.92
459.84	7843.14
460.03	7967.18
460.21	8058.46
460.39	8077.19
460.57	7868.88
460.76	7950.80
460.94	8011.65
461.12	7983.57
461.31	8065.49
461.49	8077.19
461.67	8201.24
461.85	8332.31
462.04	8067.83
462.22	8760.63
462.40	8245.71
462.59	8262.09
462.77	8308.90
462.95	8278.47
463.13	8475.08
463.32	8465.72
463.50	8465.72
463.68	8322.94
463.86	8180.17
464.05	8400.18
464.23	8404.86
464.41	8498.49
464.59	8226.98
464.78	8650.62
464.96	8594.45
465.14	8341.67
465.32	8769.99
465.50	8688.07
465.69	8659.98
465.87	8744.24
466.05	8599.13
466.23	8575.72
466.41	8898.72
466.60	8950.21
466.78	8695.09
466.96	8748.92
467.14	8681.05
467.32	8573.38
467.51	8980.64
467.69	8676.37
467.87	8781.69
468.05	9083.62
468.23	8823.82
468.41	8699.77
468.60	8819.14
468.78	8924.46
468.96	9163.20
469.14	9130.43
469.32	9123.41
469.50	9114.05
469.69	9146.81
469.87	9233.41
470.05	9362.14
470.23	9259.16
470.41	9074.26
470.59	9263.84
470.77	9401.93
470.95	9425.34
471.14	9476.83
471.32	9345.76
471.50	9745.99
471.68	9554.07
471.86	9533.00
472.04	9736.63
472.22	9914.51
472.40	9418.32
472.58	9846.63
472.77	9926.21
472.95	9884.08
473.13	10506.66
473.31	9905.15
473.49	9888.76
473.67	9923.87
473.85	9987.07
474.03	10370.91
474.21	10106.43
474.39	10473.90
474.57	10356.87
474.75	10359.21
474.93	10649.44
475.12	10565.18
475.30	10628.37
475.48	10504.32
475.66	10906.90
475.84	10597.95
476.02	10808.59
476.20	10672.84
476.38	10930.30
476.56	11269.68
476.74	11265.00
476.92	11040.31
477.10	11260.32
477.28	11248.61
477.46	11178.40
477.64	11412.45
477.82	11580.97
478.00	11782.26
478.18	11721.40
478.36	11740.13
478.54	11943.75
478.72	11997.59
478.90	12116.95
479.08	12142.70
479.26	12442.29
479.44	12126.32
479.62	12531.23
479.80	12374.41
479.98	12594.42
480.16	12776.98
480.34	12678.68
480.52	12709.11
480.70	13046.15
480.88	12720.81
481.06	12889.33
481.24	13142.11
481.41	13202.96
481.59	13469.78
481.77	13523.62
481.95	13437.02
482.13	13530.64
482.31	13586.81
482.49	13886.40
482.67	14078.32
482.85	14050.24
483.03	14363.87
483.21	14361.53
483.39	14345.14
483.57	14394.29
483.74	14427.06
483.92	14712.61
484.10	14764.10
484.28	15133.90
484.46	15522.43
484.64	15683.93
484.82	15129.22
485.00	15447.54
485.18	15803.30
485.35	15772.87
485.53	15477.96
485.71	15470.94
485.89	15772.87
486.07	15634.78
486.25	15943.73
486.43	16128.63
486.61	16039.69
486.78	16477.37
486.96	16587.38
487.14	16720.79
487.32	17109.32
487.50	17315.28
487.68	17273.15
487.85	17406.56
488.03	17467.42
488.21	17547.00
488.39	17483.80
488.57	17827.86
488.75	17743.60
488.92	18258.52
489.10	18347.46
489.28	18401.29
489.46	18480.87
489.64	18305.33
489.81	18920.89
489.99	18972.38
490.17	19204.10
490.35	19662.84
490.53	19161.97
490.70	19510.71
490.88	19470.92
491.06	20013.92
491.24	19473.26
491.41	19630.07
491.59	19875.83
491.77	20095.84
491.95	20070.09
492.13	20374.36
492.30	20439.90
492.48	20559.27
492.66	20673.95
492.84	20573.31
493.01	21036.74
493.19	20823.75
493.37	21233.34
493.54	21006.31
493.72	21399.52
493.90	21474.42
494.08	21703.79
494.25	22078.27
494.43	21986.99
494.61	21937.84
494.79	21977.63
494.96	22150.83
495.14	22104.02
495.32	22157.85
495.49	22532.34
495.67	22560.42
495.85	23101.09
496.02	22747.67
496.20	23281.31
496.38	23098.75
496.55	23367.91
496.73	23737.71
496.91	23456.85
497.09	23716.65
497.26	23814.95
497.44	23594.94
497.62	24180.07
497.79	24301.78
497.97	23836.02
498.14	24217.52
498.32	24151.99
498.50	24456.26
498.67	24617.75
498.85	24608.39
499.03	24975.86
499.20	25111.61
499.38	25036.71
499.56	25532.90
499.73	25230.98
499.91	25219.27
500.08	25233.32
500.26	25120.97
500.44	25649.93
500.61	25312.89
500.79	25394.81
500.97	25340.98
501.14	25596.10
501.32	26092.29
501.49	26064.21
501.67	26059.52
501.84	25933.14
502.02	26024.42
502.20	26122.72
502.37	26396.56
502.55	26712.53
502.72	26932.54
502.90	26977.01
503.07	26501.89
503.25	26780.41
503.43	26838.92
503.60	27208.73
503.78	27105.74
503.95	27014.46
504.13	27307.03
504.30	27222.77
504.48	26913.82
504.65	27906.21
504.83	27747.05
505.01	27999.83
505.18	27599.60
505.36	28140.26
505.53	28109.83
505.71	28390.70
505.88	28769.86
506.06	28166.01
506.23	28489.00
506.41	28142.60
506.58	28500.70
506.76	28519.43
506.93	28720.71
507.11	28762.84
507.28	28496.02
507.46	28804.97
507.63	28910.30
507.81	29287.12
507.98	28711.35
508.16	29139.67
508.33	29317.55
508.50	29303.51
508.68	29366.70
508.85	29715.44
509.03	29535.22
509.20	29956.52
509.38	30237.38
509.55	29972.90
509.73	30202.27
509.90	30019.71
510.08	30178.87
510.25	30031.41
510.42	30202.27
510.60	30309.94
510.77	30555.69
510.95	30532.29
511.12	30588.46
511.30	30354.41
511.47	30843.58
511.64	30948.90
511.82	31051.89
511.99	30881.03
512.17	31175.94
512.34	31065.93
512.51	31250.83
512.69	31173.60
512.86	31349.14
513.04	31639.36
513.21	31541.06
513.38	31449.78
513.56	31672.13
513.73	31091.68
513.90	31620.64
514.08	31899.16
514.25	31927.25
514.43	31819.58
514.60	32130.87
514.77	31688.51
514.95	32318.12
515.12	32194.07
515.29	32264.28
515.47	32451.53
515.64	32617.71
515.81	32346.20
515.99	32713.67
516.16	32378.97
516.33	32222.16
516.51	32765.16
516.68	32151.94
516.85	32311.10
517.03	32453.87
517.20	32851.76
517.37	32570.90
517.54	32802.61
517.72	33160.71
517.89	32898.57
518.06	32720.69
518.24	32917.29
518.41	33097.52
518.58	33184.12
518.75	33036.66
518.93	33621.80
519.10	33720.10
519.27	33514.13
519.45	33935.43
519.62	33844.15
519.79	34206.93
519.96	34185.86
520.14	34190.55
520.31	33972.88
520.48	34272.46
520.65	34309.91
520.83	34710.14
521.00	34448.00
521.17	34127.35
521.34	34574.39
521.52	34850.58
521.69	35042.50
521.86	34733.55
522.03	34864.62
522.20	35093.99
522.38	35096.33
522.55	35260.17
522.72	35372.52
522.89	35112.72
523.07	35346.77
523.24	34918.45
523.41	35721.26
523.58	35391.24
523.75	35704.87
523.92	35618.27
524.10	36018.50
524.27	35964.67
524.44	35648.70
524.61	36002.12
524.78	35976.37
524.96	36322.77
525.13	36376.61
525.30	36561.51
525.47	36603.64
525.64	36421.08
525.81	36264.26
525.98	36727.69
526.16	36367.24
526.33	36093.40
526.50	36474.91
526.67	36364.90
526.84	36053.61
527.01	36158.94
527.18	36437.46
527.36	36559.17
527.53	36753.43
527.70	37287.07
527.87	36797.90
528.04	36811.95
528.21	37034.30
528.38	37139.62
528.55	37249.63
528.72	37703.69
528.89	37731.78
529.07	37406.44
529.24	37160.69
529.41	37551.56
529.58	37605.39
529.75	37113.87
529.92	37804.33
530.09	37579.64
530.26	37890.93
530.43	37546.87
530.60	37350.27
530.77	37928.38
530.94	38230.31
531.11	38022.00
531.28	38185.84
531.46	38024.34
531.63	38082.86
531.80	38298.19
531.97	38033.71
532.14	38263.08
532.31	38022.00
532.48	38309.89
532.65	38820.13
532.82	38253.72
532.99	38838.85
533.16	38464.36
533.33	38726.50
533.50	38745.23
533.67	38642.24
533.84	38422.23
534.01	39077.58
534.18	38602.46
534.35	39147.80
534.52	38857.57
534.69	39159.50
534.86	39337.38
535.03	38810.76
535.20	39391.22
535.37	39686.12
535.54	39526.97
535.71	39346.75
535.88	39019.07
536.05	39526.97
536.22	39150.14
536.38	39611.23
536.55	39353.77
536.72	39578.46
536.89	39108.01
537.06	39810.17
537.23	39966.99
537.40	39543.35
537.57	39611.23
537.74	39786.77
537.91	39672.08
538.08	40198.70
538.25	39707.19
538.42	39833.58
538.59	40020.82
538.75	39878.05
538.92	39922.52
539.09	40446.80
539.26	40278.28
539.43	40060.61
539.60	40133.17
539.77	40076.99
539.94	40369.56
540.11	40219.77
540.28	40292.32
540.44	40128.48
540.61	40259.55
540.78	40252.53
540.95	40100.40
541.12	40072.31
541.29	40486.59
541.46	40945.33
541.62	40610.64
541.79	40886.82
541.96	40615.32
542.13	40772.13
542.30	40919.59
542.47	40737.02
542.63	41322.16
542.80	41041.29
542.97	41165.34
543.14	41869.84
543.31	41434.50
543.48	41890.91
543.64	41963.46
543.81	41684.94
543.98	41633.45
544.15	41329.18
544.32	41762.18
544.48	41869.84
544.65	41694.30
544.82	41827.71
544.99	41450.89
545.16	41846.44
545.32	41631.11
545.49	42036.02
545.66	41998.57
545.83	42176.45
546.00	41890.91
546.16	42150.71
546.33	41958.78
546.50	41687.28
546.67	42054.75
546.83	41628.77
547.00	42139.00
547.17	42181.13
547.34	41778.56
547.50	42249.01
547.67	42651.58
547.84	42286.46
548.00	42639.88
548.17	42873.93
548.34	42101.56
548.51	42717.12
548.67	42295.82
548.84	43100.97
549.01	42679.67
549.18	42239.65
549.34	42618.81
549.51	42829.46
549.68	42887.98
549.84	42932.45
550.01	42649.24
550.18	42148.37
550.34	42745.20
550.51	42658.60
550.68	42951.17
550.84	42394.12
551.01	42983.94
551.18	43115.01
551.34	42969.90
551.51	43199.27
551.68	43461.41
551.84	43143.09
552.01	43005.00
552.18	43164.16
552.34	42848.19
552.51	43278.85
552.68	43187.56
552.84	43559.71
553.01	43662.69
553.18	43374.81
553.34	43353.74
553.51	43143.09
553.67	43412.26
553.84	43416.94
554.01	43894.41
554.17	43807.81
554.34	43761.00
554.51	43632.27
554.67	43817.17
554.84	43386.51
555.00	43927.17
555.17	43454.39
555.33	43690.78
555.50	43152.46
555.67	43711.84
555.83	43849.94
556.00	43964.62
556.16	44149.53
556.33	43533.96
556.50	43812.49
556.66	43796.10
556.83	43454.39
556.99	43981.01
557.16	44041.86
557.32	44142.50
557.49	43973.98
557.65	43807.81
557.82	43941.22
557.98	43756.32
558.15	44013.77
558.32	44259.53
558.48	43913.13
558.65	44521.67
558.81	43880.36
558.98	44072.29
559.14	44348.47
559.31	44304.00
559.47	44318.04
559.64	44643.38
559.80	44355.49
559.97	44147.18
560.13	43852.28
560.30	44296.98
560.46	44062.93
560.63	44273.57
560.79	44346.13
560.96	44811.90
561.12	44596.57
561.29	44615.29
561.45	44854.03
561.61	44528.69
561.78	44626.99
561.94	44140.16
562.11	44460.82
562.27	44545.08
562.44	44147.18
562.60	44947.65
562.77	44832.96
562.93	44432.73
563.10	44477.20
563.26	44268.89
563.42	44708.91
563.59	44301.66
563.75	44776.79
563.92	44603.59
564.08	44495.92
564.24	45031.91
564.41	44900.84
564.57	44783.81
564.74	44636.36
564.90	45202.77
565.07	44732.32
565.23	44823.60
565.39	45116.17
565.56	45076.38
565.72	44598.91
565.88	45160.64
566.05	44708.91
566.21	44769.77
566.38	44727.64
566.54	44959.35
566.70	45249.58
566.87	45130.21
567.03	44699.55
567.19	45254.26
567.36	45116.17
567.52	45031.91
567.68	45167.66
567.85	44652.74
568.01	45202.77
568.17	45191.06
568.34	44903.18
568.50	44818.92
568.66	45223.83
568.83	45085.74
568.99	44458.48
569.15	44488.90
569.32	44718.28
569.48	44905.52
569.64	45193.40
569.81	45247.24
569.97	45109.14
570.13	45057.65
570.30	44779.13
570.46	44919.56
570.62	44638.70
570.78	44837.64
570.95	44905.52
571.11	45294.05
571.27	44758.06
571.43	44774.45
571.60	45319.79
571.76	45184.04
571.92	45207.45
572.09	45078.72
572.25	45310.43
572.41	44987.44
572.57	45366.60
572.74	45741.09
572.90	45317.45
573.06	45415.76
573.22	45303.41
573.38	45539.80
573.55	44928.92
573.71	45483.63
573.87	44893.82
574.03	45188.72
574.20	45207.45
574.36	45064.67
574.52	45565.55
574.68	45308.09
574.84	45333.84
575.01	44711.25
575.17	45333.84
575.33	45024.89
575.49	45055.31
575.65	45132.55
575.82	45233.19
575.98	45153.62
576.14	45249.58
576.30	45144.25
576.46	45425.12
576.62	45170.00
576.79	45471.93
576.95	45043.61
577.11	44896.16
577.27	45600.66
577.43	45315.11
577.59	45425.12
577.75	45214.47
577.92	44453.79
578.08	44786.15
578.24	45010.84
578.40	44739.34
578.56	45027.23
578.72	45413.41
578.88	45806.62
579.04	45820.67
579.21	45310.43
579.37	45104.46
579.53	45357.24
579.69	44975.73
579.85	45186.38
580.01	45500.01
580.17	45584.27
580.33	45759.81
580.49	45820.67
580.65	45488.31
580.82	45525.76
580.98	45193.40
581.14	45399.37
581.30	45715.34
581.46	45357.24
581.62	44999.14
581.78	45537.46
581.94	46019.61
582.10	45095.10
582.26	45560.87
582.42	45661.51
582.58	45275.32
582.74	45303.41
582.90	45308.09
583.06	45450.86
583.22	45586.61
583.38	45727.05
583.54	45280.00
583.70	45429.80
583.86	45488.31
584.02	45429.80
584.18	45689.60
584.34	45174.68
584.50	45263.62
584.66	45280.00
584.82	45364.26
584.98	45469.59
585.14	45734.07
585.30	45315.11
585.46	45418.10
585.62	45441.50
585.78	45382.99
585.94	45029.57
586.10	45083.40
586.26	45483.63
586.42	45352.56
586.58	45500.01
586.74	45535.12
586.90	45333.84
587.06	45057.65
587.22	45874.50
587.38	45216.81
587.54	45705.98
587.70	46033.66
587.86	45532.78
588.02	45352.56
588.18	45387.67
588.34	45542.14
588.49	45364.26
588.65	44921.90
588.81	45188.72
588.97	45654.49
589.13	44907.86
589.29	45818.33
589.45	45670.87
589.61	45722.37
589.77	45830.03
589.93	45621.72
590.08	45626.40
