SpectraSuite Data File
++++++++++++++++++++++++++++++++++++
Date: Fri Oct 25 11:26:42 EDT 2013
User: price-jones
Dark Spectrum Present: No
Reference Spectrum Present: No
Number of Sampled Component Spectra: 1
Spectrometers: USB2+H05261
Integration Time (usec): 100000 (USB2+H05261)
Spectra Averaged: 1 (USB2+H05261)
Boxcar Smoothing: 0 (USB2+H05261)
Correct for Electrical Dark: No (USB2+H05261)
Strobe/Lamp Enabled: No (USB2+H05261)
Correct for Detector Non-linearity: No (USB2+H05261)
Correct for Stray Light: No (USB2+H05261)
Number of Pixels in Processed Spectrum: 2048
>>>>>Begin Processed Spectral Data<<<<<
365.73	325.33
365.92	325.33
366.12	325.33
366.32	184.90
366.52	126.39
366.72	124.05
366.91	163.84
367.11	124.05
367.31	86.60
367.51	170.86
367.70	163.84
367.90	147.45
368.10	100.64
368.30	86.60
368.49	196.60
368.69	210.65
368.89	149.79
369.09	166.18
369.28	184.90
369.48	191.92
369.68	163.84
369.87	175.54
370.07	222.35
370.27	250.44
370.47	297.25
370.66	585.13
370.86	648.33
371.06	688.12
371.25	730.25
371.45	688.12
371.65	723.23
371.84	674.07
372.04	699.82
372.24	777.06
372.44	671.73
372.63	809.83
372.83	788.76
373.03	788.76
373.22	734.93
373.42	777.06
373.62	741.95
373.81	863.66
374.01	784.08
374.21	866.00
374.40	809.83
374.60	863.66
374.79	798.12
374.99	821.53
375.19	866.00
375.38	940.90
375.58	866.00
375.78	912.81
375.97	873.02
376.17	889.40
376.37	840.25
376.56	828.55
376.76	823.87
376.95	844.93
377.15	837.91
377.35	882.38
377.54	863.66
377.74	985.37
377.93	910.47
378.13	933.87
378.33	945.58
378.52	947.92
378.72	931.53
378.91	943.24
379.11	873.02
379.31	992.39
379.50	919.83
379.70	1029.84
379.89	980.68
380.09	945.58
380.28	976.00
380.48	1088.35
380.68	1032.18
380.87	1109.41
381.07	1027.50
381.26	1097.71
381.46	978.34
381.65	1083.67
381.85	983.02
382.04	1062.60
382.24	994.73
382.43	1100.05
382.63	1069.62
382.83	1020.47
383.02	1130.48
383.22	1172.61
383.41	1132.82
383.61	1151.54
383.80	1090.69
384.00	1074.31
384.19	1186.65
384.39	1081.33
384.58	1078.99
384.78	1249.85
384.97	1231.12
385.17	1116.44
385.36	1100.05
385.56	1153.88
385.75	1163.25
385.95	1135.16
386.14	1296.66
386.34	1137.50
386.53	1245.16
386.72	1214.74
386.92	1238.14
387.11	1301.34
387.31	1252.19
387.50	1303.68
387.70	1247.51
387.89	1331.76
388.09	1324.74
388.28	1291.98
388.48	1320.06
388.67	1336.45
388.86	1275.59
389.06	1380.92
389.25	1334.11
389.45	1280.27
389.64	1409.00
389.84	1474.54
390.03	1469.86
390.22	1376.24
390.42	1488.58
390.61	1479.22
390.81	1441.77
391.00	1439.43
391.19	1453.47
391.39	1469.86
391.58	1558.80
391.78	1495.60
391.97	1535.39
392.16	1479.22
392.36	1568.16
392.55	1556.46
392.75	1624.33
392.94	1568.16
393.13	1497.94
393.33	1530.71
393.52	1535.39
393.71	1633.69
393.91	1582.20
394.10	1537.73
394.29	1507.30
394.49	1643.06
394.68	1619.65
394.88	1685.19
395.07	1806.89
395.26	1671.14
395.46	1767.10
395.65	1708.59
395.84	1708.59
396.04	1837.32
396.23	1647.74
396.42	1703.91
396.62	1813.92
396.81	1863.07
397.00	1769.44
397.19	1849.02
397.39	1884.13
397.58	1788.17
397.77	1895.83
397.97	1856.04
398.16	1839.66
398.35	1837.32
398.55	1961.37
398.74	1973.07
398.93	1984.77
399.12	1900.52
399.32	1856.04
399.51	1902.86
399.70	1991.80
399.90	2040.95
400.09	2097.12
400.28	2106.48
400.47	2083.08
400.67	2111.16
400.86	2228.19
401.05	2036.27
401.24	2036.27
401.44	2188.40
401.63	2162.66
401.82	2047.97
402.01	2221.17
402.21	2188.40
402.40	2136.91
402.59	2115.84
402.78	2270.32
402.97	2204.78
403.17	2286.70
403.36	2298.41
403.55	2354.58
403.74	2396.71
403.93	2356.92
404.13	2450.54
404.32	2389.69
404.51	2389.69
404.70	2431.82
404.89	2431.82
405.09	2434.16
405.28	2562.89
405.47	2473.95
405.66	2516.08
405.85	2595.65
406.05	2370.96
406.24	2651.83
406.43	2485.65
406.62	2530.12
406.81	2724.38
407.00	2574.59
407.20	2548.84
407.39	2715.02
407.58	2672.89
407.77	2651.83
407.96	2782.90
408.15	2773.53
408.34	2708.00
408.54	2796.94
408.73	2878.86
408.92	2836.73
409.11	2832.05
409.30	2885.88
409.49	2902.26
409.68	2860.13
409.87	2958.44
410.07	2888.22
410.26	3009.93
410.45	3180.79
410.64	2881.20
410.83	3068.44
411.02	3169.09
411.21	3171.43
411.40	3208.87
411.59	3155.04
411.78	3159.72
411.98	3269.73
412.17	3342.28
412.36	3330.58
412.55	3368.03
412.74	3417.18
412.93	3449.95
413.12	3559.95
413.31	3515.48
413.50	3541.23
413.69	3480.38
413.88	3574.00
414.07	3651.24
414.26	3646.55
414.45	3592.72
414.64	3695.71
414.83	3719.11
415.02	3723.79
415.22	3819.75
415.41	3943.80
415.60	3810.39
415.79	3896.99
415.98	4067.85
416.17	4088.92
416.36	3936.78
416.55	4014.02
416.74	4117.00
416.93	4032.74
417.12	4250.41
417.31	4112.32
417.50	4283.18
417.69	4257.43
417.88	4292.54
418.07	4140.41
418.26	4381.48
418.45	4358.08
418.64	4421.27
418.83	4479.79
419.02	4505.53
419.21	4531.28
419.39	4643.62
419.58	4580.43
419.77	4421.27
419.96	4564.04
420.15	4489.15
420.34	4580.43
420.53	4748.95
420.72	4709.16
420.91	4542.98
421.10	4585.11
421.29	4847.25
421.48	4662.35
421.67	4840.23
421.86	4973.64
422.05	4863.63
422.24	4851.93
422.43	4809.80
422.61	4905.76
422.80	5100.03
422.99	4947.89
423.18	4940.87
423.37	5102.37
423.56	4990.02
423.75	4945.55
423.94	4905.76
424.13	4744.27
424.32	4758.31
424.50	5048.54
424.69	5252.16
424.88	5146.84
425.07	5109.39
425.26	4873.00
425.45	4910.44
425.64	4905.76
425.83	5057.90
426.01	5135.14
426.20	5060.24
426.39	5029.81
426.58	5158.54
426.77	5149.18
426.96	5217.05
427.15	5266.21
427.33	5282.59
427.52	5111.73
427.71	5298.97
427.90	5226.42
428.09	5287.27
428.28	5430.04
428.46	5310.68
428.65	5399.62
428.84	5542.39
429.03	5540.05
429.22	5261.52
429.40	5474.51
429.59	5558.77
429.78	5270.89
429.97	5184.29
430.16	5603.24
430.34	5650.05
430.53	5701.54
430.72	5680.48
430.91	5568.13
431.10	5638.35
431.28	5785.80
431.47	5956.66
431.66	5830.27
431.85	5671.12
432.03	5893.47
432.22	6038.58
432.41	5973.05
432.60	5860.70
432.79	5933.26
432.97	6143.91
433.16	6015.18
433.35	5996.45
433.54	6207.10
433.72	6193.06
433.91	6167.31
434.10	6115.82
434.28	6113.48
434.47	6221.14
434.66	6340.51
434.85	6258.59
435.03	6424.77
435.22	6218.80
435.41	6492.65
435.59	6403.71
435.78	6504.35
435.97	6410.73
436.16	6511.37
436.34	6406.05
436.53	6382.64
436.72	6705.63
436.90	6516.05
437.09	6672.87
437.28	6581.59
437.46	6841.39
437.65	6785.21
437.84	6913.94
438.02	6857.77
438.21	6782.87
438.40	6902.24
438.58	7054.37
438.77	7070.76
438.96	7023.95
439.14	7190.13
439.33	7138.63
439.52	7197.15
439.70	7148.00
439.89	7382.05
440.08	7405.46
440.26	7566.95
440.45	7330.56
440.63	7508.44
440.82	7698.02
441.01	7716.75
441.19	7527.16
441.38	7833.77
441.57	7646.53
441.75	7700.36
441.94	8102.93
442.12	7793.98
442.31	8035.06
442.50	8168.47
442.68	7974.21
442.87	8119.32
443.05	8159.11
443.24	8374.44
443.43	8224.64
443.61	8299.54
443.80	8395.50
443.98	8028.04
444.17	7859.52
444.35	8269.11
444.54	8262.09
444.73	8341.67
444.91	8407.20
445.10	8454.02
445.28	8290.18
445.47	8402.52
445.65	8479.76
445.84	8358.05
446.02	8421.25
446.21	8395.50
446.39	8472.74
446.58	8479.76
446.77	8454.02
446.95	8493.80
447.14	8386.14
447.32	8695.09
447.51	8575.72
447.69	8334.65
447.88	8435.29
448.06	8542.96
448.25	8578.06
448.43	8468.06
448.62	8575.72
448.80	8781.69
448.99	8622.53
449.17	8912.76
449.36	8753.60
449.54	8851.91
449.73	8872.97
449.91	9008.72
450.10	8966.59
450.28	9062.55
450.46	8940.85
450.65	9015.74
450.83	9163.20
451.02	9170.22
451.20	9188.94
451.39	9001.70
451.57	9165.54
451.76	9174.90
451.94	9329.38
452.13	9404.27
452.31	9191.28
452.49	9123.41
452.68	9296.61
452.86	9589.17
453.05	9430.02
453.23	9671.09
453.42	9390.23
453.60	9547.05
453.78	9617.26
453.97	9521.30
454.15	9589.17
454.34	9743.65
454.52	9858.34
454.70	9689.82
454.89	9900.47
455.07	9792.80
455.26	9886.42
455.44	9998.77
455.62	10040.90
455.81	9933.23
455.99	10108.77
456.17	10303.04
456.36	10113.45
456.54	10328.78
456.73	10263.25
456.91	10394.32
457.09	10593.26
457.28	10473.90
457.46	10579.22
457.64	10607.31
457.83	10441.13
458.01	10588.58
458.19	10874.13
458.38	10579.22
458.56	11028.60
458.74	10710.29
458.93	10785.19
459.11	10717.31
459.29	10824.98
459.48	10972.43
459.66	11026.26
459.84	10789.87
460.03	11239.25
460.21	10836.68
460.39	11023.92
460.57	11096.48
460.76	11103.50
460.94	11211.17
461.12	10939.66
461.31	11304.79
461.49	11229.89
461.67	11075.42
461.85	11517.78
462.04	11290.74
462.22	11707.36
462.40	11620.76
462.59	11740.13
462.77	11548.20
462.95	11620.76
463.13	11665.23
463.32	11822.05
463.50	11756.51
463.68	11758.85
463.86	11854.81
464.05	11744.81
464.23	11686.29
464.41	11922.69
464.59	11651.19
464.78	12269.09
464.96	12156.74
465.14	11833.75
465.32	12114.61
465.50	12271.43
465.69	12201.21
465.87	12152.06
466.05	12065.46
466.23	12299.52
466.41	12336.96
466.60	12666.98
466.78	12245.68
466.96	12343.99
467.14	12491.44
467.32	12318.24
467.51	12748.90
467.69	12456.33
467.87	12538.25
468.05	12587.40
468.23	12519.53
468.41	12589.74
468.60	12554.63
468.78	12931.46
468.96	12507.82
469.14	12952.52
469.32	12940.82
469.50	12868.27
469.69	12917.42
469.87	13238.07
470.05	13238.07
470.23	13193.60
470.41	13128.06
470.59	13322.33
470.77	12985.29
470.95	13060.19
471.14	13579.79
471.32	13146.79
471.50	13650.00
471.68	13422.97
471.86	13839.59
472.04	13633.62
472.22	13905.12
472.40	13900.44
472.58	13736.60
472.77	13984.70
472.95	14242.16
473.13	14675.16
473.31	14155.56
473.49	14342.80
473.67	14230.46
473.85	14553.45
474.03	14642.39
474.21	14602.60
474.39	14888.15
474.57	14764.10
474.75	15187.74
474.93	14878.79
475.12	15000.49
475.30	15068.37
475.48	15082.41
475.66	15124.54
475.84	15091.77
476.02	15421.79
476.20	15302.42
476.38	15431.15
476.56	16180.12
476.74	16182.46
476.92	16119.27
477.10	15721.38
477.28	16236.30
477.46	16257.36
477.64	16301.83
477.82	16652.91
478.00	17027.40
478.18	16893.99
478.36	17118.68
478.54	17219.32
478.72	17081.23
478.90	17362.09
479.08	17610.19
479.26	17668.70
479.44	17813.82
479.62	17764.67
479.80	18080.64
479.98	18277.24
480.16	18654.07
480.34	18298.31
480.52	18677.48
480.70	18579.17
480.88	18338.10
481.06	18890.46
481.24	18789.82
481.41	19056.64
481.59	19178.35
481.77	19339.85
481.95	19576.24
482.13	19826.68
482.31	19882.85
482.49	20587.35
482.67	20247.97
482.85	20905.66
483.03	20798.00
483.21	21085.89
483.39	21198.23
483.57	20863.54
483.74	21184.19
483.92	21635.91
484.10	21102.27
484.28	21738.90
484.46	22216.36
484.64	22246.79
484.82	21855.92
485.00	22176.58
485.18	23075.34
485.35	23278.97
485.53	23070.66
485.71	23115.13
485.89	23576.22
486.07	23461.53
486.25	23653.45
486.43	23686.22
486.61	24112.20
486.78	23824.31
486.96	24135.60
487.14	24376.68
487.32	24802.66
487.50	24900.96
487.68	25055.43
487.85	25446.30
488.03	25504.82
488.21	25848.88
488.39	25975.27
488.57	26190.59
488.75	26239.75
488.92	26424.65
489.10	26888.07
489.28	26623.59
489.46	27124.47
489.64	27168.94
489.81	27733.01
489.99	27852.38
490.17	27639.39
490.35	28451.55
490.53	28458.57
490.70	28369.63
490.88	28254.95
491.06	28556.88
491.24	29308.19
491.41	29324.57
491.59	29537.56
491.77	29397.13
491.95	29783.32
492.13	29993.97
492.30	30087.59
492.48	29745.87
492.66	30366.11
492.84	30354.41
493.01	30824.86
493.19	30934.86
493.37	31201.68
493.54	31260.20
493.72	31915.54
493.90	31466.16
494.08	31854.69
494.25	31922.57
494.43	32374.29
494.61	32552.17
494.79	32701.96
494.96	33144.33
495.14	32884.53
495.32	33310.50
495.49	33214.54
495.67	33610.09
495.85	33649.88
496.02	34029.05
496.20	34375.45
496.38	33923.72
496.55	34106.29
496.73	34572.05
496.91	34511.20
497.09	34988.67
497.26	35192.30
497.44	34927.81
497.62	35482.52
497.79	35894.46
497.97	35718.92
498.14	36095.74
498.32	35992.76
498.50	36488.95
498.67	36804.92
498.85	36730.03
499.03	36673.85
499.20	36744.07
499.38	36840.03
499.56	37081.11
499.73	37434.53
499.91	37610.07
500.08	37497.72
500.26	37455.59
500.44	37586.66
500.61	38148.39
500.79	37706.03
500.97	38132.01
501.14	38787.36
501.32	38635.22
501.49	38431.60
501.67	38733.53
501.84	38904.38
502.02	39068.22
502.20	38843.53
502.37	39714.21
502.55	39407.60
502.72	39377.17
502.90	39552.71
503.07	39910.82
503.25	39974.01
503.43	40041.88
503.60	40196.36
503.78	40451.48
503.95	40189.34
504.13	40739.36
504.30	40395.31
504.48	40533.40
504.65	41268.33
504.83	41289.39
505.01	40797.88
505.18	41043.63
505.36	41773.88
505.53	41841.76
505.71	41855.80
505.88	41940.06
506.06	41425.14
506.23	42108.58
506.41	42087.51
506.58	41972.83
506.76	42412.85
506.93	42288.80
507.11	42497.11
507.28	42777.97
507.46	43028.41
507.63	42724.14
507.81	43311.61
507.98	43496.52
508.16	43426.30
508.33	43552.69
508.50	43814.83
508.68	43924.83
508.85	44163.57
509.03	43997.39
509.20	44177.61
509.38	44545.08
509.55	44755.72
509.73	44617.63
509.90	44687.85
510.08	44376.56
510.25	44505.29
510.42	44818.92
510.60	44992.12
510.77	45141.91
510.95	45237.87
511.12	44811.90
511.30	45340.86
511.47	45322.13
511.64	45322.13
511.82	45708.32
511.99	45858.12
512.17	46178.77
512.34	46218.56
512.51	46314.52
512.69	46391.76
512.86	46686.67
513.04	47084.56
513.21	46368.35
513.38	47030.72
513.56	46646.88
513.73	46724.11
513.90	47049.45
514.08	46836.46
514.25	47437.98
514.43	47264.78
514.60	47454.36
514.77	47377.12
514.95	47723.52
515.12	47922.47
515.29	47370.10
515.47	47393.51
515.64	47976.30
515.81	48245.46
515.99	48189.29
516.16	48608.25
516.33	48308.66
516.51	48882.09
516.68	48531.01
516.85	48741.66
517.03	49160.61
517.20	48816.55
517.37	48994.43
517.54	49207.42
517.72	49221.47
517.89	49057.63
518.06	49490.63
518.24	49200.40
518.41	49406.37
518.58	49509.35
518.75	49249.55
518.93	49855.75
519.10	49757.45
519.27	50005.55
519.45	49549.14
519.62	49937.67
519.79	49942.35
519.96	49893.20
520.14	50211.51
520.31	49879.16
520.48	50534.51
520.65	50492.38
520.83	50696.00
521.00	50693.66
521.17	50653.87
521.34	50745.15
521.52	50866.86
521.69	50672.60
521.86	50946.44
522.03	51241.35
522.20	51290.50
522.38	51456.68
522.55	51423.91
522.72	51400.50
522.89	51285.82
523.07	51653.28
523.24	51391.14
523.41	51770.31
523.58	51636.90
523.75	51934.15
523.92	52114.37
524.10	52086.28
524.27	52130.75
524.44	51978.62
524.61	52154.16
524.78	52088.62
524.96	52238.42
525.13	51945.85
525.30	52402.25
525.47	52568.43
525.64	52259.48
525.81	52886.74
525.98	52589.50
526.16	52619.92
526.33	52821.21
526.50	53134.84
526.67	52905.47
526.84	53059.94
527.01	53001.43
527.18	52921.85
527.36	53202.72
527.53	53146.54
527.70	53703.59
527.87	53432.09
528.04	53333.79
528.21	53804.24
528.38	53539.75
528.55	53485.92
528.72	53605.29
528.89	53352.51
529.07	53673.16
529.24	53478.90
529.41	53925.94
529.58	53736.36
529.75	53745.72
529.92	54110.85
530.09	53848.71
530.26	54054.67
530.43	54237.23
530.60	53724.66
530.77	54176.38
530.94	54314.47
531.11	54033.61
531.28	54351.92
531.46	54372.99
531.63	54337.88
531.80	54176.38
531.97	54410.43
532.14	54468.95
532.31	54312.13
532.48	54543.84
532.65	54649.17
532.82	54773.22
532.99	54714.70
533.16	54611.72
533.33	55110.25
533.50	54843.43
533.67	54738.11
533.84	54639.81
534.01	55121.96
534.18	55126.64
534.35	55433.25
534.52	55222.60
534.69	55093.87
534.86	55222.60
535.03	55004.93
535.20	55255.37
535.37	55386.44
535.54	55484.74
535.71	55388.78
535.88	55243.66
536.05	55480.06
536.22	55625.17
536.38	55826.46
536.55	55360.69
536.72	55671.98
536.89	55693.05
537.06	55833.48
537.23	55964.55
537.40	55676.66
537.57	55749.22
537.74	55819.44
537.91	56104.98
538.08	55875.61
538.25	55819.44
538.42	55796.03
538.59	56065.19
538.75	56065.19
538.92	56126.05
539.09	56020.72
539.26	56123.71
539.43	56287.54
539.60	56523.94
539.77	56629.26
539.94	56800.12
540.11	56416.27
540.28	56640.96
540.44	56507.55
540.61	56423.29
540.78	56467.76
540.95	56500.53
541.12	56640.96
541.29	56577.77
541.46	56643.30
541.62	56746.29
541.79	56865.66
541.96	56327.33
542.13	56676.07
542.30	56741.61
542.47	57153.54
542.63	56975.66
542.80	56804.80
542.97	57247.16
543.14	57240.14
543.31	57308.02
543.48	57251.84
543.64	57539.73
543.81	57240.14
543.98	57626.33
544.15	57441.43
544.32	57382.91
544.48	57591.22
544.65	57153.54
544.82	57609.95
544.99	57455.47
545.16	57532.71
545.32	57425.04
545.49	57708.25
545.66	57851.02
545.83	57598.24
546.00	57757.40
546.16	57502.28
546.33	57549.09
546.50	57532.71
546.67	57902.51
546.83	57521.01
547.00	57825.28
547.17	57954.00
547.34	57872.09
547.50	57998.48
547.67	58080.39
547.84	58159.97
548.00	58129.54
548.17	58417.43
548.34	58155.29
548.51	58358.92
548.67	58295.72
548.84	58291.04
549.01	58138.91
549.18	58117.84
549.34	58361.26
549.51	58349.56
549.68	58443.18
549.84	58642.12
550.01	58625.74
550.18	58337.85
550.34	58681.91
550.51	58419.77
550.68	58408.07
550.84	58344.87
551.01	58920.65
551.18	58302.74
551.34	58480.63
551.51	58864.47
551.68	58667.87
551.84	58681.91
552.01	58712.34
552.18	58805.96
552.34	58555.52
552.51	58684.25
552.68	58670.21
552.84	58695.95
553.01	59025.97
553.18	58913.62
553.34	59044.69
553.51	58815.32
553.67	58974.48
553.84	59021.29
554.01	58897.24
554.17	58972.14
554.34	59079.80
554.51	58990.86
554.67	59213.21
554.84	58981.50
555.00	59009.59
555.17	59025.97
555.33	59245.98
555.50	58911.28
555.67	58960.44
555.83	59023.63
556.00	59327.90
556.16	59231.94
556.33	59353.65
556.50	59150.02
556.66	59412.16
556.83	58995.54
556.99	59437.90
557.16	59437.90
557.32	59683.66
557.49	59648.55
557.65	59386.41
557.82	59470.67
557.98	59625.15
558.15	59601.74
558.32	59515.14
558.48	59526.84
558.65	59508.12
558.81	59641.53
558.98	59671.96
559.14	59613.44
559.31	59625.15
559.47	59859.20
559.64	59875.58
559.80	59774.94
559.97	59849.84
560.13	59557.27
560.30	59657.91
560.46	59753.88
560.63	59828.77
560.79	59976.23
560.96	59873.24
561.12	59924.74
561.29	59859.20
561.45	60016.02
561.61	59859.20
561.78	59929.42
561.94	59821.75
562.11	59774.94
562.27	59774.94
562.44	59908.35
562.60	60168.15
562.77	60039.42
562.93	59831.11
563.10	60051.12
563.26	60074.53
563.42	60114.32
563.59	60107.30
563.75	60119.00
563.92	59987.93
564.08	60016.02
564.24	60420.93
564.41	60090.91
564.57	60322.63
564.74	60170.49
564.90	60119.00
565.07	60236.03
565.23	60161.13
565.39	60114.32
565.56	60348.37
565.72	60367.10
565.88	60217.30
566.05	60271.14
566.21	59898.99
566.38	60381.14
566.54	60425.61
566.70	60376.46
566.87	60474.76
567.03	60137.72
567.19	60507.53
567.36	60353.05
567.52	60348.37
567.68	60694.77
567.85	60329.65
568.01	60544.98
568.17	60456.04
568.34	60556.68
568.50	60322.63
568.66	60374.12
568.83	60360.08
568.99	60367.10
569.15	60715.84
569.32	60547.32
569.48	60427.95
569.64	60495.83
569.81	60498.17
569.97	60266.45
570.13	60486.46
570.30	60233.69
570.46	60430.29
570.62	60580.09
570.78	60566.04
570.95	60669.03
571.11	60556.68
571.27	60669.03
571.43	60540.30
571.60	60823.50
571.76	60669.03
571.92	60692.43
572.09	60603.49
572.25	60725.20
572.41	60540.30
572.57	60544.98
572.74	60879.67
572.90	60633.92
573.06	60790.73
573.22	60554.34
573.38	60608.17
573.55	60647.96
573.71	60776.69
573.87	60809.46
574.03	60603.49
574.20	60652.64
574.36	60687.75
574.52	60935.85
574.68	60882.02
574.84	60914.78
575.01	60851.59
575.17	60683.07
575.33	60790.73
575.49	60793.07
575.65	60867.97
575.82	60814.14
575.98	60795.42
576.14	61048.19
576.30	60807.12
576.46	60935.85
576.62	60704.13
576.79	60781.37
576.95	60678.39
577.11	60961.59
577.27	60727.54
577.43	60985.00
577.59	60800.10
577.75	60973.30
577.92	60842.23
578.08	60872.65
578.24	61099.68
578.40	61008.40
578.56	61041.17
578.72	61083.30
578.88	61003.72
579.04	61038.83
579.21	60830.52
579.37	60963.93
579.53	61015.43
579.69	60694.77
579.85	60910.10
580.01	60996.70
580.17	60615.19
580.33	60823.50
580.49	61102.03
580.65	60942.87
580.82	60830.52
580.98	60917.12
581.14	60809.46
581.30	61080.96
581.46	60818.82
581.62	60900.74
581.78	61111.39
581.94	60931.17
582.10	61020.11
582.26	61146.50
582.42	60905.42
582.58	61010.74
582.74	60708.82
582.90	60928.83
583.06	60910.10
583.22	60793.07
583.38	61020.11
583.54	60968.61
583.70	60982.66
583.86	61078.62
584.02	60818.82
584.18	61076.28
584.34	61048.19
584.50	61085.64
584.66	60835.20
584.82	60858.61
584.98	61162.88
585.14	61202.67
585.30	61162.88
585.46	61202.67
585.62	60942.87
585.78	61144.16
585.94	61013.08
586.10	61001.38
586.26	61003.72
586.42	61188.63
586.58	61113.73
586.74	61010.74
586.90	61043.51
587.06	60846.91
587.22	61315.01
587.38	61057.56
587.54	61181.60
587.70	61226.07
587.86	61183.94
588.02	61118.41
588.18	61256.50
588.34	60989.68
588.49	60938.19
