SpectraSuite Data File
++++++++++++++++++++++++++++++++++++
Date: Fri Oct 25 10:47:32 EDT 2013
User: price-jones
Dark Spectrum Present: No
Reference Spectrum Present: No
Number of Sampled Component Spectra: 1
Spectrometers: USB2+H05261
Integration Time (usec): 100000 (USB2+H05261)
Spectra Averaged: 1 (USB2+H05261)
Boxcar Smoothing: 0 (USB2+H05261)
Correct for Electrical Dark: No (USB2+H05261)
Strobe/Lamp Enabled: No (USB2+H05261)
Correct for Detector Non-linearity: No (USB2+H05261)
Correct for Stray Light: No (USB2+H05261)
Number of Pixels in Processed Spectrum: 2048
>>>>>Begin Processed Spectral Data<<<<<
365.73	135.75
365.92	135.75
366.12	135.75
366.32	58.51
366.52	11.70
366.72	84.26
366.91	65.54
367.11	2.34
367.31	0.00
367.51	42.13
367.70	0.00
367.90	28.09
368.10	65.54
368.30	0.00
368.49	51.49
368.69	42.13
368.89	49.15
369.09	9.36
369.28	95.96
369.48	23.41
369.68	105.32
369.87	124.05
370.07	86.60
370.27	138.09
370.47	222.35
370.66	433.00
370.86	404.91
371.06	482.15
371.25	477.47
371.45	407.25
371.65	433.00
371.84	397.89
372.04	505.56
372.24	543.00
372.44	545.34
372.63	400.23
372.83	503.22
373.03	479.81
373.22	451.72
373.42	505.56
373.62	545.34
373.81	498.53
374.01	575.77
374.21	526.62
374.40	425.98
374.60	512.58
374.79	552.37
374.99	566.41
375.19	559.39
375.38	582.79
375.58	524.28
375.78	610.88
375.97	615.56
376.17	582.79
376.37	557.05
376.56	535.98
376.76	498.53
376.95	594.50
377.15	613.22
377.35	571.09
377.54	587.47
377.74	624.92
377.93	643.65
378.13	627.26
378.33	622.58
378.52	645.99
378.72	617.90
378.91	617.90
379.11	624.92
379.31	601.52
379.50	599.18
379.70	627.26
379.89	571.09
380.09	517.26
380.28	620.24
380.48	580.45
380.68	592.16
380.87	664.71
381.07	645.99
381.26	629.60
381.46	685.78
381.65	629.60
381.85	669.39
382.04	608.54
382.24	655.35
382.43	678.76
382.63	695.14
382.83	744.29
383.02	725.57
383.22	678.76
383.41	734.93
383.61	760.67
383.80	746.63
384.00	755.99
384.19	704.50
384.39	746.63
384.58	821.53
384.78	812.17
384.97	718.54
385.17	809.83
385.36	713.86
385.56	774.72
385.75	706.84
385.95	739.61
386.14	802.80
386.34	730.25
386.53	830.89
386.72	753.65
386.92	847.27
387.11	835.57
387.31	802.80
387.50	805.14
387.70	826.21
387.89	809.83
388.09	802.80
388.28	844.93
388.48	880.04
388.67	931.53
388.86	779.40
389.06	917.49
389.25	823.87
389.45	821.53
389.64	880.04
389.84	959.62
390.03	894.08
390.22	882.38
390.42	976.00
390.61	863.66
390.81	884.72
391.00	929.19
391.19	929.19
391.39	929.19
391.58	980.68
391.78	940.90
391.97	896.43
392.16	837.91
392.36	912.81
392.55	868.34
392.75	971.32
392.94	964.30
393.13	936.21
393.33	971.32
393.52	887.06
393.71	1006.43
393.91	1029.84
394.10	1069.62
394.29	983.02
394.49	978.34
394.68	1107.07
394.88	1125.80
395.07	1078.99
395.26	1050.90
395.46	1097.71
395.65	1043.88
395.84	1071.97
396.04	1158.57
396.23	1048.56
396.42	1114.10
396.62	1137.50
396.81	1135.16
397.00	1029.84
397.19	1172.61
397.39	1191.33
397.58	1256.87
397.77	1163.25
397.97	1282.61
398.16	1203.04
398.35	1355.17
398.55	1153.88
398.74	1247.51
398.93	1277.93
399.12	1231.12
399.32	1273.25
399.51	1266.23
399.70	1392.62
399.90	1350.49
400.09	1275.59
400.28	1420.71
400.47	1366.87
400.67	1299.00
400.86	1474.54
401.05	1441.77
401.24	1462.83
401.44	1455.81
401.63	1401.98
401.82	1460.49
402.01	1416.02
402.21	1390.28
402.40	1565.82
402.59	1446.45
402.78	1453.47
402.97	1495.60
403.17	1472.20
403.36	1572.84
403.55	1526.03
403.74	1568.16
403.93	1544.75
404.13	1636.03
404.32	1610.29
404.51	1591.56
404.70	1577.52
404.89	1556.46
405.09	1682.85
405.28	1682.85
405.47	1661.78
405.66	1671.14
405.85	1699.23
406.05	1739.02
406.24	1741.36
406.43	1703.91
406.62	1811.57
406.81	1820.94
407.00	1783.49
407.20	1762.42
407.39	1713.27
407.58	1863.07
407.77	1870.09
407.96	1825.62
408.15	1919.24
408.34	1902.86
408.54	1923.92
408.73	1996.48
408.92	2003.50
409.11	2059.67
409.30	1937.96
409.49	1930.94
409.68	2003.50
409.87	1987.11
410.07	1982.43
410.26	2024.56
410.45	2029.24
410.64	2052.65
410.83	2085.42
411.02	2146.27
411.21	2267.98
411.40	2071.37
411.59	2303.09
411.78	2183.72
411.98	2132.23
412.17	2282.02
412.36	2356.92
412.55	2450.54
412.74	2359.26
412.93	2218.83
413.12	2382.67
413.31	2485.65
413.50	2389.69
413.69	2338.20
413.88	2495.01
414.07	2457.56
414.26	2476.29
414.45	2565.23
414.64	2583.95
414.83	2672.89
415.02	2640.12
415.22	2677.57
415.41	2717.36
415.60	2726.72
415.79	2698.64
415.98	2874.18
416.17	2677.57
416.36	2792.26
416.55	2827.37
416.74	2871.84
416.93	2820.35
417.12	2794.60
417.31	2998.23
417.50	2925.67
417.69	3033.33
417.88	2944.39
418.07	2960.78
418.26	2928.01
418.45	3023.97
418.64	3073.12
418.83	3141.00
419.02	3033.33
419.21	3101.21
419.39	3016.95
419.58	3000.57
419.77	3178.45
419.96	3159.72
420.15	3304.84
420.34	3187.81
420.53	3213.56
420.72	3466.33
420.91	3211.22
421.10	3302.50
421.29	3232.28
421.48	3323.56
421.67	3323.56
421.86	3286.11
422.05	3309.52
422.24	3503.78
422.43	3314.20
422.61	3316.54
422.80	3400.80
422.99	3377.39
423.18	3384.41
423.37	3461.65
423.56	3447.61
423.75	3473.36
423.94	3272.07
424.13	3173.77
424.32	3269.73
424.50	3517.83
424.69	3485.06
424.88	3552.93
425.07	3398.46
425.26	3489.74
425.45	3585.70
425.64	3407.82
425.83	3400.80
426.01	3527.19
426.20	3485.06
426.39	3442.93
426.58	3482.72
426.77	3529.53
426.96	3478.04
427.15	3564.64
427.33	3545.91
427.52	3508.46
427.71	3634.85
427.90	3585.70
428.09	3524.85
428.28	3571.66
428.46	3782.31
428.65	3641.87
428.84	3655.92
429.03	3730.81
429.22	3744.86
429.40	3723.79
429.59	3737.84
429.78	3714.43
429.97	3536.55
430.16	3686.34
430.34	3693.37
430.53	3803.37
430.72	3791.67
430.91	3709.75
431.10	3829.12
431.28	4084.23
431.47	3988.27
431.66	3908.69
431.85	3906.35
432.03	4114.66
432.22	4229.35
432.41	4119.34
432.60	4032.74
432.79	3990.61
432.97	4168.49
433.16	4126.36
433.35	4095.94
433.54	4124.02
433.72	4102.96
433.91	4128.70
434.10	4234.03
434.28	4276.16
434.47	4287.86
434.66	4407.23
434.85	4152.11
435.03	4311.27
435.22	4241.05
435.41	4386.16
435.59	4395.53
435.78	4428.29
435.97	4411.91
436.16	4337.01
436.34	4470.42
436.53	4578.09
436.72	4491.49
436.90	4528.94
437.09	4463.40
437.28	4402.55
437.46	4568.73
437.65	4566.39
437.84	4603.83
438.02	4589.79
438.21	4744.27
438.40	4461.06
438.58	4692.77
438.77	4973.64
438.96	4727.88
439.14	4802.78
439.33	4901.08
439.52	4762.99
439.70	4868.31
439.89	5095.35
440.08	5041.51
440.26	5029.81
440.45	4973.64
440.63	5060.24
440.82	5327.06
441.01	5210.03
441.19	5228.76
441.38	5366.85
441.57	5142.16
441.75	5277.91
441.94	5523.66
442.12	5458.13
442.31	5472.17
442.50	5636.01
442.68	5350.46
442.87	5643.03
443.05	5511.96
443.24	5579.84
443.43	5640.69
443.61	5678.14
443.80	5746.02
443.98	5607.92
444.17	5467.49
444.35	5528.35
444.54	5724.95
444.73	5713.25
444.91	5575.16
445.10	5762.40
445.28	5572.82
445.47	5673.46
445.65	5652.39
445.84	5598.56
446.02	5614.95
446.21	5633.67
446.39	5593.88
446.58	5741.33
446.77	5820.91
446.95	5610.26
447.14	5781.12
447.32	5837.30
447.51	5893.47
447.69	5710.91
447.88	5795.17
448.06	5795.17
448.25	5788.14
448.43	5909.85
448.62	5830.27
448.80	5710.91
448.99	5839.64
449.17	6010.50
449.36	5818.57
449.54	6092.41
449.73	6052.63
449.91	6326.47
450.10	6153.27
450.28	6204.76
450.46	6270.30
450.65	6204.76
450.83	6127.52
451.02	6216.46
451.20	6256.25
451.39	6312.42
451.57	6286.68
451.76	6345.19
451.94	6272.64
452.13	6370.94
452.31	6225.82
452.49	6249.23
452.68	6284.34
452.86	6298.38
453.05	6410.73
453.23	6516.05
453.42	6169.65
453.60	6431.79
453.78	6258.59
453.97	6422.43
454.15	6399.02
454.34	6354.55
454.52	6569.88
454.70	6579.25
454.89	6644.78
455.07	6502.01
455.26	6850.75
455.44	6651.80
455.62	6785.21
455.81	6743.08
455.99	6717.34
456.17	6942.03
456.36	6705.63
456.54	6876.49
456.73	6911.60
456.91	7030.97
457.09	6953.73
457.28	7199.49
457.46	7002.88
457.64	7042.67
457.83	7108.21
458.01	6899.90
458.19	7194.81
458.38	7133.95
458.56	7300.13
458.74	7246.30
458.93	7136.29
459.11	7133.95
459.29	7225.23
459.48	7379.71
459.66	7241.62
459.84	7246.30
460.03	7377.37
460.21	7321.20
460.39	7339.92
460.57	7396.09
460.76	7496.74
460.94	7438.22
461.12	7290.77
461.31	7489.71
461.49	7440.56
461.67	7660.57
461.85	7688.66
462.04	7742.49
462.22	7978.89
462.40	7803.35
462.59	7651.21
462.77	7831.43
462.95	7857.18
463.13	7676.96
463.32	7894.63
463.50	7826.75
463.68	7808.03
463.86	7845.48
464.05	7854.84
464.23	7737.81
464.41	7948.46
464.59	7868.88
464.78	7983.57
464.96	8018.68
465.14	8002.29
465.32	7880.58
465.50	8271.45
465.69	8234.00
465.87	8372.10
466.05	8112.30
466.23	8023.36
466.41	8114.64
466.60	8250.39
466.78	8135.70
466.96	8093.57
467.14	8252.73
467.32	8404.86
467.51	8444.65
467.69	8156.77
467.87	8243.37
468.05	8439.97
468.23	8315.92
468.41	8257.41
468.60	8449.33
468.78	8634.24
468.96	8285.50
469.14	8493.80
469.32	8533.59
469.50	8311.24
469.69	8578.06
469.87	8678.71
470.05	8652.96
470.23	8856.59
470.41	8650.62
470.59	8727.86
470.77	8531.25
470.95	8894.04
471.14	8915.10
471.32	8610.83
471.50	9092.98
471.68	9043.83
471.86	9074.26
472.04	9064.89
472.22	9390.23
472.40	8978.30
472.58	9231.07
472.77	9320.01
472.95	9493.21
473.13	9544.70
473.31	9320.01
473.49	9392.57
473.67	9378.53
473.85	9408.95
474.03	9774.08
474.21	9790.46
474.39	9675.77
474.57	9792.80
474.75	9973.02
474.93	9664.07
475.12	9638.33
475.30	9802.16
475.48	9916.85
475.66	10214.10
475.84	9886.42
476.02	10001.11
476.20	10242.18
476.38	10235.16
476.56	10574.54
476.74	10401.34
476.92	10494.96
477.10	10532.41
477.28	10445.81
477.46	10597.95
477.64	10881.15
477.82	10970.09
478.00	11143.29
478.18	11269.68
478.36	11007.54
478.54	11255.64
478.72	11461.60
478.90	11384.37
479.08	11496.71
479.26	11475.65
479.44	11836.09
479.62	11595.01
479.80	11749.49
479.98	11864.18
480.16	11929.71
480.34	12016.31
480.52	12231.64
480.70	12126.32
480.88	12081.85
481.06	12222.28
481.24	12313.56
481.41	12643.57
481.59	12802.73
481.77	12765.28
481.95	12601.44
482.13	12922.10
482.31	12922.10
482.49	13039.12
482.67	13142.11
482.85	13053.17
483.03	13319.99
483.21	13483.83
483.39	13710.86
483.57	13720.22
483.74	13731.92
483.92	14075.98
484.10	13877.04
484.28	14305.35
484.46	14497.28
484.64	14377.91
484.82	14181.31
485.00	14375.57
485.18	14628.35
485.35	14714.95
485.53	14778.14
485.71	14810.91
485.89	15070.71
486.07	15101.14
486.25	14843.68
486.43	15328.17
486.61	15454.56
486.78	15538.82
486.96	15592.65
487.14	15815.00
487.32	15843.09
487.50	16032.67
487.68	16315.87
487.85	16535.88
488.03	16542.91
488.21	16709.08
488.39	16432.90
488.57	16823.77
488.75	16966.54
488.92	17088.25
489.10	17118.68
489.28	17245.07
489.46	17455.72
489.64	17289.54
489.81	17912.12
489.99	17799.77
490.17	18218.73
490.35	18291.29
490.53	18359.16
490.70	18324.05
490.88	18541.72
491.06	18731.31
491.24	18459.81
491.41	18562.79
491.59	18785.14
491.77	18750.03
491.95	18958.34
492.13	19023.87
492.30	19407.72
492.48	19318.78
492.66	19229.84
492.84	19360.91
493.01	19992.86
493.19	19779.87
493.37	19826.68
493.54	20219.89
493.72	20198.82
493.90	20575.65
494.08	20325.21
494.25	20334.57
494.43	20847.15
494.61	20776.94
494.79	21074.18
494.96	21326.96
495.14	21174.83
495.32	21200.57
495.49	21493.14
495.67	21453.35
495.85	21390.16
496.02	21762.30
496.20	21774.00
496.38	22157.85
496.55	22312.33
496.73	22359.14
496.91	22043.17
497.09	22127.42
497.26	22750.01
497.44	22672.77
497.62	22328.71
497.79	22724.26
497.97	22869.37
498.14	22890.44
498.32	22958.31
498.50	23168.96
498.67	23309.40
498.85	23426.42
499.03	23510.68
499.20	23452.17
499.38	23482.59
499.56	23812.61
499.73	24093.47
499.91	23789.20
500.08	24074.75
500.26	23969.43
500.44	24067.73
500.61	24109.86
500.79	23939.00
500.97	24311.14
501.14	24917.34
501.32	24568.60
501.49	24383.70
501.67	24503.07
501.84	24755.85
502.02	24709.04
502.20	25146.72
502.37	25238.00
502.55	25130.33
502.72	25135.01
502.90	25036.71
503.07	25261.40
503.25	25778.66
503.43	25434.60
503.60	25682.70
503.78	26026.76
503.95	25649.93
504.13	25649.93
504.30	25975.27
504.48	25921.43
504.65	25970.58
504.83	26127.40
505.01	26373.16
505.18	26176.55
505.36	26721.90
505.53	26630.62
505.71	26457.42
505.88	26707.85
506.06	26754.66
506.23	26899.78
506.41	26789.77
506.58	26845.94
506.76	27070.64
506.93	27316.39
507.11	26923.18
507.28	27122.13
507.46	27410.01
507.63	27211.07
507.81	27578.53
507.98	27358.52
508.16	27885.14
508.33	27707.26
508.50	28240.90
508.68	27634.71
508.85	28477.30
509.03	28119.20
509.20	27936.63
509.38	28432.83
509.55	28790.93
509.73	28591.98
509.90	28364.95
510.08	28608.37
510.25	28659.86
510.42	28851.78
510.60	29132.65
510.77	29340.96
510.95	29003.92
511.12	29090.52
511.30	29020.30
511.47	29490.75
511.64	29710.76
511.82	29701.40
511.99	28943.06
512.17	29617.14
512.34	29682.67
512.51	29450.96
512.69	29752.89
512.86	30169.51
513.04	30078.22
513.21	30230.36
513.38	30068.86
513.56	30155.46
513.73	30080.56
513.90	30132.06
514.08	30139.08
514.25	30478.46
514.43	30340.36
514.60	30445.69
514.77	30415.26
514.95	30562.72
515.12	30738.26
515.29	30520.59
515.47	31005.08
515.64	31112.74
515.81	30717.19
515.99	31140.83
516.16	30951.24
516.33	31012.10
516.51	31496.59
516.68	30958.27
516.85	31124.44
517.03	31557.44
517.20	31543.40
517.37	31463.82
517.54	31702.56
517.72	31658.09
517.89	31377.22
518.06	31606.59
518.24	31510.63
518.41	31480.21
518.58	31992.78
518.75	31936.61
518.93	31969.38
519.10	32301.73
519.27	32519.40
519.45	31887.46
519.62	32657.49
519.79	32816.65
519.96	32559.19
520.14	32627.07
520.31	32858.78
520.48	32442.17
520.65	32772.18
520.83	33046.02
521.00	32978.15
521.17	33022.62
521.34	32943.04
521.52	33682.65
521.69	33123.26
521.86	33296.46
522.03	33111.56
522.20	33202.84
522.38	33921.38
522.55	33584.35
522.72	33858.19
522.89	33656.90
523.07	33961.17
523.24	33472.00
523.41	33682.65
523.58	33645.20
523.75	33919.04
523.92	34263.10
524.10	34267.78
524.27	34394.17
524.44	34164.80
524.61	34302.89
524.78	34506.52
524.96	34705.46
525.13	34473.75
525.30	34796.74
525.47	34974.63
525.64	34824.83
525.81	35044.84
525.98	34768.66
526.16	34960.58
526.33	34909.09
526.50	34845.90
526.67	34480.77
526.84	34532.26
527.01	34913.77
527.18	34848.24
527.36	35849.99
527.53	35147.82
527.70	35681.47
527.87	35379.54
528.04	35718.92
528.21	35309.32
528.38	35211.02
528.55	35622.95
528.72	35580.82
528.89	35735.30
529.07	35742.32
529.24	35356.13
529.41	36282.98
529.58	35936.59
529.75	35730.62
529.92	36201.07
530.09	36168.30
530.26	36374.27
530.43	36259.58
530.60	35934.24
530.77	36348.52
530.94	36727.69
531.11	36425.76
531.28	36198.73
531.46	36802.58
531.63	36402.35
531.80	36432.78
531.97	36765.14
532.14	37188.77
532.31	36678.54
532.48	36844.71
532.65	37081.11
532.82	36694.92
532.99	37303.46
533.16	36760.45
533.33	37069.40
533.50	37244.94
533.67	37551.56
533.84	37123.24
534.01	36854.08
534.18	37158.34
534.35	37268.35
534.52	37237.92
534.69	37504.74
534.86	37577.30
535.03	37366.65
535.20	37928.38
535.37	37495.38
535.54	37806.67
535.71	37839.44
535.88	37577.30
536.05	37474.32
536.22	37832.42
536.38	37951.79
536.55	37942.42
536.72	37673.26
536.89	37404.10
537.06	37935.40
537.23	38178.82
537.40	38082.86
537.57	38075.84
537.74	37839.44
537.91	38813.10
538.08	38707.78
538.25	38195.20
538.42	38511.17
538.59	38628.20
538.75	37865.19
538.92	38808.42
539.09	38911.41
539.26	38829.49
539.43	38373.08
539.60	38363.72
539.77	38778.00
539.94	38873.96
540.11	38789.70
540.28	38663.31
540.44	38476.07
540.61	38962.90
540.78	38873.96
540.95	38948.85
541.12	38593.09
541.29	39449.73
541.46	38813.10
541.62	38871.62
541.79	39562.08
541.96	38553.30
542.13	39321.00
542.30	39047.16
542.47	39126.74
542.63	39276.53
542.80	39632.29
542.97	40027.84
543.14	39866.34
543.31	39885.07
543.48	39913.16
543.64	40407.01
543.81	39496.54
543.98	40006.78
544.15	39878.05
544.32	40142.53
544.48	40198.70
544.65	40301.68
544.82	40130.83
544.99	39541.01
545.16	40020.82
545.32	40032.52
545.49	40009.12
545.66	40589.57
545.83	40521.69
546.00	39896.77
546.16	40863.41
546.33	40287.64
546.50	40350.84
546.67	40149.55
546.83	40009.12
547.00	40395.31
547.17	40390.62
547.34	40704.26
547.50	40615.32
547.67	40652.76
547.84	40872.78
548.00	41347.90
548.17	41198.11
548.34	41160.66
548.51	41254.28
548.67	41237.90
548.84	41158.32
549.01	40870.43
549.18	41038.95
549.34	41345.56
549.51	41111.51
549.68	41525.78
549.84	41588.98
550.01	41434.50
550.18	41113.85
550.34	41315.14
550.51	41120.87
550.68	41036.61
550.84	41366.63
551.01	41404.08
551.18	41130.23
551.34	41493.02
551.51	41507.06
551.68	41722.39
551.84	42064.11
552.01	41191.09
552.18	41469.61
552.34	41464.93
552.51	41794.95
552.68	41757.50
552.84	42181.13
553.01	42241.99
553.18	41523.44
553.34	41701.32
553.51	41834.74
553.67	41745.80
553.84	42078.15
554.01	42038.36
554.17	42092.19
554.34	42092.19
554.51	42085.17
554.67	42506.47
554.84	41954.10
555.00	42101.56
555.17	41792.61
555.33	42241.99
555.50	42192.84
555.67	42433.91
555.83	42206.88
556.00	42216.24
556.16	42859.89
556.33	42433.91
556.50	42305.18
556.66	42511.15
556.83	42040.70
556.99	42466.68
557.16	42401.14
557.32	42635.20
557.49	42312.20
557.65	42206.88
557.82	42000.91
557.98	42850.53
558.15	42405.83
558.32	42572.00
558.48	42756.91
558.65	42609.45
558.81	42834.14
558.98	43180.54
559.14	42895.00
559.31	43023.73
559.47	42597.75
559.64	43115.01
559.80	42806.06
559.97	42759.25
560.13	42326.25
560.30	42572.00
560.46	42450.30
560.63	42684.35
560.79	43203.95
560.96	43182.88
561.12	43103.31
561.29	43257.78
561.45	43381.83
561.61	42983.94
561.78	43026.07
561.94	43189.91
562.11	42892.66
562.27	42904.36
562.44	43295.23
562.60	42946.49
562.77	43573.75
562.93	42862.23
563.10	43318.64
563.26	42782.65
563.42	43377.15
563.59	43143.09
563.75	43091.60
563.92	43175.86
564.08	43377.15
564.24	43562.05
564.41	43239.06
564.57	43082.24
564.74	43166.50
564.90	43859.30
565.07	43335.02
565.23	43203.95
565.39	43030.75
565.56	43522.26
565.72	43988.03
565.88	43604.18
566.05	43592.48
566.21	43150.12
566.38	43143.09
566.54	43189.91
566.70	43459.07
566.87	43697.80
567.03	43693.12
567.19	43643.97
567.36	43971.64
567.52	43700.14
567.68	43629.93
567.85	43674.40
568.01	43304.59
568.17	43508.22
568.34	43969.30
568.50	43185.22
568.66	43768.02
568.83	43323.32
568.99	43583.12
569.15	43662.69
569.32	43295.23
569.48	43482.47
569.64	44072.29
569.81	43749.29
569.97	43871.00
570.13	43297.57
570.30	43435.66
570.46	43665.03
570.62	43323.32
570.78	43550.35
570.95	43164.16
571.11	44126.12
571.27	43775.04
571.43	43592.48
571.60	44112.08
571.76	43559.71
571.92	43725.89
572.09	43608.86
572.25	43566.73
572.41	43674.40
572.57	43667.37
572.74	44252.51
572.90	43941.22
573.06	43693.12
573.22	44126.12
573.38	43779.72
573.55	43625.25
573.71	43985.69
573.87	43985.69
574.03	43931.86
574.20	43995.05
574.36	43962.28
574.52	43948.24
574.68	43854.62
574.84	44343.79
575.01	43725.89
575.17	44371.88
575.33	43943.56
575.49	43613.54
575.65	44278.25
575.82	44217.40
575.98	43845.26
576.14	44165.91
576.30	44294.64
576.46	43826.53
576.62	43739.93
576.79	43920.15
576.95	44062.93
577.11	43817.17
577.27	43704.82
577.43	43810.15
577.59	43803.13
577.75	44048.88
577.92	43941.22
578.08	44083.99
578.24	43852.28
578.40	43791.42
578.56	43906.11
578.72	44158.89
578.88	44460.82
579.04	43667.37
579.21	43938.88
579.37	43672.06
579.53	44109.74
579.69	44315.70
579.85	44053.56
580.01	44067.61
580.17	44011.43
580.33	44245.49
580.49	44243.15
580.65	43976.33
580.82	44053.56
580.98	44343.79
581.14	43590.14
581.30	44093.35
581.46	43964.62
581.62	44198.68
581.78	44116.76
581.94	44626.99
582.10	44463.16
582.26	44137.82
582.42	44229.10
582.58	44238.47
582.74	43761.00
582.90	43983.35
583.06	44491.24
583.22	44135.48
583.38	44442.09
583.54	44018.46
583.70	44210.38
583.86	43679.08
584.02	43601.84
584.18	44086.33
584.34	44416.35
584.50	44259.53
584.66	43817.17
584.82	44168.25
584.98	44617.63
585.14	43997.39
585.30	43973.98
585.46	43810.15
585.62	43981.01
585.78	44591.89
585.94	43859.30
586.10	43777.38
586.26	44196.34
586.42	44212.72
586.58	44119.10
586.74	44151.87
586.90	44016.11
587.06	43625.25
587.22	44102.71
587.38	43899.09
587.54	44680.83
587.70	44381.24
587.86	44545.08
588.02	44189.31
588.18	44357.83
588.34	44341.45
588.49	44041.86
588.65	44259.53
588.81	43777.38
588.97	43988.03
589.13	43941.22
589.29	44083.99
589.45	44278.25
589.61	44416.35
589.77	44582.52
589.93	44299.32
590.08	44404.64
590.24	44573.16
590.40	44500.61
