SpectraSuite Data File
++++++++++++++++++++++++++++++++++++
Date: Fri Oct 25 11:26:23 EDT 2013
User: price-jones
Dark Spectrum Present: No
Reference Spectrum Present: No
Number of Sampled Component Spectra: 1
Spectrometers: USB2+H05261
Integration Time (usec): 100000 (USB2+H05261)
Spectra Averaged: 1 (USB2+H05261)
Boxcar Smoothing: 0 (USB2+H05261)
Correct for Electrical Dark: No (USB2+H05261)
Strobe/Lamp Enabled: No (USB2+H05261)
Correct for Detector Non-linearity: No (USB2+H05261)
Correct for Stray Light: No (USB2+H05261)
Number of Pixels in Processed Spectrum: 2048
>>>>>Begin Processed Spectral Data<<<<<
365.73	224.69
365.92	224.69
366.12	224.69
366.32	152.13
366.52	149.79
366.72	252.78
366.91	86.60
367.11	117.03
367.31	163.84
367.51	184.90
367.70	149.79
367.90	168.52
368.10	138.09
368.30	128.73
368.49	140.43
368.69	133.41
368.89	98.30
369.09	161.50
369.28	234.05
369.48	184.90
369.68	163.84
369.87	217.67
370.07	217.67
370.27	243.42
370.47	330.02
370.66	547.69
370.86	641.31
371.06	667.05
371.25	711.52
371.45	683.44
371.65	629.60
371.84	655.35
372.04	683.44
372.24	791.10
372.44	692.80
372.63	774.72
372.83	692.80
373.03	753.65
373.22	697.48
373.42	737.27
373.62	753.65
373.81	758.33
374.01	732.59
374.21	753.65
374.40	765.36
374.60	828.55
374.79	877.70
374.99	858.98
375.19	863.66
375.38	873.02
375.58	851.96
375.78	866.00
375.97	837.91
376.17	861.32
376.37	868.34
376.56	784.08
376.76	898.77
376.95	961.96
377.15	898.77
377.35	884.72
377.54	947.92
377.74	971.32
377.93	940.90
378.13	875.36
378.33	997.07
378.52	1015.79
378.72	945.58
378.91	978.34
379.11	910.47
379.31	1036.86
379.50	929.19
379.70	971.32
379.89	961.96
380.09	833.23
380.28	954.94
380.48	999.41
380.68	950.26
380.87	1050.90
381.07	1060.26
381.26	1076.65
381.46	1015.79
381.65	1043.88
381.85	1050.90
382.04	1034.52
382.24	1067.28
382.43	1107.07
382.63	1069.62
382.83	1130.48
383.02	1100.05
383.22	1153.88
383.41	1125.80
383.61	1151.54
383.80	1184.31
384.00	1090.69
384.19	1064.94
384.39	1125.80
384.58	1083.67
384.78	1170.27
384.97	1163.25
385.17	1170.27
385.36	1111.75
385.56	1177.29
385.75	1217.08
385.95	1172.61
386.14	1235.80
386.34	1135.16
386.53	1291.98
386.72	1193.67
386.92	1369.21
387.11	1291.98
387.31	1198.35
387.50	1277.93
387.70	1210.06
387.89	1226.44
388.09	1226.44
388.28	1277.93
388.48	1188.99
388.67	1252.19
388.86	1362.19
389.06	1355.17
389.25	1357.51
389.45	1320.06
389.64	1352.83
389.84	1355.17
390.03	1401.98
390.22	1352.83
390.42	1291.98
390.61	1315.38
390.81	1359.85
391.00	1378.58
391.19	1446.45
391.39	1439.43
391.58	1493.26
391.78	1420.71
391.97	1542.41
392.16	1430.07
392.36	1561.14
392.55	1507.30
392.75	1483.90
392.94	1544.75
393.13	1533.05
393.33	1497.94
393.52	1516.67
393.71	1652.42
393.91	1614.97
394.10	1568.16
394.29	1645.40
394.49	1717.95
394.68	1673.48
394.88	1589.22
395.07	1610.29
395.26	1701.57
395.46	1617.31
395.65	1767.10
395.84	1755.40
396.04	1839.66
396.23	1713.27
396.42	1783.49
396.62	1727.32
396.81	1837.32
397.00	1750.72
397.19	1727.32
397.39	1818.60
397.58	1905.20
397.77	1820.94
397.97	1802.21
398.16	1888.81
398.35	1879.45
398.55	1832.64
398.74	1881.79
398.93	1937.96
399.12	1905.20
399.32	1867.75
399.51	1898.17
399.70	2069.03
399.90	1891.15
400.09	1961.37
400.28	1982.43
400.47	2036.27
400.67	2024.56
400.86	2050.31
401.05	2087.76
401.24	2132.23
401.44	2050.31
401.63	2043.29
401.82	2090.10
402.01	2080.74
402.21	2115.84
402.40	2031.58
402.59	2230.53
402.78	2162.66
402.97	2150.95
403.17	2289.04
403.36	2272.66
403.55	2223.51
403.74	2331.17
403.93	2361.60
404.13	2396.71
404.32	2387.35
404.51	2382.67
404.70	2373.30
404.89	2392.03
405.09	2382.67
405.28	2459.90
405.47	2499.69
405.66	2487.99
405.85	2600.34
406.05	2513.74
406.24	2612.04
406.43	2569.91
406.62	2527.78
406.81	2640.12
407.00	2649.49
407.20	2597.99
407.39	2642.46
407.58	2677.57
407.77	2724.38
407.96	2771.19
408.15	2836.73
408.34	2665.87
408.54	2843.75
408.73	2766.51
408.92	2782.90
409.11	2848.43
409.30	3016.95
409.49	2715.02
409.68	2832.05
409.87	2942.05
410.07	2897.58
410.26	2949.08
410.45	2932.69
410.64	3033.33
410.83	3075.46
411.02	2970.14
411.21	3152.70
411.40	3131.64
411.59	3143.34
411.78	3129.30
411.98	3143.34
412.17	3258.03
412.36	3297.81
412.55	3302.50
412.74	3417.18
412.93	3330.58
413.12	3339.94
413.31	3559.95
413.50	3393.78
413.69	3517.83
413.88	3611.45
414.07	3515.48
414.26	3637.19
414.45	3676.98
414.64	3613.79
414.83	3611.45
415.02	3606.77
415.22	3784.65
415.41	3763.58
415.60	3873.59
415.79	3904.01
415.98	3875.93
416.17	3901.67
416.36	3983.59
416.55	3941.46
416.74	4086.58
416.93	4044.45
417.12	3964.87
417.31	4177.86
417.50	4081.89
417.69	4454.04
417.88	4107.64
418.07	4166.15
418.26	4210.62
418.45	4327.65
418.64	4404.89
418.83	4470.42
419.02	4493.83
419.21	4458.72
419.39	4479.79
419.58	4348.72
419.77	4346.37
419.96	4578.09
420.15	4561.70
420.34	4552.34
420.53	4517.23
420.72	4610.86
420.91	4692.77
421.10	4650.64
421.29	4781.71
421.48	4690.43
421.67	4725.54
421.86	4713.84
422.05	4767.67
422.24	4798.10
422.43	4823.84
422.61	4903.42
422.80	4947.89
422.99	4751.29
423.18	4929.17
423.37	4952.57
423.56	4814.48
423.75	4964.28
423.94	4854.27
424.13	4603.83
424.32	4739.58
424.50	4940.87
424.69	5146.84
424.88	5020.45
425.07	4837.89
425.26	4868.31
425.45	4791.08
425.64	4903.42
425.83	4870.65
426.01	5064.92
426.20	4938.53
426.39	5013.43
426.58	4975.98
426.77	5153.86
426.96	4950.23
427.15	5125.77
427.33	5282.59
427.52	5114.07
427.71	5411.32
427.90	5298.97
428.09	5394.93
428.28	5399.62
428.46	5383.23
428.65	5327.06
428.84	5427.70
429.03	5504.94
429.22	5366.85
429.40	5352.81
429.59	5458.13
429.78	5418.34
429.97	5298.97
430.16	5303.65
430.34	5533.03
430.53	5757.72
430.72	5542.39
430.91	5472.17
431.10	5540.05
431.28	5841.98
431.47	5549.41
431.66	5767.08
431.85	5748.36
432.03	5886.45
432.22	5856.02
432.41	5977.73
432.60	5830.27
432.79	5944.96
432.97	6012.84
433.16	5973.05
433.35	5919.21
433.54	6164.97
433.72	6078.37
433.91	5996.45
434.10	6120.50
434.28	5996.45
434.47	6207.10
434.66	6106.46
434.85	6099.44
435.03	6441.15
435.22	6230.51
435.41	6321.79
435.59	6256.25
435.78	6389.66
435.97	6380.30
436.16	6401.37
436.34	6387.32
436.53	6464.56
436.72	6647.12
436.90	6263.27
437.09	6588.61
437.28	6413.07
437.46	6581.59
437.65	6665.85
437.84	6803.94
438.02	6663.51
438.21	6675.21
438.40	6689.25
438.58	6846.07
438.77	6949.05
438.96	6850.75
439.14	7110.55
439.33	7199.49
439.52	7215.87
439.70	7035.65
439.89	7337.58
440.08	7569.29
440.26	7236.94
440.45	7370.35
440.63	7405.46
440.82	7674.62
441.01	7431.20
441.19	7625.47
441.38	7646.53
441.57	7686.32
441.75	7672.28
441.94	7698.02
442.12	7744.83
442.31	7934.42
442.50	8196.56
442.68	8002.29
442.87	7866.54
443.05	8135.70
443.24	8121.66
443.43	8018.68
443.61	8170.81
443.80	8498.49
443.98	7878.24
444.17	7789.30
444.35	7934.42
444.54	8339.33
444.73	8168.47
444.91	8325.29
445.10	8212.94
445.28	8315.92
445.47	8203.58
445.65	8161.45
445.84	8315.92
446.02	8505.51
446.21	8243.37
446.39	8367.42
446.58	8416.57
446.77	8519.55
446.95	8149.75
447.14	8381.46
447.32	8613.17
447.51	8276.13
447.69	8355.71
447.88	8568.70
448.06	8688.07
448.25	8470.40
448.43	8526.57
448.62	8571.04
448.80	8395.50
448.99	8580.40
449.17	8622.53
449.36	8484.44
449.54	8767.65
449.73	8779.35
449.91	8802.75
450.10	8903.40
450.28	8973.61
450.46	8994.68
450.65	8847.22
450.83	9015.74
451.02	9004.04
451.20	9102.34
451.39	8954.89
451.57	9008.72
451.76	8933.82
451.94	9032.13
452.13	9320.01
452.31	9320.01
452.49	9109.36
452.68	9439.38
452.86	8908.08
453.05	9252.14
453.23	9472.15
453.42	9394.91
453.60	9231.07
453.78	9647.69
453.97	9273.20
454.15	9455.76
454.34	9369.16
454.52	9640.67
454.70	9713.22
454.89	9734.29
455.07	9717.90
455.26	9818.55
455.44	9914.51
455.62	9837.27
455.81	9741.31
455.99	10101.75
456.17	9806.84
456.36	9865.36
456.54	9977.70
456.73	10174.31
456.91	10225.80
457.09	10574.54
457.28	10445.81
457.46	10012.81
457.64	10473.90
457.83	10209.42
458.01	10200.05
458.19	10593.26
458.38	10527.73
458.56	10806.25
458.74	10682.20
458.93	10724.33
459.11	10480.92
459.29	10455.17
459.48	10869.45
459.66	10677.52
459.84	10729.02
460.03	10930.30
460.21	10853.06
460.39	10949.03
460.57	10934.98
460.76	11073.07
460.94	11180.74
461.12	11110.52
461.31	11084.78
461.49	11187.76
461.67	10916.26
461.85	11433.52
462.04	11283.72
462.22	11695.66
462.40	11515.44
462.59	11356.28
462.77	11405.43
462.95	11468.62
463.13	11557.57
463.32	11393.73
463.50	11768.21
463.68	11676.93
463.86	11817.36
464.05	11648.85
464.23	11587.99
464.41	11679.27
464.59	11667.57
464.78	11894.60
464.96	11978.86
465.14	11784.60
465.32	11836.09
465.50	11934.39
465.69	12128.66
465.87	12154.40
466.05	12175.47
466.23	11936.73
466.41	12086.53
466.60	12573.36
466.78	11948.43
466.96	12219.94
467.14	12397.82
467.32	12531.23
467.51	12149.72
467.69	12051.42
467.87	12381.43
468.05	12446.97
468.23	12259.73
468.41	12269.09
468.60	12645.91
468.78	12802.73
468.96	12573.36
469.14	12671.66
469.32	12758.26
469.50	12521.87
469.69	12994.65
469.87	12985.29
470.05	12908.05
470.23	12849.54
470.41	13284.88
470.59	13181.90
470.77	13114.02
470.95	13029.76
471.14	13415.95
471.32	13224.03
471.50	13429.99
471.68	13528.30
471.86	13589.15
472.04	13687.45
472.22	13680.43
472.40	13659.37
472.58	13596.17
472.77	13841.93
472.95	14064.28
473.13	14532.39
473.31	14197.69
473.49	13984.70
473.67	14228.12
473.85	14298.33
474.03	14450.47
474.21	14403.66
474.39	14518.34
474.57	14642.39
474.75	14820.27
474.93	14771.12
475.12	14853.04
475.30	15208.80
475.48	15035.60
475.66	14998.15
475.84	15222.84
476.02	15138.58
476.20	15119.86
476.38	15426.47
476.56	15793.94
476.74	15800.96
476.92	15634.78
477.10	15894.58
477.28	16079.48
477.46	16035.01
477.64	16203.53
477.82	16617.80
478.00	16858.88
478.18	16704.40
478.36	16709.08
478.54	16952.50
478.72	17050.80
478.90	17336.35
479.08	17771.69
479.26	17334.01
479.44	17525.93
479.62	17708.49
479.80	18068.94
479.98	18171.92
480.16	18459.81
480.34	18155.54
480.52	18530.02
480.70	18420.02
480.88	18530.02
481.06	18370.86
481.24	18689.18
481.41	18752.37
481.59	19190.05
481.77	19176.01
481.95	19257.93
482.13	19651.14
482.31	19527.09
482.49	20020.94
482.67	20126.27
482.85	20505.43
483.03	20669.27
483.21	20823.75
483.39	20898.64
483.57	20526.50
483.74	20900.98
483.92	21228.66
484.10	21125.68
484.28	21589.10
484.46	21652.30
484.64	22017.42
484.82	22099.34
485.00	22207.00
485.18	22253.81
485.35	22696.17
485.53	22415.31
485.71	22747.67
485.89	23304.71
486.07	22913.84
486.25	23058.96
486.43	23396.00
486.61	23606.64
486.78	23627.71
486.96	23667.50
487.14	24287.74
487.32	24599.03
487.50	24730.10
487.68	24865.85
487.85	25144.38
488.03	25221.61
488.21	25558.65
488.39	25406.52
488.57	26157.83
488.75	26015.05
488.92	26459.76
489.10	26356.77
489.28	26635.30
489.46	26883.39
489.64	27056.59
489.81	27534.06
489.99	27381.93
490.17	27578.53
490.35	27850.03
490.53	27761.09
490.70	28360.27
490.88	27850.03
491.06	28648.16
491.24	28507.72
491.41	28634.11
491.59	29008.60
491.77	29034.35
491.95	29687.36
492.13	28992.22
492.30	30087.59
492.48	29645.23
492.66	30082.91
492.84	30368.45
493.01	30401.22
493.19	30321.64
493.37	30572.08
493.54	31007.42
493.72	31234.45
493.90	31058.91
494.08	31267.22
494.25	31735.32
494.43	31573.83
494.61	32142.58
494.79	32283.01
494.96	32451.53
495.14	32507.70
495.32	32884.53
495.49	33116.24
495.67	32940.70
495.85	33294.12
496.02	33275.40
496.20	33460.30
496.38	33823.08
496.55	33844.15
496.73	34602.48
496.91	34555.67
497.09	34630.57
497.26	34878.66
497.44	34508.86
497.62	35035.48
497.79	35510.61
497.97	35381.88
498.14	35517.63
498.32	35501.25
498.50	35737.64
498.67	36400.01
498.85	36329.80
499.03	36238.51
499.20	36257.24
499.38	36374.27
499.56	36921.95
499.73	36872.80
499.91	37476.66
500.08	37113.87
500.26	36912.59
500.44	37207.50
500.61	37390.06
500.79	37434.53
500.97	37420.48
501.14	38146.05
501.32	38141.37
501.49	38036.05
501.67	38387.13
501.84	38408.19
502.02	38635.22
502.20	39033.11
502.37	38593.09
502.55	39021.41
502.72	39124.40
502.90	39421.64
503.07	39079.92
503.25	39016.73
503.43	39206.31
503.60	39751.66
503.78	39615.91
503.95	39714.21
504.13	40339.13
504.30	40039.54
504.48	40079.33
504.65	40442.12
504.83	41099.81
505.01	41193.43
505.18	40921.93
505.36	41134.92
505.53	40350.84
505.71	41343.22
505.88	41500.04
506.06	41034.27
506.23	41434.50
506.41	41614.72
506.58	41926.02
506.76	41673.24
506.93	42005.59
507.11	41902.61
507.28	42417.53
507.46	42459.66
507.63	42808.40
507.81	42925.42
507.98	42768.61
508.16	43103.31
508.33	42911.38
508.50	43180.54
508.68	43110.33
508.85	43302.25
509.03	43278.85
509.20	43744.61
509.38	43943.56
509.55	43856.96
509.73	44163.57
509.90	44584.86
510.08	44245.49
510.25	44465.50
510.42	44362.51
510.60	44643.38
510.77	44615.29
510.95	44858.71
511.12	45144.25
511.30	45088.08
511.47	45354.90
511.64	45165.32
511.82	45787.90
511.99	45621.72
512.17	45720.02
512.34	45495.33
512.51	45886.20
512.69	46302.82
512.86	46160.05
513.04	46153.02
513.21	46452.61
513.38	46234.94
513.56	46534.53
513.73	46494.74
513.90	46674.96
514.08	46490.06
514.25	47358.40
514.43	46911.36
514.60	46969.87
514.77	46894.97
514.95	47555.00
515.12	47281.16
515.29	47292.86
515.47	47222.65
515.64	47622.88
515.81	47639.26
515.99	48095.67
516.16	48130.78
516.33	47971.62
516.51	47896.72
516.68	48060.56
516.85	48172.91
517.03	48526.33
517.20	48472.49
517.37	48332.06
517.54	48437.39
517.72	48729.95
517.89	48753.36
518.06	48807.19
518.24	48626.97
518.41	48753.36
518.58	49181.68
518.75	49174.66
518.93	49366.58
519.10	49013.16
519.27	49549.14
519.45	49177.00
519.62	49734.04
519.79	49837.03
519.96	49717.66
520.14	49799.58
520.31	49722.34
520.48	50244.28
520.65	49703.62
520.83	50433.86
521.00	50497.06
521.17	50068.74
521.34	50443.23
521.52	50747.50
521.69	50859.84
521.86	50731.11
522.03	51171.13
522.20	51246.03
522.38	51009.64
522.55	51091.55
522.72	51023.68
522.89	51152.41
523.07	51482.42
523.24	51363.06
523.41	51543.28
523.58	51262.41
523.75	51447.32
523.92	51517.53
524.10	51679.03
524.27	51915.42
524.44	51782.01
524.61	51646.26
524.78	51798.40
524.96	51894.36
525.13	52060.54
525.30	52191.61
525.47	52449.06
525.64	52215.01
525.81	52566.09
525.98	52671.42
526.16	52161.18
526.33	52435.02
526.50	52713.55
526.67	52456.09
526.84	52561.41
527.01	52200.97
527.18	52697.16
527.36	52526.30
527.53	52905.47
527.70	53146.54
527.87	53202.72
528.04	53160.59
528.21	53375.92
528.38	52903.13
528.55	53357.19
528.72	53071.65
528.89	53256.55
529.07	53155.91
529.24	53165.27
529.41	53453.15
529.58	53251.87
529.75	53043.56
529.92	53317.40
530.09	53436.77
530.26	53757.42
530.43	53815.94
530.60	53366.55
530.77	53773.81
530.94	53815.94
531.11	53837.00
531.28	53759.76
531.46	54138.93
531.63	53977.43
531.80	54012.54
531.97	53947.01
532.14	54356.60
532.31	54064.03
532.48	54323.83
532.65	54309.79
532.82	54117.87
532.99	54532.14
533.16	54375.33
533.33	54539.16
533.50	54511.08
533.67	54677.25
533.84	54440.86
534.01	54791.94
534.18	54761.51
534.35	55070.46
534.52	55018.97
534.69	54904.29
534.86	55365.37
535.03	54747.47
535.20	55098.55
535.37	55215.58
535.54	55136.00
535.71	55096.21
535.88	55047.06
536.05	55025.99
536.22	55281.11
536.38	55290.48
536.55	55320.90
536.72	55356.01
536.89	55306.86
537.06	55222.60
537.23	55634.53
537.40	55400.48
537.57	55461.33
537.74	55391.12
537.91	55910.72
538.08	55973.91
538.25	55604.11
538.42	55828.80
538.59	55910.72
538.75	55519.85
538.92	56039.45
539.09	55955.19
539.26	55793.69
539.43	55973.91
539.60	56074.55
539.77	56109.66
539.94	56128.39
540.11	56083.92
540.28	56268.82
540.44	56229.03
540.61	56240.73
540.78	56222.01
540.95	56226.69
541.12	56102.64
541.29	56198.60
541.46	56161.15
541.62	56327.33
541.79	56442.02
541.96	56086.26
542.13	56460.74
542.30	56488.83
542.47	56640.96
542.63	56655.01
542.80	56872.68
542.97	56839.91
543.14	57144.18
543.31	56966.30
543.48	56935.87
543.64	57176.95
543.81	57181.63
543.98	57080.98
544.15	57034.17
544.32	57130.14
544.48	57230.78
544.65	57202.69
544.82	57427.38
544.99	56970.98
545.16	57429.72
545.32	57202.69
545.49	57626.33
545.66	57649.74
545.83	57455.47
546.00	57633.35
546.16	57403.98
546.33	57303.34
546.50	57027.15
546.67	57345.47
546.83	57193.33
547.00	57645.05
547.17	57422.70
547.34	57471.85
547.50	57696.55
547.67	57937.62
547.84	57827.62
548.00	57944.64
548.17	57804.21
548.34	57773.78
548.51	58174.02
548.67	57975.07
548.84	57865.06
549.01	57851.02
549.18	57944.64
549.34	58176.36
549.51	57991.45
549.68	58279.34
549.84	58202.10
550.01	58237.21
550.18	58085.07
550.34	58237.21
550.51	58199.76
550.68	57968.05
550.84	58197.42
551.01	58403.39
551.18	58396.37
551.34	58279.34
551.51	58274.66
551.68	58433.81
551.84	58319.13
552.01	58248.91
552.18	58487.65
552.34	58134.23
552.51	58482.97
552.68	58164.65
552.84	58394.03
553.01	58450.20
553.18	58560.20
553.34	58752.13
553.51	58506.37
553.67	58777.87
553.84	58688.93
554.01	58941.71
554.17	58927.67
554.34	58576.59
554.51	58745.11
554.67	58759.15
554.84	58958.09
555.00	58894.90
555.17	58670.21
555.33	58756.81
555.50	58876.18
555.67	58789.58
555.83	58735.74
556.00	59051.72
556.16	59224.92
556.33	58901.92
556.50	59030.65
556.66	59208.53
556.83	59075.12
556.99	59253.00
557.16	59260.02
557.32	59276.41
557.49	59505.78
557.65	59044.69
557.82	59381.73
557.98	59192.15
558.15	59320.88
558.32	59381.73
558.48	59224.92
558.65	59208.53
558.81	59423.86
558.98	59222.58
559.14	59297.47
559.31	59454.29
559.47	59526.84
559.64	59388.75
559.80	59309.18
559.97	59571.32
560.13	59620.47
560.30	59442.59
560.46	59735.15
560.63	59643.87
560.79	59496.42
560.96	59519.82
561.12	59524.50
561.29	59641.53
561.45	59693.02
561.61	59721.11
561.78	59568.97
561.94	59386.41
562.11	59716.43
562.27	59681.32
562.44	59688.34
562.60	60011.34
562.77	59627.49
562.93	59693.02
563.10	59936.44
563.26	59664.94
563.42	60156.45
563.59	59913.03
563.75	59597.06
563.92	59805.37
564.08	59770.26
564.24	60221.98
564.41	60001.97
564.57	59760.90
564.74	60058.15
564.90	60224.32
565.07	59943.46
565.23	60083.89
565.39	59739.83
565.56	60018.36
565.72	59955.16
565.88	60140.07
566.05	59882.61
566.21	59976.23
566.38	60018.36
566.54	59997.29
566.70	60268.79
566.87	60137.72
567.03	60107.30
567.19	60346.03
567.36	60266.45
567.52	60104.96
567.68	60221.98
567.85	60121.34
568.01	59994.95
568.17	60051.12
568.34	60168.15
568.50	59987.93
568.66	59985.59
568.83	60149.43
568.99	60221.98
569.15	60210.28
569.32	60107.30
569.48	60144.75
569.64	60434.97
569.81	60095.60
569.97	60264.11
570.13	60381.14
570.30	60128.36
570.46	60210.28
570.62	60079.21
570.78	60275.82
570.95	60324.97
571.11	60425.61
571.27	60378.80
571.43	60385.82
571.60	60463.06
571.76	60322.63
571.92	60271.14
572.09	60296.88
572.25	60463.06
572.41	60456.04
572.57	60416.25
572.74	60603.49
572.90	60392.84
573.06	60168.15
573.22	60432.63
573.38	60402.21
573.55	60493.49
573.71	60512.21
573.87	60690.09
574.03	60243.05
574.20	60348.37
574.36	60495.83
574.52	60727.54
574.68	60470.08
574.84	60547.32
575.01	60671.37
575.17	60797.76
575.33	60395.18
575.49	60388.16
575.65	60430.29
575.82	60575.40
575.98	60790.73
576.14	60732.22
576.30	60591.79
576.46	60650.30
576.62	60617.53
576.79	60502.85
576.95	60486.46
577.11	60573.06
577.27	60694.77
577.43	60678.39
577.59	60697.11
577.75	60479.44
577.92	60460.72
578.08	60725.20
578.24	60573.06
578.40	60626.90
578.56	60818.82
578.72	60814.14
578.88	60624.56
579.04	60720.52
579.21	60753.29
579.37	60671.37
579.53	60769.67
579.69	60722.86
579.85	60495.83
580.01	60786.05
580.17	60605.83
580.33	60821.16
580.49	60746.26
580.65	60739.24
580.82	60844.57
580.98	60395.18
581.14	60678.39
581.30	60781.37
581.46	60867.97
581.62	60800.10
581.78	60570.72
581.94	60697.11
582.10	60795.42
582.26	60732.22
582.42	60617.53
582.58	60659.66
582.74	60781.37
582.90	60828.18
583.06	60863.29
583.22	60591.79
583.38	60741.58
583.54	60537.96
583.70	60800.10
583.86	60690.09
584.02	60779.03
584.18	60910.10
584.34	60725.20
584.50	60928.83
584.66	60418.59
584.82	60699.45
584.98	61027.13
585.14	60872.65
585.30	60788.39
585.46	60867.97
585.62	61001.38
585.78	60977.98
585.94	60664.35
586.10	60835.20
586.26	60842.23
586.42	60853.93
586.58	60928.83
586.74	60846.91
586.90	60699.45
587.06	60907.76
587.22	60865.63
587.38	60814.14
587.54	60889.04
587.70	61062.24
587.86	61038.83
588.02	60947.55
588.18	61179.26
588.34	60905.42
588.49	60830.52
