SpectraSuite Data File
++++++++++++++++++++++++++++++++++++
Date: Fri Oct 25 11:22:47 EDT 2013
User: price-jones
Dark Spectrum Present: No
Reference Spectrum Present: No
Number of Sampled Component Spectra: 1
Spectrometers: USB2+H05261
Integration Time (usec): 100000 (USB2+H05261)
Spectra Averaged: 1 (USB2+H05261)
Boxcar Smoothing: 0 (USB2+H05261)
Correct for Electrical Dark: No (USB2+H05261)
Strobe/Lamp Enabled: No (USB2+H05261)
Correct for Detector Non-linearity: No (USB2+H05261)
Correct for Stray Light: No (USB2+H05261)
Number of Pixels in Processed Spectrum: 2048
>>>>>Begin Processed Spectral Data<<<<<
365.73	238.73
365.92	238.73
366.12	238.73
366.32	201.29
366.52	95.96
366.72	72.56
366.91	81.92
367.11	102.98
367.31	102.98
367.51	107.66
367.70	88.94
367.90	110.01
368.10	39.79
368.30	138.09
368.49	110.01
368.69	173.20
368.89	110.01
369.09	140.43
369.28	138.09
369.48	124.05
369.68	201.29
369.87	241.08
370.07	187.24
370.27	243.42
370.47	294.91
370.66	540.66
370.86	653.01
371.06	617.90
371.25	723.23
371.45	617.90
371.65	608.54
371.84	653.01
372.04	601.52
372.24	692.80
372.44	688.12
372.63	767.70
372.83	863.66
373.03	795.78
373.22	737.27
373.42	718.54
373.62	798.12
373.81	685.78
374.01	842.59
374.21	863.66
374.40	683.44
374.60	826.21
374.79	809.83
374.99	807.48
375.19	826.21
375.38	758.33
375.58	807.48
375.78	821.53
375.97	877.70
376.17	933.87
376.37	894.08
376.56	868.34
376.76	884.72
376.95	788.76
377.15	823.87
377.35	961.96
377.54	917.49
377.74	978.34
377.93	873.02
378.13	1006.43
378.33	945.58
378.52	987.71
378.72	854.30
378.91	919.83
379.11	966.64
379.31	936.21
379.50	898.77
379.70	1041.54
379.89	1036.86
380.09	990.05
380.28	1043.88
380.48	1006.43
380.68	1034.52
380.87	959.62
381.07	957.28
381.26	1083.67
381.46	978.34
381.65	1008.77
381.85	1090.69
382.04	1078.99
382.24	1076.65
382.43	1102.39
382.63	936.21
382.83	990.05
383.02	980.68
383.22	1046.22
383.41	1139.84
383.61	1088.35
383.80	1071.97
384.00	1177.29
384.19	1107.07
384.39	1165.59
384.58	1109.41
384.78	1062.60
384.97	1093.03
385.17	1207.72
385.36	1100.05
385.56	1132.82
385.75	1121.12
385.95	1263.89
386.14	1214.74
386.34	1137.50
386.53	1228.78
386.72	1144.52
386.92	1289.64
387.11	1167.93
387.31	1170.27
387.50	1121.12
387.70	1259.21
387.89	1284.95
388.09	1301.34
388.28	1294.32
388.48	1277.93
388.67	1376.24
388.86	1306.02
389.06	1336.45
389.25	1362.19
389.45	1376.24
389.64	1331.76
389.84	1303.68
390.03	1469.86
390.22	1404.32
390.42	1322.40
390.61	1413.68
390.81	1371.55
391.00	1434.75
391.19	1465.18
391.39	1446.45
391.58	1497.94
391.78	1444.11
391.97	1556.46
392.16	1483.90
392.36	1490.92
392.55	1413.68
392.75	1537.73
392.94	1511.99
393.13	1514.33
393.33	1542.41
393.52	1472.20
393.71	1533.05
393.91	1675.82
394.10	1488.58
394.29	1511.99
394.49	1519.01
394.68	1612.63
394.88	1636.03
395.07	1678.16
395.26	1661.78
395.46	1596.25
395.65	1603.27
395.84	1717.95
396.04	1811.57
396.23	1769.44
396.42	1809.23
396.62	1909.88
396.81	1689.87
397.00	1797.53
397.19	1746.04
397.39	1839.66
397.58	1849.02
397.77	1919.24
397.97	1825.62
398.16	1708.59
398.35	1902.86
398.55	1902.86
398.74	1928.60
398.93	1916.90
399.12	1865.41
399.32	1966.05
399.51	1895.83
399.70	1989.46
399.90	1947.33
400.09	1949.67
400.28	2008.18
400.47	1970.73
400.67	2146.27
400.86	2097.12
401.05	2069.03
401.24	2136.91
401.44	2090.10
401.63	2111.16
401.82	2225.85
402.01	2120.53
402.21	2139.25
402.40	2186.06
402.59	2083.08
402.78	2181.38
402.97	2211.81
403.17	2244.57
403.36	2448.20
403.55	2289.04
403.74	2424.80
403.93	2368.62
404.13	2340.54
404.32	2443.52
404.51	2457.56
404.70	2305.43
404.89	2424.80
405.09	2572.25
405.28	2387.35
405.47	2392.03
405.66	2609.70
405.85	2518.42
406.05	2499.69
406.24	2553.52
406.43	2553.52
406.62	2649.49
406.81	2668.21
407.00	2593.31
407.20	2544.16
407.39	2647.15
407.58	2719.70
407.77	2808.64
407.96	2752.47
408.15	2740.77
408.34	2672.89
408.54	2768.85
408.73	2782.90
408.92	2899.92
409.11	2818.00
409.30	2890.56
409.49	3030.99
409.68	2988.86
409.87	2935.03
410.07	2974.82
410.26	2958.44
410.45	3033.33
410.64	3105.89
410.83	3047.38
411.02	3141.00
411.21	3243.98
411.40	3124.62
411.59	3290.79
411.78	3267.39
411.98	3192.49
412.17	3368.03
412.36	3361.01
412.55	3433.57
412.74	3356.33
412.93	3410.16
413.12	3335.26
413.31	3496.76
413.50	3543.57
413.69	3463.99
413.88	3700.39
414.07	3602.08
414.26	3693.37
414.45	3747.20
414.64	3721.45
414.83	3808.05
415.02	3719.11
415.22	3826.78
415.41	3934.44
415.60	3932.10
415.79	3873.59
415.98	3964.87
416.17	3976.57
416.36	3873.59
416.55	4100.62
416.74	4049.13
416.93	3929.76
417.12	4212.96
417.31	4117.00
417.50	4135.73
417.69	4269.14
417.88	4290.20
418.07	4135.73
418.26	4339.35
418.45	4430.63
418.64	4414.25
418.83	4416.59
419.02	4514.89
419.21	4652.98
419.39	4491.49
419.58	4519.57
419.77	4463.40
419.96	4622.56
420.15	4599.15
420.34	4421.27
420.53	4608.51
420.72	4744.27
420.91	4837.89
421.10	4805.12
421.29	4753.63
421.48	4589.79
421.67	4793.42
421.86	4627.24
422.05	4830.87
422.24	4910.44
422.43	4929.17
422.61	4833.21
422.80	4975.98
422.99	5011.09
423.18	4758.31
423.37	5139.82
423.56	5001.72
423.75	5015.77
423.94	4835.55
424.13	4491.49
424.32	4678.73
424.50	4884.70
424.69	5170.24
424.88	5109.39
425.07	4917.47
425.26	4931.51
425.45	5036.83
425.64	4882.36
425.83	4924.49
426.01	4999.38
426.20	4994.70
426.39	5050.88
426.58	5074.28
426.77	5076.62
426.96	5118.75
427.15	5142.16
427.33	5200.67
427.52	5193.65
427.71	5296.63
427.90	5343.44
428.09	5317.70
428.28	5397.28
428.46	5359.83
428.65	5313.02
428.84	5509.62
429.03	5535.37
429.22	5371.53
429.40	5483.88
429.59	5479.19
429.78	5331.74
429.97	5355.15
430.16	5584.52
430.34	5434.72
430.53	5593.88
430.72	5640.69
430.91	5778.78
431.10	5781.12
431.28	5736.65
431.47	5776.44
431.66	5813.89
431.85	5734.31
432.03	5760.06
432.22	5895.81
432.41	5865.38
432.60	5951.98
432.79	5935.60
432.97	6090.07
433.16	5987.09
433.35	6019.86
433.54	5984.75
433.72	6094.76
433.91	6242.21
434.10	6169.65
434.28	6134.54
434.47	6104.12
434.66	6204.76
434.85	6408.39
435.03	6193.06
435.22	6333.49
435.41	6600.31
435.59	6443.49
435.78	6420.09
435.97	6478.60
436.16	6539.46
436.34	6466.90
436.53	6609.67
436.72	6705.63
436.90	6331.15
437.09	6553.50
437.28	6490.31
437.46	6764.15
437.65	6689.25
437.84	6707.98
438.02	6775.85
438.21	6733.72
438.40	6670.53
438.58	6956.07
438.77	7124.59
438.96	6942.03
439.14	7180.76
439.33	7185.44
439.52	7265.02
439.70	7187.79
439.89	7382.05
440.08	7328.22
440.26	7417.16
440.45	7386.73
440.63	7702.70
440.82	7667.60
441.01	7536.52
441.19	7866.54
441.38	7709.72
441.57	7754.19
441.75	7786.96
441.94	7934.42
442.12	7913.35
442.31	8107.62
442.50	8154.43
442.68	8100.59
442.87	8002.29
443.05	8124.00
443.24	8145.06
443.43	8292.52
443.61	8231.66
443.80	8449.33
443.98	8112.30
444.17	7920.37
444.35	8138.04
444.54	8173.15
444.73	8344.01
444.91	8161.45
445.10	8486.78
445.28	8287.84
445.47	8269.11
445.65	8344.01
445.84	8414.23
446.02	8559.34
446.21	8479.76
446.39	8374.44
446.58	8493.80
446.77	8446.99
446.95	8304.22
447.14	8458.70
447.32	8533.59
447.51	8482.10
447.69	8596.79
447.88	8718.50
448.06	8615.51
448.25	8554.66
448.43	8557.00
448.62	8720.84
448.80	8493.80
448.99	8566.36
449.17	8912.76
449.36	8617.85
449.54	8767.65
449.73	9008.72
449.91	8971.27
450.10	8847.22
450.28	9144.47
450.46	9139.79
450.65	8889.35
450.83	9100.00
451.02	9151.49
451.20	9242.78
451.39	9270.86
451.57	9261.50
451.76	9032.13
451.94	9458.10
452.13	9259.16
452.31	9462.79
452.49	9320.01
452.68	9430.02
452.86	9453.42
453.05	9731.95
453.23	9748.33
453.42	9303.63
453.60	9233.41
453.78	9537.68
453.97	9434.70
454.15	9596.20
454.34	9600.88
454.52	9848.97
454.70	9811.53
454.89	9643.01
455.07	9792.80
455.26	9994.09
455.44	9930.89
455.62	9811.53
455.81	10083.03
455.99	10026.86
456.17	10031.54
456.36	9991.75
456.54	10523.05
456.73	10401.34
456.91	10452.83
457.09	10497.30
457.28	10626.03
457.46	10534.75
457.64	10523.05
457.83	10368.57
458.01	10658.80
458.19	10614.33
458.38	10431.77
458.56	10796.89
458.74	10740.72
458.93	10803.91
459.11	10541.77
459.29	10733.70
459.48	10745.40
459.66	11066.05
459.84	10911.58
460.03	10874.13
460.21	10862.43
460.39	11173.72
460.57	11077.76
460.76	11136.27
460.94	11143.29
461.12	11288.40
461.31	11201.80
461.49	11393.73
461.67	11176.06
461.85	11653.53
462.04	11316.49
462.22	11822.05
462.40	11346.92
462.59	11712.04
462.77	11599.70
462.95	11602.04
463.13	11552.88
463.32	11808.00
463.50	11726.08
463.68	11892.26
463.86	11995.25
464.05	11875.88
464.23	11786.94
464.41	11936.73
464.59	11632.46
464.78	12257.39
464.96	12126.32
465.14	11871.20
465.32	12051.42
465.50	12339.30
465.69	12400.16
465.87	12332.28
466.05	12343.99
466.23	12507.82
466.41	12386.12
466.60	12746.56
466.78	11894.60
466.96	12355.69
467.14	12369.73
467.32	12500.80
467.51	12353.35
467.69	12358.03
467.87	12442.29
468.05	12510.16
468.23	12411.86
468.41	12638.89
468.60	12730.17
468.78	13090.62
468.96	12645.91
469.14	12840.18
469.32	13123.38
469.50	12561.66
469.69	13200.62
469.87	13275.52
470.05	13167.85
470.23	13209.98
470.41	13135.09
470.59	13193.60
470.77	13514.25
470.95	13448.72
471.14	13675.75
471.32	13308.29
471.50	13582.13
471.68	13437.02
471.86	13926.19
472.04	13891.08
472.22	13982.36
472.40	13689.79
472.58	13795.12
472.77	13832.57
472.95	14160.24
473.13	14614.30
473.31	14031.51
473.49	14237.48
473.67	14015.13
473.85	14501.96
474.03	14614.30
474.21	14567.49
474.39	14691.54
474.57	14822.61
474.75	15103.48
474.93	14993.47
475.12	14967.73
475.30	15112.84
475.48	15040.28
475.66	15250.93
475.84	15075.39
476.02	15382.00
476.20	15185.40
476.38	15882.88
476.56	16020.97
476.74	15864.15
476.92	15702.65
477.10	15901.60
477.28	16023.31
477.46	15983.52
477.64	16170.76
477.82	16669.30
478.00	16795.68
478.18	16816.75
478.36	17139.74
478.54	17071.87
478.72	17549.34
478.90	17476.78
479.08	17834.88
479.26	17759.98
479.44	17619.55
479.62	18052.55
479.80	18293.63
479.98	18122.77
480.16	18675.13
480.34	18595.56
480.52	18682.16
480.70	18551.09
480.88	18492.57
481.06	18958.34
481.24	18972.38
481.41	19117.50
481.59	19491.98
481.77	19576.24
481.95	19910.94
482.13	19754.12
482.31	19887.53
482.49	20332.23
482.67	20379.04
482.85	20585.01
483.03	20577.99
483.21	20943.11
483.39	20922.05
483.57	21008.65
483.74	21228.66
483.92	21413.56
484.10	21362.07
484.28	21951.88
484.46	21916.78
484.64	22499.57
484.82	22008.06
485.00	22263.18
485.18	23037.89
485.35	23257.90
485.53	22874.06
485.71	23021.51
485.89	23316.42
486.07	23290.67
486.25	23838.36
486.43	23917.93
486.61	24287.74
486.78	24236.25
486.96	24442.21
487.14	24669.25
487.32	25088.20
487.50	24989.90
487.68	24900.96
487.85	25085.86
488.03	25724.83
488.21	26167.19
488.39	25752.91
488.57	26118.04
488.75	26174.21
488.92	26539.33
489.10	26977.01
489.28	26948.93
489.46	27311.71
489.64	27054.25
489.81	27679.18
489.99	28196.43
490.17	28079.41
490.35	28126.22
490.53	28226.86
490.70	28762.84
490.88	28329.84
491.06	29036.69
491.24	29050.73
491.41	29289.46
491.59	29469.69
491.77	29191.16
491.95	29605.44
492.13	29689.70
492.30	30361.43
492.48	30228.02
492.66	30361.43
492.84	30326.32
493.01	31311.69
493.19	30689.10
493.37	31087.00
493.54	31255.51
493.72	31398.29
493.90	31456.80
494.08	31857.03
494.25	32100.45
494.43	32128.53
494.61	32561.53
494.79	32418.76
494.96	32425.78
495.14	32847.08
495.32	33055.39
495.49	33638.18
495.67	33411.15
495.85	33750.52
496.02	33741.16
496.20	34284.17
496.38	33926.07
496.55	34099.26
496.73	35274.21
496.91	34998.03
497.09	35192.30
497.26	35201.66
497.44	35264.85
497.62	35515.29
497.79	35969.35
497.97	35641.68
498.14	36411.71
498.32	36210.43
498.50	36325.11
498.67	36479.59
498.85	36596.62
499.03	36666.83
499.20	36837.69
499.38	37165.37
499.56	36783.86
499.73	37296.44
499.91	37970.51
500.08	37813.70
500.26	37399.42
500.44	37577.30
500.61	37879.23
500.79	37778.59
500.97	38312.23
501.14	38511.17
501.32	38796.72
501.49	38834.17
501.67	39026.09
501.84	39210.99
502.02	38930.13
502.20	39250.78
502.37	39718.89
502.55	39180.57
502.72	39667.40
502.90	39480.16
503.07	39555.05
503.25	40006.78
503.43	40430.41
503.60	40247.85
503.78	40229.13
503.95	40481.91
504.13	40762.77
504.30	40837.67
504.48	40509.99
504.65	40917.25
504.83	41064.70
505.01	41310.46
505.18	41205.13
505.36	41776.22
505.53	41469.61
505.71	41516.42
505.88	42272.42
506.06	41596.00
506.23	42321.57
506.41	42281.78
506.58	42249.01
506.76	42319.23
506.93	42843.51
507.11	42953.51
507.28	42714.78
507.46	42644.56
507.63	43098.62
507.81	43510.56
507.98	42770.95
508.16	43250.76
508.33	43688.44
508.50	43749.29
508.68	44093.35
508.85	43934.20
509.03	44069.95
509.20	44083.99
509.38	44388.26
509.55	44421.03
509.73	44591.89
509.90	44910.20
510.08	44641.04
510.25	44966.37
510.42	44769.77
510.60	45209.79
510.77	45556.19
510.95	45640.45
511.12	45315.11
511.30	45165.32
511.47	45890.88
511.64	45600.66
511.82	46216.22
511.99	45848.75
512.17	45834.71
512.34	46075.79
512.51	46579.00
512.69	46707.73
512.86	46370.69
513.04	47072.85
513.21	46831.78
513.38	46871.57
513.56	47250.74
513.73	47033.07
513.90	47107.96
514.08	46618.79
514.25	47625.22
514.43	47377.12
514.60	47517.56
514.77	47555.00
514.95	47875.66
515.12	47775.02
515.29	47929.49
515.47	48442.07
515.64	48287.59
515.81	47983.32
515.99	48268.87
516.16	48472.49
516.33	48467.81
516.51	48252.48
516.68	48528.67
516.85	48355.47
517.03	49202.74
517.20	49013.16
517.37	48868.05
517.54	49069.33
517.72	49036.56
517.89	49345.51
518.06	49525.74
518.24	49305.73
518.41	49656.81
518.58	49397.01
518.75	49624.04
518.93	50059.38
519.10	49549.14
519.27	49783.19
519.45	49822.98
519.62	50160.02
519.79	50122.57
519.96	50136.62
520.14	50426.84
520.31	50195.13
520.48	50749.84
520.65	50614.08
520.83	50859.84
521.00	51084.53
521.17	50876.22
521.34	50932.40
521.52	51150.07
521.69	51157.09
521.86	51262.41
522.03	51409.87
522.20	51505.83
522.38	51817.12
522.55	51498.81
522.72	51419.23
522.89	51529.23
523.07	51517.53
523.24	51585.41
523.41	52112.03
523.58	51356.03
523.75	52168.20
523.92	52006.70
524.10	52170.54
524.27	52404.59
524.44	52346.08
524.61	51966.91
524.78	52254.80
524.96	52303.95
525.13	52549.71
525.30	52718.23
525.47	52699.50
525.64	52477.15
525.81	52750.99
525.98	52729.93
526.16	52835.25
526.33	52921.85
526.50	52898.45
526.67	53195.70
526.84	53303.36
527.01	52891.43
527.18	53048.24
527.36	53099.73
527.53	53188.67
527.70	53343.15
527.87	53628.69
528.04	53326.77
528.21	53579.54
528.38	53640.40
528.55	53656.78
528.72	53263.57
528.89	53888.49
529.07	53387.62
529.24	53567.84
529.41	53698.91
529.58	53834.66
529.75	54000.84
529.92	53811.26
530.09	53876.79
530.26	54181.06
530.43	54192.76
530.60	53827.64
530.77	53918.92
530.94	54270.00
531.11	54312.13
531.28	54082.76
531.46	54389.37
531.63	54405.75
531.80	54457.24
531.97	54487.67
532.14	54637.47
532.31	54813.01
532.48	54824.71
532.65	54967.48
532.82	54344.90
532.99	54962.80
533.16	54934.71
533.33	54976.84
533.50	54951.10
533.67	55084.51
533.84	54808.32
534.01	55018.97
534.18	55168.77
534.35	55365.37
534.52	55437.93
534.69	55121.96
534.86	55522.19
535.03	55091.53
535.20	55538.57
535.37	55473.04
535.54	55398.14
535.71	55213.24
535.88	55737.52
536.05	55564.32
536.22	55833.48
536.38	55987.95
536.55	55601.77
536.72	55854.54
536.89	55515.17
537.06	55608.79
537.23	55999.66
537.40	55688.37
537.57	56058.17
537.74	56177.54
537.91	56041.79
538.08	55987.95
538.25	55978.59
538.42	56205.62
538.59	56357.76
538.75	55784.33
538.92	56207.97
539.09	56346.06
539.26	56399.89
539.43	56203.28
539.60	56399.89
539.77	56154.13
539.94	56734.59
540.11	56657.35
540.28	56472.45
540.44	56617.56
540.61	56512.23
540.78	56629.26
540.95	56561.39
541.12	56512.23
541.29	56640.96
541.46	56851.61
541.62	56605.86
541.79	56652.67
541.96	56584.79
542.13	56750.97
542.30	56814.16
542.47	56832.89
542.63	57144.18
542.80	56940.55
542.97	56987.36
543.14	57338.44
543.31	57282.27
543.48	57368.87
543.64	57380.57
543.81	57532.71
543.98	57331.42
544.15	57666.12
544.32	57556.11
544.48	57654.42
544.65	57542.07
544.82	57633.35
544.99	57605.26
545.16	57673.14
545.32	57495.26
545.49	57808.89
545.66	57780.81
545.83	57886.13
546.00	57804.21
546.16	57869.75
546.33	57645.05
546.50	57733.99
546.67	57902.51
546.83	57453.13
547.00	57855.70
547.17	57771.44
547.34	57640.37
547.50	58080.39
547.67	58265.30
547.84	58068.69
548.00	58277.00
548.17	58581.27
548.34	58237.21
548.51	58309.77
548.67	58279.34
548.84	58377.64
549.01	58281.68
549.18	58159.97
549.34	58468.92
549.51	58319.13
549.68	58454.88
549.84	58492.33
550.01	58480.63
550.18	58431.47
550.34	58417.43
550.51	58459.56
550.68	58536.80
550.84	58410.41
551.01	58749.79
551.18	58504.03
551.34	58934.69
551.51	58801.28
551.68	58787.24
551.84	58499.35
552.01	58616.38
552.18	58773.19
552.34	58396.37
552.51	58890.22
552.68	58688.93
552.84	58784.90
553.01	58958.09
553.18	58995.54
553.34	59187.47
553.51	58834.05
553.67	59051.72
553.84	58983.84
554.01	59103.21
554.17	59159.38
554.34	59297.47
554.51	59147.68
554.67	59309.18
554.84	59231.94
555.00	59131.29
555.17	58937.03
555.33	59135.98
555.50	58866.81
555.67	59061.08
555.83	59093.85
556.00	59196.83
556.16	59594.72
556.33	59454.29
556.50	59465.99
556.66	59646.21
556.83	59241.30
556.99	59552.59
557.16	59725.79
557.32	59777.28
557.49	59639.19
557.65	59313.86
557.82	59611.10
557.98	59470.67
558.15	59601.74
558.32	59517.48
558.48	59571.32
558.65	59557.27
558.81	59777.28
558.98	59760.90
559.14	59636.85
559.31	59781.96
559.47	59831.11
559.64	59770.26
559.80	59739.83
559.97	59833.46
560.13	59739.83
560.30	60004.31
560.46	59877.93
560.63	59997.29
560.79	60053.47
560.96	60048.78
561.12	60027.72
561.29	59917.71
561.45	59976.23
561.61	59941.12
561.78	60076.87
561.94	59990.27
562.11	60046.44
562.27	60053.47
562.44	60226.66
562.60	60266.45
562.77	60086.23
562.93	59681.32
563.10	60135.38
563.26	59868.56
563.42	60329.65
563.59	60041.76
563.75	60133.04
563.92	60023.04
564.08	60236.03
564.24	60055.81
564.41	60383.48
564.57	60310.92
564.74	60320.29
564.90	60348.37
565.07	60313.26
565.23	60336.67
565.39	60353.05
565.56	60402.21
565.72	60322.63
565.88	60495.83
566.05	60322.63
566.21	60310.92
566.38	60584.77
566.54	60549.66
566.70	60500.51
566.87	60467.74
567.03	60126.02
567.19	60680.73
567.36	60523.91
567.52	60589.45
567.68	60708.82
567.85	60315.61
568.01	60402.21
568.17	60399.86
568.34	60477.10
568.50	60491.15
568.66	60268.79
568.83	60566.04
568.99	60353.05
569.15	60427.95
569.32	60664.35
569.48	60385.82
569.64	60764.99
569.81	60493.49
569.97	60603.49
570.13	60537.96
570.30	60446.68
570.46	60568.38
570.62	60521.57
570.78	60498.17
570.95	60816.48
571.11	60781.37
571.27	60512.21
571.43	60657.32
571.60	60694.77
571.76	60556.68
571.92	60699.45
572.09	60711.16
572.25	60804.78
572.41	60582.43
572.57	60666.69
572.74	60912.44
572.90	60898.40
573.06	60919.46
573.22	60727.54
573.38	60727.54
573.55	60685.41
573.71	60863.29
573.87	60582.43
574.03	60472.42
574.20	60685.41
574.36	60692.43
574.52	61008.40
574.68	61116.07
574.84	60853.93
575.01	60863.29
575.17	60673.71
575.33	60750.94
575.49	60931.17
575.65	60959.25
575.82	60942.87
575.98	61034.15
576.14	61102.03
576.30	60872.65
576.46	61118.41
576.62	60898.40
576.79	60844.57
576.95	60762.65
577.11	60865.63
577.27	61029.47
577.43	60935.85
577.59	61013.08
577.75	60718.18
577.92	61034.15
578.08	60821.16
578.24	60996.70
578.40	61151.18
578.56	60992.02
578.72	61036.49
578.88	61038.83
579.04	61282.25
579.21	60912.44
579.37	61034.15
579.53	61106.71
579.69	60743.92
579.85	61095.00
580.01	61080.96
580.17	60917.12
580.33	61031.81
580.49	61183.94
580.65	60942.87
580.82	60968.61
580.98	61017.77
581.14	60877.33
581.30	61165.22
581.46	60926.49
581.62	61153.52
581.78	61095.00
581.94	61003.72
582.10	60830.52
582.26	60996.70
582.42	60989.68
582.58	60837.54
582.74	61034.15
582.90	60865.63
583.06	61265.86
583.22	60949.89
583.38	61123.09
583.54	61151.18
583.70	61160.54
583.86	61116.07
584.02	60954.57
584.18	61427.36
584.34	61162.88
584.50	61013.08
584.66	60987.34
584.82	60893.72
584.98	61336.08
585.14	61041.17
585.30	61071.60
585.46	61118.41
585.62	60956.91
585.78	61066.92
585.94	61003.72
586.10	61132.45
586.26	61151.18
586.42	61116.07
586.58	61312.67
586.74	61200.33
586.90	61202.67
587.06	60992.02
587.22	61219.05
587.38	60903.08
587.54	61434.38
587.70	61340.76
587.86	61069.26
588.02	61265.86
588.18	61305.65
588.34	61141.81
588.49	61097.34
