SpectraSuite Data File
++++++++++++++++++++++++++++++++++++
Date: Fri Oct 25 10:44:49 EDT 2013
User: price-jones
Dark Spectrum Present: No
Reference Spectrum Present: No
Number of Sampled Component Spectra: 1
Spectrometers: USB2+H05261
Integration Time (usec): 100000 (USB2+H05261)
Spectra Averaged: 1 (USB2+H05261)
Boxcar Smoothing: 0 (USB2+H05261)
Correct for Electrical Dark: No (USB2+H05261)
Strobe/Lamp Enabled: No (USB2+H05261)
Correct for Detector Non-linearity: No (USB2+H05261)
Correct for Stray Light: No (USB2+H05261)
Number of Pixels in Processed Spectrum: 2048
>>>>>Begin Processed Spectral Data<<<<<
365.73	154.48
365.92	154.48
366.12	154.48
366.32	35.11
366.52	84.26
366.72	86.60
366.91	0.00
367.11	46.81
367.31	16.38
367.51	51.49
367.70	51.49
367.90	28.09
368.10	0.00
368.30	30.43
368.49	23.41
368.69	72.56
368.89	7.02
369.09	56.17
369.28	91.28
369.48	11.70
369.68	93.62
369.87	105.32
370.07	140.43
370.27	107.66
370.47	173.20
370.66	306.61
370.86	449.38
371.06	423.64
371.25	507.90
371.45	442.36
371.65	479.81
371.84	451.72
372.04	463.43
372.24	463.43
372.44	440.02
372.63	521.94
372.83	458.74
373.03	461.09
373.22	451.72
373.42	526.62
373.62	496.19
373.81	538.32
374.01	599.18
374.21	531.30
374.40	512.58
374.60	596.84
374.79	608.54
374.99	564.07
375.19	571.09
375.38	545.34
375.58	482.15
375.78	589.82
375.97	554.71
376.17	660.03
376.37	606.20
376.56	538.32
376.76	599.18
376.95	617.90
377.15	557.05
377.35	594.50
377.54	631.94
377.74	566.41
377.93	564.07
378.13	564.07
378.33	643.65
378.52	613.22
378.72	566.41
378.91	690.46
379.11	566.41
379.31	645.99
379.50	641.31
379.70	653.01
379.89	650.67
380.09	636.63
380.28	706.84
380.48	716.20
380.68	624.92
380.87	660.03
381.07	674.07
381.26	692.80
381.46	753.65
381.65	615.56
381.85	629.60
382.04	617.90
382.24	695.14
382.43	685.78
382.63	716.20
382.83	636.63
383.02	741.95
383.22	657.69
383.41	685.78
383.61	723.23
383.80	737.27
384.00	716.20
384.19	767.70
384.39	660.03
384.58	704.50
384.78	809.83
384.97	767.70
385.17	711.52
385.36	746.63
385.56	720.88
385.75	758.33
385.95	732.59
386.14	725.57
386.34	765.36
386.53	753.65
386.72	870.68
386.92	821.53
387.11	793.44
387.31	765.36
387.50	791.10
387.70	765.36
387.89	812.17
388.09	819.19
388.28	763.01
388.48	779.40
388.67	847.27
388.86	884.72
389.06	917.49
389.25	875.36
389.45	851.96
389.64	926.85
389.84	919.83
390.03	777.06
390.22	924.51
390.42	861.32
390.61	891.74
390.81	957.28
391.00	882.38
391.19	926.85
391.39	938.55
391.58	957.28
391.78	903.45
391.97	933.87
392.16	894.08
392.36	957.28
392.55	973.66
392.75	1008.77
392.94	990.05
393.13	964.30
393.33	957.28
393.52	959.62
393.71	933.87
393.91	976.00
394.10	1036.86
394.29	1048.56
394.49	1093.03
394.68	1121.12
394.88	1125.80
395.07	1128.14
395.26	1163.25
395.46	1057.92
395.65	1118.78
395.84	1160.91
396.04	1146.86
396.23	1095.37
396.42	1095.37
396.62	1109.41
396.81	1160.91
397.00	1083.67
397.19	1294.32
397.39	1184.31
397.58	1196.01
397.77	1121.12
397.97	1242.82
398.16	1212.40
398.35	1231.12
398.55	1310.70
398.74	1280.27
398.93	1317.72
399.12	1287.29
399.32	1324.74
399.51	1324.74
399.70	1488.58
399.90	1343.47
400.09	1502.62
400.28	1289.64
400.47	1486.24
400.67	1582.20
400.86	1521.35
401.05	1504.96
401.24	1441.77
401.44	1390.28
401.63	1397.30
401.82	1495.60
402.01	1455.81
402.21	1486.24
402.40	1530.71
402.59	1474.54
402.78	1530.71
402.97	1526.03
403.17	1647.74
403.36	1514.33
403.55	1565.82
403.74	1603.27
403.93	1612.63
404.13	1633.69
404.32	1708.59
404.51	1603.27
404.70	1666.46
404.89	1736.68
405.09	1715.61
405.28	1774.13
405.47	1673.48
405.66	1746.04
405.85	1753.06
406.05	1834.98
406.24	1764.76
406.43	1802.21
406.62	1788.17
406.81	2003.50
407.00	1881.79
407.20	1816.26
407.39	1809.23
407.58	1830.30
407.77	1865.41
407.96	1898.17
408.15	2005.84
408.34	2036.27
408.54	1959.03
408.73	1923.92
408.92	2094.78
409.11	1987.11
409.30	2108.82
409.49	2059.67
409.68	2043.29
409.87	1975.41
410.07	2045.63
410.26	2136.91
410.45	2125.21
410.64	2228.19
410.83	2265.64
411.02	2263.30
411.21	2312.45
411.40	2232.87
411.59	2347.56
411.78	2305.43
411.98	2232.87
412.17	2410.75
412.36	2424.80
412.55	2389.69
412.74	2431.82
412.93	2466.92
413.12	2448.20
413.31	2581.61
413.50	2565.23
413.69	2518.42
413.88	2483.31
414.07	2569.91
414.26	2656.51
414.45	2661.19
414.64	2689.28
414.83	2708.00
415.02	2726.72
415.22	2794.60
415.41	2862.48
415.60	2754.81
415.79	2829.71
415.98	2853.11
416.17	2818.00
416.36	2857.79
416.55	2864.82
416.74	2848.43
416.93	2834.39
417.12	2876.52
417.31	2958.44
417.50	2892.90
417.69	3101.21
417.88	3105.89
418.07	2958.44
418.26	3070.78
418.45	3169.09
418.64	3279.09
418.83	3276.75
419.02	3155.04
419.21	3236.96
419.39	3272.07
419.58	3183.13
419.77	3126.96
419.96	3246.32
420.15	3295.47
420.34	3232.28
420.53	3323.56
420.72	3468.67
420.91	3332.92
421.10	3440.59
421.29	3398.46
421.48	3440.59
421.67	3459.31
421.86	3459.31
422.05	3389.10
422.24	3501.44
422.43	3503.78
422.61	3468.67
422.80	3492.08
422.99	3421.86
423.18	3508.46
423.37	3613.79
423.56	3426.54
423.75	3440.59
423.94	3461.65
424.13	3330.58
424.32	3452.29
424.50	3522.51
424.69	3571.66
424.88	3737.84
425.07	3566.98
425.26	3323.56
425.45	3529.53
425.64	3548.25
425.83	3557.61
426.01	3674.64
426.20	3499.10
426.39	3674.64
426.58	3562.30
426.77	3501.44
426.96	3585.70
427.15	3618.47
427.33	3744.86
427.52	3506.12
427.71	3747.20
427.90	3719.11
428.09	3810.39
428.28	3779.97
428.46	3829.12
428.65	3880.61
428.84	3840.82
429.03	3915.72
429.22	3754.22
429.40	3831.46
429.59	3808.05
429.78	3550.59
429.97	3583.36
430.16	3805.71
430.34	3850.18
430.53	3885.29
430.72	3847.84
430.91	3770.60
431.10	3997.64
431.28	4025.72
431.47	4154.45
431.66	4091.26
431.85	4018.70
432.03	4135.73
432.22	4196.58
432.41	4163.81
432.60	4189.56
432.79	4184.88
432.97	4381.48
433.16	4351.06
433.35	4140.41
433.54	4173.18
433.72	4393.19
433.91	4276.16
434.10	4365.10
434.28	4231.69
434.47	4409.57
434.66	4447.02
434.85	4496.17
435.03	4517.23
435.22	4449.36
435.41	4615.54
435.59	4545.32
435.78	4601.49
435.97	4622.56
436.16	4559.36
436.34	4627.24
436.53	4753.63
436.72	4716.18
436.90	4674.05
437.09	4606.17
437.28	4755.97
437.46	4784.06
437.65	4662.35
437.84	4720.86
438.02	4725.54
438.21	4702.14
438.40	4692.77
438.58	4830.87
438.77	4877.68
438.96	4781.71
439.14	5034.49
439.33	5095.35
439.52	5064.92
439.70	5128.11
439.89	5090.67
440.08	5083.64
440.26	5231.10
440.45	5219.39
440.63	5217.05
440.82	5387.91
441.01	5341.10
441.19	5348.12
441.38	5682.82
441.57	5516.64
441.75	5486.22
441.94	5570.48
442.12	5682.82
442.31	5722.61
442.50	5701.54
442.68	5647.71
442.87	5523.66
443.05	5666.44
443.24	5839.64
443.43	5715.59
443.61	5736.65
443.80	5856.02
443.98	5753.04
444.17	5568.13
444.35	5891.13
444.54	6005.81
444.73	5863.04
444.91	5778.78
445.10	5713.25
445.28	5905.17
445.47	5813.89
445.65	5877.09
445.84	5963.68
446.02	6026.88
446.21	5909.85
446.39	5823.25
446.58	5884.11
446.77	6029.22
446.95	5916.87
447.14	6047.94
447.32	6167.31
447.51	6076.03
447.69	5959.00
447.88	5982.41
448.06	6153.27
448.25	5951.98
448.43	6019.86
448.62	5963.68
448.80	5947.30
448.99	6146.25
449.17	6195.40
449.36	6040.92
449.54	6413.07
449.73	6289.02
449.91	6335.83
450.10	6380.30
450.28	6614.35
450.46	6380.30
450.65	6338.17
450.83	6321.79
451.02	6427.11
451.20	6413.07
451.39	6445.84
451.57	6539.46
451.76	6457.54
451.94	6317.11
452.13	6366.26
452.31	6487.96
452.49	6349.87
452.68	6431.79
452.86	6431.79
453.05	6621.38
453.23	6642.44
453.42	6579.25
453.60	6663.51
453.78	6750.10
453.97	6623.72
454.15	6820.32
454.34	6642.44
454.52	6754.79
454.70	6707.98
454.89	6752.45
455.07	6834.36
455.26	6759.47
455.44	7026.29
455.62	6909.26
455.81	7040.33
455.99	6970.12
456.17	6995.86
456.36	7023.95
456.54	7098.84
456.73	7136.29
456.91	7386.73
457.09	7227.57
457.28	7412.48
457.46	7096.50
457.64	7419.50
457.83	7342.26
458.01	7152.68
458.19	7370.35
458.38	7440.56
458.56	7428.86
458.74	7552.91
458.93	7442.90
459.11	7480.35
459.29	7459.29
459.48	7410.14
459.66	7552.91
459.84	7478.01
460.03	7653.55
460.21	7550.57
460.39	7609.08
460.57	7740.15
460.76	7641.85
460.94	7784.62
461.12	7754.19
461.31	7927.39
461.49	7728.45
461.67	7873.56
461.85	7875.90
462.04	7819.73
462.22	8030.38
462.40	8058.46
462.59	8023.36
462.77	8018.68
462.95	8152.09
463.13	8042.08
463.32	8018.68
463.50	8018.68
463.68	8255.07
463.86	8107.62
464.05	8135.70
464.23	8180.17
464.41	8252.73
464.59	8081.87
464.78	8304.22
464.96	8156.77
465.14	8126.34
465.32	8446.99
465.50	8554.66
465.69	8348.69
465.87	8259.75
466.05	8505.51
466.23	8294.86
466.41	8273.79
466.60	8517.21
466.78	8280.82
466.96	8416.57
467.14	8552.32
467.32	8423.59
467.51	8456.36
467.69	8407.20
467.87	8533.59
468.05	8744.24
468.23	8435.29
468.41	8596.79
468.60	8814.46
468.78	8774.67
468.96	8613.17
469.14	8858.93
469.32	8769.99
469.50	8451.67
469.69	8716.16
469.87	8901.06
470.05	9057.87
470.23	8922.12
470.41	8879.99
470.59	9074.26
470.77	8924.46
470.95	9238.09
471.14	9200.65
471.32	9109.36
471.50	9163.20
471.68	9277.88
471.86	9277.88
472.04	9317.67
472.22	9664.07
472.40	9352.78
472.58	9635.99
472.77	9635.99
472.95	9701.52
473.13	9872.38
473.31	9645.35
473.49	9418.32
473.67	9797.48
473.85	9741.31
474.03	9886.42
474.21	10094.73
474.39	9919.19
474.57	10335.81
474.75	10186.01
474.93	10193.03
475.12	10237.50
475.30	10232.82
475.48	10328.78
475.66	10317.08
475.84	10349.85
476.02	10345.17
476.20	10319.42
476.38	10527.73
476.56	10780.51
476.74	10799.23
476.92	10700.93
477.10	10799.23
477.28	11115.20
477.46	11019.24
477.64	11262.66
477.82	11393.73
478.00	11346.92
478.18	11377.34
478.36	11466.28
478.54	11454.58
478.72	11728.42
478.90	11618.42
479.08	11875.88
479.26	12128.66
479.44	11768.21
479.62	12205.89
479.80	12142.70
479.98	12205.89
480.16	12648.26
480.34	12524.21
480.52	12578.04
480.70	12549.95
480.88	12638.89
481.06	12723.15
481.24	12760.60
481.41	12844.86
481.59	13233.39
481.77	13128.06
481.95	13170.19
482.13	13221.69
482.31	13331.69
482.49	13516.59
482.67	13685.11
482.85	13708.52
483.03	13984.70
483.21	14073.64
483.39	13973.00
483.57	14120.45
483.74	13980.02
483.92	14218.75
484.10	14370.89
484.28	14471.53
484.46	14757.08
484.64	15056.67
484.82	14665.80
485.00	14712.61
485.18	15346.89
485.35	15101.14
485.53	15012.20
485.71	15044.96
485.89	15393.70
486.07	15475.62
486.25	15346.89
486.43	15335.19
486.61	15840.75
486.78	16236.30
486.96	16053.73
487.14	16149.70
487.32	16444.60
487.50	16482.05
487.68	16858.88
487.85	16592.06
488.03	17247.41
488.21	17111.66
488.39	17114.00
488.57	17104.64
488.75	17373.80
488.92	17528.27
489.10	18113.41
489.28	17687.43
489.46	17827.86
489.64	17991.70
489.81	18508.96
489.99	18576.83
490.17	18368.52
490.35	18581.51
490.53	18862.38
490.70	18871.74
490.88	18806.20
491.06	19115.16
491.24	19056.64
491.41	19309.42
491.59	19314.10
491.77	19241.54
491.95	19555.18
492.13	19690.93
492.30	19836.04
492.48	19833.70
492.66	19812.63
492.84	19971.79
493.01	20329.89
493.19	20198.82
493.37	20503.09
493.54	20479.69
493.72	20779.28
493.90	20751.19
494.08	20826.09
494.25	21275.47
494.43	21193.55
494.61	21593.78
494.79	21509.52
494.96	21390.16
495.14	21671.02
495.32	21884.01
495.49	22185.94
495.67	21792.73
495.85	21610.17
496.02	21895.71
496.20	22703.20
496.38	22485.53
496.55	22452.76
496.73	22813.20
496.91	22724.26
497.09	22850.65
497.26	23197.05
497.44	22824.90
497.62	23190.03
497.79	23580.90
497.97	23115.13
498.14	23800.91
498.32	23861.76
498.50	23924.96
498.67	23805.59
498.85	24229.23
499.03	24105.18
499.20	24051.34
499.38	24362.64
499.56	24526.47
499.73	24692.65
499.91	24664.57
500.08	24587.33
500.26	24458.60
500.44	24414.13
500.61	24879.89
500.79	24980.54
500.97	25081.18
501.14	25352.68
501.32	25350.34
501.49	25289.49
501.67	25348.00
501.84	25357.36
502.02	25263.74
502.20	25425.24
502.37	25708.44
502.55	25701.42
502.72	25968.24
502.90	26160.17
503.07	25830.15
503.25	26157.83
503.43	26010.37
503.60	26022.08
503.78	26370.82
503.95	26560.40
504.13	26197.62
504.30	26658.70
504.48	26721.90
504.65	26462.10
504.83	27182.98
505.01	26958.29
505.18	26988.72
505.36	27047.23
505.53	27335.12
505.71	28002.17
505.88	27620.66
506.06	27365.54
506.23	27454.48
506.41	27428.74
506.58	27653.43
506.76	28013.87
506.93	27915.57
507.11	27962.38
507.28	27971.74
507.46	27840.67
507.63	27819.61
507.81	28149.62
507.98	27590.24
508.16	28004.51
508.33	28479.64
508.50	28451.55
508.68	28807.31
508.85	28723.05
509.03	28751.14
509.20	28706.67
509.38	29315.21
509.55	29010.94
509.73	29092.86
509.90	29270.74
510.08	29514.16
510.25	29223.93
510.42	29392.45
510.60	29373.72
510.77	29448.62
510.95	29989.28
511.12	29642.88
511.30	29963.54
511.47	29968.22
511.64	30122.69
511.82	30054.82
511.99	30211.64
512.17	30169.51
512.34	30054.82
512.51	30684.42
512.69	30806.13
512.86	30401.22
513.04	30827.20
513.21	30684.42
513.38	30553.35
513.56	30492.50
513.73	31000.40
513.90	31325.73
514.08	31016.78
514.25	31236.79
514.43	31161.89
514.60	30923.16
514.77	31271.90
514.95	31587.87
515.12	31211.04
515.29	31157.21
515.47	31625.32
515.64	31665.11
515.81	31641.70
515.99	31967.04
516.16	31754.05
516.33	31646.38
516.51	32224.50
516.68	31714.26
516.85	31161.89
517.03	31887.46
517.20	32079.38
517.37	32191.73
517.54	32346.20
517.72	32339.18
517.89	31763.41
518.06	32105.13
518.24	32194.07
518.41	32266.63
518.58	32517.06
518.75	32210.45
518.93	32907.93
519.10	32840.06
519.27	32765.16
519.45	33394.76
519.62	32907.93
519.79	32966.45
519.96	33144.33
520.14	33614.77
520.31	33408.81
520.48	33493.07
520.65	32992.19
520.83	33546.90
521.00	33900.32
521.17	33326.89
521.34	34136.71
521.52	33937.77
521.69	33535.20
521.86	33921.38
522.03	34148.42
522.20	34405.88
522.38	34354.38
522.55	34370.77
522.72	34450.35
522.89	34789.72
523.07	34235.02
523.24	34532.26
523.41	34888.03
523.58	34534.60
523.75	34988.67
523.92	34668.02
524.10	35246.13
524.27	35138.46
524.44	35063.57
524.61	35175.91
524.78	35435.71
524.96	35248.47
525.13	35414.65
525.30	35569.12
525.47	35798.49
525.64	35232.08
525.81	35571.46
525.98	35353.79
526.16	35608.91
526.33	35491.88
526.50	35800.83
526.67	35295.28
526.84	35409.96
527.01	35325.71
527.18	35615.93
527.36	35988.08
527.53	35754.02
527.70	36428.10
527.87	35824.24
528.04	35896.80
528.21	36201.07
528.38	36084.04
528.55	36409.37
528.72	36488.95
528.89	36573.21
529.07	36374.27
529.24	36184.68
529.41	36849.39
529.58	36397.67
529.75	36811.95
529.92	36699.60
530.09	36493.63
530.26	37134.94
530.43	36879.82
530.60	36996.85
530.77	36608.32
530.94	37177.07
531.11	36680.88
531.28	37003.87
531.46	37443.89
531.63	37383.04
531.80	36573.21
531.97	37038.98
532.14	37226.22
532.31	37008.55
532.48	37336.23
532.65	37404.10
532.82	37701.35
532.99	38071.15
533.16	36952.38
533.33	37809.01
533.50	38181.16
533.67	37649.86
533.84	37745.82
534.01	37867.53
534.18	37429.85
534.35	38345.00
534.52	38085.20
534.69	38026.68
534.86	38253.72
535.03	38220.95
535.20	38408.19
535.37	38873.96
535.54	39000.35
535.71	38588.41
535.88	38691.40
536.05	38616.50
536.22	38384.79
536.38	38677.35
536.55	38536.92
536.72	38635.22
536.89	38223.29
537.06	38703.10
537.23	38960.56
537.40	38866.94
537.57	39082.27
537.74	38623.52
537.91	39000.35
538.08	38925.45
538.25	38316.91
538.42	38988.64
538.59	39529.31
538.75	39026.09
538.92	39285.89
539.09	38885.66
539.26	38967.58
539.43	39313.98
539.60	39337.38
539.77	39166.52
539.94	39222.70
540.11	38981.62
540.28	39470.79
540.44	39402.92
540.61	39110.35
540.78	39526.97
540.95	39431.01
541.12	39358.45
541.29	39290.57
541.46	39885.07
541.62	39583.14
541.79	40240.83
541.96	39849.96
542.13	39800.81
542.30	39981.03
542.47	40212.74
542.63	39613.57
542.80	40156.57
542.97	40191.68
543.14	40341.47
543.31	40278.28
543.48	40608.29
543.64	41493.02
543.81	40524.04
543.98	40767.45
544.15	40423.39
544.32	41329.18
544.48	41331.52
544.65	41027.25
544.82	40950.01
544.99	40507.65
545.16	40966.40
545.32	40608.29
545.49	41134.92
545.66	41720.05
545.83	41240.24
546.00	41060.02
546.16	41291.73
546.33	40872.78
546.50	40758.09
546.67	40964.06
546.83	40561.48
547.00	40938.31
547.17	40732.34
547.34	41132.57
547.50	41242.58
547.67	41633.45
547.84	41329.18
548.00	41535.15
548.17	41790.27
548.34	41703.67
548.51	41209.81
548.67	41954.10
548.84	41638.13
549.01	41710.69
549.18	41591.32
549.34	41680.26
549.51	41935.38
549.68	41549.19
549.84	41876.86
550.01	42265.39
550.18	41862.82
550.34	41574.94
550.51	42424.55
550.68	42143.69
550.84	41677.92
551.01	42146.03
551.18	42277.10
551.34	42155.39
551.51	42337.95
551.68	42230.29
551.84	42160.07
552.01	41954.10
552.18	42347.31
552.34	41818.35
552.51	42553.28
552.68	42197.52
552.84	42583.71
553.01	42733.50
553.18	42745.20
553.34	42286.46
553.51	42239.65
553.67	42394.12
553.84	42775.63
554.01	42462.00
554.17	42712.44
554.34	42782.65
554.51	43103.31
554.67	42777.97
554.84	41832.39
555.00	42384.76
555.17	42761.59
555.33	42838.83
555.50	42382.42
555.67	42813.08
555.83	42590.73
556.00	43201.61
556.16	43330.34
556.33	43119.69
556.50	42546.26
556.66	43091.60
556.83	42962.87
556.99	43466.09
557.16	43290.55
557.32	43033.09
557.49	43054.15
557.65	42948.83
557.82	43112.67
557.98	43023.73
558.15	43047.13
558.32	43466.09
558.48	43133.73
558.65	43140.75
558.81	42976.92
558.98	43243.74
559.14	43367.79
559.31	43250.76
559.47	43042.45
559.64	43618.22
559.80	43367.79
559.97	43473.11
560.13	42806.06
560.30	43271.82
560.46	43398.21
560.63	43428.64
560.79	43927.17
560.96	43868.66
561.12	43409.92
561.29	43501.20
561.45	43414.60
561.61	43627.59
561.78	43414.60
561.94	43405.23
562.11	43835.89
562.27	43742.27
562.44	43662.69
562.60	43995.05
562.77	43702.48
562.93	43606.52
563.10	43739.93
563.26	43611.20
563.42	43653.33
563.59	43367.79
563.75	43765.68
563.92	44081.65
564.08	44259.53
564.24	43920.15
564.41	44119.10
564.57	43566.73
564.74	43702.48
564.90	43971.64
565.07	43983.35
565.23	43845.26
565.39	43906.11
565.56	43681.42
565.72	43761.00
565.88	44318.04
566.05	43938.88
566.21	43929.51
566.38	44142.50
566.54	43859.30
566.70	43859.30
566.87	44350.81
567.03	44144.84
567.19	44179.95
567.36	44144.84
567.52	44044.20
567.68	44357.83
567.85	44168.25
568.01	44236.12
568.17	44098.03
568.34	44374.22
568.50	44121.44
568.66	43992.71
568.83	44144.84
568.99	44011.43
569.15	43775.04
569.32	43903.77
569.48	44172.93
569.64	44406.98
569.81	44215.06
569.97	44250.17
570.13	43971.64
570.30	44016.11
570.46	43936.54
570.62	43929.51
570.78	43686.10
570.95	43901.43
571.11	44285.28
571.27	44367.20
571.43	43826.53
571.60	43997.39
571.76	44418.69
571.92	44210.38
572.09	44634.02
572.25	44500.61
572.41	44137.82
572.57	44238.47
572.74	44664.44
572.90	44538.05
573.06	44240.81
573.22	44257.19
573.38	44098.03
573.55	44311.02
573.71	44252.51
573.87	43831.21
574.03	44016.11
574.20	44236.12
574.36	44444.43
574.52	44561.46
574.68	44474.86
574.84	43866.32
575.01	44453.79
575.17	44474.86
575.33	43964.62
575.49	44275.91
575.65	44205.70
575.82	44603.59
575.98	44121.44
576.14	44430.39
576.30	44636.36
576.46	44308.68
576.62	44741.68
576.79	44521.67
576.95	43964.62
577.11	44315.70
577.27	44308.68
577.43	44383.58
577.59	44779.13
577.75	44191.65
577.92	44116.76
578.08	44140.16
578.24	44357.83
578.40	44343.79
578.56	44610.61
578.72	44807.22
578.88	44797.85
579.04	44339.11
579.21	44610.61
579.37	44390.60
579.53	44655.08
579.69	44683.17
579.85	44472.52
580.01	44767.43
580.17	44985.10
580.33	44725.30
580.49	44779.13
580.65	44367.20
580.82	44809.56
580.98	44320.38
581.14	44322.72
581.30	45024.89
581.46	44470.18
581.62	44832.96
581.78	44612.95
581.94	44631.68
582.10	44697.21
582.26	44215.06
582.42	44921.90
582.58	44451.45
582.74	44451.45
582.90	44753.38
583.06	45090.42
583.22	44341.45
583.38	44734.66
583.54	45214.47
583.70	44877.43
583.86	44854.03
584.02	44275.91
584.18	45134.89
584.34	44481.88
584.50	44535.71
584.66	44268.89
584.82	44226.76
584.98	44917.22
585.14	44935.95
585.30	44339.11
585.46	44942.97
585.62	44392.94
585.78	44505.29
585.94	44477.20
586.10	44224.42
586.26	44154.21
586.42	44734.66
586.58	44671.46
586.74	44596.57
586.90	44872.75
587.06	44762.75
587.22	44722.96
587.38	44374.22
587.54	44706.57
587.70	44706.57
587.86	44404.64
588.02	44774.45
588.18	44816.58
588.34	44362.51
588.49	44191.65
588.65	44175.27
588.81	44229.10
588.97	44800.19
589.13	44311.02
589.29	44336.77
589.45	44311.02
589.61	44512.31
589.77	44580.18
589.93	44751.04
590.08	45237.87
590.24	44619.97
