SpectraSuite Data File
++++++++++++++++++++++++++++++++++++
Date: Fri Oct 25 11:33:13 EDT 2013
User: price-jones
Dark Spectrum Present: No
Reference Spectrum Present: No
Number of Sampled Component Spectra: 1
Spectrometers: USB2+H05261
Integration Time (usec): 100000 (USB2+H05261)
Spectra Averaged: 1 (USB2+H05261)
Boxcar Smoothing: 0 (USB2+H05261)
Correct for Electrical Dark: No (USB2+H05261)
Strobe/Lamp Enabled: No (USB2+H05261)
Correct for Detector Non-linearity: No (USB2+H05261)
Correct for Stray Light: No (USB2+H05261)
Number of Pixels in Processed Spectrum: 2048
>>>>>Begin Processed Spectral Data<<<<<
365.73	264.48
365.92	264.48
366.12	264.48
366.32	201.29
366.52	166.18
366.72	124.05
366.91	170.86
367.11	198.95
367.31	175.54
367.51	175.54
367.70	124.05
367.90	177.88
368.10	191.92
368.30	194.26
368.49	208.31
368.69	198.95
368.89	194.26
369.09	149.79
369.28	212.99
369.48	220.01
369.68	248.10
369.87	283.20
370.07	250.44
370.27	327.68
370.47	334.70
370.66	493.85
370.86	444.70
371.06	482.15
371.25	526.62
371.45	519.60
371.65	627.26
371.84	575.77
372.04	489.17
372.24	484.49
372.44	575.77
372.63	606.20
372.83	603.86
373.03	594.50
373.22	535.98
373.42	648.33
373.62	638.97
373.81	674.07
374.01	732.59
374.21	671.73
374.40	582.79
374.60	662.37
374.79	690.46
374.99	627.26
375.19	615.56
375.38	716.20
375.58	653.01
375.78	688.12
375.97	615.56
376.17	674.07
376.37	709.18
376.56	664.71
376.76	704.50
376.95	685.78
377.15	697.48
377.35	664.71
377.54	744.29
377.74	716.20
377.93	657.69
378.13	739.61
378.33	753.65
378.52	697.48
378.72	812.17
378.91	704.50
379.11	685.78
379.31	692.80
379.50	655.35
379.70	746.63
379.89	765.36
380.09	755.99
380.28	692.80
380.48	826.21
380.68	777.06
380.87	699.82
381.07	730.25
381.26	814.51
381.46	753.65
381.65	744.29
381.85	791.10
382.04	835.57
382.24	798.12
382.43	833.23
382.63	767.70
382.83	788.76
383.02	800.46
383.22	812.17
383.41	737.27
383.61	734.93
383.80	807.48
384.00	800.46
384.19	793.44
384.39	809.83
384.58	823.87
384.78	819.19
384.97	760.67
385.17	847.27
385.36	781.74
385.56	837.91
385.75	889.40
385.95	880.04
386.14	919.83
386.34	887.06
386.53	903.45
386.72	936.21
386.92	987.71
387.11	887.06
387.31	861.32
387.50	997.07
387.70	802.80
387.89	858.98
388.09	919.83
388.28	884.72
388.48	800.46
388.67	999.41
388.86	983.02
389.06	917.49
389.25	950.26
389.45	990.05
389.64	945.58
389.84	915.15
390.03	870.68
390.22	966.64
390.42	992.39
390.61	997.07
390.81	971.32
391.00	1053.24
391.19	1008.77
391.39	1006.43
391.58	1029.84
391.78	952.60
391.97	1097.71
392.16	987.71
392.36	1055.58
392.55	1074.31
392.75	1088.35
392.94	1057.92
393.13	1071.97
393.33	1125.80
393.52	1146.86
393.71	1193.67
393.91	1050.90
394.10	1069.62
394.29	1088.35
394.49	1083.67
394.68	1104.73
394.88	1074.31
395.07	1125.80
395.26	1210.06
395.46	1111.75
395.65	1118.78
395.84	1181.97
396.04	1270.91
396.23	1212.40
396.42	1203.04
396.62	1240.48
396.81	1186.65
397.00	1207.72
397.19	1364.53
397.39	1212.40
397.58	1212.40
397.77	1231.12
397.97	1277.93
398.16	1226.44
398.35	1331.76
398.55	1284.95
398.74	1306.02
398.93	1303.68
399.12	1303.68
399.32	1348.15
399.51	1338.79
399.70	1397.30
399.90	1357.51
400.09	1411.34
400.28	1476.88
400.47	1423.05
400.67	1444.11
400.86	1420.71
401.05	1437.09
401.24	1390.28
401.44	1469.86
401.63	1502.62
401.82	1572.84
402.01	1490.92
402.21	1472.20
402.40	1519.01
402.59	1462.83
402.78	1533.05
402.97	1596.25
403.17	1465.18
403.36	1526.03
403.55	1633.69
403.74	1551.78
403.93	1497.94
404.13	1633.69
404.32	1659.44
404.51	1629.01
404.70	1659.44
404.89	1624.33
405.09	1617.31
405.28	1689.87
405.47	1788.17
405.66	1764.76
405.85	1760.08
406.05	1652.42
406.24	1727.32
406.43	1795.19
406.62	1874.77
406.81	1842.00
407.00	1849.02
407.20	1783.49
407.39	1734.34
407.58	1867.75
407.77	1877.11
407.96	1771.79
408.15	1888.81
408.34	1905.20
408.54	1905.20
408.73	1956.69
408.92	1909.88
409.11	1977.75
409.30	1905.20
409.49	2022.22
409.68	2029.24
409.87	2017.54
410.07	2057.33
410.26	2125.21
410.45	2015.20
410.64	2036.27
410.83	2136.91
411.02	2139.25
411.21	2202.44
411.40	2253.94
411.59	2277.34
411.78	2118.18
411.98	2160.31
412.17	2251.60
412.36	2389.69
412.55	2230.53
412.74	2385.01
412.93	2441.18
413.12	2342.88
413.31	2546.50
413.50	2434.16
413.69	2445.86
413.88	2562.89
414.07	2492.67
414.26	2511.39
414.45	2605.02
414.64	2553.52
414.83	2635.44
415.02	2588.63
415.22	2619.06
415.41	2717.36
415.60	2700.98
415.79	2729.06
415.98	2689.28
416.17	2712.68
416.36	2738.43
416.55	2810.98
416.74	2841.41
416.93	2729.06
417.12	2876.52
417.31	2843.75
417.50	2928.01
417.69	2939.71
417.88	2899.92
418.07	2979.50
418.26	2904.60
418.45	3080.14
418.64	3077.80
418.83	2965.46
419.02	3117.59
419.21	3105.89
419.39	3075.46
419.58	3080.14
419.77	3138.66
419.96	3276.75
420.15	3267.39
420.34	3021.63
420.53	3164.40
420.72	3356.33
420.91	3272.07
421.10	3368.03
421.29	3288.45
421.48	3335.26
421.67	3204.19
421.86	3243.98
422.05	3274.41
422.24	3442.93
422.43	3330.58
422.61	3349.31
422.80	3353.99
422.99	3391.44
423.18	3419.52
423.37	3641.87
423.56	3489.74
423.75	3428.88
423.94	3410.16
424.13	3190.15
424.32	3468.67
424.50	3363.35
424.69	3648.90
424.88	3538.89
425.07	3534.21
425.26	3440.59
425.45	3461.65
425.64	3522.51
425.83	3356.33
426.01	3435.91
426.20	3466.33
426.39	3503.78
426.58	3534.21
426.77	3508.46
426.96	3538.89
427.15	3597.40
427.33	3590.38
427.52	3641.87
427.71	3627.83
427.90	3691.02
428.09	3679.32
428.28	3749.54
428.46	3756.56
428.65	3728.47
428.84	3889.97
429.03	3843.16
429.22	3653.58
429.40	3740.18
429.59	3838.48
429.78	3864.22
429.97	3784.65
430.16	3630.17
430.34	3885.29
430.53	3904.01
430.72	3742.52
430.91	3918.06
431.10	3885.29
431.28	3953.16
431.47	3934.44
431.66	4002.32
431.85	4063.17
432.03	4016.36
432.22	4105.30
432.41	4177.86
432.60	4152.11
432.79	4189.56
432.97	4102.96
433.16	4086.58
433.35	4168.49
433.54	4252.75
433.72	4348.72
433.91	4173.18
434.10	4231.69
434.28	4395.53
434.47	4327.65
434.66	4376.80
434.85	4379.14
435.03	4407.23
435.22	4337.01
435.41	4456.38
435.59	4334.67
435.78	4526.60
435.97	4346.37
436.16	4428.29
436.34	4582.77
436.53	4416.59
436.72	4608.51
436.90	4484.47
437.09	4475.10
437.28	4472.76
437.46	4575.75
437.65	4828.53
437.84	4706.82
438.02	4564.04
438.21	4723.20
438.40	4547.66
438.58	4629.58
438.77	4868.31
438.96	4901.08
439.14	4835.55
439.33	4929.17
439.52	4959.60
439.70	5067.26
439.89	5083.64
440.08	5081.30
440.26	5135.14
440.45	4805.12
440.63	5078.96
440.82	5408.98
441.01	5224.08
441.19	5231.10
441.38	5280.25
441.57	5280.25
441.75	5291.95
441.94	5502.60
442.12	5544.73
442.31	5453.45
442.50	5479.19
442.68	5444.09
442.87	5596.22
443.05	5455.79
443.24	5696.86
443.43	5451.11
443.61	5666.44
443.80	5696.86
443.98	5359.83
444.17	5369.19
444.35	5633.67
444.54	5631.33
444.73	5760.06
444.91	5488.56
445.10	5717.93
445.28	5575.16
445.47	5643.03
445.65	5781.12
445.84	5638.35
446.02	5928.58
446.21	5708.57
446.39	5748.36
446.58	5900.49
446.77	5884.11
446.95	5640.69
447.14	5905.17
447.32	5781.12
447.51	5923.90
447.69	5792.83
447.88	5811.55
448.06	5809.21
448.25	5769.42
448.43	5944.96
448.62	5844.32
448.80	5947.30
448.99	5783.46
449.17	6129.86
449.36	5696.86
449.54	5909.85
449.73	6174.33
449.91	6050.28
450.10	6120.50
450.28	6214.12
450.46	6218.80
450.65	6225.82
450.83	6162.63
451.02	6069.01
451.20	6183.70
451.39	6221.14
451.57	6221.14
451.76	6326.47
451.94	6319.45
452.13	6160.29
452.31	6361.58
452.49	6183.70
452.68	6340.51
452.86	6338.17
453.05	6399.02
453.23	6485.62
453.42	6342.85
453.60	6260.93
453.78	6473.92
453.97	6408.39
454.15	6422.43
454.34	6590.95
454.52	6541.80
454.70	6520.73
454.89	6560.52
455.07	6689.25
455.26	6759.47
455.44	6815.64
455.62	6576.91
455.81	6691.59
455.99	6712.66
456.17	6841.39
456.36	6834.36
456.54	6801.60
456.73	6974.80
456.91	7105.87
457.09	7227.57
457.28	7110.55
457.46	6766.49
457.64	7152.68
457.83	7171.40
458.01	7143.32
458.19	7101.19
458.38	7218.21
458.56	7421.84
458.74	7201.83
458.93	7281.41
459.11	7396.09
459.29	7307.15
459.48	7279.07
459.66	7382.05
459.84	7386.73
460.03	7522.48
460.21	7599.72
460.39	7424.18
460.57	7461.63
460.76	7316.51
460.94	7496.74
461.12	7630.15
461.31	7714.41
461.49	7576.31
461.67	7552.91
461.85	7735.47
462.04	7679.30
462.22	8037.40
462.40	7960.16
462.59	7772.92
462.77	7749.51
462.95	7971.86
463.13	7761.22
463.32	7943.78
463.50	7906.33
463.68	7939.10
463.86	8060.80
464.05	8077.19
464.23	8032.72
464.41	7971.86
464.59	7782.28
464.78	8205.92
464.96	8124.00
465.14	7908.67
465.32	8194.22
465.50	8264.43
465.69	8205.92
465.87	8435.29
466.05	8131.02
466.23	8327.63
466.41	8390.82
466.60	8418.91
466.78	8477.42
466.96	8236.35
467.14	8269.11
467.32	8397.84
467.51	8500.83
467.69	8313.58
467.87	8531.25
468.05	8524.23
468.23	8278.47
468.41	8355.71
468.60	8475.08
468.78	8615.51
468.96	8549.98
469.14	8718.50
469.32	8781.69
469.50	8608.49
469.69	8718.50
469.87	8788.71
470.05	8786.37
470.23	8809.78
470.41	9020.42
470.59	8978.30
470.77	8936.17
470.95	8769.99
471.14	9104.68
471.32	8943.19
471.50	9104.68
471.68	9097.66
471.86	9137.45
472.04	9268.52
472.22	9509.60
472.40	9053.19
472.58	9406.61
472.77	9603.22
472.95	9371.50
473.13	9715.56
473.31	9540.02
473.49	9753.01
473.67	9549.39
473.85	9811.53
474.03	9851.31
474.21	9914.51
474.39	9886.42
474.57	9778.76
474.75	10099.41
474.93	10033.88
475.12	10026.86
475.30	10223.46
475.48	10097.07
475.66	10127.50
475.84	10342.83
476.02	10305.38
476.20	10274.95
476.38	10511.35
476.56	10647.10
476.74	10569.86
476.92	10609.65
477.10	10661.14
477.28	10874.13
477.46	10626.03
477.64	11000.52
477.82	11152.65
478.00	11346.92
478.18	11353.94
478.36	11222.87
478.54	11662.89
478.72	11367.98
478.90	11686.29
479.08	11777.58
479.26	11887.58
479.44	11831.41
479.62	11859.49
479.80	12156.74
479.98	12205.89
480.16	12566.34
480.34	12439.95
480.52	12355.69
480.70	12496.12
480.88	12383.77
481.06	12336.96
481.24	12402.50
481.41	12697.41
481.59	13092.96
481.77	12868.27
481.95	12957.21
482.13	13303.60
482.31	13146.79
482.49	13549.36
482.67	13542.34
482.85	13411.27
483.03	13755.33
483.21	13708.52
483.39	13678.09
483.57	14052.58
483.74	13900.44
483.92	14164.92
484.10	14211.73
484.28	14363.87
484.46	14338.12
484.64	14834.32
484.82	14508.98
485.00	14913.89
485.18	15098.80
485.35	15325.83
485.53	15070.71
485.71	15321.15
485.89	15716.70
486.07	15583.29
486.25	15681.59
486.43	15602.01
486.61	15840.75
486.78	16114.59
486.96	16271.40
487.14	16257.36
487.32	16411.84
487.50	16524.18
487.68	16526.52
487.85	16720.79
488.03	17228.68
488.21	17228.68
488.39	17128.04
488.57	17289.54
488.75	17551.68
488.92	17556.36
489.10	17715.51
489.28	17523.59
489.46	17958.93
489.64	17750.62
489.81	18263.20
489.99	18279.58
490.17	18366.18
490.35	18817.91
490.53	18560.45
490.70	18792.16
490.88	18728.97
491.06	18979.40
491.24	19229.84
491.41	19150.26
491.59	19253.25
491.77	19569.22
491.95	19597.31
492.13	19922.64
492.30	19824.34
492.48	19948.39
492.66	20100.52
492.84	20435.22
493.01	20425.86
493.19	20507.77
493.37	20886.94
493.54	20924.39
493.72	20938.43
493.90	21074.18
494.08	20905.66
494.25	21294.19
494.43	21263.77
494.61	21685.06
494.79	21528.25
494.96	21596.12
495.14	21507.18
495.32	22302.96
495.49	21876.99
495.67	21816.13
495.85	22274.88
496.02	22541.70
496.20	22691.49
496.38	22782.77
496.55	22356.80
496.73	23194.71
496.91	22642.34
497.09	23302.37
497.26	23154.92
497.44	23344.50
497.62	23192.37
497.79	23700.26
497.97	23501.32
498.14	23824.31
498.32	24077.09
498.50	24100.50
498.67	24264.33
498.85	23978.79
499.03	24474.98
499.20	24362.64
499.38	24510.09
499.56	24404.77
499.73	24641.16
499.91	24844.79
500.08	25261.40
500.26	25149.06
500.44	25102.25
500.61	25172.46
500.79	25156.08
500.97	25422.90
501.14	25411.20
501.32	25876.96
501.49	25453.33
501.67	25710.78
501.84	25874.62
502.02	25710.78
502.20	25975.27
502.37	25759.94
502.55	25743.55
502.72	25961.22
502.90	26398.90
503.07	26106.34
503.25	26485.50
503.43	26445.71
503.60	26778.07
503.78	26574.44
503.95	26841.26
504.13	26918.50
504.30	26738.28
504.48	27063.61
504.65	27190.00
504.83	27601.94
505.01	27489.59
505.18	27562.15
505.36	27501.29
505.53	27285.97
505.71	27594.92
505.88	27917.91
506.06	27688.54
506.23	28208.14
506.41	27861.74
506.58	27983.44
506.76	28084.09
506.93	28437.51
507.11	28334.53
507.28	28643.48
507.46	28467.94
507.63	28620.07
507.81	28755.82
507.98	28542.83
508.16	29024.98
508.33	28795.61
508.50	29069.45
508.68	29041.37
508.85	29181.80
509.03	29275.42
509.20	29289.46
509.38	29530.54
509.55	29874.60
509.73	29376.06
509.90	29546.92
510.08	29989.28
510.25	29928.43
510.42	30422.28
510.60	29912.05
510.77	30305.26
510.95	30520.59
511.12	30487.82
511.30	30190.57
511.47	30555.69
511.64	30628.25
511.82	30480.80
511.99	30712.51
512.17	31068.27
512.34	31087.00
512.51	31178.28
512.69	30995.71
512.86	31171.25
513.04	31126.78
513.21	31740.00
513.38	31353.82
513.56	31468.50
513.73	31321.05
513.90	31777.45
514.08	31564.46
514.25	31976.40
514.43	31681.49
514.60	32051.30
514.77	32243.22
514.95	32320.46
515.12	31924.91
515.29	32343.86
515.47	32236.20
515.64	32547.49
515.81	32219.81
515.99	32418.76
516.16	32996.87
516.33	32652.81
516.51	32725.37
516.68	32704.31
516.85	32559.19
517.03	33160.71
517.20	33113.90
517.37	32924.32
517.54	33535.20
517.72	33425.19
517.89	33202.84
518.06	33572.64
518.24	33343.27
518.41	33773.93
518.58	33301.14
518.75	33387.74
518.93	34010.32
519.10	33715.42
519.27	33883.94
519.45	34108.63
519.62	33923.72
519.79	33851.17
519.96	33921.38
520.14	34223.31
520.31	33802.02
520.48	34471.41
520.65	34246.72
520.83	35068.25
521.00	34579.07
521.17	34550.99
521.34	34789.72
521.52	34937.18
521.69	35019.10
521.86	34969.94
522.03	35009.73
522.20	35407.62
522.38	35367.84
522.55	35442.73
522.72	35445.07
522.89	35269.53
523.07	36032.55
523.24	35709.55
523.41	35730.62
523.58	35887.43
523.75	35887.43
523.92	35798.49
524.10	36238.51
524.27	35864.03
524.44	35730.62
524.61	36479.59
524.78	35857.01
524.96	36273.62
525.13	36282.98
525.30	36528.74
525.47	36699.60
525.64	36666.83
525.81	36355.54
525.98	36926.63
526.16	36779.18
526.33	36856.42
526.50	37041.32
526.67	36744.07
526.84	37251.97
527.01	36783.86
527.18	37390.06
527.36	37247.29
527.53	37165.37
527.70	37586.66
527.87	37696.67
528.04	37521.13
528.21	37577.30
528.38	37270.69
528.55	37724.75
528.72	37614.75
528.89	38096.90
529.07	37460.27
529.24	37797.31
529.41	37874.55
529.58	37886.25
529.75	37888.59
529.92	37851.14
530.09	38347.34
530.26	38356.70
530.43	37975.19
530.60	37883.91
530.77	38052.43
530.94	38286.48
531.11	38066.47
531.28	38286.48
531.46	38518.20
531.63	38506.49
531.80	38321.59
531.97	38740.55
532.14	38403.51
532.31	39023.75
532.48	38829.49
532.65	38770.97
532.82	38693.74
532.99	38712.46
533.16	39014.39
533.33	39187.59
533.50	39199.29
533.67	39178.23
533.84	39000.35
534.01	39342.06
534.18	39220.36
534.35	39777.40
534.52	39885.07
534.69	40100.40
534.86	39826.56
535.03	39856.98
535.20	39938.90
535.37	40088.70
535.54	39955.29
535.71	40294.66
535.88	40062.95
536.05	39943.58
536.22	40226.79
536.38	39838.26
536.55	40215.08
536.72	39922.52
536.89	40044.23
537.06	40105.08
537.23	40591.91
537.40	40367.22
537.57	40535.74
537.74	40208.06
537.91	40814.26
538.08	40961.72
538.25	40514.67
538.42	40271.26
538.59	41038.95
538.75	40315.73
538.92	41015.55
539.09	41024.91
539.26	41179.39
539.43	40889.16
539.60	41146.62
539.77	40804.90
539.94	41312.80
540.11	40875.12
540.28	41102.15
540.44	41429.82
540.61	41237.90
540.78	41071.72
540.95	41298.75
541.12	41415.78
541.29	40989.80
541.46	41441.53
541.62	41460.25
541.79	41462.59
541.96	41825.37
542.13	41436.84
542.30	41780.90
542.47	42131.98
542.63	41954.10
542.80	42298.16
542.97	42129.64
543.14	42621.16
543.31	42445.62
543.48	42389.44
543.64	42883.30
543.81	42286.46
543.98	42656.26
544.15	42417.53
544.32	42759.25
544.48	43068.20
544.65	42611.79
544.82	42787.33
544.99	42555.62
545.16	42766.27
545.32	42628.18
545.49	42965.21
545.66	43105.65
545.83	42976.92
546.00	43206.29
546.16	42962.87
546.33	42813.08
546.50	43091.60
546.67	43501.20
546.83	43311.61
547.00	42927.77
547.17	42834.14
547.34	43299.91
547.50	43213.31
547.67	43854.62
547.84	43573.75
548.00	43550.35
548.17	43943.56
548.34	43718.87
548.51	43587.80
548.67	43763.34
548.84	44142.50
549.01	43442.68
549.18	43882.70
549.34	43819.51
549.51	43660.35
549.68	43896.75
549.84	44332.09
550.01	44479.54
550.18	43746.95
550.34	44027.82
550.51	43973.98
550.68	44502.95
550.84	43992.71
551.01	44416.35
551.18	44186.97
551.34	43847.60
551.51	44296.98
551.68	44720.62
551.84	44282.94
552.01	44112.08
552.18	44531.03
552.34	43976.33
552.51	44540.39
552.68	43784.40
552.84	44884.45
553.01	44788.49
553.18	44645.72
553.34	44928.92
553.51	44652.74
553.67	44921.90
553.84	44542.74
554.01	44769.77
554.17	44898.50
554.34	44912.54
554.51	44786.15
554.67	44947.65
554.84	45137.23
555.00	44910.20
555.17	44870.41
555.33	45233.19
555.50	45331.50
555.67	45141.91
555.83	45427.46
556.00	45535.12
556.16	45902.59
556.33	45336.18
556.50	45088.08
556.66	45574.91
556.83	45251.92
556.99	45872.16
557.16	45720.02
557.32	45808.96
557.49	45947.06
557.65	45345.54
557.82	45368.94
557.98	45804.28
558.15	45710.66
558.32	45825.35
558.48	45748.11
558.65	45797.26
558.81	45811.31
558.98	45918.97
559.14	45624.06
559.31	45656.83
559.47	45986.85
559.64	45855.78
559.80	45993.87
559.97	46206.86
560.13	45867.48
560.30	45785.56
560.46	46349.63
560.63	45944.72
560.79	46216.22
560.96	46066.42
561.12	46204.52
561.29	45867.48
561.45	46251.33
561.61	45918.97
561.78	46043.02
561.94	45883.86
562.11	46251.33
562.27	46148.34
562.44	46176.43
562.60	46237.28
562.77	46356.65
562.93	45886.20
563.10	46363.67
563.26	46319.20
563.42	46911.36
563.59	46246.65
563.75	46171.75
563.92	46724.11
564.08	46328.56
564.24	46504.10
564.41	46183.45
564.57	46314.52
564.74	46850.50
564.90	46141.32
565.07	46358.99
565.23	46490.06
565.39	46253.67
565.56	46485.38
565.72	46483.04
565.88	47042.43
566.05	46852.84
566.21	46656.24
566.38	46543.89
566.54	46738.16
566.70	46644.54
566.87	46660.92
567.03	46843.48
567.19	46696.03
567.36	47393.51
567.52	47194.56
567.68	47136.05
567.85	46806.03
568.01	47002.64
568.17	46616.45
568.34	47089.24
568.50	47049.45
568.66	46595.38
568.83	47208.61
568.99	46658.58
569.15	46784.97
569.32	46923.06
569.48	46787.31
569.64	47585.43
569.81	46782.63
569.97	47264.78
570.13	47309.25
570.30	46948.81
570.46	46930.08
570.62	47309.25
570.78	46777.95
570.95	47164.14
571.11	47068.17
571.27	46958.17
571.43	47168.82
571.60	46845.82
571.76	46822.42
571.92	47363.08
572.09	46848.16
572.25	47056.47
572.41	47131.37
572.57	47662.67
572.74	47189.88
572.90	47217.97
573.06	47164.14
573.22	47253.08
573.38	47908.43
573.55	47084.56
573.71	47655.65
573.87	47173.50
574.03	47742.25
574.20	47473.09
574.36	47707.14
574.52	47529.26
574.68	47407.55
574.84	47622.88
575.01	47709.48
575.17	47744.59
575.33	47482.45
575.49	47388.83
575.65	47566.71
575.82	47777.36
575.98	47299.89
576.14	47735.23
576.30	47842.89
576.46	47250.74
576.62	47627.56
576.79	47409.89
576.95	47208.61
577.11	47365.42
577.27	47641.60
577.43	47227.33
577.59	47873.32
577.75	47381.80
577.92	47096.26
578.08	47531.60
578.24	47962.26
578.40	47906.08
578.56	47510.53
578.72	47409.89
578.88	47543.30
579.04	47620.54
579.21	47243.71
579.37	47398.19
579.53	47620.54
579.69	47615.86
579.85	47356.06
580.01	47950.56
580.17	47351.38
580.33	47224.99
580.49	47798.42
580.65	47777.36
580.82	47604.16
580.98	47370.10
581.14	47566.71
581.30	47594.79
581.46	47620.54
581.62	47374.78
581.78	47377.12
581.94	47594.79
582.10	47789.06
582.26	47866.30
582.42	47866.30
582.58	47669.69
582.74	47625.22
582.90	47650.97
583.06	47892.04
583.22	47718.84
583.38	47672.03
583.54	48102.69
583.70	48100.35
583.86	47796.08
584.02	47714.16
584.18	47828.85
584.34	47744.59
584.50	48121.41
584.66	47852.25
584.82	48018.43
584.98	48210.35
585.14	48062.90
585.30	47707.14
585.46	47971.62
585.62	48046.52
585.78	47971.62
585.94	47606.50
586.10	48210.35
586.26	47611.18
586.42	47875.66
586.58	48332.06
586.74	47569.05
586.90	47770.33
587.06	47805.44
587.22	48161.20
587.38	47814.80
587.54	48222.06
587.70	48383.55
587.86	47929.49
588.02	47632.24
588.18	47927.15
588.34	48107.37
588.49	48355.47
588.65	47793.74
588.81	47728.20
588.97	48341.42
589.13	47913.11
589.29	48041.84
589.45	48409.30
589.61	48177.59
589.77	47957.58
589.93	48172.91
