SpectraSuite Data File
++++++++++++++++++++++++++++++++++++
Date: Fri Oct 25 11:23:53 EDT 2013
User: price-jones
Dark Spectrum Present: No
Reference Spectrum Present: No
Number of Sampled Component Spectra: 1
Spectrometers: USB2+H05261
Integration Time (usec): 100000 (USB2+H05261)
Spectra Averaged: 1 (USB2+H05261)
Boxcar Smoothing: 0 (USB2+H05261)
Correct for Electrical Dark: No (USB2+H05261)
Strobe/Lamp Enabled: No (USB2+H05261)
Correct for Detector Non-linearity: No (USB2+H05261)
Correct for Stray Light: No (USB2+H05261)
Number of Pixels in Processed Spectrum: 2048
>>>>>Begin Processed Spectral Data<<<<<
365.73	201.29
365.92	201.29
366.12	201.29
366.32	147.45
366.52	140.43
366.72	152.13
366.91	140.43
367.11	140.43
367.31	91.28
367.51	46.81
367.70	149.79
367.90	88.94
368.10	67.88
368.30	112.35
368.49	86.60
368.69	184.90
368.89	168.52
369.09	229.37
369.28	215.33
369.48	182.56
369.68	166.18
369.87	175.54
370.07	149.79
370.27	203.63
370.47	390.87
370.66	596.84
370.86	643.65
371.06	655.35
371.25	699.82
371.45	641.31
371.65	699.82
371.84	681.10
372.04	561.73
372.24	727.91
372.44	730.25
372.63	683.44
372.83	690.46
373.03	746.63
373.22	786.42
373.42	788.76
373.62	791.10
373.81	713.86
374.01	791.10
374.21	826.21
374.40	779.40
374.60	861.32
374.79	800.46
374.99	809.83
375.19	816.85
375.38	873.02
375.58	830.89
375.78	884.72
375.97	856.64
376.17	854.30
376.37	828.55
376.56	903.45
376.76	912.81
376.95	842.59
377.15	936.21
377.35	973.66
377.54	905.79
377.74	877.70
377.93	924.51
378.13	950.26
378.33	919.83
378.52	983.02
378.72	898.77
378.91	940.90
379.11	926.85
379.31	968.98
379.50	1027.50
379.70	1018.13
379.89	943.24
380.09	1006.43
380.28	976.00
380.48	1046.22
380.68	1022.81
380.87	987.71
381.07	1001.75
381.26	1008.77
381.46	1029.84
381.65	1076.65
381.85	1118.78
382.04	973.66
382.24	1015.79
382.43	1184.31
382.63	1086.01
382.83	1001.75
383.02	1158.57
383.22	1097.71
383.41	1114.10
383.61	1158.57
383.80	1130.48
384.00	1111.75
384.19	1090.69
384.39	1123.46
384.58	1116.44
384.78	1137.50
384.97	1139.84
385.17	1217.08
385.36	1193.67
385.56	1167.93
385.75	1212.40
385.95	1095.37
386.14	1165.59
386.34	1231.12
386.53	1263.89
386.72	1282.61
386.92	1329.42
387.11	1214.74
387.31	1301.34
387.50	1160.91
387.70	1287.29
387.89	1219.42
388.09	1203.04
388.28	1294.32
388.48	1357.51
388.67	1282.61
388.86	1362.19
389.06	1324.74
389.25	1371.55
389.45	1404.32
389.64	1376.24
389.84	1338.79
390.03	1392.62
390.22	1364.53
390.42	1334.11
390.61	1362.19
390.81	1469.86
391.00	1324.74
391.19	1516.67
391.39	1448.79
391.58	1399.64
391.78	1444.11
391.97	1535.39
392.16	1479.22
392.36	1509.65
392.55	1483.90
392.75	1570.50
392.94	1434.75
393.13	1467.52
393.33	1474.54
393.52	1654.76
393.71	1614.97
393.91	1661.78
394.10	1542.41
394.29	1661.78
394.49	1586.88
394.68	1528.37
394.88	1643.06
395.07	1657.10
395.26	1699.23
395.46	1668.80
395.65	1703.91
395.84	1717.95
396.04	1783.49
396.23	1732.00
396.42	1687.53
396.62	1696.89
396.81	1727.32
397.00	1692.21
397.19	1781.15
397.39	1799.87
397.58	1879.45
397.77	1809.23
397.97	1834.98
398.16	1778.81
398.35	1912.22
398.55	1902.86
398.74	1900.52
398.93	1959.03
399.12	1949.67
399.32	1968.39
399.51	1832.64
399.70	1942.64
399.90	1874.77
400.09	1982.43
400.28	1947.33
400.47	2003.50
400.67	2122.87
400.86	2083.08
401.05	2076.06
401.24	2183.72
401.44	2157.97
401.63	2125.21
401.82	2122.87
402.01	2162.66
402.21	2125.21
402.40	2153.29
402.59	2097.12
402.78	2263.30
402.97	2064.35
403.17	2298.41
403.36	2293.72
403.55	2375.64
403.74	2300.75
403.93	2333.51
404.13	2354.58
404.32	2413.09
404.51	2354.58
404.70	2459.90
404.89	2321.81
405.09	2403.73
405.28	2471.61
405.47	2441.18
405.66	2443.52
405.85	2499.69
406.05	2490.33
406.24	2445.86
406.43	2621.40
406.62	2743.11
406.81	2583.95
407.00	2548.84
407.20	2654.17
407.39	2670.55
407.58	2747.79
407.77	2766.51
407.96	2698.64
408.15	2820.35
408.34	2724.38
408.54	2935.03
408.73	2801.62
408.92	2841.41
409.11	2815.66
409.30	2895.24
409.49	3009.93
409.68	3009.93
409.87	2956.10
410.07	3026.31
410.26	2939.71
410.45	3091.85
410.64	3089.51
410.83	3152.70
411.02	3262.71
411.21	3110.57
411.40	3145.68
411.59	3187.81
411.78	3164.40
411.98	3145.68
412.17	3297.81
412.36	3335.26
412.55	3386.76
412.74	3534.21
412.93	3456.97
413.12	3363.35
413.31	3630.17
413.50	3499.10
413.69	3442.93
413.88	3644.21
414.07	3517.83
414.26	3641.87
414.45	3726.13
414.64	3669.96
414.83	3815.07
415.02	3845.50
415.22	3887.63
415.41	3873.59
415.60	4044.45
415.79	3770.60
415.98	3988.27
416.17	3983.59
416.36	4051.47
416.55	4056.15
416.74	4168.49
416.93	4009.34
417.12	4093.60
417.31	4109.98
417.50	4154.45
417.69	4374.46
417.88	4250.41
418.07	4266.80
418.26	4379.14
418.45	4390.84
418.64	4636.60
418.83	4500.85
419.02	4512.55
419.21	4624.90
419.39	4505.53
419.58	4594.47
419.77	4470.42
419.96	4648.30
420.15	4568.73
420.34	4561.70
420.53	4552.34
420.72	4793.42
420.91	4620.22
421.10	4732.56
421.29	4739.58
421.48	4882.36
421.67	4889.38
421.86	4779.37
422.05	4922.15
422.24	4716.18
422.43	4849.59
422.61	4793.42
422.80	5083.64
422.99	4880.02
423.18	4896.40
423.37	5046.20
423.56	4975.98
423.75	4826.18
423.94	4798.10
424.13	4650.64
424.32	4732.56
424.50	5008.75
424.69	5022.79
424.88	5125.77
425.07	5055.56
425.26	5095.35
425.45	4964.28
425.64	5041.51
425.83	5050.88
426.01	5111.73
426.20	4910.44
426.39	5027.47
426.58	4910.44
426.77	5097.69
426.96	5207.69
427.15	5228.76
427.33	5207.69
427.52	5200.67
427.71	5369.19
427.90	5369.19
428.09	5324.72
428.28	5369.19
428.46	5397.28
428.65	5469.83
428.84	5671.12
429.03	5556.43
429.22	5352.81
429.40	5486.22
429.59	5556.43
429.78	5298.97
429.97	5245.14
430.16	5453.45
430.34	5659.42
430.53	5572.82
430.72	5717.93
430.91	5589.20
431.10	5643.03
431.28	5720.27
431.47	5774.10
431.66	5966.03
431.85	5874.74
432.03	6040.92
432.22	6036.24
432.41	5961.34
432.60	5968.37
432.79	6001.13
432.97	6106.46
433.16	6071.35
433.35	5839.64
433.54	6183.70
433.72	6146.25
433.91	6197.74
434.10	6270.30
434.28	5975.39
434.47	6242.21
434.66	6230.51
434.85	6286.68
435.03	6431.79
435.22	6242.21
435.41	6436.47
435.59	6359.24
435.78	6574.56
435.97	6544.14
436.16	6312.42
436.34	6356.90
436.53	6647.12
436.72	6600.31
436.90	6635.42
437.09	6754.79
437.28	6558.18
437.46	6839.05
437.65	6747.76
437.84	6832.02
438.02	6642.44
438.21	6857.77
438.40	6773.51
438.58	7080.12
438.77	7162.04
438.96	7030.97
439.14	7101.19
439.33	7241.62
439.52	7255.66
439.70	7290.77
439.89	7405.46
440.08	7428.86
440.26	7438.22
440.45	7260.34
440.63	7534.18
440.82	7496.74
441.01	7407.80
441.19	7555.25
441.38	7630.15
441.57	7880.58
441.75	7843.14
441.94	8056.12
442.12	7815.05
442.31	7962.50
442.50	7955.48
442.68	8009.31
442.87	8084.21
443.05	8159.11
443.24	8344.01
443.43	8215.28
443.61	8203.58
443.80	8332.31
443.98	8035.06
444.17	7978.89
444.35	8257.41
444.54	8617.85
444.73	8470.40
444.91	8299.54
445.10	8222.30
445.28	8365.07
445.47	8348.69
445.65	8376.78
445.84	8648.28
446.02	8662.32
446.21	8402.52
446.39	8376.78
446.58	8531.25
446.77	8379.12
446.95	8458.70
447.14	8421.25
447.32	8641.26
447.51	8531.25
447.69	8393.16
447.88	8603.81
448.06	8564.02
448.25	8423.59
448.43	8739.56
448.62	8791.05
448.80	8526.57
448.99	8491.46
449.17	8959.57
449.36	8760.63
449.54	8851.91
449.73	9036.81
449.91	9123.41
450.10	9020.42
450.28	9100.00
450.46	9163.20
450.65	9076.60
450.83	9172.56
451.02	9076.60
451.20	9399.59
451.39	9151.49
451.57	9357.46
451.76	9121.07
451.94	9238.09
452.13	9380.87
452.31	9252.14
452.49	9144.47
452.68	9483.85
452.86	9312.99
453.05	9650.03
453.23	9502.58
453.42	9479.17
453.60	9357.46
453.78	9598.54
453.97	9558.75
454.15	9598.54
454.34	9537.68
454.52	9827.91
454.70	9678.12
454.89	9654.71
455.07	9771.74
455.26	9940.26
455.44	10033.88
455.62	9905.15
455.81	10061.96
455.99	10045.58
456.17	10174.31
456.36	10272.61
456.54	10347.51
456.73	10356.87
456.91	10506.66
457.09	10534.75
457.28	10546.45
457.46	10258.57
457.64	10691.57
457.83	10686.89
458.01	10490.28
458.19	10719.65
458.38	10590.92
458.56	10841.36
458.74	10623.69
458.93	10635.39
459.11	10604.97
459.29	10979.45
459.48	10960.73
459.66	10574.54
459.84	11103.50
460.03	11014.56
460.21	11138.61
460.39	11103.50
460.57	10967.75
460.76	11243.93
460.94	11314.15
461.12	11239.25
461.31	11283.72
461.49	11323.51
461.67	11295.43
461.85	11485.01
462.04	11335.21
462.22	11690.98
462.40	11674.59
462.59	11403.09
462.77	11644.17
462.95	11803.32
463.13	11627.78
463.32	11520.12
463.50	11936.73
463.68	11686.29
463.86	11791.62
464.05	11805.66
464.23	11768.21
464.41	12095.89
464.59	11667.57
464.78	12067.80
464.96	11995.25
465.14	11798.64
465.32	12182.49
465.50	12210.57
465.69	12339.30
465.87	11978.86
466.05	12128.66
466.23	12332.28
466.41	12109.93
466.60	12552.29
466.78	12229.30
466.96	12264.41
467.14	12624.85
467.32	12243.34
467.51	12531.23
467.69	12248.02
467.87	12226.96
468.05	12439.95
468.23	12498.46
468.41	12449.31
468.60	12737.20
468.78	12795.71
468.96	12844.86
469.14	12940.82
469.32	13067.21
469.50	12575.70
469.69	13188.92
469.87	13219.35
470.05	13001.68
470.23	13308.29
470.41	13099.98
470.59	13570.43
470.77	13521.27
470.95	13411.27
471.14	13619.58
471.32	13336.37
471.50	13603.19
471.68	13572.77
471.86	13582.13
472.04	13748.31
472.22	13940.23
472.40	13689.79
472.58	13996.40
472.77	14256.20
472.95	14017.47
473.13	14815.59
473.31	14195.35
473.49	14403.66
473.67	14335.78
473.85	14328.76
474.03	14785.16
474.21	14675.16
474.39	14951.34
474.57	14839.00
474.75	15211.14
474.93	15213.48
475.12	15016.88
475.30	15407.75
475.48	15000.49
475.66	15105.82
475.84	15101.14
476.02	15499.03
476.20	15587.97
476.38	15702.65
476.56	15960.11
476.74	15929.69
476.92	16011.60
477.10	15861.81
477.28	16175.44
477.46	16088.84
477.64	16442.26
477.82	16788.66
478.00	16807.39
478.18	16943.14
478.36	17081.23
478.54	17041.44
478.72	17453.37
478.90	17788.07
479.08	17472.10
479.26	17785.73
479.44	17825.52
479.62	17752.96
479.80	18286.61
479.98	18260.86
480.16	18590.88
480.34	18382.57
480.52	18665.77
480.70	18686.84
480.88	18349.80
481.06	18923.23
481.24	19049.62
481.41	19241.54
481.59	19370.27
481.77	19475.60
481.95	19789.23
482.13	19749.44
482.31	19674.54
482.49	20524.16
482.67	20510.11
482.85	20568.63
483.03	20870.56
483.21	21266.11
483.39	20980.56
483.57	20900.98
483.74	21032.05
483.92	21635.91
484.10	21348.03
484.28	21869.97
484.46	22202.32
484.64	22466.80
484.82	22368.50
485.00	22518.29
485.18	23058.96
485.35	23108.11
485.53	23105.77
485.71	23232.16
485.89	23641.75
486.07	23316.42
486.25	23669.84
486.43	23740.05
486.61	24053.69
486.78	24229.23
486.96	24301.78
487.14	24709.04
487.32	24819.04
487.50	24938.41
487.68	25174.80
487.85	25612.48
488.03	25446.30
488.21	26043.14
488.39	25919.09
488.57	26480.82
488.75	26658.70
488.92	26698.49
489.10	26902.12
489.28	26764.03
489.46	27480.23
489.64	26742.96
489.81	28208.14
489.99	27969.40
490.17	27924.93
490.35	28357.93
490.53	28290.06
490.70	28765.18
490.88	28336.87
491.06	29043.71
491.24	28744.12
491.41	29249.67
491.59	29244.99
491.77	29039.03
491.95	29902.68
492.13	29909.71
492.30	30087.59
492.48	30258.45
492.66	30312.28
492.84	30672.72
493.01	30824.86
493.19	30609.53
493.37	31321.05
493.54	31344.45
493.72	31983.42
493.90	31580.85
494.08	32032.57
494.25	32177.68
494.43	32364.93
494.61	32320.46
494.79	33034.32
494.96	32652.81
495.14	33031.98
495.32	33366.68
495.49	33495.41
495.67	33521.15
495.85	33612.43
496.02	34099.26
496.20	34092.24
496.38	34476.09
496.55	34338.00
496.73	34890.37
496.91	34834.19
497.09	35194.64
497.26	35145.48
497.44	34909.09
497.62	35852.33
497.79	36357.88
497.97	35461.46
498.14	36095.74
498.32	36280.64
498.50	36257.24
498.67	36687.90
498.85	37024.93
499.03	37013.23
499.20	37195.79
499.38	37193.45
499.56	37350.27
499.73	37462.61
499.91	37528.15
500.08	37869.87
500.26	37486.02
500.44	37844.12
500.61	38059.45
500.79	38038.39
500.97	38199.88
501.14	38808.42
501.32	38871.62
501.49	39061.20
501.67	38925.45
501.84	39363.13
502.02	39431.01
502.20	39292.91
502.37	39477.82
502.55	39108.01
502.72	39700.17
502.90	39749.32
503.07	39922.52
503.25	39908.47
503.43	39957.63
503.60	40011.46
503.78	40098.06
503.95	40439.78
504.13	40713.62
504.30	40612.98
504.48	40954.69
504.65	41256.62
504.83	41591.32
505.01	41659.20
505.18	41165.34
505.36	41469.61
505.53	41244.92
505.71	41926.02
505.88	41858.14
506.06	41469.61
506.23	42216.24
506.41	41769.20
506.58	42724.14
506.76	42525.19
506.93	42576.69
507.11	42499.45
507.28	42443.27
507.46	42707.76
507.63	43028.41
507.81	43182.88
507.98	43047.13
508.16	43208.63
508.33	43559.71
508.50	43714.19
508.68	43903.77
508.85	43805.47
509.03	44336.77
509.20	44156.55
509.38	44346.13
509.55	44481.88
509.73	44332.09
509.90	44559.12
510.08	44809.56
510.25	44662.10
510.42	44900.84
510.60	45352.56
510.77	45600.66
510.95	45682.58
511.12	45441.50
511.30	45476.61
511.47	45897.91
511.64	45722.37
511.82	46251.33
511.99	45888.54
512.17	46454.95
512.34	45881.52
512.51	46579.00
512.69	46469.00
512.86	46454.95
513.04	46834.12
513.21	46614.11
513.38	46864.55
513.56	47262.44
513.73	47126.69
513.90	47353.72
514.08	47164.14
514.25	47126.69
514.43	47496.49
514.60	47681.39
514.77	47847.57
514.95	47964.60
515.12	48098.01
515.29	47466.06
515.47	48112.05
515.64	48388.24
515.81	48027.79
515.99	48645.69
516.16	48470.15
516.33	48540.37
516.51	48549.73
516.68	48814.21
516.85	48844.64
517.03	49104.44
517.20	49125.50
517.37	49399.35
517.54	49169.97
517.72	49251.89
517.89	49235.51
518.06	49537.44
518.24	49411.05
518.41	49588.93
518.58	49429.77
518.75	49427.43
518.93	49380.62
519.10	49471.90
519.27	49815.96
519.45	50122.57
519.62	50141.30
519.79	50145.98
519.96	50342.58
520.14	50099.17
520.31	50204.49
520.48	50630.47
520.65	50794.31
520.83	50981.55
521.00	51112.62
521.17	50815.37
521.34	50911.33
521.52	50763.88
521.69	51119.64
521.86	51044.74
522.03	51257.73
522.20	51901.38
522.38	51477.74
522.55	51608.81
522.72	51592.43
522.89	51367.74
523.07	51709.46
523.24	51669.67
523.41	51849.89
523.58	51618.17
523.75	51906.06
523.92	51803.08
524.10	52023.09
524.27	52081.60
524.44	52360.12
524.61	52200.97
524.78	52577.79
524.96	52088.62
525.13	52254.80
525.30	52982.71
525.47	52776.74
525.64	52708.86
525.81	52762.70
525.98	53071.65
526.16	52802.49
526.33	52701.84
526.50	52987.39
526.67	53059.94
526.84	53249.53
527.01	53029.52
527.18	53097.39
527.36	53169.95
527.53	53277.61
527.70	53734.02
527.87	53621.67
528.04	53457.84
528.21	53682.53
528.38	53251.87
528.55	53832.32
528.72	53476.56
528.89	53462.52
529.07	53652.10
529.24	53712.95
529.41	54162.34
529.58	53738.70
529.75	53698.91
529.92	53851.05
530.09	53975.09
530.26	54085.10
530.43	54436.18
530.60	54068.72
530.77	54003.18
530.94	54000.84
531.11	54024.25
531.28	54298.09
531.46	54096.80
531.63	54312.13
531.80	54344.90
531.97	54541.50
532.14	54637.47
532.31	54773.22
532.48	54714.70
532.65	54721.72
532.82	54527.46
532.99	54782.58
533.16	54866.84
533.33	55016.63
533.50	55374.73
533.67	54958.12
533.84	54845.77
534.01	55143.02
534.18	55217.92
534.35	55196.85
534.52	55185.15
534.69	55482.40
534.86	55473.04
535.03	55316.22
535.20	55325.58
535.37	55569.00
535.54	55274.09
535.71	55501.12
535.88	55590.06
536.05	55601.77
536.22	55781.99
536.38	55852.20
536.55	55772.63
536.72	55688.37
536.89	55704.75
537.06	55950.51
537.23	56030.08
537.40	55807.73
537.57	55819.44
537.74	55906.04
537.91	56231.37
538.08	55964.55
538.25	56027.74
538.42	55786.67
538.59	56259.46
538.75	56259.46
538.92	56011.36
539.09	56418.61
539.26	56259.46
539.43	56320.31
539.60	56437.34
539.77	56549.68
539.94	56589.47
540.11	56442.02
540.28	56399.89
540.44	56535.64
540.61	56657.35
540.78	56477.13
540.95	56603.52
541.12	56535.64
541.29	56779.06
541.46	56666.71
541.62	56835.23
541.79	56711.18
541.96	56444.36
542.13	56711.18
542.30	56797.78
542.47	56987.36
542.63	56912.47
542.80	57073.96
542.97	57092.69
543.14	57436.75
543.31	57277.59
543.48	57221.42
543.64	57464.83
543.81	57628.67
543.98	57471.85
544.15	57523.35
544.32	57654.42
544.48	57719.95
544.65	57457.81
544.82	57635.69
544.99	57373.55
545.16	57598.24
545.32	57509.30
545.49	57806.55
545.66	57872.09
545.83	57666.12
546.00	57925.92
546.16	57902.51
546.33	57799.53
546.50	57481.22
546.67	58000.82
546.83	57495.26
547.00	57944.64
547.17	57876.77
547.34	58087.42
547.50	57907.19
547.67	58246.57
547.84	58185.72
548.00	58239.55
548.17	58363.60
548.34	58152.95
548.51	58452.54
548.67	58576.59
548.84	58197.42
549.01	58358.92
549.18	58344.87
549.34	58253.59
549.51	58567.23
549.68	58520.41
549.84	58555.52
550.01	58457.22
550.18	58176.36
550.34	58677.23
550.51	58660.85
550.68	58555.52
550.84	58445.52
551.01	58822.34
551.18	58672.55
551.34	58710.00
551.51	59030.65
551.68	58986.18
551.84	58754.47
552.01	58482.97
552.18	58695.95
552.34	58712.34
552.51	58831.71
552.68	58628.08
552.84	58937.03
553.01	59180.45
553.18	58962.78
553.34	59189.81
553.51	59025.97
553.67	59044.69
553.84	59002.56
554.01	59061.08
554.17	59128.95
554.34	59133.63
554.51	58990.86
554.67	59203.85
554.84	58932.35
555.00	59011.93
555.17	59009.59
555.33	59178.10
555.50	58965.12
555.67	59231.94
555.83	59192.15
556.00	59423.86
556.16	59334.92
556.33	59234.28
556.50	59372.37
556.66	59456.63
556.83	59414.50
556.99	59465.99
557.16	59583.02
557.32	59618.13
557.49	59667.28
557.65	59440.24
557.82	59573.66
557.98	59386.41
558.15	59580.68
558.32	59686.00
558.48	59412.16
558.65	59709.41
558.81	59618.13
558.98	59561.95
559.14	59957.50
559.31	59784.30
559.47	59957.50
559.64	59838.14
559.80	59746.86
559.97	59906.01
560.13	59875.58
560.30	59763.24
560.46	59891.97
560.63	59938.78
560.79	60102.62
560.96	59936.44
561.12	59934.10
561.29	59676.64
561.45	59957.50
561.61	59920.05
561.78	59927.08
561.94	60062.83
562.11	60053.47
562.27	59910.69
562.44	60065.17
562.60	60346.03
562.77	59880.27
562.93	59821.75
563.10	59969.21
563.26	60076.87
563.42	60388.16
563.59	60041.76
563.75	60083.89
563.92	60088.57
564.08	60282.84
564.24	60257.09
564.41	60257.09
564.57	60320.29
564.74	60175.17
564.90	60163.47
565.07	60287.52
565.23	60154.11
565.39	60184.54
565.56	60259.43
565.72	60221.98
565.88	60163.47
566.05	60423.27
566.21	60346.03
566.38	60203.26
566.54	60214.96
566.70	60378.80
566.87	60526.25
567.03	60334.33
567.19	60362.42
567.36	60523.91
567.52	60495.83
567.68	60830.52
567.85	60657.32
568.01	60774.35
568.17	60481.78
568.34	60596.47
568.50	60453.70
568.66	60549.66
568.83	60411.57
568.99	60451.36
569.15	60458.38
569.32	60463.06
569.48	60521.57
569.64	60570.72
569.81	60479.44
569.97	60514.55
570.13	60535.62
570.30	60420.93
570.46	60350.71
570.62	60643.28
570.78	60772.01
570.95	60671.37
571.11	60746.26
571.27	60683.07
571.43	60720.52
571.60	60701.79
571.76	60566.04
571.92	60879.67
572.09	60959.25
572.25	60832.86
572.41	60530.93
572.57	60928.83
572.74	61043.51
572.90	61132.45
573.06	60736.90
573.22	60727.54
573.38	60804.78
573.55	60666.69
573.71	61127.77
573.87	60961.59
574.03	60666.69
574.20	60856.27
574.36	60708.82
574.52	60886.70
574.68	60671.37
574.84	60921.80
575.01	60963.93
575.17	60884.36
575.33	60762.65
575.49	60821.16
575.65	60687.75
575.82	60954.57
575.98	61006.06
576.14	61013.08
576.30	60970.96
576.46	60772.01
576.62	60846.91
576.79	60886.70
576.95	60793.07
577.11	60734.56
577.27	60874.99
577.43	61027.13
577.59	60903.08
577.75	61062.24
577.92	61006.06
578.08	60961.59
578.24	60956.91
578.40	61064.58
578.56	61022.45
578.72	60985.00
578.88	61048.19
579.04	61130.11
579.21	61071.60
579.37	60947.55
579.53	61036.49
579.69	60994.36
579.85	60985.00
580.01	60938.19
580.17	60931.17
580.33	61006.06
580.49	61120.75
580.65	60774.35
580.82	60884.36
580.98	60905.42
581.14	60931.17
581.30	61095.00
581.46	60905.42
581.62	60963.93
581.78	60882.02
581.94	61034.15
582.10	61076.28
582.26	60858.61
582.42	61041.17
582.58	61169.90
582.74	60797.76
582.90	60999.04
583.06	61095.00
583.22	60989.68
583.38	60877.33
583.54	61116.07
583.70	61111.39
583.86	61345.44
584.02	61172.24
584.18	61317.35
584.34	60980.32
584.50	61155.86
584.66	61043.51
584.82	60956.91
584.98	61242.46
585.14	61137.13
585.30	61029.47
585.46	61167.56
585.62	61111.39
585.78	61141.81
585.94	60996.70
586.10	61137.13
586.26	61300.97
586.42	61432.04
586.58	61188.63
586.74	61197.99
586.90	61146.50
587.06	61158.20
587.22	61361.82
587.38	61132.45
587.54	61230.75
587.70	61354.80
587.86	61118.41
588.02	61169.90
588.18	61303.31
588.34	61230.75
588.49	61165.22
