SpectraSuite Data File
++++++++++++++++++++++++++++++++++++
Date: Fri Oct 25 11:33:19 EDT 2013
User: price-jones
Dark Spectrum Present: No
Reference Spectrum Present: No
Number of Sampled Component Spectra: 1
Spectrometers: USB2+H05261
Integration Time (usec): 100000 (USB2+H05261)
Spectra Averaged: 1 (USB2+H05261)
Boxcar Smoothing: 0 (USB2+H05261)
Correct for Electrical Dark: No (USB2+H05261)
Strobe/Lamp Enabled: No (USB2+H05261)
Correct for Detector Non-linearity: No (USB2+H05261)
Correct for Stray Light: No (USB2+H05261)
Number of Pixels in Processed Spectrum: 2048
>>>>>Begin Processed Spectral Data<<<<<
365.73	311.29
365.92	311.29
366.12	311.29
366.32	180.22
366.52	131.07
366.72	196.60
366.91	175.54
367.11	210.65
367.31	161.50
367.51	156.82
367.70	95.96
367.90	133.41
368.10	156.82
368.30	138.09
368.49	180.22
368.69	142.77
368.89	227.03
369.09	210.65
369.28	196.60
369.48	170.86
369.68	212.99
369.87	245.76
370.07	191.92
370.27	320.65
370.47	351.08
370.66	496.19
370.86	582.79
371.06	540.66
371.25	589.82
371.45	521.94
371.65	580.45
371.84	477.47
372.04	566.41
372.24	580.45
372.44	543.00
372.63	571.09
372.83	615.56
373.03	557.05
373.22	561.73
373.42	645.99
373.62	580.45
373.81	676.41
374.01	664.71
374.21	601.52
374.40	643.65
374.60	746.63
374.79	634.29
374.99	645.99
375.19	655.35
375.38	683.44
375.58	709.18
375.78	674.07
375.97	629.60
376.17	636.63
376.37	655.35
376.56	695.14
376.76	599.18
376.95	690.46
377.15	692.80
377.35	704.50
377.54	683.44
377.74	636.63
377.93	709.18
378.13	676.41
378.33	737.27
378.52	678.76
378.72	711.52
378.91	676.41
379.11	753.65
379.31	624.92
379.50	718.54
379.70	718.54
379.89	755.99
380.09	653.01
380.28	755.99
380.48	713.86
380.68	793.44
380.87	819.19
381.07	791.10
381.26	755.99
381.46	823.87
381.65	849.61
381.85	690.46
382.04	802.80
382.24	770.04
382.43	758.33
382.63	833.23
382.83	772.38
383.02	805.14
383.22	847.27
383.41	835.57
383.61	767.70
383.80	837.91
384.00	875.36
384.19	681.10
384.39	849.61
384.58	793.44
384.78	861.32
384.97	887.06
385.17	828.55
385.36	891.74
385.56	816.85
385.75	896.43
385.95	866.00
386.14	917.49
386.34	826.21
386.53	880.04
386.72	861.32
386.92	821.53
387.11	898.77
387.31	870.68
387.50	938.55
387.70	915.15
387.89	961.96
388.09	847.27
388.28	915.15
388.48	863.66
388.67	905.79
388.86	917.49
389.06	854.30
389.25	842.59
389.45	1006.43
389.64	1015.79
389.84	1001.75
390.03	959.62
390.22	940.90
390.42	910.47
390.61	858.98
390.81	1008.77
391.00	1053.24
391.19	1107.07
391.39	1013.45
391.58	966.64
391.78	1015.79
391.97	1011.11
392.16	1029.84
392.36	1046.22
392.55	1076.65
392.75	1093.03
392.94	1055.58
393.13	1039.20
393.33	1055.58
393.52	1001.75
393.71	1069.62
393.91	1137.50
394.10	1163.25
394.29	1083.67
394.49	1160.91
394.68	1132.82
394.88	1086.01
395.07	1200.69
395.26	1165.59
395.46	1200.69
395.65	1228.78
395.84	1191.33
396.04	1275.59
396.23	1181.97
396.42	1348.15
396.62	1151.54
396.81	1235.80
397.00	1179.63
397.19	1156.22
397.39	1219.42
397.58	1226.44
397.77	1252.19
397.97	1299.00
398.16	1296.66
398.35	1315.38
398.55	1308.36
398.74	1317.72
398.93	1430.07
399.12	1343.47
399.32	1287.29
399.51	1338.79
399.70	1348.15
399.90	1247.51
400.09	1331.76
400.28	1418.36
400.47	1369.21
400.67	1350.49
400.86	1453.47
401.05	1409.00
401.24	1387.94
401.44	1544.75
401.63	1448.79
401.82	1401.98
402.01	1500.28
402.21	1554.12
402.40	1462.83
402.59	1521.35
402.78	1502.62
402.97	1586.88
403.17	1507.30
403.36	1472.20
403.55	1533.05
403.74	1640.72
403.93	1603.27
404.13	1533.05
404.32	1598.59
404.51	1556.46
404.70	1727.32
404.89	1565.82
405.09	1741.36
405.28	1694.55
405.47	1699.23
405.66	1685.19
405.85	1781.15
406.05	1727.32
406.24	1783.49
406.43	1771.79
406.62	1832.64
406.81	1788.17
407.00	1858.39
407.20	1650.08
407.39	1842.00
407.58	1799.87
407.77	1827.96
407.96	1884.13
408.15	1853.70
408.34	1893.49
408.54	1935.62
408.73	1935.62
408.92	1959.03
409.11	1933.28
409.30	2001.16
409.49	2017.54
409.68	1975.41
409.87	2026.90
410.07	2062.01
410.26	1994.14
410.45	2026.90
410.64	2036.27
410.83	2167.34
411.02	2165.00
411.21	2162.66
411.40	2141.59
411.59	2207.13
411.78	2307.77
411.98	2230.53
412.17	2237.55
412.36	2289.04
412.55	2155.63
412.74	2232.87
412.93	2349.90
413.12	2340.54
413.31	2445.86
413.50	2506.71
413.69	2239.89
413.88	2551.18
414.07	2459.90
414.26	2581.61
414.45	2436.50
414.64	2590.97
414.83	2583.95
415.02	2576.93
415.22	2729.06
415.41	2665.87
415.60	2682.25
415.79	2736.09
415.98	2724.38
416.17	2773.53
416.36	2619.06
416.55	2820.35
416.74	2752.47
416.93	2813.32
417.12	2862.48
417.31	3030.99
417.50	2867.16
417.69	2944.39
417.88	2977.16
418.07	2911.63
418.26	2916.31
418.45	2937.37
418.64	3047.38
418.83	3096.53
419.02	3082.49
419.21	3155.04
419.39	3047.38
419.58	3040.36
419.77	3028.65
419.96	3129.30
420.15	3253.34
420.34	3105.89
420.53	3204.19
420.72	3236.96
420.91	3328.24
421.10	3330.58
421.29	3302.50
421.48	3295.47
421.67	3449.95
421.86	3379.73
422.05	3389.10
422.24	3328.24
422.43	3358.67
422.61	3449.95
422.80	3456.97
422.99	3534.21
423.18	3321.22
423.37	3531.87
423.56	3424.20
423.75	3421.86
423.94	3382.07
424.13	3272.07
424.32	3356.33
424.50	3321.22
424.69	3552.93
424.88	3356.33
425.07	3445.27
425.26	3487.40
425.45	3536.55
425.64	3463.99
425.83	3524.85
426.01	3562.30
426.20	3569.32
426.39	3576.34
426.58	3501.44
426.77	3433.57
426.96	3531.87
427.15	3506.12
427.33	3592.72
427.52	3602.08
427.71	3758.90
427.90	3599.74
428.09	3698.05
428.28	3548.25
428.46	3646.55
428.65	3740.18
428.84	3850.18
429.03	3772.94
429.22	3742.52
429.40	3754.22
429.59	3901.67
429.78	3712.09
429.97	3644.21
430.16	3672.30
430.34	3833.80
430.53	4025.72
430.72	3939.12
430.91	3899.33
431.10	3868.91
431.28	3995.29
431.47	4021.04
431.66	4002.32
431.85	3988.27
432.03	4138.07
432.22	4198.92
432.41	4039.76
432.60	4100.62
432.79	3960.19
432.97	4081.89
433.16	4135.73
433.35	4163.81
433.54	4159.13
433.72	4217.65
433.91	4189.56
434.10	4278.50
434.28	4250.41
434.47	4231.69
434.66	4294.88
434.85	4194.24
435.03	4400.21
435.22	4435.32
435.41	4500.85
435.59	4383.82
435.78	4465.74
435.97	4423.61
436.16	4388.50
436.34	4477.44
436.53	4381.48
436.72	4498.51
436.90	4432.97
437.09	4655.33
437.28	4648.30
437.46	4643.62
437.65	4683.41
437.84	4643.62
438.02	4599.15
438.21	4596.81
438.40	4620.22
438.58	4849.59
438.77	4793.42
438.96	4751.29
439.14	4709.16
439.33	4959.60
439.52	5170.24
439.70	4863.63
439.89	4994.70
440.08	4912.78
440.26	5095.35
440.45	5074.28
440.63	5181.95
440.82	5212.37
441.01	5135.14
441.19	5273.23
441.38	5280.25
441.57	5315.36
441.75	5263.86
441.94	5547.07
442.12	5493.24
442.31	5343.44
442.50	5617.29
442.68	5486.22
442.87	5364.51
443.05	5481.53
443.24	5633.67
443.43	5621.97
443.61	5507.28
443.80	5926.24
443.98	5633.67
444.17	5359.83
444.35	5685.16
444.54	5647.71
444.73	5694.52
444.91	5636.01
445.10	5535.37
445.28	5640.69
445.47	5710.91
445.65	5820.91
445.84	5926.24
446.02	5973.05
446.21	5809.21
446.39	5708.57
446.58	5811.55
446.77	5781.12
446.95	5788.14
447.14	5788.14
447.32	5762.40
447.51	5867.72
447.69	5839.64
447.88	5811.55
448.06	5900.49
448.25	5865.38
448.43	5776.44
448.62	5750.70
448.80	5923.90
448.99	5849.00
449.17	5905.17
449.36	6033.90
449.54	6003.47
449.73	5872.40
449.91	6108.80
450.10	6008.16
450.28	6141.57
450.46	6094.76
450.65	6174.33
450.83	6216.46
451.02	6162.63
451.20	6204.76
451.39	6193.06
451.57	5989.43
451.76	6040.92
451.94	6097.10
452.13	6492.65
452.31	6326.47
452.49	6345.19
452.68	6429.45
452.86	6413.07
453.05	6525.41
453.23	6480.94
453.42	6361.58
453.60	6473.92
453.78	6497.33
453.97	6436.47
454.15	6541.80
454.34	6253.91
454.52	6553.50
454.70	6551.16
454.89	6670.53
455.07	6637.76
455.26	6722.02
455.44	6775.85
455.62	6700.95
455.81	6761.81
455.99	6768.83
456.17	6712.66
456.36	6724.36
456.54	6857.77
456.73	7136.29
456.91	7105.87
457.09	6944.37
457.28	7101.19
457.46	7035.65
457.64	7133.95
457.83	6944.37
458.01	7045.01
458.19	7187.79
458.38	7080.12
458.56	7082.46
458.74	7250.98
458.93	7243.96
459.11	7269.70
459.29	7358.64
459.48	7208.85
459.66	7485.03
459.84	7283.75
460.03	7513.12
460.21	7510.78
460.39	7346.94
460.57	7342.26
460.76	7609.08
460.94	7604.40
461.12	7613.76
461.31	7440.56
461.49	7545.89
461.67	7648.87
461.85	7812.71
462.04	7618.44
462.22	8065.49
462.40	7810.37
462.59	7754.19
462.77	7768.24
462.95	7896.97
463.13	7751.85
463.32	7775.26
463.50	7992.93
463.68	8044.42
463.86	8114.64
464.05	7796.32
464.23	7913.35
464.41	8065.49
464.59	7763.56
464.78	8084.21
464.96	8091.23
465.14	7742.49
465.32	8187.19
465.50	8236.35
465.69	8358.05
465.87	8236.35
466.05	8222.30
466.23	8320.60
466.41	8154.43
466.60	8388.48
466.78	8341.67
466.96	8372.10
467.14	8266.77
467.32	8327.63
467.51	8585.08
467.69	8292.52
467.87	8301.88
468.05	8486.78
468.23	8348.69
468.41	8571.04
468.60	8531.25
468.78	8409.54
468.96	8423.59
469.14	8732.54
469.32	8812.12
469.50	8381.46
469.69	8592.11
469.87	8840.20
470.05	8571.04
470.23	8744.24
470.41	8865.95
470.59	9167.88
470.77	8905.74
470.95	8917.44
471.14	9032.13
471.32	8739.56
471.50	9036.81
471.68	9184.26
471.86	9188.94
472.04	9210.01
472.22	9284.91
472.40	9348.10
472.58	9282.56
472.77	9556.41
472.95	9528.32
473.13	9811.53
473.31	9504.92
473.49	9516.62
473.67	9497.89
473.85	9565.77
474.03	9792.80
474.21	9806.84
474.39	9797.48
474.57	10104.09
474.75	10111.11
474.93	9944.94
475.12	9937.91
475.30	10080.69
475.48	10120.48
475.66	10183.67
475.84	10003.45
476.02	10457.51
476.20	10120.48
476.38	10473.90
476.56	10572.20
476.74	10707.95
476.92	10597.95
477.10	10555.82
477.28	10724.33
477.46	10698.59
477.64	10827.32
477.82	10988.82
478.00	11363.30
478.18	11295.43
478.36	11211.17
478.54	11314.15
478.72	11555.22
478.90	11286.06
479.08	11763.53
479.26	11611.40
479.44	11609.06
479.62	12020.99
479.80	12049.08
479.98	11903.96
480.16	12376.75
480.34	12444.63
480.52	12503.14
480.70	12526.55
480.88	12149.72
481.06	12564.00
481.24	12472.71
481.41	12762.94
481.59	12800.39
481.77	12954.87
481.95	13018.06
482.13	13209.98
482.31	13217.01
482.49	13476.80
482.67	13406.59
482.85	13561.06
483.03	13781.07
483.21	13900.44
483.39	13724.90
483.57	13722.56
483.74	13980.02
483.92	14277.27
484.10	14059.60
484.28	14324.08
484.46	14672.82
484.64	14558.13
484.82	14459.83
485.00	14902.19
485.18	14871.76
485.35	15267.31
485.53	15129.22
485.71	15346.89
485.89	15400.72
486.07	15492.01
486.25	15386.68
486.43	15618.39
486.61	15866.49
486.78	15953.09
486.96	16044.37
487.14	16360.34
487.32	16318.22
487.50	16446.94
487.68	16477.37
487.85	16648.23
488.03	16947.82
488.21	17064.85
488.39	17200.60
488.57	17128.04
488.75	17289.54
488.92	17610.19
489.10	17626.57
489.28	17884.03
489.46	18097.02
489.64	17858.29
489.81	18312.35
489.99	18401.29
490.17	18127.45
490.35	18647.05
490.53	18754.71
490.70	18555.77
490.88	18768.76
491.06	19023.87
491.24	19239.20
491.41	19339.85
491.59	19309.42
491.77	19211.12
491.95	19426.45
492.13	19571.56
492.30	19889.87
492.48	19934.34
492.66	19983.49
492.84	20247.97
493.01	20491.39
493.19	20276.06
493.37	20451.60
493.54	20634.16
493.72	20669.27
493.90	20650.55
494.08	21336.32
494.25	20966.52
494.43	21184.19
494.61	21425.26
494.79	21308.24
494.96	21420.58
495.14	21631.23
495.32	21853.58
495.49	21827.84
495.67	21869.97
495.85	22277.22
496.02	22417.65
496.20	22445.74
496.38	22726.60
496.55	22637.66
496.73	23117.47
496.91	22661.07
497.09	22850.65
497.26	22897.46
497.44	22981.72
497.62	23332.80
497.79	23686.22
497.97	23459.19
498.14	23995.17
498.32	23569.19
498.50	24051.34
498.67	24257.31
498.85	24011.56
499.03	24397.74
499.20	24479.66
499.38	24432.85
499.56	24812.02
499.73	24641.16
499.91	24903.30
500.08	24685.63
500.26	24746.48
500.44	24868.19
500.61	24987.56
500.79	24840.11
500.97	25305.87
501.14	25521.20
501.32	25078.84
501.49	25420.56
501.67	25483.75
501.84	25907.39
502.02	25439.28
502.20	25827.81
502.37	26160.17
502.55	26064.21
502.72	26356.77
502.90	26279.54
503.07	26284.22
503.25	26490.18
503.43	26157.83
503.60	26614.23
503.78	26490.18
503.95	26508.91
504.13	27164.26
504.30	26852.97
504.48	27000.42
504.65	27035.53
504.83	27365.54
505.01	27271.92
505.18	27426.40
505.36	27424.06
505.53	27257.88
505.71	27864.08
505.88	27505.98
506.06	27360.86
506.23	27922.59
506.41	28140.26
506.58	28051.32
506.76	27826.63
506.93	28126.22
507.11	28173.03
507.28	28477.30
507.46	28580.28
507.63	28428.15
507.81	28835.40
507.98	28514.75
508.16	28650.50
508.33	28900.94
508.50	29088.18
508.68	28727.74
508.85	29090.52
509.03	28943.06
509.20	29343.30
509.38	29432.24
509.55	29722.46
509.73	29741.19
509.90	29450.96
510.08	29340.96
510.25	29778.64
510.42	29942.47
510.60	30005.67
510.77	30473.78
510.95	30611.87
511.12	30003.33
511.30	29923.75
511.47	30309.94
511.64	30228.02
511.82	30920.82
511.99	30349.73
512.17	30848.26
512.34	30654.00
512.51	31197.00
512.69	30941.88
512.86	31161.89
513.04	31056.57
513.21	31168.91
513.38	31260.20
513.56	31672.13
513.73	31051.89
513.90	31117.42
514.08	31161.89
514.25	31707.24
514.43	31859.37
514.60	31978.74
514.77	31625.32
514.95	32107.47
515.12	31826.60
515.29	31826.60
515.47	32128.53
515.64	32657.49
515.81	32032.57
515.99	32299.39
516.16	32655.15
516.33	32318.12
516.51	32697.28
516.68	32760.48
516.85	32718.35
517.03	32957.08
517.20	33048.36
517.37	32919.63
517.54	33177.09
517.72	33060.07
517.89	33303.48
518.06	33525.83
518.24	33209.86
518.41	33172.41
518.58	33151.35
518.75	33275.40
518.93	33584.35
519.10	33621.80
519.27	33921.38
519.45	34073.52
519.62	34139.05
519.79	34195.23
519.96	34082.88
520.14	33965.85
520.31	34136.71
520.48	34260.76
520.65	34572.05
520.83	34895.05
521.00	34707.80
521.17	34396.51
521.34	34684.40
521.52	35072.93
521.69	35005.05
521.86	35030.80
522.03	35070.59
522.20	35295.28
522.38	35695.51
522.55	35220.38
522.72	35349.11
522.89	35161.87
523.07	35721.26
523.24	35351.45
523.41	35405.28
523.58	35896.80
523.75	35573.80
523.92	35606.57
524.10	35852.33
524.27	35971.69
524.44	36081.70
524.61	35983.40
524.78	36140.21
524.96	36741.73
525.13	36493.63
525.30	36636.41
525.47	36662.15
525.64	36287.67
525.81	36769.82
525.98	36528.74
526.16	36629.38
526.33	36437.46
526.50	37031.96
526.67	36694.92
526.84	36985.15
527.01	36741.73
527.18	36952.38
527.36	37343.25
527.53	37062.38
527.70	37563.26
527.87	37422.83
528.04	37046.00
528.21	37432.19
528.38	37474.32
528.55	37441.55
528.72	37266.01
528.89	37612.41
529.07	37532.83
529.24	37652.20
529.41	37839.44
529.58	38082.86
529.75	38054.77
529.92	38089.88
530.09	38047.75
530.26	37900.29
530.43	38237.33
530.60	37441.55
530.77	37713.05
530.94	37912.00
531.11	38536.92
531.28	38150.73
531.46	38216.27
531.63	37984.55
531.80	38469.04
531.97	38555.64
532.14	38572.03
532.31	38698.42
532.48	38738.21
532.65	38958.22
532.82	39012.05
532.99	39012.05
533.16	38710.12
533.33	39182.91
533.50	39051.84
533.67	38930.13
533.84	39299.94
534.01	39157.16
534.18	39178.23
534.35	39728.25
534.52	39484.84
534.69	39456.75
534.86	39910.82
535.03	39580.80
535.20	40116.78
535.37	39690.80
535.54	40016.14
535.71	39777.40
535.88	40055.93
536.05	39559.73
536.22	40041.88
536.38	39693.15
536.55	40217.43
536.72	40137.85
536.89	39969.33
537.06	39669.74
537.23	40428.07
537.40	39887.41
537.57	40610.64
537.74	40364.88
537.91	40383.60
538.08	40425.73
538.25	40493.61
538.42	40744.05
538.59	40360.20
538.75	40514.67
538.92	40767.45
539.09	40809.58
539.26	40725.32
539.43	40608.29
539.60	41378.33
539.77	40931.29
539.94	41064.70
540.11	40795.54
540.28	41312.80
540.44	41205.13
540.61	40938.31
540.78	41015.55
540.95	41137.26
541.12	40622.34
541.29	40685.53
541.46	41254.28
541.62	41635.79
541.79	41860.48
541.96	41247.26
542.13	41249.60
542.30	41399.40
542.47	41673.24
542.63	41572.60
542.80	41893.25
542.97	42171.77
543.14	42403.49
543.31	42347.31
543.48	41956.44
543.64	42583.71
543.81	42728.82
543.98	42499.45
544.15	42604.77
544.32	43110.33
544.48	43093.94
544.65	42225.60
544.82	42466.68
544.99	42307.52
545.16	42822.44
545.32	42457.32
545.49	42806.06
545.66	42792.01
545.83	43035.43
546.00	43302.25
546.16	42927.77
546.33	42890.32
546.50	42518.17
546.67	42885.64
546.83	42548.60
547.00	42843.51
547.17	43210.97
547.34	42955.85
547.50	43147.78
547.67	43721.21
547.84	43463.75
548.00	43311.61
548.17	43643.97
548.34	43531.62
548.51	43871.00
548.67	43702.48
548.84	43255.44
549.01	43503.54
549.18	43501.20
549.34	43576.09
549.51	43936.54
549.68	44076.97
549.84	43686.10
550.01	43838.23
550.18	43608.86
550.34	44428.05
550.51	43901.43
550.68	43859.30
550.84	44006.75
551.01	44107.40
551.18	44020.80
551.34	44175.27
551.51	44353.15
551.68	44189.31
551.84	44332.09
552.01	44444.43
552.18	44467.84
552.34	44098.03
552.51	43866.32
552.68	44388.26
552.84	44292.30
553.01	44528.69
553.18	44369.54
553.34	44863.39
553.51	44357.83
553.67	44217.40
553.84	44844.66
554.01	44706.57
554.17	44999.14
554.34	44971.05
554.51	44985.10
554.67	45198.09
554.84	44575.50
555.00	44790.83
555.17	44954.67
555.33	45530.44
555.50	45062.33
555.67	44751.04
555.83	45268.30
556.00	44982.76
556.16	45235.53
556.33	45228.51
556.50	45216.81
556.66	45191.06
556.83	44758.06
556.99	45085.74
557.16	45481.29
557.32	45591.30
557.49	45322.13
557.65	45488.31
557.82	45118.51
557.98	45492.99
558.15	45481.29
558.32	45340.86
558.48	45298.73
558.65	45455.54
558.81	45324.47
558.98	45165.32
559.14	45270.64
559.31	45265.96
559.47	45324.47
559.64	45813.65
559.80	46047.70
559.97	45764.49
560.13	45263.62
560.30	45652.15
560.46	46099.19
560.63	45837.05
560.79	45916.63
560.96	46181.11
561.12	46300.48
561.29	46124.94
561.45	45743.43
561.61	45984.51
561.78	45832.37
561.94	46005.57
562.11	46213.88
562.27	46054.72
562.44	46469.00
562.60	46150.68
562.77	46248.99
562.93	46057.06
563.10	46237.28
563.26	45862.80
563.42	46440.91
563.59	46043.02
563.75	46054.72
563.92	46197.49
564.08	46539.21
564.24	46155.36
564.41	46375.37
564.57	46461.97
564.74	46724.11
564.90	46307.50
565.07	46616.45
565.23	46562.62
565.39	46541.55
565.56	46735.82
565.72	46351.97
565.88	46539.21
566.05	46342.61
566.21	46763.90
566.38	46621.13
566.54	46469.00
566.70	46909.02
566.87	46803.69
567.03	46384.74
567.19	46953.49
567.36	46555.60
567.52	46445.59
567.68	46986.25
567.85	46567.30
568.01	47037.75
568.17	46387.08
568.34	47498.83
568.50	46904.34
568.66	46918.38
568.83	46740.50
568.99	46698.37
569.15	47021.36
569.32	47178.18
569.48	46696.03
569.64	47026.04
569.81	47601.82
569.97	47255.42
570.13	47007.32
570.30	46981.57
570.46	47129.03
570.62	47019.02
570.78	46866.89
570.95	46878.59
571.11	46958.17
571.27	46902.00
571.43	46803.69
571.60	47065.83
571.76	46983.91
571.92	46791.99
572.09	46625.81
572.25	46981.57
572.41	46735.82
572.57	47047.11
572.74	47206.26
572.90	47334.99
573.06	47236.69
573.22	47543.30
573.38	47203.92
573.55	47615.86
573.71	47892.04
573.87	47405.21
574.03	47400.53
574.20	47552.66
574.36	47278.82
574.52	47391.17
574.68	47426.28
574.84	47395.85
575.01	47501.17
575.17	47756.29
575.33	47662.67
575.49	47180.52
575.65	47885.02
575.82	47437.98
575.98	47491.81
576.14	47562.03
576.30	47407.55
576.46	47330.31
576.62	47257.76
576.79	47456.70
576.95	46890.29
577.11	47203.92
577.27	47058.81
577.43	47742.25
577.59	47475.43
577.75	47749.27
577.92	46955.83
578.08	47615.86
578.24	47653.31
578.40	47594.79
578.56	48053.54
578.72	47742.25
578.88	47253.08
579.04	47332.65
579.21	47215.63
579.37	47714.16
579.53	47913.11
579.69	47477.77
579.85	47393.51
580.01	47393.51
580.17	47456.70
580.33	47952.90
580.49	47491.81
580.65	47576.07
580.82	47863.96
580.98	47166.48
581.14	47393.51
581.30	47732.89
581.46	47405.21
581.62	47157.11
581.78	46979.23
581.94	47522.24
582.10	47501.17
582.26	47744.59
582.42	47512.88
582.58	47697.78
582.74	47512.88
582.90	47929.49
583.06	48257.17
583.22	47482.45
583.38	47421.59
583.54	48039.50
583.70	47569.05
583.86	47896.72
584.02	47702.46
584.18	48280.57
584.34	47945.87
584.50	48121.41
584.66	47281.16
584.82	47653.31
584.98	47894.38
585.14	47714.16
585.30	47393.51
585.46	47674.37
585.62	47793.74
585.78	47782.04
585.94	47615.86
586.10	47407.55
586.26	47679.05
586.42	48285.25
586.58	47466.06
586.74	47885.02
586.90	47704.80
587.06	47639.26
587.22	47826.51
587.38	47440.32
587.54	47868.64
587.70	47966.94
587.86	48378.87
588.02	47861.61
588.18	47620.54
588.34	47817.14
588.49	47700.12
588.65	47803.10
588.81	48037.16
588.97	47723.52
589.13	47976.30
589.29	47927.15
589.45	48306.32
589.61	48308.66
589.77	47957.58
589.93	47964.60
