SpectraSuite Data File
++++++++++++++++++++++++++++++++++++
Date: Fri Oct 25 11:26:21 EDT 2013
User: price-jones
Dark Spectrum Present: No
Reference Spectrum Present: No
Number of Sampled Component Spectra: 1
Spectrometers: USB2+H05261
Integration Time (usec): 100000 (USB2+H05261)
Spectra Averaged: 1 (USB2+H05261)
Boxcar Smoothing: 0 (USB2+H05261)
Correct for Electrical Dark: No (USB2+H05261)
Strobe/Lamp Enabled: No (USB2+H05261)
Correct for Detector Non-linearity: No (USB2+H05261)
Correct for Stray Light: No (USB2+H05261)
Number of Pixels in Processed Spectrum: 2048
>>>>>Begin Processed Spectral Data<<<<<
365.73	222.35
365.92	222.35
366.12	222.35
366.32	135.75
366.52	203.63
366.72	147.45
366.91	133.41
367.11	142.77
367.31	191.92
367.51	168.52
367.70	147.45
367.90	140.43
368.10	117.03
368.30	163.84
368.49	133.41
368.69	105.32
368.89	175.54
369.09	86.60
369.28	203.63
369.48	241.08
369.68	180.22
369.87	86.60
370.07	182.56
370.27	229.37
370.47	304.27
370.66	538.32
370.86	631.94
371.06	690.46
371.25	603.86
371.45	629.60
371.65	739.61
371.84	669.39
372.04	720.88
372.24	781.74
372.44	765.36
372.63	748.97
372.83	718.54
373.03	758.33
373.22	676.41
373.42	830.89
373.62	791.10
373.81	793.44
374.01	795.78
374.21	795.78
374.40	809.83
374.60	917.49
374.79	856.64
374.99	821.53
375.19	793.44
375.38	800.46
375.58	837.91
375.78	840.25
375.97	903.45
376.17	945.58
376.37	851.96
376.56	861.32
376.76	891.74
376.95	952.60
377.15	978.34
377.35	898.77
377.54	870.68
377.74	823.87
377.93	870.68
378.13	910.47
378.33	908.13
378.52	912.81
378.72	882.38
378.91	919.83
379.11	894.08
379.31	917.49
379.50	940.90
379.70	952.60
379.89	1074.31
380.09	1067.28
380.28	884.72
380.48	1015.79
380.68	966.64
380.87	1041.54
381.07	940.90
381.26	1036.86
381.46	1004.09
381.65	954.94
381.85	1074.31
382.04	1020.47
382.24	1114.10
382.43	1060.26
382.63	1076.65
382.83	1097.71
383.02	1090.69
383.22	1083.67
383.41	1114.10
383.61	1081.33
383.80	1210.06
384.00	1090.69
384.19	1118.78
384.39	1125.80
384.58	1116.44
384.78	1149.20
384.97	1167.93
385.17	1116.44
385.36	1144.52
385.56	1076.65
385.75	1193.67
385.95	1186.65
386.14	1116.44
386.34	1181.97
386.53	1196.01
386.72	1245.16
386.92	1156.22
387.11	1287.29
387.31	1242.82
387.50	1310.70
387.70	1221.76
387.89	1275.59
388.09	1181.97
388.28	1289.64
388.48	1268.57
388.67	1362.19
388.86	1254.53
389.06	1263.89
389.25	1432.41
389.45	1385.60
389.64	1226.44
389.84	1399.64
390.03	1383.26
390.22	1376.24
390.42	1378.58
390.61	1392.62
390.81	1401.98
391.00	1390.28
391.19	1465.18
391.39	1434.75
391.58	1444.11
391.78	1469.86
391.97	1476.88
392.16	1406.66
392.36	1500.28
392.55	1540.07
392.75	1563.48
392.94	1507.30
393.13	1556.46
393.33	1551.78
393.52	1626.67
393.71	1727.32
393.91	1614.97
394.10	1657.10
394.29	1507.30
394.49	1614.97
394.68	1647.74
394.88	1589.22
395.07	1586.88
395.26	1563.48
395.46	1645.40
395.65	1645.40
395.84	1720.29
396.04	1858.39
396.23	1785.83
396.42	1703.91
396.62	1832.64
396.81	1785.83
397.00	1710.93
397.19	1769.44
397.39	1872.43
397.58	1842.00
397.77	1781.15
397.97	1881.79
398.16	1816.26
398.35	1884.13
398.55	1902.86
398.74	1830.30
398.93	1874.77
399.12	1912.22
399.32	1923.92
399.51	1914.56
399.70	2010.52
399.90	1923.92
400.09	2064.35
400.28	2022.22
400.47	2090.10
400.67	1998.82
400.86	2108.82
401.05	2090.10
401.24	2029.24
401.44	2181.38
401.63	2113.50
401.82	2076.06
402.01	2127.55
402.21	2225.85
402.40	2211.81
402.59	2143.93
402.78	2099.46
402.97	2204.78
403.17	2221.17
403.36	2265.64
403.55	2354.58
403.74	2335.85
403.93	2279.68
404.13	2328.83
404.32	2345.22
404.51	2396.71
404.70	2331.17
404.89	2349.90
405.09	2387.35
405.28	2415.43
405.47	2385.01
405.66	2457.56
405.85	2506.71
406.05	2565.23
406.24	2487.99
406.43	2555.86
406.62	2588.63
406.81	2696.30
407.00	2619.06
407.20	2595.65
407.39	2551.18
407.58	2757.15
407.77	2775.88
407.96	2848.43
408.15	2775.88
408.34	2647.15
408.54	2745.45
408.73	2686.94
408.92	2860.13
409.11	2801.62
409.30	2881.20
409.49	2909.29
409.68	2860.13
409.87	2977.16
410.07	2946.73
410.26	2979.50
410.45	2967.80
410.64	2984.18
410.83	2956.10
411.02	3169.09
411.21	3225.26
411.40	3112.91
411.59	3286.11
411.78	3220.58
411.98	3206.53
412.17	3267.39
412.36	3241.64
412.55	3337.60
412.74	3438.25
412.93	3389.10
413.12	3330.58
413.31	3466.33
413.50	3353.99
413.69	3391.44
413.88	3611.45
414.07	3637.19
414.26	3531.87
414.45	3552.93
414.64	3688.68
414.83	3669.96
415.02	3838.48
415.22	3737.84
415.41	3777.62
415.60	3885.29
415.79	3808.05
415.98	4002.32
416.17	3864.22
416.36	3852.52
416.55	3962.53
416.74	3997.64
416.93	4222.33
417.12	4198.92
417.31	4156.79
417.50	4166.15
417.69	4189.56
417.88	4304.25
418.07	4243.39
418.26	4344.03
418.45	4332.33
418.64	4477.44
418.83	4400.21
419.02	4329.99
419.21	4496.17
419.39	4423.61
419.58	4416.59
419.77	4325.31
419.96	4610.86
420.15	4589.79
420.34	4580.43
420.53	4498.51
420.72	4568.73
420.91	4538.30
421.10	4697.46
421.29	4805.12
421.48	4681.07
421.67	4725.54
421.86	4678.73
422.05	4688.09
422.24	4725.54
422.43	4732.56
422.61	4929.17
422.80	5020.45
422.99	4915.12
423.18	4933.85
423.37	4975.98
423.56	4865.97
423.75	4870.65
423.94	4746.61
424.13	4704.48
424.32	4685.75
424.50	5029.81
424.69	5064.92
424.88	5102.37
425.07	4952.57
425.26	4777.03
425.45	5020.45
425.64	4926.83
425.83	4980.66
426.01	5107.05
426.20	5057.90
426.39	5039.17
426.58	5095.35
426.77	5025.13
426.96	4929.17
427.15	5083.64
427.33	5029.81
427.52	5212.37
427.71	5135.14
427.90	5324.72
428.09	5263.86
428.28	5425.36
428.46	5305.99
428.65	5198.33
428.84	5460.47
429.03	5441.75
429.22	5350.46
429.40	5570.48
429.59	5371.53
429.78	5266.21
429.97	5317.70
430.16	5378.55
430.34	5427.70
430.53	5420.68
430.72	5682.82
430.91	5383.23
431.10	5448.77
431.28	5701.54
431.47	5572.82
431.66	5895.81
431.85	5717.93
432.03	5867.72
432.22	5984.75
432.41	5760.06
432.60	5797.51
432.79	5905.17
432.97	6186.04
433.16	5998.79
433.35	5907.51
433.54	5963.68
433.72	6256.25
433.91	6064.33
434.10	6122.84
434.28	6026.88
434.47	6157.95
434.66	6214.12
434.85	6340.51
435.03	6420.09
435.22	6221.14
435.41	6668.19
435.59	6518.39
435.78	6401.37
435.97	6335.83
436.16	6321.79
436.34	6513.71
436.53	6314.77
436.72	6567.54
436.90	6448.18
437.09	6581.59
437.28	6382.64
437.46	6558.18
437.65	6654.14
437.84	6698.61
438.02	6616.69
438.21	6665.85
438.40	6600.31
438.58	6881.18
438.77	7019.27
438.96	6899.90
439.14	6890.54
439.33	7148.00
439.52	7133.95
439.70	7112.89
439.89	7201.83
440.08	7082.46
440.26	7435.88
440.45	7323.54
440.63	7412.48
440.82	7686.32
441.01	7475.67
441.19	7485.03
441.38	7793.98
441.57	7653.55
441.75	7627.81
441.94	7967.18
442.12	7922.71
442.31	7915.69
442.50	8063.15
442.68	7939.10
442.87	7976.55
443.05	8264.43
443.24	8234.00
443.43	8273.79
443.61	8105.28
443.80	8304.22
443.98	7999.95
444.17	7901.65
444.35	8329.97
444.54	8475.08
444.73	8273.79
444.91	8107.62
445.10	8215.28
445.28	8369.76
445.47	8210.60
445.65	8365.07
445.84	8521.89
446.02	8283.16
446.21	8388.48
446.39	8250.39
446.58	8491.46
446.77	8507.85
446.95	8266.77
447.14	8379.12
447.32	8477.42
447.51	8531.25
447.69	8341.67
447.88	8362.73
448.06	8430.61
448.25	8454.02
448.43	8470.40
448.62	8622.53
448.80	8259.75
448.99	8688.07
449.17	8685.73
449.36	8585.08
449.54	8819.14
449.73	8758.28
449.91	9022.77
450.10	8741.90
450.28	9027.45
450.46	9100.00
450.65	8917.44
450.83	8990.00
451.02	9034.47
451.20	9308.31
451.39	8936.17
451.57	9011.06
451.76	9022.77
451.94	9118.73
452.13	9336.40
452.31	9088.30
452.49	9088.30
452.68	9205.33
452.86	9423.00
453.05	9404.27
453.23	9315.33
453.42	9366.82
453.60	9263.84
453.78	9558.75
453.97	9254.48
454.15	9624.28
454.34	9434.70
454.52	9645.35
454.70	9516.62
454.89	9701.52
455.07	9811.53
455.26	9694.50
455.44	9895.78
455.62	9884.08
455.81	9966.00
455.99	9874.72
456.17	10087.71
456.36	10083.03
456.54	10106.43
456.73	10092.39
456.91	10321.76
457.09	10373.25
457.28	10396.66
457.46	10183.67
457.64	10422.41
457.83	10349.85
458.01	10391.98
458.19	10789.87
458.38	10324.10
458.56	10794.55
458.74	10780.51
458.93	10700.93
459.11	10778.17
459.29	10846.04
459.48	10766.46
459.66	10892.85
459.84	10829.66
460.03	11283.72
460.21	10984.13
460.39	10874.13
460.57	10909.24
460.76	11021.58
460.94	11068.39
461.12	11229.89
461.31	11002.86
461.49	11131.59
461.67	11297.77
461.85	11513.10
462.04	11185.42
462.22	11742.47
462.40	11573.95
462.59	11520.12
462.77	11335.21
462.95	11468.62
463.13	11508.41
463.32	11529.48
463.50	11824.39
463.68	11723.74
463.86	11733.11
464.05	11646.51
464.23	11431.18
464.41	11978.86
464.59	11599.70
464.78	12159.08
464.96	12013.97
465.14	11665.23
465.32	12088.87
465.50	11789.28
465.69	12105.25
465.87	12032.69
466.05	12231.64
466.23	11948.43
466.41	12294.83
466.60	12369.73
466.78	12212.92
466.96	12241.00
467.14	12437.61
467.32	12404.84
467.51	12470.37
467.69	12196.53
467.87	12482.08
468.05	12503.14
468.23	12360.37
468.41	12236.32
468.60	12456.33
468.78	12601.44
468.96	12549.95
469.14	12718.47
469.32	13001.68
469.50	12566.34
469.69	12870.61
469.87	13027.42
470.05	12996.99
470.23	13013.38
470.41	13032.10
470.59	13235.73
470.77	13235.73
470.95	13224.03
471.14	13514.25
471.32	13109.34
471.50	13530.64
471.68	13324.67
471.86	13511.91
472.04	13769.37
472.22	13776.39
472.40	13760.01
472.58	13830.23
472.77	13865.33
472.95	13781.07
473.13	14181.31
473.31	13785.76
473.49	13937.89
473.67	14097.05
473.85	14080.66
474.03	14621.33
474.21	14595.58
474.39	14408.34
474.57	14511.32
474.75	14750.06
474.93	14787.50
475.12	14663.46
475.30	14731.33
475.48	14913.89
475.66	15119.86
475.84	15002.83
476.02	15185.40
476.20	15150.29
476.38	15508.39
476.56	15868.83
476.74	15967.13
476.92	15838.41
477.10	15716.70
477.28	16147.36
477.46	16332.26
477.64	16369.71
477.82	16299.49
478.00	16744.19
478.18	16634.19
478.36	16709.08
478.54	16938.46
478.72	17097.61
478.90	17240.39
479.08	17326.99
479.26	17605.51
479.44	17839.56
479.62	17717.86
479.80	17848.93
479.98	18099.36
480.16	18483.21
480.34	17717.86
480.52	18579.17
480.70	18412.99
480.88	18396.61
481.06	18717.26
481.24	18792.16
481.41	19019.19
481.59	19077.71
481.77	19463.90
481.95	19262.61
482.13	19569.22
482.31	19534.11
482.49	20079.46
482.67	20257.34
482.85	20219.89
483.03	20439.90
483.21	20680.97
483.39	20482.03
483.57	20629.48
483.74	20865.88
483.92	21284.83
484.10	21221.64
484.28	21465.05
484.46	21872.31
484.64	22122.74
484.82	21783.37
485.00	22356.80
485.18	22597.87
485.35	22848.31
485.53	22588.51
485.71	22738.30
485.89	23204.07
486.07	23424.08
486.25	23213.43
486.43	23730.69
486.61	23775.16
486.78	23908.57
486.96	23594.94
487.14	24603.71
487.32	24589.67
487.50	24627.12
487.68	24765.21
487.85	25146.72
488.03	25242.68
488.21	25591.42
488.39	25525.88
488.57	25790.36
488.75	25773.98
488.92	26111.02
489.10	26515.93
489.28	26504.23
489.46	26995.74
489.64	26972.33
489.81	27356.18
489.99	27391.29
490.17	27489.59
490.35	28032.60
490.53	27489.59
490.70	28617.73
490.88	28046.64
491.06	28788.59
491.24	28580.28
491.41	28793.27
491.59	29048.39
491.77	29326.91
491.95	29481.39
492.13	29652.25
492.30	29862.90
492.48	29656.93
492.66	29923.75
492.84	30190.57
493.01	30424.62
493.19	30251.42
493.37	30778.04
493.54	30810.81
493.72	31363.18
493.90	31199.34
494.08	31599.57
494.25	31688.51
494.43	31618.30
494.61	31992.78
494.79	32608.34
494.96	32582.60
495.14	32510.04
495.32	32875.16
495.49	32917.29
495.67	33041.34
495.85	33280.08
496.02	33340.93
496.20	33947.13
496.38	33853.51
496.55	34113.31
496.73	34660.99
496.91	34326.30
497.09	34543.97
497.26	34829.51
497.44	34934.84
497.62	34742.91
497.79	35943.61
497.97	34728.87
498.14	35606.57
498.32	36009.14
498.50	35639.34
498.67	36285.33
498.85	36252.56
499.03	36339.16
499.20	36650.45
499.38	36533.42
499.56	36980.46
499.73	37191.11
499.91	36725.35
500.08	37336.23
500.26	37163.03
500.44	37099.83
500.61	37977.53
500.79	37645.18
500.97	37851.14
501.14	38562.67
501.32	38087.54
501.49	37912.00
501.67	38401.17
501.84	38855.23
502.02	38490.11
502.20	38607.14
502.37	38756.93
502.55	38880.98
502.72	39119.71
502.90	39409.94
503.07	39218.02
503.25	39302.28
503.43	39351.43
503.60	39761.02
503.78	39906.13
503.95	40039.54
504.13	40409.35
504.30	40341.47
504.48	40334.45
504.65	40474.88
504.83	40823.62
505.01	41071.72
505.18	41045.97
505.36	40919.59
505.53	40835.33
505.71	41352.58
505.88	41659.20
506.06	41045.97
506.23	41455.57
506.41	41371.31
506.58	41521.10
506.76	41846.44
506.93	42773.29
507.11	41668.56
507.28	42391.78
507.46	42632.86
507.63	42256.03
507.81	42604.77
507.98	42256.03
508.16	42665.63
508.33	43103.31
508.50	43555.03
508.68	43217.99
508.85	43519.92
509.03	43775.04
509.20	43672.06
509.38	43737.59
509.55	44163.57
509.73	44343.79
509.90	44385.92
510.08	44236.12
510.25	44535.71
510.42	44587.21
510.60	44680.83
510.77	45027.23
510.95	44982.76
511.12	45064.67
511.30	44940.63
511.47	45074.04
511.64	45736.41
511.82	45436.82
511.99	45130.21
512.17	45228.51
512.34	45469.59
512.51	46003.23
512.69	46171.75
512.86	45645.13
513.04	46412.82
513.21	46375.37
513.38	46412.82
513.56	46909.02
513.73	46131.96
513.90	46660.92
514.08	46569.64
514.25	47110.30
514.43	47426.28
514.60	47009.66
514.77	47028.38
514.95	47166.48
515.12	46972.21
515.29	46859.87
515.47	47627.56
515.64	47597.13
515.81	47852.25
515.99	47597.13
516.16	48039.50
516.33	48271.21
516.51	48282.91
516.68	47798.42
516.85	48170.57
517.03	48760.38
517.20	48456.11
517.37	48275.89
517.54	48212.70
517.72	48596.54
517.89	48832.94
518.06	49038.90
518.24	49242.53
518.41	48828.26
518.58	48919.54
518.75	48772.08
518.93	49186.36
519.10	49282.32
519.27	49429.77
519.45	49263.60
519.62	49521.05
519.79	49867.45
519.96	49474.24
520.14	49928.31
520.31	49848.73
520.48	50202.15
520.65	49827.66
520.83	50349.60
521.00	50380.03
521.17	50164.70
521.34	50555.57
521.52	50548.55
521.69	50595.36
521.86	50265.34
522.03	50656.21
522.20	50824.73
522.38	50990.91
522.55	50798.99
522.72	51098.58
522.89	51124.32
523.07	51126.66
523.24	51136.02
523.41	51236.67
523.58	51405.19
523.75	51466.04
523.92	51540.94
524.10	51695.41
524.27	51693.07
524.44	52011.38
524.61	51786.69
524.78	51835.84
524.96	52065.22
525.13	52193.95
525.30	51948.19
525.47	52088.62
525.64	52296.93
525.81	51831.16
525.98	52189.27
526.16	52360.12
526.33	52423.32
526.50	52704.18
526.67	52409.28
526.84	52835.25
527.01	52633.97
527.18	52355.44
527.36	52699.50
527.53	52870.36
527.70	53043.56
527.87	53357.19
528.04	52863.34
528.21	53240.17
528.38	53282.30
528.55	53205.06
528.72	53282.30
528.89	53226.12
529.07	52947.60
529.24	53588.91
529.41	53279.96
529.58	53755.08
529.75	53607.63
529.92	53385.28
530.09	53539.75
530.26	53666.14
530.43	53694.23
530.60	53609.97
530.77	53717.64
530.94	54054.67
531.11	53616.99
531.28	53876.79
531.46	53872.11
531.63	53984.46
531.80	53989.14
531.97	54035.95
532.14	54536.82
532.31	54026.59
532.48	54384.69
532.65	54426.82
532.82	54195.10
532.99	54571.93
533.16	54520.44
533.33	54607.04
533.50	54649.17
533.67	54312.13
533.84	54321.49
534.01	54955.78
534.18	54693.64
534.35	55147.70
534.52	55004.93
534.69	55114.94
534.86	55070.46
535.03	54918.33
535.20	55030.68
535.37	55033.02
535.54	55278.77
535.71	54969.82
535.88	55290.48
536.05	55316.22
536.22	55278.77
536.38	55423.89
536.55	55428.57
536.72	55091.53
536.89	55353.67
537.06	55379.42
537.23	55327.92
537.40	55543.25
537.57	55592.40
537.74	55524.53
537.91	55751.56
538.08	55819.44
538.25	55456.65
538.42	55831.14
538.59	55971.57
538.75	55693.05
538.92	55957.53
539.09	55847.52
539.26	55959.87
539.43	55819.44
539.60	56095.62
539.77	56198.60
539.94	56170.52
540.11	56053.49
540.28	56416.27
540.44	56371.80
540.61	56011.36
540.78	56212.65
540.95	56350.74
541.12	56081.58
541.29	56355.42
541.46	56500.53
541.62	56327.33
541.79	56523.94
541.96	56219.67
542.13	56266.48
542.30	56458.40
542.47	56767.35
542.63	56788.42
542.80	56624.58
542.97	57041.20
543.14	56999.07
543.31	57113.75
543.48	57027.15
543.64	57144.18
543.81	57015.45
543.98	56860.97
544.15	56973.32
544.32	57209.71
544.48	57263.55
544.65	57244.82
544.82	57233.12
544.99	56980.34
545.16	57338.44
545.32	57352.49
545.49	57542.07
545.66	57518.67
545.83	57518.67
546.00	57708.25
546.16	57425.04
546.33	57504.62
546.50	57343.12
546.67	57579.52
546.83	57305.68
547.00	57432.07
547.17	57502.28
547.34	57605.26
547.50	58003.16
547.67	57766.76
547.84	57886.13
548.00	57792.51
548.17	58010.18
548.34	57876.77
548.51	57977.41
548.67	58089.76
548.84	57874.43
549.01	57965.71
549.18	58073.37
549.34	57991.45
549.51	57996.13
549.68	58094.44
549.84	58150.61
550.01	58340.19
550.18	58213.80
550.34	58286.36
550.51	58286.36
550.68	58108.48
550.84	58143.59
551.01	58412.75
551.18	58326.15
551.34	58426.79
551.51	58536.80
551.68	58550.84
551.84	58372.96
552.01	58225.51
552.18	58497.01
552.34	58291.04
552.51	58536.80
552.68	58518.07
552.84	58578.93
553.01	58635.10
553.18	58848.09
553.34	58590.63
553.51	58342.53
553.67	58560.20
553.84	58738.08
554.01	58747.45
554.17	58820.00
554.34	58794.26
554.51	58588.29
554.67	58848.09
554.84	58812.98
555.00	58850.43
555.17	58808.30
555.33	58838.73
555.50	58794.26
555.67	58897.24
555.83	58831.71
556.00	58894.90
556.16	59262.36
556.33	58965.12
556.50	59100.87
556.66	59119.59
556.83	58937.03
556.99	59374.71
557.16	59143.00
557.32	59304.49
557.49	59458.97
557.65	59175.76
557.82	59208.53
557.98	59213.21
558.15	59199.17
558.32	59447.27
558.48	59100.87
558.65	59194.49
558.81	59288.11
558.98	59416.84
559.14	59477.69
559.31	59571.32
559.47	59519.82
559.64	59515.14
559.80	59365.35
559.97	59704.73
560.13	59456.63
560.30	59430.88
560.46	59501.10
560.63	59576.00
560.79	59536.21
560.96	59924.74
561.12	59700.04
561.29	59508.12
561.45	59784.30
561.61	59627.49
561.78	59604.08
561.94	59568.97
562.11	59552.59
562.27	59662.60
562.44	59711.75
562.60	59863.88
562.77	59763.24
562.93	59578.34
563.10	59875.58
563.26	59732.81
563.42	59966.87
563.59	59938.78
563.75	59821.75
563.92	59934.10
564.08	59877.93
564.24	60001.97
564.41	59943.46
564.57	59957.50
564.74	60011.34
564.90	60044.10
565.07	59838.14
565.23	59948.14
565.39	59828.77
565.56	60161.13
565.72	59973.89
565.88	59915.37
566.05	60046.44
566.21	60011.34
566.38	60257.09
566.54	60102.62
566.70	60221.98
566.87	60324.97
567.03	59983.25
567.19	60292.20
567.36	60046.44
567.52	60032.40
567.68	60346.03
567.85	60048.78
568.01	60128.36
568.17	60016.02
568.34	60418.59
568.50	59866.22
568.66	60044.10
568.83	60210.28
568.99	60257.09
569.15	60275.82
569.32	60191.56
569.48	59887.29
569.64	60392.84
569.81	60261.77
569.97	60191.56
570.13	60191.56
570.30	60289.86
570.46	60184.54
570.62	60147.09
570.78	60212.62
570.95	60254.75
571.11	60350.71
571.27	60385.82
571.43	60168.15
571.60	60317.95
571.76	60374.12
571.92	60460.72
572.09	60598.81
572.25	60376.46
572.41	60423.27
572.57	60369.44
572.74	60657.32
572.90	60423.27
573.06	60392.84
573.22	60416.25
573.38	60425.61
573.55	60465.40
573.71	60587.11
573.87	60526.25
574.03	60327.31
574.20	60547.32
574.36	60306.24
574.52	60549.66
574.68	60484.12
574.84	60495.83
575.01	60603.49
575.17	60568.38
575.33	60537.96
575.49	60491.15
575.65	60505.19
575.82	60647.96
575.98	60622.22
576.14	60793.07
576.30	60556.68
576.46	60673.71
576.62	60645.62
576.79	60521.57
576.95	60343.69
577.11	60764.99
577.27	60495.83
577.43	60594.13
577.59	60470.08
577.75	60673.71
577.92	60563.70
578.08	60533.28
578.24	60610.51
578.40	60662.00
578.56	60755.63
578.72	60706.47
578.88	60750.94
579.04	60753.29
579.21	60811.80
579.37	60903.08
579.53	60851.59
579.69	60727.54
579.85	60706.47
580.01	60523.91
580.17	60502.85
580.33	60898.40
580.49	60884.36
580.65	60713.50
580.82	60760.31
580.98	60755.63
581.14	60720.52
581.30	60575.40
581.46	60849.25
581.62	60917.12
581.78	60444.33
581.94	60697.11
582.10	60418.59
582.26	60659.66
582.42	60516.89
582.58	60818.82
582.74	60547.32
582.90	60729.88
583.06	60739.24
583.22	60629.24
583.38	60825.84
583.54	60748.60
583.70	60769.67
583.86	60790.73
584.02	60542.64
584.18	61041.17
584.34	60816.48
584.50	60865.63
584.66	60860.95
584.82	60720.52
584.98	60959.25
585.14	60898.40
585.30	60720.52
585.46	60938.19
585.62	60860.95
585.78	61034.15
585.94	60594.13
586.10	60818.82
586.26	60715.84
586.42	60959.25
586.58	60973.30
586.74	60903.08
586.90	60919.46
587.06	60956.91
587.22	60926.49
587.38	60748.60
587.54	60914.78
587.70	60975.64
587.86	60921.80
588.02	60968.61
588.18	60926.49
588.34	60949.89
588.49	60942.87
