SpectraSuite Data File
++++++++++++++++++++++++++++++++++++
Date: Fri Oct 25 11:23:36 EDT 2013
User: price-jones
Dark Spectrum Present: No
Reference Spectrum Present: No
Number of Sampled Component Spectra: 1
Spectrometers: USB2+H05261
Integration Time (usec): 100000 (USB2+H05261)
Spectra Averaged: 1 (USB2+H05261)
Boxcar Smoothing: 0 (USB2+H05261)
Correct for Electrical Dark: No (USB2+H05261)
Strobe/Lamp Enabled: No (USB2+H05261)
Correct for Detector Non-linearity: No (USB2+H05261)
Correct for Stray Light: No (USB2+H05261)
Number of Pixels in Processed Spectrum: 2048
>>>>>Begin Processed Spectral Data<<<<<
365.73	156.82
365.92	156.82
366.12	156.82
366.32	131.07
366.52	175.54
366.72	126.39
366.91	189.58
367.11	133.41
367.31	152.13
367.51	170.86
367.70	119.37
367.90	93.62
368.10	133.41
368.30	149.79
368.49	149.79
368.69	117.03
368.89	128.73
369.09	128.73
369.28	126.39
369.48	180.22
369.68	121.71
369.87	175.54
370.07	168.52
370.27	152.13
370.47	297.25
370.66	643.65
370.86	636.63
371.06	697.48
371.25	667.05
371.45	627.26
371.65	702.16
371.84	662.37
372.04	650.67
372.24	702.16
372.44	716.20
372.63	753.65
372.83	744.29
373.03	758.33
373.22	781.74
373.42	777.06
373.62	842.59
373.81	840.25
374.01	875.36
374.21	837.91
374.40	833.23
374.60	833.23
374.79	763.01
374.99	828.55
375.19	807.48
375.38	784.08
375.58	858.98
375.78	877.70
375.97	823.87
376.17	938.55
376.37	842.59
376.56	912.81
376.76	870.68
376.95	837.91
377.15	833.23
377.35	919.83
377.54	978.34
377.74	880.04
377.93	844.93
378.13	866.00
378.33	947.92
378.52	917.49
378.72	938.55
378.91	901.11
379.11	966.64
379.31	933.87
379.50	968.98
379.70	990.05
379.89	1027.50
380.09	947.92
380.28	931.53
380.48	898.77
380.68	950.26
380.87	961.96
381.07	1102.39
381.26	1006.43
381.46	990.05
381.65	1008.77
381.85	1062.60
382.04	1013.45
382.24	1107.07
382.43	1095.37
382.63	1057.92
382.83	990.05
383.02	1071.97
383.22	1100.05
383.41	1027.50
383.61	1050.90
383.80	1135.16
384.00	1107.07
384.19	1055.58
384.39	1146.86
384.58	1102.39
384.78	1163.25
384.97	1188.99
385.17	1153.88
385.36	1111.75
385.56	1313.04
385.75	1170.27
385.95	1109.41
386.14	1174.95
386.34	1109.41
386.53	1156.22
386.72	1163.25
386.92	1252.19
387.11	1165.59
387.31	1259.21
387.50	1181.97
387.70	1163.25
387.89	1294.32
388.09	1135.16
388.28	1329.42
388.48	1240.48
388.67	1270.91
388.86	1252.19
389.06	1252.19
389.25	1322.40
389.45	1322.40
389.64	1334.11
389.84	1418.36
390.03	1364.53
390.22	1432.41
390.42	1287.29
390.61	1437.09
390.81	1331.76
391.00	1467.52
391.19	1453.47
391.39	1469.86
391.58	1514.33
391.78	1483.90
391.97	1460.49
392.16	1441.77
392.36	1563.48
392.55	1526.03
392.75	1483.90
392.94	1589.22
393.13	1610.29
393.33	1537.73
393.52	1614.97
393.71	1629.01
393.91	1523.69
394.10	1519.01
394.29	1671.14
394.49	1579.86
394.68	1682.85
394.88	1591.56
395.07	1668.80
395.26	1727.32
395.46	1717.95
395.65	1762.42
395.84	1626.67
396.04	1724.97
396.23	1722.63
396.42	1741.36
396.62	1813.92
396.81	1746.04
397.00	1750.72
397.19	1706.25
397.39	1849.02
397.58	1872.43
397.77	1916.90
397.97	1755.40
398.16	1877.11
398.35	1842.00
398.55	1860.73
398.74	1954.35
398.93	1865.41
399.12	1823.28
399.32	1984.77
399.51	1935.62
399.70	1856.04
399.90	1891.15
400.09	2038.61
400.28	1996.48
400.47	2045.63
400.67	2090.10
400.86	2139.25
401.05	1984.77
401.24	2108.82
401.44	2188.40
401.63	2094.78
401.82	2155.63
402.01	2024.56
402.21	2214.15
402.40	2169.68
402.59	2172.02
402.78	2312.45
402.97	2258.62
403.17	2200.10
403.36	2291.38
403.55	2242.23
403.74	2321.81
403.93	2347.56
404.13	2370.96
404.32	2392.03
404.51	2352.24
404.70	2497.35
404.89	2441.18
405.09	2562.89
405.28	2495.01
405.47	2427.14
405.66	2394.37
405.85	2509.05
406.05	2576.93
406.24	2471.61
406.43	2487.99
406.62	2593.31
406.81	2682.25
407.00	2623.74
407.20	2626.08
407.39	2726.72
407.58	2700.98
407.77	2801.62
407.96	2801.62
408.15	2682.25
408.34	2605.02
408.54	2715.02
408.73	2808.64
408.92	2724.38
409.11	2869.50
409.30	2857.79
409.49	3009.93
409.68	2846.09
409.87	2965.46
410.07	2902.26
410.26	2899.92
410.45	2897.58
410.64	3070.78
410.83	3070.78
411.02	3180.79
411.21	3227.60
411.40	3038.02
411.59	3155.04
411.78	3262.71
411.98	3194.83
412.17	3290.79
412.36	3304.84
412.55	3246.32
412.74	3382.07
412.93	3379.73
413.12	3463.99
413.31	3461.65
413.50	3522.51
413.69	3487.40
413.88	3599.74
414.07	3538.89
414.26	3716.77
414.45	3815.07
414.64	3630.17
414.83	3632.51
415.02	3805.71
415.22	3887.63
415.41	3915.72
415.60	3943.80
415.79	3953.16
415.98	3992.95
416.17	3906.35
416.36	3836.14
416.55	3997.64
416.74	4044.45
416.93	3899.33
417.12	4107.64
417.31	4100.62
417.50	4318.29
417.69	4393.19
417.88	4346.37
418.07	4397.87
418.26	4088.92
418.45	4477.44
418.64	4521.92
418.83	4425.95
419.02	4351.06
419.21	4542.98
419.39	4493.83
419.58	4557.02
419.77	4596.81
419.96	4617.88
420.15	4428.29
420.34	4615.54
420.53	4610.86
420.72	4779.37
420.91	4622.56
421.10	4709.16
421.29	4875.34
421.48	4690.43
421.67	4758.31
421.86	4805.12
422.05	4887.04
422.24	4833.21
422.43	4772.35
422.61	4788.74
422.80	4873.00
422.99	5022.79
423.18	4945.55
423.37	5069.60
423.56	4905.76
423.75	4856.61
423.94	4720.86
424.13	4552.34
424.32	4765.33
424.50	5053.22
424.69	5198.33
424.88	5149.18
425.07	4936.19
425.26	4891.72
425.45	4983.00
425.64	4997.04
425.83	5050.88
426.01	5128.11
426.20	4943.21
426.39	5114.07
426.58	5139.82
426.77	5013.43
426.96	5177.26
427.15	5163.22
427.33	5233.44
427.52	5020.45
427.71	5343.44
427.90	5130.45
428.09	5315.36
428.28	5376.21
428.46	5221.74
428.65	5355.15
428.84	5570.48
429.03	5671.12
429.22	5287.27
429.40	5486.22
429.59	5401.96
429.78	5331.74
429.97	5263.86
430.16	5399.62
430.34	5465.15
430.53	5636.01
430.72	5596.22
430.91	5753.04
431.10	5614.95
431.28	5816.23
431.47	5736.65
431.66	5762.40
431.85	5856.02
432.03	5935.60
432.22	6071.35
432.41	5949.64
432.60	5996.45
432.79	6113.48
432.97	6019.86
433.16	5930.92
433.35	5970.71
433.54	5980.07
433.72	6232.85
433.91	6141.57
434.10	6265.61
434.28	6272.64
434.47	6223.48
434.66	6272.64
434.85	6246.89
435.03	6375.62
435.22	6267.95
435.41	6347.53
435.59	6408.39
435.78	6480.94
435.97	6574.56
436.16	6396.68
436.34	6466.90
436.53	6494.99
436.72	6670.53
436.90	6506.69
437.09	6630.74
437.28	6452.86
437.46	6626.06
437.65	6651.80
437.84	6663.51
438.02	6705.63
438.21	6970.12
438.40	6785.21
438.58	7019.27
438.77	7183.10
438.96	7070.76
439.14	7101.19
439.33	7033.31
439.52	7173.74
439.70	7136.29
439.89	7232.26
440.08	7309.49
440.26	7346.94
440.45	7344.60
440.63	7461.63
440.82	7543.55
441.01	7552.91
441.19	7726.11
441.38	7665.25
441.57	7651.21
441.75	7889.95
441.94	7758.88
442.12	8044.42
442.31	8093.57
442.50	7819.73
442.68	7836.11
442.87	7974.21
443.05	8142.72
443.24	8292.52
443.43	8346.35
443.61	8168.47
443.80	8208.26
443.98	8030.38
444.17	7906.33
444.35	8154.43
444.54	8383.80
444.73	8133.36
444.91	8449.33
445.10	8250.39
445.28	8297.20
445.47	8189.53
445.65	8147.40
445.84	8638.92
446.02	8423.59
446.21	8496.14
446.39	8503.17
446.58	8428.27
446.77	8512.53
446.95	8329.97
447.14	8479.76
447.32	8571.04
447.51	8381.46
447.69	8351.03
447.88	8564.02
448.06	8730.20
448.25	8376.78
448.43	8823.82
448.62	8629.56
448.80	8535.93
448.99	8636.58
449.17	8676.37
449.36	8774.67
449.54	8940.85
449.73	9083.62
449.91	9062.55
450.10	9043.83
450.28	8912.76
450.46	8992.34
450.65	9088.30
450.83	8980.64
451.02	8975.95
451.20	9130.43
451.39	9165.54
451.57	8971.27
451.76	9249.80
451.94	9483.85
452.13	9444.06
452.31	9322.35
452.49	9130.43
452.68	9392.57
452.86	9411.29
453.05	9404.27
453.23	9640.67
453.42	9226.39
453.60	9202.99
453.78	9612.58
453.97	9446.40
454.15	9596.20
454.34	9408.95
454.52	9830.25
454.70	9617.26
454.89	9614.92
455.07	9640.67
455.26	9694.50
455.44	9877.06
455.62	9996.43
455.81	9893.44
455.99	10050.26
456.17	9884.08
456.36	10146.22
456.54	10183.67
456.73	10183.67
456.91	10530.07
457.09	10658.80
457.28	10616.67
457.46	10455.17
457.64	10726.68
457.83	10792.21
458.01	10441.13
458.19	10628.37
458.38	10651.78
458.56	10771.15
458.74	10787.53
458.93	10663.48
459.11	10698.59
459.29	10633.05
459.48	10944.34
459.66	10803.91
459.84	11028.60
460.03	11248.61
460.21	10965.41
460.39	11016.90
460.57	11000.52
460.76	10960.73
460.94	11197.12
461.12	11454.58
461.31	11283.72
461.49	11358.62
461.67	11171.38
461.85	11393.73
462.04	11396.07
462.22	11396.07
462.40	11630.12
462.59	11311.81
462.77	11417.13
462.95	11726.08
463.13	11323.51
463.32	11424.15
463.50	11779.92
463.68	11899.28
463.86	11805.66
464.05	11538.84
464.23	11730.76
464.41	11892.26
464.59	11796.30
464.78	12166.10
464.96	11943.75
465.14	11878.22
465.32	11953.12
465.50	12060.78
465.69	12173.13
465.87	12339.30
466.05	12081.85
466.23	12219.94
466.41	12292.49
466.60	12603.78
466.78	12086.53
466.96	12060.78
467.14	12531.23
467.32	12458.67
467.51	12365.05
467.69	12191.85
467.87	12549.95
468.05	12336.96
468.23	12400.16
468.41	12276.11
468.60	12622.51
468.78	12938.48
468.96	12666.98
469.14	12835.50
469.32	13076.57
469.50	12678.68
469.69	12774.64
469.87	13174.88
470.05	13228.71
470.23	12973.59
470.41	13177.22
470.59	13338.71
470.77	13317.65
470.95	13429.99
471.14	13610.22
471.32	13233.39
471.50	13537.66
471.68	13589.15
471.86	13785.76
472.04	13642.98
472.22	14068.96
472.40	13825.54
472.58	13645.32
472.77	13958.96
472.95	14141.52
473.13	14569.83
473.31	13912.14
473.49	14527.71
473.67	14104.07
473.85	14396.64
474.03	14494.94
474.21	14670.48
474.39	14956.02
474.57	14747.72
474.75	14965.39
474.93	14998.15
475.12	15035.60
475.30	15180.71
475.48	14970.07
475.66	15363.28
475.84	15016.88
476.02	15316.47
476.20	15332.85
476.38	15674.57
476.56	15892.24
476.74	16056.08
476.92	15974.16
477.10	15976.50
477.28	16112.25
477.46	16093.52
477.64	16489.07
477.82	16734.83
478.00	16901.01
478.18	17071.87
478.36	17013.35
478.54	16999.31
478.72	17385.50
478.90	17448.69
479.08	17415.93
479.26	17682.75
479.44	17626.57
479.62	17879.35
479.80	18054.89
479.98	18279.58
480.16	18466.83
480.34	18452.78
480.52	18551.09
480.70	18728.97
480.88	18443.42
481.06	18972.38
481.24	18738.33
481.41	19367.93
481.59	19477.94
481.77	19681.56
481.95	19630.07
482.13	19829.02
482.31	19829.02
482.49	20259.68
482.67	20430.54
482.85	20386.07
483.03	20882.26
483.21	20947.79
483.39	20945.45
483.57	20994.61
483.74	21394.84
483.92	21282.49
484.10	21701.45
484.28	21724.85
484.46	22094.66
484.64	22525.32
484.82	22113.38
485.00	22593.19
485.18	22651.70
485.35	23356.21
485.53	22735.96
485.71	23175.98
485.89	23403.02
486.07	23616.01
486.25	23552.81
486.43	23545.79
486.61	23901.55
486.78	24058.37
486.96	23800.91
487.14	24596.69
487.32	24659.88
487.50	25109.27
487.68	25256.72
487.85	25179.48
488.03	25418.22
488.21	25869.94
488.39	25841.85
488.57	26111.02
488.75	26401.24
488.92	26497.20
489.10	26705.51
489.28	26714.87
489.46	27019.14
489.64	27391.29
489.81	27679.18
489.99	28048.98
490.17	27737.69
490.35	28224.52
490.53	28196.43
490.70	28479.64
490.88	28240.90
491.06	28802.63
491.24	28730.08
491.41	29102.22
491.59	29355.00
491.77	29275.42
491.95	29427.56
492.13	29818.42
492.30	30050.14
492.48	30019.71
492.66	30195.25
492.84	30499.52
493.01	30431.65
493.19	30967.63
493.37	30761.66
493.54	31098.70
493.72	31770.43
493.90	31711.92
494.08	31798.52
494.25	32128.53
494.43	32177.68
494.61	32788.56
494.79	32706.65
494.96	32540.47
495.14	32978.15
495.32	33282.42
495.49	33057.73
495.67	33352.63
495.85	33563.28
496.02	33612.43
496.20	34445.66
496.38	33979.90
496.55	34412.90
496.73	34696.10
496.91	34698.44
497.09	34787.38
497.26	35112.72
497.44	35103.35
497.62	35164.21
497.79	35648.70
497.97	35576.14
498.14	36400.01
498.32	35943.61
498.50	36257.24
498.67	36758.11
498.85	36484.27
499.03	36975.78
499.20	36821.31
499.38	37383.04
499.56	37425.17
499.73	37270.69
499.91	37242.60
500.08	37610.07
500.26	37509.43
500.44	37982.21
500.61	38209.25
500.79	37818.38
500.97	38176.48
501.14	38539.26
501.32	38869.28
501.49	38794.38
501.67	38684.37
501.84	39423.98
502.02	38902.04
502.20	38934.81
502.37	39569.10
502.55	39051.84
502.72	39419.30
502.90	39618.25
503.07	39416.96
503.25	40004.44
503.43	39821.87
503.60	40231.47
503.78	40509.99
503.95	40428.07
504.13	40966.40
504.30	40280.62
504.48	40828.30
504.65	41041.29
504.83	41277.69
505.01	41352.58
505.18	41060.02
505.36	41631.11
505.53	41062.36
505.71	41942.40
505.88	42190.50
506.06	41151.30
506.23	42263.05
506.41	41612.38
506.58	42237.31
506.76	42202.20
506.93	42665.63
507.11	41940.06
507.28	42335.61
507.46	42742.86
507.63	43129.05
507.81	43140.75
507.98	42801.38
508.16	42855.21
508.33	43206.29
508.50	43407.58
508.68	43690.78
508.85	44308.68
509.03	44182.29
509.20	44247.83
509.38	44435.07
509.55	44856.37
509.73	44516.99
509.90	44474.86
510.08	44542.74
510.25	44865.73
510.42	44952.33
510.60	45485.97
510.77	45324.47
510.95	45691.94
511.12	45001.48
511.30	45235.53
511.47	45385.33
511.64	45869.82
511.82	45909.61
511.99	45591.30
512.17	46185.79
512.34	46061.74
512.51	46871.57
512.69	46665.60
512.86	46415.16
513.04	46604.75
513.21	47054.13
513.38	46749.86
513.56	47232.01
513.73	46906.68
513.90	47281.16
514.08	46639.86
514.25	47143.07
514.43	47587.77
514.60	47325.63
514.77	47210.95
514.95	47892.04
515.12	47704.80
515.29	47842.89
515.47	47817.14
515.64	48210.35
515.81	47983.32
515.99	48231.42
516.16	48589.52
516.33	48722.93
516.51	48348.45
516.68	48921.88
516.85	48708.89
517.03	48811.87
517.20	49116.14
517.37	49235.51
517.54	48898.47
517.72	48928.90
517.89	49022.52
518.06	49310.41
518.24	49308.07
518.41	49364.24
518.58	49542.12
518.75	49476.58
518.93	49715.32
519.10	49703.62
519.27	50153.00
519.45	49787.88
519.62	50000.86
519.79	50024.27
519.96	50075.76
520.14	50110.87
520.31	50000.86
520.48	50045.33
520.65	50227.90
520.83	50784.94
521.00	50567.27
521.17	50726.43
521.34	50852.82
521.52	50899.63
521.69	51100.92
521.86	51011.98
522.03	51304.54
522.20	51210.92
522.38	51477.74
522.55	51529.23
522.72	51728.18
522.89	51356.03
523.07	51767.97
523.24	51664.99
523.41	51667.33
523.58	51648.60
523.75	51922.44
523.92	51674.35
524.10	52018.41
524.27	52420.98
524.44	52224.37
524.61	52224.37
524.78	52165.86
524.96	52327.36
525.13	52523.96
525.30	52449.06
525.47	52383.53
525.64	52713.55
525.81	52783.76
525.98	52659.71
526.16	52776.74
526.33	53052.92
526.50	52858.66
526.67	52655.03
526.84	53268.25
527.01	52704.18
527.18	52893.77
527.36	53141.86
527.53	53083.35
527.70	53511.67
527.87	53429.75
528.04	53015.47
528.21	53286.98
528.38	53350.17
528.55	53680.19
528.72	53364.21
528.89	53558.48
529.07	53712.95
529.24	53478.90
529.41	53790.19
529.58	53616.99
529.75	53684.87
529.92	53703.59
530.09	53872.11
530.26	54117.87
530.43	54307.45
530.60	53722.32
530.77	53996.16
530.94	54082.76
531.11	54309.79
531.28	54192.76
531.46	54265.32
531.63	54197.44
531.80	54363.62
531.97	54415.11
532.14	54583.63
532.31	54635.13
532.48	54501.71
532.65	54841.09
532.82	54518.10
532.99	54873.86
533.16	54836.41
533.33	54801.30
533.50	54904.29
533.67	54899.61
533.84	54890.24
534.01	55154.72
534.18	54965.14
534.35	55049.40
534.52	55231.96
534.69	55098.55
534.86	55348.99
535.03	55164.09
535.20	55388.78
535.37	55360.69
535.54	55601.77
535.71	55201.53
535.88	55583.04
536.05	55468.36
536.22	55866.25
536.38	55559.64
536.55	55693.05
536.72	55519.85
536.89	55461.33
537.06	55442.61
537.23	55679.00
537.40	55716.45
537.57	55922.42
537.74	55838.16
537.91	56020.72
538.08	55934.12
538.25	55681.34
538.42	56072.21
538.59	56362.44
538.75	56142.43
538.92	56224.35
539.09	56402.23
539.26	56193.92
539.43	56493.51
539.60	56575.43
539.77	56292.22
539.94	56444.36
540.11	56362.44
540.28	56484.15
540.44	56238.39
540.61	56498.19
540.78	56320.31
540.95	56399.89
541.12	56465.42
541.29	56404.57
541.46	56528.62
541.62	56512.23
541.79	56690.12
541.96	56315.63
542.13	56811.82
542.30	56666.71
542.47	56891.40
542.63	56741.61
542.80	57106.73
542.97	57008.43
543.14	57165.24
543.31	57153.54
543.48	57183.97
543.64	57586.54
543.81	57647.39
543.98	57609.95
544.15	57614.63
544.32	57551.43
544.48	57762.08
544.65	57598.24
544.82	57317.38
544.99	57214.40
545.16	57511.64
545.32	57490.58
545.49	57560.79
545.66	57834.64
545.83	57691.86
546.00	57869.75
546.16	57801.87
546.33	57811.23
546.50	57333.76
546.67	57968.05
546.83	57558.45
547.00	57776.12
547.17	57836.98
547.34	57979.75
547.50	57822.93
547.67	57935.28
547.84	57958.69
548.00	58078.05
548.17	58272.32
548.34	58328.49
548.51	58307.43
548.67	58284.02
548.84	58363.60
549.01	58326.15
549.18	58272.32
549.34	58246.57
549.51	58358.92
549.68	58438.50
549.84	58616.38
550.01	58543.82
550.18	58426.79
550.34	58171.67
550.51	58735.74
550.68	58340.19
550.84	58181.04
551.01	58595.31
551.18	58450.20
551.34	58609.35
551.51	58560.20
551.68	58611.70
551.84	58597.65
552.01	58642.12
552.18	58831.71
552.34	58754.47
552.51	58635.10
552.68	58337.85
552.84	58946.39
553.01	58915.96
553.18	58796.60
553.34	58960.44
553.51	58834.05
553.67	59117.25
553.84	59009.59
554.01	58808.30
554.17	59128.95
554.34	59124.27
554.51	59056.40
554.67	59114.91
554.84	59140.66
555.00	59089.16
555.17	58934.69
555.33	59189.81
555.50	59117.25
555.67	59082.14
555.83	59171.08
556.00	59157.04
556.16	59451.95
556.33	59458.97
556.50	59295.13
556.66	59405.14
556.83	59257.68
556.99	59290.45
557.16	59650.89
557.32	59526.84
557.49	59632.17
557.65	59344.28
557.82	59477.69
557.98	59732.81
558.15	59323.22
558.32	59517.48
558.48	59426.20
558.65	59367.69
558.81	59456.63
558.98	59707.07
559.14	59662.60
559.31	59833.46
559.47	59702.38
559.64	59824.09
559.80	59896.65
559.97	59917.71
560.13	59688.34
560.30	59849.84
560.46	59753.88
560.63	59877.93
560.79	59826.43
560.96	59784.30
561.12	59971.55
561.29	59833.46
561.45	59941.12
561.61	59770.26
561.78	60104.96
561.94	60149.43
562.11	59901.33
562.27	59955.16
562.44	59955.16
562.60	60327.31
562.77	59987.93
562.93	59934.10
563.10	59927.08
563.26	59973.89
563.42	60343.69
563.59	60065.17
563.75	59875.58
563.92	60011.34
564.08	60149.43
564.24	60221.98
564.41	60360.08
564.57	60423.27
564.74	60221.98
564.90	60135.38
565.07	60306.24
565.23	60247.73
565.39	60346.03
565.56	60353.05
565.72	60317.95
565.88	60322.63
566.05	60203.26
566.21	60336.67
566.38	60189.22
566.54	60193.90
566.70	60612.85
566.87	60250.07
567.03	60214.96
567.19	60652.64
567.36	60453.70
567.52	60413.91
567.68	60622.22
567.85	60502.85
568.01	60596.47
568.17	60079.21
568.34	60456.04
568.50	60416.25
568.66	60430.29
568.83	60432.63
568.99	60348.37
569.15	60324.97
569.32	60598.81
569.48	60552.00
569.64	60636.26
569.81	60362.42
569.97	60540.30
570.13	60376.46
570.30	60409.23
570.46	60526.25
570.62	60729.88
570.78	60683.07
570.95	60757.97
571.11	60598.81
571.27	60603.49
571.43	60608.17
571.60	60821.16
571.76	60605.83
571.92	60605.83
572.09	60566.04
572.25	60554.34
572.41	60512.21
572.57	60631.58
572.74	60835.20
572.90	60486.46
573.06	60762.65
573.22	60605.83
573.38	60708.82
573.55	60601.15
573.71	60849.25
573.87	60685.41
574.03	60683.07
574.20	60856.27
574.36	60598.81
574.52	60797.76
574.68	60954.57
574.84	60809.46
575.01	61076.28
575.17	60746.26
575.33	60842.23
575.49	60769.67
575.65	60753.29
575.82	60825.84
575.98	60612.85
576.14	61066.92
576.30	60795.42
576.46	60807.12
576.62	60802.44
576.79	60767.33
576.95	60788.39
577.11	60760.31
577.27	60797.76
577.43	60863.29
577.59	60896.06
577.75	60678.39
577.92	60828.18
578.08	61104.37
578.24	60921.80
578.40	61043.51
578.56	61125.43
578.72	60851.59
578.88	61113.73
579.04	61123.09
579.21	61087.98
579.37	61200.33
579.53	61055.21
579.69	60776.69
579.85	60959.25
580.01	60961.59
580.17	60849.25
580.33	61106.71
580.49	61066.92
580.65	61043.51
580.82	60982.66
580.98	60757.97
581.14	60828.18
581.30	61001.38
581.46	61087.98
581.62	61097.34
581.78	60933.51
581.94	60879.67
582.10	60987.34
582.26	61078.62
582.42	61095.00
582.58	60935.85
582.74	60776.69
582.90	61095.00
583.06	60935.85
583.22	60977.98
583.38	61160.54
583.54	61076.28
583.70	61137.13
583.86	61153.52
584.02	60846.91
584.18	61062.24
584.34	61022.45
584.50	60942.87
584.66	60977.98
584.82	60886.70
584.98	61418.00
585.14	61523.32
585.30	60865.63
585.46	61169.90
585.62	61111.39
585.78	61207.35
585.94	61118.41
586.10	61190.97
586.26	61080.96
586.42	61090.32
586.58	61233.10
586.74	61293.95
586.90	61216.71
587.06	61050.53
587.22	61373.53
587.38	61024.79
587.54	61059.90
587.70	61380.55
587.86	61066.92
588.02	61116.07
588.18	61233.10
588.34	61109.05
588.49	61109.05
