SpectraSuite Data File
++++++++++++++++++++++++++++++++++++
Date: Fri Oct 25 10:48:16 EDT 2013
User: price-jones
Dark Spectrum Present: No
Reference Spectrum Present: No
Number of Sampled Component Spectra: 1
Spectrometers: USB2+H05261
Integration Time (usec): 100000 (USB2+H05261)
Spectra Averaged: 1 (USB2+H05261)
Boxcar Smoothing: 0 (USB2+H05261)
Correct for Electrical Dark: No (USB2+H05261)
Strobe/Lamp Enabled: No (USB2+H05261)
Correct for Detector Non-linearity: No (USB2+H05261)
Correct for Stray Light: No (USB2+H05261)
Number of Pixels in Processed Spectrum: 2048
>>>>>Begin Processed Spectral Data<<<<<
365.73	163.84
365.92	163.84
366.12	163.84
366.32	53.83
366.52	44.47
366.72	60.85
366.91	81.92
367.11	0.00
367.31	32.77
367.51	7.02
367.70	44.47
367.90	86.60
368.10	21.06
368.30	70.22
368.49	107.66
368.69	79.58
368.89	105.32
369.09	70.22
369.28	88.94
369.48	16.38
369.68	105.32
369.87	63.19
370.07	112.35
370.27	152.13
370.47	252.78
370.66	339.38
370.86	458.74
371.06	498.53
371.25	421.30
371.45	440.02
371.65	489.17
371.84	489.17
372.04	456.40
372.24	573.43
372.44	512.58
372.63	489.17
372.83	468.11
373.03	533.64
373.22	526.62
373.42	559.39
373.62	428.32
373.81	533.64
374.01	547.69
374.21	606.20
374.40	594.50
374.60	580.45
374.79	589.82
374.99	575.77
375.19	545.34
375.38	575.77
375.58	592.16
375.78	631.94
375.97	535.98
376.17	594.50
376.37	582.79
376.56	557.05
376.76	589.82
376.95	603.86
377.15	601.52
377.35	645.99
377.54	692.80
377.74	615.56
377.93	641.31
378.13	678.76
378.33	683.44
378.52	648.33
378.72	706.84
378.91	706.84
379.11	716.20
379.31	704.50
379.50	667.05
379.70	739.61
379.89	669.39
380.09	636.63
380.28	655.35
380.48	737.27
380.68	667.05
380.87	725.57
381.07	695.14
381.26	805.14
381.46	737.27
381.65	723.23
381.85	725.57
382.04	697.48
382.24	741.95
382.43	699.82
382.63	688.12
382.83	765.36
383.02	667.05
383.22	739.61
383.41	748.97
383.61	767.70
383.80	751.31
384.00	732.59
384.19	667.05
384.39	763.01
384.58	798.12
384.78	798.12
384.97	833.23
385.17	784.08
385.36	725.57
385.56	791.10
385.75	880.04
385.95	844.93
386.14	819.19
386.34	889.40
386.53	875.36
386.72	880.04
386.92	816.85
387.11	802.80
387.31	786.42
387.50	880.04
387.70	873.02
387.89	943.24
388.09	945.58
388.28	830.89
388.48	784.08
388.67	896.43
388.86	980.68
389.06	908.13
389.25	985.37
389.45	985.37
389.64	910.47
389.84	823.87
390.03	945.58
390.22	1022.81
390.42	997.07
390.61	1034.52
390.81	1013.45
391.00	1006.43
391.19	1008.77
391.39	1018.13
391.58	1011.11
391.78	1020.47
391.97	990.05
392.16	1041.54
392.36	1125.80
392.55	1076.65
392.75	1057.92
392.94	985.37
393.13	961.96
393.33	961.96
393.52	959.62
393.71	1137.50
393.91	1069.62
394.10	1104.73
394.29	1193.67
394.49	1165.59
394.68	1233.46
394.88	1186.65
395.07	1364.53
395.26	1153.88
395.46	1196.01
395.65	1203.04
395.84	1284.95
396.04	1252.19
396.23	1186.65
396.42	1174.95
396.62	1179.63
396.81	1226.44
397.00	1247.51
397.19	1219.42
397.39	1294.32
397.58	1336.45
397.77	1373.89
397.97	1320.06
398.16	1261.55
398.35	1425.39
398.55	1380.92
398.74	1554.12
398.93	1469.86
399.12	1437.09
399.32	1366.87
399.51	1439.43
399.70	1455.81
399.90	1519.01
400.09	1486.24
400.28	1542.41
400.47	1682.85
400.67	1561.14
400.86	1523.69
401.05	1650.08
401.24	1617.31
401.44	1563.48
401.63	1558.80
401.82	1565.82
402.01	1685.19
402.21	1563.48
402.40	1671.14
402.59	1661.78
402.78	1671.14
402.97	1813.92
403.17	1689.87
403.36	1701.57
403.55	1760.08
403.74	1797.53
403.93	1776.47
404.13	1741.36
404.32	1806.89
404.51	1806.89
404.70	1802.21
404.89	1753.06
405.09	1846.68
405.28	1874.77
405.47	1851.36
405.66	1888.81
405.85	1844.34
406.05	1884.13
406.24	1898.17
406.43	2024.56
406.62	1970.73
406.81	2050.31
407.00	2012.86
407.20	1961.37
407.39	2038.61
407.58	2038.61
407.77	2071.37
407.96	2092.44
408.15	2062.01
408.34	2113.50
408.54	2099.46
408.73	2188.40
408.92	2125.21
409.11	2267.98
409.30	2183.72
409.49	2209.47
409.68	2183.72
409.87	2157.97
410.07	2223.51
410.26	2270.32
410.45	2263.30
410.64	2298.41
410.83	2366.28
411.02	2359.26
411.21	2565.23
411.40	2469.27
411.59	2553.52
411.78	2546.50
411.98	2520.76
412.17	2586.29
412.36	2548.84
412.55	2520.76
412.74	2469.27
412.93	2672.89
413.12	2696.30
413.31	2724.38
413.50	2621.40
413.69	2785.24
413.88	2740.77
414.07	2764.17
414.26	2829.71
414.45	2885.88
414.64	2981.84
414.83	2850.77
415.02	2881.20
415.22	2911.63
415.41	2888.22
415.60	2949.08
415.79	3047.38
415.98	3042.70
416.17	3148.02
416.36	3007.59
416.55	3201.85
416.74	3122.27
416.93	3159.72
417.12	3119.93
417.31	3126.96
417.50	3145.68
417.69	3435.91
417.88	3213.56
418.07	3220.58
418.26	3265.05
418.45	3361.01
418.64	3372.71
418.83	3449.95
419.02	3358.67
419.21	3445.27
419.39	3482.72
419.58	3431.23
419.77	3588.04
419.96	3468.67
420.15	3527.19
420.34	3522.51
420.53	3447.61
420.72	3515.48
420.91	3555.27
421.10	3590.38
421.29	3669.96
421.48	3667.62
421.67	3831.46
421.86	3536.55
422.05	3676.98
422.24	3700.39
422.43	3667.62
422.61	3618.47
422.80	3754.22
422.99	3794.01
423.18	3723.79
423.37	3798.69
423.56	3831.46
423.75	3735.50
423.94	3674.64
424.13	3555.27
424.32	3646.55
424.50	3852.52
424.69	3770.60
424.88	3906.35
425.07	3712.09
425.26	3726.13
425.45	3861.88
425.64	3786.99
425.83	3737.84
426.01	3794.01
426.20	3847.84
426.39	3889.97
426.58	3831.46
426.77	3859.54
426.96	3854.86
427.15	3749.54
427.33	3885.29
427.52	3819.75
427.71	3894.65
427.90	4035.08
428.09	4018.70
428.28	3948.48
428.46	4131.05
428.65	4119.34
428.84	4245.73
429.03	4121.68
429.22	4098.28
429.40	3988.27
429.59	3988.27
429.78	3882.95
429.97	3829.12
430.16	3770.60
430.34	3812.73
430.53	4014.02
430.72	4037.42
430.91	4093.60
431.10	4009.34
431.28	4397.87
431.47	4491.49
431.66	4465.74
431.85	4322.97
432.03	4421.27
432.22	4678.73
432.41	4521.92
432.60	4461.06
432.79	4514.89
432.97	4514.89
433.16	4718.52
433.35	4535.96
433.54	4498.51
433.72	4617.88
433.91	4486.81
434.10	4519.57
434.28	4636.60
434.47	4613.20
434.66	4821.50
434.85	4704.48
435.03	4657.67
435.22	4835.55
435.41	4924.49
435.59	4858.95
435.78	4919.81
435.97	4833.21
436.16	4997.04
436.34	4849.59
436.53	4856.61
436.72	4992.36
436.90	4931.51
437.09	5011.09
437.28	4971.30
437.46	4954.91
437.65	5076.62
437.84	5167.90
438.02	4980.66
438.21	5083.64
438.40	4910.44
438.58	5102.37
438.77	5296.63
438.96	5116.41
439.14	5305.99
439.33	5387.91
439.52	5336.42
439.70	5401.96
439.89	5497.92
440.08	5579.84
440.26	5472.17
440.45	5472.17
440.63	5472.17
440.82	5645.37
441.01	5764.74
441.19	5806.87
441.38	5879.43
441.57	5937.94
441.75	5830.27
441.94	5755.38
442.12	5923.90
442.31	6080.71
442.50	6094.76
442.68	5937.94
442.87	6099.44
443.05	6057.31
443.24	6267.95
443.43	6057.31
443.61	6265.61
443.80	6291.36
443.98	6078.37
444.17	6038.58
444.35	6274.98
444.54	6324.13
444.73	6092.41
444.91	6186.04
445.10	6314.77
445.28	6038.58
445.47	6153.27
445.65	6251.57
445.84	6284.34
446.02	6485.62
446.21	6375.62
446.39	6399.02
446.58	6408.39
446.77	6387.32
446.95	6333.49
447.14	6387.32
447.32	6384.98
447.51	6328.81
447.69	6331.15
447.88	6370.94
448.06	6410.73
448.25	6436.47
448.43	6450.52
448.62	6380.30
448.80	6668.19
448.99	6574.56
449.17	6647.12
449.36	6527.75
449.54	6581.59
449.73	6712.66
449.91	6740.74
450.10	6909.26
450.28	6885.86
450.46	6930.33
450.65	6808.62
450.83	6965.43
451.02	6916.28
451.20	7030.97
451.39	6906.92
451.57	6986.50
451.76	6918.62
451.94	7007.56
452.13	6946.71
452.31	6839.05
452.49	6801.60
452.68	7077.78
452.86	6932.67
453.05	7016.93
453.23	7037.99
453.42	7054.37
453.60	6965.43
453.78	7105.87
453.97	6946.71
454.15	7045.01
454.34	7166.72
454.52	7192.47
454.70	7267.36
454.89	7124.59
455.07	7293.11
455.26	7129.27
455.44	7330.56
455.62	7396.09
455.81	7487.37
455.99	7534.18
456.17	7382.05
456.36	7494.40
456.54	7536.52
456.73	7588.02
456.91	7887.61
457.09	7847.82
457.28	7866.54
457.46	7712.07
457.64	7810.37
457.83	7871.22
458.01	7520.14
458.19	7829.09
458.38	7929.74
458.56	8074.85
458.74	8042.08
458.93	7852.50
459.11	7836.11
459.29	8093.57
459.48	7955.48
459.66	7864.20
459.84	7997.61
460.03	8180.17
460.21	8051.44
460.39	8219.96
460.57	7857.18
460.76	8191.88
460.94	8301.88
461.12	8432.95
461.31	8280.82
461.49	8238.69
461.67	8315.92
461.85	8482.10
462.04	8496.14
462.22	8887.01
462.40	8477.42
462.59	8571.04
462.77	8788.71
462.95	8578.06
463.13	8477.42
463.32	8648.28
463.50	8664.66
463.68	8676.37
463.86	8725.52
464.05	8505.51
464.23	8622.53
464.41	8798.07
464.59	8547.64
464.78	8994.68
464.96	8748.92
465.14	8800.41
465.32	9060.21
465.50	8784.03
465.69	9018.08
465.87	8699.77
466.05	8870.63
466.23	8800.41
466.41	8931.48
466.60	9046.17
466.78	8830.84
466.96	8842.54
467.14	8992.34
467.32	9036.81
467.51	8961.91
467.69	8758.28
467.87	8936.17
468.05	9238.09
468.23	8844.88
468.41	8933.82
468.60	9181.92
468.78	9212.35
468.96	9242.78
469.14	9146.81
469.32	9451.08
469.50	9240.44
469.69	9451.08
469.87	9521.30
470.05	9521.30
470.23	9458.10
470.41	9418.32
470.59	9408.95
470.77	9635.99
470.95	9596.20
471.14	9612.58
471.32	9593.86
471.50	9935.57
471.68	9881.74
471.86	9973.02
472.04	10143.88
472.22	10186.01
472.40	9975.36
472.58	9692.16
472.77	10005.79
472.95	10125.16
473.13	10375.59
473.31	10029.20
473.49	10188.35
473.67	10164.95
473.85	10420.06
474.03	10679.86
474.21	10754.76
474.39	10534.75
474.57	10750.08
474.75	10593.26
474.93	11037.97
475.12	10836.68
475.30	10878.81
475.48	10848.38
475.66	10857.75
475.84	10927.96
476.02	10911.58
476.20	10916.26
476.38	11335.21
476.56	11592.67
476.74	11536.50
476.92	11398.41
477.10	11346.92
477.28	11609.06
477.46	11688.64
477.64	11836.09
477.82	11826.73
478.00	12037.38
478.18	11932.05
478.36	12351.01
478.54	12217.60
478.72	12287.81
478.90	12564.00
479.08	12512.50
479.26	12753.58
479.44	12847.20
479.62	12730.17
479.80	12699.75
479.98	12868.27
480.16	13280.20
480.34	12947.84
480.52	13074.23
480.70	13163.17
480.88	13090.62
481.06	13455.74
481.24	13376.16
481.41	13781.07
481.59	13605.53
481.77	13905.12
481.95	13977.68
482.13	13846.61
482.31	14097.05
482.49	14197.69
482.67	14331.10
482.85	14431.74
483.03	14574.52
483.21	14562.81
483.39	14754.74
483.57	14590.90
483.74	14794.53
483.92	15033.26
484.10	14995.81
484.28	15084.75
484.46	15665.21
484.64	15950.75
484.82	15503.71
485.00	15379.66
485.18	15786.91
485.35	15962.45
485.53	15791.59
485.71	15882.88
485.89	16095.86
486.07	15840.75
486.25	15988.20
486.43	16456.31
486.61	16451.63
486.78	16992.29
486.96	16772.28
487.14	17401.88
487.32	16957.18
487.50	17291.88
487.68	17479.12
487.85	17678.07
488.03	17827.86
488.21	17888.71
488.39	17549.34
488.57	18054.89
488.75	18396.61
488.92	18448.10
489.10	18565.13
489.28	18448.10
489.46	19278.99
489.64	19166.65
489.81	19520.07
489.99	19470.92
490.17	19543.47
490.35	19840.72
490.53	19613.69
490.70	19826.68
490.88	19885.19
491.06	20315.85
491.24	20046.69
491.41	19969.45
491.59	20332.23
491.77	20208.19
491.95	20224.57
492.13	20556.93
492.30	20762.89
492.48	20931.41
492.66	21092.91
492.84	21053.12
493.01	21369.09
493.19	21303.56
493.37	21614.85
493.54	21884.01
493.72	21839.54
493.90	21579.74
494.08	21762.30
494.25	22366.16
494.43	22574.47
494.61	22869.37
494.79	22436.38
494.96	22443.40
495.14	22726.60
495.32	22810.86
495.49	22712.56
495.67	22941.93
495.85	23400.68
496.02	23805.59
496.20	23786.86
496.38	23749.42
496.55	23686.22
496.73	24325.19
496.91	23913.25
497.09	23960.06
497.26	24734.78
497.44	24346.25
497.62	24442.21
497.79	24482.00
497.97	24418.81
498.14	24882.24
498.32	24868.19
498.50	24744.14
498.67	24971.18
498.85	25348.00
499.03	25436.94
499.20	25766.96
499.38	25654.61
499.56	25823.13
499.73	25724.83
499.91	25509.50
500.08	25930.80
500.26	25745.89
500.44	25970.58
500.61	25745.89
500.79	26087.61
500.97	26139.10
501.14	26717.22
501.32	26279.54
501.49	26590.83
501.67	26295.92
501.84	26581.46
502.02	26799.13
502.20	27033.19
502.37	26944.25
502.55	27262.56
502.72	27381.93
502.90	27218.09
503.07	27281.28
503.25	27262.56
503.43	27002.76
503.60	27414.69
503.78	27580.87
503.95	27826.63
504.13	27711.94
504.30	27718.96
504.48	27594.92
504.65	28063.02
504.83	27971.74
505.01	28257.29
505.18	28259.63
505.36	29039.03
505.53	28591.98
505.71	29083.50
505.88	28601.35
506.06	28428.15
506.23	28772.21
506.41	28645.82
506.58	29212.23
506.76	29301.17
506.93	29418.19
507.11	28968.81
507.28	29240.31
507.46	29132.65
507.63	29205.20
507.81	29223.93
507.98	29383.09
508.16	29188.82
508.33	29677.99
508.50	29893.32
508.68	29633.52
508.85	30684.42
509.03	30562.72
509.20	30431.65
509.38	30244.40
509.55	30469.09
509.73	30422.28
509.90	30546.33
510.08	30230.36
510.25	30539.31
510.42	31009.76
510.60	31110.40
510.77	31028.48
510.95	31564.46
511.12	30857.62
511.30	31239.13
511.47	31667.45
511.64	31374.88
511.82	31681.49
511.99	31243.81
512.17	31693.19
512.34	31566.81
512.51	31557.44
512.69	31704.90
512.86	31847.67
513.04	32233.86
513.21	31833.63
513.38	31969.38
513.56	32046.62
513.73	31440.42
513.90	32086.40
514.08	32254.92
514.25	32400.04
514.43	32491.32
514.60	32591.96
514.77	32297.05
514.95	32865.80
515.12	32556.85
515.29	32648.13
515.47	33469.66
515.64	33406.47
515.81	32921.98
515.99	32879.85
516.16	33277.74
516.33	32797.93
516.51	32547.49
516.68	32531.11
516.85	32903.25
517.03	33177.09
517.20	33369.02
517.37	33509.45
517.54	33495.41
517.72	33912.02
517.89	33296.46
518.06	33549.24
518.24	33401.79
518.41	33795.00
518.58	34244.38
518.75	33699.03
518.93	33666.27
519.10	34209.27
519.27	34059.48
519.45	34459.71
519.62	34497.16
519.79	34195.23
519.96	34848.24
520.14	35138.46
520.31	34700.78
520.48	34965.26
520.65	34541.63
520.83	35601.89
521.00	34822.49
521.17	35105.70
521.34	35243.79
521.52	35503.59
521.69	35578.48
521.86	35302.30
522.03	35419.33
522.20	35328.05
522.38	35707.21
522.55	35356.13
522.72	35456.78
522.89	35318.68
523.07	36107.44
523.24	36074.68
523.41	35632.32
523.58	36128.51
523.75	36467.89
523.92	36465.55
524.10	36311.07
524.27	36137.87
524.44	36610.66
524.61	36404.69
524.78	36608.32
524.96	36657.47
525.13	36526.40
525.30	37244.94
525.47	37280.05
525.64	37102.17
525.81	37046.00
525.98	36877.48
526.16	36435.12
526.33	36919.61
526.50	36744.07
526.67	36659.81
526.84	36821.31
527.01	36825.99
527.18	37446.23
527.36	37132.60
527.53	37280.05
527.70	37766.88
527.87	37530.49
528.04	37600.71
528.21	37666.24
528.38	37617.09
528.55	38103.92
528.72	38169.46
528.89	37977.53
529.07	37832.42
529.24	37893.27
529.41	38213.93
529.58	37909.66
529.75	37827.74
529.92	38398.83
530.09	37965.83
530.26	38794.38
530.43	38426.92
530.60	38754.59
530.77	38146.05
530.94	38660.97
531.11	38529.90
531.28	38588.41
531.46	38782.68
531.63	38789.70
531.80	38710.12
531.97	38871.62
532.14	38960.56
532.31	38742.89
532.48	38438.62
532.65	38983.96
532.82	38918.43
532.99	38967.58
533.16	38789.70
533.33	39058.86
533.50	39311.64
533.67	39632.29
533.84	39737.62
534.01	39423.98
534.18	39117.37
534.35	39732.93
534.52	39384.19
534.69	39627.61
534.86	39639.31
535.03	39414.62
535.20	40142.53
535.37	39992.73
535.54	40238.49
535.71	39831.24
535.88	39842.94
536.05	40023.16
536.22	39847.62
536.38	40327.43
536.55	40013.80
536.72	39847.62
536.89	40189.34
537.06	40023.16
537.23	40261.90
537.40	40257.21
537.57	40322.75
537.74	40292.32
537.91	40760.43
538.08	40772.13
538.25	40245.51
538.42	40498.29
538.59	40718.30
538.75	40093.38
538.92	40797.88
539.09	40982.78
539.26	40741.71
539.43	40444.46
539.60	40889.16
539.77	40872.78
539.94	40570.85
540.11	40437.44
540.28	40776.81
540.44	40589.57
540.61	40928.95
540.78	40966.40
540.95	40872.78
541.12	40320.41
541.29	41343.22
541.46	40879.80
541.62	41460.25
541.79	41340.88
541.96	41312.80
542.13	41380.67
542.30	40975.76
542.47	40959.38
542.63	41057.68
542.80	41783.24
542.97	41979.85
543.14	41567.91
543.31	41907.29
543.48	42146.03
543.64	42099.22
543.81	42197.52
543.98	42183.48
544.15	41874.52
544.32	42511.15
544.48	42562.64
544.65	42249.01
544.82	42440.93
544.99	42174.11
545.16	42497.11
545.32	42600.09
545.49	42997.98
545.66	42529.87
545.83	42548.60
546.00	42354.33
546.16	42359.02
546.33	42562.64
546.50	41963.46
546.67	42342.63
546.83	42553.28
547.00	42490.09
547.17	42492.43
547.34	42202.20
547.50	42497.11
547.67	43290.55
547.84	42686.69
548.00	42827.12
548.17	42777.97
548.34	42817.76
548.51	43246.08
548.67	43328.00
548.84	43295.23
549.01	42742.86
549.18	43192.25
549.34	42981.60
549.51	43194.59
549.68	43480.13
549.84	42923.08
550.01	43421.62
550.18	42855.21
550.34	43601.84
550.51	43655.67
550.68	43014.37
550.84	43178.20
551.01	43770.36
551.18	43646.31
551.34	43388.85
551.51	43388.85
551.68	43634.61
551.84	44055.90
552.01	43512.90
552.18	43742.27
552.34	43189.91
552.51	43529.28
552.68	43297.57
552.84	43590.14
553.01	44219.74
553.18	43658.01
553.34	44172.93
553.51	43353.74
553.67	44030.16
553.84	44205.70
554.01	44011.43
554.17	44371.88
554.34	44172.93
554.51	44140.16
554.67	44320.38
554.84	43868.66
555.00	43501.20
555.17	43814.83
555.33	44371.88
555.50	44027.82
555.67	44390.60
555.83	44271.23
556.00	44259.53
556.16	44734.66
556.33	44065.27
556.50	44289.96
556.66	44561.46
556.83	44484.22
556.99	44175.27
557.16	44498.26
557.32	44315.70
557.49	44612.95
557.65	44339.11
557.82	44322.72
557.98	44577.84
558.15	44664.44
558.32	44369.54
558.48	44631.68
558.65	44296.98
558.81	44259.53
558.98	44421.03
559.14	44699.55
559.31	44179.95
559.47	44671.46
559.64	44945.31
559.80	44931.26
559.97	45214.47
560.13	44460.82
560.30	44563.80
560.46	45001.48
560.63	45113.83
560.79	44861.05
560.96	45167.66
561.12	45013.18
561.29	45041.27
561.45	45277.66
561.61	45074.04
561.78	44959.35
561.94	44903.18
562.11	44690.19
562.27	44694.87
562.44	44861.05
562.60	45483.63
562.77	45284.68
562.93	45366.60
563.10	45500.01
563.26	44847.00
563.42	44893.82
563.59	45020.20
563.75	45198.09
563.92	45359.58
564.08	45642.79
564.24	45460.23
564.41	45378.31
564.57	45640.45
564.74	45024.89
564.90	45181.70
565.07	45373.63
565.23	45050.63
565.39	45284.68
565.56	45296.39
565.72	45324.47
565.88	45404.05
566.05	45268.30
566.21	45371.28
566.38	45446.18
566.54	45062.33
566.70	45755.13
566.87	45654.49
567.03	45315.11
567.19	45792.58
567.36	45591.30
567.52	45324.47
567.68	45209.79
567.85	45406.39
568.01	45263.62
568.17	45394.69
568.34	45727.05
568.50	45474.27
568.66	45137.23
568.83	45600.66
568.99	45013.18
569.15	45359.58
569.32	45375.97
569.48	45586.61
569.64	45572.57
569.81	45659.17
569.97	45343.20
570.13	45588.95
570.30	45010.84
570.46	45088.08
570.62	45432.14
570.78	45406.39
570.95	44783.81
571.11	45720.02
571.27	45193.40
571.43	45525.76
571.60	45785.56
571.76	45401.71
571.92	45614.70
572.09	45371.28
572.25	45691.94
572.41	45450.86
572.57	45385.33
572.74	45972.80
572.90	45600.66
573.06	45944.72
573.22	45668.53
573.38	45923.65
573.55	45092.76
573.71	46073.45
573.87	46122.60
574.03	45628.74
574.20	45315.11
574.36	45666.19
574.52	46279.41
574.68	46000.89
574.84	45621.72
575.01	45607.68
575.17	45872.16
575.33	45535.12
575.49	45411.07
575.65	45481.29
575.82	45792.58
575.98	45607.68
576.14	45844.07
576.30	45738.75
576.46	45507.04
576.62	45799.60
576.79	45514.06
576.95	45272.98
577.11	45570.23
577.27	45743.43
577.43	45904.93
577.59	45560.87
577.75	45521.08
577.92	45258.94
578.08	45179.36
578.24	45722.37
578.40	45443.84
578.56	45595.98
578.72	45425.12
578.88	46071.10
579.04	45588.95
579.21	45701.30
579.37	45509.38
579.53	45591.30
579.69	45441.50
579.85	45757.47
580.01	45804.28
580.17	45624.06
580.33	46068.76
580.49	45956.42
580.65	46445.59
580.82	45766.84
580.98	45951.74
581.14	45500.01
581.30	46080.47
581.46	46256.01
581.62	45785.56
581.78	45879.18
581.94	46361.33
582.10	45830.03
582.26	46295.80
582.42	45734.07
582.58	46003.23
582.74	45886.20
582.90	46043.02
583.06	45949.40
583.22	46316.86
583.38	46373.03
583.54	46108.55
583.70	45806.62
583.86	45963.44
584.02	45577.25
584.18	45954.08
584.34	45535.12
584.50	45982.16
584.66	45869.82
584.82	45696.62
584.98	46026.63
585.14	45904.93
585.30	45928.33
585.46	45830.03
585.62	45780.88
585.78	45696.62
585.94	45542.14
586.10	45745.77
586.26	45904.93
586.42	45720.02
586.58	46335.59
586.74	46103.87
586.90	45895.56
587.06	45869.82
587.22	45610.02
587.38	45979.82
587.54	46213.88
587.70	46148.34
587.86	46150.68
588.02	45900.25
588.18	45914.29
588.34	45748.11
588.49	45619.38
588.65	45645.13
588.81	45759.81
588.97	45551.51
589.13	45427.46
589.29	45717.68
589.45	45628.74
589.61	45881.52
589.77	45844.07
589.93	45914.29
590.08	46155.36
