SpectraSuite Data File
++++++++++++++++++++++++++++++++++++
Date: Fri Oct 25 11:26:09 EDT 2013
User: price-jones
Dark Spectrum Present: No
Reference Spectrum Present: No
Number of Sampled Component Spectra: 1
Spectrometers: USB2+H05261
Integration Time (usec): 100000 (USB2+H05261)
Spectra Averaged: 1 (USB2+H05261)
Boxcar Smoothing: 0 (USB2+H05261)
Correct for Electrical Dark: No (USB2+H05261)
Strobe/Lamp Enabled: No (USB2+H05261)
Correct for Detector Non-linearity: No (USB2+H05261)
Correct for Stray Light: No (USB2+H05261)
Number of Pixels in Processed Spectrum: 2048
>>>>>Begin Processed Spectral Data<<<<<
365.73	196.60
365.92	196.60
366.12	196.60
366.32	159.16
366.52	128.73
366.72	147.45
366.91	163.84
367.11	159.16
367.31	81.92
367.51	203.63
367.70	154.48
367.90	156.82
368.10	114.69
368.30	70.22
368.49	98.30
368.69	187.24
368.89	191.92
369.09	159.16
369.28	161.50
369.48	124.05
369.68	182.56
369.87	180.22
370.07	215.33
370.27	220.01
370.47	292.57
370.66	491.51
370.86	538.32
371.06	734.93
371.25	685.78
371.45	622.58
371.65	692.80
371.84	678.76
372.04	751.31
372.24	727.91
372.44	669.39
372.63	763.01
372.83	788.76
373.03	767.70
373.22	763.01
373.42	727.91
373.62	763.01
373.81	795.78
374.01	819.19
374.21	781.74
374.40	744.29
374.60	828.55
374.79	835.57
374.99	866.00
375.19	805.14
375.38	933.87
375.58	889.40
375.78	891.74
375.97	880.04
376.17	877.70
376.37	842.59
376.56	959.62
376.76	826.21
376.95	842.59
377.15	898.77
377.35	891.74
377.54	929.19
377.74	931.53
377.93	870.68
378.13	877.70
378.33	968.98
378.52	924.51
378.72	866.00
378.91	1032.18
379.11	931.53
379.31	887.06
379.50	973.66
379.70	936.21
379.89	1029.84
380.09	947.92
380.28	1027.50
380.48	971.32
380.68	976.00
380.87	1018.13
381.07	1057.92
381.26	1076.65
381.46	1029.84
381.65	1109.41
381.85	1046.22
382.04	1039.20
382.24	1111.75
382.43	1053.24
382.63	1086.01
382.83	1043.88
383.02	1146.86
383.22	1132.82
383.41	1081.33
383.61	1076.65
383.80	1137.50
384.00	1090.69
384.19	1093.03
384.39	1174.95
384.58	1118.78
384.78	1156.22
384.97	1160.91
385.17	1137.50
385.36	1139.84
385.56	1137.50
385.75	1128.14
385.95	1228.78
386.14	1207.72
386.34	1231.12
386.53	1235.80
386.72	1193.67
386.92	1273.25
387.11	1270.91
387.31	1165.59
387.50	1324.74
387.70	1212.40
387.89	1313.04
388.09	1226.44
388.28	1270.91
388.48	1327.08
388.67	1245.16
388.86	1282.61
389.06	1221.76
389.25	1301.34
389.45	1334.11
389.64	1310.70
389.84	1301.34
390.03	1299.00
390.22	1376.24
390.42	1394.96
390.61	1277.93
390.81	1392.62
391.00	1446.45
391.19	1458.15
391.39	1472.20
391.58	1523.69
391.78	1446.45
391.97	1432.41
392.16	1437.09
392.36	1423.05
392.55	1469.86
392.75	1455.81
392.94	1476.88
393.13	1444.11
393.33	1654.76
393.52	1533.05
393.71	1589.22
393.91	1598.59
394.10	1624.33
394.29	1563.48
394.49	1600.93
394.68	1638.38
394.88	1626.67
395.07	1685.19
395.26	1664.12
395.46	1603.27
395.65	1650.08
395.84	1671.14
396.04	1741.36
396.23	1722.63
396.42	1748.38
396.62	1795.19
396.81	1834.98
397.00	1776.47
397.19	1774.13
397.39	1771.79
397.58	1863.07
397.77	1818.60
397.97	1874.77
398.16	1849.02
398.35	1893.49
398.55	1872.43
398.74	1930.94
398.93	1916.90
399.12	1970.73
399.32	1921.58
399.51	1952.01
399.70	1968.39
399.90	1991.80
400.09	2015.20
400.28	1933.28
400.47	2038.61
400.67	2031.58
400.86	2064.35
401.05	2099.46
401.24	2150.95
401.44	2150.95
401.63	2197.76
401.82	2120.53
402.01	2136.91
402.21	2127.55
402.40	2157.97
402.59	1984.77
402.78	2298.41
402.97	2263.30
403.17	2237.55
403.36	2249.25
403.55	2174.36
403.74	2413.09
403.93	2279.68
404.13	2242.23
404.32	2354.58
404.51	2417.77
404.70	2394.37
404.89	2427.14
405.09	2551.18
405.28	2392.03
405.47	2427.14
405.66	2478.63
405.85	2572.25
406.05	2438.84
406.24	2466.92
406.43	2605.02
406.62	2668.21
406.81	2614.38
407.00	2595.65
407.20	2597.99
407.39	2588.63
407.58	2649.49
407.77	2682.25
407.96	2658.85
408.15	2689.28
408.34	2787.58
408.54	2850.77
408.73	2705.66
408.92	2827.37
409.11	2813.32
409.30	2890.56
409.49	2909.29
409.68	2820.35
409.87	2923.33
410.07	2841.41
410.26	2925.67
410.45	3021.63
410.64	3124.62
410.83	3049.72
411.02	3108.23
411.21	3110.57
411.40	3087.17
411.59	3236.96
411.78	3171.43
411.98	3152.70
412.17	3314.20
412.36	3251.00
412.55	3332.92
412.74	3400.80
412.93	3311.86
413.12	3370.37
413.31	3463.99
413.50	3361.01
413.69	3496.76
413.88	3478.04
414.07	3632.51
414.26	3634.85
414.45	3557.61
414.64	3611.45
414.83	3613.79
415.02	3641.87
415.22	3843.16
415.41	3768.26
415.60	3871.25
415.79	3871.25
415.98	3864.22
416.17	3871.25
416.36	3969.55
416.55	3836.14
416.74	3976.57
416.93	3943.80
417.12	4133.39
417.31	4084.23
417.50	4280.84
417.69	4311.27
417.88	4212.96
418.07	4222.33
418.26	4194.24
418.45	4292.54
418.64	4468.08
418.83	4318.29
419.02	4383.82
419.21	4610.86
419.39	4531.28
419.58	4418.93
419.77	4465.74
419.96	4505.53
420.15	4671.71
420.34	4613.20
420.53	4550.00
420.72	4617.88
420.91	4451.70
421.10	4699.80
421.29	4755.97
421.48	4667.03
421.67	4732.56
421.86	4662.35
422.05	4791.08
422.24	4819.16
422.43	4880.02
422.61	4901.08
422.80	5001.72
422.99	4978.32
423.18	4943.21
423.37	5055.56
423.56	4980.66
423.75	4898.74
423.94	4821.50
424.13	4489.15
424.32	4652.98
424.50	5022.79
424.69	4894.06
424.88	4985.34
425.07	5027.47
425.26	4816.82
425.45	4891.72
425.64	4842.57
425.83	4894.06
426.01	4959.60
426.20	5074.28
426.39	5046.20
426.58	5135.14
426.77	5018.11
426.96	4950.23
427.15	5018.11
427.33	5046.20
427.52	5139.82
427.71	5298.97
427.90	5214.71
428.09	5369.19
428.28	5221.74
428.46	5427.70
428.65	5296.63
428.84	5488.56
429.03	5411.32
429.22	5210.03
429.40	5584.52
429.59	5451.11
429.78	5373.87
429.97	5090.67
430.16	5453.45
430.34	5556.43
430.53	5603.24
430.72	5619.63
430.91	5626.65
431.10	5523.66
431.28	5575.16
431.47	5774.10
431.66	5736.65
431.85	5734.31
432.03	5844.32
432.22	5963.68
432.41	5956.66
432.60	5912.19
432.79	5797.51
432.97	5949.64
433.16	5851.34
433.35	5991.77
433.54	6061.99
433.72	6045.60
433.91	6001.13
434.10	6083.05
434.28	6083.05
434.47	6223.48
434.66	6232.85
434.85	6319.45
435.03	6195.40
435.22	6183.70
435.41	6303.06
435.59	6338.17
435.78	6476.26
435.97	6394.34
436.16	6263.27
436.34	6532.44
436.53	6492.65
436.72	6642.44
436.90	6317.11
437.09	6553.50
437.28	6630.74
437.46	6553.50
437.65	6483.28
437.84	6705.63
438.02	6665.85
438.21	7009.90
438.40	6604.99
438.58	7026.29
438.77	7009.90
438.96	7049.69
439.14	7049.69
439.33	7103.53
439.52	7169.06
439.70	7232.26
439.89	7279.07
440.08	7494.40
440.26	7330.56
440.45	7405.46
440.63	7496.74
440.82	7473.33
441.01	7424.18
441.19	7559.93
441.38	7585.68
441.57	7840.79
441.75	7740.15
441.94	7976.55
442.12	7843.14
442.31	7887.61
442.50	7971.86
442.68	7929.74
442.87	7939.10
443.05	7960.16
443.24	8278.47
443.43	8107.62
443.61	8128.68
443.80	8416.57
443.98	8140.38
444.17	7866.54
444.35	8166.13
444.54	8287.84
444.73	8311.24
444.91	8105.28
445.10	8285.50
445.28	8297.20
445.47	8341.67
445.65	8187.19
445.84	8564.02
446.02	8531.25
446.21	8580.40
446.39	8269.11
446.58	8585.08
446.77	8500.83
446.95	8344.01
447.14	8336.99
447.32	8362.73
447.51	8360.39
447.69	8477.42
447.88	8264.43
448.06	8456.36
448.25	8589.77
448.43	8538.27
448.62	8430.61
448.80	8446.99
448.99	8652.96
449.17	8500.83
449.36	8657.64
449.54	8922.12
449.73	8821.48
449.91	8861.27
450.10	8940.85
450.28	8999.36
450.46	8924.46
450.65	8889.35
450.83	9165.54
451.02	8997.02
451.20	9107.02
451.39	9100.00
451.57	8990.00
451.76	8968.93
451.94	8992.34
452.13	9315.33
452.31	9069.58
452.49	9186.60
452.68	9401.93
452.86	9221.71
453.05	9296.61
453.23	9446.40
453.42	9357.46
453.60	9158.52
453.78	9547.05
453.97	9439.38
454.15	9596.20
454.34	9341.08
454.52	9675.77
454.70	9446.40
454.89	9783.44
455.07	9659.39
455.26	9806.84
455.44	10080.69
455.62	9762.37
455.81	9673.43
455.99	9935.57
456.17	9844.29
456.36	9926.21
456.54	10174.31
456.73	10146.22
456.91	10485.60
457.09	10164.95
457.28	10642.42
457.46	10209.42
457.64	10410.70
457.83	10628.37
458.01	10370.91
458.19	10604.97
458.38	10338.15
458.56	10611.99
458.74	10485.60
458.93	10597.95
459.11	10759.44
459.29	10768.80
459.48	10920.94
459.66	10911.58
459.84	10932.64
460.03	11012.22
460.21	11070.73
460.39	10986.47
460.57	10848.38
460.76	10839.02
460.94	11241.59
461.12	11108.18
461.31	11119.89
461.49	11007.54
461.67	11157.33
461.85	11400.75
462.04	11197.12
462.22	11899.28
462.40	11382.03
462.59	11346.92
462.77	11527.14
462.95	11520.12
463.13	11442.88
463.32	11616.08
463.50	11639.48
463.68	11927.37
463.86	11918.01
464.05	11531.82
464.23	11515.44
464.41	11716.72
464.59	11648.85
464.78	12138.02
464.96	11950.78
465.14	11651.19
465.32	12002.27
465.50	12086.53
465.69	12032.69
465.87	12006.95
466.05	12063.12
466.23	12093.55
466.41	12147.38
466.60	12542.93
466.78	12161.42
466.96	11955.46
467.14	12372.07
467.32	12194.19
467.51	12486.76
467.69	12215.26
467.87	12561.66
468.05	12685.70
468.23	12329.94
468.41	12475.06
468.60	12592.08
468.78	12648.26
468.96	12533.57
469.14	12561.66
469.32	12875.29
469.50	12809.75
469.69	13034.44
469.87	13114.02
470.05	13151.47
470.23	13015.72
470.41	13055.51
470.59	13184.24
470.77	12957.21
470.95	13252.11
471.14	13444.04
471.32	13022.74
471.50	13516.59
471.68	13380.84
471.86	13476.80
472.04	13579.79
472.22	13980.02
472.40	13701.50
472.58	13858.31
472.77	13898.10
472.95	14197.69
473.13	14391.95
473.31	14120.45
473.49	14305.35
473.67	14022.15
473.85	14415.36
474.03	14335.78
474.21	14523.02
474.39	14839.00
474.57	14581.54
474.75	14839.00
474.93	14927.94
475.12	14712.61
475.30	14981.77
475.48	14998.15
475.66	15054.33
475.84	15007.52
476.02	15372.64
476.20	15594.99
476.38	15627.76
476.56	15878.19
476.74	15721.38
476.92	15719.04
477.10	15637.12
477.28	16011.60
477.46	16116.93
477.64	16119.27
477.82	16446.94
478.00	16526.52
478.18	16741.85
478.36	16879.94
478.54	17186.55
478.72	17006.33
478.90	17439.33
479.08	17095.27
479.26	17661.68
479.44	17738.92
479.62	17762.33
479.80	18134.47
479.98	17958.93
480.16	18518.32
480.34	18169.58
480.52	18403.63
480.70	18565.13
480.88	18380.23
481.06	18946.64
481.24	18595.56
481.41	19211.12
481.59	19051.96
481.77	19342.19
481.95	19536.45
482.13	19648.80
482.31	20027.96
482.49	19850.08
482.67	20027.96
482.85	20224.57
483.03	20538.20
483.21	20622.46
483.39	20821.41
483.57	20540.54
483.74	21095.25
483.92	21401.86
484.10	21238.02
484.28	21516.54
484.46	22038.48
484.64	22366.16
484.82	21844.22
485.00	21963.59
485.18	22661.07
485.35	22740.64
485.53	22448.08
485.71	23185.35
485.89	23529.41
486.07	23157.26
486.25	23335.14
486.43	23442.81
486.61	23735.37
486.78	23639.41
486.96	24187.10
487.14	24570.94
487.32	24524.13
487.50	24753.51
487.68	24673.93
487.85	24987.56
488.03	24933.73
488.21	25586.74
488.39	25785.68
488.57	25469.71
488.75	26012.71
488.92	26249.11
489.10	26731.26
489.28	26768.71
489.46	26836.58
489.64	26735.94
489.81	27435.76
489.99	27292.99
490.17	27431.08
490.35	27697.90
490.53	27819.61
490.70	28074.73
490.88	27793.86
491.06	28404.74
491.24	28769.86
491.41	28940.72
491.59	28964.13
491.77	29130.31
491.95	29490.75
492.13	29659.27
492.30	29605.44
492.48	29802.04
492.66	30279.51
492.84	30394.20
493.01	30363.77
493.19	30532.29
493.37	30731.23
493.54	30740.60
493.72	31405.31
493.90	31218.07
494.08	31236.79
494.25	31548.08
494.43	31978.74
494.61	31964.70
494.79	31955.33
494.96	32414.08
495.14	32430.46
495.32	32924.32
495.49	33223.90
495.67	33212.20
495.85	33441.57
496.02	33603.07
496.20	33958.83
496.38	34043.09
496.55	33909.68
496.73	34782.70
496.91	34457.37
497.09	34794.40
497.26	34270.12
497.44	34614.18
497.62	34932.50
497.79	35681.47
497.97	35019.10
498.14	35754.02
498.32	35739.98
498.50	35798.49
498.67	36334.48
498.85	36226.81
499.03	36371.92
499.20	36613.00
499.38	36545.12
499.56	36793.22
499.73	37078.77
499.91	37027.28
500.08	37401.76
500.26	37006.21
500.44	37244.94
500.61	37500.06
500.79	36961.74
500.97	37717.73
501.14	38085.20
501.32	38188.18
501.49	38260.74
501.67	38682.03
501.84	38916.09
502.02	38534.58
502.20	38501.81
502.37	39187.59
502.55	38815.44
502.72	39386.54
502.90	39536.33
503.07	39526.97
503.25	39096.31
503.43	39421.64
503.60	40079.33
503.78	40126.14
503.95	40095.72
504.13	40245.51
504.30	40460.84
504.48	40582.55
504.65	40268.92
504.83	40725.32
505.01	41195.77
505.18	41345.56
505.36	41207.47
505.53	40687.87
505.71	40957.03
505.88	41703.67
506.06	41455.57
506.23	41551.53
506.41	41425.14
506.58	41841.76
506.76	42059.43
506.93	42124.96
507.11	42003.25
507.28	41996.23
507.46	42792.01
507.63	42969.90
507.81	43070.54
507.98	42398.80
508.16	42880.95
508.33	42829.46
508.50	43349.06
508.68	43735.25
508.85	43543.33
509.03	43283.53
509.20	43707.16
509.38	43985.69
509.55	44254.85
509.73	44285.28
509.90	44004.41
510.08	43800.79
510.25	44240.81
510.42	44423.37
510.60	44893.82
510.77	45322.13
510.95	45134.89
511.12	44966.37
511.30	44973.39
511.47	44957.01
511.64	44783.81
511.82	45661.51
511.99	45209.79
512.17	45745.77
512.34	45401.71
512.51	45954.08
512.69	46012.59
512.86	46148.34
513.04	46293.46
513.21	46368.35
513.38	46354.31
513.56	46607.09
513.73	46314.52
513.90	46681.98
514.08	46609.43
514.25	46700.71
514.43	46918.38
514.60	47283.50
514.77	46927.74
514.95	47318.61
515.12	47288.18
515.29	47484.79
515.47	47959.92
515.64	47510.53
515.81	47292.86
515.99	47915.45
516.16	48135.46
516.33	47952.90
516.51	48612.93
516.68	48126.10
516.85	48435.05
517.03	48559.09
517.20	48589.52
517.37	48463.13
517.54	49109.12
517.72	48837.62
517.89	48839.96
518.06	49055.29
518.24	48870.39
518.41	48992.09
518.58	49282.32
518.75	48673.78
518.93	49436.80
519.10	49027.20
519.27	49535.10
519.45	49258.91
519.62	49682.55
519.79	49986.82
519.96	49624.04
520.14	49815.96
520.31	49844.05
520.48	50220.87
520.65	50204.49
520.83	50658.56
521.00	50089.80
521.17	50209.17
521.34	50639.83
521.52	50569.61
521.69	50344.92
521.86	50930.06
522.03	51091.55
522.20	51166.45
522.38	51075.17
522.55	51267.09
522.72	51182.84
522.89	50979.21
523.07	51552.64
523.24	51257.73
523.41	51234.33
523.58	51468.38
523.75	51384.12
523.92	51414.55
524.10	51501.15
524.27	51885.00
524.44	51873.29
524.61	51772.65
524.78	52219.69
524.96	52016.07
525.13	52009.04
525.30	52100.32
525.47	52292.25
525.64	52238.42
525.81	52556.73
525.98	52378.85
526.16	52477.15
526.33	52481.83
526.50	52898.45
526.67	52582.48
526.84	52802.49
527.01	52638.65
527.18	52669.08
527.36	52601.20
527.53	52889.09
527.70	53256.55
527.87	53638.06
528.04	52952.28
528.21	53373.58
528.38	53020.16
528.55	53137.18
528.72	53158.25
528.89	53329.11
529.07	53111.44
529.24	53242.51
529.41	53359.53
529.58	53654.44
529.75	53638.06
529.92	53567.84
530.09	53387.62
530.26	53729.34
530.43	53602.95
530.60	53673.16
530.77	53647.42
530.94	53942.33
531.11	53904.88
531.28	53984.46
531.46	54298.09
531.63	54209.15
531.80	54073.40
531.97	54422.14
532.14	54277.02
532.31	53944.67
532.48	54190.42
532.65	54337.88
532.82	54127.23
532.99	54703.00
533.16	54361.28
533.33	54585.97
533.50	54490.01
533.67	54911.31
533.84	54520.44
534.01	54532.14
534.18	54700.66
534.35	55086.85
534.52	55030.68
534.69	55098.55
534.86	55042.38
535.03	54923.01
535.20	55007.27
535.37	55246.00
535.54	55416.86
535.71	55370.05
535.88	55196.85
536.05	55044.72
536.22	55419.20
536.38	55320.90
536.55	54897.27
536.72	55402.82
536.89	55442.61
537.06	55662.62
537.23	55676.66
537.40	55363.03
537.57	55690.71
537.74	55510.49
537.91	55695.39
538.08	55646.24
538.25	55416.86
538.42	55730.50
538.59	56044.13
538.75	55690.71
538.92	55971.57
539.09	56032.42
539.26	56191.58
539.43	56067.53
539.60	56189.24
539.77	56133.07
539.94	56509.89
540.11	56013.70
540.28	56378.82
540.44	56147.11
540.61	56477.13
540.78	56205.62
540.95	56282.86
541.12	56275.84
541.29	56210.31
541.46	56477.13
541.62	56229.03
541.79	56285.20
541.96	56339.04
542.13	56339.04
542.30	56704.16
542.47	56568.41
542.63	56734.59
542.80	56860.97
542.97	56966.30
543.14	57113.75
543.31	56767.35
543.48	56928.85
543.64	57174.61
543.81	57258.87
543.98	57116.09
544.15	57158.22
544.32	57022.47
544.48	57324.40
544.65	57174.61
544.82	57303.34
544.99	57141.84
545.16	57268.23
545.32	57212.06
545.49	57492.92
545.66	57621.65
545.83	57439.09
546.00	57478.88
546.16	57399.30
546.33	57455.47
546.50	57436.75
546.67	57513.98
546.83	57322.06
547.00	57499.94
547.17	57766.76
547.34	57602.92
547.50	57773.78
547.67	57972.73
547.84	57647.39
548.00	57839.32
548.17	58078.05
548.34	57752.72
548.51	57991.45
548.67	58127.20
548.84	57623.99
549.01	58003.16
549.18	57876.77
549.34	57930.60
549.51	58127.20
549.68	58150.61
549.84	58192.74
550.01	58281.68
550.18	58178.70
550.34	58286.36
550.51	58459.56
550.68	58464.24
550.84	58141.25
551.01	58515.73
551.18	58337.85
551.34	58326.15
551.51	58478.28
551.68	58560.20
551.84	58461.90
552.01	58394.03
552.18	58459.56
552.34	58590.63
552.51	58564.88
552.68	58440.84
552.84	58670.21
553.01	58674.89
553.18	58576.59
553.34	58672.55
553.51	58387.00
553.67	58784.90
553.84	58843.41
554.01	58810.64
554.17	59145.34
554.34	59054.06
554.51	58841.07
554.67	59028.31
554.84	58663.19
555.00	58845.75
555.17	59004.91
555.33	58824.68
555.50	58782.55
555.67	58908.94
555.83	58803.62
556.00	59091.51
556.16	59096.19
556.33	58969.80
556.50	59077.46
556.66	59257.68
556.83	58885.54
556.99	59133.63
557.16	59117.25
557.32	59325.56
557.49	59583.02
557.65	59157.04
557.82	59196.83
557.98	59147.68
558.15	59187.47
558.32	59437.90
558.48	59292.79
558.65	59325.56
558.81	59519.82
558.98	59477.69
559.14	59498.76
559.31	59585.36
559.47	59454.29
559.64	59421.52
559.80	59613.44
559.97	59622.81
560.13	59477.69
560.30	59554.93
560.46	59517.48
560.63	59695.36
560.79	59552.59
560.96	59578.34
561.12	59714.09
561.29	59856.86
561.45	59681.32
561.61	59695.36
561.78	59554.93
561.94	59543.23
562.11	59676.64
562.27	59608.76
562.44	59826.43
562.60	59875.58
562.77	59662.60
562.93	59877.93
563.10	60023.04
563.26	59798.35
563.42	60058.15
563.59	59821.75
563.75	59861.54
563.92	59770.26
564.08	59873.24
564.24	60055.81
564.41	60207.94
564.57	59920.05
564.74	59983.25
564.90	60048.78
565.07	59821.75
565.23	59957.50
565.39	60039.42
565.56	60013.68
565.72	59852.18
565.88	60086.23
566.05	59870.90
566.21	60109.64
566.38	60191.56
566.54	60116.66
566.70	60214.96
566.87	60212.62
567.03	60027.72
567.19	60212.62
567.36	60121.34
567.52	60205.60
567.68	60388.16
567.85	60198.58
568.01	60287.52
568.17	60301.56
568.34	60226.66
568.50	60168.15
568.66	60282.84
568.83	60348.37
568.99	60214.96
569.15	60388.16
569.32	60058.15
569.48	60163.47
569.64	60250.07
569.81	60367.10
569.97	60395.18
570.13	60320.29
570.30	60060.49
570.46	60425.61
570.62	60383.48
570.78	60441.99
570.95	60271.14
571.11	60629.24
571.27	60341.35
571.43	60348.37
571.60	60495.83
571.76	60664.35
571.92	60339.01
572.09	60390.50
572.25	60537.96
572.41	60397.52
572.57	60477.10
572.74	60722.86
572.90	60360.08
573.06	60451.36
573.22	60624.56
573.38	60601.15
573.55	60376.46
573.71	60669.03
573.87	60652.64
574.03	60552.00
574.20	60589.45
574.36	60704.13
574.52	60650.30
574.68	60552.00
574.84	60603.49
575.01	60669.03
575.17	60664.35
575.33	60594.13
575.49	60570.72
575.65	60640.94
575.82	60535.62
575.98	60654.98
576.14	60769.67
576.30	60790.73
576.46	60683.07
576.62	60701.79
576.79	60582.43
576.95	60638.60
577.11	60624.56
577.27	60692.43
577.43	60587.11
577.59	60608.17
577.75	60659.66
577.92	60423.27
578.08	60591.79
578.24	60697.11
578.40	60802.44
578.56	60779.03
578.72	60619.88
578.88	60725.20
579.04	60985.00
579.21	60652.64
579.37	60821.16
579.53	60762.65
579.69	60484.12
579.85	60577.75
580.01	60598.81
580.17	60610.51
580.33	60783.71
580.49	60631.58
580.65	60975.64
580.82	60830.52
580.98	60535.62
581.14	60680.73
581.30	60823.50
581.46	60736.90
581.62	60654.98
581.78	60601.15
581.94	60846.91
582.10	60790.73
582.26	60659.66
582.42	60818.82
582.58	60591.79
582.74	60633.92
582.90	60786.05
583.06	60662.00
583.22	60664.35
583.38	60575.40
583.54	60823.50
583.70	60832.86
583.86	60814.14
584.02	60977.98
584.18	60867.97
584.34	60821.16
584.50	60734.56
584.66	60638.60
584.82	60715.84
584.98	61057.56
585.14	61059.90
585.30	60718.18
585.46	60807.12
585.62	60968.61
585.78	60739.24
585.94	60760.31
586.10	60975.64
586.26	60809.46
586.42	60870.31
586.58	60893.72
586.74	60921.80
586.90	61003.72
587.06	60760.31
587.22	61099.68
587.38	60694.77
587.54	60952.23
587.70	60959.25
587.86	60982.66
588.02	60750.94
588.18	60966.27
588.34	60823.50
588.49	60999.04
