SpectraSuite Data File
++++++++++++++++++++++++++++++++++++
Date: Fri Oct 25 11:33:52 EDT 2013
User: price-jones
Dark Spectrum Present: No
Reference Spectrum Present: No
Number of Sampled Component Spectra: 1
Spectrometers: USB2+H05261
Integration Time (usec): 100000 (USB2+H05261)
Spectra Averaged: 1 (USB2+H05261)
Boxcar Smoothing: 0 (USB2+H05261)
Correct for Electrical Dark: No (USB2+H05261)
Strobe/Lamp Enabled: No (USB2+H05261)
Correct for Detector Non-linearity: No (USB2+H05261)
Correct for Stray Light: No (USB2+H05261)
Number of Pixels in Processed Spectrum: 2048
>>>>>Begin Processed Spectral Data<<<<<
365.73	173.20
365.92	173.20
366.12	173.20
366.32	159.16
366.52	145.11
366.72	166.18
366.91	121.71
367.11	117.03
367.31	152.13
367.51	222.35
367.70	215.33
367.90	184.90
368.10	145.11
368.30	175.54
368.49	70.22
368.69	231.71
368.89	245.76
369.09	117.03
369.28	196.60
369.48	231.71
369.68	205.97
369.87	278.52
370.07	224.69
370.27	276.18
370.47	348.74
370.66	454.06
370.86	507.90
371.06	531.30
371.25	596.84
371.45	554.71
371.65	589.82
371.84	524.28
372.04	571.09
372.24	636.63
372.44	575.77
372.63	603.86
372.83	660.03
373.03	610.88
373.22	566.41
373.42	650.67
373.62	638.97
373.81	699.82
374.01	699.82
374.21	641.31
374.40	667.05
374.60	671.73
374.79	669.39
374.99	627.26
375.19	674.07
375.38	638.97
375.58	653.01
375.78	671.73
375.97	664.71
376.17	760.67
376.37	671.73
376.56	727.91
376.76	610.88
376.95	685.78
377.15	774.72
377.35	653.01
377.54	657.69
377.74	589.82
377.93	748.97
378.13	671.73
378.33	711.52
378.52	664.71
378.72	678.76
378.91	683.44
379.11	774.72
379.31	648.33
379.50	653.01
379.70	751.31
379.89	767.70
380.09	795.78
380.28	692.80
380.48	821.53
380.68	753.65
380.87	821.53
381.07	692.80
381.26	748.97
381.46	662.37
381.65	800.46
381.85	697.48
382.04	760.67
382.24	807.48
382.43	765.36
382.63	798.12
382.83	765.36
383.02	861.32
383.22	826.21
383.41	737.27
383.61	709.18
383.80	828.55
384.00	837.91
384.19	854.30
384.39	875.36
384.58	695.14
384.78	805.14
384.97	868.34
385.17	781.74
385.36	835.57
385.56	795.78
385.75	816.85
385.95	851.96
386.14	912.81
386.34	800.46
386.53	880.04
386.72	877.70
386.92	910.47
387.11	856.64
387.31	938.55
387.50	858.98
387.70	851.96
387.89	868.34
388.09	858.98
388.28	891.74
388.48	854.30
388.67	856.64
388.86	903.45
389.06	870.68
389.25	933.87
389.45	926.85
389.64	990.05
389.84	924.51
390.03	990.05
390.22	903.45
390.42	957.28
390.61	968.98
390.81	945.58
391.00	950.26
391.19	971.32
391.39	931.53
391.58	990.05
391.78	1036.86
391.97	1050.90
392.16	992.39
392.36	1048.56
392.55	1104.73
392.75	1071.97
392.94	994.73
393.13	1093.03
393.33	1050.90
393.52	1086.01
393.71	1036.86
393.91	1025.15
394.10	1050.90
394.29	1090.69
394.49	1048.56
394.68	1160.91
394.88	1219.42
395.07	1076.65
395.26	1100.05
395.46	1083.67
395.65	1151.54
395.84	1121.12
396.04	1205.38
396.23	1198.35
396.42	1158.57
396.62	1240.48
396.81	1144.52
397.00	1184.31
397.19	1181.97
397.39	1247.51
397.58	1247.51
397.77	1280.27
397.97	1252.19
398.16	1231.12
398.35	1249.85
398.55	1203.04
398.74	1338.79
398.93	1345.81
399.12	1308.36
399.32	1301.34
399.51	1331.76
399.70	1376.24
399.90	1308.36
400.09	1350.49
400.28	1376.24
400.47	1413.68
400.67	1373.89
400.86	1385.60
401.05	1376.24
401.24	1413.68
401.44	1481.56
401.63	1409.00
401.82	1453.47
402.01	1476.88
402.21	1397.30
402.40	1495.60
402.59	1483.90
402.78	1528.37
402.97	1446.45
403.17	1533.05
403.36	1549.43
403.55	1509.65
403.74	1614.97
403.93	1554.12
404.13	1603.27
404.32	1568.16
404.51	1614.97
404.70	1687.53
404.89	1708.59
405.09	1708.59
405.28	1610.29
405.47	1640.72
405.66	1638.38
405.85	1703.91
406.05	1804.55
406.24	1734.34
406.43	1785.83
406.62	1846.68
406.81	1753.06
407.00	1750.72
407.20	1823.28
407.39	1778.81
407.58	1888.81
407.77	1708.59
407.96	1872.43
408.15	1809.23
408.34	1879.45
408.54	1909.88
408.73	1973.07
408.92	1877.11
409.11	1968.39
409.30	1966.05
409.49	2015.20
409.68	1949.67
409.87	1923.92
410.07	2057.33
410.26	2038.61
410.45	1989.46
410.64	2097.12
410.83	2057.33
411.02	2054.99
411.21	2059.67
411.40	2155.63
411.59	2235.21
411.78	2246.91
411.98	2139.25
412.17	2270.32
412.36	2260.96
412.55	2265.64
412.74	2399.05
412.93	2347.56
413.12	2209.47
413.31	2392.03
413.50	2326.49
413.69	2403.73
413.88	2483.31
414.07	2506.71
414.26	2642.46
414.45	2495.01
414.64	2445.86
414.83	2434.16
415.02	2537.14
415.22	2586.29
415.41	2619.06
415.60	2600.34
415.79	2759.49
415.98	2609.70
416.17	2672.89
416.36	2682.25
416.55	2750.13
416.74	2708.00
416.93	2799.28
417.12	2860.13
417.31	2764.17
417.50	2759.49
417.69	2834.39
417.88	2949.08
418.07	2972.48
418.26	2981.84
418.45	3021.63
418.64	2995.89
418.83	3047.38
419.02	3000.57
419.21	3014.61
419.39	3063.76
419.58	3136.32
419.77	3035.67
419.96	3141.00
420.15	3194.83
420.34	3192.49
420.53	3211.22
420.72	3190.15
420.91	3138.66
421.10	3159.72
421.29	3229.94
421.48	3190.15
421.67	3384.41
421.86	3290.79
422.05	3300.16
422.24	3344.63
422.43	3239.30
422.61	3365.69
422.80	3358.67
422.99	3414.84
423.18	3375.05
423.37	3290.79
423.56	3377.39
423.75	3456.97
423.94	3384.41
424.13	3162.06
424.32	3267.39
424.50	3459.31
424.69	3655.92
424.88	3564.64
425.07	3424.20
425.26	3382.07
425.45	3316.54
425.64	3342.28
425.83	3445.27
426.01	3487.40
426.20	3421.86
426.39	3440.59
426.58	3466.33
426.77	3435.91
426.96	3529.53
427.15	3496.76
427.33	3513.14
427.52	3480.38
427.71	3599.74
427.90	3707.41
428.09	3723.79
428.28	3599.74
428.46	3581.02
428.65	3728.47
428.84	3740.18
429.03	3850.18
429.22	3669.96
429.40	3700.39
429.59	3723.79
429.78	3705.07
429.97	3665.28
430.16	3709.75
430.34	3822.09
430.53	3810.39
430.72	3882.95
430.91	3859.54
431.10	3833.80
431.28	3868.91
431.47	3901.67
431.66	3911.04
431.85	3955.51
432.03	4088.92
432.22	4077.21
432.41	4070.19
432.60	3967.21
432.79	4037.42
432.97	4028.06
433.16	4198.92
433.35	4084.23
433.54	4051.47
433.72	4072.53
433.91	4166.15
434.10	4269.14
434.28	4271.48
434.47	4205.94
434.66	4299.56
434.85	4273.82
435.03	4360.42
435.22	4477.44
435.41	4414.25
435.59	4397.87
435.78	4404.89
435.97	4329.99
436.16	4383.82
436.34	4444.68
436.53	4470.42
436.72	4404.89
436.90	4484.47
437.09	4496.17
437.28	4482.13
437.46	4524.26
437.65	4594.47
437.84	4524.26
438.02	4648.30
438.21	4613.20
438.40	4669.37
438.58	4699.80
438.77	4695.11
438.96	4692.77
439.14	4830.87
439.33	4915.12
439.52	4901.08
439.70	4912.78
439.89	4990.02
440.08	5064.92
440.26	4847.25
440.45	4915.12
440.63	5050.88
440.82	5144.50
441.01	5130.45
441.19	5149.18
441.38	5137.48
441.57	5268.55
441.75	5266.21
441.94	5338.76
442.12	5373.87
442.31	5329.40
442.50	5420.68
442.68	5373.87
442.87	5497.92
443.05	5547.07
443.24	5579.84
443.43	5469.83
443.61	5621.97
443.80	5673.46
443.98	5427.70
444.17	5266.21
444.35	5467.49
444.54	5593.88
444.73	5528.35
444.91	5694.52
445.10	5694.52
445.28	5621.97
445.47	5624.31
445.65	5706.23
445.84	5699.20
446.02	5650.05
446.21	5657.07
446.39	5565.79
446.58	5764.74
446.77	5643.03
446.95	5570.48
447.14	5575.16
447.32	5795.17
447.51	5666.44
447.69	5774.10
447.88	5741.33
448.06	5851.34
448.25	5696.86
448.43	5783.46
448.62	5631.33
448.80	5853.68
448.99	5867.72
449.17	5832.62
449.36	5940.28
449.54	6099.44
449.73	6101.78
449.91	6141.57
450.10	6057.31
450.28	6097.10
450.46	6120.50
450.65	6148.59
450.83	6139.23
451.02	6099.44
451.20	6303.06
451.39	6141.57
451.57	6101.78
451.76	6171.99
451.94	6349.87
452.13	6179.01
452.31	6122.84
452.49	6132.20
452.68	6277.32
452.86	6375.62
453.05	6342.85
453.23	6410.73
453.42	6167.31
453.60	6394.34
453.78	6373.28
453.97	6359.24
454.15	6408.39
454.34	6284.34
454.52	6583.93
454.70	6600.31
454.89	6612.01
455.07	6518.39
455.26	6619.04
455.44	6590.95
455.62	6684.57
455.81	6743.08
455.99	6700.95
456.17	6719.68
456.36	6679.89
456.54	6761.81
456.73	7021.61
456.91	7131.61
457.09	6839.05
457.28	6967.77
457.46	6754.79
457.64	7016.93
457.83	7169.06
458.01	6958.41
458.19	7201.83
458.38	7234.60
458.56	7091.82
458.74	7150.34
458.93	7122.25
459.11	7276.73
459.29	7295.45
459.48	7253.32
459.66	7290.77
459.84	7337.58
460.03	7435.88
460.21	7314.17
460.39	7318.86
460.57	7187.79
460.76	7548.23
460.94	7463.97
461.12	7379.71
461.31	7449.93
461.49	7517.80
461.67	7424.18
461.85	7744.83
462.04	7527.16
462.22	8135.70
462.40	7791.64
462.59	7581.00
462.77	7824.41
462.95	7791.64
463.13	7707.38
463.32	7775.26
463.50	7831.43
463.68	7808.03
463.86	7878.24
464.05	7688.66
464.23	7784.62
464.41	7903.99
464.59	7892.29
464.78	8044.42
464.96	8011.65
465.14	8009.31
465.32	8114.64
465.50	7985.91
465.69	8238.69
465.87	8161.45
466.05	7960.16
466.23	8028.04
466.41	8044.42
466.60	8278.47
466.78	8124.00
466.96	8112.30
467.14	7990.59
467.32	8182.51
467.51	8334.65
467.69	8128.68
467.87	8327.63
468.05	8388.48
468.23	8203.58
468.41	8224.64
468.60	8430.61
468.78	8418.91
468.96	8395.50
469.14	8528.91
469.32	8767.65
469.50	8381.46
469.69	8727.86
469.87	8744.24
470.05	8746.58
470.23	8732.54
470.41	8744.24
470.59	8819.14
470.77	8585.08
470.95	8610.83
471.14	9064.89
471.32	8917.44
471.50	9041.49
471.68	8926.80
471.86	8959.57
472.04	9043.83
472.22	9287.25
472.40	9104.68
472.58	9081.28
472.77	9280.22
472.95	9362.14
473.13	9399.59
473.31	9390.23
473.49	9378.53
473.67	9474.49
473.85	9284.91
474.03	9640.67
474.21	9577.47
474.39	9767.06
474.57	9696.84
474.75	9738.97
474.93	10022.17
475.12	9839.61
475.30	10015.15
475.48	9905.15
475.66	10064.30
475.84	10017.49
476.02	10455.17
476.20	9909.83
476.38	10228.14
476.56	10630.71
476.74	10389.64
476.92	10298.36
477.10	10546.45
477.28	10602.63
477.46	10471.56
477.64	10633.05
477.82	11026.26
478.00	11344.58
478.18	10965.41
478.36	11094.14
478.54	11227.55
478.72	11147.97
478.90	11276.70
479.08	11424.15
479.26	11644.17
479.44	11609.06
479.62	11676.93
479.80	11960.14
479.98	11810.34
480.16	12180.15
480.34	12049.08
480.52	12131.00
480.70	11967.16
480.88	12060.78
481.06	12301.86
481.24	12482.08
481.41	12622.51
481.59	12671.66
481.77	12755.92
481.95	12769.96
482.13	12966.57
482.31	12933.80
482.49	13209.98
482.67	13345.73
482.85	13341.05
483.03	13673.41
483.21	13556.38
483.39	13717.88
483.57	13666.39
483.74	13771.71
483.92	13912.14
484.10	13743.63
484.28	14516.00
484.46	14174.28
484.64	14464.51
484.82	14267.91
485.00	14806.23
485.18	14846.02
485.35	14953.68
485.53	15239.23
485.71	15028.58
485.89	15267.31
486.07	15133.90
486.25	15225.18
486.43	15269.66
486.61	15679.25
486.78	15789.25
486.96	15726.06
487.14	16077.14
487.32	15995.22
487.50	16297.15
487.68	16510.14
487.85	16734.83
488.03	16858.88
488.21	16566.31
488.39	16645.89
488.57	16915.05
488.75	17060.16
488.92	17198.26
489.10	17392.52
489.28	17572.74
489.46	17689.77
489.64	17654.66
489.81	18113.41
489.99	17820.84
490.17	18202.35
490.35	18265.54
490.53	18298.31
490.70	18401.29
490.88	18485.55
491.06	18820.25
491.24	18824.93
491.41	19190.05
491.59	18904.51
491.77	18944.30
491.95	19122.18
492.13	19260.27
492.30	19407.72
492.48	19578.58
492.66	19901.58
492.84	19616.03
493.01	19822.00
493.19	19946.05
493.37	20301.81
493.54	20390.75
493.72	20395.43
493.90	20622.46
494.08	20795.66
494.25	20781.62
494.43	20739.49
494.61	21345.69
494.79	21125.68
494.96	21366.75
495.14	21441.65
495.32	21673.36
495.49	21570.38
495.67	21834.86
495.85	21680.38
496.02	21766.98
496.20	22171.89
496.38	22120.40
496.55	22038.48
496.73	22661.07
496.91	22661.07
497.09	22862.35
497.26	22698.52
497.44	22958.31
497.62	22986.40
497.79	23274.29
497.97	23061.30
498.14	23330.46
498.32	23545.79
498.50	23452.17
498.67	23559.83
498.85	23707.29
499.03	23843.04
499.20	23644.09
499.38	23852.40
499.56	24156.67
499.73	24577.97
499.91	24278.38
500.08	24692.65
500.26	24376.68
500.44	24348.59
500.61	24112.20
500.79	24507.75
500.97	24716.06
501.14	25184.16
501.32	25158.42
501.49	25001.60
501.67	24893.94
501.84	25516.52
502.02	25329.28
502.20	25362.04
502.37	25291.83
502.55	25876.96
502.72	25710.78
502.90	25687.38
503.07	25778.66
503.25	26064.21
503.43	25886.32
503.60	26405.92
503.78	26204.64
503.95	26061.87
504.13	26352.09
504.30	26462.10
504.48	26387.20
504.65	26698.49
504.83	26719.56
505.01	27154.90
505.18	27054.25
505.36	27271.92
505.53	27115.11
505.71	27023.83
505.88	27442.78
506.06	27222.77
506.23	27243.84
506.41	27229.79
506.58	27454.48
506.76	27599.60
506.93	27688.54
507.11	27611.30
507.28	27857.06
507.46	27915.57
507.63	28233.88
507.81	28306.44
507.98	27915.57
508.16	28158.99
508.33	28278.35
508.50	28355.59
508.68	28362.61
508.85	28748.80
509.03	28229.20
509.20	28533.47
509.38	29113.92
509.55	29081.16
509.73	29301.17
509.90	29394.79
510.08	29441.60
510.25	29539.90
510.42	29177.12
510.60	29551.60
510.77	29418.19
510.95	29958.86
511.12	29556.28
511.30	29876.94
511.47	29944.81
511.64	29933.11
511.82	30202.27
511.99	30115.67
512.17	30162.48
512.34	30321.64
512.51	30396.54
512.69	30586.12
512.86	30415.26
513.04	30913.80
513.21	30981.67
513.38	30991.03
513.56	30906.77
513.73	30761.66
513.90	30733.57
514.08	31161.89
514.25	31349.14
514.43	31009.76
514.60	31276.58
514.77	31278.92
514.95	31447.44
515.12	31559.78
515.29	31571.49
515.47	31763.41
515.64	31838.31
515.81	31421.69
515.99	31793.84
516.16	32191.73
516.33	31850.01
516.51	32400.04
516.68	31882.78
516.85	32250.24
517.03	32465.57
517.20	32613.02
517.37	32655.15
517.54	32598.98
517.72	32414.08
517.89	32999.21
518.06	32456.21
518.24	32828.35
518.41	32566.21
518.58	32982.83
518.75	32968.79
518.93	32975.81
519.10	32959.42
519.27	33209.86
519.45	33354.97
519.62	33631.16
519.79	33364.34
519.96	33497.75
520.14	33907.34
520.31	33710.74
520.48	33816.06
520.65	33823.08
520.83	34094.58
521.00	33900.32
521.17	33481.36
521.34	34494.82
521.52	34553.33
521.69	34541.63
521.86	34635.25
522.03	34766.32
522.20	34717.17
522.38	34684.40
522.55	34836.53
522.72	34693.76
522.89	34691.42
523.07	35456.78
523.24	34932.50
523.41	35344.43
523.58	35037.82
523.75	35459.12
523.92	35044.84
524.10	35117.40
524.27	35143.14
524.44	35800.83
524.61	35316.34
524.78	35295.28
524.96	35599.55
525.13	35761.05
525.30	35517.63
525.47	36055.95
525.64	35901.48
525.81	35866.37
525.98	35878.07
526.16	36271.28
526.33	35971.69
526.50	36163.62
526.67	36055.95
526.84	36577.89
527.01	36332.14
527.18	36559.17
527.36	36924.29
527.53	36601.30
527.70	36746.41
527.87	37064.72
528.04	36460.87
528.21	36978.12
528.38	36701.94
528.55	37156.00
528.72	36825.99
528.89	37317.50
529.07	36821.31
529.24	36713.64
529.41	37151.32
529.58	37493.04
529.75	37104.51
529.92	37233.24
530.09	37603.05
530.26	37242.60
530.43	37411.12
530.60	37516.45
530.77	37366.65
530.94	37584.32
531.11	37064.72
531.28	37661.56
531.46	37439.21
531.63	37752.84
531.80	38108.60
531.97	37881.57
532.14	38078.18
532.31	37607.73
532.48	37806.67
532.65	38511.17
532.82	38216.27
532.99	38518.20
533.16	38663.31
533.33	38342.66
533.50	38438.62
533.67	38490.11
533.84	38279.46
534.01	38611.82
534.18	38792.04
534.35	38937.15
534.52	38876.30
534.69	39468.45
534.86	39150.14
535.03	39019.07
535.20	39082.27
535.37	39136.10
535.54	39810.17
535.71	39386.54
535.88	39316.32
536.05	39356.11
536.22	39639.31
536.38	39686.12
536.55	39316.32
536.72	39721.23
536.89	39803.15
537.06	39634.63
537.23	39990.39
537.40	39311.64
537.57	39817.19
537.74	39831.24
537.91	40084.01
538.08	40055.93
538.25	39765.70
538.42	39676.76
538.59	40137.85
538.75	40044.23
538.92	40306.37
539.09	40198.70
539.26	40158.91
539.43	40060.61
539.60	40350.84
539.77	40147.21
539.94	40900.86
540.11	40617.66
540.28	40699.58
540.44	40252.53
540.61	40240.83
540.78	40175.30
540.95	40634.04
541.12	40582.55
541.29	40823.62
541.46	40968.74
541.62	40807.24
541.79	41045.97
541.96	40282.96
542.13	40612.98
542.30	40575.53
542.47	41137.26
542.63	40935.97
542.80	41155.98
542.97	41469.61
543.14	41549.19
543.31	41230.88
543.48	41406.42
543.64	42351.99
543.81	41406.42
543.98	41579.62
544.15	41493.02
544.32	41691.96
544.48	42073.47
544.65	42080.49
544.82	42209.22
544.99	41408.76
545.16	42279.44
545.32	42433.91
545.49	42356.67
545.66	42665.63
545.83	42576.69
546.00	42092.19
546.16	42188.16
546.33	41928.36
546.50	42031.34
546.67	42192.84
546.83	42127.30
547.00	42298.16
547.17	42057.09
547.34	42471.36
547.50	42754.57
547.67	43199.27
547.84	42447.96
548.00	43236.72
548.17	43641.63
548.34	42887.98
548.51	42979.26
548.67	43079.90
548.84	42986.28
549.01	42897.34
549.18	42838.83
549.34	42813.08
549.51	43543.33
549.68	43400.55
549.84	43185.22
550.01	43643.97
550.18	43220.33
550.34	43285.87
550.51	43524.60
550.68	43295.23
550.84	43100.97
551.01	43515.24
551.18	43288.21
551.34	43599.50
551.51	43571.41
551.68	43728.23
551.84	43466.09
552.01	43358.42
552.18	43634.61
552.34	43643.97
552.51	43732.91
552.68	43688.44
552.84	43910.79
553.01	43756.32
553.18	43426.30
553.34	43721.21
553.51	44107.40
553.67	43798.44
553.84	44205.70
554.01	43800.79
554.17	44203.36
554.34	44336.77
554.51	44161.23
554.67	44428.05
554.84	44273.57
555.00	44343.79
555.17	44172.93
555.33	44584.86
555.50	44023.14
555.67	44210.38
555.83	44348.47
556.00	44615.29
556.16	44526.35
556.33	44954.67
556.50	44531.03
556.66	44697.21
556.83	44273.57
556.99	44844.66
557.16	44837.64
557.32	44638.70
557.49	45184.04
557.65	44126.12
557.82	45141.91
557.98	44942.97
558.15	44715.93
558.32	44924.24
558.48	44811.90
558.65	44919.56
558.81	45029.57
558.98	44882.11
559.14	44961.69
559.31	45160.64
559.47	44884.45
559.64	45294.05
559.80	45045.95
559.97	45460.23
560.13	45162.98
560.30	45158.30
560.46	45165.32
560.63	45429.80
560.79	45474.27
560.96	45553.85
561.12	45261.28
561.29	45577.25
561.45	45371.28
561.61	45074.04
561.78	45064.67
561.94	45160.64
562.11	45705.98
562.27	45352.56
562.44	45610.02
562.60	45551.51
562.77	45860.46
562.93	45249.58
563.10	45188.72
563.26	46045.36
563.42	45572.57
563.59	45696.62
563.75	45177.02
563.92	45958.76
564.08	45354.90
564.24	45696.62
564.41	45666.19
564.57	45579.59
564.74	45525.76
564.90	45925.99
565.07	45305.75
565.23	45741.09
565.39	45965.78
565.56	45794.92
565.72	45595.98
565.88	45890.88
566.05	45734.07
566.21	45907.27
566.38	45806.62
566.54	46066.42
566.70	46223.24
566.87	45947.06
567.03	45860.46
567.19	45928.33
567.36	46038.34
567.52	45979.82
567.68	45851.09
567.85	46274.73
568.01	45968.12
568.17	45942.38
568.34	46787.31
568.50	46279.41
568.66	45998.55
568.83	46349.63
568.99	45844.07
569.15	46361.33
569.32	45872.16
569.48	46181.11
569.64	46321.54
569.81	46059.40
569.97	46373.03
570.13	46286.43
570.30	45867.48
570.46	46307.50
570.62	46681.98
570.78	46749.86
570.95	46492.40
571.11	46358.99
571.27	46220.90
571.43	46176.43
571.60	46447.93
571.76	45914.29
571.92	46312.18
572.09	46370.69
572.25	46326.22
572.41	45862.80
572.57	46267.71
572.74	47133.71
572.90	46630.49
573.06	46780.29
573.22	46777.95
573.38	46738.16
573.55	46401.12
573.71	47107.96
573.87	46894.97
574.03	46377.72
574.20	46997.96
574.36	46557.94
574.52	46707.73
574.68	46637.51
574.84	46696.03
575.01	46775.61
575.17	47187.54
575.33	46742.84
575.49	46993.28
575.65	46923.06
575.82	46712.41
575.98	46595.38
576.14	46534.53
576.30	46855.18
576.46	46841.14
576.62	46349.63
576.79	46824.76
576.95	46593.04
577.11	46564.96
577.27	46705.39
577.43	46515.81
577.59	46600.07
577.75	46855.18
577.92	46557.94
578.08	46745.18
578.24	46656.24
578.40	46461.97
578.56	46747.52
578.72	46644.54
578.88	46962.85
579.04	46990.94
579.21	46602.41
579.37	46988.60
579.53	46923.06
579.69	46724.11
579.85	46644.54
580.01	46660.92
580.17	46625.81
580.33	47299.89
580.49	46834.12
580.65	46939.44
580.82	46686.67
580.98	46803.69
581.14	46726.46
581.30	46717.09
581.46	46955.83
581.62	46513.47
581.78	46871.57
581.94	46696.03
582.10	46894.97
582.26	47070.51
582.42	46969.87
582.58	47150.09
582.74	46899.65
582.90	47196.90
583.06	47330.31
583.22	47173.50
583.38	47117.32
583.54	47061.15
583.70	46878.59
583.86	46993.28
584.02	46885.61
584.18	47356.06
584.34	47056.47
584.50	47103.28
584.66	47189.88
584.82	47014.34
584.98	47290.52
585.14	46925.40
585.30	46880.93
585.46	46855.18
585.62	47077.54
585.78	47171.16
585.94	46440.91
586.10	47157.11
586.26	47140.73
586.42	47222.65
586.58	47222.65
586.74	47026.04
586.90	47175.84
587.06	47299.89
587.22	47377.12
587.38	46628.15
587.54	47475.43
587.70	47714.16
587.86	47393.51
588.02	46897.31
588.18	47035.41
588.34	47150.09
588.49	47400.53
588.65	47040.09
588.81	46916.04
588.97	47370.10
589.13	47400.53
589.29	47157.11
589.45	47353.72
589.61	47393.51
589.77	47093.92
589.93	47070.51
590.08	47332.65
