SpectraSuite Data File
++++++++++++++++++++++++++++++++++++
Date: Fri Oct 25 11:26:06 EDT 2013
User: price-jones
Dark Spectrum Present: No
Reference Spectrum Present: No
Number of Sampled Component Spectra: 1
Spectrometers: USB2+H05261
Integration Time (usec): 100000 (USB2+H05261)
Spectra Averaged: 1 (USB2+H05261)
Boxcar Smoothing: 0 (USB2+H05261)
Correct for Electrical Dark: No (USB2+H05261)
Strobe/Lamp Enabled: No (USB2+H05261)
Correct for Detector Non-linearity: No (USB2+H05261)
Correct for Stray Light: No (USB2+H05261)
Number of Pixels in Processed Spectrum: 2048
>>>>>Begin Processed Spectral Data<<<<<
365.73	294.91
365.92	294.91
366.12	294.91
366.32	145.11
366.52	177.88
366.72	203.63
366.91	161.50
367.11	74.90
367.31	110.01
367.51	117.03
367.70	168.52
367.90	177.88
368.10	182.56
368.30	119.37
368.49	121.71
368.69	208.31
368.89	168.52
369.09	128.73
369.28	177.88
369.48	236.39
369.68	98.30
369.87	191.92
370.07	231.71
370.27	278.52
370.47	280.86
370.66	564.07
370.86	557.05
371.06	596.84
371.25	681.10
371.45	730.25
371.65	737.27
371.84	725.57
372.04	601.52
372.24	695.14
372.44	802.80
372.63	699.82
372.83	678.76
373.03	763.01
373.22	676.41
373.42	699.82
373.62	770.04
373.81	777.06
374.01	837.91
374.21	772.38
374.40	751.31
374.60	844.93
374.79	788.76
374.99	828.55
375.19	882.38
375.38	772.38
375.58	837.91
375.78	870.68
375.97	847.27
376.17	837.91
376.37	875.36
376.56	877.70
376.76	868.34
376.95	933.87
377.15	929.19
377.35	924.51
377.54	821.53
377.74	889.40
377.93	947.92
378.13	905.79
378.33	931.53
378.52	940.90
378.72	936.21
378.91	901.11
379.11	1006.43
379.31	856.64
379.50	868.34
379.70	1039.20
379.89	1020.47
380.09	983.02
380.28	971.32
380.48	1046.22
380.68	1022.81
380.87	1011.11
381.07	1006.43
381.26	1083.67
381.46	933.87
381.65	1057.92
381.85	999.41
382.04	1083.67
382.24	1032.18
382.43	1048.56
382.63	1029.84
382.83	1055.58
383.02	1109.41
383.22	1057.92
383.41	968.98
383.61	1097.71
383.80	1179.63
384.00	1064.94
384.19	1132.82
384.39	1111.75
384.58	1086.01
384.78	1069.62
384.97	1144.52
385.17	1212.40
385.36	1064.94
385.56	1207.72
385.75	1116.44
385.95	1249.85
386.14	1245.16
386.34	1256.87
386.53	1188.99
386.72	1219.42
386.92	1289.64
387.11	1350.49
387.31	1261.55
387.50	1245.16
387.70	1299.00
387.89	1287.29
388.09	1191.33
388.28	1254.53
388.48	1259.21
388.67	1313.04
388.86	1301.34
389.06	1273.25
389.25	1259.21
389.45	1409.00
389.64	1287.29
389.84	1320.06
390.03	1341.13
390.22	1474.54
390.42	1371.55
390.61	1355.17
390.81	1378.58
391.00	1392.62
391.19	1364.53
391.39	1409.00
391.58	1493.26
391.78	1490.92
391.97	1486.24
392.16	1448.79
392.36	1554.12
392.55	1540.07
392.75	1420.71
392.94	1444.11
393.13	1465.18
393.33	1572.84
393.52	1556.46
393.71	1577.52
393.91	1643.06
394.10	1558.80
394.29	1586.88
394.49	1645.40
394.68	1465.18
394.88	1636.03
395.07	1666.46
395.26	1652.42
395.46	1600.93
395.65	1732.00
395.84	1678.16
396.04	1832.64
396.23	1849.02
396.42	1741.36
396.62	1776.47
396.81	1781.15
397.00	1748.38
397.19	1886.47
397.39	1802.21
397.58	1811.57
397.77	1771.79
397.97	1893.49
398.16	1788.17
398.35	1970.73
398.55	1870.09
398.74	1881.79
398.93	2031.58
399.12	1940.30
399.32	1933.28
399.51	1937.96
399.70	2062.01
399.90	1991.80
400.09	1975.41
400.28	2015.20
400.47	1982.43
400.67	2118.18
400.86	2052.65
401.05	2120.53
401.24	2073.71
401.44	2197.76
401.63	2174.36
401.82	2083.08
402.01	2129.89
402.21	2235.21
402.40	2157.97
402.59	2188.40
402.78	2172.02
402.97	2286.70
403.17	2263.30
403.36	2310.11
403.55	2331.17
403.74	2340.54
403.93	2424.80
404.13	2485.65
404.32	2326.49
404.51	2289.04
404.70	2377.98
404.89	2448.20
405.09	2457.56
405.28	2516.08
405.47	2436.50
405.66	2401.39
405.85	2541.82
406.05	2530.12
406.24	2555.86
406.43	2541.82
406.62	2525.44
406.81	2616.72
407.00	2565.23
407.20	2635.44
407.39	2539.48
407.58	2691.62
407.77	2736.09
407.96	2661.19
408.15	2754.81
408.34	2740.77
408.54	2651.83
408.73	2771.19
408.92	2920.99
409.11	2883.54
409.30	2848.43
409.49	2944.39
409.68	2878.86
409.87	2825.03
410.07	2813.32
410.26	3005.25
410.45	3002.91
410.64	2977.16
410.83	3035.67
411.02	3180.79
411.21	3133.98
411.40	3197.17
411.59	3133.98
411.78	3148.02
411.98	3229.94
412.17	3297.81
412.36	3300.16
412.55	3274.41
412.74	3262.71
412.93	3290.79
413.12	3314.20
413.31	3513.14
413.50	3368.03
413.69	3538.89
413.88	3662.94
414.07	3623.15
414.26	3810.39
414.45	3674.64
414.64	3669.96
414.83	3707.41
415.02	3817.41
415.22	3786.99
415.41	3819.75
415.60	3742.52
415.79	3850.18
415.98	3845.50
416.17	3906.35
416.36	4044.45
416.55	3960.19
416.74	4053.81
416.93	4070.19
417.12	4163.81
417.31	4238.71
417.50	4285.52
417.69	4301.90
417.88	4285.52
418.07	4390.84
418.26	4409.57
418.45	4334.67
418.64	4390.84
418.83	4411.91
419.02	4369.78
419.21	4447.02
419.39	4449.36
419.58	4402.55
419.77	4512.55
419.96	4678.73
420.15	4589.79
420.34	4493.83
420.53	4573.41
420.72	4732.56
420.91	4676.39
421.10	4774.69
421.29	4793.42
421.48	4713.84
421.67	4744.27
421.86	4746.61
422.05	4793.42
422.24	4697.46
422.43	4947.89
422.61	4898.74
422.80	4947.89
422.99	4826.18
423.18	4931.51
423.37	5128.11
423.56	4884.70
423.75	4814.48
423.94	4898.74
424.13	4650.64
424.32	4690.43
424.50	5020.45
424.69	5053.22
424.88	5039.17
425.07	5029.81
425.26	4767.67
425.45	4929.17
425.64	4919.81
425.83	5043.85
426.01	5123.43
426.20	5004.07
426.39	5111.73
426.58	4896.40
426.77	5151.52
426.96	5158.54
427.15	5067.26
427.33	5125.77
427.52	5165.56
427.71	5341.10
427.90	5212.37
428.09	5336.42
428.28	5355.15
428.46	5298.97
428.65	5383.23
428.84	5586.86
429.03	5598.56
429.22	5296.63
429.40	5617.29
429.59	5570.48
429.78	5366.85
429.97	5146.84
430.16	5511.96
430.34	5624.31
430.53	5689.84
430.72	5654.73
430.91	5680.48
431.10	5565.79
431.28	5748.36
431.47	5844.32
431.66	5921.56
431.85	5645.37
432.03	5853.68
432.22	5884.11
432.41	5872.40
432.60	5860.70
432.79	6052.63
432.97	5994.11
433.16	6026.88
433.35	5930.92
433.54	5940.28
433.72	6022.20
433.91	5991.77
434.10	6111.14
434.28	6104.12
434.47	6125.18
434.66	6253.91
434.85	6183.70
435.03	6204.76
435.22	6333.49
435.41	6448.18
435.59	6513.71
435.78	6511.37
435.97	6553.50
436.16	6286.68
436.34	6424.77
436.53	6485.62
436.72	6562.86
436.90	6476.26
437.09	6705.63
437.28	6403.71
437.46	6637.76
437.65	6616.69
437.84	6616.69
438.02	6679.89
438.21	6876.49
438.40	6703.29
438.58	7145.66
438.77	7056.72
438.96	6871.81
439.14	7199.49
439.33	7166.72
439.52	7194.81
439.70	7192.47
439.89	7482.69
440.08	7431.20
440.26	7190.13
440.45	7192.47
440.63	7372.69
440.82	7571.63
441.01	7454.61
441.19	7543.55
441.38	7758.88
441.57	7836.11
441.75	7756.54
441.94	7789.30
442.12	7962.50
442.31	8018.68
442.50	8016.33
442.68	7934.42
442.87	8025.70
443.05	8215.28
443.24	8163.79
443.43	8091.23
443.61	8166.13
443.80	8414.23
443.98	7988.25
444.17	7775.26
444.35	8102.93
444.54	8243.37
444.73	8234.00
444.91	8236.35
445.10	8203.58
445.28	8318.26
445.47	8332.31
445.65	8327.63
445.84	8458.70
446.02	8524.23
446.21	8273.79
446.39	8402.52
446.58	8524.23
446.77	8421.25
446.95	8374.44
447.14	8465.72
447.32	8400.18
447.51	8519.55
447.69	8472.74
447.88	8404.86
448.06	8674.03
448.25	8423.59
448.43	8517.21
448.62	8542.96
448.80	8315.92
448.99	8620.19
449.17	8718.50
449.36	8720.84
449.54	8706.79
449.73	8908.08
449.91	9034.47
450.10	8861.27
450.28	8982.98
450.46	9039.15
450.65	8947.87
450.83	8994.68
451.02	9287.25
451.20	9081.28
451.39	9088.30
451.57	9135.11
451.76	9008.72
451.94	9078.94
452.13	9149.15
452.31	9418.32
452.49	9179.58
452.68	9163.20
452.86	9240.44
453.05	9146.81
453.23	9507.26
453.42	9455.76
453.60	9446.40
453.78	9434.70
453.97	9345.76
454.15	9523.64
454.34	9551.73
454.52	9626.62
454.70	9741.31
454.89	9617.26
455.07	9633.64
455.26	9745.99
455.44	9771.74
455.62	9778.76
455.81	9989.41
455.99	10090.05
456.17	10033.88
456.36	9937.91
456.54	10083.03
456.73	10207.08
456.91	10487.94
457.09	10356.87
457.28	10534.75
457.46	10326.44
457.64	10389.64
457.83	10534.75
458.01	10246.87
458.19	10614.33
458.38	10483.26
458.56	10611.99
458.74	10729.02
458.93	10579.22
459.11	10574.54
459.29	10808.59
459.48	10661.14
459.66	10672.84
459.84	10871.79
460.03	10993.50
460.21	10977.11
460.39	10958.39
460.57	10939.66
460.76	11101.16
460.94	11063.71
461.12	11314.15
461.31	11082.44
461.49	11143.29
461.67	11002.86
461.85	11391.39
462.04	11403.09
462.22	11698.00
462.40	11623.10
462.59	11573.95
462.77	11358.62
462.95	11438.20
463.13	11496.71
463.32	11709.70
463.50	11688.64
463.68	11648.85
463.86	11611.40
464.05	11681.61
464.23	11742.47
464.41	12091.21
464.59	11534.16
464.78	12105.25
464.96	11737.79
465.14	11899.28
465.32	11850.13
465.50	12311.22
465.69	12318.24
465.87	12128.66
466.05	11964.82
466.23	12023.33
466.41	12386.12
466.60	12400.16
466.78	12030.35
466.96	12278.45
467.14	12362.71
467.32	12575.70
467.51	12428.24
467.69	12245.68
467.87	12402.50
468.05	12545.27
468.23	12437.61
468.41	12503.14
468.60	12690.38
468.78	12685.70
468.96	12587.40
469.14	12830.82
469.32	12975.93
469.50	12723.15
469.69	12816.77
469.87	13184.24
470.05	13018.06
470.23	13329.35
470.41	13069.55
470.59	13252.11
470.77	12950.18
470.95	13359.78
471.14	13486.17
471.32	13217.01
471.50	13380.84
471.68	13748.31
471.86	13760.01
472.04	13551.70
472.22	13989.38
472.40	13451.06
472.58	13682.77
472.77	13853.63
472.95	14202.37
473.13	14331.10
473.31	13769.37
473.49	14256.20
473.67	14010.45
473.85	14424.72
474.03	14675.16
474.21	14567.49
474.39	14644.73
474.57	14644.73
474.75	14979.43
474.93	14843.68
475.12	14787.50
475.30	15227.53
475.48	15124.54
475.66	15150.29
475.84	15049.64
476.02	15272.00
476.20	15384.34
476.38	15889.90
476.56	15824.36
476.74	15800.96
476.92	15667.55
477.10	15793.94
477.28	16037.35
477.46	16145.02
477.64	16350.98
477.82	16585.04
478.00	16805.05
478.18	16765.26
478.36	16767.60
478.54	17256.77
478.72	16917.39
478.90	17200.60
479.08	17645.30
479.26	17673.39
479.44	17834.88
479.62	17715.51
479.80	18082.98
479.98	18246.82
480.16	18733.65
480.34	18054.89
480.52	18525.34
480.70	18541.72
480.88	18583.85
481.06	18759.39
481.24	18696.20
481.41	19255.59
481.59	19241.54
481.77	19400.70
481.95	19693.27
482.13	19693.27
482.31	19274.31
482.49	20175.42
482.67	20180.10
482.85	20332.23
483.03	20175.42
483.21	20819.07
483.39	21013.33
483.57	20837.79
483.74	20957.16
483.92	21261.43
484.10	21226.32
484.28	21472.07
484.46	21977.63
484.64	22302.96
484.82	21832.52
485.00	22590.85
485.18	22576.81
485.35	22862.35
485.53	22642.34
485.71	22944.27
485.89	23634.73
486.07	23019.17
486.25	23438.12
486.43	23283.65
486.61	23840.70
486.78	24128.58
486.96	23988.15
487.14	24439.87
487.32	24496.05
487.50	24538.18
487.68	24500.73
487.85	25216.93
488.03	25420.56
488.21	25647.59
488.39	25853.56
488.57	26265.49
488.75	26038.46
488.92	26195.28
489.10	26686.79
489.28	26597.85
489.46	27133.83
489.64	26986.38
489.81	27522.36
489.99	27463.85
490.17	27702.58
490.35	27953.02
490.53	28329.84
490.70	28219.84
490.88	28503.04
491.06	28725.39
491.24	28589.64
491.41	28844.76
491.59	29563.31
491.77	29326.91
491.95	29582.03
492.13	29523.52
492.30	30223.34
492.48	29837.15
492.66	30171.85
492.84	29963.54
493.01	30312.28
493.19	30616.55
493.37	30934.86
493.54	30916.14
493.72	31887.46
493.90	31484.89
494.08	31941.29
494.25	31594.89
494.43	32119.17
494.61	32041.93
494.79	32500.68
494.96	32240.88
495.14	32233.86
495.32	32840.06
495.49	33193.48
495.67	33476.68
495.85	33713.08
496.02	33713.08
496.20	33692.01
496.38	34223.31
496.55	33729.46
496.73	34972.28
496.91	34724.19
497.09	34679.72
497.26	34670.36
497.44	34293.53
497.62	35711.89
497.79	35585.50
497.97	35337.41
498.14	35793.81
498.32	35821.90
498.50	36371.92
498.67	36456.18
498.85	36435.12
499.03	36912.59
499.20	36701.94
499.38	36772.16
499.56	37198.13
499.73	36947.70
499.91	36989.83
500.08	37315.16
500.26	37343.25
500.44	37394.74
500.61	37869.87
500.79	37481.34
500.97	38038.39
501.14	38368.40
501.32	38462.02
501.49	38663.31
501.67	38483.09
501.84	39098.65
502.02	39100.99
502.20	39222.70
502.37	39203.97
502.55	39012.05
502.72	39636.97
502.90	39487.18
503.07	38763.95
503.25	39709.53
503.43	39864.00
503.60	39962.31
503.78	40030.18
503.95	40622.34
504.13	40247.85
504.30	40446.80
504.48	40484.25
504.65	40484.25
504.83	40940.65
505.01	41240.24
505.18	40971.08
505.36	41397.06
505.53	40952.35
505.71	41486.00
505.88	41289.39
506.06	41179.39
506.23	41343.22
506.41	41596.00
506.58	41869.84
506.76	42389.44
506.93	42513.49
507.11	41883.89
507.28	42457.32
507.46	42417.53
507.63	43084.58
507.81	43157.14
507.98	42927.77
508.16	42941.81
508.33	43540.99
508.50	43002.66
508.68	43306.93
508.85	43505.88
509.03	43395.87
509.20	43419.28
509.38	44130.80
509.55	44339.11
509.73	44470.18
509.90	44470.18
510.08	44622.31
510.25	44273.57
510.42	44697.21
510.60	44814.24
510.77	44954.67
510.95	45221.49
511.12	45038.93
511.30	45024.89
511.47	45326.81
511.64	45050.63
511.82	45713.00
511.99	45551.51
512.17	45808.96
512.34	46127.28
512.51	46155.36
512.69	46239.62
512.86	46445.59
513.04	46492.40
513.21	46391.76
513.38	46740.50
513.56	46433.89
513.73	46646.88
513.90	46960.51
514.08	46593.04
514.25	47297.55
514.43	47239.03
514.60	47302.23
514.77	47346.70
514.95	47580.75
515.12	47674.37
515.29	47423.93
515.47	47950.56
515.64	47711.82
515.81	47992.68
515.99	47861.61
516.16	48215.04
516.33	48186.95
516.51	48563.78
516.68	48392.92
516.85	48355.47
517.03	48744.00
517.20	48608.25
517.37	48341.42
517.54	48795.49
517.72	48823.58
517.89	48641.01
518.06	49394.67
518.24	49109.12
518.41	49031.88
518.58	49181.68
518.75	48926.56
518.93	49504.67
519.10	49441.48
519.27	49675.53
519.45	49797.24
519.62	49621.70
519.79	49965.76
519.96	49902.56
520.14	50239.60
520.31	49872.14
520.48	50309.82
520.65	50293.43
520.83	50450.25
521.00	50520.46
521.17	50248.96
521.34	50258.32
521.52	50483.01
521.69	50705.37
521.86	50677.28
522.03	51185.18
522.20	51182.84
522.38	51363.06
522.55	51269.43
522.72	51110.28
522.89	51274.12
523.07	51590.09
523.24	51157.09
523.41	51657.96
523.58	51454.34
523.75	51592.43
523.92	51498.81
524.10	51657.96
524.27	51931.81
524.44	51721.16
524.61	51973.94
524.78	52116.71
524.96	52147.14
525.13	52151.82
525.30	52353.10
525.47	52348.42
525.64	52266.50
525.81	52814.19
525.98	52538.01
526.16	52659.71
526.33	52425.66
526.50	53052.92
526.67	52622.26
526.84	52762.70
527.01	52903.13
527.18	53085.69
527.36	52732.27
527.53	52982.71
527.70	53474.22
527.87	53242.51
528.04	52893.77
528.21	53448.47
528.38	53277.61
528.55	53511.67
528.72	53432.09
528.89	53294.00
529.07	53244.85
529.24	53214.42
529.41	53694.23
529.58	53305.70
529.75	53640.40
529.92	53874.45
530.09	53701.25
530.26	53954.03
530.43	53975.09
530.60	53769.13
530.77	53560.82
530.94	54028.93
531.11	53991.48
531.28	53890.83
531.46	54328.52
531.63	54319.15
531.80	54010.20
531.97	54225.53
532.14	54321.49
532.31	54174.04
532.48	54475.97
532.65	54541.50
532.82	54567.25
532.99	54597.68
533.16	54480.65
533.33	54817.69
533.50	54859.82
533.67	54815.35
533.84	54443.20
534.01	54899.61
534.18	54899.61
534.35	55070.46
534.52	54759.17
534.69	55086.85
534.86	55196.85
535.03	55079.83
535.20	55374.73
535.37	55236.64
535.54	55166.43
535.71	55196.85
535.88	55346.65
536.05	55292.82
536.22	55365.37
536.38	55538.57
536.55	55430.91
536.72	55561.98
536.89	55714.11
537.06	55667.30
537.23	55388.78
537.40	55395.80
537.57	55800.71
537.74	55641.56
537.91	56048.81
538.08	55718.79
538.25	55746.88
538.42	55917.74
538.59	56222.01
538.75	55749.22
538.92	55980.93
539.09	56055.83
539.26	55973.91
539.43	56074.55
539.60	56411.59
539.77	56074.55
539.94	56397.55
540.11	56207.97
540.28	56463.08
540.44	56519.26
540.61	56388.19
540.78	56324.99
540.95	56383.51
541.12	56238.39
541.29	56210.31
541.46	56577.77
541.62	56425.64
541.79	56729.90
541.96	56217.33
542.13	56369.46
542.30	56615.22
542.47	56999.07
542.63	56743.95
542.80	56872.68
542.97	57020.13
543.14	57258.87
543.31	57277.59
543.48	57085.67
543.64	57275.25
543.81	57396.96
543.98	57244.82
544.15	57080.98
544.32	57593.56
544.48	57429.72
544.65	57261.21
544.82	57420.36
544.99	57263.55
545.16	57415.68
545.32	57272.91
545.49	57546.75
545.66	57577.18
545.83	57525.69
546.00	57645.05
546.16	57647.39
546.33	57628.67
546.50	57535.05
546.67	57600.58
546.83	57464.83
547.00	57492.92
547.17	57588.88
547.34	57790.17
547.50	57642.71
547.67	58087.42
547.84	57975.07
548.00	58232.53
548.17	58099.12
548.34	58019.54
548.51	58056.99
548.67	58326.15
548.84	57975.07
549.01	58103.80
549.18	58162.31
549.34	58199.76
549.51	58164.65
549.68	58305.09
549.84	58375.30
550.01	58389.34
550.18	58361.26
550.34	58267.64
550.51	58328.49
550.68	58382.32
550.84	58138.91
551.01	58632.76
551.18	58599.99
551.34	58162.31
551.51	58616.38
551.68	58452.54
551.84	58204.44
552.01	58300.40
552.18	58588.29
552.34	58492.33
552.51	58665.53
552.68	58578.93
552.84	58588.29
553.01	58925.33
553.18	58700.64
553.34	58791.92
553.51	58791.92
553.67	58747.45
553.84	58894.90
554.01	58827.02
554.17	59047.04
554.34	59089.16
554.51	58688.93
554.67	59037.67
554.84	58930.01
555.00	58974.48
555.17	59164.06
555.33	58782.55
555.50	58925.33
555.67	59002.56
555.83	58873.84
556.00	59112.57
556.16	59297.47
556.33	59311.52
556.50	59175.76
556.66	59430.88
556.83	59157.04
556.99	59292.79
557.16	59461.31
557.32	59468.33
557.49	59585.36
557.65	59243.64
557.82	59245.98
557.98	59442.59
558.15	59386.41
558.32	59384.07
558.48	59388.75
558.65	59297.47
558.81	59360.67
558.98	59405.14
559.14	59487.06
559.31	59332.58
559.47	59639.19
559.64	59557.27
559.80	59721.11
559.97	59758.56
560.13	59650.89
560.30	59650.89
560.46	59681.32
560.63	59770.26
560.79	59814.73
560.96	59674.30
561.12	59767.92
561.29	59735.15
561.45	59597.06
561.61	59739.83
561.78	59777.28
561.94	59547.91
562.11	59859.20
562.27	59559.61
562.44	59707.07
562.60	60065.17
562.77	59957.50
562.93	59906.01
563.10	59997.29
563.26	59840.48
563.42	60165.81
563.59	60020.70
563.75	59955.16
563.92	59920.05
564.08	59920.05
564.24	59976.23
564.41	60245.39
564.57	59997.29
564.74	60090.91
564.90	60111.98
565.07	59938.78
565.23	60069.85
565.39	60037.08
565.56	60346.03
565.72	59952.82
565.88	60095.60
566.05	59987.93
566.21	60261.77
566.38	60243.05
566.54	60189.22
566.70	60378.80
566.87	60395.18
567.03	60020.70
567.19	60252.41
567.36	60142.41
567.52	59992.61
567.68	60566.04
567.85	60502.85
568.01	60165.81
568.17	60210.28
568.34	60463.06
568.50	60280.50
568.66	60317.95
568.83	60456.04
568.99	60243.05
569.15	60416.25
569.32	60257.09
569.48	60271.14
569.64	60371.78
569.81	60441.99
569.97	60451.36
570.13	60339.01
570.30	60348.37
570.46	60474.76
570.62	60465.40
570.78	60561.36
570.95	60516.89
571.11	60619.88
571.27	60521.57
571.43	60460.72
571.60	60500.51
571.76	60449.02
571.92	60544.98
572.09	60479.44
572.25	60662.00
572.41	60638.60
572.57	60563.70
572.74	60580.09
572.90	60533.28
573.06	60479.44
573.22	60544.98
573.38	60559.02
573.55	60481.78
573.71	60671.37
573.87	60596.47
574.03	60493.49
574.20	60680.73
574.36	60266.45
574.52	60378.80
574.68	60662.00
574.84	60807.12
575.01	60519.23
575.17	60605.83
575.33	60523.91
575.49	60584.77
575.65	60720.52
575.82	60699.45
575.98	60704.13
576.14	60793.07
576.30	60772.01
576.46	60729.88
576.62	60722.86
576.79	60741.58
576.95	60615.19
577.11	60701.79
577.27	60699.45
577.43	60760.31
577.59	60673.71
577.75	60678.39
577.92	60790.73
578.08	60650.30
578.24	60640.94
578.40	60860.95
578.56	60928.83
578.72	60802.44
578.88	60931.17
579.04	60977.98
579.21	60722.86
579.37	61048.19
579.53	61001.38
579.69	60493.49
579.85	60566.04
580.01	60619.88
580.17	60800.10
580.33	60828.18
580.49	60921.80
580.65	60828.18
580.82	60774.35
580.98	60980.32
581.14	60755.63
581.30	60781.37
581.46	61045.85
581.62	60853.93
581.78	60769.67
581.94	60992.02
582.10	60743.92
582.26	60835.20
582.42	60893.72
582.58	60910.10
582.74	60853.93
582.90	60985.00
583.06	60938.19
583.22	60807.12
583.38	60893.72
583.54	60786.05
583.70	60917.12
583.86	60842.23
584.02	60980.32
584.18	60987.34
584.34	61024.79
584.50	60877.33
584.66	60987.34
584.82	60853.93
584.98	61052.87
585.14	61148.84
585.30	60982.66
585.46	61076.28
585.62	61064.58
585.78	61172.24
585.94	60846.91
586.10	61118.41
586.26	60926.49
586.42	61155.86
586.58	61172.24
586.74	60973.30
586.90	61041.17
587.06	60987.34
587.22	60968.61
587.38	61027.13
587.54	61024.79
587.70	61249.48
587.86	60989.68
588.02	60968.61
588.18	61078.62
588.34	61003.72
588.49	60917.12
