SpectraSuite Data File
++++++++++++++++++++++++++++++++++++
Date: Fri Oct 25 10:43:31 EDT 2013
User: price-jones
Dark Spectrum Present: No
Reference Spectrum Present: No
Number of Sampled Component Spectra: 1
Spectrometers: USB2+H05261
Integration Time (usec): 100000 (USB2+H05261)
Spectra Averaged: 1 (USB2+H05261)
Boxcar Smoothing: 0 (USB2+H05261)
Correct for Electrical Dark: No (USB2+H05261)
Strobe/Lamp Enabled: No (USB2+H05261)
Correct for Detector Non-linearity: No (USB2+H05261)
Correct for Stray Light: No (USB2+H05261)
Number of Pixels in Processed Spectrum: 2048
>>>>>Begin Processed Spectral Data<<<<<
365.73	142.77
365.92	142.77
366.12	142.77
366.32	44.47
366.52	0.00
366.72	9.36
366.91	86.60
367.11	35.11
367.31	35.11
367.51	70.22
367.70	0.00
367.90	105.32
368.10	11.70
368.30	11.70
368.49	0.00
368.69	100.64
368.89	11.70
369.09	28.09
369.28	65.54
369.48	0.00
369.68	124.05
369.87	49.15
370.07	93.62
370.27	142.77
370.47	208.31
370.66	341.72
370.86	428.32
371.06	510.24
371.25	540.66
371.45	472.79
371.65	440.02
371.84	400.23
372.04	425.98
372.24	444.70
372.44	510.24
372.63	585.13
372.83	521.94
373.03	519.60
373.22	505.56
373.42	484.49
373.62	428.32
373.81	531.30
374.01	564.07
374.21	554.71
374.40	528.96
374.60	512.58
374.79	524.28
374.99	557.05
375.19	624.92
375.38	486.83
375.58	580.45
375.78	615.56
375.97	550.03
376.17	657.69
376.37	627.26
376.56	615.56
376.76	554.71
376.95	622.58
377.15	566.41
377.35	702.16
377.54	671.73
377.74	648.33
377.93	557.05
378.13	582.79
378.33	781.74
378.52	739.61
378.72	638.97
378.91	653.01
379.11	545.34
379.31	531.30
379.50	704.50
379.70	613.22
379.89	674.07
380.09	634.29
380.28	739.61
380.48	725.57
380.68	641.31
380.87	667.05
381.07	702.16
381.26	781.74
381.46	678.76
381.65	739.61
381.85	667.05
382.04	690.46
382.24	741.95
382.43	674.07
382.63	636.63
382.83	748.97
383.02	772.38
383.22	753.65
383.41	678.76
383.61	767.70
383.80	798.12
384.00	774.72
384.19	784.08
384.39	795.78
384.58	779.40
384.78	772.38
384.97	861.32
385.17	777.06
385.36	842.59
385.56	805.14
385.75	758.33
385.95	791.10
386.14	793.44
386.34	807.48
386.53	851.96
386.72	830.89
386.92	868.34
387.11	933.87
387.31	863.66
387.50	821.53
387.70	819.19
387.89	894.08
388.09	791.10
388.28	912.81
388.48	877.70
388.67	908.13
388.86	884.72
389.06	964.30
389.25	997.07
389.45	1011.11
389.64	1032.18
389.84	985.37
390.03	840.25
390.22	1046.22
390.42	940.90
390.61	1022.81
390.81	983.02
391.00	1027.50
391.19	1015.79
391.39	1046.22
391.58	1067.28
391.78	922.17
391.97	1041.54
392.16	1004.09
392.36	992.39
392.55	1015.79
392.75	966.64
392.94	980.68
393.13	959.62
393.33	964.30
393.52	1095.37
393.71	1177.29
393.91	1074.31
394.10	1046.22
394.29	1107.07
394.49	1020.47
394.68	1139.84
394.88	1191.33
395.07	1165.59
395.26	1167.93
395.46	1266.23
395.65	1289.64
395.84	1196.01
396.04	1341.13
396.23	1200.69
396.42	1160.91
396.62	1174.95
396.81	1174.95
397.00	1186.65
397.19	1282.61
397.39	1345.81
397.58	1355.17
397.77	1336.45
397.97	1416.02
398.16	1411.34
398.35	1411.34
398.55	1401.98
398.74	1404.32
398.93	1504.96
399.12	1451.13
399.32	1423.05
399.51	1547.09
399.70	1577.52
399.90	1612.63
400.09	1708.59
400.28	1624.33
400.47	1666.46
400.67	1706.25
400.86	1631.35
401.05	1717.95
401.24	1739.02
401.44	1659.44
401.63	1743.70
401.82	1769.44
402.01	1713.27
402.21	1722.63
402.40	1727.32
402.59	1678.16
402.78	1750.72
402.97	1776.47
403.17	1729.66
403.36	1781.15
403.55	1715.61
403.74	1884.13
403.93	1888.81
404.13	1839.66
404.32	1881.79
404.51	1846.68
404.70	1863.07
404.89	1811.57
405.09	1923.92
405.28	1949.67
405.47	1935.62
405.66	1952.01
405.85	1982.43
406.05	1930.94
406.24	1933.28
406.43	2069.03
406.62	2069.03
406.81	2127.55
407.00	2099.46
407.20	2143.93
407.39	2050.31
407.58	2108.82
407.77	2251.60
407.96	2242.23
408.15	2275.00
408.34	2190.74
408.54	2263.30
408.73	2239.89
408.92	2242.23
409.11	2232.87
409.30	2333.51
409.49	2303.09
409.68	2169.68
409.87	2298.41
410.07	2377.98
410.26	2272.66
410.45	2382.67
410.64	2394.37
410.83	2537.14
411.02	2520.76
411.21	2485.65
411.40	2525.44
411.59	2502.03
411.78	2480.97
411.98	2553.52
412.17	2553.52
412.36	2747.79
412.55	2796.94
412.74	2703.32
412.93	2782.90
413.12	2644.81
413.31	2820.35
413.50	2930.35
413.69	2960.78
413.88	2981.84
414.07	2949.08
414.26	2986.52
414.45	2932.69
414.64	2906.95
414.83	2942.05
415.02	3012.27
415.22	3131.64
415.41	3061.42
415.60	3098.87
415.79	3173.77
415.98	3211.22
416.17	3141.00
416.36	3162.06
416.55	3300.16
416.74	3246.32
416.93	3225.26
417.12	3239.30
417.31	3239.30
417.50	3344.63
417.69	3461.65
417.88	3431.23
418.07	3445.27
418.26	3328.24
418.45	3452.29
418.64	3548.25
418.83	3564.64
419.02	3480.38
419.21	3421.86
419.39	3529.53
419.58	3513.14
419.77	3398.46
419.96	3641.87
420.15	3634.85
420.34	3693.37
420.53	3655.92
420.72	3742.52
420.91	3702.73
421.10	3775.28
421.29	3955.51
421.48	3679.32
421.67	3765.92
421.86	3824.44
422.05	3889.97
422.24	3798.69
422.43	3843.16
422.61	3847.84
422.80	3983.59
422.99	3810.39
423.18	3892.31
423.37	3943.80
423.56	3871.25
423.75	3833.80
423.94	3772.94
424.13	3641.87
424.32	3700.39
424.50	3918.06
424.69	3985.93
424.88	3981.25
425.07	3765.92
425.26	3969.55
425.45	3974.23
425.64	3918.06
425.83	3770.60
426.01	3894.65
426.20	3976.57
426.39	4166.15
426.58	3831.46
426.77	3997.64
426.96	3831.46
427.15	4028.06
427.33	3939.12
427.52	4147.43
427.71	4124.02
427.90	4067.85
428.09	4154.45
428.28	4114.66
428.46	4219.99
428.65	4208.28
428.84	4152.11
429.03	4219.99
429.22	3962.53
429.40	3943.80
429.59	4168.49
429.78	3936.78
429.97	4002.32
430.16	3964.87
430.34	4198.92
430.53	4070.19
430.72	4203.60
430.91	4093.60
431.10	4276.16
431.28	4362.76
431.47	4533.62
431.66	4676.39
431.85	4517.23
432.03	4606.17
432.22	4692.77
432.41	4498.51
432.60	4608.51
432.79	4615.54
432.97	4732.56
433.16	4620.22
433.35	4575.75
433.54	4711.50
433.72	4421.27
433.91	4594.47
434.10	4660.01
434.28	4674.05
434.47	4788.74
434.66	4711.50
434.85	4781.71
435.03	4952.57
435.22	4809.80
435.41	5111.73
435.59	5078.96
435.78	5011.09
435.97	5184.29
436.16	5055.56
436.34	5039.17
436.53	5081.30
436.72	5263.86
436.90	5060.24
437.09	5172.58
437.28	5069.60
437.46	5083.64
437.65	5254.50
437.84	5097.69
438.02	5057.90
438.21	5116.41
438.40	5020.45
438.58	5320.04
438.77	5331.74
438.96	5315.36
439.14	5547.07
439.33	5661.76
439.52	5540.05
439.70	5547.07
439.89	5767.08
440.08	5533.03
440.26	5643.03
440.45	5483.88
440.63	5614.95
440.82	5874.74
441.01	5619.63
441.19	5937.94
441.38	6071.35
441.57	6146.25
441.75	6160.29
441.94	6200.08
442.12	6090.07
442.31	6328.81
442.50	6216.46
442.68	6122.84
442.87	6190.72
443.05	6139.23
443.24	6363.92
443.43	6448.18
443.61	6272.64
443.80	6612.01
443.98	6445.84
444.17	6251.57
444.35	6462.22
444.54	6548.82
444.73	6441.15
444.91	6455.20
445.10	6464.56
445.28	6462.22
445.47	6406.05
445.65	6396.68
445.84	6342.85
446.02	6530.09
446.21	6548.82
446.39	6476.26
446.58	6516.05
446.77	6457.54
446.95	6654.14
447.14	6649.46
447.32	6731.38
447.51	6530.09
447.69	6546.48
447.88	6525.41
448.06	6672.87
448.25	6595.63
448.43	6888.20
448.62	6768.83
448.80	6630.74
448.99	6923.30
449.17	6883.52
449.36	6623.72
449.54	6857.77
449.73	7068.42
449.91	7162.04
450.10	7155.02
450.28	7143.32
450.46	7012.24
450.65	7337.58
450.83	7124.59
451.02	6927.99
451.20	7225.23
451.39	7206.51
451.57	7082.46
451.76	7103.53
451.94	7208.85
452.13	7201.83
452.31	7372.69
452.49	6960.75
452.68	7148.00
452.86	7220.55
453.05	7171.40
453.23	7164.38
453.42	7316.51
453.60	7349.28
453.78	7342.26
453.97	7133.95
454.15	7173.74
454.34	7201.83
454.52	7243.96
454.70	7328.22
454.89	7517.80
455.07	7431.20
455.26	7459.29
455.44	7620.78
455.62	7812.71
455.81	7702.70
455.99	7707.38
456.17	7817.39
456.36	7662.91
456.54	7887.61
456.73	8091.23
456.91	8135.70
457.09	7901.65
457.28	8147.40
457.46	8053.78
457.64	8098.25
457.83	7932.08
458.01	7997.61
458.19	8161.45
458.38	8187.19
458.56	8177.83
458.74	8208.26
458.93	8107.62
459.11	8196.56
459.29	8234.00
459.48	8388.48
459.66	8086.55
459.84	8285.50
460.03	8437.63
460.21	8334.65
460.39	8285.50
460.57	8348.69
460.76	8566.36
460.94	8638.92
461.12	8475.08
461.31	8662.32
461.49	8472.74
461.67	8688.07
461.85	8648.28
462.04	8601.47
462.22	9235.75
462.40	8835.52
462.59	8685.73
462.77	8872.97
462.95	8872.97
463.13	8966.59
463.32	8882.33
463.50	8924.46
463.68	8753.60
463.86	8800.41
464.05	8606.15
464.23	9018.08
464.41	9114.05
464.59	8891.70
464.78	9245.12
464.96	9041.49
465.14	9029.79
465.32	9135.11
465.50	9114.05
465.69	9118.73
465.87	8926.80
466.05	9158.52
466.23	9027.45
466.41	9015.74
466.60	9184.26
466.78	9043.83
466.96	9245.12
467.14	9310.65
467.32	9165.54
467.51	9427.68
467.69	9095.32
467.87	9144.47
468.05	9500.23
468.23	9273.20
468.41	9366.82
468.60	9430.02
468.78	9565.77
468.96	9380.87
469.14	9839.61
469.32	9900.47
469.50	9327.03
469.69	9605.56
469.87	9638.33
470.05	9715.56
470.23	9628.96
470.41	9757.69
470.59	9710.88
470.77	9891.10
470.95	9823.23
471.14	10150.90
471.32	9968.34
471.50	10293.68
471.68	10008.13
471.86	10066.64
472.04	10134.52
472.22	10459.85
472.40	10160.27
472.58	10370.91
472.77	10377.94
472.95	10565.18
473.13	10743.06
473.31	10443.47
473.49	10478.58
473.67	10340.49
473.85	10633.05
474.03	10939.66
474.21	10937.32
474.39	10897.53
474.57	10855.40
474.75	11138.61
474.93	11052.01
475.12	11122.23
475.30	11077.76
475.48	11173.72
475.66	11318.83
475.84	11379.68
476.02	11276.70
476.20	11433.52
476.38	11573.95
476.56	11592.67
476.74	11880.56
476.92	11569.27
477.10	11765.87
477.28	12070.14
477.46	12020.99
477.64	11922.69
477.82	12322.92
478.00	12374.41
478.18	12489.10
478.36	12336.96
478.54	12568.68
478.72	12837.84
478.90	12898.69
479.08	12786.35
479.26	13069.55
479.44	13099.98
479.62	12903.37
479.80	13270.84
479.98	13277.86
480.16	13502.55
480.34	13369.14
480.52	13673.41
480.70	13540.00
480.88	13549.36
481.06	14087.68
481.24	13661.71
481.41	13958.96
481.59	14398.98
481.77	14232.80
481.95	14148.54
482.13	14391.95
482.31	14384.93
482.49	14869.42
482.67	14567.49
482.85	14607.28
483.03	15028.58
483.21	15026.24
483.39	15335.19
483.57	15262.63
483.74	15353.91
483.92	15552.86
484.10	15456.90
484.28	15824.36
484.46	15871.17
484.64	16191.83
484.82	15957.77
485.00	16063.10
485.18	16290.13
485.35	16116.93
485.53	15807.98
485.71	15976.50
485.89	16152.04
486.07	16276.09
486.25	16559.29
486.43	16947.82
486.61	17165.49
486.78	17011.01
486.96	17158.47
487.14	17518.91
487.32	17586.79
487.50	17628.92
487.68	18043.19
487.85	18195.32
488.03	18487.89
488.21	18237.45
488.39	17933.18
488.57	18625.98
488.75	18476.19
488.92	18637.69
489.10	19356.23
489.28	19140.90
489.46	19726.04
489.64	19262.61
489.81	19864.13
489.99	20121.59
490.17	20023.28
490.35	20301.81
490.53	19889.87
490.70	20407.13
490.88	20369.68
491.06	20727.78
491.24	20692.68
491.41	20327.55
491.59	20568.63
491.77	20669.27
491.95	20690.34
492.13	21275.47
492.30	21504.84
492.48	21502.50
492.66	21521.23
492.84	21680.38
493.01	21806.77
493.19	21879.33
493.37	21963.59
493.54	22029.12
493.72	22567.45
493.90	22204.66
494.08	23070.66
494.25	22988.74
494.43	23065.98
494.61	23131.51
494.79	23351.52
494.96	23396.00
495.14	23239.18
495.32	23616.01
495.49	23557.49
495.67	23688.56
495.85	24053.69
496.02	23913.25
496.20	23903.89
496.38	24390.72
496.55	24273.70
496.73	24816.70
496.91	24638.82
497.09	24748.82
497.26	25013.31
497.44	24395.40
497.62	25111.61
497.79	25081.18
497.97	25060.12
498.14	25242.68
498.32	25048.41
498.50	25249.70
498.67	25848.88
498.85	25443.96
499.03	25991.65
499.20	25954.20
499.38	25998.67
499.56	26127.40
499.73	25965.90
499.91	26478.48
500.08	26209.32
500.26	26108.68
500.44	26551.04
500.61	26632.96
500.79	26001.01
500.97	26651.68
501.14	27054.25
501.32	26663.38
501.49	27002.76
501.67	27082.34
501.84	27337.46
502.02	27131.49
502.20	27211.07
502.37	27623.00
502.55	27740.03
502.72	28435.17
502.90	28093.45
503.07	27693.22
503.25	28276.01
503.43	27779.82
503.60	27857.06
503.78	27807.90
503.95	27938.97
504.13	28252.61
504.30	28397.72
504.48	28334.53
504.65	28467.94
504.83	28510.07
505.01	29558.63
505.18	28938.38
505.36	29132.65
505.53	29036.69
505.71	29355.00
505.88	29404.15
506.06	29397.13
506.23	29146.69
506.41	29221.59
506.58	29757.57
506.76	29802.04
506.93	29448.62
507.11	29509.47
507.28	29378.40
507.46	29820.77
507.63	29860.55
507.81	30080.56
507.98	29804.38
508.16	30132.06
508.33	30490.16
508.50	30157.80
508.68	30539.31
508.85	30562.72
509.03	31091.68
509.20	30663.36
509.38	30988.69
509.55	31171.25
509.73	31159.55
509.90	31250.83
510.08	31302.32
510.25	31016.78
510.42	31419.35
510.60	31587.87
510.77	31728.30
510.95	31627.66
511.12	31267.22
511.30	31814.90
511.47	32081.72
511.64	31901.50
511.82	32266.63
511.99	32189.39
512.17	32194.07
512.34	32170.66
512.51	32208.11
512.69	32158.96
512.86	32479.61
513.04	32577.92
513.21	32411.74
513.38	32582.60
513.56	32290.03
513.73	32821.33
513.90	32627.07
514.08	32666.86
514.25	32690.26
514.43	32912.61
514.60	32968.79
514.77	33095.18
514.95	33071.77
515.12	33287.10
515.29	33443.91
515.47	33827.76
515.64	33895.64
515.81	33490.73
515.99	33542.22
516.16	33649.88
516.33	33256.67
516.51	33729.46
516.68	33036.66
516.85	33156.03
517.03	33270.72
517.20	33659.24
517.37	34078.20
517.54	34455.03
517.72	34043.09
517.89	33706.05
518.06	33675.63
518.24	33736.48
518.41	34036.07
518.58	34087.56
518.75	34225.65
518.93	34567.37
519.10	34417.58
519.27	34726.53
519.45	34698.44
519.62	34937.18
519.79	34953.56
519.96	35044.84
520.14	35363.15
520.31	34696.10
520.48	35381.88
520.65	35365.49
520.83	35337.41
521.00	35803.17
521.17	35758.70
521.34	35861.69
521.52	35857.01
521.69	35644.02
521.86	36077.02
522.03	35920.20
522.20	35952.97
522.38	36297.03
522.55	36332.14
522.72	36374.27
522.89	36196.38
523.07	36601.30
523.24	36336.82
523.41	36699.60
523.58	36196.38
523.75	37132.60
523.92	36861.10
524.10	36928.97
524.27	36355.54
524.44	36947.70
524.61	36931.31
524.78	37207.50
524.96	37244.94
525.13	37720.07
525.30	37146.64
525.47	37682.62
525.64	37338.57
525.81	37179.41
525.98	37249.63
526.16	36982.80
526.33	36973.44
526.50	37102.17
526.67	37038.98
526.84	37092.81
527.01	36872.80
527.18	37546.87
527.36	37794.97
527.53	37816.04
527.70	38309.89
527.87	38061.79
528.04	37879.23
528.21	38040.73
528.38	38511.17
528.55	38447.98
528.72	38218.61
528.89	38625.86
529.07	38473.73
529.24	38314.57
529.41	38286.48
529.58	38227.97
529.75	38291.16
529.92	38948.85
530.09	38902.04
530.26	38871.62
530.43	39182.91
530.60	38469.04
530.77	38518.20
530.94	39206.31
531.11	38766.29
531.28	38859.91
531.46	39262.49
531.63	39414.62
531.80	38927.79
531.97	38862.26
532.14	39136.10
532.31	38871.62
532.48	39489.52
532.65	39758.68
532.82	39323.34
532.99	39405.26
533.16	39358.45
533.33	39639.31
533.50	39473.13
533.67	39852.30
533.84	39363.13
534.01	40133.17
534.18	40112.10
534.35	39908.47
534.52	39646.33
534.69	40109.76
534.86	40549.78
535.03	40046.57
535.20	40289.98
535.37	40409.35
535.54	40844.69
535.71	40339.13
535.88	40444.46
536.05	40224.45
536.22	40713.62
536.38	40346.15
536.55	40325.09
536.72	40102.74
536.89	40119.12
537.06	40128.48
537.23	40505.31
537.40	40617.66
537.57	40840.01
537.74	40875.12
537.91	41315.14
538.08	40870.43
538.25	40884.48
538.42	41148.96
538.59	41284.71
538.75	40690.21
538.92	40928.95
539.09	41029.59
539.26	41228.54
539.43	41235.56
539.60	40924.27
539.77	41074.06
539.94	40964.06
540.11	40924.27
540.28	41160.66
540.44	41036.61
540.61	41242.58
540.78	41160.66
540.95	41422.80
541.12	41188.75
541.29	41177.04
541.46	41387.69
541.62	41404.08
541.79	41645.15
541.96	41535.15
542.13	41806.65
542.30	41605.36
542.47	41827.71
542.63	41832.39
542.80	41848.78
542.97	42066.45
543.14	42019.64
543.31	42616.47
543.48	42534.56
543.64	42593.07
543.81	42415.19
543.98	42684.35
544.15	42550.94
544.32	42567.32
544.48	42784.99
544.65	42684.35
544.82	42370.72
544.99	42480.72
545.16	43274.16
545.32	42684.35
545.49	43005.00
545.66	43035.43
545.83	43054.15
546.00	42689.03
546.16	42974.58
546.33	42911.38
546.50	42405.83
546.67	43129.05
546.83	42433.91
547.00	42974.58
547.17	42838.83
547.34	42773.29
547.50	43248.42
547.67	43236.72
547.84	43182.88
548.00	43473.11
548.17	43679.08
548.34	43597.16
548.51	43433.32
548.67	43981.01
548.84	43491.83
549.01	42869.25
549.18	42969.90
549.34	42934.79
549.51	43505.88
549.68	43405.23
549.84	43817.17
550.01	43393.53
550.18	43311.61
550.34	43548.01
550.51	43168.84
550.68	43688.44
550.84	43096.28
551.01	44217.40
551.18	43587.80
551.34	43973.98
551.51	44311.02
551.68	44280.60
551.84	43814.83
552.01	43901.43
552.18	43807.81
552.34	43779.72
552.51	43576.09
552.68	43962.28
552.84	44208.04
553.01	43999.73
553.18	44154.21
553.34	44414.01
553.51	44154.21
553.67	44060.58
553.84	44626.99
554.01	44306.34
554.17	44346.13
554.34	44524.01
554.51	44285.28
554.67	44484.22
554.84	44275.91
555.00	44339.11
555.17	44205.70
555.33	44622.31
555.50	44149.53
555.67	44023.14
555.83	44411.67
556.00	44554.44
556.16	44566.14
556.33	44631.68
556.50	44502.95
556.66	44561.46
556.83	44088.67
556.99	44739.34
557.16	44488.90
557.32	44612.95
557.49	44409.32
557.65	44671.46
557.82	44779.13
557.98	45139.57
558.15	44973.39
558.32	44919.56
558.48	44322.72
558.65	44718.28
558.81	44477.20
558.98	44388.26
559.14	44856.37
559.31	44746.36
559.47	44854.03
559.64	45153.62
559.80	44741.68
559.97	44931.26
560.13	44753.38
560.30	44809.56
560.46	44933.60
560.63	45003.82
560.79	45537.46
560.96	45162.98
561.12	45151.27
561.29	44758.06
561.45	45052.97
561.61	44760.40
561.78	45500.01
561.94	45172.34
562.11	44659.76
562.27	44809.56
562.44	45036.59
562.60	45495.33
562.77	45205.11
562.93	44783.81
563.10	45507.04
563.26	45181.70
563.42	45565.55
563.59	45155.96
563.75	45188.72
563.92	45125.53
564.08	45013.18
564.24	45701.30
564.41	45411.07
564.57	45368.94
564.74	45191.06
564.90	44999.14
565.07	45020.20
565.23	45303.41
565.39	45212.13
565.56	45488.31
565.72	45027.23
565.88	45059.99
566.05	45090.42
566.21	45329.16
566.38	45500.01
566.54	45249.58
566.70	45628.74
566.87	45778.54
567.03	45628.74
567.19	45942.38
567.36	45853.44
567.52	45635.77
567.68	45764.49
567.85	45338.52
568.01	45832.37
568.17	45780.88
568.34	45387.67
568.50	45237.87
568.66	45521.08
568.83	45546.82
568.99	45148.93
569.15	45200.43
569.32	45577.25
569.48	45642.79
569.64	45902.59
569.81	45588.95
569.97	45415.76
570.13	45528.10
570.30	45146.59
570.46	45193.40
570.62	45020.20
570.78	44828.28
570.95	45177.02
571.11	45525.76
571.27	45235.53
571.43	45130.21
571.60	45626.40
571.76	45579.59
571.92	45593.64
572.09	45794.92
572.25	45556.19
572.41	45951.74
572.57	46075.79
572.74	46134.30
572.90	45289.37
573.06	45305.75
573.22	45703.64
573.38	45476.61
573.55	45509.38
573.71	45942.38
573.87	45825.35
574.03	45497.67
574.20	45656.83
574.36	45638.11
574.52	45825.35
574.68	46171.75
574.84	45549.17
575.01	45287.03
575.17	45401.71
575.33	45696.62
575.49	45336.18
575.65	45874.50
575.82	45722.37
575.98	45385.33
576.14	46162.39
576.30	46073.45
576.46	45710.66
576.62	45577.25
576.79	45485.97
576.95	45525.76
577.11	45984.51
577.27	45743.43
577.43	45535.12
577.59	45228.51
577.75	45375.97
577.92	45364.26
578.08	45326.81
578.24	45418.10
578.40	45598.32
578.56	45544.48
578.72	45476.61
578.88	45511.72
579.04	45469.59
579.21	45694.28
579.37	46045.36
579.53	45659.17
579.69	45357.24
579.85	45624.06
580.01	45893.22
580.17	46167.07
580.33	45593.64
580.49	45993.87
580.65	45677.90
580.82	45874.50
580.98	45511.72
581.14	45322.13
581.30	46054.72
581.46	45715.34
581.62	45483.63
581.78	45769.18
581.94	46354.31
582.10	45771.52
582.26	45911.95
582.42	46003.23
582.58	45336.18
582.74	45713.00
582.90	46014.93
583.06	46199.83
583.22	45741.09
583.38	46246.65
583.54	45862.80
583.70	46120.26
583.86	45724.71
584.02	45841.73
584.18	45907.27
584.34	45813.65
584.50	45560.87
584.66	45970.46
584.82	46064.08
584.98	46253.67
585.14	46150.68
585.30	45296.39
585.46	45818.33
585.62	45401.71
585.78	45731.73
585.94	45446.18
586.10	45862.80
586.26	45944.72
586.42	46171.75
586.58	46148.34
586.74	46043.02
586.90	46120.26
587.06	46211.54
587.22	45968.12
587.38	45935.35
587.54	45839.39
587.70	46380.06
587.86	45705.98
588.02	45516.40
588.18	45977.48
588.34	45823.01
588.49	45965.78
588.65	45249.58
588.81	45649.81
588.97	45539.80
589.13	45263.62
589.29	45670.87
589.45	45563.21
589.61	45982.16
589.77	45940.04
589.93	45790.24
590.08	45736.41
