SpectraSuite Data File
++++++++++++++++++++++++++++++++++++
Date: Fri Oct 25 11:25:48 EDT 2013
User: price-jones
Dark Spectrum Present: No
Reference Spectrum Present: No
Number of Sampled Component Spectra: 1
Spectrometers: USB2+H05261
Integration Time (usec): 100000 (USB2+H05261)
Spectra Averaged: 1 (USB2+H05261)
Boxcar Smoothing: 0 (USB2+H05261)
Correct for Electrical Dark: No (USB2+H05261)
Strobe/Lamp Enabled: No (USB2+H05261)
Correct for Detector Non-linearity: No (USB2+H05261)
Correct for Stray Light: No (USB2+H05261)
Number of Pixels in Processed Spectrum: 2048
>>>>>Begin Processed Spectral Data<<<<<
365.73	245.76
365.92	245.76
366.12	245.76
366.32	182.56
366.52	191.92
366.72	119.37
366.91	126.39
367.11	84.26
367.31	156.82
367.51	135.75
367.70	49.15
367.90	149.79
368.10	203.63
368.30	79.58
368.49	131.07
368.69	163.84
368.89	145.11
369.09	117.03
369.28	166.18
369.48	142.77
369.68	131.07
369.87	238.73
370.07	147.45
370.27	234.05
370.47	330.02
370.66	634.29
370.86	617.90
371.06	650.67
371.25	664.71
371.45	648.33
371.65	650.67
371.84	664.71
372.04	657.69
372.24	720.88
372.44	634.29
372.63	746.63
372.83	858.98
373.03	732.59
373.22	697.48
373.42	784.08
373.62	849.61
373.81	760.67
374.01	821.53
374.21	793.44
374.40	791.10
374.60	763.01
374.79	767.70
374.99	875.36
375.19	931.53
375.38	854.30
375.58	847.27
375.78	856.64
375.97	760.67
376.17	851.96
376.37	814.51
376.56	826.21
376.76	903.45
376.95	912.81
377.15	877.70
377.35	781.74
377.54	847.27
377.74	903.45
377.93	919.83
378.13	858.98
378.33	896.43
378.52	910.47
378.72	945.58
378.91	983.02
379.11	1006.43
379.31	915.15
379.50	976.00
379.70	1036.86
379.89	983.02
380.09	1022.81
380.28	1008.77
380.48	1008.77
380.68	987.71
380.87	966.64
381.07	968.98
381.26	973.66
381.46	943.24
381.65	1006.43
381.85	1020.47
382.04	1041.54
382.24	1062.60
382.43	1109.41
382.63	1107.07
382.83	1163.25
383.02	1095.37
383.22	1095.37
383.41	1090.69
383.61	1067.28
383.80	1135.16
384.00	1032.18
384.19	1149.20
384.39	1104.73
384.58	1102.39
384.78	1076.65
384.97	1071.97
385.17	1114.10
385.36	1086.01
385.56	1224.10
385.75	1214.74
385.95	1231.12
386.14	1160.91
386.34	1214.74
386.53	1263.89
386.72	1214.74
386.92	1217.08
387.11	1149.20
387.31	1214.74
387.50	1231.12
387.70	1268.57
387.89	1284.95
388.09	1303.68
388.28	1296.66
388.48	1376.24
388.67	1369.21
388.86	1343.47
389.06	1224.10
389.25	1226.44
389.45	1336.45
389.64	1369.21
389.84	1394.96
390.03	1317.72
390.22	1331.76
390.42	1418.36
390.61	1376.24
390.81	1432.41
391.00	1441.77
391.19	1490.92
391.39	1474.54
391.58	1441.77
391.78	1497.94
391.97	1554.12
392.16	1437.09
392.36	1476.88
392.55	1556.46
392.75	1413.68
392.94	1497.94
393.13	1535.39
393.33	1537.73
393.52	1563.48
393.71	1570.50
393.91	1591.56
394.10	1514.33
394.29	1586.88
394.49	1685.19
394.68	1638.38
394.88	1533.05
395.07	1664.12
395.26	1605.61
395.46	1584.54
395.65	1746.04
395.84	1666.46
396.04	1767.10
396.23	1703.91
396.42	1830.30
396.62	1778.81
396.81	1753.06
397.00	1774.13
397.19	1809.23
397.39	1799.87
397.58	1820.94
397.77	1739.02
397.97	1713.27
398.16	1846.68
398.35	1907.54
398.55	1764.76
398.74	1954.35
398.93	1947.33
399.12	2008.18
399.32	1942.64
399.51	1984.77
399.70	2010.52
399.90	1975.41
400.09	2031.58
400.28	2031.58
400.47	2017.54
400.67	2010.52
400.86	2125.21
401.05	2059.67
401.24	2094.78
401.44	2155.63
401.63	2101.80
401.82	2174.36
402.01	2174.36
402.21	2207.13
402.40	2155.63
402.59	2160.31
402.78	2265.64
402.97	2172.02
403.17	2167.34
403.36	2223.51
403.55	2263.30
403.74	2438.84
403.93	2258.62
404.13	2366.28
404.32	2385.01
404.51	2284.36
404.70	2459.90
404.89	2303.09
405.09	2349.90
405.28	2459.90
405.47	2345.22
405.66	2502.03
405.85	2527.78
406.05	2534.80
406.24	2504.37
406.43	2621.40
406.62	2630.76
406.81	2682.25
407.00	2609.70
407.20	2626.08
407.39	2623.74
407.58	2698.64
407.77	2780.56
407.96	2726.72
408.15	2738.43
408.34	2813.32
408.54	2799.28
408.73	2736.09
408.92	2729.06
409.11	2944.39
409.30	2925.67
409.49	2965.46
409.68	2932.69
409.87	2923.33
410.07	2965.46
410.26	3117.59
410.45	2942.05
410.64	2991.20
410.83	2965.46
411.02	3030.99
411.21	3117.59
411.40	3131.64
411.59	3176.11
411.78	3080.14
411.98	3300.16
412.17	3222.92
412.36	3311.86
412.55	3363.35
412.74	3452.29
412.93	3419.52
413.12	3318.88
413.31	3655.92
413.50	3403.14
413.69	3424.20
413.88	3459.31
414.07	3620.81
414.26	3662.94
414.45	3660.60
414.64	3730.81
414.83	3779.97
415.02	3730.81
415.22	3791.67
415.41	3838.48
415.60	3817.41
415.79	3859.54
415.98	3955.51
416.17	3946.14
416.36	3882.95
416.55	4060.83
416.74	4098.28
416.93	4072.53
417.12	4086.58
417.31	3997.64
417.50	4140.41
417.69	4180.20
417.88	4325.31
418.07	4212.96
418.26	4234.03
418.45	4318.29
418.64	4482.13
418.83	4341.69
419.02	4358.08
419.21	4521.92
419.39	4379.14
419.58	4468.08
419.77	4451.70
419.96	4561.70
420.15	4660.01
420.34	4568.73
420.53	4770.01
420.72	4664.69
420.91	4624.90
421.10	4835.55
421.29	4770.01
421.48	4657.67
421.67	4767.67
421.86	4650.64
422.05	4718.52
422.24	4699.80
422.43	4858.95
422.61	4835.55
422.80	4945.55
422.99	4926.83
423.18	4880.02
423.37	5217.05
423.56	4994.70
423.75	4863.63
423.94	4971.30
424.13	4638.94
424.32	4896.40
424.50	4819.16
424.69	5125.77
424.88	5163.22
425.07	5055.56
425.26	4994.70
425.45	4849.59
425.64	4966.62
425.83	5027.47
426.01	5128.11
426.20	5029.81
426.39	4966.62
426.58	4959.60
426.77	4924.49
426.96	5240.46
427.15	5252.16
427.33	5228.76
427.52	5195.99
427.71	5158.54
427.90	5280.25
428.09	5261.52
428.28	5373.87
428.46	5284.93
428.65	5256.84
428.84	5500.26
429.03	5453.45
429.22	5444.09
429.40	5397.28
429.59	5504.94
429.78	5284.93
429.97	5334.08
430.16	5479.19
430.34	5486.22
430.53	5856.02
430.72	5570.48
430.91	5675.80
431.10	5699.20
431.28	5753.04
431.47	5738.99
431.66	5900.49
431.85	5834.96
432.03	5846.66
432.22	6019.86
432.41	6024.54
432.60	5792.83
432.79	5879.43
432.97	5970.71
433.16	5877.09
433.35	5898.15
433.54	5937.94
433.72	6005.81
433.91	6024.54
434.10	6122.84
434.28	6120.50
434.47	6242.21
434.66	6225.82
434.85	6333.49
435.03	6296.04
435.22	6448.18
435.41	6359.24
435.59	6291.36
435.78	6431.79
435.97	6427.11
436.16	6340.51
436.34	6382.64
436.53	6572.22
436.72	6553.50
436.90	6403.71
437.09	6553.50
437.28	6310.08
437.46	6747.76
437.65	6850.75
437.84	6874.15
438.02	6651.80
438.21	6649.46
438.40	6595.63
438.58	6949.05
438.77	7052.03
438.96	6810.96
439.14	6909.26
439.33	6981.82
439.52	7145.66
439.70	7199.49
439.89	7330.56
440.08	7478.01
440.26	7372.69
440.45	7297.79
440.63	7595.04
440.82	7613.76
441.01	7669.94
441.19	7712.07
441.38	7557.59
441.57	7735.47
441.75	7768.24
441.94	7880.58
442.12	7779.94
442.31	8201.24
442.50	8074.85
442.68	7784.62
442.87	7995.27
443.05	8021.02
443.24	8006.97
443.43	8100.59
443.61	8168.47
443.80	8444.65
443.98	8013.99
444.17	7747.17
444.35	8138.04
444.54	8528.91
444.73	8355.71
444.91	8351.03
445.10	8327.63
445.28	8266.77
445.47	8166.13
445.65	8388.48
445.84	8365.07
446.02	8533.59
446.21	8379.12
446.39	8168.47
446.58	8304.22
446.77	8425.93
446.95	8229.32
447.14	8315.92
447.32	8587.43
447.51	8372.10
447.69	8393.16
447.88	8456.36
448.06	8528.91
448.25	8493.80
448.43	8484.44
448.62	8528.91
448.80	8259.75
448.99	8617.85
449.17	8805.10
449.36	8505.51
449.54	8908.08
449.73	8870.63
449.91	9064.89
450.10	8938.51
450.28	9039.15
450.46	9219.37
450.65	9083.62
450.83	9092.98
451.02	8947.87
451.20	9011.06
451.39	9179.58
451.57	9137.45
451.76	9034.47
451.94	9219.37
452.13	9249.80
452.31	9312.99
452.49	9137.45
452.68	9399.59
452.86	9355.12
453.05	9423.00
453.23	9404.27
453.42	9336.40
453.60	9270.86
453.78	9317.67
453.97	9455.76
454.15	9593.86
454.34	9650.03
454.52	9544.70
454.70	9652.37
454.89	9713.22
455.07	9619.60
455.26	9975.36
455.44	9989.41
455.62	9923.87
455.81	9853.66
455.99	9930.89
456.17	10118.14
456.36	10085.37
456.54	10148.56
456.73	10097.07
456.91	10408.36
457.09	10221.12
457.28	10588.58
457.46	10195.37
457.64	10356.87
457.83	10509.01
458.01	10366.23
458.19	10736.04
458.38	10607.31
458.56	10628.37
458.74	10609.65
458.93	10611.99
459.11	10539.43
459.29	10518.37
459.48	10670.50
459.66	10677.52
459.84	10810.93
460.03	11091.80
460.21	10747.74
460.39	10761.78
460.57	10944.34
460.76	11103.50
460.94	11145.63
461.12	11236.91
461.31	11157.33
461.49	11267.34
461.67	11187.76
461.85	11389.05
462.04	11300.11
462.22	11573.95
462.40	11508.41
462.59	11330.53
462.77	11520.12
462.95	11492.03
463.13	11548.20
463.32	11625.44
463.50	11529.48
463.68	11683.95
463.86	11896.94
464.05	11487.35
464.23	11639.48
464.41	11932.05
464.59	11716.72
464.78	12035.03
464.96	12035.03
465.14	11651.19
465.32	11885.24
465.50	12072.48
465.69	11976.52
465.87	12259.73
466.05	12009.29
466.23	11878.22
466.41	12161.42
466.60	12472.71
466.78	12091.21
466.96	12189.51
467.14	12198.87
467.32	12343.99
467.51	12594.42
467.69	12161.42
467.87	12322.92
468.05	12622.51
468.23	12439.95
468.41	12453.99
468.60	12510.16
468.78	12844.86
468.96	12575.70
469.14	12823.80
469.32	12964.23
469.50	12578.04
469.69	13011.04
469.87	13123.38
470.05	12877.63
470.23	12947.84
470.41	13043.81
470.59	13135.09
470.77	13188.92
470.95	13200.62
471.14	13486.17
471.32	13233.39
471.50	13671.07
471.68	13582.13
471.86	13738.94
472.04	13547.02
472.22	13832.57
472.40	13743.63
472.58	13837.25
472.77	13994.06
472.95	14216.41
473.13	14656.43
473.31	13970.66
473.49	14052.58
473.67	13940.23
473.85	14120.45
474.03	14745.38
474.21	14548.77
474.39	14860.06
474.57	14574.52
474.75	14895.17
474.93	14939.64
475.12	14817.93
475.30	15068.37
475.48	15005.17
475.66	15225.18
475.84	15206.46
476.02	15449.88
476.20	15283.70
476.38	15482.64
476.56	15981.18
476.74	16318.22
476.92	15594.99
477.10	15875.85
477.28	15845.43
477.46	16222.25
477.64	16023.31
477.82	16580.36
478.00	16676.32
478.18	16655.25
478.36	16893.99
478.54	16994.63
478.72	17067.19
478.90	17312.94
479.08	17539.97
479.26	17757.64
479.44	17764.67
479.62	17703.81
479.80	17715.51
479.98	18319.37
480.16	18260.86
480.34	18171.92
480.52	18382.57
480.70	18785.14
480.88	18270.22
481.06	18647.05
481.24	18602.58
481.41	18937.27
481.59	19424.11
481.77	19651.14
481.95	19161.97
482.13	19590.28
482.31	19487.30
482.49	19852.42
482.67	19999.88
482.85	20477.35
483.03	20432.88
483.21	21029.71
483.39	20776.94
483.57	20802.68
483.74	21326.96
483.92	21298.88
484.10	21291.85
484.28	21635.91
484.46	21900.39
484.64	22066.57
484.82	22190.62
485.00	22312.33
485.18	22263.18
485.35	22703.20
485.53	22850.65
485.71	23068.32
485.89	23477.91
486.07	23211.09
486.25	23414.72
486.43	23473.23
486.61	23611.32
486.78	23955.38
486.96	24030.28
487.14	24372.00
487.32	24458.60
487.50	24489.03
487.68	24973.52
487.85	25254.38
488.03	25422.90
488.21	25778.66
488.39	25792.70
488.57	26319.32
488.75	26057.18
488.92	26466.78
489.10	26852.97
489.28	26525.29
489.46	26677.43
489.64	27063.61
489.81	27332.78
489.99	27662.79
490.17	28030.26
490.35	27917.91
490.53	27938.97
490.70	28147.28
490.88	28180.05
491.06	28936.04
491.24	28676.24
491.41	28891.57
491.59	29406.49
491.77	28931.36
491.95	29425.22
492.13	29549.26
492.30	29799.70
492.48	29788.00
492.66	29799.70
492.84	30546.33
493.01	30539.31
493.19	30387.18
493.37	30955.93
493.54	30691.44
493.72	31117.42
493.90	31400.63
494.08	31608.93
494.25	32114.49
494.43	32212.79
494.61	32107.47
494.79	32617.71
494.96	32435.14
495.14	32474.93
495.32	32982.83
495.49	33359.66
495.67	33303.48
495.85	33420.51
496.02	33816.06
496.20	33750.52
496.38	33710.74
496.55	33743.50
496.73	34927.81
496.91	34473.75
497.09	34398.85
497.26	34579.07
497.44	35243.79
497.62	35248.47
497.79	36123.83
497.97	35271.87
498.14	35660.40
498.32	36079.36
498.50	35969.35
498.67	36254.90
498.85	36107.44
499.03	36484.27
499.20	36594.28
499.38	36762.79
499.56	36999.19
499.73	37289.42
499.91	37479.00
500.08	37212.18
500.26	37404.10
500.44	37429.85
500.61	38036.05
500.79	37586.66
500.97	37897.95
501.14	38700.76
501.32	38136.69
501.49	38129.67
501.67	38150.73
501.84	38724.16
502.02	38682.03
502.20	38857.57
502.37	39173.55
502.55	39248.44
502.72	39274.19
502.90	39667.40
503.07	39536.33
503.25	39838.26
503.43	39674.42
503.60	40371.90
503.78	40025.50
503.95	40261.90
504.13	40355.52
504.30	40737.02
504.48	40289.98
504.65	40596.59
504.83	40509.99
505.01	41069.38
505.18	41155.98
505.36	41710.69
505.53	40942.99
505.71	40889.16
505.88	41516.42
506.06	41521.10
506.23	41986.87
506.41	42080.49
506.58	42274.76
506.76	41706.01
506.93	42267.73
507.11	42398.80
507.28	42494.77
507.46	42483.06
507.63	42714.78
507.81	43028.41
507.98	42827.12
508.16	42979.26
508.33	42988.62
508.50	43519.92
508.68	43496.52
508.85	43590.14
509.03	43636.95
509.20	44011.43
509.38	44320.38
509.55	44224.42
509.73	44252.51
509.90	44563.80
510.08	44257.19
510.25	44210.38
510.42	44657.42
510.60	44854.03
510.77	45069.36
510.95	45296.39
511.12	44903.18
511.30	44861.05
511.47	45249.58
511.64	45446.18
511.82	45404.05
511.99	45600.66
512.17	45893.22
512.34	45827.69
512.51	46209.20
512.69	46363.67
512.86	46080.47
513.04	46604.75
513.21	46473.68
513.38	46824.76
513.56	46791.99
513.73	46426.87
513.90	46983.91
514.08	46770.93
514.25	46899.65
514.43	47213.29
514.60	47510.53
514.77	47217.97
514.95	47693.10
515.12	47381.80
515.29	47484.79
515.47	47562.03
515.64	48105.03
515.81	47545.64
515.99	48100.35
516.16	48308.66
516.33	48051.20
516.51	48516.96
516.68	48114.39
516.85	48100.35
517.03	48577.82
517.20	48432.71
517.37	48566.12
517.54	48488.88
517.72	48587.18
517.89	49158.27
518.06	49467.22
518.24	48650.38
518.41	49399.35
518.58	49132.53
518.75	49240.19
518.93	49701.28
519.10	49076.35
519.27	49249.55
519.45	49542.12
519.62	49893.20
519.79	49769.15
519.96	49621.70
520.14	50326.20
520.31	49720.00
520.48	50213.85
520.65	50061.72
520.83	50237.26
521.00	50710.05
521.17	50319.18
521.34	50681.96
521.52	50403.44
521.69	50838.78
521.86	50831.75
522.03	50513.44
522.20	51302.20
522.38	51119.64
522.55	51416.89
522.72	51346.67
522.89	51283.48
523.07	51503.49
523.24	51311.56
523.41	51686.05
523.58	51344.33
523.75	51868.61
523.92	51597.11
524.10	52051.17
524.27	51735.20
524.44	52093.30
524.61	52156.50
524.78	52079.26
524.96	51618.17
525.13	51901.38
525.30	52350.76
525.47	52505.24
525.64	52184.58
525.81	52519.28
525.98	52383.53
526.16	52559.07
526.33	52575.45
526.50	52720.57
526.67	52704.18
526.84	52844.62
527.01	52598.86
527.18	52699.50
527.36	53113.78
527.53	52942.92
527.70	53404.00
527.87	53298.68
528.04	53015.47
528.21	53237.83
528.38	53354.85
528.55	53268.25
528.72	53272.93
528.89	53586.57
529.07	52959.30
529.24	53132.50
529.41	53691.89
529.58	53567.84
529.75	53219.10
529.92	53614.65
530.09	53937.65
530.26	53815.94
530.43	53825.30
530.60	53619.33
530.77	54230.21
530.94	54021.90
531.11	53975.09
531.28	54164.68
531.46	53911.90
531.63	54291.07
531.80	54028.93
531.97	54178.72
532.14	54314.47
532.31	54319.15
532.48	54438.52
532.65	54604.70
532.82	54398.73
532.99	54766.20
533.16	54576.61
533.33	54681.94
533.50	54946.42
533.67	54705.34
533.84	54457.24
534.01	54955.78
534.18	54850.45
534.35	55358.35
534.52	55203.88
534.69	55105.57
534.86	54944.08
535.03	54993.23
535.20	55117.28
535.37	55358.35
535.54	55068.12
535.71	55018.97
535.88	55501.12
536.05	55384.10
536.22	55323.24
536.38	55538.57
536.55	55114.94
536.72	55440.27
536.89	55320.90
537.06	55601.77
537.23	55526.87
537.40	55442.61
537.57	55716.45
537.74	55646.24
537.91	55826.46
538.08	55992.64
538.25	55800.71
538.42	55753.90
538.59	55941.14
538.75	55718.79
538.92	55884.97
539.09	56404.57
539.26	56121.37
539.43	55924.76
539.60	56161.15
539.77	56296.91
539.94	56587.13
540.11	56315.63
540.28	56175.20
540.44	56332.01
540.61	56378.82
540.78	56388.19
540.95	56217.33
541.12	56346.06
541.29	56275.84
541.46	56458.40
541.62	56470.11
541.79	56680.75
541.96	56282.86
542.13	56580.11
542.30	56774.37
542.47	56617.56
542.63	56994.39
542.80	56949.92
542.97	57050.56
543.14	57406.32
543.31	56996.73
543.48	57401.64
543.64	57375.89
543.81	57132.48
543.98	57226.10
544.15	57415.68
544.32	57251.84
544.48	57499.94
544.65	57315.04
544.82	57322.06
544.99	57205.03
545.16	57387.60
545.32	57319.72
545.49	57556.11
545.66	57640.37
545.83	57427.38
546.00	57556.11
546.16	57659.10
546.33	57537.39
546.50	57462.49
546.67	57673.14
546.83	57237.80
547.00	57537.39
547.17	57649.74
547.34	57696.55
547.50	57656.76
547.67	57982.09
547.84	57741.02
548.00	58108.48
548.17	58145.93
548.34	58026.56
548.51	57972.73
548.67	58188.06
548.84	58040.60
549.01	58117.84
549.18	58113.16
549.34	57935.28
549.51	58232.53
549.68	58181.04
549.84	58363.60
550.01	58253.59
550.18	58284.02
550.34	58328.49
550.51	58314.45
550.68	58422.11
550.84	58286.36
551.01	58295.72
551.18	58459.56
551.34	58433.81
551.51	58440.84
551.68	58576.59
551.84	58541.48
552.01	58422.11
552.18	58539.14
552.34	58457.22
552.51	58644.46
552.68	58281.68
552.84	58702.98
553.01	58735.74
553.18	58599.99
553.34	58883.20
553.51	58733.40
553.67	58878.52
553.84	58810.64
554.01	58850.43
554.17	59072.78
554.34	58927.67
554.51	59068.10
554.67	59032.99
554.84	59084.48
555.00	58670.21
555.17	58993.20
555.33	58967.46
555.50	58766.17
555.67	58930.01
555.83	58918.31
556.00	58958.09
556.16	59339.60
556.33	59114.91
556.50	59271.73
556.66	59334.92
556.83	59107.89
556.99	59192.15
557.16	59365.35
557.32	59327.90
557.49	59395.77
557.65	59217.89
557.82	59231.94
557.98	59217.89
558.15	59480.03
558.32	59580.68
558.48	59236.62
558.65	59384.07
558.81	59374.71
558.98	59374.71
559.14	59355.99
559.31	59524.50
559.47	59751.54
559.64	59447.27
559.80	59512.80
559.97	59709.41
560.13	59482.37
560.30	59723.45
560.46	59756.22
560.63	59678.98
560.79	59690.68
560.96	59742.17
561.12	59777.28
561.29	59756.22
561.45	59538.55
561.61	59636.85
561.78	59587.70
561.94	59334.92
562.11	59660.26
562.27	59751.54
562.44	59990.27
562.60	59861.54
562.77	60072.19
562.93	59859.20
563.10	59964.52
563.26	59812.39
563.42	60088.57
563.59	59943.46
563.75	59915.37
563.92	60182.19
564.08	59971.55
564.24	60083.89
564.41	59922.40
564.57	60149.43
564.74	59941.12
564.90	60149.43
565.07	59870.90
565.23	59936.44
565.39	60177.51
565.56	60142.41
565.72	60097.94
565.88	59952.82
566.05	60123.68
566.21	60088.57
566.38	60313.26
566.54	59910.69
566.70	60217.30
566.87	60437.31
567.03	60175.17
567.19	60203.26
567.36	60158.79
567.52	60172.83
567.68	60514.55
567.85	60184.54
568.01	60341.35
568.17	60111.98
568.34	60360.08
568.50	60320.29
568.66	60207.94
568.83	60439.65
568.99	60299.22
569.15	60353.05
569.32	60573.06
569.48	60236.03
569.64	60404.55
569.81	60449.02
569.97	60678.39
570.13	60313.26
570.30	60271.14
570.46	60392.84
570.62	60245.39
570.78	60603.49
570.95	60306.24
571.11	60463.06
571.27	60250.07
571.43	60484.12
571.60	60598.81
571.76	60378.80
571.92	60713.50
572.09	60537.96
572.25	60282.84
572.41	60502.85
572.57	60694.77
572.74	60573.06
572.90	60479.44
573.06	60500.51
573.22	60481.78
573.38	60364.76
573.55	60715.84
573.71	60905.42
573.87	60559.02
574.03	60568.38
574.20	60554.34
574.36	60603.49
574.52	60654.98
574.68	60657.32
574.84	60654.98
575.01	60425.61
575.17	60638.60
575.33	60500.51
575.49	60570.72
575.65	60598.81
575.82	60912.44
575.98	60662.00
576.14	60790.73
576.30	60704.13
576.46	60657.32
576.62	60680.73
576.79	60718.18
576.95	60654.98
577.11	60645.62
577.27	60928.83
577.43	60601.15
577.59	60818.82
577.75	60547.32
577.92	60795.42
578.08	60748.60
578.24	60692.43
578.40	60992.02
578.56	60933.51
578.72	60800.10
578.88	60779.03
579.04	60949.89
579.21	60776.69
579.37	60893.72
579.53	60907.76
579.69	60505.19
579.85	60807.12
580.01	60772.01
580.17	60647.96
580.33	60818.82
580.49	60966.27
580.65	60722.86
580.82	60856.27
580.98	60706.47
581.14	60762.65
581.30	61001.38
581.46	60823.50
581.62	61038.83
581.78	60823.50
581.94	60776.69
582.10	60858.61
582.26	60697.11
582.42	60940.53
582.58	60867.97
582.74	60896.06
582.90	60949.89
583.06	60938.19
583.22	60659.66
583.38	60713.50
583.54	60739.24
583.70	60903.08
583.86	60985.00
584.02	60720.52
584.18	60921.80
584.34	60987.34
584.50	60893.72
584.66	60903.08
584.82	60701.79
584.98	60966.27
585.14	60973.30
585.30	60985.00
585.46	60919.46
585.62	61066.92
585.78	61062.24
585.94	60676.05
586.10	61059.90
586.26	61031.81
586.42	60933.51
586.58	61109.05
586.74	61048.19
586.90	61059.90
587.06	60772.01
587.22	61109.05
587.38	60846.91
587.54	61310.33
587.70	60872.65
587.86	60977.98
588.02	60891.38
588.18	60823.50
588.34	60977.98
588.49	60910.10
