SpectraSuite Data File
++++++++++++++++++++++++++++++++++++
Date: Fri Oct 25 11:25:55 EDT 2013
User: price-jones
Dark Spectrum Present: No
Reference Spectrum Present: No
Number of Sampled Component Spectra: 1
Spectrometers: USB2+H05261
Integration Time (usec): 100000 (USB2+H05261)
Spectra Averaged: 1 (USB2+H05261)
Boxcar Smoothing: 0 (USB2+H05261)
Correct for Electrical Dark: No (USB2+H05261)
Strobe/Lamp Enabled: No (USB2+H05261)
Correct for Detector Non-linearity: No (USB2+H05261)
Correct for Stray Light: No (USB2+H05261)
Number of Pixels in Processed Spectrum: 2048
>>>>>Begin Processed Spectral Data<<<<<
365.73	215.33
365.92	215.33
366.12	215.33
366.32	163.84
366.52	74.90
366.72	140.43
366.91	156.82
367.11	163.84
367.31	124.05
367.51	79.58
367.70	86.60
367.90	170.86
368.10	138.09
368.30	170.86
368.49	79.58
368.69	128.73
368.89	147.45
369.09	140.43
369.28	147.45
369.48	107.66
369.68	156.82
369.87	231.71
370.07	191.92
370.27	212.99
370.47	325.33
370.66	620.24
370.86	669.39
371.06	603.86
371.25	716.20
371.45	713.86
371.65	699.82
371.84	641.31
372.04	636.63
372.24	697.48
372.44	763.01
372.63	793.44
372.83	821.53
373.03	678.76
373.22	695.14
373.42	688.12
373.62	763.01
373.81	856.64
374.01	812.17
374.21	795.78
374.40	795.78
374.60	898.77
374.79	788.76
374.99	835.57
375.19	903.45
375.38	877.70
375.58	802.80
375.78	901.11
375.97	875.36
376.17	880.04
376.37	896.43
376.56	870.68
376.76	868.34
376.95	917.49
377.15	912.81
377.35	791.10
377.54	851.96
377.74	945.58
377.93	891.74
378.13	938.55
378.33	987.71
378.52	1006.43
378.72	992.39
378.91	856.64
379.11	917.49
379.31	917.49
379.50	1013.45
379.70	1036.86
379.89	1022.81
380.09	992.39
380.28	961.96
380.48	1004.09
380.68	997.07
380.87	1004.09
381.07	1025.15
381.26	1011.11
381.46	1011.11
381.65	973.66
381.85	1107.07
382.04	978.34
382.24	1034.52
382.43	1025.15
382.63	1020.47
382.83	1121.12
383.02	1086.01
383.22	1109.41
383.41	1060.26
383.61	1086.01
383.80	1181.97
384.00	1128.14
384.19	1046.22
384.39	1165.59
384.58	1118.78
384.78	1100.05
384.97	1163.25
385.17	1121.12
385.36	1020.47
385.56	1142.18
385.75	1179.63
385.95	1224.10
386.14	1228.78
386.34	1181.97
386.53	1121.12
386.72	1191.33
386.92	1233.46
387.11	1177.29
387.31	1231.12
387.50	1219.42
387.70	1184.31
387.89	1247.51
388.09	1228.78
388.28	1235.80
388.48	1273.25
388.67	1378.58
388.86	1320.06
389.06	1301.34
389.25	1296.66
389.45	1366.87
389.64	1263.89
389.84	1446.45
390.03	1397.30
390.22	1343.47
390.42	1359.85
390.61	1362.19
390.81	1467.52
391.00	1352.83
391.19	1355.17
391.39	1439.43
391.58	1465.18
391.78	1486.24
391.97	1427.73
392.16	1479.22
392.36	1584.54
392.55	1535.39
392.75	1490.92
392.94	1554.12
393.13	1479.22
393.33	1530.71
393.52	1516.67
393.71	1650.08
393.91	1565.82
394.10	1586.88
394.29	1645.40
394.49	1558.80
394.68	1631.35
394.88	1521.35
395.07	1692.21
395.26	1739.02
395.46	1753.06
395.65	1659.44
395.84	1739.02
396.04	1767.10
396.23	1785.83
396.42	1715.61
396.62	1750.72
396.81	1687.53
397.00	1769.44
397.19	1877.11
397.39	1788.17
397.58	1839.66
397.77	1732.00
397.97	1839.66
398.16	1919.24
398.35	1919.24
398.55	1902.86
398.74	1961.37
398.93	1940.30
399.12	1952.01
399.32	1928.60
399.51	1954.35
399.70	2050.31
399.90	1884.13
400.09	1987.11
400.28	1987.11
400.47	2005.84
400.67	2136.91
400.86	2019.88
401.05	2059.67
401.24	2036.27
401.44	2258.62
401.63	2218.83
401.82	2139.25
402.01	2181.38
402.21	2214.15
402.40	2174.36
402.59	2113.50
402.78	2204.78
402.97	2195.42
403.17	2225.85
403.36	2298.41
403.55	2333.51
403.74	2396.71
403.93	2237.55
404.13	2455.22
404.32	2293.72
404.51	2370.96
404.70	2424.80
404.89	2361.60
405.09	2462.24
405.28	2394.37
405.47	2473.95
405.66	2455.22
405.85	2572.25
406.05	2520.76
406.24	2520.76
406.43	2476.29
406.62	2586.29
406.81	2579.27
407.00	2602.68
407.20	2656.51
407.39	2544.16
407.58	2724.38
407.77	2829.71
407.96	2766.51
408.15	2764.17
408.34	2602.68
408.54	2705.66
408.73	2897.58
408.92	2832.05
409.11	2850.77
409.30	2806.30
409.49	3005.25
409.68	2834.39
409.87	2885.88
410.07	2991.20
410.26	3059.08
410.45	2918.65
410.64	2958.44
410.83	2981.84
411.02	3103.55
411.21	3152.70
411.40	3241.64
411.59	3166.74
411.78	3201.85
411.98	3286.11
412.17	3325.90
412.36	3318.88
412.55	3377.39
412.74	3342.28
412.93	3405.48
413.12	3274.41
413.31	3543.57
413.50	3372.71
413.69	3342.28
413.88	3515.48
414.07	3597.40
414.26	3606.77
414.45	3815.07
414.64	3749.54
414.83	3742.52
415.02	3728.47
415.22	3899.33
415.41	3850.18
415.60	3803.37
415.79	3686.34
415.98	3992.95
416.17	4030.40
416.36	4039.76
416.55	3974.23
416.74	4117.00
416.93	4161.47
417.12	4058.49
417.31	4173.18
417.50	4229.35
417.69	4285.52
417.88	4189.56
418.07	4217.65
418.26	4292.54
418.45	4128.70
418.64	4564.04
418.83	4369.78
419.02	4489.15
419.21	4367.44
419.39	4615.54
419.58	4620.22
419.77	4510.21
419.96	4620.22
420.15	4617.88
420.34	4545.32
420.53	4650.64
420.72	4594.47
420.91	4674.05
421.10	4596.81
421.29	4894.06
421.48	4734.90
421.67	4784.06
421.86	4727.88
422.05	4739.58
422.24	4821.50
422.43	4718.52
422.61	4896.40
422.80	4922.15
422.99	4908.10
423.18	4833.21
423.37	5011.09
423.56	5029.81
423.75	4908.10
423.94	4917.47
424.13	4638.94
424.32	4744.27
424.50	5081.30
424.69	5221.74
424.88	5109.39
425.07	4821.50
425.26	4915.12
425.45	4891.72
425.64	4851.93
425.83	4966.62
426.01	5109.39
426.20	5100.03
426.39	5142.16
426.58	4980.66
426.77	5008.75
426.96	5128.11
427.15	5165.56
427.33	5104.71
427.52	5191.31
427.71	5153.86
427.90	5217.05
428.09	5240.46
428.28	5401.96
428.46	5334.08
428.65	5303.65
428.84	5460.47
429.03	5633.67
429.22	5380.89
429.40	5432.38
429.59	5343.44
429.78	5233.44
429.97	5203.01
430.16	5469.83
430.34	5565.79
430.53	5614.95
430.72	5696.86
430.91	5624.31
431.10	5582.18
431.28	5633.67
431.47	5724.95
431.66	5830.27
431.85	5827.93
432.03	5731.97
432.22	5977.73
432.41	5900.49
432.60	5916.87
432.79	6005.81
432.97	6064.33
433.16	5994.11
433.35	5989.43
433.54	6204.76
433.72	6043.26
433.91	6005.81
434.10	6129.86
434.28	6183.70
434.47	6146.25
434.66	6235.19
434.85	6200.08
435.03	6352.21
435.22	6284.34
435.41	6370.94
435.59	6296.04
435.78	6485.62
435.97	6441.15
436.16	6434.13
436.34	6324.13
436.53	6403.71
436.72	6736.06
436.90	6361.58
437.09	6478.60
437.28	6429.45
437.46	6532.44
437.65	6789.89
437.84	6717.34
438.02	6766.49
438.21	6902.24
438.40	6686.91
438.58	7084.80
438.77	7016.93
438.96	6927.99
439.14	7131.61
439.33	6988.84
439.52	7117.57
439.70	6986.50
439.89	7325.88
440.08	7248.64
440.26	7330.56
440.45	7248.64
440.63	7644.19
440.82	7487.37
441.01	7379.71
441.19	7660.57
441.38	7744.83
441.57	7707.38
441.75	7583.34
441.94	7960.16
442.12	7716.75
442.31	8114.64
442.50	7978.89
442.68	7836.11
442.87	7936.76
443.05	8095.91
443.24	8098.25
443.43	8016.33
443.61	7925.05
443.80	8629.56
443.98	7922.71
444.17	7726.11
444.35	8222.30
444.54	8262.09
444.73	8374.44
444.91	8217.62
445.10	8402.52
445.28	8191.88
445.47	8428.27
445.65	8226.98
445.84	8411.89
446.02	8383.80
446.21	8561.68
446.39	8575.72
446.58	8430.61
446.77	8439.97
446.95	8219.96
447.14	8372.10
447.32	8573.38
447.51	8549.98
447.69	8210.60
447.88	8477.42
448.06	8379.12
448.25	8400.18
448.43	8629.56
448.62	8596.79
448.80	8442.31
448.99	8585.08
449.17	8723.18
449.36	8535.93
449.54	8828.50
449.73	8842.54
449.91	9069.58
450.10	8877.65
450.28	9104.68
450.46	8884.67
450.65	8933.82
450.83	9004.04
451.02	8844.88
451.20	9170.22
451.39	9142.13
451.57	9181.92
451.76	9039.15
451.94	9226.39
452.13	9474.49
452.31	9369.16
452.49	9022.77
452.68	9334.06
452.86	9284.91
453.05	9397.25
453.23	9582.15
453.42	9366.82
453.60	9535.34
453.78	9514.28
453.97	9341.08
454.15	9528.32
454.34	9362.14
454.52	9561.09
454.70	9741.31
454.89	9694.50
455.07	9734.29
455.26	10024.51
455.44	9970.68
455.62	9799.82
455.81	9771.74
455.99	10104.09
456.17	10052.60
456.36	10064.30
456.54	10129.84
456.73	10300.70
456.91	10485.60
457.09	10289.00
457.28	10602.63
457.46	10115.80
457.64	10527.73
457.83	10415.38
458.01	10274.95
458.19	10574.54
458.38	10452.83
458.56	10532.41
458.74	10525.39
458.93	10595.61
459.11	10504.32
459.29	10691.57
459.48	10778.17
459.66	10775.83
459.84	10588.58
460.03	10937.32
460.21	11030.94
460.39	10747.74
460.57	10932.64
460.76	11159.67
460.94	11082.44
461.12	11328.19
461.31	11119.89
461.49	10949.03
461.67	11063.71
461.85	11508.41
462.04	11405.43
462.22	11709.70
462.40	11620.76
462.59	11283.72
462.77	11637.14
462.95	11538.84
463.13	11674.59
463.32	11407.77
463.50	11796.30
463.68	11737.79
463.86	11810.34
464.05	11562.25
464.23	11604.38
464.41	11939.07
464.59	11658.21
464.78	12030.35
464.96	12023.33
465.14	12018.65
465.32	12175.47
465.50	12063.12
465.69	12046.74
465.87	11925.03
466.05	12166.10
466.23	12025.67
466.41	12210.57
466.60	12341.64
466.78	11885.24
466.96	12215.26
467.14	12035.03
467.32	12388.46
467.51	12542.93
467.69	12285.47
467.87	12217.60
468.05	12510.16
468.23	12189.51
468.41	12313.56
468.60	12360.37
468.78	12769.96
468.96	12549.95
469.14	12856.56
469.32	13102.32
469.50	12547.61
469.69	12915.08
469.87	13001.68
470.05	12947.84
470.23	13022.74
470.41	13095.30
470.59	13209.98
470.77	13109.34
470.95	13167.85
471.14	13324.67
471.32	12924.44
471.50	13628.94
471.68	13668.73
471.86	13565.74
472.04	13411.27
472.22	13944.91
472.40	13544.68
472.58	13750.65
472.77	13626.60
472.95	14029.17
473.13	14436.42
473.31	14092.37
473.49	14094.71
473.67	14066.62
473.85	14356.85
474.03	14614.30
474.21	14485.58
474.39	14803.89
474.57	14633.03
474.75	14782.82
474.93	14824.95
475.12	14745.38
475.30	15133.90
475.48	14782.82
475.66	15098.80
475.84	15115.18
476.02	15311.78
476.20	15288.38
476.38	15602.01
476.56	15803.30
476.74	15735.42
476.92	15658.18
477.10	15721.38
477.28	16114.59
477.46	16109.91
477.64	16311.19
477.82	16617.80
478.00	16662.27
478.18	16908.03
478.36	17177.19
478.54	17043.78
478.72	17116.34
478.90	17315.28
479.08	17542.32
479.26	17584.44
479.44	17841.90
479.62	17762.33
479.80	17965.95
479.98	18209.37
480.16	18200.01
480.34	18532.36
480.52	18621.30
480.70	18803.86
480.88	18347.46
481.06	18593.22
481.24	18787.48
481.41	19129.20
481.59	19403.04
481.77	19484.96
481.95	19468.58
482.13	19805.61
482.31	19660.50
482.49	20318.19
482.67	20123.93
482.85	20369.68
483.03	20699.70
483.21	20858.85
483.39	20601.40
483.57	20779.28
483.74	21085.89
483.92	21270.79
484.10	21202.91
484.28	21769.32
484.46	21958.91
484.64	22174.24
484.82	21785.71
485.00	22307.65
485.18	22546.38
485.35	23255.56
485.53	22668.09
485.71	22960.66
485.89	23271.95
486.07	23042.57
486.25	23522.38
486.43	23346.84
486.61	23840.70
486.78	23915.59
486.96	24428.17
487.14	24449.24
487.32	24304.12
487.50	24622.44
487.68	24774.57
487.85	25174.80
488.03	25612.48
488.21	25818.45
488.39	25420.56
488.57	26057.18
488.75	26045.48
488.92	26356.77
489.10	26581.46
489.28	26757.00
489.46	26918.50
489.64	26923.18
489.81	27608.96
489.99	27608.96
490.17	27536.40
490.35	27988.13
490.53	28133.24
490.70	28294.74
490.88	28203.46
491.06	28474.96
491.24	28957.11
491.41	29083.50
491.59	29102.22
491.77	29340.96
491.95	29516.50
492.13	30029.07
492.30	29729.48
492.48	29780.98
492.66	30323.98
492.84	30288.87
493.01	30642.29
493.19	30375.47
493.37	31234.45
493.54	30829.54
493.72	31105.72
493.90	31182.96
494.08	31630.00
494.25	31922.57
494.43	31740.00
494.61	32123.85
494.79	32313.44
494.96	32617.71
495.14	32343.86
495.32	32844.74
495.49	32797.93
495.67	33490.73
495.85	33127.94
496.02	33617.11
496.20	33893.30
496.38	33895.64
496.55	33879.25
496.73	34705.46
496.91	34394.17
497.09	34410.56
497.26	34857.60
497.44	34492.47
497.62	34763.98
497.79	35573.80
497.97	35599.55
498.14	35625.29
498.32	35835.94
498.50	36224.47
498.67	36598.96
498.85	36154.26
499.03	36165.96
499.20	36549.81
499.38	36580.23
499.56	36147.23
499.73	36451.50
499.91	37219.20
500.08	37263.67
500.26	37074.09
500.44	37471.98
500.61	37404.10
500.79	37933.06
500.97	37975.19
501.14	38366.06
501.32	38450.32
501.49	37919.02
501.67	38422.23
501.84	38806.08
502.02	38836.51
502.20	38878.64
502.37	39075.24
502.55	39203.97
502.72	39459.09
502.90	39356.11
503.07	39445.05
503.25	39824.22
503.43	39765.70
503.60	39800.81
503.78	40030.18
503.95	40236.15
504.13	40271.26
504.30	40662.13
504.48	40348.50
504.65	40645.74
504.83	40711.28
505.01	40835.33
505.18	40971.08
505.36	41317.48
505.53	40964.06
505.71	41668.56
505.88	41624.09
506.06	41045.97
506.23	41940.06
506.41	41902.61
506.58	41996.23
506.76	42150.71
506.93	42227.95
507.11	42408.17
507.28	42389.44
507.46	42487.74
507.63	42555.62
507.81	42794.36
507.98	42625.84
508.16	43047.13
508.33	43157.14
508.50	43215.65
508.68	43428.64
508.85	43662.69
509.03	43672.06
509.20	44060.58
509.38	44280.60
509.55	43810.15
509.73	44215.06
509.90	44154.21
510.08	44374.22
510.25	44507.63
510.42	44318.04
510.60	45045.95
510.77	44903.18
510.95	45282.34
511.12	44669.12
511.30	45413.41
511.47	45504.70
511.64	45717.68
511.82	45509.38
511.99	45713.00
512.17	45654.49
512.34	45855.78
512.51	46127.28
512.69	46632.83
512.86	46232.60
513.04	46396.44
513.21	46321.54
513.38	46412.82
513.56	46899.65
513.73	46525.17
513.90	46925.40
514.08	46817.74
514.25	46986.25
514.43	47140.73
514.60	47496.49
514.77	46864.55
514.95	47653.31
515.12	47250.74
515.29	47152.43
515.47	47892.04
515.64	47508.19
515.81	48009.07
515.99	47924.81
516.16	48149.50
516.33	47828.85
516.51	48596.54
516.68	48280.57
516.85	48236.10
517.03	48411.64
517.20	48830.60
517.37	48566.12
517.54	49106.78
517.72	48851.66
517.89	48744.00
518.06	49249.55
518.24	48961.67
518.41	48968.69
518.58	49174.66
518.75	49485.95
518.93	49425.09
519.10	49404.03
519.27	49771.49
519.45	49635.74
519.62	49694.25
519.79	49659.15
519.96	49909.58
520.14	49930.65
520.31	49970.44
520.48	50260.66
520.65	50284.07
520.83	50581.32
521.00	50684.30
521.17	50239.60
521.34	50426.84
521.52	50485.36
521.69	50719.41
521.86	50712.39
522.03	51033.04
522.20	51250.71
522.38	51519.87
522.55	51274.12
522.72	51208.58
522.89	51363.06
523.07	51679.03
523.24	51203.90
523.41	51833.50
523.58	50916.01
523.75	51805.42
523.92	51664.99
524.10	51859.25
524.27	51976.28
524.44	51653.28
524.61	51753.93
524.78	52102.67
524.96	52170.54
525.13	52243.10
525.30	51805.42
525.47	52528.64
525.64	52126.07
525.81	52327.36
525.98	52423.32
526.16	52640.99
526.33	52428.00
526.50	52786.10
526.67	52411.62
526.84	52516.94
527.01	52814.19
527.18	52666.73
527.36	52914.83
527.53	52788.44
527.70	53179.31
527.87	53183.99
528.04	53090.37
528.21	53420.39
528.38	53207.40
528.55	53396.98
528.72	53183.99
528.89	53277.61
529.07	53263.57
529.24	53350.17
529.41	53680.19
529.58	53502.31
529.75	53560.82
529.92	53429.75
530.09	53633.38
530.26	54082.76
530.43	53595.93
530.60	53666.14
530.77	53738.70
530.94	54230.21
531.11	53752.74
531.28	54274.68
531.46	54035.95
531.63	54061.69
531.80	53970.41
531.97	54361.28
532.14	54330.86
532.31	54181.06
532.48	54436.18
532.65	54642.15
532.82	54419.80
532.99	54464.27
533.16	54541.50
533.33	54700.66
533.50	54869.18
533.67	54553.21
533.84	54555.55
534.01	54894.92
534.18	54848.11
534.35	55007.27
534.52	54951.10
534.69	55004.93
534.86	55077.49
535.03	54941.74
535.20	55086.85
535.37	55070.46
535.54	55278.77
535.71	55002.59
535.88	55168.77
536.05	55341.97
536.22	55426.23
536.38	55449.63
536.55	55306.86
536.72	55482.40
536.89	55325.58
537.06	55374.73
537.23	55796.03
537.40	55664.96
537.57	55477.72
537.74	55519.85
537.91	55882.63
538.08	55810.07
538.25	55540.91
538.42	55920.08
538.59	56011.36
538.75	55824.12
538.92	55791.35
539.09	56245.41
539.26	55957.53
539.43	56186.90
539.60	56044.13
539.77	56154.13
539.94	56465.42
540.11	56343.72
540.28	56334.35
540.44	56219.67
540.61	56179.88
540.78	56102.64
540.95	56090.94
541.12	56367.12
541.29	56170.52
541.46	56526.28
541.62	56640.96
541.79	56481.81
541.96	56320.31
542.13	56617.56
542.30	56296.91
542.47	56863.32
542.63	56898.42
542.80	56804.80
542.97	56898.42
543.14	57106.73
543.31	57024.81
543.48	57200.35
543.64	57432.07
543.81	57326.74
543.98	57113.75
544.15	57038.86
544.32	57277.59
544.48	57392.28
544.65	57256.53
544.82	57279.93
544.99	57230.78
545.16	57488.24
545.32	57270.57
545.49	57710.59
545.66	57602.92
545.83	57556.11
546.00	57535.05
546.16	57640.37
546.33	57476.54
546.50	57439.09
546.67	57733.99
546.83	57308.02
547.00	57698.89
547.17	57944.64
547.34	57736.34
547.50	57911.88
547.67	57862.72
547.84	57972.73
548.00	58059.33
548.17	58129.54
548.34	57991.45
548.51	57879.11
548.67	58056.99
548.84	57954.00
549.01	58028.90
549.18	58155.29
549.34	57993.79
549.51	58220.83
549.68	58138.91
549.84	58372.96
550.01	58178.70
550.18	58059.33
550.34	58258.27
550.51	58267.64
550.68	58302.74
550.84	58127.20
551.01	58445.52
551.18	58489.99
551.34	58347.21
551.51	58532.12
551.68	58494.67
551.84	58607.01
552.01	58312.11
552.18	58555.52
552.34	58398.71
552.51	58408.07
552.68	58604.67
552.84	58499.35
553.01	58925.33
553.18	58770.85
553.34	58653.82
553.51	58866.81
553.67	58604.67
553.84	58822.34
554.01	59021.29
554.17	58981.50
554.34	58976.82
554.51	58974.48
554.67	59025.97
554.84	59016.61
555.00	58911.28
555.17	58897.24
555.33	58866.81
555.50	58920.65
555.67	58913.62
555.83	58958.09
556.00	58976.82
556.16	59318.54
556.33	59306.83
556.50	59243.64
556.66	59306.83
556.83	59112.57
556.99	59281.09
557.16	59456.63
557.32	59274.07
557.49	59487.06
557.65	59213.21
557.82	59288.11
557.98	59381.73
558.15	59503.44
558.32	59313.86
558.48	59367.69
558.65	59320.88
558.81	59636.85
558.98	59494.08
559.14	59629.83
559.31	59381.73
559.47	59480.03
559.64	59594.72
559.80	59386.41
559.97	59594.72
560.13	59484.72
560.30	59604.08
560.46	59604.08
560.63	59714.09
560.79	59388.75
560.96	59650.89
561.12	59690.68
561.29	59908.35
561.45	59650.89
561.61	59739.83
561.78	59711.75
561.94	59604.08
562.11	59662.60
562.27	59749.20
562.44	59751.54
562.60	59784.30
562.77	59910.69
562.93	59693.02
563.10	59898.99
563.26	59948.14
563.42	60088.57
563.59	59833.46
563.75	59969.21
563.92	60067.51
564.08	59929.42
564.24	59971.55
564.41	59725.79
564.57	59980.91
564.74	59866.22
564.90	59936.44
565.07	59964.52
565.23	59896.65
565.39	59973.89
565.56	60278.16
565.72	59835.80
565.88	60023.04
566.05	60229.01
566.21	60123.68
566.38	60144.75
566.54	60076.87
566.70	60261.77
566.87	60294.54
567.03	60182.19
567.19	60236.03
567.36	60163.47
567.52	60179.85
567.68	60512.21
567.85	60207.94
568.01	60341.35
568.17	60205.60
568.34	60392.84
568.50	60214.96
568.66	60385.82
568.83	60280.50
568.99	60116.66
569.15	60523.91
569.32	60362.42
569.48	60261.77
569.64	60383.48
569.81	60254.75
569.97	60189.22
570.13	60388.16
570.30	60341.35
570.46	60547.32
570.62	60397.52
570.78	60350.71
570.95	60322.63
571.11	60549.66
571.27	60324.97
571.43	60388.16
571.60	60463.06
571.76	60434.97
571.92	60570.72
572.09	60406.89
572.25	60451.36
572.41	60533.28
572.57	60636.26
572.74	60631.58
572.90	60594.13
573.06	60416.25
573.22	60631.58
573.38	60622.22
573.55	60591.79
573.71	60816.48
573.87	60708.82
574.03	60647.96
574.20	60596.47
574.36	60643.28
574.52	60528.59
574.68	60755.63
574.84	60662.00
575.01	60713.50
575.17	60580.09
575.33	60640.94
575.49	60523.91
575.65	60631.58
575.82	60650.30
575.98	60605.83
576.14	60903.08
576.30	60605.83
576.46	60619.88
576.62	60523.91
576.79	60514.55
576.95	60535.62
577.11	60687.75
577.27	60804.78
577.43	60441.99
577.59	60769.67
577.75	60701.79
577.92	60713.50
578.08	60577.75
578.24	60853.93
578.40	60942.87
578.56	60931.17
578.72	60706.47
578.88	60956.91
579.04	60903.08
579.21	60814.14
579.37	60835.20
579.53	60783.71
579.69	60631.58
579.85	60631.58
580.01	60743.92
580.17	60587.11
580.33	60708.82
580.49	60818.82
580.65	60809.46
580.82	60704.13
580.98	60732.22
581.14	60767.33
581.30	61090.32
581.46	60896.06
581.62	60781.37
581.78	60739.24
581.94	60692.43
582.10	60685.41
582.26	60921.80
582.42	60837.54
582.58	61013.08
582.74	60860.95
582.90	60807.12
583.06	60896.06
583.22	60516.89
583.38	60779.03
583.54	60708.82
583.70	60879.67
583.86	60989.68
584.02	60846.91
584.18	60928.83
584.34	61066.92
584.50	60837.54
584.66	60804.78
584.82	60680.73
584.98	61003.72
585.14	60912.44
585.30	60804.78
585.46	60973.30
585.62	60865.63
585.78	61001.38
585.94	60734.56
586.10	60959.25
586.26	60977.98
586.42	60907.76
586.58	60924.14
586.74	61020.11
586.90	60804.78
587.06	60989.68
587.22	61113.73
587.38	60863.29
587.54	61146.50
587.70	60996.70
587.86	61059.90
588.02	60860.95
588.18	61034.15
588.34	60776.69
588.49	60945.21
