SpectraSuite Data File
++++++++++++++++++++++++++++++++++++
Date: Fri Oct 25 11:34:49 EDT 2013
User: price-jones
Dark Spectrum Present: No
Reference Spectrum Present: No
Number of Sampled Component Spectra: 1
Spectrometers: USB2+H05261
Integration Time (usec): 100000 (USB2+H05261)
Spectra Averaged: 1 (USB2+H05261)
Boxcar Smoothing: 0 (USB2+H05261)
Correct for Electrical Dark: No (USB2+H05261)
Strobe/Lamp Enabled: No (USB2+H05261)
Correct for Detector Non-linearity: No (USB2+H05261)
Correct for Stray Light: No (USB2+H05261)
Number of Pixels in Processed Spectrum: 2048
>>>>>Begin Processed Spectral Data<<<<<
365.73	266.82
365.92	266.82
366.12	266.82
366.32	196.60
366.52	175.54
366.72	194.26
366.91	217.67
367.11	187.24
367.31	205.97
367.51	210.65
367.70	238.73
367.90	166.18
368.10	189.58
368.30	234.05
368.49	241.08
368.69	208.31
368.89	173.20
369.09	220.01
369.28	243.42
369.48	208.31
369.68	257.46
369.87	196.60
370.07	243.42
370.27	287.89
370.47	262.14
370.66	507.90
370.86	454.06
371.06	566.41
371.25	531.30
371.45	486.83
371.65	587.47
371.84	580.45
372.04	559.39
372.24	533.64
372.44	547.69
372.63	545.34
372.83	575.77
373.03	608.54
373.22	568.75
373.42	629.60
373.62	535.98
373.81	594.50
374.01	608.54
374.21	631.94
374.40	599.18
374.60	669.39
374.79	566.41
374.99	601.52
375.19	660.03
375.38	688.12
375.58	631.94
375.78	713.86
375.97	671.73
376.17	650.67
376.37	669.39
376.56	678.76
376.76	657.69
376.95	660.03
377.15	662.37
377.35	655.35
377.54	683.44
377.74	685.78
377.93	629.60
378.13	650.67
378.33	763.01
378.52	732.59
378.72	727.91
378.91	699.82
379.11	671.73
379.31	713.86
379.50	685.78
379.70	711.52
379.89	784.08
380.09	678.76
380.28	711.52
380.48	716.20
380.68	755.99
380.87	711.52
381.07	814.51
381.26	695.14
381.46	767.70
381.65	774.72
381.85	692.80
382.04	741.95
382.24	706.84
382.43	786.42
382.63	781.74
382.83	861.32
383.02	793.44
383.22	758.33
383.41	751.31
383.61	739.61
383.80	844.93
384.00	791.10
384.19	870.68
384.39	772.38
384.58	737.27
384.78	903.45
384.97	767.70
385.17	854.30
385.36	816.85
385.56	814.51
385.75	858.98
385.95	840.25
386.14	868.34
386.34	800.46
386.53	844.93
386.72	786.42
386.92	826.21
387.11	882.38
387.31	915.15
387.50	858.98
387.70	915.15
387.89	842.59
388.09	887.06
388.28	936.21
388.48	863.66
388.67	926.85
388.86	826.21
389.06	922.17
389.25	896.43
389.45	922.17
389.64	954.94
389.84	954.94
390.03	903.45
390.22	854.30
390.42	983.02
390.61	908.13
390.81	938.55
391.00	931.53
391.19	1013.45
391.39	917.49
391.58	971.32
391.78	966.64
391.97	1015.79
392.16	1057.92
392.36	1029.84
392.55	924.51
392.75	997.07
392.94	997.07
393.13	980.68
393.33	943.24
393.52	1041.54
393.71	1060.26
393.91	1086.01
394.10	1046.22
394.29	1102.39
394.49	985.37
394.68	1053.24
394.88	994.73
395.07	1029.84
395.26	1177.29
395.46	1181.97
395.65	1174.95
395.84	1149.20
396.04	1184.31
396.23	1205.38
396.42	1179.63
396.62	1093.03
396.81	1196.01
397.00	1128.14
397.19	1198.35
397.39	1135.16
397.58	1259.21
397.77	1233.46
397.97	1179.63
398.16	1200.69
398.35	1214.74
398.55	1228.78
398.74	1226.44
398.93	1263.89
399.12	1273.25
399.32	1273.25
399.51	1221.76
399.70	1266.23
399.90	1266.23
400.09	1336.45
400.28	1352.83
400.47	1289.64
400.67	1399.64
400.86	1345.81
401.05	1427.73
401.24	1310.70
401.44	1397.30
401.63	1399.64
401.82	1380.92
402.01	1432.41
402.21	1434.75
402.40	1411.34
402.59	1380.92
402.78	1401.98
402.97	1502.62
403.17	1451.13
403.36	1488.58
403.55	1486.24
403.74	1493.26
403.93	1511.99
404.13	1607.95
404.32	1509.65
404.51	1572.84
404.70	1657.10
404.89	1481.56
405.09	1668.80
405.28	1584.54
405.47	1549.43
405.66	1596.25
405.85	1736.68
406.05	1617.31
406.24	1542.41
406.43	1659.44
406.62	1610.29
406.81	1673.48
407.00	1600.93
407.20	1647.74
407.39	1760.08
407.58	1769.44
407.77	1706.25
407.96	1724.97
408.15	1692.21
408.34	1753.06
408.54	1825.62
408.73	1827.96
408.92	1905.20
409.11	1825.62
409.30	1884.13
409.49	1870.09
409.68	1872.43
409.87	1874.77
410.07	1858.39
410.26	1977.75
410.45	1926.26
410.64	1914.56
410.83	2036.27
411.02	2054.99
411.21	2186.06
411.40	2120.53
411.59	2225.85
411.78	2017.54
411.98	2054.99
412.17	2005.84
412.36	2052.65
412.55	2172.02
412.74	2193.08
412.93	2246.91
413.12	2197.76
413.31	2375.64
413.50	2267.98
413.69	2195.42
413.88	2312.45
414.07	2356.92
414.26	2279.68
414.45	2415.43
414.64	2408.41
414.83	2422.45
415.02	2387.35
415.22	2331.17
415.41	2525.44
415.60	2532.46
415.79	2478.63
415.98	2516.08
416.17	2553.52
416.36	2633.10
416.55	2628.42
416.74	2607.36
416.93	2654.17
417.12	2754.81
417.31	2675.23
417.50	2794.60
417.69	2813.32
417.88	2818.00
418.07	2829.71
418.26	2693.96
418.45	2841.41
418.64	2853.11
418.83	2906.95
419.02	2902.26
419.21	2937.37
419.39	3056.74
419.58	3052.06
419.77	2890.56
419.96	2986.52
420.15	3021.63
420.34	2918.65
420.53	3014.61
420.72	3066.10
420.91	2946.73
421.10	3030.99
421.29	2963.12
421.48	3042.70
421.67	3199.51
421.86	3126.96
422.05	3075.46
422.24	3159.72
422.43	3098.87
422.61	3178.45
422.80	3286.11
422.99	3183.13
423.18	3403.14
423.37	3239.30
423.56	3309.52
423.75	3234.62
423.94	3126.96
424.13	3063.76
424.32	3038.02
424.50	3206.53
424.69	3332.92
424.88	3297.81
425.07	3337.60
425.26	3229.94
425.45	3178.45
425.64	3204.19
425.83	3255.69
426.01	3302.50
426.20	3232.28
426.39	3293.13
426.58	3262.71
426.77	3365.69
426.96	3213.56
427.15	3229.94
427.33	3471.01
427.52	3248.66
427.71	3445.27
427.90	3375.05
428.09	3510.80
428.28	3463.99
428.46	3459.31
428.65	3471.01
428.84	3655.92
429.03	3653.58
429.22	3456.97
429.40	3534.21
429.59	3698.05
429.78	3403.14
429.97	3342.28
430.16	3529.53
430.34	3559.95
430.53	3630.17
430.72	3655.92
430.91	3742.52
431.10	3581.02
431.28	3702.73
431.47	3735.50
431.66	3620.81
431.85	3742.52
432.03	3768.26
432.22	3911.04
432.41	3765.92
432.60	3901.67
432.79	3824.44
432.97	3953.16
433.16	3889.97
433.35	3829.12
433.54	3911.04
433.72	4098.28
433.91	3875.93
434.10	3934.44
434.28	3953.16
434.47	4030.40
434.66	4004.66
434.85	4007.00
435.03	3995.29
435.22	3995.29
435.41	4177.86
435.59	4170.83
435.78	4156.79
435.97	4105.30
436.16	4229.35
436.34	4201.26
436.53	4313.61
436.72	4325.31
436.90	4053.81
437.09	4219.99
437.28	4170.83
437.46	4269.14
437.65	4180.20
437.84	4418.93
438.02	4355.74
438.21	4423.61
438.40	4203.60
438.58	4341.69
438.77	4411.91
438.96	4432.97
439.14	4683.41
439.33	4617.88
439.52	4685.75
439.70	4608.51
439.89	4802.78
440.08	4936.19
440.26	4744.27
440.45	4636.60
440.63	4795.76
440.82	4975.98
441.01	4849.59
441.19	4798.10
441.38	4992.36
441.57	4975.98
441.75	5004.07
441.94	5100.03
442.12	5146.84
442.31	5172.58
442.50	5205.35
442.68	5104.71
442.87	5128.11
443.05	5205.35
443.24	5305.99
443.43	5224.08
443.61	5167.90
443.80	5387.91
443.98	5205.35
444.17	4971.30
444.35	5226.42
444.54	5242.80
444.73	5413.66
444.91	5408.98
445.10	5359.83
445.28	5362.17
445.47	5338.76
445.65	5359.83
445.84	5310.68
446.02	5390.25
446.21	5380.89
446.39	5245.14
446.58	5511.96
446.77	5444.09
446.95	5385.57
447.14	5331.74
447.32	5343.44
447.51	5533.03
447.69	5626.65
447.88	5542.39
448.06	5411.32
448.25	5460.47
448.43	5420.68
448.62	5469.83
448.80	5502.60
448.99	5472.17
449.17	5736.65
449.36	5479.19
449.54	5659.42
449.73	5682.82
449.91	5727.29
450.10	5638.35
450.28	5809.21
450.46	5626.65
450.65	5760.06
450.83	5944.96
451.02	5891.13
451.20	5870.06
451.39	5724.95
451.57	5785.80
451.76	5846.66
451.94	5881.77
452.13	5961.34
452.31	5879.43
452.49	5729.63
452.68	5980.07
452.86	5959.00
453.05	6122.84
453.23	5996.45
453.42	5996.45
453.60	5968.37
453.78	6015.18
453.97	5959.00
454.15	6010.50
454.34	5914.53
454.52	6050.28
454.70	6202.42
454.89	6232.85
455.07	6333.49
455.26	6146.25
455.44	6380.30
455.62	6413.07
455.81	6289.02
455.99	6373.28
456.17	6347.53
456.36	6244.55
456.54	6436.47
456.73	6429.45
456.91	6698.61
457.09	6590.95
457.28	6647.12
457.46	6527.75
457.64	6808.62
457.83	6518.39
458.01	6614.35
458.19	6827.34
458.38	6679.89
458.56	6715.00
458.74	6789.89
458.93	6738.40
459.11	6853.09
459.29	6759.47
459.48	6738.40
459.66	6883.52
459.84	6902.24
460.03	7000.54
460.21	6895.22
460.39	6913.94
460.57	7016.93
460.76	7192.47
460.94	7045.01
461.12	7119.91
461.31	7103.53
461.49	7063.74
461.67	7150.34
461.85	7133.95
462.04	7159.70
462.22	7407.80
462.40	7218.21
462.59	7410.14
462.77	7297.79
462.95	7410.14
463.13	7339.92
463.32	7318.86
463.50	7370.35
463.68	7307.15
463.86	7510.78
464.05	7611.42
464.23	7424.18
464.41	7555.25
464.59	7391.41
464.78	7691.00
464.96	7480.35
465.14	7328.22
465.32	7604.40
465.50	7531.84
465.69	7744.83
465.87	7597.38
466.05	7634.83
466.23	7705.04
466.41	7691.00
466.60	7709.72
466.78	7529.50
466.96	7857.18
467.14	7672.28
467.32	7887.61
467.51	7775.26
467.69	7733.13
467.87	7925.05
468.05	7793.98
468.23	7700.36
468.41	7747.17
468.60	7950.80
468.78	7887.61
468.96	7751.85
469.14	7983.57
469.32	8217.62
469.50	7997.61
469.69	8243.37
469.87	8215.28
470.05	8262.09
470.23	8168.47
470.41	8421.25
470.59	8311.24
470.77	8175.49
470.95	8421.25
471.14	8465.72
471.32	8365.07
471.50	8446.99
471.68	8425.93
471.86	8542.96
472.04	8718.50
472.22	8807.44
472.40	8697.43
472.58	8559.34
472.77	8917.44
472.95	8835.52
473.13	9142.13
473.31	8805.10
473.49	8987.66
473.67	8982.98
473.85	9015.74
474.03	9240.44
474.21	9013.40
474.39	9252.14
474.57	9228.73
474.75	9270.86
474.93	9404.27
475.12	9451.08
475.30	9320.01
475.48	9235.75
475.66	9617.26
475.84	9467.47
476.02	9848.97
476.20	9610.24
476.38	9813.87
476.56	9914.51
476.74	10043.24
476.92	9919.19
477.10	9994.09
477.28	9893.44
477.46	10003.45
477.64	10071.33
477.82	10352.19
478.00	10480.92
478.18	10480.92
478.36	10520.71
478.54	10796.89
478.72	10623.69
478.90	10876.47
479.08	11084.78
479.26	11103.50
479.44	10827.32
479.62	11056.69
479.80	10998.18
479.98	11035.63
480.16	11550.54
480.34	11449.90
480.52	11700.34
480.70	11761.19
480.88	11309.47
481.06	11658.21
481.24	11709.70
481.41	11676.93
481.59	11957.80
481.77	12072.48
481.95	12039.72
482.13	12461.01
482.31	12166.10
482.49	12498.46
482.67	12547.61
482.85	12643.57
483.03	12666.98
483.21	13032.10
483.39	13099.98
483.57	12802.73
483.74	12894.01
483.92	13067.21
484.10	13034.44
484.28	13432.33
484.46	13357.44
484.64	13762.35
484.82	13476.80
485.00	13694.47
485.18	13949.59
485.35	14251.52
485.53	14038.53
485.71	14457.49
485.89	14586.22
486.07	14417.70
486.25	14604.94
486.43	14635.37
486.61	14590.90
486.78	14850.70
486.96	14881.13
487.14	15178.37
487.32	15180.71
487.50	15197.10
487.68	15344.55
487.85	15854.79
488.03	15742.44
488.21	15793.94
488.39	16037.35
488.57	16032.67
488.75	16121.61
488.92	16149.70
489.10	16592.06
489.28	16512.48
489.46	16685.68
489.64	16507.80
489.81	16994.63
489.99	16844.84
490.17	17224.00
490.35	17355.07
490.53	17465.08
490.70	17638.28
490.88	17497.84
491.06	17872.33
491.24	17921.48
491.41	17823.18
491.59	17851.27
491.77	17652.32
491.95	18064.25
492.13	18377.89
492.30	18366.18
492.48	18352.14
492.66	18633.00
492.84	18555.77
493.01	18906.85
493.19	18916.21
493.37	19028.56
493.54	18855.36
493.72	19208.78
493.90	19377.30
494.08	19433.47
494.25	19484.96
494.43	19749.44
494.61	19962.43
494.79	20095.84
494.96	19950.73
495.14	20231.59
495.32	20510.11
495.49	20238.61
495.67	20540.54
495.85	20514.80
496.02	20898.64
496.20	21076.52
496.38	20903.32
496.55	21088.23
496.73	21448.67
496.91	21179.51
497.09	21429.94
497.26	21582.08
497.44	21401.86
497.62	21748.26
497.79	21902.73
497.97	21874.65
498.14	21986.99
498.32	22078.27
498.50	22146.15
498.67	22520.63
498.85	22768.73
499.03	22506.59
499.20	22513.61
499.38	22717.24
499.56	23051.94
499.73	23000.44
499.91	23056.62
500.08	23168.96
500.26	23145.56
500.44	23201.73
500.61	23470.89
500.79	23241.52
500.97	23683.88
501.14	23833.68
501.32	23651.11
501.49	23924.96
501.67	23557.49
501.84	23941.34
502.02	24006.87
502.20	24102.84
502.37	24210.50
502.55	24414.13
502.72	24102.84
502.90	24650.52
503.07	24224.54
503.25	24540.52
503.43	24596.69
503.60	24697.33
503.78	24980.54
503.95	24870.53
504.13	25226.29
504.30	25111.61
504.48	25039.05
504.65	25504.82
504.83	25338.64
505.01	25284.81
505.18	24912.66
505.36	25565.67
505.53	25724.83
505.71	25322.26
505.88	25759.94
506.06	25862.92
506.23	25703.76
506.41	25549.29
506.58	25809.09
506.76	26064.21
506.93	26590.83
507.11	26146.12
507.28	26349.75
507.46	26314.64
507.63	26438.69
507.81	27005.10
507.98	26415.29
508.16	26529.97
508.33	26700.83
508.50	26611.89
508.68	26717.22
508.85	27028.51
509.03	26911.48
509.20	26689.13
509.38	27112.77
509.55	27360.86
509.73	27222.77
509.90	27819.61
510.08	27419.38
510.25	27480.23
510.42	27725.99
510.60	27798.54
510.77	27824.29
510.95	28166.01
511.12	28238.56
511.30	28060.68
511.47	28222.18
511.64	28222.18
511.82	28842.42
511.99	28201.11
512.17	28694.97
512.34	28503.04
512.51	28816.68
512.69	28755.82
512.86	28919.66
513.04	28903.28
513.21	29032.00
513.38	29308.19
513.56	29088.18
513.73	29120.95
513.90	29261.38
514.08	28823.70
514.25	29427.56
514.43	29528.20
514.60	29504.79
514.77	29558.63
514.95	29944.81
515.12	29766.93
515.29	29656.93
515.47	30087.59
515.64	30017.37
515.81	29830.13
515.99	30230.36
516.16	30300.58
516.33	30277.17
516.51	30558.03
516.68	30501.86
516.85	30817.83
517.03	30609.53
517.20	30766.34
517.37	30567.40
517.54	30560.37
517.72	30345.05
517.89	30651.66
518.06	31117.42
518.24	31211.04
518.41	30998.06
518.58	31459.14
518.75	31091.68
518.93	31178.28
519.10	31346.79
519.27	31257.85
519.45	31728.30
519.62	31606.59
519.79	31646.38
519.96	31651.06
520.14	31735.32
520.31	31409.99
520.48	31751.71
520.65	31660.43
520.83	32327.48
521.00	32325.14
521.17	32308.76
521.34	32503.02
521.52	32381.31
521.69	32486.64
521.86	32606.00
522.03	32290.03
522.20	32531.11
522.38	33008.58
522.55	32407.06
522.72	32606.00
522.89	32982.83
523.07	33141.99
523.24	32830.69
523.41	33134.96
523.58	33078.79
523.75	33500.09
523.92	33214.54
524.10	33392.42
524.27	33546.90
524.44	33460.30
524.61	33759.89
524.78	33233.27
524.96	33420.51
525.13	33916.70
525.30	33776.27
525.47	34040.75
525.64	33834.78
525.81	34094.58
525.98	34099.26
526.16	33944.79
526.33	33900.32
526.50	34185.86
526.67	33832.44
526.84	34321.62
527.01	34146.08
527.18	34658.65
527.36	34401.19
527.53	34455.03
527.70	34419.92
527.87	35049.52
528.04	34878.66
528.21	34866.96
528.38	34808.45
528.55	35047.18
528.72	34590.78
528.89	34920.79
529.07	34382.47
529.24	34492.47
529.41	34983.99
529.58	35267.19
529.75	35140.80
529.92	35335.07
530.09	34981.65
530.26	35388.90
530.43	35515.29
530.60	35227.40
530.77	35161.87
530.94	35335.07
531.11	35702.53
531.28	35765.73
531.46	35578.48
531.63	35665.08
531.80	35555.08
531.97	35505.93
532.14	35679.13
532.31	35466.14
532.48	36051.27
532.65	36495.97
532.82	36287.67
532.99	36271.28
533.16	36486.61
533.33	36596.62
533.50	36297.03
533.67	36332.14
533.84	35981.06
534.01	35873.39
534.18	36505.34
534.35	36935.99
534.52	36694.92
534.69	37282.39
534.86	36992.17
535.03	36718.32
535.20	37029.62
535.37	36886.84
535.54	36884.50
535.71	36933.65
535.88	37184.09
536.05	36748.75
536.22	37235.58
536.38	37392.40
536.55	37029.62
536.72	37146.64
536.89	37460.27
537.06	37626.45
537.23	37893.27
537.40	37043.66
537.57	37329.20
537.74	37273.03
537.91	38012.64
538.08	37661.56
538.25	37184.09
538.42	37600.71
538.59	37720.07
538.75	37509.43
538.92	38174.14
539.09	37984.55
539.26	37914.34
539.43	38000.94
539.60	37944.76
539.77	37996.26
539.94	38604.80
540.11	38588.41
540.28	37944.76
540.44	38239.67
540.61	38113.28
540.78	37713.05
540.95	38539.26
541.12	38045.41
541.29	38192.86
541.46	38665.65
541.62	38618.84
541.79	38944.17
541.96	38120.31
542.13	38939.49
542.30	38520.54
542.47	38644.59
542.63	38501.81
542.80	39086.95
542.97	39377.17
543.14	39529.31
543.31	39349.09
543.48	39466.11
543.64	39824.22
543.81	39225.04
543.98	39634.63
544.15	39047.16
544.32	39871.03
544.48	39913.16
544.65	39651.02
544.82	39955.29
544.99	39880.39
545.16	39667.40
545.32	39880.39
545.49	39782.09
545.66	40245.51
545.83	39903.79
546.00	40444.46
546.16	39735.27
546.33	39653.36
546.50	39536.33
546.67	40051.25
546.83	39786.77
547.00	40154.23
547.17	40032.52
547.34	40339.13
547.50	40376.58
547.67	40341.47
547.84	39962.31
548.00	40456.16
548.17	40692.55
548.34	40339.13
548.51	40608.29
548.67	40947.67
548.84	40788.52
549.01	40528.72
549.18	40568.51
549.34	40446.80
549.51	40865.75
549.68	40795.54
549.84	40699.58
550.01	41045.97
550.18	40215.08
550.34	40509.99
550.51	40601.27
550.68	41155.98
550.84	40692.55
551.01	41258.96
551.18	41071.72
551.34	41053.00
551.51	41165.34
551.68	40975.76
551.84	41050.66
552.01	41062.36
552.18	41301.09
552.34	41446.21
552.51	41207.47
552.68	41116.19
552.84	41289.39
553.01	41233.22
553.18	41598.34
553.34	41551.53
553.51	41572.60
553.67	41603.02
553.84	41909.63
554.01	41563.23
554.17	42108.58
554.34	41876.86
554.51	41633.45
554.67	41963.46
554.84	42164.75
555.00	41780.90
555.17	42043.04
555.33	41961.12
555.50	41839.42
555.67	42169.43
555.83	41937.72
556.00	41883.89
556.16	42382.42
556.33	42597.75
556.50	41542.17
556.66	42209.22
556.83	41783.24
556.99	42777.97
557.16	42284.12
557.32	42188.16
557.49	42433.91
557.65	42148.37
557.82	42597.75
557.98	42326.25
558.15	42490.09
558.32	42188.16
558.48	42061.77
558.65	42579.03
558.81	42895.00
558.98	42710.10
559.14	42157.73
559.31	42337.95
559.47	42792.01
559.64	42745.20
559.80	43049.47
559.97	42906.70
560.13	42813.08
560.30	42312.20
560.46	42866.91
560.63	42548.60
560.79	43019.05
560.96	43075.22
561.12	43339.70
561.29	42806.06
561.45	43232.04
561.61	42953.51
561.78	43042.45
561.94	43192.25
562.11	43365.45
562.27	42995.64
562.44	43035.43
562.60	43192.25
562.77	43358.42
562.93	43049.47
563.10	43037.77
563.26	43091.60
563.42	43627.59
563.59	43222.67
563.75	42958.19
563.92	43194.59
564.08	42801.38
564.24	43517.58
564.41	43166.50
564.57	43550.35
564.74	43363.11
564.90	43461.41
565.07	43292.89
565.23	43136.07
565.39	43154.80
565.56	43515.24
565.72	43349.06
565.88	43540.99
566.05	43391.19
566.21	43576.09
566.38	43250.76
566.54	43688.44
566.70	43349.06
566.87	43749.29
567.03	43299.91
567.19	43634.61
567.36	43697.80
567.52	43353.74
567.68	43693.12
567.85	43725.89
568.01	43246.08
568.17	43643.97
568.34	43838.23
568.50	43899.09
568.66	43213.31
568.83	43550.35
568.99	44053.56
569.15	43999.73
569.32	43585.46
569.48	43962.28
569.64	44488.90
569.81	43650.99
569.97	44126.12
570.13	43672.06
570.30	43391.19
570.46	43791.42
570.62	43910.79
570.78	44020.80
570.95	43723.55
571.11	44360.17
571.27	43744.61
571.43	43709.50
571.60	44088.67
571.76	43807.81
571.92	43751.63
572.09	43730.57
572.25	43840.57
572.41	43620.56
572.57	44182.29
572.74	44313.36
572.90	44390.60
573.06	43693.12
573.22	44294.64
573.38	44027.82
573.55	44098.03
573.71	44458.48
573.87	44472.52
574.03	44006.75
574.20	44533.37
574.36	43758.66
574.52	44692.53
574.68	44130.80
574.84	44341.45
575.01	44648.06
575.17	44271.23
575.33	44404.64
575.49	44378.90
575.65	44418.69
575.82	44378.90
575.98	44025.48
576.14	44718.28
576.30	44615.29
576.46	44271.23
576.62	44332.09
576.79	44172.93
576.95	43962.28
577.11	44135.48
577.27	44364.85
577.43	44238.47
577.59	44334.43
577.75	44428.05
577.92	44133.14
578.08	44587.21
578.24	44664.44
578.40	44549.76
578.56	44257.19
578.72	44285.28
578.88	44580.18
579.04	44203.36
579.21	44711.25
579.37	44147.18
579.53	44837.64
579.69	44051.22
579.85	44722.96
580.01	44135.48
580.17	44205.70
580.33	44418.69
580.49	44516.99
580.65	44587.21
580.82	44009.09
580.98	44292.30
581.14	43938.88
581.30	44535.71
581.46	44357.83
581.62	44341.45
581.78	44140.16
581.94	44383.58
582.10	44704.23
582.26	44617.63
582.42	44884.45
582.58	43941.22
582.74	44119.10
582.90	44622.31
583.06	44414.01
583.22	44636.36
583.38	44847.00
583.54	44313.36
583.70	44598.91
583.86	44856.37
584.02	44027.82
584.18	44907.86
584.34	44933.60
584.50	44472.52
584.66	44430.39
584.82	44392.94
584.98	44891.48
585.14	45123.19
585.30	44500.61
585.46	44589.55
585.62	44507.63
585.78	44430.39
585.94	44472.52
586.10	44556.78
586.26	44711.25
586.42	44612.95
586.58	44711.25
586.74	44804.88
586.90	44378.90
587.06	44825.94
587.22	44612.95
587.38	44554.44
587.54	44542.74
587.70	44933.60
587.86	44790.83
588.02	44512.31
588.18	44236.12
588.34	44566.14
588.49	44751.04
588.65	44802.53
588.81	44662.10
588.97	45003.82
589.13	44603.59
589.29	44760.40
589.45	44680.83
589.61	44437.41
589.77	45034.25
589.93	44746.36
590.08	45059.99
590.24	44715.93
