SpectraSuite Data File
++++++++++++++++++++++++++++++++++++
Date: Fri Oct 25 10:47:15 EDT 2013
User: price-jones
Dark Spectrum Present: No
Reference Spectrum Present: No
Number of Sampled Component Spectra: 1
Spectrometers: USB2+H05261
Integration Time (usec): 100000 (USB2+H05261)
Spectra Averaged: 1 (USB2+H05261)
Boxcar Smoothing: 0 (USB2+H05261)
Correct for Electrical Dark: No (USB2+H05261)
Strobe/Lamp Enabled: No (USB2+H05261)
Correct for Detector Non-linearity: No (USB2+H05261)
Correct for Stray Light: No (USB2+H05261)
Number of Pixels in Processed Spectrum: 2048
>>>>>Begin Processed Spectral Data<<<<<
365.73	105.32
365.92	105.32
366.12	105.32
366.32	53.83
366.52	0.00
366.72	35.11
366.91	32.77
367.11	25.75
367.31	42.13
367.51	0.00
367.70	37.45
367.90	32.77
368.10	35.11
368.30	11.70
368.49	44.47
368.69	70.22
368.89	0.00
369.09	53.83
369.28	98.30
369.48	65.54
369.68	105.32
369.87	168.52
370.07	95.96
370.27	105.32
370.47	194.26
370.66	344.06
370.86	402.57
371.06	407.25
371.25	451.72
371.45	442.36
371.65	496.19
371.84	425.98
372.04	493.85
372.24	531.30
372.44	414.27
372.63	421.30
372.83	493.85
373.03	451.72
373.22	533.64
373.42	451.72
373.62	524.28
373.81	524.28
374.01	564.07
374.21	482.15
374.40	461.09
374.60	561.73
374.79	479.81
374.99	594.50
375.19	540.66
375.38	617.90
375.58	500.87
375.78	599.18
375.97	524.28
376.17	648.33
376.37	622.58
376.56	716.20
376.76	550.03
376.95	524.28
377.15	533.64
377.35	622.58
377.54	615.56
377.74	557.05
377.93	557.05
378.13	601.52
378.33	664.71
378.52	575.77
378.72	594.50
378.91	594.50
379.11	573.43
379.31	617.90
379.50	526.62
379.70	688.12
379.89	676.41
380.09	585.13
380.28	603.86
380.48	643.65
380.68	641.31
380.87	524.28
381.07	629.60
381.26	599.18
381.46	664.71
381.65	568.75
381.85	580.45
382.04	660.03
382.24	699.82
382.43	615.56
382.63	709.18
382.83	657.69
383.02	702.16
383.22	692.80
383.41	723.23
383.61	690.46
383.80	758.33
384.00	692.80
384.19	725.57
384.39	704.50
384.58	734.93
384.78	753.65
384.97	805.14
385.17	770.04
385.36	723.23
385.56	737.27
385.75	690.46
385.95	723.23
386.14	751.31
386.34	725.57
386.53	711.52
386.72	755.99
386.92	805.14
387.11	805.14
387.31	751.31
387.50	739.61
387.70	786.42
387.89	830.89
388.09	795.78
388.28	798.12
388.48	781.74
388.67	840.25
388.86	833.23
389.06	957.28
389.25	908.13
389.45	945.58
389.64	917.49
389.84	849.61
390.03	821.53
390.22	800.46
390.42	828.55
390.61	833.23
390.81	875.36
391.00	866.00
391.19	903.45
391.39	877.70
391.58	868.34
391.78	854.30
391.97	938.55
392.16	903.45
392.36	945.58
392.55	978.34
392.75	987.71
392.94	1025.15
393.13	978.34
393.33	882.38
393.52	987.71
393.71	968.98
393.91	1027.50
394.10	992.39
394.29	889.40
394.49	943.24
394.68	1048.56
394.88	1011.11
395.07	1123.46
395.26	1050.90
395.46	1064.94
395.65	1095.37
395.84	1163.25
396.04	1217.08
396.23	1067.28
396.42	1067.28
396.62	1078.99
396.81	1095.37
397.00	1153.88
397.19	1146.86
397.39	1104.73
397.58	1200.69
397.77	1132.82
397.97	1186.65
398.16	1181.97
398.35	1289.64
398.55	1224.10
398.74	1280.27
398.93	1221.76
399.12	1238.14
399.32	1233.46
399.51	1226.44
399.70	1273.25
399.90	1247.51
400.09	1334.11
400.28	1341.13
400.47	1345.81
400.67	1369.21
400.86	1331.76
401.05	1320.06
401.24	1401.98
401.44	1432.41
401.63	1348.15
401.82	1439.43
402.01	1394.96
402.21	1380.92
402.40	1535.39
402.59	1373.89
402.78	1446.45
402.97	1476.88
403.17	1469.86
403.36	1465.18
403.55	1554.12
403.74	1551.78
403.93	1465.18
404.13	1446.45
404.32	1533.05
404.51	1643.06
404.70	1703.91
404.89	1631.35
405.09	1699.23
405.28	1572.84
405.47	1701.57
405.66	1668.80
405.85	1797.53
406.05	1671.14
406.24	1689.87
406.43	1626.67
406.62	1842.00
406.81	1820.94
407.00	1797.53
407.20	1692.21
407.39	1643.06
407.58	1781.15
407.77	1834.98
407.96	1788.17
408.15	1886.47
408.34	1811.57
408.54	1834.98
408.73	1834.98
408.92	1877.11
409.11	1991.80
409.30	1975.41
409.49	1912.22
409.68	2005.84
409.87	1926.26
410.07	1975.41
410.26	2092.44
410.45	2153.29
410.64	2054.99
410.83	2104.14
411.02	2092.44
411.21	2223.51
411.40	2225.85
411.59	2200.10
411.78	2181.38
411.98	2202.44
412.17	2228.19
412.36	2319.47
412.55	2277.34
412.74	2335.85
412.93	2267.98
413.12	2305.43
413.31	2366.28
413.50	2354.58
413.69	2438.84
413.88	2441.18
414.07	2504.37
414.26	2399.05
414.45	2406.07
414.64	2569.91
414.83	2527.78
415.02	2609.70
415.22	2607.36
415.41	2497.35
415.60	2686.94
415.79	2801.62
415.98	2780.56
416.17	2841.41
416.36	2719.70
416.55	2864.82
416.74	2768.85
416.93	2848.43
417.12	2932.69
417.31	2911.63
417.50	2808.64
417.69	2895.24
417.88	2899.92
418.07	2876.52
418.26	2956.10
418.45	3033.33
418.64	3080.14
418.83	2986.52
419.02	3028.65
419.21	3131.64
419.39	3084.83
419.58	2874.18
419.77	3005.25
419.96	3150.36
420.15	3164.40
420.34	3166.74
420.53	3262.71
420.72	3225.26
420.91	3229.94
421.10	3248.66
421.29	3314.20
421.48	3187.81
421.67	3342.28
421.86	3199.51
422.05	3356.33
422.24	3321.22
422.43	3279.09
422.61	3351.65
422.80	3281.43
422.99	3400.80
423.18	3328.24
423.37	3349.31
423.56	3414.84
423.75	3361.01
423.94	3482.72
424.13	3087.17
424.32	3337.60
424.50	3361.01
424.69	3527.19
424.88	3428.88
425.07	3400.80
425.26	3241.64
425.45	3375.05
425.64	3300.16
425.83	3433.57
426.01	3475.70
426.20	3517.83
426.39	3428.88
426.58	3382.07
426.77	3342.28
426.96	3480.38
427.15	3522.51
427.33	3613.79
427.52	3445.27
427.71	3428.88
427.90	3552.93
428.09	3754.22
428.28	3571.66
428.46	3569.32
428.65	3574.00
428.84	3606.77
429.03	3791.67
429.22	3693.37
429.40	3775.28
429.59	3761.24
429.78	3545.91
429.97	3524.85
430.16	3646.55
430.34	3747.20
430.53	3824.44
430.72	3817.41
430.91	3859.54
431.10	3822.09
431.28	3770.60
431.47	3969.55
431.66	3981.25
431.85	3875.93
432.03	3927.42
432.22	4093.60
432.41	4095.94
432.60	4039.76
432.79	4018.70
432.97	3999.98
433.16	4191.90
433.35	4095.94
433.54	4126.36
433.72	4037.42
433.91	4107.64
434.10	4248.07
434.28	4159.13
434.47	4229.35
434.66	4205.94
434.85	4332.33
435.03	4145.09
435.22	4248.07
435.41	4458.72
435.59	4294.88
435.78	4362.76
435.97	4454.04
436.16	4367.44
436.34	4367.44
436.53	4231.69
436.72	4692.77
436.90	4381.48
437.09	4468.08
437.28	4447.02
437.46	4500.85
437.65	4287.86
437.84	4636.60
438.02	4568.73
438.21	4571.07
438.40	4484.47
438.58	4606.17
438.77	4610.86
438.96	4676.39
439.14	4826.18
439.33	4863.63
439.52	4924.49
439.70	4924.49
439.89	4807.46
440.08	4964.28
440.26	5085.98
440.45	4908.10
440.63	4983.00
440.82	5146.84
441.01	5184.29
441.19	5172.58
441.38	5221.74
441.57	5238.12
441.75	5217.05
441.94	5320.04
442.12	5441.75
442.31	5540.05
442.50	5371.53
442.68	5376.21
442.87	5380.89
443.05	5399.62
443.24	5720.27
443.43	5420.68
443.61	5589.20
443.80	5792.83
443.98	5437.06
444.17	5432.38
444.35	5504.94
444.54	5706.23
444.73	5785.80
444.91	5589.20
445.10	5628.99
445.28	5476.85
445.47	5561.11
445.65	5692.18
445.84	5678.14
446.02	5617.29
446.21	5556.43
446.39	5647.71
446.58	5596.22
446.77	5722.61
446.95	5612.60
447.14	5713.25
447.32	5832.62
447.51	5554.09
447.69	5621.97
447.88	5738.99
448.06	5776.44
448.25	5795.17
448.43	5760.06
448.62	5617.29
448.80	5841.98
448.99	5839.64
449.17	5916.87
449.36	5809.21
449.54	5942.62
449.73	5987.09
449.91	6143.91
450.10	6029.22
450.28	6150.93
450.46	5980.07
450.65	6183.70
450.83	6193.06
451.02	6171.99
451.20	6267.95
451.39	6045.60
451.57	6321.79
451.76	6094.76
451.94	6305.40
452.13	6272.64
452.31	6160.29
452.49	6368.60
452.68	6239.87
452.86	6321.79
453.05	6354.55
453.23	6277.32
453.42	6331.15
453.60	6263.27
453.78	6356.90
453.97	6312.42
454.15	6401.37
454.34	6307.74
454.52	6392.00
454.70	6403.71
454.89	6562.86
455.07	6532.44
455.26	6705.63
455.44	6569.88
455.62	6780.53
455.81	6693.93
455.99	6619.04
456.17	6743.08
456.36	6740.74
456.54	6808.62
456.73	7030.97
456.91	6979.48
457.09	6801.60
457.28	7037.99
457.46	6801.60
457.64	6951.39
457.83	7075.44
458.01	6986.50
458.19	7091.82
458.38	7087.14
458.56	7199.49
458.74	7194.81
458.93	7089.48
459.11	7178.42
459.29	7269.70
459.48	7337.58
459.66	7185.44
459.84	7187.79
460.03	7110.55
460.21	7297.79
460.39	7222.89
460.57	7286.09
460.76	7478.01
460.94	7606.74
461.12	7433.54
461.31	7569.29
461.49	7435.88
461.67	7368.01
461.85	7651.21
462.04	7569.29
462.22	8215.28
462.40	7838.45
462.59	7662.91
462.77	7618.44
462.95	7749.51
463.13	7658.23
463.32	7651.21
463.50	7784.62
463.68	7782.28
463.86	7749.51
464.05	7885.26
464.23	7829.09
464.41	7962.50
464.59	7850.16
464.78	7894.63
464.96	8224.64
465.14	7840.79
465.32	8145.06
465.50	7868.88
465.69	8170.81
465.87	7803.35
466.05	8079.53
466.23	7784.62
466.41	8006.97
466.60	8229.32
466.78	8049.10
466.96	8030.38
467.14	8030.38
467.32	8086.55
467.51	8250.39
467.69	7950.80
467.87	8219.96
468.05	8084.21
468.23	8329.97
468.41	8166.13
468.60	8344.01
468.78	8264.43
468.96	8297.20
469.14	8411.89
469.32	8507.85
469.50	8264.43
469.69	8486.78
469.87	8486.78
470.05	8545.30
470.23	8524.23
470.41	8580.40
470.59	8767.65
470.77	8837.86
470.95	8718.50
471.14	8901.06
471.32	8784.03
471.50	9116.39
471.68	8982.98
471.86	9067.24
472.04	9167.88
472.22	9212.35
472.40	9050.85
472.58	9149.15
472.77	9160.86
472.95	9240.44
473.13	9427.68
473.31	9188.94
473.49	9425.34
473.67	9181.92
473.85	9308.31
474.03	9544.70
474.21	9675.77
474.39	9666.41
474.57	9820.89
474.75	9874.72
474.93	9867.70
475.12	9973.02
475.30	9837.27
475.48	9987.07
475.66	9837.27
475.84	9973.02
476.02	9923.87
476.20	10064.30
476.38	10291.34
476.56	10492.62
476.74	10422.41
476.92	10207.08
477.10	10377.94
477.28	10611.99
477.46	10441.13
477.64	10764.12
477.82	10834.34
478.00	10869.45
478.18	10864.77
478.36	11173.72
478.54	11199.46
478.72	11234.57
478.90	11206.48
479.08	11335.21
479.26	11250.96
479.44	11641.82
479.62	11672.25
479.80	11613.74
479.98	11878.22
480.16	11901.62
480.34	11651.19
480.52	11836.09
480.70	12056.10
480.88	11906.31
481.06	12072.48
481.24	12358.03
481.41	12402.50
481.59	12472.71
481.77	12755.92
481.95	12716.13
482.13	12819.11
482.31	12835.50
482.49	12968.91
482.67	13238.07
482.85	13209.98
483.03	13448.72
483.21	13577.45
483.39	13500.21
483.57	13467.44
483.74	13865.33
483.92	13916.83
484.10	13923.85
484.28	14043.21
484.46	14288.97
484.64	14569.83
484.82	14214.07
485.00	14052.58
485.18	14548.77
485.35	14635.37
485.53	14361.53
485.71	14670.48
485.89	15119.86
486.07	14965.39
486.25	15014.54
486.43	15051.99
486.61	15213.48
486.78	15679.25
486.96	15487.32
487.14	15379.66
487.32	15896.92
487.50	15768.19
487.68	16058.42
487.85	16299.49
488.03	16327.58
488.21	16353.32
488.39	16437.58
488.57	16650.57
488.75	16690.36
488.92	17039.10
489.10	16966.54
489.28	17345.71
489.46	17542.32
489.64	17544.66
489.81	17696.79
489.99	17942.55
490.17	18024.47
490.35	18223.41
490.53	17947.23
490.70	18061.91
490.88	17940.21
491.06	18464.49
491.24	18602.58
491.41	18438.74
491.59	18696.20
491.77	18792.16
491.95	18806.20
492.13	19051.96
492.30	19304.74
492.48	19124.52
492.66	19264.95
492.84	19405.38
493.01	19836.04
493.19	19520.07
493.37	19894.55
493.54	19988.18
493.72	20175.42
493.90	20238.61
494.08	20196.48
494.25	20500.75
494.43	20807.36
494.61	20713.74
494.79	20659.91
494.96	20629.48
495.14	20975.88
495.32	21277.81
495.49	21172.49
495.67	21343.35
495.85	21933.16
496.02	21771.66
496.20	21570.38
496.38	21874.65
496.55	21891.03
496.73	22209.34
496.91	22019.76
497.09	22361.48
497.26	22312.33
497.44	22700.86
497.62	22553.40
497.79	22815.54
497.97	22604.89
498.14	22808.52
498.32	23112.79
498.50	23159.60
498.67	23372.59
498.85	23094.07
499.03	23484.94
499.20	23433.44
499.38	23613.66
499.56	23613.66
499.73	23742.39
499.91	23625.37
500.08	23936.66
500.26	23768.14
500.44	24107.52
500.61	23882.83
500.79	24067.73
500.97	24077.09
501.14	24526.47
501.32	24233.91
501.49	24372.00
501.67	24692.65
501.84	24718.40
502.02	24847.13
502.20	24933.73
502.37	25025.01
502.55	24727.76
502.72	25053.09
502.90	25263.74
503.07	25062.46
503.25	25322.26
503.43	25249.70
503.60	25376.09
503.78	25296.51
503.95	25579.71
504.13	25589.08
504.30	25956.54
504.48	26153.15
504.65	26064.21
504.83	26387.20
505.01	26436.35
505.18	26574.44
505.36	26593.17
505.53	26377.84
505.71	26668.06
505.88	26506.57
506.06	26324.01
506.23	26738.28
506.41	26647.00
506.58	26951.27
506.76	26995.74
506.93	27002.76
507.11	27267.24
507.28	27367.88
507.46	27138.51
507.63	27206.39
507.81	27555.13
507.98	26944.25
508.16	27498.95
508.33	27496.61
508.50	27857.06
508.68	27992.81
508.85	27807.90
509.03	28109.83
509.20	28187.07
509.38	27957.70
509.55	28025.57
509.73	28538.15
509.90	28559.22
510.08	28472.62
510.25	28128.56
510.42	28589.64
510.60	28554.54
510.77	28849.44
510.95	28952.43
511.12	28826.04
511.30	29212.23
511.47	29476.71
511.64	29142.01
511.82	29277.76
511.99	29312.87
512.17	29331.59
512.34	29542.24
512.51	29741.19
512.69	29488.41
512.86	29600.76
513.04	30036.09
513.21	29701.40
513.38	30202.27
513.56	29965.88
513.73	29998.65
513.90	30263.13
514.08	30132.06
514.25	30588.46
514.43	30506.54
514.60	30026.73
514.77	30476.12
514.95	30424.62
515.12	30789.75
515.29	30499.52
515.47	30745.28
515.64	30932.52
515.81	30679.74
515.99	30656.34
516.16	30829.54
516.33	31239.13
516.51	30771.02
516.68	30670.38
516.85	30787.41
517.03	30862.30
517.20	31192.32
517.37	31285.94
517.54	31861.71
517.72	31742.35
517.89	31503.61
518.06	31957.67
518.24	31920.23
518.41	31700.22
518.58	31508.29
518.75	32030.23
518.93	32044.27
519.10	32121.51
519.27	32818.99
519.45	32109.81
519.62	32353.23
519.79	32140.24
519.96	32507.70
520.14	32123.85
520.31	32531.11
520.48	32093.43
520.65	32655.15
520.83	33069.43
521.00	32973.47
521.17	32879.85
521.34	33127.94
521.52	32992.19
521.69	33071.77
521.86	33462.64
522.03	33149.01
522.20	33282.42
522.38	33954.15
522.55	33525.83
522.72	33221.56
522.89	33373.70
523.07	33472.00
523.24	33202.84
523.41	33624.14
523.58	33776.27
523.75	34188.21
523.92	33958.83
524.10	34036.07
524.27	33940.11
524.44	33921.38
524.61	34223.31
524.78	34312.25
524.96	34237.36
525.13	34761.64
525.30	34981.65
525.47	34906.75
525.64	34703.12
525.81	35005.05
525.98	34520.56
526.16	34487.79
526.33	34433.96
526.50	34384.81
526.67	34693.76
526.84	34897.39
527.01	34904.41
527.18	34888.03
527.36	35283.58
527.53	35306.98
527.70	35686.15
527.87	35505.93
528.04	35218.04
528.21	35447.41
528.38	35484.86
528.55	35236.77
528.72	35489.54
528.89	35770.41
529.07	35716.58
529.24	35281.24
529.41	35831.26
529.58	35601.89
529.75	36081.70
529.92	36201.07
530.09	36058.29
530.26	36023.19
530.43	36009.14
530.60	36119.15
530.77	36025.53
530.94	36442.14
531.11	36542.78
531.28	36584.91
531.46	36297.03
531.63	36559.17
531.80	36570.87
531.97	36762.79
532.14	36514.70
532.31	36517.04
532.48	36804.92
532.65	36818.97
532.82	36739.39
532.99	37015.57
533.16	36587.25
533.33	36980.46
533.50	37031.96
533.67	36882.16
533.84	37038.98
534.01	36760.45
534.18	37141.96
534.35	37488.36
534.52	37223.88
534.69	37305.80
534.86	37673.26
535.03	36870.46
535.20	37855.82
535.37	37610.07
535.54	38162.43
535.71	37277.71
535.88	37462.61
536.05	37619.43
536.22	37502.40
536.38	37813.70
536.55	37951.79
536.72	38146.05
536.89	37418.14
537.06	37813.70
537.23	37984.55
537.40	37806.67
537.57	37923.70
537.74	37958.81
537.91	38597.77
538.08	38377.76
538.25	37820.72
538.42	38312.23
538.59	38316.91
538.75	37825.40
538.92	38387.13
539.09	38342.66
539.26	38426.92
539.43	38330.95
539.60	38607.14
539.77	37963.49
539.94	38691.40
540.11	38457.34
540.28	38630.54
540.44	38679.69
540.61	38759.27
540.78	38363.72
540.95	39110.35
541.12	38754.59
541.29	38663.31
541.46	38906.73
541.62	39173.55
541.79	38986.30
541.96	38972.26
542.13	38747.57
542.30	39267.17
542.47	39442.71
542.63	39089.29
542.80	39201.63
542.97	39587.82
543.14	39690.80
543.31	39667.40
543.48	39854.64
543.64	40240.83
543.81	39957.63
543.98	39981.03
544.15	39896.77
544.32	39997.41
544.48	40430.41
544.65	39945.92
544.82	40058.27
544.99	39702.51
545.16	40179.98
545.32	39929.54
545.49	40615.32
545.66	40369.56
545.83	40313.39
546.00	40285.30
546.16	40444.46
546.33	40339.13
546.50	40217.43
546.67	40219.77
546.83	40383.60
547.00	40526.38
547.17	40371.90
547.34	40500.63
547.50	40584.89
547.67	40767.45
547.84	40832.99
548.00	40692.55
548.17	41050.66
548.34	40811.92
548.51	41008.53
548.67	41027.25
548.84	40893.84
549.01	41258.96
549.18	40907.88
549.34	41001.50
549.51	40882.14
549.68	41244.92
549.84	41275.35
550.01	41471.95
550.18	40926.61
550.34	41298.75
550.51	41050.66
550.68	41141.94
550.84	40580.21
551.01	41163.00
551.18	41478.97
551.34	41177.04
551.51	41074.06
551.68	41464.93
551.84	41727.07
552.01	40889.16
552.18	41635.79
552.34	41654.51
552.51	41759.84
552.68	41244.92
552.84	41558.55
553.01	41558.55
553.18	41954.10
553.34	42230.29
553.51	41827.71
553.67	41783.24
553.84	42541.58
554.01	41811.33
554.17	41900.27
554.34	42232.63
554.51	42038.36
554.67	42211.56
554.84	42192.84
555.00	41858.14
555.17	41661.54
555.33	42174.11
555.50	42447.96
555.67	42031.34
555.83	42342.63
556.00	42309.86
556.16	42742.86
556.33	42227.95
556.50	42110.92
556.66	42195.18
556.83	42183.48
556.99	42520.51
557.16	42546.26
557.32	42684.35
557.49	42546.26
557.65	42234.97
557.82	42487.74
557.98	41993.89
558.15	42487.74
558.32	42731.16
558.48	43005.00
558.65	42787.33
558.81	42459.66
558.98	42335.61
559.14	42562.64
559.31	42637.54
559.47	42955.85
559.64	42576.69
559.80	42864.57
559.97	42876.27
560.13	42834.14
560.30	42829.46
560.46	42904.36
560.63	42656.26
560.79	42241.99
560.96	43012.02
561.12	43009.68
561.29	42951.17
561.45	42756.91
561.61	42923.08
561.78	42733.50
561.94	43243.74
562.11	42623.50
562.27	43051.81
562.44	43285.87
562.60	43058.84
562.77	43274.16
562.93	43079.90
563.10	43540.99
563.26	42740.52
563.42	43620.56
563.59	42937.13
563.75	42909.04
563.92	43540.99
564.08	43271.82
564.24	43501.20
564.41	43426.30
564.57	43196.93
564.74	43337.36
564.90	43318.64
565.07	43540.99
565.23	43433.32
565.39	43098.62
565.56	43426.30
565.72	43227.35
565.88	43452.05
566.05	43093.94
566.21	43086.92
566.38	43253.10
566.54	43718.87
566.70	43562.05
566.87	43594.82
567.03	43234.38
567.19	43714.19
567.36	43882.70
567.52	43423.96
567.68	43578.43
567.85	43697.80
568.01	43536.30
568.17	43372.47
568.34	43262.46
568.50	43791.42
568.66	43342.04
568.83	43557.37
568.99	43208.63
569.15	43386.51
569.32	43440.34
569.48	43435.66
569.64	43601.84
569.81	43658.01
569.97	42920.74
570.13	43517.58
570.30	42895.00
570.46	43370.13
570.62	43508.22
570.78	43152.46
570.95	43702.48
571.11	43920.15
571.27	43613.54
571.43	43545.67
571.60	43559.71
571.76	43012.02
571.92	43543.33
572.09	43793.76
572.25	43632.27
572.41	43014.37
572.57	44304.00
572.74	44355.49
572.90	43828.87
573.06	43924.83
573.22	43777.38
573.38	43819.51
573.55	43496.52
573.71	43824.19
573.87	43777.38
574.03	43931.86
574.20	43667.37
574.36	43765.68
574.52	44179.95
574.68	43814.83
574.84	43800.79
575.01	43594.82
575.17	43852.28
575.33	43854.62
575.49	43531.62
575.65	44158.89
575.82	44116.76
575.98	44051.22
576.14	44421.03
576.30	43594.82
576.46	43973.98
576.62	44067.61
576.79	43779.72
576.95	43220.33
577.11	43599.50
577.27	43924.83
577.43	44392.94
577.59	43924.83
577.75	44301.66
577.92	44095.69
578.08	44004.41
578.24	43985.69
578.40	43943.56
578.56	43711.84
578.72	44065.27
578.88	44402.30
579.04	43803.13
579.21	43981.01
579.37	44095.69
579.53	43856.96
579.69	43772.70
579.85	44231.44
580.01	44189.31
580.17	43700.14
580.33	44287.62
580.49	43847.60
580.65	43845.26
580.82	44030.16
580.98	43796.10
581.14	43828.87
581.30	43669.72
581.46	43969.30
581.62	43915.47
581.78	43803.13
581.94	44554.44
582.10	43730.57
582.26	44165.91
582.42	43959.94
582.58	43868.66
582.74	43407.58
582.90	44072.29
583.06	44194.00
583.22	44018.46
583.38	44203.36
583.54	44306.34
583.70	43625.25
583.86	44142.50
584.02	43772.70
584.18	44065.27
584.34	43959.94
584.50	44296.98
584.66	44074.63
584.82	43995.05
584.98	43990.37
585.14	44573.16
585.30	43959.94
585.46	44034.84
585.62	44261.87
585.78	44020.80
585.94	44069.95
586.10	43772.70
586.26	43758.66
586.42	44053.56
586.58	44360.17
586.74	44231.44
586.90	44100.37
587.06	43707.16
587.22	44360.17
587.38	44016.11
587.54	44428.05
587.70	44264.21
587.86	44315.70
588.02	44184.63
588.18	44439.75
588.34	44112.08
588.49	43959.94
588.65	43920.15
588.81	44156.55
588.97	44055.90
589.13	43885.04
589.29	44292.30
589.45	44154.21
589.61	44236.12
589.77	44673.81
589.93	44306.34
590.08	44402.30
590.24	44725.30
590.40	44666.78
