SpectraSuite Data File
++++++++++++++++++++++++++++++++++++
Date: Fri Oct 25 11:23:44 EDT 2013
User: price-jones
Dark Spectrum Present: No
Reference Spectrum Present: No
Number of Sampled Component Spectra: 1
Spectrometers: USB2+H05261
Integration Time (usec): 100000 (USB2+H05261)
Spectra Averaged: 1 (USB2+H05261)
Boxcar Smoothing: 0 (USB2+H05261)
Correct for Electrical Dark: No (USB2+H05261)
Strobe/Lamp Enabled: No (USB2+H05261)
Correct for Detector Non-linearity: No (USB2+H05261)
Correct for Stray Light: No (USB2+H05261)
Number of Pixels in Processed Spectrum: 2048
>>>>>Begin Processed Spectral Data<<<<<
365.73	184.90
365.92	184.90
366.12	184.90
366.32	210.65
366.52	112.35
366.72	56.17
366.91	191.92
367.11	159.16
367.31	194.26
367.51	79.58
367.70	135.75
367.90	121.71
368.10	114.69
368.30	138.09
368.49	70.22
368.69	107.66
368.89	117.03
369.09	133.41
369.28	126.39
369.48	142.77
369.68	88.94
369.87	227.03
370.07	229.37
370.27	220.01
370.47	325.33
370.66	657.69
370.86	571.09
371.06	706.84
371.25	685.78
371.45	617.90
371.65	681.10
371.84	629.60
372.04	599.18
372.24	660.03
372.44	645.99
372.63	741.95
372.83	772.38
373.03	732.59
373.22	807.48
373.42	732.59
373.62	727.91
373.81	826.21
374.01	753.65
374.21	784.08
374.40	770.04
374.60	800.46
374.79	851.96
374.99	847.27
375.19	821.53
375.38	763.01
375.58	830.89
375.78	870.68
375.97	863.66
376.17	952.60
376.37	873.02
376.56	814.51
376.76	805.14
376.95	938.55
377.15	929.19
377.35	870.68
377.54	894.08
377.74	978.34
377.93	922.17
378.13	894.08
378.33	952.60
378.52	926.85
378.72	926.85
378.91	980.68
379.11	854.30
379.31	973.66
379.50	922.17
379.70	1018.13
379.89	1011.11
380.09	973.66
380.28	1064.94
380.48	1048.56
380.68	901.11
380.87	950.26
381.07	978.34
381.26	966.64
381.46	1008.77
381.65	1088.35
381.85	964.30
382.04	1046.22
382.24	1088.35
382.43	1074.31
382.63	1055.58
382.83	1071.97
383.02	1116.44
383.22	1104.73
383.41	1174.95
383.61	1015.79
383.80	1170.27
384.00	1081.33
384.19	1142.18
384.39	1114.10
384.58	1170.27
384.78	1158.57
384.97	1132.82
385.17	1163.25
385.36	1114.10
385.56	1172.61
385.75	1097.71
385.95	1200.69
386.14	1224.10
386.34	1130.48
386.53	1170.27
386.72	1186.65
386.92	1261.55
387.11	1263.89
387.31	1242.82
387.50	1235.80
387.70	1294.32
387.89	1151.54
388.09	1273.25
388.28	1240.48
388.48	1266.23
388.67	1301.34
388.86	1282.61
389.06	1289.64
389.25	1324.74
389.45	1390.28
389.64	1378.58
389.84	1409.00
390.03	1404.32
390.22	1406.66
390.42	1289.64
390.61	1348.15
390.81	1299.00
391.00	1373.89
391.19	1446.45
391.39	1469.86
391.58	1455.81
391.78	1357.51
391.97	1479.22
392.16	1416.02
392.36	1502.62
392.55	1519.01
392.75	1455.81
392.94	1504.96
393.13	1591.56
393.33	1582.20
393.52	1617.31
393.71	1554.12
393.91	1614.97
394.10	1547.09
394.29	1572.84
394.49	1500.28
394.68	1638.38
394.88	1600.93
395.07	1614.97
395.26	1633.69
395.46	1689.87
395.65	1703.91
395.84	1760.08
396.04	1811.57
396.23	1755.40
396.42	1661.78
396.62	1851.36
396.81	1692.21
397.00	1849.02
397.19	1858.39
397.39	1799.87
397.58	1827.96
397.77	1820.94
397.97	1839.66
398.16	1781.15
398.35	1907.54
398.55	1893.49
398.74	1849.02
398.93	1961.37
399.12	1942.64
399.32	1902.86
399.51	1930.94
399.70	1984.77
399.90	1980.09
400.09	2038.61
400.28	2115.84
400.47	2017.54
400.67	2026.90
400.86	2101.80
401.05	2069.03
401.24	2083.08
401.44	2111.16
401.63	2083.08
401.82	2174.36
402.01	2111.16
402.21	2214.15
402.40	2146.27
402.59	2141.59
402.78	2249.25
402.97	2232.87
403.17	2317.13
403.36	2246.91
403.55	2361.60
403.74	2296.07
403.93	2326.49
404.13	2296.07
404.32	2260.96
404.51	2448.20
404.70	2459.90
404.89	2385.01
405.09	2457.56
405.28	2410.75
405.47	2485.65
405.66	2551.18
405.85	2520.76
406.05	2588.63
406.24	2567.57
406.43	2628.42
406.62	2623.74
406.81	2679.91
407.00	2637.78
407.20	2502.03
407.39	2656.51
407.58	2710.34
407.77	2740.77
407.96	2864.82
408.15	2820.35
408.34	2752.47
408.54	2853.11
408.73	2731.41
408.92	2895.24
409.11	2836.73
409.30	2825.03
409.49	2909.29
409.68	2766.51
409.87	2965.46
410.07	3014.61
410.26	3042.70
410.45	2972.48
410.64	3089.51
410.83	3056.74
411.02	3215.90
411.21	3234.62
411.40	3239.30
411.59	3206.53
411.78	3213.56
411.98	3197.17
412.17	3260.37
412.36	3330.58
412.55	3349.31
412.74	3431.23
412.93	3431.23
413.12	3400.80
413.31	3620.81
413.50	3581.02
413.69	3449.95
413.88	3721.45
414.07	3520.17
414.26	3707.41
414.45	3733.15
414.64	3740.18
414.83	3819.75
415.02	3779.97
415.22	4044.45
415.41	3896.99
415.60	3798.69
415.79	3861.88
415.98	3918.06
416.17	3995.29
416.36	4086.58
416.55	4032.74
416.74	4163.81
416.93	3983.59
417.12	4140.41
417.31	4140.41
417.50	4322.97
417.69	4400.21
417.88	4416.59
418.07	4365.10
418.26	4285.52
418.45	4273.82
418.64	4484.47
418.83	4365.10
419.02	4388.50
419.21	4386.16
419.39	4596.81
419.58	4578.09
419.77	4531.28
419.96	4521.92
420.15	4739.58
420.34	4681.07
420.53	4538.30
420.72	4645.96
420.91	4734.90
421.10	4779.37
421.29	4805.12
421.48	4781.71
421.67	4894.06
421.86	4669.37
422.05	4706.82
422.24	4807.46
422.43	4873.00
422.61	4898.74
422.80	5011.09
422.99	5057.90
423.18	5123.43
423.37	5221.74
423.56	5018.11
423.75	4854.27
423.94	4919.81
424.13	4765.33
424.32	4704.48
424.50	5104.71
424.69	5102.37
424.88	5041.51
425.07	4936.19
425.26	4945.55
425.45	5022.79
425.64	5088.32
425.83	4880.02
426.01	5128.11
426.20	5123.43
426.39	5156.20
426.58	4999.38
426.77	5015.77
426.96	5179.61
427.15	5078.96
427.33	5245.14
427.52	5083.64
427.71	5289.61
427.90	5174.92
428.09	5401.96
428.28	5350.46
428.46	5320.04
428.65	5434.72
428.84	5469.83
429.03	5432.38
429.22	5509.62
429.40	5467.49
429.59	5504.94
429.78	5507.28
429.97	5228.76
430.16	5528.35
430.34	5654.73
430.53	5685.16
430.72	5734.31
430.91	5575.16
431.10	5575.16
431.28	5785.80
431.47	5755.38
431.66	5942.62
431.85	5863.04
432.03	5895.81
432.22	6099.44
432.41	5902.83
432.60	5900.49
432.79	5813.89
432.97	6186.04
433.16	6043.26
433.35	5930.92
433.54	6087.73
433.72	6251.57
433.91	6099.44
434.10	6153.27
434.28	6071.35
434.47	6370.94
434.66	6115.82
434.85	6221.14
435.03	6331.15
435.22	6303.06
435.41	6366.26
435.59	6202.42
435.78	6562.86
435.97	6429.45
436.16	6464.56
436.34	6368.60
436.53	6595.63
436.72	6757.13
436.90	6373.28
437.09	6651.80
437.28	6415.41
437.46	6537.12
437.65	6628.40
437.84	6689.25
438.02	6843.73
438.21	6780.53
438.40	6846.07
438.58	7101.19
438.77	7047.35
438.96	6874.15
439.14	6930.33
439.33	7105.87
439.52	7136.29
439.70	7503.76
439.89	7447.58
440.08	7438.22
440.26	7585.68
440.45	7496.74
440.63	7620.78
440.82	7583.34
441.01	7545.89
441.19	7693.34
441.38	7618.44
441.57	7651.21
441.75	7857.18
441.94	8168.47
442.12	7990.59
442.31	8051.44
442.50	8084.21
442.68	7903.99
442.87	8088.89
443.05	8152.09
443.24	8449.33
443.43	8339.33
443.61	8102.93
443.80	8444.65
443.98	8273.79
444.17	7691.00
444.35	8252.73
444.54	8472.74
444.73	8404.86
444.91	8407.20
445.10	8463.38
445.28	8292.52
445.47	8065.49
445.65	8358.05
445.84	8322.94
446.02	8496.14
446.21	8461.04
446.39	8290.18
446.58	8587.43
446.77	8510.19
446.95	8421.25
447.14	8439.97
447.32	8655.30
447.51	8552.32
447.69	8723.18
447.88	8449.33
448.06	8456.36
448.25	8547.64
448.43	8589.77
448.62	8709.13
448.80	8603.81
448.99	8718.50
449.17	8882.33
449.36	8610.83
449.54	9048.51
449.73	8908.08
449.91	8922.12
450.10	9102.34
450.28	9144.47
450.46	8994.68
450.65	8821.48
450.83	9050.85
451.02	9350.44
451.20	9195.96
451.39	9107.02
451.57	9228.73
451.76	9200.65
451.94	8959.57
452.13	9439.38
452.31	9212.35
452.49	9228.73
452.68	9259.16
452.86	9568.11
453.05	9476.83
453.23	9521.30
453.42	9357.46
453.60	9371.50
453.78	9811.53
453.97	9369.16
454.15	9544.70
454.34	9453.42
454.52	9806.84
454.70	9738.97
454.89	9827.91
455.07	9753.01
455.26	9830.25
455.44	10050.26
455.62	10083.03
455.81	9942.60
455.99	10026.86
456.17	10157.92
456.36	10258.57
456.54	10300.70
456.73	10326.44
456.91	10773.49
457.09	10485.60
457.28	10602.63
457.46	10401.34
457.64	10565.18
457.83	10530.07
458.01	10576.88
458.19	10700.93
458.38	10509.01
458.56	10726.68
458.74	10848.38
458.93	10927.96
459.11	10913.92
459.29	10761.78
459.48	10733.70
459.66	10743.06
459.84	10932.64
460.03	11183.08
460.21	11087.12
460.39	10803.91
460.57	11108.18
460.76	11297.77
460.94	11335.21
461.12	11272.02
461.31	11332.87
461.49	11096.48
461.67	11396.07
461.85	11566.93
462.04	11447.56
462.22	11609.06
462.40	11372.66
462.59	11353.94
462.77	11510.75
462.95	11625.44
463.13	11573.95
463.32	11606.72
463.50	11974.18
463.68	11690.98
463.86	12098.23
464.05	11655.87
464.23	11686.29
464.41	12018.65
464.59	11885.24
464.78	12093.55
464.96	12219.94
465.14	12119.29
465.32	12149.72
465.50	11969.50
465.69	12121.63
465.87	12332.28
466.05	12098.23
466.23	12184.83
466.41	11983.54
466.60	12346.33
466.78	12159.08
466.96	12046.74
467.14	12453.99
467.32	12542.93
467.51	12662.30
467.69	11981.20
467.87	12531.23
468.05	12620.17
468.23	12418.88
468.41	12566.34
468.60	12662.30
468.78	12898.69
468.96	12732.51
469.14	12912.74
469.32	13214.66
469.50	12917.42
469.69	13198.28
469.87	13074.23
470.05	13139.77
470.23	13329.35
470.41	13055.51
470.59	13392.55
470.77	13235.73
470.95	13317.65
471.14	13727.24
471.32	13350.42
471.50	13530.64
471.68	13568.09
471.86	13752.99
472.04	13818.52
472.22	13996.40
472.40	13633.62
472.58	13687.45
472.77	13958.96
472.95	14321.74
473.13	14551.11
473.31	14061.94
473.49	14218.75
473.67	14406.00
473.85	14413.02
474.03	14635.37
474.21	14647.07
474.39	14829.63
474.57	14714.95
474.75	15030.92
474.93	15199.44
475.12	15112.84
475.30	15108.16
475.48	14728.99
475.66	15164.33
475.84	15211.14
476.02	15250.93
476.20	15442.85
476.38	15850.11
476.56	16006.92
476.74	16060.76
476.92	15730.74
477.10	15878.19
477.28	16159.06
477.46	16329.92
477.64	16362.69
477.82	16603.76
478.00	17006.33
478.18	16828.45
478.36	17081.23
478.54	17242.73
478.72	17177.19
478.90	17486.14
479.08	17642.96
479.26	18207.03
479.44	17813.82
479.62	17710.83
479.80	18125.11
479.98	18253.84
480.16	18607.26
480.34	18544.06
480.52	18637.69
480.70	18417.68
480.88	18469.17
481.06	18471.51
481.24	19194.73
481.41	19229.84
481.59	19665.18
481.77	19466.24
481.95	19520.07
482.13	19756.46
482.31	19901.58
482.49	20699.70
482.67	20563.95
482.85	20577.99
483.03	20556.93
483.21	21135.04
483.39	21315.26
483.57	20765.23
483.74	21198.23
483.92	21364.41
484.10	21465.05
484.28	21802.09
484.46	22005.72
484.64	22450.42
484.82	22134.45
485.00	22417.65
485.18	22728.94
485.35	23136.20
485.53	22939.59
485.71	23094.07
485.89	23728.35
486.07	23431.10
486.25	23679.20
486.43	23630.05
486.61	23679.20
486.78	23934.32
486.96	24343.91
487.14	24531.15
487.32	24753.51
487.50	24943.09
487.68	25113.95
487.85	25640.57
488.03	25738.87
488.21	25858.24
488.39	26408.26
488.57	26380.18
488.75	26230.38
488.92	26515.93
489.10	26841.26
489.28	26859.99
489.46	26906.80
489.64	26852.97
489.81	27765.78
489.99	27496.61
490.17	28020.89
490.35	28149.62
490.53	28538.15
490.70	28797.95
490.88	28421.13
491.06	28781.57
491.24	28947.75
491.41	29326.91
491.59	29277.76
491.77	29769.27
491.95	29731.83
492.13	29986.94
492.30	30110.99
492.48	30057.16
492.66	30115.67
492.84	30412.92
493.01	30476.12
493.19	30789.75
493.37	31147.85
493.54	31189.98
493.72	31784.48
493.90	31896.82
494.08	32184.71
494.25	31964.70
494.43	32074.70
494.61	32336.84
494.79	32617.71
494.96	32683.24
495.14	32879.85
495.32	33347.95
495.49	33476.68
495.67	33202.84
495.85	33565.62
496.02	33825.42
496.20	33790.31
496.38	34242.04
496.55	34618.86
496.73	34864.62
496.91	34604.82
497.09	35332.73
497.26	35208.68
497.44	34831.85
497.62	35732.96
497.79	36341.50
497.97	35857.01
498.14	36149.57
498.32	36552.15
498.50	36245.54
498.67	36720.66
498.85	36748.75
499.03	36856.42
499.20	37361.97
499.38	36811.95
499.56	37401.76
499.73	37291.76
499.91	37792.63
500.08	37919.02
500.26	37748.16
500.44	38057.11
500.61	38124.99
500.79	37993.92
500.97	38319.25
501.14	38845.87
501.32	38700.76
501.49	38756.93
501.67	39082.27
501.84	39501.22
502.02	39161.84
502.20	39409.94
502.37	39037.80
502.55	39468.45
502.72	40184.66
502.90	39688.46
503.07	39761.02
503.25	40069.97
503.43	39819.53
503.60	40582.55
503.78	40528.72
503.95	40495.95
504.13	40671.49
504.30	41106.83
504.48	40832.99
504.65	41085.76
504.83	41186.41
505.01	41549.19
505.18	41289.39
505.36	41560.89
505.53	41537.49
505.71	41935.38
505.88	42005.59
506.06	41937.72
506.23	42384.76
506.41	42153.05
506.58	42117.94
506.76	42344.97
506.93	42473.70
507.11	42274.76
507.28	42843.51
507.46	42920.74
507.63	42967.55
507.81	43934.20
507.98	43168.84
508.16	43796.10
508.33	43686.10
508.50	43814.83
508.68	43985.69
508.85	44102.71
509.03	44402.30
509.20	44156.55
509.38	44575.50
509.55	44760.40
509.73	44729.98
509.90	44767.43
510.08	44580.18
510.25	44835.30
510.42	45003.82
510.60	45170.00
510.77	45427.46
510.95	45474.27
511.12	45186.38
511.30	45656.83
511.47	45921.31
511.64	45694.28
511.82	46375.37
511.99	45762.15
512.17	46143.66
512.34	46218.56
512.51	46927.74
512.69	46309.84
512.86	46583.68
513.04	46967.53
513.21	46667.94
513.38	46969.87
513.56	47283.50
513.73	46944.12
513.90	47239.03
514.08	47374.78
514.25	47503.51
514.43	47583.09
514.60	47899.06
514.77	47374.78
514.95	48034.81
515.12	48065.24
515.29	47861.61
515.47	48479.52
515.64	48175.25
515.81	48278.23
515.99	48369.51
516.16	48701.87
516.33	48704.21
516.51	48561.44
516.68	48502.92
516.85	48479.52
517.03	48678.46
517.20	49146.57
517.37	48823.58
517.54	48898.47
517.72	48905.49
517.89	49223.81
518.06	49502.33
518.24	49375.94
518.41	49008.48
518.58	49614.68
518.75	49677.87
518.93	49815.96
519.10	49710.64
519.27	50167.04
519.45	49940.01
519.62	50031.29
519.79	50197.47
519.96	50007.89
520.14	50176.40
520.31	50295.77
520.48	50354.29
520.65	50553.23
520.83	51000.27
521.00	50916.01
521.17	50677.28
521.34	50869.20
521.52	51035.38
521.69	50815.37
521.86	51341.99
522.03	51239.01
522.20	51583.07
522.38	51786.69
522.55	51533.92
522.72	51679.03
522.89	51501.15
523.07	51753.93
523.24	51550.30
523.41	51875.63
523.58	51646.26
523.75	52334.38
523.92	52058.20
524.10	52313.31
524.27	52196.29
524.44	52364.81
524.61	52165.86
524.78	52493.54
524.96	52306.29
525.13	52299.27
525.30	52425.66
525.47	52793.12
525.64	52715.89
525.81	52662.05
525.98	52842.27
526.16	52687.80
526.33	52816.53
526.50	53113.78
526.67	52837.59
526.84	53123.14
527.01	52596.52
527.18	53090.37
527.36	52926.53
527.53	53261.23
527.70	53453.15
527.87	53616.99
528.04	53169.95
528.21	53471.88
528.38	53254.21
528.55	53584.22
528.72	53347.83
528.89	53794.87
529.07	53595.93
529.24	53668.48
529.41	53975.09
529.58	53989.14
529.75	53727.00
529.92	54295.75
530.09	54099.14
530.26	54164.68
530.43	54429.16
530.60	53881.47
530.77	54026.59
530.94	53989.14
531.11	54286.39
531.28	54522.78
531.46	54574.27
531.63	54429.16
531.80	54204.47
531.97	54415.11
532.14	54686.62
532.31	54761.51
532.48	54787.26
532.65	54894.92
532.82	54616.40
532.99	54873.86
533.16	54915.99
533.33	54817.69
533.50	55213.24
533.67	54930.03
533.84	54784.92
534.01	55082.17
534.18	55238.98
534.35	55536.23
534.52	55260.05
534.69	55234.30
534.86	55386.44
535.03	55161.75
535.20	55444.95
535.37	55503.46
535.54	55662.62
535.71	55508.14
535.88	55636.87
536.05	55561.98
536.22	55744.54
536.38	55758.58
536.55	55856.88
536.72	55679.00
536.89	55440.27
537.06	55779.65
537.23	55973.91
537.40	55789.01
537.57	55906.04
537.74	55994.98
537.91	56184.56
538.08	56287.54
538.25	55840.50
538.42	56317.97
538.59	56240.73
538.75	55941.14
538.92	56062.85
539.09	56334.35
539.26	56334.35
539.43	56362.44
539.60	56170.52
539.77	56374.14
539.94	56673.73
540.11	56636.28
540.28	56374.14
540.44	56643.30
540.61	56772.03
540.78	56624.58
540.95	56633.94
541.12	56514.58
541.29	56505.21
541.46	56647.99
541.62	56725.22
541.79	56699.48
541.96	56699.48
542.13	56650.33
542.30	56982.68
542.47	56985.02
542.63	57055.24
542.80	57036.51
542.97	57134.82
543.14	57169.93
543.31	57347.81
543.48	57193.33
543.64	57762.08
543.81	57471.85
543.98	57612.29
544.15	57401.64
544.32	57677.82
544.48	57801.87
544.65	57338.44
544.82	57755.06
544.99	57172.27
545.16	57689.52
545.32	57654.42
545.49	57982.09
545.66	57719.95
545.83	57804.21
546.00	57989.11
546.16	57696.55
546.33	57790.17
546.50	57518.67
546.67	58141.25
546.83	57691.86
547.00	57900.17
547.17	57881.45
547.34	57799.53
547.50	57942.30
547.67	58101.46
547.84	58279.34
548.00	58094.44
548.17	58260.62
548.34	58337.85
548.51	58401.05
548.67	58337.85
548.84	58286.36
549.01	58028.90
549.18	58218.49
549.34	58382.32
549.51	58459.56
549.68	58520.41
549.84	58405.73
550.01	58581.27
550.18	58557.86
550.34	58609.35
550.51	58513.39
550.68	58684.25
550.84	58316.79
551.01	58688.93
551.18	58546.16
551.34	58489.99
551.51	58576.59
551.68	58539.14
551.84	58777.87
552.01	58794.26
552.18	58930.01
552.34	58698.30
552.51	58841.07
552.68	58705.32
552.84	58672.55
553.01	59260.02
553.18	58869.15
553.34	58979.16
553.51	58841.07
553.67	59028.31
553.84	58894.90
554.01	59051.72
554.17	59072.78
554.34	59091.51
554.51	59217.89
554.67	59255.34
554.84	59255.34
555.00	59079.80
555.17	59222.58
555.33	58988.52
555.50	59203.85
555.67	59147.68
555.83	59262.36
556.00	59098.53
556.16	59568.97
556.33	59337.26
556.50	59470.67
556.66	59430.88
556.83	59344.28
556.99	59554.93
557.16	59793.67
557.32	59655.57
557.49	59554.93
557.65	59381.73
557.82	59571.32
557.98	59522.16
558.15	59704.73
558.32	59807.71
558.48	59449.61
558.65	59728.13
558.81	59678.98
558.98	59606.42
559.14	59653.23
559.31	59873.24
559.47	59667.28
559.64	59849.84
559.80	59835.80
559.97	59746.86
560.13	59859.20
560.30	59891.97
560.46	60165.81
560.63	59824.09
560.79	60020.70
560.96	59990.27
561.12	59873.24
561.29	59994.95
561.45	60006.65
561.61	59980.91
561.78	59976.23
561.94	59772.60
562.11	59990.27
562.27	60046.44
562.44	60102.62
562.60	60023.04
562.77	60011.34
562.93	59849.84
563.10	60303.90
563.26	60090.91
563.42	60182.19
563.59	59992.61
563.75	60126.02
563.92	60086.23
564.08	60046.44
564.24	60264.11
564.41	60341.35
564.57	60315.61
564.74	60196.24
564.90	60282.84
565.07	60264.11
565.23	60432.63
565.39	60144.75
565.56	60360.08
565.72	60126.02
565.88	60381.14
566.05	60233.69
566.21	60383.48
566.38	60463.06
566.54	60507.53
566.70	60685.41
566.87	60348.37
567.03	60231.35
567.19	60603.49
567.36	60427.95
567.52	60552.00
567.68	60596.47
567.85	60537.96
568.01	60559.02
568.17	60348.37
568.34	60657.32
568.50	60334.33
568.66	60271.14
568.83	60477.10
568.99	60404.55
569.15	60369.44
569.32	60516.89
569.48	60549.66
569.64	60673.71
569.81	60512.21
569.97	60549.66
570.13	60514.55
570.30	60568.38
570.46	60612.85
570.62	60636.26
570.78	60683.07
570.95	60729.88
571.11	60570.72
571.27	60537.96
571.43	60493.49
571.60	60844.57
571.76	60676.05
571.92	60781.37
572.09	60704.13
572.25	60720.52
572.41	60491.15
572.57	60619.88
572.74	60940.53
572.90	60823.50
573.06	60870.31
573.22	60783.71
573.38	60851.59
573.55	60832.86
573.71	60985.00
573.87	60720.52
574.03	60779.03
574.20	60793.07
574.36	60715.84
574.52	61017.77
574.68	60832.86
574.84	60912.44
575.01	61010.74
575.17	60877.33
575.33	60830.52
575.49	60851.59
575.65	60825.84
575.82	60945.21
575.98	60921.80
576.14	61209.69
576.30	60928.83
576.46	60900.74
576.62	60811.80
576.79	61111.39
576.95	60725.20
577.11	61066.92
577.27	61073.94
577.43	60809.46
577.59	60870.31
577.75	60853.93
577.92	60776.69
578.08	61010.74
578.24	61020.11
578.40	61071.60
578.56	61106.71
578.72	60912.44
578.88	61251.82
579.04	61055.21
579.21	60956.91
579.37	61146.50
579.53	61312.67
579.69	60935.85
579.85	61020.11
580.01	61006.06
580.17	61008.40
580.33	60856.27
580.49	61169.90
580.65	61071.60
580.82	60790.73
580.98	60860.95
581.14	60706.47
581.30	61090.32
581.46	61167.56
581.62	61092.66
581.78	60757.97
581.94	61277.57
582.10	61073.94
582.26	60949.89
582.42	61146.50
582.58	60980.32
582.74	61153.52
582.90	60992.02
583.06	60947.55
583.22	60992.02
583.38	61069.26
583.54	61169.90
583.70	61038.83
583.86	61057.56
584.02	61008.40
584.18	61205.01
584.34	60842.23
584.50	61188.63
584.66	60903.08
584.82	60851.59
584.98	61432.04
585.14	61235.44
585.30	61116.07
585.46	61113.73
585.62	61113.73
585.78	61310.33
585.94	60842.23
586.10	61256.50
586.26	61087.98
586.42	61188.63
586.58	61235.44
586.74	61258.84
586.90	60996.70
587.06	61214.37
587.22	61233.10
587.38	61130.11
587.54	61282.25
587.70	61286.93
587.86	61200.33
588.02	61186.28
588.18	61368.85
588.34	60870.31
588.49	61102.03
