SpectraSuite Data File
++++++++++++++++++++++++++++++++++++
Date: Fri Oct 25 11:23:35 EDT 2013
User: price-jones
Dark Spectrum Present: No
Reference Spectrum Present: No
Number of Sampled Component Spectra: 1
Spectrometers: USB2+H05261
Integration Time (usec): 100000 (USB2+H05261)
Spectra Averaged: 1 (USB2+H05261)
Boxcar Smoothing: 0 (USB2+H05261)
Correct for Electrical Dark: No (USB2+H05261)
Strobe/Lamp Enabled: No (USB2+H05261)
Correct for Detector Non-linearity: No (USB2+H05261)
Correct for Stray Light: No (USB2+H05261)
Number of Pixels in Processed Spectrum: 2048
>>>>>Begin Processed Spectral Data<<<<<
365.73	210.65
365.92	210.65
366.12	210.65
366.32	135.75
366.52	102.98
366.72	133.41
366.91	65.54
367.11	74.90
367.31	46.81
367.51	112.35
367.70	84.26
367.90	124.05
368.10	124.05
368.30	154.48
368.49	112.35
368.69	133.41
368.89	191.92
369.09	93.62
369.28	210.65
369.48	180.22
369.68	170.86
369.87	170.86
370.07	276.18
370.27	210.65
370.47	280.86
370.66	521.94
370.86	627.26
371.06	631.94
371.25	660.03
371.45	582.79
371.65	624.92
371.84	650.67
372.04	732.59
372.24	713.86
372.44	751.31
372.63	732.59
372.83	648.33
373.03	730.25
373.22	744.29
373.42	786.42
373.62	835.57
373.81	770.04
374.01	809.83
374.21	840.25
374.40	880.04
374.60	826.21
374.79	781.74
374.99	844.93
375.19	779.40
375.38	837.91
375.58	917.49
375.78	781.74
375.97	844.93
376.17	844.93
376.37	873.02
376.56	931.53
376.76	945.58
376.95	926.85
377.15	849.61
377.35	926.85
377.54	849.61
377.74	887.06
377.93	901.11
378.13	938.55
378.33	966.64
378.52	891.74
378.72	954.94
378.91	999.41
379.11	910.47
379.31	891.74
379.50	901.11
379.70	952.60
379.89	999.41
380.09	952.60
380.28	936.21
380.48	978.34
380.68	1027.50
380.87	971.32
381.07	1015.79
381.26	952.60
381.46	1015.79
381.65	922.17
381.85	1083.67
382.04	976.00
382.24	1015.79
382.43	1083.67
382.63	1011.11
382.83	1048.56
383.02	1074.31
383.22	1135.16
383.41	1114.10
383.61	1116.44
383.80	1123.46
384.00	1090.69
384.19	1116.44
384.39	1036.86
384.58	1034.52
384.78	1139.84
384.97	1114.10
385.17	1137.50
385.36	1177.29
385.56	1142.18
385.75	1132.82
385.95	1226.44
386.14	1247.51
386.34	1233.46
386.53	1203.04
386.72	1146.86
386.92	1245.16
387.11	1184.31
387.31	1221.76
387.50	1252.19
387.70	1252.19
387.89	1280.27
388.09	1284.95
388.28	1205.38
388.48	1207.72
388.67	1320.06
388.86	1320.06
389.06	1287.29
389.25	1324.74
389.45	1320.06
389.64	1343.47
389.84	1373.89
390.03	1378.58
390.22	1378.58
390.42	1357.51
390.61	1439.43
390.81	1409.00
391.00	1404.32
391.19	1441.77
391.39	1366.87
391.58	1462.83
391.78	1504.96
391.97	1526.03
392.16	1476.88
392.36	1474.54
392.55	1451.13
392.75	1469.86
392.94	1507.30
393.13	1598.59
393.33	1561.14
393.52	1495.60
393.71	1507.30
393.91	1654.76
394.10	1547.09
394.29	1589.22
394.49	1523.69
394.68	1675.82
394.88	1710.93
395.07	1687.53
395.26	1706.25
395.46	1760.08
395.65	1682.85
395.84	1722.63
396.04	1788.17
396.23	1778.81
396.42	1849.02
396.62	1799.87
396.81	1802.21
397.00	1790.51
397.19	1720.29
397.39	1746.04
397.58	1898.17
397.77	1715.61
397.97	1858.39
398.16	1900.52
398.35	1893.49
398.55	1947.33
398.74	1870.09
398.93	1923.92
399.12	1959.03
399.32	1837.32
399.51	1916.90
399.70	1968.39
399.90	1977.75
400.09	2087.76
400.28	2026.90
400.47	2012.86
400.67	2092.44
400.86	2010.52
401.05	2155.63
401.24	2099.46
401.44	2097.12
401.63	2193.08
401.82	2160.31
402.01	2143.93
402.21	2211.81
402.40	2207.13
402.59	2204.78
402.78	2157.97
402.97	2160.31
403.17	2242.23
403.36	2218.83
403.55	2216.49
403.74	2286.70
403.93	2216.49
404.13	2305.43
404.32	2284.36
404.51	2485.65
404.70	2469.27
404.89	2445.86
405.09	2525.44
405.28	2448.20
405.47	2457.56
405.66	2490.33
405.85	2462.24
406.05	2518.42
406.24	2597.99
406.43	2497.35
406.62	2605.02
406.81	2773.53
407.00	2546.50
407.20	2619.06
407.39	2597.99
407.58	2600.34
407.77	2731.41
407.96	2766.51
408.15	2764.17
408.34	2820.35
408.54	2785.24
408.73	2869.50
408.92	2708.00
409.11	2717.36
409.30	2792.26
409.49	3019.29
409.68	3091.85
409.87	2890.56
410.07	2993.55
410.26	3045.04
410.45	3059.08
410.64	3080.14
410.83	2988.86
411.02	3070.78
411.21	3194.83
411.40	3105.89
411.59	3276.75
411.78	3199.51
411.98	3094.19
412.17	3133.98
412.36	3358.67
412.55	3412.50
412.74	3295.47
412.93	3346.97
413.12	3393.78
413.31	3555.27
413.50	3569.32
413.69	3576.34
413.88	3557.61
414.07	3543.57
414.26	3637.19
414.45	3597.40
414.64	3744.86
414.83	3634.85
415.02	3728.47
415.22	3684.00
415.41	3805.71
415.60	3864.22
415.79	3798.69
415.98	3992.95
416.17	3962.53
416.36	3803.37
416.55	4145.09
416.74	3974.23
416.93	4194.24
417.12	4114.66
417.31	4135.73
417.50	4215.30
417.69	4241.05
417.88	4278.50
418.07	4395.53
418.26	4341.69
418.45	4484.47
418.64	4531.28
418.83	4465.74
419.02	4414.25
419.21	4601.49
419.39	4388.50
419.58	4428.29
419.77	4524.26
419.96	4594.47
420.15	4652.98
420.34	4566.39
420.53	4585.11
420.72	4725.54
420.91	4739.58
421.10	4770.01
421.29	4875.34
421.48	4770.01
421.67	4755.97
421.86	4805.12
422.05	4847.25
422.24	4837.89
422.43	4999.38
422.61	4898.74
422.80	4940.87
422.99	4950.23
423.18	4772.35
423.37	4985.34
423.56	4931.51
423.75	4868.31
423.94	4987.68
424.13	4683.41
424.32	4777.03
424.50	4889.38
424.69	5085.98
424.88	5039.17
425.07	4865.97
425.26	4910.44
425.45	4821.50
425.64	4894.06
425.83	4990.02
426.01	5076.62
426.20	5048.54
426.39	4966.62
426.58	4938.53
426.77	5090.67
426.96	5151.52
427.15	5228.76
427.33	5198.33
427.52	5149.18
427.71	5301.31
427.90	5348.12
428.09	5348.12
428.28	5416.00
428.46	5301.31
428.65	5474.51
428.84	5416.00
429.03	5593.88
429.22	5355.15
429.40	5530.69
429.59	5542.39
429.78	5320.04
429.97	5181.95
430.16	5376.21
430.34	5825.59
430.53	5654.73
430.72	5654.73
430.91	5582.18
431.10	5664.10
431.28	5813.89
431.47	5671.12
431.66	5893.47
431.85	5907.51
432.03	6022.20
432.22	5816.23
432.41	5916.87
432.60	6015.18
432.79	5741.33
432.97	6211.78
433.16	6040.92
433.35	5839.64
433.54	6038.58
433.72	6338.17
433.91	6071.35
434.10	6054.97
434.28	6214.12
434.47	6497.33
434.66	6183.70
434.85	6186.04
435.03	6251.57
435.22	6347.53
435.41	6544.14
435.59	6335.83
435.78	6457.54
435.97	6457.54
436.16	6401.37
436.34	6490.31
436.53	6520.73
436.72	6553.50
436.90	6408.39
437.09	6661.16
437.28	6455.20
437.46	6663.51
437.65	6558.18
437.84	6679.89
438.02	6724.36
438.21	6731.38
438.40	6736.06
438.58	7117.57
438.77	7108.21
438.96	7040.33
439.14	7138.63
439.33	7166.72
439.52	7148.00
439.70	7119.91
439.89	7389.07
440.08	7552.91
440.26	7421.84
440.45	7393.75
440.63	7513.12
440.82	7550.57
441.01	7552.91
441.19	7679.30
441.38	7740.15
441.57	7852.50
441.75	8002.29
441.94	7936.76
442.12	7981.23
442.31	8100.59
442.50	8102.93
442.68	7894.63
442.87	8142.72
443.05	8051.44
443.24	8306.56
443.43	8163.79
443.61	8351.03
443.80	8493.80
443.98	8070.17
444.17	7901.65
444.35	8238.69
444.54	8306.56
444.73	8428.27
444.91	8454.02
445.10	8400.18
445.28	8505.51
445.47	8231.66
445.65	8255.07
445.84	8341.67
446.02	8585.08
446.21	8414.23
446.39	8444.65
446.58	8650.62
446.77	8582.74
446.95	8344.01
447.14	8517.21
447.32	8461.04
447.51	8465.72
447.69	8301.88
447.88	8688.07
448.06	8507.85
448.25	8540.61
448.43	8688.07
448.62	8608.49
448.80	8608.49
448.99	8814.46
449.17	8774.67
449.36	8905.74
449.54	8781.69
449.73	8849.57
449.91	8987.66
450.10	9015.74
450.28	9219.37
450.46	9109.36
450.65	8950.21
450.83	8952.55
451.02	9064.89
451.20	9289.59
451.39	9074.26
451.57	9177.24
451.76	9020.42
451.94	9359.80
452.13	9568.11
452.31	9423.00
452.49	9100.00
452.68	9488.53
452.86	9413.63
453.05	9266.18
453.23	9600.88
453.42	9561.09
453.60	9401.93
453.78	9483.85
453.97	9710.88
454.15	9582.15
454.34	9502.58
454.52	9486.19
454.70	9734.29
454.89	9647.69
455.07	9687.48
455.26	10010.47
455.44	10029.20
455.62	10099.41
455.81	10047.92
455.99	10160.27
456.17	10230.48
456.36	10115.80
456.54	10305.38
456.73	10258.57
456.91	10679.86
457.09	10487.94
457.28	10663.48
457.46	10200.05
457.64	10513.69
457.83	10389.64
458.01	10485.60
458.19	10832.00
458.38	10485.60
458.56	10895.19
458.74	10649.44
458.93	10380.28
459.11	10761.78
459.29	10864.77
459.48	10902.22
459.66	10721.99
459.84	10949.03
460.03	11222.87
460.21	10934.98
460.39	10824.98
460.57	10839.02
460.76	11176.06
460.94	11304.79
461.12	11403.09
461.31	11218.19
461.49	11246.27
461.67	11059.03
461.85	11719.06
462.04	11499.05
462.22	11648.85
462.40	11449.90
462.59	11555.22
462.77	11452.24
462.95	11735.45
463.13	11641.82
463.32	11407.77
463.50	11913.33
463.68	11819.71
463.86	11765.87
464.05	11831.41
464.23	11496.71
464.41	11756.51
464.59	11726.08
464.78	12074.82
464.96	12072.48
465.14	11920.35
465.32	12042.06
465.50	12018.65
465.69	12233.98
465.87	12224.62
466.05	12105.25
466.23	12196.53
466.41	12210.57
466.60	12470.37
466.78	12219.94
466.96	12166.10
467.14	12334.62
467.32	12507.82
467.51	12692.73
467.69	12353.35
467.87	12423.56
468.05	12624.85
468.23	12657.62
468.41	12596.76
468.60	12620.17
468.78	12571.02
468.96	12397.82
469.14	12702.09
469.32	13029.76
469.50	12718.47
469.69	13160.83
469.87	13011.04
470.05	13170.19
470.23	13088.28
470.41	13092.96
470.59	13308.29
470.77	13097.64
470.95	13123.38
471.14	13666.39
471.32	13207.64
471.50	13507.23
471.68	13750.65
471.86	13816.18
472.04	13769.37
472.22	14366.21
472.40	13685.11
472.58	14031.51
472.77	14101.73
472.95	14200.03
473.13	14492.60
473.31	14101.73
473.49	14038.53
473.67	14153.22
473.85	14307.69
474.03	14532.39
474.21	14775.80
474.39	14878.79
474.57	14733.67
474.75	14810.91
474.93	14881.13
475.12	15096.46
475.30	15480.30
475.48	15091.77
475.66	15414.77
475.84	15260.29
476.02	15363.28
476.20	15571.58
476.38	15999.90
476.56	16126.29
476.74	15936.71
476.92	15885.22
477.10	15822.02
477.28	16411.84
477.46	16194.17
477.64	16393.11
477.82	16430.56
478.00	16931.44
478.18	16723.13
478.36	16919.73
478.54	17114.00
478.72	17191.23
478.90	17324.65
479.08	17523.59
479.26	17823.18
479.44	17972.97
479.62	17755.30
479.80	17877.01
479.98	18417.68
480.16	18640.03
480.34	18335.76
480.52	18583.85
480.70	18614.28
480.88	18483.21
481.06	18691.52
481.24	19098.77
481.41	18967.70
481.59	19552.84
481.77	19679.22
481.95	19751.78
482.13	19747.10
482.31	19655.82
482.49	20266.70
482.67	20353.30
482.85	20374.36
483.03	20386.07
483.21	20587.35
483.39	21018.01
483.57	20769.91
483.74	21153.76
483.92	21696.77
484.10	21296.53
484.28	21673.36
484.46	21907.41
484.64	22181.26
484.82	21888.69
485.00	22305.31
485.18	22759.37
485.35	22789.80
485.53	22771.07
485.71	23094.07
485.89	23688.56
486.07	23466.21
486.25	23569.19
486.43	23821.97
486.61	24100.50
486.78	24215.18
486.96	24250.29
487.14	24840.11
487.32	24559.24
487.50	25113.95
487.68	25022.67
487.85	25546.95
488.03	25488.43
488.21	25731.85
488.39	25720.15
488.57	25921.43
488.75	26370.82
488.92	26672.74
489.10	26581.46
489.28	27119.79
489.46	27030.85
489.64	27300.01
489.81	27967.06
489.99	27887.48
490.17	28032.60
490.35	27878.12
490.53	27807.90
490.70	28318.14
490.88	28226.86
491.06	28730.08
491.24	29088.18
491.41	29350.32
491.59	29235.63
491.77	29708.42
491.95	29654.59
492.13	29762.25
492.30	30213.98
492.48	30031.41
492.66	30349.73
492.84	30286.53
493.01	30298.23
493.19	31171.25
493.37	31351.48
493.54	31468.50
493.72	31482.55
493.90	31613.62
494.08	32023.21
494.25	32130.87
494.43	32231.52
494.61	32587.28
494.79	32748.78
494.96	32669.20
495.14	32987.51
495.32	33071.77
495.49	33153.69
495.67	33493.07
495.85	33773.93
496.02	34087.56
496.20	34031.39
496.38	34115.65
496.55	34609.50
496.73	35185.27
496.91	35112.72
497.09	34995.69
497.26	35295.28
497.44	35564.44
497.62	35332.73
497.79	35742.32
497.97	35349.11
498.14	35931.90
498.32	36437.46
498.50	36287.67
498.67	36907.91
498.85	36446.82
499.03	36975.78
499.20	36741.73
499.38	37071.75
499.56	37294.10
499.73	37457.93
499.91	37530.49
500.08	37820.72
500.26	37305.80
500.44	38007.96
500.61	37979.87
500.79	38007.96
500.97	38122.65
501.14	38632.88
501.32	38450.32
501.49	38988.64
501.67	39019.07
501.84	38972.26
502.02	38740.55
502.20	39002.69
502.37	39763.36
502.55	39463.77
502.72	39742.30
502.90	39880.39
503.07	39885.07
503.25	40144.87
503.43	40032.52
503.60	40095.72
503.78	40320.41
503.95	40250.19
504.13	40741.71
504.30	40737.02
504.48	40741.71
504.65	40980.44
504.83	41074.06
505.01	41359.61
505.18	41088.10
505.36	41652.17
505.53	41273.01
505.71	41572.60
505.88	41872.18
506.06	41170.02
506.23	41947.08
506.41	41771.54
506.58	42122.62
506.76	42342.63
506.93	42586.05
507.11	42466.68
507.28	42777.97
507.46	43175.86
507.63	43346.72
507.81	43639.29
507.98	43007.34
508.16	43122.03
508.33	43711.84
508.50	43931.86
508.68	43819.51
508.85	43831.21
509.03	43950.58
509.20	43363.11
509.38	44285.28
509.55	44746.36
509.73	44521.67
509.90	44870.41
510.08	44720.62
510.25	44470.18
510.42	45020.20
510.60	45013.18
510.77	45036.59
510.95	45408.73
511.12	45694.28
511.30	45729.39
511.47	45745.77
511.64	45511.72
511.82	45897.91
511.99	45734.07
512.17	46169.41
512.34	45621.72
512.51	46494.74
512.69	46361.33
512.86	46649.22
513.04	46913.70
513.21	46363.67
513.38	46731.14
513.56	47035.41
513.73	46869.23
513.90	47089.24
514.08	46913.70
514.25	47536.28
514.43	47475.43
514.60	47690.76
514.77	47309.25
514.95	47466.06
515.12	47868.64
515.29	47777.36
515.47	47805.44
515.64	48215.04
515.81	48121.41
515.99	48257.17
516.16	48818.89
516.33	48523.99
516.51	48699.53
516.68	48463.13
516.85	48612.93
517.03	48877.41
517.20	49174.66
517.37	49137.21
517.54	49242.53
517.72	49153.59
517.89	49467.22
518.06	49490.63
518.24	49556.16
518.41	49523.40
518.58	49294.02
518.75	49324.45
518.93	49914.26
519.10	49378.28
519.27	49827.66
519.45	49794.90
519.62	49808.94
519.79	50089.80
519.96	50117.89
520.14	50260.66
520.31	50042.99
520.48	50447.91
520.65	50600.04
520.83	50871.54
521.00	50707.71
521.17	50728.77
521.34	50595.36
521.52	51063.47
521.69	51086.87
521.86	51150.07
522.03	51416.89
522.20	51564.34
522.38	51831.16
522.55	51636.90
522.72	51241.35
522.89	51243.69
523.07	51936.49
523.24	51885.00
523.41	52037.13
523.58	51477.74
523.75	51821.80
523.92	52039.47
524.10	52238.42
524.27	52222.03
524.44	52191.61
524.61	52327.36
524.78	52530.98
524.96	52285.23
525.13	52617.58
525.30	52446.72
525.47	52430.34
525.64	52643.33
525.81	52842.27
525.98	52722.91
526.16	52659.71
526.33	52823.55
526.50	53169.95
526.67	53106.76
526.84	53200.38
527.01	52999.09
527.18	53043.56
527.36	53181.65
527.53	53366.55
527.70	53361.87
527.87	53652.10
528.04	53275.27
528.21	53556.14
528.38	53460.18
528.55	53305.70
528.72	53509.33
528.89	53324.43
529.07	53577.20
529.24	53488.26
529.41	53963.39
529.58	54010.20
529.75	53675.51
529.92	53682.53
530.09	53979.78
530.26	54169.36
530.43	53890.83
530.60	53972.75
530.77	53918.92
530.94	54295.75
531.11	54326.17
531.28	54204.47
531.46	54394.05
531.63	54316.81
531.80	54600.02
531.97	54445.54
532.14	54536.82
532.31	54693.64
532.48	54461.93
532.65	54588.31
532.82	54749.81
532.99	54712.36
533.16	54445.54
533.33	54859.82
533.50	55187.49
533.67	55033.02
533.84	54834.07
534.01	54892.58
534.18	54941.74
534.35	55356.01
534.52	55257.71
534.69	55526.87
534.86	55508.14
535.03	55255.37
535.20	55430.91
535.37	55217.92
535.54	55817.10
535.71	55159.41
535.88	55437.93
536.05	55444.95
536.22	55498.78
536.38	55856.88
536.55	55629.85
536.72	55625.17
536.89	55599.43
537.06	55646.24
537.23	56032.42
537.40	55821.78
537.57	55686.03
537.74	55887.31
537.91	56025.40
538.08	56097.96
538.25	55814.76
538.42	56065.19
538.59	56411.59
538.75	56011.36
538.92	56121.37
539.09	56477.13
539.26	56406.91
539.43	56273.50
539.60	56231.37
539.77	56280.52
539.94	56481.81
540.11	56395.21
540.28	56676.07
540.44	56488.83
540.61	56549.68
540.78	56247.75
540.95	56336.69
541.12	56332.01
541.29	56495.85
541.46	56935.87
541.62	56640.96
541.79	56743.95
541.96	56350.74
542.13	56884.38
542.30	56774.37
542.47	56966.30
542.63	57073.96
542.80	57064.60
542.97	57169.93
543.14	57415.68
543.31	57251.84
543.48	57368.87
543.64	57403.98
543.81	57457.81
543.98	57509.30
544.15	57492.92
544.32	57530.37
544.48	57448.45
544.65	57389.94
544.82	57539.73
544.99	57406.32
545.16	57638.03
545.32	57471.85
545.49	57825.28
545.66	58068.69
545.83	57738.68
546.00	57785.49
546.16	57792.51
546.33	57544.41
546.50	57336.10
546.67	57724.63
546.83	57567.82
547.00	57783.15
547.17	57794.85
547.34	57677.82
547.50	58183.38
547.67	58183.38
547.84	58143.59
548.00	58300.40
548.17	58454.88
548.34	58021.88
548.51	58234.87
548.67	58351.90
548.84	58155.29
549.01	58328.49
549.18	58255.93
549.34	58473.60
549.51	58337.85
549.68	58466.58
549.84	58363.60
550.01	58459.56
550.18	58382.32
550.34	58408.07
550.51	58492.33
550.68	58618.72
550.84	58342.53
551.01	58724.04
551.18	58623.40
551.34	58726.38
551.51	58403.39
551.68	58686.59
551.84	58693.61
552.01	58415.09
552.18	58663.19
552.34	58621.06
552.51	58866.81
552.68	58712.34
552.84	58763.83
553.01	59018.95
553.18	58918.31
553.34	58906.60
553.51	58836.39
553.67	58866.81
553.84	59091.51
554.01	58995.54
554.17	59063.42
554.34	59208.53
554.51	59161.72
554.67	59002.56
554.84	59018.95
555.00	59112.57
555.17	58862.13
555.33	59423.86
555.50	58958.09
555.67	59100.87
555.83	59093.85
556.00	59147.68
556.16	59437.90
556.33	59320.88
556.50	59248.32
556.66	59213.21
556.83	59337.26
556.99	59655.57
557.16	59545.57
557.32	59746.86
557.49	59714.09
557.65	59468.33
557.82	59533.87
557.98	59416.84
558.15	59678.98
558.32	59583.02
558.48	59487.06
558.65	59536.21
558.81	59505.78
558.98	59737.49
559.14	59821.75
559.31	59545.57
559.47	59732.81
559.64	59749.20
559.80	59866.22
559.97	59838.14
560.13	59564.29
560.30	59861.54
560.46	59906.01
560.63	59824.09
560.79	59737.49
560.96	59779.62
561.12	59632.17
561.29	59945.80
561.45	59753.88
561.61	59985.59
561.78	59870.90
561.94	59943.46
562.11	59929.42
562.27	60030.06
562.44	60081.55
562.60	60200.92
562.77	60111.98
562.93	59800.69
563.10	60027.72
563.26	60013.68
563.42	60273.48
563.59	59950.48
563.75	59950.48
563.92	60189.22
564.08	60285.18
564.24	60221.98
564.41	60133.04
564.57	60231.35
564.74	60395.18
564.90	60250.07
565.07	60219.64
565.23	60154.11
565.39	60231.35
565.56	60275.82
565.72	60360.08
565.88	60121.34
566.05	60074.53
566.21	60097.94
566.38	60168.15
566.54	60294.54
566.70	60526.25
566.87	60385.82
567.03	60210.28
567.19	60598.81
567.36	60521.57
567.52	60367.10
567.68	60584.77
567.85	60404.55
568.01	60587.11
568.17	60236.03
568.34	60488.80
568.50	60486.46
568.66	60568.38
568.83	60570.72
568.99	60465.40
569.15	60498.17
569.32	60275.82
569.48	60453.70
569.64	60692.43
569.81	60432.63
569.97	60617.53
570.13	60734.56
570.30	60507.53
570.46	60521.57
570.62	60399.86
570.78	60598.81
570.95	60502.85
571.11	60699.45
571.27	60537.96
571.43	60690.09
571.60	60631.58
571.76	60650.30
571.92	60788.39
572.09	60601.15
572.25	60764.99
572.41	60514.55
572.57	60647.96
572.74	60790.73
572.90	60687.75
573.06	60692.43
573.22	60418.59
573.38	60619.88
573.55	60720.52
573.71	60774.35
573.87	60645.62
574.03	60484.12
574.20	60603.49
574.36	60708.82
574.52	60795.42
574.68	60786.05
574.84	60999.04
575.01	60823.50
575.17	60839.89
575.33	60874.99
575.49	60760.31
575.65	60687.75
575.82	60931.17
575.98	60863.29
576.14	61059.90
576.30	60963.93
576.46	60797.76
576.62	60720.52
576.79	60795.42
576.95	60802.44
577.11	60779.03
577.27	60931.17
577.43	60879.67
577.59	60772.01
577.75	60889.04
577.92	60919.46
578.08	60860.95
578.24	60938.19
578.40	60926.49
578.56	61052.87
578.72	60832.86
578.88	61125.43
579.04	61092.66
579.21	61048.19
579.37	61146.50
579.53	61197.99
579.69	60769.67
579.85	61057.56
580.01	60802.44
580.17	60844.57
580.33	60985.00
580.49	60985.00
580.65	61050.53
580.82	60985.00
580.98	60942.87
581.14	60704.13
581.30	61017.77
581.46	60945.21
581.62	60987.34
581.78	60954.57
581.94	60949.89
582.10	61050.53
582.26	60898.40
582.42	61212.03
582.58	61052.87
582.74	60893.72
582.90	60996.70
583.06	60987.34
583.22	60790.73
583.38	61085.64
583.54	61102.03
583.70	61022.45
583.86	61165.22
584.02	61036.49
584.18	61099.68
584.34	60968.61
584.50	61167.56
584.66	60959.25
584.82	60886.70
584.98	61361.82
585.14	61160.54
585.30	60879.67
585.46	61062.24
585.62	61003.72
585.78	61186.28
585.94	61059.90
586.10	61176.92
586.26	61069.26
586.42	61202.67
586.58	61373.53
586.74	61197.99
586.90	61104.37
587.06	61226.07
587.22	61144.16
587.38	61085.64
587.54	61357.14
587.70	61366.51
587.86	61251.82
588.02	61228.41
588.18	61219.05
588.34	61331.40
588.49	61183.94
