SpectraSuite Data File
++++++++++++++++++++++++++++++++++++
Date: Fri Oct 25 11:23:05 EDT 2013
User: price-jones
Dark Spectrum Present: No
Reference Spectrum Present: No
Number of Sampled Component Spectra: 1
Spectrometers: USB2+H05261
Integration Time (usec): 100000 (USB2+H05261)
Spectra Averaged: 1 (USB2+H05261)
Boxcar Smoothing: 0 (USB2+H05261)
Correct for Electrical Dark: No (USB2+H05261)
Strobe/Lamp Enabled: No (USB2+H05261)
Correct for Detector Non-linearity: No (USB2+H05261)
Correct for Stray Light: No (USB2+H05261)
Number of Pixels in Processed Spectrum: 2048
>>>>>Begin Processed Spectral Data<<<<<
365.73	257.46
365.92	257.46
366.12	257.46
366.32	86.60
366.52	159.16
366.72	168.52
366.91	145.11
367.11	107.66
367.31	149.79
367.51	79.58
367.70	105.32
367.90	147.45
368.10	107.66
368.30	138.09
368.49	177.88
368.69	135.75
368.89	149.79
369.09	81.92
369.28	117.03
369.48	189.58
369.68	257.46
369.87	175.54
370.07	145.11
370.27	220.01
370.47	353.42
370.66	528.96
370.86	575.77
371.06	608.54
371.25	720.88
371.45	692.80
371.65	674.07
371.84	725.57
372.04	645.99
372.24	662.37
372.44	711.52
372.63	699.82
372.83	727.91
373.03	763.01
373.22	718.54
373.42	730.25
373.62	772.38
373.81	741.95
374.01	833.23
374.21	795.78
374.40	793.44
374.60	847.27
374.79	807.48
374.99	800.46
375.19	784.08
375.38	858.98
375.58	884.72
375.78	922.17
375.97	875.36
376.17	873.02
376.37	889.40
376.56	863.66
376.76	781.74
376.95	887.06
377.15	940.90
377.35	835.57
377.54	873.02
377.74	919.83
377.93	877.70
378.13	898.77
378.33	952.60
378.52	919.83
378.72	908.13
378.91	959.62
379.11	905.79
379.31	1013.45
379.50	936.21
379.70	1041.54
379.89	1011.11
380.09	908.13
380.28	945.58
380.48	1034.52
380.68	997.07
380.87	943.24
381.07	1020.47
381.26	1018.13
381.46	1011.11
381.65	1062.60
381.85	1081.33
382.04	1074.31
382.24	1078.99
382.43	1057.92
382.63	1062.60
382.83	1086.01
383.02	1137.50
383.22	1130.48
383.41	1123.46
383.61	1039.20
383.80	1116.44
384.00	1050.90
384.19	1130.48
384.39	1116.44
384.58	1139.84
384.78	1158.57
384.97	1149.20
385.17	1025.15
385.36	1102.39
385.56	1200.69
385.75	1233.46
385.95	1231.12
386.14	1198.35
386.34	1151.54
386.53	1266.23
386.72	1163.25
386.92	1245.16
387.11	1254.53
387.31	1254.53
387.50	1149.20
387.70	1254.53
387.89	1282.61
388.09	1256.87
388.28	1322.40
388.48	1345.81
388.67	1444.11
388.86	1306.02
389.06	1334.11
389.25	1366.87
389.45	1369.21
389.64	1404.32
389.84	1341.13
390.03	1437.09
390.22	1479.22
390.42	1345.81
390.61	1343.47
390.81	1345.81
391.00	1432.41
391.19	1472.20
391.39	1497.94
391.58	1453.47
391.78	1462.83
391.97	1490.92
392.16	1542.41
392.36	1540.07
392.55	1542.41
392.75	1584.54
392.94	1607.95
393.13	1502.62
393.33	1490.92
393.52	1593.90
393.71	1570.50
393.91	1556.46
394.10	1643.06
394.29	1657.10
394.49	1572.84
394.68	1626.67
394.88	1584.54
395.07	1734.34
395.26	1685.19
395.46	1743.70
395.65	1673.48
395.84	1741.36
396.04	1724.97
396.23	1727.32
396.42	1654.76
396.62	1839.66
396.81	1895.83
397.00	1797.53
397.19	1804.55
397.39	1856.04
397.58	1797.53
397.77	1849.02
397.97	1769.44
398.16	1783.49
398.35	1928.60
398.55	1853.70
398.74	1954.35
398.93	1935.62
399.12	1905.20
399.32	1930.94
399.51	1881.79
399.70	2062.01
399.90	1952.01
400.09	2045.63
400.28	2108.82
400.47	2029.24
400.67	2162.66
400.86	2047.97
401.05	2139.25
401.24	2122.87
401.44	2071.37
401.63	2174.36
401.82	2099.46
402.01	2235.21
402.21	2237.55
402.40	2202.44
402.59	2230.53
402.78	2183.72
402.97	2354.58
403.17	2345.22
403.36	2246.91
403.55	2275.00
403.74	2401.39
403.93	2373.30
404.13	2340.54
404.32	2356.92
404.51	2260.96
404.70	2457.56
404.89	2389.69
405.09	2569.91
405.28	2595.65
405.47	2511.39
405.66	2534.80
405.85	2520.76
406.05	2600.34
406.24	2600.34
406.43	2546.50
406.62	2665.87
406.81	2654.17
407.00	2520.76
407.20	2597.99
407.39	2700.98
407.58	2689.28
407.77	2738.43
407.96	2771.19
408.15	2806.30
408.34	2726.72
408.54	2782.90
408.73	2731.41
408.92	2853.11
409.11	2846.09
409.30	2963.12
409.49	2956.10
409.68	2911.63
409.87	3007.59
410.07	3148.02
410.26	3098.87
410.45	2995.89
410.64	3141.00
410.83	3157.38
411.02	3056.74
411.21	3309.52
411.40	3103.55
411.59	3276.75
411.78	3204.19
411.98	3194.83
412.17	3300.16
412.36	3344.63
412.55	3410.16
412.74	3461.65
412.93	3447.61
413.12	3393.78
413.31	3562.30
413.50	3459.31
413.69	3459.31
413.88	3735.50
414.07	3569.32
414.26	3644.21
414.45	3606.77
414.64	3632.51
414.83	3712.09
415.02	3927.42
415.22	3847.84
415.41	3946.14
415.60	3892.31
415.79	3957.85
415.98	4004.66
416.17	4133.39
416.36	3908.69
416.55	3969.55
416.74	4081.89
416.93	4121.68
417.12	4140.41
417.31	4187.22
417.50	4273.82
417.69	4306.59
417.88	4294.88
418.07	4297.22
418.26	4404.89
418.45	4358.08
418.64	4613.20
418.83	4507.87
419.02	4538.30
419.21	4521.92
419.39	4521.92
419.58	4561.70
419.77	4463.40
419.96	4585.11
420.15	4615.54
420.34	4531.28
420.53	4561.70
420.72	4770.01
420.91	4734.90
421.10	4819.16
421.29	4784.06
421.48	4746.61
421.67	4964.28
421.86	4875.34
422.05	4889.38
422.24	4823.84
422.43	5011.09
422.61	4849.59
422.80	5011.09
422.99	5050.88
423.18	4961.94
423.37	4973.64
423.56	4997.04
423.75	4992.36
423.94	4910.44
424.13	4657.67
424.32	4770.01
424.50	5029.81
424.69	5102.37
424.88	5116.41
425.07	4999.38
425.26	4980.66
425.45	5062.58
425.64	4997.04
425.83	4821.50
426.01	5233.44
426.20	5146.84
426.39	5146.84
426.58	5055.56
426.77	5205.35
426.96	5266.21
427.15	5331.74
427.33	5224.08
427.52	5275.57
427.71	5376.21
427.90	5195.99
428.09	5277.91
428.28	5476.85
428.46	5481.53
428.65	5371.53
428.84	5558.77
429.03	5533.03
429.22	5418.34
429.40	5731.97
429.59	5495.58
429.78	5369.19
429.97	5303.65
430.16	5420.68
430.34	5692.18
430.53	5666.44
430.72	5788.14
430.91	5659.42
431.10	5675.80
431.28	5877.09
431.47	5797.51
431.66	6057.31
431.85	6054.97
432.03	5867.72
432.22	6092.41
432.41	5893.47
432.60	6066.67
432.79	5921.56
432.97	6118.16
433.16	5961.34
433.35	6214.12
433.54	6069.01
433.72	6162.63
433.91	6382.64
434.10	6293.70
434.28	6296.04
434.47	6174.33
434.66	6452.86
434.85	6490.31
435.03	6452.86
435.22	6274.98
435.41	6537.12
435.59	6448.18
435.78	6305.40
435.97	6469.24
436.16	6413.07
436.34	6597.97
436.53	6654.14
436.72	6717.34
436.90	6448.18
437.09	6621.38
437.28	6539.46
437.46	6754.79
437.65	6794.58
437.84	6825.00
438.02	6827.34
438.21	6953.73
438.40	6703.29
438.58	6949.05
438.77	7185.44
438.96	7054.37
439.14	7115.23
439.33	6979.48
439.52	7353.96
439.70	7309.49
439.89	7279.07
440.08	7342.26
440.26	7492.05
440.45	7543.55
440.63	7552.91
440.82	7639.51
441.01	7702.70
441.19	7700.36
441.38	7889.95
441.57	7756.54
441.75	7824.41
441.94	7875.90
442.12	7943.78
442.31	8060.80
442.50	8056.12
442.68	8042.08
442.87	8140.38
443.05	8315.92
443.24	8318.26
443.43	8259.75
443.61	8128.68
443.80	8638.92
443.98	8290.18
444.17	8100.59
444.35	8142.72
444.54	8496.14
444.73	8294.86
444.91	8320.60
445.10	8533.59
445.28	8439.97
445.47	8365.07
445.65	8461.04
445.84	8493.80
446.02	8423.59
446.21	8418.91
446.39	8437.63
446.58	8372.10
446.77	8418.91
446.95	8475.08
447.14	8339.33
447.32	8589.77
447.51	8652.96
447.69	8643.60
447.88	8608.49
448.06	8669.34
448.25	8652.96
448.43	8596.79
448.62	8683.39
448.80	8610.83
448.99	8805.10
449.17	8795.73
449.36	8695.09
449.54	8980.64
449.73	9008.72
449.91	9097.66
450.10	9210.01
450.28	9118.73
450.46	9156.18
450.65	9294.27
450.83	9170.22
451.02	9191.28
451.20	9254.48
451.39	9308.31
451.57	9146.81
451.76	9205.33
451.94	9305.97
452.13	9423.00
452.31	9514.28
452.49	9125.75
452.68	9268.52
452.86	9605.56
453.05	9488.53
453.23	9750.67
453.42	9448.74
453.60	9493.21
453.78	9626.62
453.97	9600.88
454.15	9706.20
454.34	9490.87
454.52	9771.74
454.70	9851.31
454.89	9811.53
455.07	9856.00
455.26	9806.84
455.44	10047.92
455.62	9905.15
455.81	10108.77
455.99	10176.65
456.17	10125.16
456.36	10211.76
456.54	10099.41
456.73	10319.42
456.91	10551.14
457.09	10555.82
457.28	10752.42
457.46	10490.28
457.64	10656.46
457.83	10607.31
458.01	10406.02
458.19	10609.65
458.38	10579.22
458.56	10876.47
458.74	10956.05
458.93	10768.80
459.11	10787.53
459.29	10895.19
459.48	11105.84
459.66	10995.84
459.84	10888.17
460.03	11433.52
460.21	11138.61
460.39	11098.82
460.57	11028.60
460.76	11220.53
460.94	11159.67
461.12	11194.78
461.31	11293.08
461.49	11386.71
461.67	11250.96
461.85	11651.19
462.04	11367.98
462.22	11564.59
462.40	11613.74
462.59	11770.55
462.77	11653.53
462.95	11829.07
463.13	11391.39
463.32	11705.02
463.50	11805.66
463.68	11861.84
463.86	11899.28
464.05	11705.02
464.23	11845.45
464.41	11981.20
464.59	12013.97
464.78	12175.47
464.96	12205.89
465.14	12175.47
465.32	12072.48
465.50	12322.92
465.69	12418.88
465.87	12358.03
466.05	12428.24
466.23	12264.41
466.41	12484.42
466.60	12578.04
466.78	12645.91
466.96	12468.03
467.14	12514.84
467.32	12615.49
467.51	12737.20
467.69	12475.06
467.87	12568.68
468.05	12702.09
468.23	12484.42
468.41	12549.95
468.60	13053.17
468.78	12978.27
468.96	12685.70
469.14	12985.29
469.32	13025.08
469.50	12711.45
469.69	12980.61
469.87	13156.15
470.05	13137.43
470.23	13446.38
470.41	13102.32
470.59	13357.44
470.77	13495.53
470.95	13404.25
471.14	13720.22
471.32	13324.67
471.50	13745.97
471.68	13834.91
471.86	13769.37
472.04	14050.24
472.22	14080.66
472.40	13757.67
472.58	13977.68
472.77	14122.79
472.95	14040.87
473.13	14761.76
473.31	14188.33
473.49	14499.62
473.67	14256.20
473.85	14363.87
474.03	14707.93
474.21	14888.15
474.39	15152.63
474.57	14787.50
474.75	15185.40
474.93	15335.19
475.12	14967.73
475.30	15370.30
475.48	15047.30
475.66	15321.15
475.84	15475.62
476.02	15578.61
476.20	15714.36
476.38	15775.21
476.56	16318.22
476.74	16191.83
476.92	15925.00
477.10	16212.89
477.28	16397.79
477.46	16510.14
477.64	16453.97
477.82	16781.64
478.00	17139.74
478.18	17226.34
478.36	17027.40
478.54	17202.94
478.72	17413.59
478.90	17469.76
479.08	17837.22
479.26	17809.14
479.44	18054.89
479.62	17951.91
479.80	17972.97
479.98	18284.26
480.16	18724.29
480.34	18352.14
480.52	18703.22
480.70	18677.48
480.88	18607.26
481.06	19166.65
481.24	18948.98
481.41	19335.17
481.59	19571.56
481.77	19922.64
481.95	19625.39
482.13	19882.85
482.31	20013.92
482.49	20533.52
482.67	20322.87
482.85	20699.70
483.03	20812.04
483.21	21085.89
483.39	21106.95
483.57	21071.84
483.74	21350.37
483.92	21790.39
484.10	21481.44
484.28	22099.34
484.46	22228.07
484.64	22815.54
484.82	22401.27
485.00	22771.07
485.18	23002.78
485.35	23412.38
485.53	23278.97
485.71	23307.05
485.89	23641.75
486.07	23702.61
486.25	23962.40
486.43	23772.82
486.61	24009.22
486.78	24428.17
486.96	24250.29
487.14	24936.07
487.32	24814.36
487.50	25048.41
487.68	24687.97
487.85	25715.47
488.03	25570.35
488.21	26068.89
488.39	26118.04
488.57	26705.51
488.75	26424.65
488.92	26731.26
489.10	26918.50
489.28	26960.63
489.46	27431.08
489.64	27618.32
489.81	27922.59
489.99	28191.75
490.17	27494.27
490.35	28580.28
490.53	28706.67
490.70	28863.49
490.88	28561.56
491.06	28823.70
491.24	29130.31
491.41	29525.86
491.59	29670.97
491.77	29249.67
491.95	29743.53
492.13	29846.51
492.30	30263.13
492.48	30110.99
492.66	30221.00
492.84	30693.79
493.01	30916.14
493.19	30930.18
493.37	31409.99
493.54	31679.15
493.72	31730.64
493.90	31812.56
494.08	32135.56
494.25	32519.40
494.43	32308.76
494.61	32528.77
494.79	32931.34
494.96	32870.48
495.14	33149.01
495.32	33385.40
495.49	33560.94
495.67	33443.91
495.85	33799.68
496.02	34101.61
496.20	34181.18
496.38	34146.08
496.55	34160.12
496.73	34888.03
496.91	34644.61
497.09	35065.91
497.26	35555.08
497.44	35672.10
497.62	35892.12
497.79	36266.60
497.97	35768.07
498.14	36563.85
498.32	36491.29
498.50	36481.93
498.67	36748.75
498.85	37022.59
499.03	36999.19
499.20	37097.49
499.38	37455.59
499.56	37525.81
499.73	37523.47
499.91	37825.40
500.08	38445.64
500.26	37816.04
500.44	38429.26
500.61	38087.54
500.79	38078.18
500.97	38651.61
501.14	39154.82
501.32	38782.68
501.49	39126.74
501.67	39196.95
501.84	39625.27
502.02	39232.06
502.20	39363.13
502.37	39543.35
502.55	39571.44
502.72	39416.96
502.90	40037.20
503.07	39800.81
503.25	40177.64
503.43	40147.21
503.60	40561.48
503.78	40418.71
503.95	40648.08
504.13	41525.78
504.30	41254.28
504.48	41069.38
504.65	41413.44
504.83	41984.53
505.01	42209.22
505.18	41860.48
505.36	42080.49
505.53	41486.00
505.71	42139.00
505.88	42106.24
506.06	41930.70
506.23	42810.74
506.41	41830.05
506.58	42485.40
506.76	42646.90
506.93	43129.05
507.11	43290.55
507.28	43159.48
507.46	43283.53
507.63	43426.30
507.81	43835.89
507.98	43339.70
508.16	43269.48
508.33	43716.53
508.50	44186.97
508.68	43976.33
508.85	44289.96
509.03	44404.64
509.20	44767.43
509.38	44924.24
509.55	44987.44
509.73	44973.39
509.90	45106.80
510.08	45015.52
510.25	45289.37
510.42	45048.29
510.60	45769.18
510.77	45689.60
510.95	45806.62
511.12	45179.36
511.30	45865.14
511.47	45696.62
511.64	46227.92
511.82	46670.28
511.99	45937.69
512.17	46560.28
512.34	46452.61
512.51	46691.35
512.69	46960.51
512.86	46740.50
513.04	47210.95
513.21	47138.39
513.38	47037.75
513.56	47433.30
513.73	47346.70
513.90	47477.77
514.08	46775.61
514.25	47929.49
514.43	48135.46
514.60	48023.11
514.77	47847.57
514.95	48016.09
515.12	47985.66
515.29	48385.89
515.47	48343.77
515.64	48266.53
515.81	48535.69
515.99	48577.82
516.16	48783.79
516.33	49022.52
516.51	49095.08
516.68	48746.34
516.85	49132.53
517.03	49088.06
517.20	49308.07
517.37	49427.43
517.54	48968.69
517.72	49546.80
517.89	49329.13
518.06	49659.15
518.24	49848.73
518.41	49764.47
518.58	49741.06
518.75	49977.46
518.93	49851.07
519.10	49750.43
519.27	50209.17
519.45	50487.70
519.62	50557.91
519.79	50646.85
519.96	50445.57
520.14	50951.12
520.31	50468.97
520.48	50658.56
520.65	50974.53
520.83	51201.56
521.00	51143.05
521.17	50880.91
521.34	51096.24
521.52	51248.37
521.69	51243.69
521.86	51430.93
522.03	51323.27
522.20	51896.70
522.38	52018.41
522.55	51573.70
522.72	52083.94
522.89	51817.12
523.07	52238.42
523.24	51917.76
523.41	51870.95
523.58	52090.96
523.75	52327.36
523.92	52121.39
524.10	52657.37
524.27	52437.36
524.44	52610.56
524.61	52474.81
524.78	52533.32
524.96	52519.28
525.13	52715.89
525.30	52982.71
525.47	53050.58
525.64	52631.63
525.81	53165.27
525.98	52973.34
526.16	53095.05
526.33	52861.00
526.50	53577.20
526.67	53144.20
526.84	53284.64
527.01	53228.46
527.18	53162.93
527.36	53219.10
527.53	53469.54
527.70	53673.16
527.87	53696.57
528.04	53432.09
528.21	53600.61
528.38	53591.25
528.55	54040.63
528.72	53839.34
528.89	54007.86
529.07	53712.95
529.24	53712.95
529.41	54220.85
529.58	53900.20
529.75	53869.77
529.92	53947.01
530.09	54089.78
530.26	54363.62
530.43	54120.21
530.60	54475.97
530.77	54218.51
530.94	54670.23
531.11	54316.81
531.28	54363.62
531.46	54408.09
531.63	54726.41
531.80	54756.83
531.97	54871.52
532.14	54691.30
532.31	55018.97
532.48	54714.70
532.65	55016.63
532.82	54511.08
532.99	54873.86
533.16	54871.52
533.33	55175.79
533.50	55384.10
533.67	55117.28
533.84	54805.98
534.01	55433.25
534.18	55187.49
534.35	55451.97
534.52	55533.89
534.69	55416.86
534.86	55730.50
535.03	55374.73
535.20	55487.08
535.37	55384.10
535.54	55908.38
535.71	55718.79
535.88	55896.67
536.05	55812.41
536.22	55798.37
536.38	56020.72
536.55	56067.53
536.72	55662.62
536.89	55683.69
537.06	55992.64
537.23	56044.13
537.40	56102.64
537.57	55908.38
537.74	55976.25
537.91	56474.79
538.08	56266.48
538.25	56032.42
538.42	56245.41
538.59	56505.21
538.75	56439.68
538.92	56308.61
539.09	56303.93
539.26	56458.40
539.43	56505.21
539.60	56652.67
539.77	56636.28
539.94	56559.05
540.11	56856.29
540.28	56870.34
540.44	56701.82
540.61	56732.25
540.78	56591.81
540.95	56694.80
541.12	56617.56
541.29	56598.83
541.46	56652.67
541.62	56959.28
541.79	56760.33
541.96	57010.77
542.13	56947.57
542.30	57092.69
542.47	57366.53
542.63	57223.76
542.80	57088.01
542.97	57631.01
543.14	57286.95
543.31	57441.43
543.48	57518.67
543.64	57708.25
543.81	57427.38
543.98	57581.86
544.15	57769.10
544.32	57677.82
544.48	57813.57
544.65	57680.16
544.82	57745.70
544.99	57567.82
545.16	57804.21
545.32	57780.81
545.49	57989.11
545.66	57991.45
545.83	57750.38
546.00	57897.83
546.16	58225.51
546.33	57860.38
546.50	57682.50
546.67	57752.72
546.83	57757.40
547.00	58253.59
547.17	57916.56
547.34	58071.03
547.50	58265.30
547.67	58588.29
547.84	58237.21
548.00	58445.52
548.17	58438.50
548.34	58377.64
548.51	58513.39
548.67	58489.99
548.84	58501.69
549.01	58543.82
549.18	58560.20
549.34	58649.14
549.51	58805.96
549.68	58752.13
549.84	58511.05
550.01	58857.45
550.18	58656.17
550.34	58871.49
550.51	58763.83
550.68	58590.63
550.84	58529.78
551.01	58845.75
551.18	58937.03
551.34	58838.73
551.51	58747.45
551.68	58862.13
551.84	58864.47
552.01	58623.40
552.18	58859.79
552.34	58710.00
552.51	59016.61
552.68	58941.71
552.84	58960.44
553.01	59096.19
553.18	59072.78
553.34	59009.59
553.51	59196.83
553.67	59185.13
553.84	59203.85
554.01	59199.17
554.17	59180.45
554.34	59203.85
554.51	59407.48
554.67	59255.34
554.84	59278.75
555.00	59302.15
555.17	59318.54
555.33	59154.70
555.50	59271.73
555.67	59341.94
555.83	59199.17
556.00	59377.05
556.16	59746.86
556.33	59547.91
556.50	59587.70
556.66	59688.34
556.83	59407.48
556.99	59568.97
557.16	59838.14
557.32	59688.34
557.49	59817.07
557.65	59601.74
557.82	59650.89
557.98	59655.57
558.15	59676.64
558.32	59845.16
558.48	59491.74
558.65	59852.18
558.81	59735.15
558.98	59746.86
559.14	59882.61
559.31	59990.27
559.47	60065.17
559.64	59980.91
559.80	60011.34
559.97	60011.34
560.13	60041.76
560.30	59929.42
560.46	59826.43
560.63	60079.21
560.79	59943.46
560.96	60009.00
561.12	60179.85
561.29	60158.79
561.45	60280.50
561.61	60004.31
561.78	60133.04
561.94	60102.62
562.11	60062.83
562.27	60158.79
562.44	60493.49
562.60	60491.15
562.77	60079.21
562.93	60196.24
563.10	60266.45
563.26	60226.66
563.42	60568.38
563.59	60369.44
563.75	60367.10
563.92	60364.76
564.08	60191.56
564.24	60498.17
564.41	60339.01
564.57	60250.07
564.74	60416.25
564.90	60292.20
565.07	60296.88
565.23	60456.04
565.39	60512.21
565.56	60444.33
565.72	60420.93
565.88	60540.30
566.05	60495.83
566.21	60434.97
566.38	60430.29
566.54	60629.24
566.70	60638.60
566.87	60488.80
567.03	60406.89
567.19	60882.02
567.36	60514.55
567.52	60561.36
567.68	60879.67
567.85	60601.15
568.01	60617.53
568.17	60732.22
568.34	60788.39
568.50	60718.18
568.66	60575.40
568.83	60729.88
568.99	60680.73
569.15	60818.82
569.32	60657.32
569.48	60500.51
569.64	60772.01
569.81	60790.73
569.97	60746.26
570.13	60851.59
570.30	60713.50
570.46	60652.64
570.62	60741.58
570.78	60790.73
570.95	60743.92
571.11	60917.12
571.27	60624.56
571.43	60818.82
571.60	61073.94
571.76	60994.36
571.92	61055.21
572.09	60856.27
572.25	60753.29
572.41	60783.71
572.57	60825.84
572.74	61036.49
572.90	60786.05
573.06	60844.57
573.22	60987.34
573.38	60788.39
573.55	60804.78
573.71	61127.77
573.87	60842.23
574.03	60903.08
574.20	60903.08
574.36	60725.20
574.52	60975.64
574.68	61066.92
574.84	61048.19
575.01	60989.68
575.17	60910.10
575.33	60907.76
575.49	60912.44
575.65	61216.71
575.82	61116.07
575.98	60912.44
576.14	61106.71
576.30	61059.90
576.46	60910.10
576.62	61134.79
576.79	61059.90
576.95	60884.36
577.11	60961.59
577.27	61090.32
577.43	61111.39
577.59	60896.06
577.75	60903.08
577.92	61158.20
578.08	61113.73
578.24	61045.85
578.40	61123.09
578.56	60992.02
578.72	61104.37
578.88	61359.48
579.04	61291.61
579.21	60966.27
579.37	61282.25
579.53	61226.07
579.69	61008.40
579.85	61069.26
580.01	61043.51
580.17	61015.43
580.33	61347.78
580.49	61132.45
580.65	61036.49
580.82	61057.56
580.98	61113.73
581.14	61141.81
581.30	61176.92
581.46	61256.50
581.62	61268.20
581.78	61071.60
581.94	61406.30
582.10	61158.20
582.26	61095.00
582.42	61165.22
582.58	61181.60
582.74	61216.71
582.90	61123.09
583.06	61261.18
583.22	60945.21
583.38	61212.03
583.54	61307.99
583.70	61090.32
583.86	61169.90
584.02	61109.05
584.18	61530.34
584.34	61223.73
584.50	61193.31
584.66	61148.84
584.82	61144.16
584.98	61265.86
585.14	61106.71
585.30	61139.47
585.46	61247.14
585.62	61230.75
585.78	61481.19
585.94	61202.67
586.10	61219.05
586.26	61329.06
586.42	61270.54
586.58	61441.40
586.74	61298.63
586.90	61331.40
587.06	61394.59
587.22	61441.40
587.38	61471.83
587.54	61441.40
587.70	61584.18
587.86	61492.89
588.02	61352.46
588.18	61413.32
588.34	61289.27
