SpectraSuite Data File
++++++++++++++++++++++++++++++++++++
Date: Fri Oct 25 11:24:05 EDT 2013
User: price-jones
Dark Spectrum Present: No
Reference Spectrum Present: No
Number of Sampled Component Spectra: 1
Spectrometers: USB2+H05261
Integration Time (usec): 100000 (USB2+H05261)
Spectra Averaged: 1 (USB2+H05261)
Boxcar Smoothing: 0 (USB2+H05261)
Correct for Electrical Dark: No (USB2+H05261)
Strobe/Lamp Enabled: No (USB2+H05261)
Correct for Detector Non-linearity: No (USB2+H05261)
Correct for Stray Light: No (USB2+H05261)
Number of Pixels in Processed Spectrum: 2048
>>>>>Begin Processed Spectral Data<<<<<
365.73	250.44
365.92	250.44
366.12	250.44
366.32	210.65
366.52	149.79
366.72	117.03
366.91	107.66
367.11	117.03
367.31	147.45
367.51	161.50
367.70	110.01
367.90	170.86
368.10	119.37
368.30	140.43
368.49	161.50
368.69	191.92
368.89	135.75
369.09	166.18
369.28	170.86
369.48	100.64
369.68	210.65
369.87	152.13
370.07	243.42
370.27	257.46
370.47	411.93
370.66	620.24
370.86	603.86
371.06	699.82
371.25	657.69
371.45	662.37
371.65	702.16
371.84	669.39
372.04	706.84
372.24	739.61
372.44	711.52
372.63	774.72
372.83	763.01
373.03	734.93
373.22	753.65
373.42	753.65
373.62	730.25
373.81	809.83
374.01	863.66
374.21	828.55
374.40	802.80
374.60	868.34
374.79	781.74
374.99	819.19
375.19	807.48
375.38	823.87
375.58	753.65
375.78	828.55
375.97	870.68
376.17	924.51
376.37	868.34
376.56	891.74
376.76	873.02
376.95	894.08
377.15	910.47
377.35	966.64
377.54	919.83
377.74	959.62
377.93	868.34
378.13	847.27
378.33	903.45
378.52	936.21
378.72	959.62
378.91	887.06
379.11	873.02
379.31	952.60
379.50	926.85
379.70	1015.79
379.89	1039.20
380.09	950.26
380.28	957.28
380.48	905.79
380.68	973.66
380.87	844.93
381.07	1034.52
381.26	1001.75
381.46	940.90
381.65	1083.67
381.85	1050.90
382.04	1184.31
382.24	1121.12
382.43	1109.41
382.63	1097.71
382.83	1090.69
383.02	1036.86
383.22	1158.57
383.41	1163.25
383.61	1142.18
383.80	1090.69
384.00	1078.99
384.19	1076.65
384.39	1167.93
384.58	1186.65
384.78	1086.01
384.97	1179.63
385.17	1104.73
385.36	1170.27
385.56	1226.44
385.75	1181.97
385.95	1151.54
386.14	1261.55
386.34	1233.46
386.53	1221.76
386.72	1287.29
386.92	1203.04
387.11	1247.51
387.31	1249.85
387.50	1193.67
387.70	1310.70
387.89	1273.25
388.09	1289.64
388.28	1310.70
388.48	1294.32
388.67	1184.31
388.86	1352.83
389.06	1224.10
389.25	1357.51
389.45	1341.13
389.64	1458.15
389.84	1322.40
390.03	1423.05
390.22	1409.00
390.42	1479.22
390.61	1345.81
390.81	1338.79
391.00	1352.83
391.19	1432.41
391.39	1380.92
391.58	1483.90
391.78	1430.07
391.97	1493.26
392.16	1378.58
392.36	1535.39
392.55	1577.52
392.75	1629.01
392.94	1474.54
393.13	1451.13
393.33	1584.54
393.52	1502.62
393.71	1591.56
393.91	1575.18
394.10	1629.01
394.29	1619.65
394.49	1565.82
394.68	1675.82
394.88	1526.03
395.07	1678.16
395.26	1689.87
395.46	1675.82
395.65	1771.79
395.84	1640.72
396.04	1806.89
396.23	1710.93
396.42	1809.23
396.62	1776.47
396.81	1795.19
397.00	1813.92
397.19	1830.30
397.39	1849.02
397.58	1827.96
397.77	1809.23
397.97	1947.33
398.16	1954.35
398.35	1872.43
398.55	1851.36
398.74	1900.52
398.93	1994.14
399.12	1980.09
399.32	1811.57
399.51	1954.35
399.70	2017.54
399.90	1898.17
400.09	2036.27
400.28	2155.63
400.47	2010.52
400.67	2087.76
400.86	2097.12
401.05	1968.39
401.24	2017.54
401.44	2113.50
401.63	2167.34
401.82	2022.22
402.01	2207.13
402.21	2207.13
402.40	2207.13
402.59	2120.53
402.78	2214.15
402.97	2221.17
403.17	2235.21
403.36	2223.51
403.55	2251.60
403.74	2258.62
403.93	2356.92
404.13	2354.58
404.32	2387.35
404.51	2352.24
404.70	2345.22
404.89	2328.83
405.09	2445.86
405.28	2380.32
405.47	2506.71
405.66	2569.91
405.85	2527.78
406.05	2473.95
406.24	2532.46
406.43	2597.99
406.62	2651.83
406.81	2696.30
407.00	2513.74
407.20	2495.01
407.39	2647.15
407.58	2682.25
407.77	2712.68
407.96	2691.62
408.15	2836.73
408.34	2663.53
408.54	2792.26
408.73	2937.37
408.92	2839.07
409.11	2888.22
409.30	2885.88
409.49	2885.88
409.68	2913.97
409.87	2871.84
410.07	3002.91
410.26	3162.06
410.45	3016.95
410.64	3180.79
410.83	3133.98
411.02	3222.92
411.21	3213.56
411.40	3187.81
411.59	3258.03
411.78	3180.79
411.98	3204.19
412.17	3332.92
412.36	3346.97
412.55	3251.00
412.74	3499.10
412.93	3393.78
413.12	3407.82
413.31	3592.72
413.50	3487.40
413.69	3480.38
413.88	3538.89
414.07	3658.26
414.26	3660.60
414.45	3684.00
414.64	3658.26
414.83	3803.37
415.02	3810.39
415.22	3723.79
415.41	3833.80
415.60	3962.53
415.79	4095.94
415.98	4032.74
416.17	3957.85
416.36	4018.70
416.55	4028.06
416.74	4065.51
416.93	4032.74
417.12	4168.49
417.31	4189.56
417.50	4306.59
417.69	4280.84
417.88	4411.91
418.07	4290.20
418.26	4222.33
418.45	4236.37
418.64	4535.96
418.83	4510.21
419.02	4547.66
419.21	4519.57
419.39	4440.00
419.58	4437.66
419.77	4500.85
419.96	4545.32
420.15	4638.94
420.34	4718.52
420.53	4636.60
420.72	4702.14
420.91	4837.89
421.10	4837.89
421.29	4819.16
421.48	4702.14
421.67	4779.37
421.86	4744.27
422.05	4842.57
422.24	4821.50
422.43	4812.14
422.61	4889.38
422.80	5074.28
422.99	4968.96
423.18	5025.13
423.37	5013.43
423.56	4947.89
423.75	5109.39
423.94	4854.27
424.13	4505.53
424.32	4926.83
424.50	5020.45
424.69	5078.96
424.88	5039.17
425.07	5004.07
425.26	4936.19
425.45	4915.12
425.64	5013.43
425.83	5121.09
426.01	5008.75
426.20	5060.24
426.39	5067.26
426.58	5083.64
426.77	5219.39
426.96	5130.45
427.15	5004.07
427.33	5322.38
427.52	5062.58
427.71	5362.17
427.90	5205.35
428.09	5420.68
428.28	5406.64
428.46	5408.98
428.65	5420.68
428.84	5533.03
429.03	5523.66
429.22	5359.83
429.40	5483.88
429.59	5551.75
429.78	5296.63
429.97	5172.58
430.16	5474.51
430.34	5736.65
430.53	5621.97
430.72	5802.19
430.91	5664.10
431.10	5603.24
431.28	5783.46
431.47	5818.57
431.66	5870.06
431.85	5802.19
432.03	6001.13
432.22	6033.90
432.41	5968.37
432.60	6047.94
432.79	5973.05
432.97	6188.38
433.16	5970.71
433.35	6136.88
433.54	6148.59
433.72	6335.83
433.91	6125.18
434.10	6216.46
434.28	6190.72
434.47	6338.17
434.66	6392.00
434.85	6483.28
435.03	6436.47
435.22	6317.11
435.41	6506.69
435.59	6284.34
435.78	6328.81
435.97	6441.15
436.16	6410.73
436.34	6399.02
436.53	6654.14
436.72	6686.91
436.90	6401.37
437.09	6541.80
437.28	6642.44
437.46	6654.14
437.65	6822.66
437.84	6827.34
438.02	6785.21
438.21	6789.89
438.40	6736.06
438.58	6963.09
438.77	7035.65
438.96	7040.33
439.14	7201.83
439.33	7218.21
439.52	7183.10
439.70	7250.98
439.89	7337.58
440.08	7478.01
440.26	7426.52
440.45	7351.62
440.63	7714.41
440.82	7681.64
441.01	7618.44
441.19	7850.16
441.38	7648.87
441.57	7854.84
441.75	7875.90
441.94	7871.22
442.12	7901.65
442.31	8159.11
442.50	7864.20
442.68	8107.62
442.87	7990.59
443.05	8290.18
443.24	8334.65
443.43	8285.50
443.61	8423.59
443.80	8351.03
443.98	8016.33
444.17	7875.90
444.35	8159.11
444.54	8545.30
444.73	8430.61
444.91	8369.76
445.10	8381.46
445.28	8278.47
445.47	8203.58
445.65	8496.14
445.84	8634.24
446.02	8547.64
446.21	8418.91
446.39	8463.38
446.58	8517.21
446.77	8622.53
446.95	8322.94
447.14	8540.61
447.32	8566.36
447.51	8395.50
447.69	8390.82
447.88	8430.61
448.06	8397.84
448.25	8674.03
448.43	8615.51
448.62	8594.45
448.80	8676.37
448.99	8713.81
449.17	8741.90
449.36	8734.88
449.54	8840.20
449.73	9029.79
449.91	9060.21
450.10	8943.19
450.28	9067.24
450.46	9174.90
450.65	9266.18
450.83	9202.99
451.02	8997.02
451.20	9259.16
451.39	9144.47
451.57	9261.50
451.76	9090.64
451.94	9207.67
452.13	9355.12
452.31	9179.58
452.49	9280.22
452.68	9432.36
452.86	9507.26
453.05	9455.76
453.23	9593.86
453.42	9619.60
453.60	9387.89
453.78	9692.16
453.97	9582.15
454.15	9469.81
454.34	9479.17
454.52	9706.20
454.70	9741.31
454.89	9816.21
455.07	9963.66
455.26	9928.55
455.44	10008.13
455.62	9975.36
455.81	9928.55
455.99	9879.40
456.17	10176.65
456.36	10083.03
456.54	10246.87
456.73	10408.36
456.91	10494.96
457.09	10541.77
457.28	10342.83
457.46	10352.19
457.64	10438.79
457.83	10513.69
458.01	10614.33
458.19	10817.96
458.38	10635.39
458.56	10864.77
458.74	10703.27
458.93	10911.58
459.11	10719.65
459.29	10745.40
459.48	10909.24
459.66	10902.22
459.84	10862.43
460.03	11077.76
460.21	10949.03
460.39	11187.76
460.57	11211.17
460.76	11162.01
460.94	11267.34
461.12	11318.83
461.31	11328.19
461.49	11073.07
461.67	11068.39
461.85	11623.10
462.04	11396.07
462.22	11541.18
462.40	11559.91
462.59	11250.96
462.77	11599.70
462.95	11688.64
463.13	11487.35
463.32	11800.98
463.50	11871.20
463.68	11798.64
463.86	11976.52
464.05	11742.47
464.23	11606.72
464.41	12049.08
464.59	11485.01
464.78	12439.95
464.96	12166.10
465.14	11798.64
465.32	12091.21
465.50	12042.06
465.69	12173.13
465.87	12327.60
466.05	12351.01
466.23	12093.55
466.41	12133.34
466.60	12559.31
466.78	12205.89
466.96	12446.97
467.14	12491.44
467.32	12400.16
467.51	12746.56
467.69	12428.24
467.87	12601.44
468.05	12580.38
468.23	12931.46
468.41	12765.28
468.60	12826.14
468.78	12950.18
468.96	12695.07
469.14	12645.91
469.32	13153.81
469.50	12666.98
469.69	13181.90
469.87	13294.24
470.05	13249.77
470.23	13345.73
470.41	13469.78
470.59	13181.90
470.77	13235.73
470.95	13521.27
471.14	13532.98
471.32	13507.23
471.50	13710.86
471.68	13727.24
471.86	13848.95
472.04	13696.82
472.22	14260.88
472.40	13727.24
472.58	13687.45
472.77	14083.00
472.95	14366.21
473.13	14689.20
473.31	13982.36
473.49	14319.40
473.67	14328.76
473.85	14508.98
474.03	14677.50
474.21	14916.23
474.39	14871.76
474.57	14979.43
474.75	15199.44
474.93	15096.46
475.12	14939.64
475.30	15470.94
475.48	15328.17
475.66	15442.85
475.84	15316.47
476.02	15419.45
476.20	15318.81
476.38	15829.04
476.56	16194.17
476.74	16369.71
476.92	15840.75
477.10	15988.20
477.28	16332.26
477.46	16248.00
477.64	16615.46
477.82	16814.41
478.00	17202.94
478.18	16851.86
478.36	17158.47
478.54	17383.16
478.72	17451.03
478.90	17504.87
479.08	17516.57
479.26	17692.11
479.44	18001.06
479.62	17809.14
479.80	18202.35
479.98	18473.85
480.16	18883.44
480.34	18452.78
480.52	18759.39
480.70	18689.18
480.88	18625.98
481.06	18874.08
481.24	19082.39
481.41	19300.06
481.59	19531.77
481.77	19676.88
481.95	19763.48
482.13	19660.50
482.31	19871.15
482.49	20484.37
482.67	20414.15
482.85	20650.55
483.03	20608.42
483.21	20814.38
483.39	21294.19
483.57	20788.64
483.74	21254.40
483.92	21589.10
484.10	21474.42
484.28	22178.92
484.46	22211.68
484.64	22546.38
484.82	22368.50
485.00	22530.00
485.18	22944.27
485.35	23190.03
485.53	23154.92
485.71	22822.56
485.89	23833.68
486.07	23599.62
486.25	23880.49
486.43	23587.92
486.61	24208.16
486.78	24025.60
486.96	24056.03
487.14	24552.22
487.32	24669.25
487.50	25027.35
487.68	25130.33
487.85	25668.66
488.03	25818.45
488.21	25923.77
488.39	25834.83
488.57	26157.83
488.75	26494.86
488.92	26611.89
489.10	26717.22
489.28	26838.92
489.46	27417.04
489.64	27070.64
489.81	28053.66
489.99	27866.42
490.17	28009.19
490.35	28212.82
490.53	28451.55
490.70	28599.01
490.88	28741.78
491.06	29088.18
491.24	29118.60
491.41	29383.09
491.59	29495.43
491.77	29378.40
491.95	29820.77
492.13	29869.92
492.30	30487.82
492.48	30326.32
492.66	30558.03
492.84	30717.19
493.01	31108.06
493.19	30939.54
493.37	31468.50
493.54	31407.65
493.72	31618.30
493.90	32046.62
494.08	31885.12
494.25	32336.84
494.43	32163.64
494.61	32538.13
494.79	32751.12
494.96	32425.78
495.14	33085.81
495.32	33605.41
495.49	33418.17
495.67	33692.01
495.85	34003.30
496.02	33832.44
496.20	34361.40
496.38	34389.49
496.55	34363.75
496.73	35311.66
496.91	34885.68
497.09	35346.77
497.26	35386.56
497.44	35438.05
497.62	35194.64
497.79	36016.16
497.97	35367.84
498.14	35796.15
498.32	36278.30
498.50	36769.82
498.67	36851.73
498.85	36392.99
499.03	37291.76
499.20	37167.71
499.38	37502.40
499.56	37266.01
499.73	37216.86
499.91	37427.51
500.08	37764.54
500.26	37689.65
500.44	38014.98
500.61	38216.27
500.79	38218.61
500.97	38387.13
501.14	39047.16
501.32	38670.33
501.49	39084.61
501.67	38960.56
501.84	39316.32
502.02	39185.25
502.20	39543.35
502.37	39557.39
502.55	39597.18
502.72	39805.49
502.90	39927.20
503.07	39812.51
503.25	40172.96
503.43	39978.69
503.60	40231.47
503.78	40687.87
503.95	40217.43
504.13	40821.28
504.30	41155.98
504.48	40978.10
504.65	40933.63
504.83	41228.54
505.01	41586.64
505.18	41521.10
505.36	41818.35
505.53	41383.01
505.71	41996.23
505.88	41846.44
506.06	41556.21
506.23	42148.37
506.41	42412.85
506.58	42696.05
506.76	42422.21
506.93	42859.89
507.11	42476.04
507.28	42710.10
507.46	42869.25
507.63	43239.06
507.81	43711.84
507.98	43564.39
508.16	43494.18
508.33	43618.22
508.50	44065.27
508.68	44119.10
508.85	44058.24
509.03	44009.09
509.20	44346.13
509.38	44760.40
509.55	44516.99
509.73	44538.05
509.90	45198.09
510.08	44591.89
510.25	44994.46
510.42	45411.07
510.60	45078.72
510.77	45544.48
510.95	45710.66
511.12	45591.30
511.30	45397.03
511.47	45492.99
511.64	46092.17
511.82	46197.49
511.99	46089.83
512.17	46141.32
512.34	45958.76
512.51	46595.38
512.69	46754.54
512.86	46595.38
513.04	46876.25
513.21	46726.46
513.38	47159.45
513.56	46646.88
513.73	46796.67
513.90	47313.93
514.08	47334.99
514.25	47482.45
514.43	47707.14
514.60	47601.82
514.77	47014.34
514.95	47845.23
515.12	48245.46
515.29	47957.58
515.47	48100.35
515.64	48360.15
515.81	48193.97
515.99	48406.96
516.16	48713.57
516.33	48369.51
516.51	48542.71
516.68	49013.16
516.85	48837.62
517.03	49219.13
517.20	48973.37
517.37	48935.92
517.54	49153.59
517.72	49291.68
517.89	49305.73
518.06	49350.20
518.24	49549.14
518.41	49528.08
518.58	49499.99
518.75	49841.71
518.93	50185.77
519.10	49364.24
519.27	50237.26
519.45	50089.80
519.62	50370.67
519.79	50293.43
519.96	50424.50
520.14	50436.20
520.31	50358.97
520.48	50614.08
520.65	50576.64
520.83	50923.04
521.00	50925.38
521.17	50707.71
521.34	50990.91
521.52	51164.11
521.69	50918.35
521.86	51299.86
522.03	51484.76
522.20	51327.95
522.38	51629.88
522.55	51494.13
522.72	51524.55
522.89	51393.48
523.07	51920.10
523.24	51803.08
523.41	52081.60
523.58	51683.71
523.75	52116.71
523.92	51842.87
524.10	52224.37
524.27	52444.38
524.44	52247.78
524.61	52219.69
524.78	52411.62
524.96	52502.90
525.13	52573.11
525.30	52718.23
525.47	52912.49
525.64	52610.56
525.81	52853.98
525.98	52645.67
526.16	52734.61
526.33	53003.77
526.50	53270.59
526.67	53317.40
526.84	53186.33
527.01	53219.10
527.18	53073.99
527.36	53172.29
527.53	53291.66
527.70	53638.06
527.87	53600.61
528.04	53319.74
528.21	53752.74
528.38	53553.80
528.55	53804.24
528.72	53652.10
528.89	53614.65
529.07	53469.54
529.24	53867.43
529.41	54131.91
529.58	53776.15
529.75	54010.20
529.92	53900.20
530.09	54333.20
530.26	54330.86
530.43	53961.05
530.60	53860.41
530.77	53996.16
530.94	54274.68
531.11	54438.52
531.28	54330.86
531.46	54478.31
531.63	54405.75
531.80	54571.93
531.97	54775.56
532.14	54639.81
532.31	55040.04
532.48	54831.73
532.65	54712.36
532.82	54789.60
532.99	54873.86
533.16	54794.28
533.33	55000.25
533.50	55224.94
533.67	55257.71
533.84	55040.04
534.01	55337.29
534.18	55084.51
534.35	55316.22
534.52	55182.81
534.69	55463.67
534.86	55655.60
535.03	55325.58
535.20	55126.64
535.37	55501.12
535.54	55515.17
535.71	55505.80
535.88	55711.77
536.05	55639.22
536.22	55700.07
536.38	55891.99
536.55	55798.37
536.72	55676.66
536.89	55611.13
537.06	55891.99
537.23	56198.60
537.40	55976.25
537.57	55894.33
537.74	56016.04
537.91	56147.11
538.08	56130.73
538.25	55842.84
538.42	56067.53
538.59	56236.05
538.75	56320.31
538.92	56332.01
539.09	56622.24
539.26	56446.70
539.43	56247.75
539.60	56357.76
539.77	56603.52
539.94	56650.33
540.11	56514.58
540.28	56568.41
540.44	56652.67
540.61	56535.64
540.78	56505.21
540.95	56467.76
541.12	56687.78
541.29	56676.07
541.46	56947.57
541.62	56568.41
541.79	56748.63
541.96	56640.96
542.13	56839.91
542.30	56750.97
542.47	57144.18
542.63	57188.65
542.80	57120.77
542.97	57263.55
543.14	57226.10
543.31	57399.30
543.48	57535.05
543.64	57631.01
543.81	57345.47
543.98	57513.98
544.15	57249.50
544.32	57560.79
544.48	57801.87
544.65	57535.05
544.82	57492.92
544.99	57268.23
545.16	57820.59
545.32	57771.44
545.49	58031.24
545.66	57937.62
545.83	57965.71
546.00	57806.55
546.16	57757.40
546.33	57771.44
546.50	57726.97
546.67	57834.64
546.83	57584.20
547.00	57902.51
547.17	58127.20
547.34	58066.35
547.50	58078.05
547.67	58443.18
547.84	58148.27
548.00	58209.12
548.17	58457.22
548.34	58358.92
548.51	58408.07
548.67	58562.54
548.84	58417.43
549.01	58382.32
549.18	58143.59
549.34	58333.17
549.51	58454.88
549.68	58412.75
549.84	58508.71
550.01	58688.93
550.18	58368.28
550.34	58791.92
550.51	58681.91
550.68	58721.70
550.84	58368.28
551.01	58820.00
551.18	58738.08
551.34	58583.61
551.51	58735.74
551.68	58855.11
551.84	58735.74
552.01	58677.23
552.18	58728.72
552.34	58754.47
552.51	59096.19
552.68	58630.42
552.84	58670.21
553.01	58927.67
553.18	58911.28
553.34	59058.74
553.51	59049.38
553.67	58864.47
553.84	59290.45
554.01	59025.97
554.17	59234.28
554.34	59208.53
554.51	59121.93
554.67	59213.21
554.84	59105.55
555.00	59316.20
555.17	59208.53
555.33	59213.21
555.50	59355.99
555.67	59040.01
555.83	59096.19
556.00	59360.67
556.16	59561.95
556.33	59433.22
556.50	59309.18
556.66	59456.63
556.83	59360.67
556.99	59451.95
557.16	59648.55
557.32	59526.84
557.49	59634.51
557.65	59278.75
557.82	59470.67
557.98	59634.51
558.15	59533.87
558.32	59777.28
558.48	59678.98
558.65	59716.43
558.81	59831.11
558.98	59744.51
559.14	59721.11
559.31	59657.91
559.47	59852.18
559.64	59772.60
559.80	60119.00
559.97	59957.50
560.13	59863.88
560.30	59849.84
560.46	60018.36
560.63	59990.27
560.79	59969.21
560.96	60172.83
561.12	59952.82
561.29	59758.56
561.45	59760.90
561.61	59980.91
561.78	59971.55
561.94	59791.33
562.11	60006.65
562.27	60104.96
562.44	60226.66
562.60	60161.13
562.77	60339.01
562.93	59936.44
563.10	60170.49
563.26	60158.79
563.42	60474.76
563.59	60121.34
563.75	60158.79
563.92	60247.73
564.08	60102.62
564.24	60168.15
564.41	60175.17
564.57	60303.90
564.74	60308.58
564.90	60446.68
565.07	60292.20
565.23	60165.81
565.39	60158.79
565.56	60334.33
565.72	60287.52
565.88	60404.55
566.05	60324.97
566.21	60575.40
566.38	60530.93
566.54	60584.77
566.70	60554.34
566.87	60392.84
567.03	60177.51
567.19	60568.38
567.36	60498.17
567.52	60320.29
567.68	60514.55
567.85	60694.77
568.01	60664.35
568.17	60729.88
568.34	60523.91
568.50	60617.53
568.66	60441.99
568.83	60589.45
568.99	60577.75
569.15	60575.40
569.32	60502.85
569.48	60425.61
569.64	60849.25
569.81	60739.24
569.97	60505.19
570.13	60671.37
570.30	60306.24
570.46	60662.00
570.62	60582.43
570.78	60750.94
570.95	60615.19
571.11	60762.65
571.27	60743.92
571.43	60622.22
571.60	60910.10
571.76	60669.03
571.92	60793.07
572.09	60816.48
572.25	60537.96
572.41	60692.43
572.57	60839.89
572.74	60942.87
572.90	60863.29
573.06	60907.76
573.22	60715.84
573.38	61027.13
573.55	60746.26
573.71	61027.13
573.87	60687.75
574.03	60809.46
574.20	60886.70
574.36	60713.50
574.52	60996.70
574.68	61015.43
574.84	60903.08
575.01	61010.74
575.17	60708.82
575.33	60720.52
575.49	60856.27
575.65	60935.85
575.82	60755.63
575.98	61097.34
576.14	61174.58
576.30	60963.93
576.46	60987.34
576.62	60959.25
576.79	60884.36
576.95	60996.70
577.11	61130.11
577.27	60973.30
577.43	60945.21
577.59	60879.67
577.75	60851.59
577.92	60933.51
578.08	60947.55
578.24	61020.11
578.40	61389.91
578.56	61272.88
578.72	61050.53
578.88	61106.71
579.04	61069.26
579.21	61130.11
579.37	61151.18
579.53	61212.03
579.69	60893.72
579.85	61134.79
580.01	60987.34
580.17	60898.40
580.33	61109.05
580.49	61359.48
580.65	61352.46
580.82	61055.21
580.98	61064.58
581.14	61076.28
581.30	61207.35
581.46	60982.66
581.62	61057.56
581.78	61062.24
581.94	60985.00
582.10	61001.38
582.26	60952.23
582.42	61013.08
582.58	61102.03
582.74	60989.68
582.90	60947.55
583.06	61158.20
583.22	60940.53
583.38	61205.01
583.54	61010.74
583.70	61176.92
583.86	61282.25
584.02	61064.58
584.18	61240.12
584.34	61205.01
584.50	61202.67
584.66	61020.11
584.82	60900.74
584.98	61310.33
585.14	61169.90
585.30	61071.60
585.46	61275.22
585.62	61221.39
585.78	61357.14
585.94	61071.60
586.10	61127.77
586.26	61127.77
586.42	61350.12
586.58	61467.15
586.74	60992.02
586.90	61322.04
587.06	61303.31
587.22	61286.93
587.38	61223.73
587.54	61375.87
587.70	61378.21
587.86	61158.20
588.02	61155.86
588.18	61319.70
588.34	61062.24
588.49	61181.60
