SpectraSuite Data File
++++++++++++++++++++++++++++++++++++
Date: Fri Oct 25 11:23:11 EDT 2013
User: price-jones
Dark Spectrum Present: No
Reference Spectrum Present: No
Number of Sampled Component Spectra: 1
Spectrometers: USB2+H05261
Integration Time (usec): 100000 (USB2+H05261)
Spectra Averaged: 1 (USB2+H05261)
Boxcar Smoothing: 0 (USB2+H05261)
Correct for Electrical Dark: No (USB2+H05261)
Strobe/Lamp Enabled: No (USB2+H05261)
Correct for Detector Non-linearity: No (USB2+H05261)
Correct for Stray Light: No (USB2+H05261)
Number of Pixels in Processed Spectrum: 2048
>>>>>Begin Processed Spectral Data<<<<<
365.73	264.48
365.92	264.48
366.12	264.48
366.32	112.35
366.52	91.28
366.72	124.05
366.91	93.62
367.11	159.16
367.31	98.30
367.51	98.30
367.70	166.18
367.90	117.03
368.10	128.73
368.30	142.77
368.49	124.05
368.69	121.71
368.89	152.13
369.09	131.07
369.28	91.28
369.48	142.77
369.68	138.09
369.87	220.01
370.07	191.92
370.27	269.16
370.47	325.33
370.66	503.22
370.86	547.69
371.06	653.01
371.25	713.86
371.45	690.46
371.65	645.99
371.84	692.80
372.04	671.73
372.24	692.80
372.44	704.50
372.63	638.97
372.83	688.12
373.03	711.52
373.22	784.08
373.42	814.51
373.62	744.29
373.81	758.33
374.01	851.96
374.21	814.51
374.40	770.04
374.60	884.72
374.79	854.30
374.99	823.87
375.19	837.91
375.38	816.85
375.58	870.68
375.78	863.66
375.97	847.27
376.17	837.91
376.37	866.00
376.56	835.57
376.76	866.00
376.95	894.08
377.15	858.98
377.35	896.43
377.54	931.53
377.74	842.59
377.93	889.40
378.13	901.11
378.33	936.21
378.52	943.24
378.72	954.94
378.91	1001.75
379.11	931.53
379.31	849.61
379.50	966.64
379.70	978.34
379.89	992.39
380.09	992.39
380.28	1008.77
380.48	961.96
380.68	990.05
380.87	959.62
381.07	945.58
381.26	1088.35
381.46	971.32
381.65	1132.82
381.85	985.37
382.04	983.02
382.24	987.71
382.43	976.00
382.63	1034.52
382.83	1062.60
383.02	1093.03
383.22	1104.73
383.41	1114.10
383.61	1043.88
383.80	1151.54
384.00	1142.18
384.19	980.68
384.39	1071.97
384.58	1076.65
384.78	1111.75
384.97	1109.41
385.17	1109.41
385.36	1146.86
385.56	1245.16
385.75	1139.84
385.95	1235.80
386.14	1172.61
386.34	1231.12
386.53	1263.89
386.72	1219.42
386.92	1240.48
387.11	1252.19
387.31	1226.44
387.50	1266.23
387.70	1207.72
387.89	1299.00
388.09	1254.53
388.28	1242.82
388.48	1245.16
388.67	1362.19
388.86	1334.11
389.06	1280.27
389.25	1320.06
389.45	1334.11
389.64	1371.55
389.84	1418.36
390.03	1406.66
390.22	1324.74
390.42	1366.87
390.61	1280.27
390.81	1336.45
391.00	1423.05
391.19	1511.99
391.39	1469.86
391.58	1444.11
391.78	1514.33
391.97	1509.65
392.16	1462.83
392.36	1549.43
392.55	1519.01
392.75	1523.69
392.94	1575.18
393.13	1554.12
393.33	1589.22
393.52	1593.90
393.71	1629.01
393.91	1610.29
394.10	1561.14
394.29	1673.48
394.49	1591.56
394.68	1661.78
394.88	1650.08
395.07	1713.27
395.26	1631.35
395.46	1673.48
395.65	1675.82
395.84	1682.85
396.04	1774.13
396.23	1750.72
396.42	1846.68
396.62	1675.82
396.81	1877.11
397.00	1827.96
397.19	1769.44
397.39	1851.36
397.58	1802.21
397.77	1792.85
397.97	1832.64
398.16	1853.70
398.35	1919.24
398.55	1916.90
398.74	1842.00
398.93	1914.56
399.12	1849.02
399.32	1935.62
399.51	2015.20
399.70	2005.84
399.90	1923.92
400.09	2062.01
400.28	2031.58
400.47	2076.06
400.67	2066.69
400.86	2153.29
401.05	2064.35
401.24	2092.44
401.44	2106.48
401.63	2211.81
401.82	2183.72
402.01	2111.16
402.21	2174.36
402.40	2228.19
402.59	2136.91
402.78	2230.53
402.97	2214.15
403.17	2246.91
403.36	2415.43
403.55	2312.45
403.74	2312.45
403.93	2310.11
404.13	2401.39
404.32	2420.11
404.51	2326.49
404.70	2389.69
404.89	2553.52
405.09	2401.39
405.28	2497.35
405.47	2448.20
405.66	2532.46
405.85	2506.71
406.05	2504.37
406.24	2506.71
406.43	2539.48
406.62	2654.17
406.81	2672.89
407.00	2544.16
407.20	2471.61
407.39	2614.38
407.58	2729.06
407.77	2693.96
407.96	2867.16
408.15	2775.88
408.34	2787.58
408.54	2841.41
408.73	2722.04
408.92	2902.26
409.11	2876.52
409.30	3035.67
409.49	2869.50
409.68	3080.14
409.87	2857.79
410.07	2963.12
410.26	3197.17
410.45	2998.23
410.64	3103.55
410.83	3131.64
411.02	3042.70
411.21	3204.19
411.40	3183.13
411.59	3122.27
411.78	3192.49
411.98	3323.56
412.17	3229.94
412.36	3274.41
412.55	3251.00
412.74	3595.06
412.93	3447.61
413.12	3440.59
413.31	3639.53
413.50	3524.85
413.69	3471.01
413.88	3524.85
414.07	3496.76
414.26	3698.05
414.45	3751.88
414.64	3747.20
414.83	3751.88
415.02	3777.62
415.22	3789.33
415.41	3948.48
415.60	3796.35
415.79	3899.33
415.98	4070.19
416.17	4032.74
416.36	3885.29
416.55	4002.32
416.74	3974.23
416.93	4079.55
417.12	4119.34
417.31	4229.35
417.50	4147.43
417.69	4362.76
417.88	4196.58
418.07	4287.86
418.26	4299.56
418.45	4245.73
418.64	4402.55
418.83	4355.74
419.02	4552.34
419.21	4575.75
419.39	4557.02
419.58	4514.89
419.77	4407.23
419.96	4578.09
420.15	4550.00
420.34	4671.71
420.53	4533.62
420.72	4730.22
420.91	4641.28
421.10	4870.65
421.29	4854.27
421.48	4685.75
421.67	4828.53
421.86	4800.44
422.05	4910.44
422.24	4901.08
422.43	4973.64
422.61	5034.49
422.80	5036.83
422.99	4854.27
423.18	4837.89
423.37	4987.68
423.56	4940.87
423.75	4915.12
423.94	4997.04
424.13	4627.24
424.32	4842.57
424.50	5114.07
424.69	5146.84
424.88	5118.75
425.07	5081.30
425.26	5046.20
425.45	5093.01
425.64	5043.85
425.83	5060.24
426.01	5032.15
426.20	5142.16
426.39	5207.69
426.58	5034.49
426.77	5165.56
426.96	5018.11
427.15	5071.94
427.33	5430.04
427.52	5172.58
427.71	5242.80
427.90	5268.55
428.09	5345.78
428.28	5511.96
428.46	5303.65
428.65	5289.61
428.84	5659.42
429.03	5549.41
429.22	5331.74
429.40	5483.88
429.59	5614.95
429.78	5439.40
429.97	5357.49
430.16	5427.70
430.34	5558.77
430.53	5685.16
430.72	5699.20
430.91	5675.80
431.10	5783.46
431.28	5832.62
431.47	5785.80
431.66	5891.13
431.85	5949.64
432.03	6080.71
432.22	5961.34
432.41	5977.73
432.60	6080.71
432.79	5923.90
432.97	5916.87
433.16	6043.26
433.35	6087.73
433.54	6132.20
433.72	6230.51
433.91	6139.23
434.10	6179.01
434.28	6216.46
434.47	6193.06
434.66	6392.00
434.85	6368.60
435.03	6457.54
435.22	6335.83
435.41	6406.05
435.59	6586.27
435.78	6527.75
435.97	6548.82
436.16	6469.24
436.34	6626.06
436.53	6679.89
436.72	6883.52
436.90	6406.05
437.09	6761.81
437.28	6534.78
437.46	6523.07
437.65	6539.46
437.84	6860.11
438.02	6946.71
438.21	6878.83
438.40	6801.60
438.58	7124.59
438.77	7192.47
438.96	7084.80
439.14	6988.84
439.33	7232.26
439.52	7166.72
439.70	7344.60
439.89	7375.03
440.08	7375.03
440.26	7632.49
440.45	7452.27
440.63	7487.37
440.82	7747.17
441.01	7620.78
441.19	7810.37
441.38	7871.22
441.57	7885.26
441.75	7911.01
441.94	8107.62
442.12	7913.35
442.31	8032.72
442.50	8126.34
442.68	8093.57
442.87	8219.96
443.05	8098.25
443.24	8243.37
443.43	8236.35
443.61	8334.65
443.80	8755.94
443.98	8086.55
444.17	8077.19
444.35	8287.84
444.54	8423.59
444.73	8414.23
444.91	8479.76
445.10	8444.65
445.28	8531.25
445.47	8322.94
445.65	8566.36
445.84	8669.34
446.02	8456.36
446.21	8521.89
446.39	8519.55
446.58	8631.90
446.77	8643.60
446.95	8374.44
447.14	8526.57
447.32	8638.92
447.51	8505.51
447.69	8524.23
447.88	8592.11
448.06	8463.38
448.25	8723.18
448.43	8795.73
448.62	8655.30
448.80	8655.30
448.99	8833.18
449.17	8898.72
449.36	8652.96
449.54	9020.42
449.73	9259.16
449.91	9214.69
450.10	8975.95
450.28	9383.21
450.46	9046.17
450.65	9195.96
450.83	9308.31
451.02	9104.68
451.20	9320.01
451.39	9067.24
451.57	9224.05
451.76	9305.97
451.94	9392.57
452.13	9563.43
452.31	9399.59
452.49	9404.27
452.68	9451.08
452.86	9383.21
453.05	9558.75
453.23	9848.97
453.42	9767.06
453.60	9427.68
453.78	9647.69
453.97	9523.64
454.15	9675.77
454.34	9359.80
454.52	9874.72
454.70	9813.87
454.89	9745.99
455.07	10024.51
455.26	9949.62
455.44	10026.86
455.62	10134.52
455.81	9996.43
455.99	10129.84
456.17	10286.65
456.36	10237.50
456.54	10331.12
456.73	10406.02
456.91	10480.92
457.09	10490.28
457.28	10541.77
457.46	10541.77
457.64	10796.89
457.83	10642.42
458.01	10616.67
458.19	10918.60
458.38	10822.64
458.56	10750.08
458.74	11002.86
458.93	10712.63
459.11	10822.64
459.29	11037.97
459.48	10817.96
459.66	10876.47
459.84	10867.11
460.03	11105.84
460.21	11309.47
460.39	11014.56
460.57	11108.18
460.76	11255.64
460.94	11403.09
461.12	11552.88
461.31	11227.55
461.49	11192.44
461.67	11239.25
461.85	11517.78
462.04	11412.45
462.22	11623.10
462.40	11777.58
462.59	11808.00
462.77	11800.98
462.95	11955.46
463.13	11791.62
463.32	11918.01
463.50	12091.21
463.68	12013.97
463.86	12093.55
464.05	11885.24
464.23	11751.83
464.41	11901.62
464.59	11955.46
464.78	12351.01
464.96	12028.01
465.14	12091.21
465.32	12168.45
465.50	12301.86
465.69	12411.86
465.87	12287.81
466.05	12166.10
466.23	12182.49
466.41	12458.67
466.60	12695.07
466.78	12180.15
466.96	12362.71
467.14	12535.91
467.32	12615.49
467.51	12697.41
467.69	12327.60
467.87	12699.75
468.05	12725.49
468.23	12631.87
468.41	12737.20
468.60	12753.58
468.78	12627.19
468.96	12861.24
469.14	12959.55
469.32	13083.59
469.50	12812.09
469.69	13212.32
469.87	13139.77
470.05	13331.69
470.23	13165.51
470.41	13181.90
470.59	13308.29
470.77	13362.12
470.95	13488.51
471.14	13621.92
471.32	13511.91
471.50	13860.65
471.68	13877.04
471.86	14029.17
472.04	13846.61
472.22	14043.21
472.40	14052.58
472.58	14270.25
472.77	14256.20
472.95	14310.04
473.13	14963.04
473.31	14356.85
473.49	14277.27
473.67	14272.59
473.85	14448.13
474.03	14916.23
474.21	14799.21
474.39	14700.90
474.57	14841.34
474.75	15047.30
474.93	15051.99
475.12	15421.79
475.30	15208.80
475.48	15222.84
475.66	15367.96
475.84	15346.89
476.02	15257.95
476.20	15330.51
476.38	15864.15
476.56	15866.49
476.74	16196.51
476.92	16191.83
477.10	16222.25
477.28	16521.84
477.46	16519.50
477.64	16592.06
477.82	16641.21
478.00	17191.23
478.18	17214.64
478.36	16940.80
478.54	17240.39
478.72	17376.14
478.90	17621.89
479.08	18082.98
479.26	17860.63
479.44	18061.91
479.62	18260.86
479.80	18204.69
479.98	18548.75
480.16	18981.74
480.34	18771.10
480.52	18508.96
480.70	18925.57
480.88	18546.40
481.06	18874.08
481.24	19042.60
481.41	19337.51
481.59	19616.03
481.77	19587.94
481.95	19955.41
482.13	20163.72
482.31	19688.59
482.49	20788.64
482.67	20376.70
482.85	20702.04
483.03	21015.67
483.21	21146.74
483.39	21186.53
483.57	21083.55
483.74	21333.98
483.92	21680.38
484.10	21568.04
484.28	22162.53
484.46	22190.62
484.64	22595.53
484.82	22235.09
485.00	22794.48
485.18	23094.07
485.35	23175.98
485.53	23014.49
485.71	22991.08
485.89	23552.81
486.07	23985.81
486.25	23632.39
486.43	23854.74
486.61	23913.25
486.78	24236.25
486.96	24339.23
487.14	24631.80
487.32	24931.39
487.50	25312.89
487.68	25245.02
487.85	25544.61
488.03	25949.52
488.21	25858.24
488.39	25883.98
488.57	26136.76
488.75	26574.44
488.92	26859.99
489.10	27307.03
489.28	27133.83
489.46	27363.20
489.64	27360.86
489.81	27852.38
489.99	27864.08
490.17	28393.04
490.35	28758.16
490.53	28386.02
490.70	28613.05
490.88	28804.97
491.06	29450.96
491.24	29219.25
491.41	29247.33
491.59	29544.58
491.77	29659.27
491.95	30164.82
492.13	30345.05
492.30	30429.30
492.48	30527.61
492.66	30352.07
492.84	30885.71
493.01	30934.86
493.19	30684.42
493.37	31435.74
493.54	31653.40
493.72	31957.67
493.90	31702.56
494.08	32432.80
494.25	32650.47
494.43	32400.04
494.61	32914.95
494.79	32879.85
494.96	32603.66
495.14	33055.39
495.32	33464.98
495.49	33362.00
495.67	33865.21
495.85	33876.91
496.02	33972.88
496.20	34302.89
496.38	34321.62
496.55	34216.29
496.73	35548.06
496.91	35225.06
497.09	35161.87
497.26	35335.07
497.44	35421.67
497.62	35704.87
497.79	36034.89
497.97	35515.29
498.14	36341.50
498.32	36692.58
498.50	36549.81
498.67	37029.62
498.85	37125.58
499.03	36940.68
499.20	37467.30
499.38	37427.51
499.56	37237.92
499.73	37591.34
499.91	37687.31
500.08	38134.35
500.26	37617.09
500.44	38068.81
500.61	38555.64
500.79	38082.86
500.97	38476.07
501.14	39498.88
501.32	39075.24
501.49	38974.60
501.67	39084.61
501.84	39585.48
502.02	39222.70
502.20	39470.79
502.37	39555.05
502.55	39505.90
502.72	39625.27
502.90	39852.30
503.07	40179.98
503.25	39920.18
503.43	39894.43
503.60	40692.55
503.78	41034.27
503.95	40748.73
504.13	40797.88
504.30	41696.64
504.48	40776.81
504.65	41244.92
504.83	41357.27
505.01	41933.04
505.18	42036.02
505.36	42033.68
505.53	42040.70
505.71	42298.16
505.88	42394.12
506.06	41790.27
506.23	42625.84
506.41	42249.01
506.58	42527.53
506.76	42607.11
506.93	42731.16
507.11	43105.65
507.28	43438.00
507.46	43035.43
507.63	43452.05
507.81	43440.34
507.98	43161.82
508.16	43927.17
508.33	43838.23
508.50	44009.09
508.68	43917.81
508.85	44732.32
509.03	44285.28
509.20	44533.37
509.38	45022.54
509.55	45008.50
509.73	44809.56
509.90	45064.67
510.08	45050.63
510.25	45406.39
510.42	44650.40
510.60	45483.63
510.77	45518.74
510.95	45907.27
511.12	45488.31
511.30	45408.73
511.47	45666.19
511.64	46153.02
511.82	46319.20
511.99	46169.41
512.17	46452.61
512.34	46593.04
512.51	46897.31
512.69	46806.03
512.86	46773.27
513.04	47084.56
513.21	46946.47
513.38	47182.86
513.56	47239.03
513.73	47295.21
513.90	47349.04
514.08	47374.78
514.25	47772.67
514.43	47470.75
514.60	48086.31
514.77	47241.37
514.95	48315.68
515.12	48175.25
515.29	48233.76
515.47	48425.68
515.64	48596.54
515.81	48308.66
515.99	49062.31
516.16	49425.09
516.33	48746.34
516.51	49315.09
516.68	48987.41
516.85	48741.66
517.03	49425.09
517.20	49233.17
517.37	49120.82
517.54	49427.43
517.72	49504.67
517.89	49638.08
518.06	49460.20
518.24	49408.71
518.41	49741.06
518.58	49928.31
518.75	49689.57
518.93	49914.26
519.10	50138.96
519.27	50068.74
519.45	50138.96
519.62	50150.66
519.79	50113.21
519.96	50485.36
520.14	51091.55
520.31	50492.38
520.48	50494.72
520.65	50824.73
520.83	51199.22
521.00	51253.05
521.17	51086.87
521.34	51068.15
521.52	51323.27
521.69	51194.54
521.86	51391.14
522.03	51519.87
522.20	51674.35
522.38	51941.17
522.55	51955.21
522.72	51793.71
522.89	52121.39
523.07	52123.73
523.24	51810.10
523.41	52341.40
523.58	52013.73
523.75	52437.36
523.92	52072.24
524.10	52470.13
524.27	52809.51
524.44	52573.11
524.61	52413.96
524.78	52622.26
524.96	52664.39
525.13	52800.15
525.30	52598.86
525.47	52582.48
525.64	52786.10
525.81	52676.10
525.98	53270.59
526.16	53113.78
526.33	53120.80
526.50	53418.05
526.67	53408.68
526.84	53041.22
527.01	53174.63
527.18	53010.79
527.36	53448.47
527.53	53235.48
527.70	53661.46
527.87	53755.08
528.04	53701.25
528.21	53719.98
528.38	53537.41
528.55	53727.00
528.72	53972.75
528.89	53829.98
529.07	53680.19
529.24	54033.61
529.41	53982.12
529.58	53944.67
529.75	53771.47
529.92	54068.72
530.09	54272.34
530.26	54391.71
530.43	54461.93
530.60	54183.40
530.77	54255.96
530.94	54511.08
531.11	54337.88
531.28	54443.20
531.46	54534.48
531.63	54672.57
531.80	54412.77
531.97	54679.60
532.14	54595.34
532.31	54878.54
532.48	54927.69
532.65	55166.43
532.82	54808.32
532.99	55009.61
533.16	54838.75
533.33	55121.96
533.50	55367.71
533.67	55208.56
533.84	55028.34
534.01	55248.35
534.18	55295.16
534.35	55681.34
534.52	55416.86
534.69	55774.97
534.86	55707.09
535.03	55496.44
535.20	55433.25
535.37	55576.02
535.54	55693.05
535.71	55482.40
535.88	55728.16
536.05	56097.96
536.22	55730.50
536.38	56013.70
536.55	55938.80
536.72	56037.11
536.89	55962.21
537.06	55920.08
537.23	56294.56
537.40	55800.71
537.57	56163.50
537.74	56371.80
537.91	56236.05
538.08	56114.34
538.25	55915.40
538.42	56254.78
538.59	56491.17
538.75	56186.90
538.92	56456.06
539.09	56594.15
539.26	56442.02
539.43	56395.21
539.60	56659.69
539.77	56479.47
539.94	56978.00
540.11	56757.99
540.28	56680.75
540.44	56762.67
540.61	56563.73
540.78	56912.47
540.95	56556.70
541.12	56708.84
541.29	57015.45
541.46	57188.65
541.62	56910.13
541.79	57001.41
541.96	56760.33
542.13	56790.76
542.30	56816.50
542.47	57088.01
542.63	57324.40
542.80	57322.06
542.97	57249.50
543.14	57408.66
543.31	57448.45
543.48	57551.43
543.64	57558.45
543.81	57769.10
543.98	57778.46
544.15	57666.12
544.32	57813.57
544.48	57811.23
544.65	57762.08
544.82	57652.08
544.99	57396.96
545.16	57916.56
545.32	57595.90
545.49	57993.79
545.66	57804.21
545.83	57911.88
546.00	57932.94
546.16	57832.30
546.33	57874.43
546.50	57975.07
546.67	57993.79
546.83	57869.75
547.00	58148.27
547.17	57977.41
547.34	57916.56
547.50	58127.20
547.67	58213.80
547.84	58190.40
548.00	58454.88
548.17	58660.85
548.34	58183.38
548.51	58326.15
548.67	58576.59
548.84	58576.59
549.01	58391.68
549.18	58508.71
549.34	58782.55
549.51	58426.79
549.68	58656.17
549.84	58562.54
550.01	58738.08
550.18	58597.65
550.34	58768.51
550.51	58808.30
550.68	58777.87
550.84	58667.87
551.01	58911.28
551.18	58782.55
551.34	58890.22
551.51	58681.91
551.68	58974.48
551.84	58941.71
552.01	58726.38
552.18	59002.56
552.34	58660.85
552.51	59007.25
552.68	58869.15
552.84	58918.31
553.01	59185.13
553.18	59105.55
553.34	59077.46
553.51	58932.35
553.67	58969.80
553.84	59164.06
554.01	59238.96
554.17	59374.71
554.34	59241.30
554.51	59412.16
554.67	59250.66
554.84	59262.36
555.00	59416.84
555.17	59215.55
555.33	59458.97
555.50	59299.81
555.67	59276.41
555.83	59419.18
556.00	59304.49
556.16	59826.43
556.33	59384.07
556.50	59463.65
556.66	59805.37
556.83	59515.14
556.99	59615.79
557.16	59742.17
557.32	59845.16
557.49	60053.47
557.65	59564.29
557.82	59662.60
557.98	59590.04
558.15	59686.00
558.32	59887.29
558.48	59622.81
558.65	59901.33
558.81	59756.22
558.98	59898.99
559.14	59910.69
559.31	59992.61
559.47	60111.98
559.64	59966.87
559.80	59964.52
559.97	60081.55
560.13	59784.30
560.30	60034.74
560.46	60041.76
560.63	59966.87
560.79	60104.96
560.96	60217.30
561.12	60137.72
561.29	60177.51
561.45	60081.55
561.61	60140.07
561.78	60154.11
561.94	60088.57
562.11	59863.88
562.27	60100.28
562.44	60102.62
562.60	60418.59
562.77	60093.25
562.93	60168.15
563.10	60339.01
563.26	60051.12
563.42	60526.25
563.59	60245.39
563.75	60170.49
563.92	60303.90
564.08	60360.08
564.24	60481.78
564.41	60521.57
564.57	60299.22
564.74	60280.50
564.90	60336.67
565.07	60383.48
565.23	60594.13
565.39	60378.80
565.56	60683.07
565.72	60376.46
565.88	60580.09
566.05	60446.68
566.21	60542.64
566.38	60640.94
566.54	60509.87
566.70	60629.24
566.87	60519.23
567.03	60516.89
567.19	60626.90
567.36	60673.71
567.52	60498.17
567.68	60779.03
567.85	60664.35
568.01	60683.07
568.17	60570.72
568.34	60793.07
568.50	60825.84
568.66	60537.96
568.83	60781.37
568.99	60640.94
569.15	60683.07
569.32	60535.62
569.48	60664.35
569.64	60879.67
569.81	60734.56
569.97	60633.92
570.13	60828.18
570.30	60690.09
570.46	60636.26
570.62	60683.07
570.78	60912.44
570.95	60788.39
571.11	60800.10
571.27	60900.74
571.43	60830.52
571.60	60856.27
571.76	60818.82
571.92	60863.29
572.09	61024.79
572.25	60896.06
572.41	60914.78
572.57	60898.40
572.74	61123.09
572.90	60809.46
573.06	60914.78
573.22	60781.37
573.38	61059.90
573.55	60886.70
573.71	61099.68
573.87	61010.74
574.03	60706.47
574.20	61022.45
574.36	60987.34
574.52	60952.23
574.68	61052.87
574.84	61045.85
575.01	60828.18
575.17	61015.43
575.33	60807.12
575.49	61076.28
575.65	61230.75
575.82	61020.11
575.98	61038.83
576.14	61155.86
576.30	61125.43
576.46	61015.43
576.62	61073.94
576.79	61052.87
576.95	61008.40
577.11	60987.34
577.27	61097.34
577.43	60914.78
577.59	60774.35
577.75	60970.96
577.92	60846.91
578.08	61193.31
578.24	60996.70
578.40	61336.08
578.56	61116.07
578.72	61071.60
578.88	61230.75
579.04	61209.69
579.21	61041.17
579.37	61263.52
579.53	61235.44
579.69	60945.21
579.85	61176.92
580.01	61254.16
580.17	61155.86
580.33	61212.03
580.49	61331.40
580.65	61179.26
580.82	61237.78
580.98	60940.53
581.14	61153.52
581.30	61188.63
581.46	61261.18
581.62	61172.24
581.78	61003.72
581.94	61205.01
582.10	61188.63
582.26	61275.22
582.42	61090.32
582.58	61338.42
582.74	61160.54
582.90	61282.25
583.06	61017.77
583.22	61095.00
583.38	61188.63
583.54	61038.83
583.70	61186.28
583.86	61162.88
584.02	61123.09
584.18	61406.30
584.34	61085.64
584.50	61134.79
584.66	61394.59
584.82	61097.34
584.98	61387.57
585.14	61382.89
585.30	61216.71
585.46	61197.99
585.62	61333.74
585.78	61375.87
585.94	61144.16
586.10	61277.57
586.26	61256.50
586.42	61256.50
586.58	61457.79
586.74	61350.12
586.90	61322.04
587.06	61127.77
587.22	61282.25
587.38	61422.68
587.54	61485.87
587.70	61485.87
587.86	61270.54
588.02	61354.80
588.18	61586.52
588.34	61340.76
588.49	61375.87
