SpectraSuite Data File
++++++++++++++++++++++++++++++++++++
Date: Fri Oct 25 11:25:11 EDT 2013
User: price-jones
Dark Spectrum Present: No
Reference Spectrum Present: No
Number of Sampled Component Spectra: 1
Spectrometers: USB2+H05261
Integration Time (usec): 100000 (USB2+H05261)
Spectra Averaged: 1 (USB2+H05261)
Boxcar Smoothing: 0 (USB2+H05261)
Correct for Electrical Dark: No (USB2+H05261)
Strobe/Lamp Enabled: No (USB2+H05261)
Correct for Detector Non-linearity: No (USB2+H05261)
Correct for Stray Light: No (USB2+H05261)
Number of Pixels in Processed Spectrum: 2048
>>>>>Begin Processed Spectral Data<<<<<
365.73	276.18
365.92	276.18
366.12	276.18
366.32	145.11
366.52	159.16
366.72	114.69
366.91	114.69
367.11	110.01
367.31	161.50
367.51	168.52
367.70	170.86
367.90	126.39
368.10	114.69
368.30	72.56
368.49	119.37
368.69	159.16
368.89	152.13
369.09	180.22
369.28	163.84
369.48	124.05
369.68	205.97
369.87	238.73
370.07	217.67
370.27	238.73
370.47	337.04
370.66	566.41
370.86	702.16
371.06	650.67
371.25	627.26
371.45	685.78
371.65	667.05
371.84	650.67
372.04	671.73
372.24	667.05
372.44	725.57
372.63	737.27
372.83	779.40
373.03	732.59
373.22	795.78
373.42	842.59
373.62	842.59
373.81	791.10
374.01	840.25
374.21	847.27
374.40	821.53
374.60	854.30
374.79	786.42
374.99	814.51
375.19	870.68
375.38	812.17
375.58	854.30
375.78	819.19
375.97	798.12
376.17	875.36
376.37	840.25
376.56	868.34
376.76	784.08
376.95	884.72
377.15	877.70
377.35	919.83
377.54	880.04
377.74	945.58
377.93	919.83
378.13	945.58
378.33	968.98
378.52	884.72
378.72	912.81
378.91	926.85
379.11	908.13
379.31	896.43
379.50	910.47
379.70	983.02
379.89	858.98
380.09	938.55
380.28	940.90
380.48	1041.54
380.68	990.05
380.87	1041.54
381.07	1022.81
381.26	1057.92
381.46	987.71
381.65	1029.84
381.85	1018.13
382.04	1076.65
382.24	1029.84
382.43	990.05
382.63	1069.62
382.83	1064.94
383.02	1114.10
383.22	1132.82
383.41	1029.84
383.61	1137.50
383.80	1174.95
384.00	1165.59
384.19	1123.46
384.39	1160.91
384.58	1132.82
384.78	1142.18
384.97	1219.42
385.17	1193.67
385.36	1228.78
385.56	1163.25
385.75	1095.37
385.95	1125.80
386.14	1205.38
386.34	1132.82
386.53	1165.59
386.72	1177.29
386.92	1193.67
387.11	1191.33
387.31	1245.16
387.50	1186.65
387.70	1270.91
387.89	1282.61
388.09	1203.04
388.28	1284.95
388.48	1273.25
388.67	1299.00
388.86	1287.29
389.06	1306.02
389.25	1329.42
389.45	1371.55
389.64	1343.47
389.84	1336.45
390.03	1357.51
390.22	1341.13
390.42	1460.49
390.61	1385.60
390.81	1287.29
391.00	1390.28
391.19	1404.32
391.39	1455.81
391.58	1355.17
391.78	1479.22
391.97	1526.03
392.16	1434.75
392.36	1617.31
392.55	1460.49
392.75	1526.03
392.94	1516.67
393.13	1528.37
393.33	1401.98
393.52	1617.31
393.71	1650.08
393.91	1547.09
394.10	1561.14
394.29	1462.83
394.49	1561.14
394.68	1582.20
394.88	1528.37
395.07	1689.87
395.26	1687.53
395.46	1783.49
395.65	1706.25
395.84	1755.40
396.04	1734.34
396.23	1710.93
396.42	1708.59
396.62	1771.79
396.81	1778.81
397.00	1771.79
397.19	1715.61
397.39	1783.49
397.58	1823.28
397.77	1804.55
397.97	1827.96
398.16	1750.72
398.35	1757.74
398.55	1799.87
398.74	1898.17
398.93	1987.11
399.12	2012.86
399.32	1898.17
399.51	2043.29
399.70	1998.82
399.90	2012.86
400.09	1919.24
400.28	1949.67
400.47	1968.39
400.67	1987.11
400.86	2066.69
401.05	2064.35
401.24	2172.02
401.44	2024.56
401.63	2193.08
401.82	2097.12
402.01	2031.58
402.21	2132.23
402.40	2253.94
402.59	2235.21
402.78	2134.57
402.97	2286.70
403.17	2265.64
403.36	2263.30
403.55	2267.98
403.74	2361.60
403.93	2396.71
404.13	2349.90
404.32	2434.16
404.51	2335.85
404.70	2417.77
404.89	2298.41
405.09	2579.27
405.28	2387.35
405.47	2389.69
405.66	2361.60
405.85	2380.32
406.05	2424.80
406.24	2560.55
406.43	2572.25
406.62	2600.34
406.81	2651.83
407.00	2602.68
407.20	2569.91
407.39	2523.10
407.58	2665.87
407.77	2677.57
407.96	2684.59
408.15	2661.19
408.34	2729.06
408.54	2789.92
408.73	2815.66
408.92	2909.29
409.11	2864.82
409.30	2820.35
409.49	2967.80
409.68	2841.41
409.87	2885.88
410.07	3014.61
410.26	3012.27
410.45	3000.57
410.64	3061.42
410.83	3101.21
411.02	3232.28
411.21	3159.72
411.40	3061.42
411.59	3222.92
411.78	3204.19
411.98	3141.00
412.17	3251.00
412.36	3353.99
412.55	3332.92
412.74	3407.82
412.93	3321.22
413.12	3332.92
413.31	3613.79
413.50	3566.98
413.69	3510.80
413.88	3627.83
414.07	3688.68
414.26	3646.55
414.45	3574.00
414.64	3688.68
414.83	3735.50
415.02	3796.35
415.22	3709.75
415.41	3815.07
415.60	3822.09
415.79	3868.91
415.98	3941.46
416.17	3906.35
416.36	3927.42
416.55	4032.74
416.74	4056.15
416.93	4049.13
417.12	4058.49
417.31	4133.39
417.50	4184.88
417.69	4348.72
417.88	4250.41
418.07	4304.25
418.26	4189.56
418.45	4325.31
418.64	4596.81
418.83	4299.56
419.02	4510.21
419.21	4404.89
419.39	4442.34
419.58	4564.04
419.77	4447.02
419.96	4550.00
420.15	4608.51
420.34	4517.23
420.53	4643.62
420.72	4704.48
420.91	4594.47
421.10	4793.42
421.29	4641.28
421.48	4573.41
421.67	4706.82
421.86	4674.05
422.05	4861.29
422.24	4833.21
422.43	4975.98
422.61	4779.37
422.80	4959.60
422.99	4910.44
423.18	4985.34
423.37	4997.04
423.56	5011.09
423.75	4994.70
423.94	4842.57
424.13	4402.55
424.32	4943.21
424.50	4994.70
424.69	5081.30
424.88	4973.64
425.07	4870.65
425.26	4959.60
425.45	4865.97
425.64	4901.08
425.83	5081.30
426.01	5041.51
426.20	5018.11
426.39	5055.56
426.58	4961.94
426.77	5022.79
426.96	5221.74
427.15	5064.92
427.33	5118.75
427.52	5146.84
427.71	5427.70
427.90	5341.10
428.09	5308.34
428.28	5228.76
428.46	5289.61
428.65	5254.50
428.84	5345.78
429.03	5518.98
429.22	5366.85
429.40	5645.37
429.59	5556.43
429.78	5291.95
429.97	5221.74
430.16	5554.09
430.34	5556.43
430.53	5523.66
430.72	5465.15
430.91	5628.99
431.10	5497.92
431.28	5591.54
431.47	5748.36
431.66	5849.00
431.85	5764.74
432.03	5991.77
432.22	5968.37
432.41	5830.27
432.60	5783.46
432.79	5891.13
432.97	5961.34
433.16	6054.97
433.35	6113.48
433.54	6076.03
433.72	6101.78
433.91	5935.60
434.10	6167.31
434.28	6155.61
434.47	6083.05
434.66	6132.20
434.85	6176.67
435.03	6267.95
435.22	6235.19
435.41	6487.96
435.59	6307.74
435.78	6544.14
435.97	6436.47
436.16	6303.06
436.34	6406.05
436.53	6422.43
436.72	6644.78
436.90	6487.96
437.09	6527.75
437.28	6408.39
437.46	6656.48
437.65	6586.27
437.84	6696.27
438.02	6518.39
438.21	6855.43
438.40	6548.82
438.58	6965.43
438.77	7026.29
438.96	6848.41
439.14	7091.82
439.33	7197.15
439.52	7260.34
439.70	7061.40
439.89	7417.16
440.08	7541.21
440.26	7218.21
440.45	7201.83
440.63	7386.73
440.82	7386.73
441.01	7557.59
441.19	7583.34
441.38	7676.96
441.57	7597.38
441.75	7693.34
441.94	7854.84
442.12	7990.59
442.31	7779.94
442.50	7957.82
442.68	8004.63
442.87	7999.95
443.05	7978.89
443.24	8224.64
443.43	7995.27
443.61	8060.80
443.80	8458.70
443.98	8196.56
444.17	7705.04
444.35	8051.44
444.54	8294.86
444.73	8116.98
444.91	8236.35
445.10	8229.32
445.28	8367.42
445.47	8299.54
445.65	8159.11
445.84	8390.82
446.02	8414.23
446.21	8290.18
446.39	8325.29
446.58	8428.27
446.77	8404.86
446.95	8196.56
447.14	8404.86
447.32	8430.61
447.51	8547.64
447.69	8301.88
447.88	8428.27
448.06	8416.57
448.25	8524.23
448.43	8608.49
448.62	8388.48
448.80	8594.45
448.99	8676.37
449.17	8671.68
449.36	8699.77
449.54	8802.75
449.73	9008.72
449.91	9097.66
450.10	8954.89
450.28	9083.62
450.46	9074.26
450.65	8952.55
450.83	9116.39
451.02	8938.51
451.20	9100.00
451.39	9071.92
451.57	9186.60
451.76	9142.13
451.94	9144.47
452.13	9245.12
452.31	9373.85
452.49	9090.64
452.68	9231.07
452.86	9177.24
453.05	9451.08
453.23	9533.00
453.42	9533.00
453.60	9256.82
453.78	9434.70
453.97	9584.49
454.15	9284.91
454.34	9170.22
454.52	9479.17
454.70	9380.87
454.89	9661.73
455.07	9675.77
455.26	9902.81
455.44	9806.84
455.62	9860.68
455.81	9984.73
455.99	10003.45
456.17	9837.27
456.36	10115.80
456.54	10090.05
456.73	10113.45
456.91	10326.44
457.09	10354.53
457.28	10303.04
457.46	10338.15
457.64	10555.82
457.83	10319.42
458.01	10478.58
458.19	10813.28
458.38	10572.20
458.56	10719.65
458.74	10501.98
458.93	10513.69
459.11	10836.68
459.29	10597.95
459.48	10738.38
459.66	10593.26
459.84	10656.46
460.03	11049.67
460.21	10869.45
460.39	10803.91
460.57	10815.62
460.76	11098.82
460.94	11246.27
461.12	11068.39
461.31	11105.84
461.49	11033.29
461.67	11019.24
461.85	11328.19
462.04	11180.74
462.22	11894.60
462.40	11477.99
462.59	11475.65
462.77	11239.25
462.95	11356.28
463.13	11346.92
463.32	11571.61
463.50	11939.07
463.68	11679.27
463.86	11903.96
464.05	11583.31
464.23	11456.92
464.41	12032.69
464.59	11557.57
464.78	12025.67
464.96	11868.86
465.14	11726.08
465.32	11978.86
465.50	12013.97
465.69	12196.53
465.87	11962.48
466.05	11981.20
466.23	12229.30
466.41	12016.31
466.60	12388.46
466.78	12098.23
466.96	12184.83
467.14	12070.14
467.32	12025.67
467.51	12257.39
467.69	11925.03
467.87	12645.91
468.05	12362.71
468.23	12409.52
468.41	12439.95
468.60	12486.76
468.78	12538.25
468.96	12510.16
469.14	12538.25
469.32	12886.99
469.50	12636.55
469.69	12865.92
469.87	13142.11
470.05	13158.49
470.23	13139.77
470.41	13095.30
470.59	13193.60
470.77	13125.72
470.95	13209.98
471.14	13661.71
471.32	13291.90
471.50	13631.28
471.68	13479.15
471.86	13635.96
472.04	13488.51
472.22	13944.91
472.40	13678.09
472.58	13607.87
472.77	13928.53
472.95	13994.06
473.13	14534.73
473.31	14071.30
473.49	13970.66
473.67	14068.96
473.85	14150.88
474.03	14368.55
474.21	14628.35
474.39	14810.91
474.57	14490.26
474.75	14857.72
474.93	14853.04
475.12	14902.19
475.30	15119.86
475.48	14911.55
475.66	15131.56
475.84	15133.90
476.02	15482.64
476.20	15192.42
476.38	15730.74
476.56	15957.77
476.74	15997.56
476.92	15602.01
477.10	15889.90
477.28	16133.31
477.46	15906.28
477.64	16058.42
477.82	16477.37
478.00	17067.19
478.18	16608.44
478.36	16685.68
478.54	17025.06
478.72	16896.33
478.90	17336.35
479.08	17404.22
479.26	17673.39
479.44	17565.72
479.62	17701.47
479.80	17980.00
479.98	17668.70
480.16	18415.34
480.34	18134.47
480.52	18513.64
480.70	18679.82
480.88	18277.24
481.06	18911.53
481.24	18761.73
481.41	18775.78
481.59	19171.33
481.77	19644.12
481.95	19531.77
482.13	19391.34
482.31	19473.26
482.49	20107.54
482.67	19637.09
482.85	20540.54
483.03	20346.28
483.21	20477.35
483.39	20762.89
483.57	20809.70
483.74	21120.99
483.92	21069.50
484.10	20936.09
484.28	21539.95
484.46	22040.82
484.64	22242.11
484.82	21722.51
485.00	21717.83
485.18	22778.09
485.35	22895.12
485.53	22604.89
485.71	22967.68
485.89	23328.12
486.07	23314.08
486.25	23110.45
486.43	23566.85
486.61	23728.35
486.78	23915.59
486.96	24112.20
487.14	24369.66
487.32	24456.26
487.50	24964.15
487.68	24570.94
487.85	25106.93
488.03	25254.38
488.21	25645.25
488.39	25790.36
488.57	25923.77
488.75	26253.79
488.92	26073.57
489.10	26448.05
489.28	26436.35
489.46	27456.82
489.64	26745.30
489.81	27400.65
489.99	27248.52
490.17	27468.53
490.35	27702.58
490.53	27667.47
490.70	28390.70
490.88	27948.34
491.06	28180.05
491.24	28732.42
491.41	28992.22
491.59	28917.32
491.77	28989.88
491.95	29401.81
492.13	29551.60
492.30	29649.91
492.48	29961.20
492.66	29879.28
492.84	30635.27
493.01	30782.73
493.19	30520.59
493.37	30712.51
493.54	30799.11
493.72	31367.86
493.90	31346.79
494.08	31473.18
494.25	31995.12
494.43	31704.90
494.61	31981.08
494.79	32205.77
494.96	32411.74
495.14	32210.45
495.32	33202.84
495.49	33022.62
495.67	33015.60
495.85	33193.48
496.02	33436.89
496.20	33642.86
496.38	33659.24
496.55	33942.45
496.73	34782.70
496.91	34019.69
497.09	34473.75
497.26	34621.20
497.44	34675.04
497.62	34740.57
497.79	35185.27
497.97	35164.21
498.14	35941.27
498.32	36018.50
498.50	35861.69
498.67	36378.95
498.85	36180.00
499.03	36437.46
499.20	36648.11
499.38	36414.05
499.56	36430.44
499.73	36802.58
499.91	37331.54
500.08	37649.86
500.26	37074.09
500.44	37404.10
500.61	37998.60
500.79	37507.08
500.97	38108.60
501.14	38583.73
501.32	37902.64
501.49	38497.13
501.67	38330.95
501.84	38698.42
502.02	38740.55
502.20	38759.27
502.37	39070.56
502.55	39267.17
502.72	39466.11
502.90	39431.01
503.07	39328.02
503.25	39580.80
503.43	39569.10
503.60	39842.94
503.78	39810.17
503.95	39983.37
504.13	39896.77
504.30	40425.73
504.48	40566.16
504.65	40575.53
504.83	40992.14
505.01	41170.02
505.18	41099.81
505.36	41586.64
505.53	41085.76
505.71	41563.23
505.88	41677.92
506.06	41031.93
506.23	41631.11
506.41	41855.80
506.58	41600.68
506.76	41780.90
506.93	42323.91
507.11	41956.44
507.28	42239.65
507.46	42412.85
507.63	42415.19
507.81	42927.77
507.98	42452.64
508.16	42721.80
508.33	43241.40
508.50	43178.20
508.68	43496.52
508.85	43871.00
509.03	43842.92
509.20	44210.38
509.38	43854.62
509.55	44027.82
509.73	44381.24
509.90	44432.73
510.08	44439.75
510.25	44336.77
510.42	44460.82
510.60	44683.17
510.77	44769.77
510.95	44992.12
511.12	45055.31
511.30	45408.73
511.47	45153.62
511.64	45326.81
511.82	45745.77
511.99	45394.69
512.17	45642.79
512.34	45670.87
512.51	46529.85
512.69	45902.59
512.86	46057.06
513.04	46213.88
513.21	46768.58
513.38	46295.80
513.56	46609.43
513.73	46808.37
513.90	46845.82
514.08	46806.03
514.25	47269.46
514.43	46866.89
514.60	47288.18
514.77	47049.45
514.95	47178.18
515.12	47154.77
515.29	47555.00
515.47	47894.38
515.64	47714.16
515.81	47491.81
515.99	47835.87
516.16	48303.98
516.33	47910.77
516.51	48500.58
516.68	48123.75
516.85	48512.28
517.03	48552.07
517.20	48715.91
517.37	48678.46
517.54	48985.07
517.72	48849.32
517.89	49186.36
518.06	48865.70
518.24	48879.75
518.41	49464.88
518.58	49404.03
518.75	49436.80
518.93	49301.04
519.10	49059.97
519.27	49474.24
519.45	49485.95
519.62	49736.38
519.79	49886.18
519.96	50136.62
520.14	49984.48
520.31	50085.12
520.48	50298.11
520.65	49900.22
520.83	50092.15
521.00	50625.79
521.17	50103.85
521.34	50368.33
521.52	50817.71
521.69	50665.58
521.86	50696.00
522.03	51075.17
522.20	50869.20
522.38	51239.01
522.55	51068.15
522.72	51030.70
522.89	51325.61
523.07	51629.88
523.24	51337.31
523.41	51679.03
523.58	51224.96
523.75	51845.21
523.92	51103.26
524.10	51683.71
524.27	51770.31
524.44	51749.24
524.61	51821.80
524.78	52090.96
524.96	52060.54
525.13	52140.11
525.30	52186.92
525.47	52530.98
525.64	52093.30
525.81	52444.38
525.98	52732.27
526.16	52360.12
526.33	52446.72
526.50	52683.12
526.67	52474.81
526.84	52633.97
527.01	52755.68
527.18	52538.01
527.36	52743.97
527.53	52708.86
527.70	53123.14
527.87	52865.68
528.04	52999.09
528.21	52865.68
528.38	53244.85
528.55	53324.43
528.72	53162.93
528.89	53392.30
529.07	52952.28
529.24	53052.92
529.41	53584.22
529.58	53158.25
529.75	53305.70
529.92	53607.63
530.09	53462.52
530.26	53654.44
530.43	53853.39
530.60	53441.45
530.77	53638.06
530.94	54047.65
531.11	53792.53
531.28	54103.82
531.46	54349.58
531.63	54049.99
531.80	54155.32
531.97	54103.82
532.14	54293.41
532.31	54176.38
532.48	54504.06
532.65	54602.36
532.82	54241.92
532.99	54611.72
533.16	54574.27
533.33	54646.83
533.50	54770.88
533.67	54649.17
533.84	54223.19
534.01	54548.53
534.18	54768.54
534.35	55238.98
534.52	54939.39
534.69	54714.70
534.86	55016.63
535.03	54939.39
535.20	54988.55
535.37	55295.16
535.54	55458.99
535.71	54979.18
535.88	55236.64
536.05	55323.24
536.22	55526.87
536.38	55508.14
536.55	55414.52
536.72	55260.05
536.89	55292.82
537.06	55400.48
537.23	55578.36
537.40	55274.09
537.57	55554.96
537.74	55538.57
537.91	55730.50
538.08	55753.90
538.25	55496.44
538.42	55608.79
538.59	56025.40
538.75	55753.90
538.92	55950.51
539.09	56196.26
539.26	56133.07
539.43	55868.59
539.60	56182.22
539.77	56095.62
539.94	56296.91
540.11	56364.78
540.28	56360.10
540.44	56130.73
540.61	56289.88
540.78	56329.67
540.95	56254.78
541.12	55955.19
541.29	56200.94
541.46	56339.04
541.62	56549.68
541.79	56399.89
541.96	56346.06
542.13	56343.72
542.30	56540.32
542.47	56486.49
542.63	56767.35
542.80	56666.71
542.97	56989.70
543.14	56865.66
543.31	57102.05
543.48	57322.06
543.64	57282.27
543.81	57146.52
543.98	57090.35
544.15	57375.89
544.32	57418.02
544.48	57223.76
544.65	57017.79
544.82	57315.04
544.99	57036.51
545.16	57270.57
545.32	57387.60
545.49	57525.69
545.66	57579.52
545.83	57694.21
546.00	57492.92
546.16	57631.01
546.33	57450.79
546.50	57497.60
546.67	57476.54
546.83	57373.55
547.00	57364.19
547.17	57446.11
547.34	57495.26
547.50	57822.93
547.67	57897.83
547.84	58014.86
548.00	58145.93
548.17	57879.11
548.34	57822.93
548.51	57958.69
548.67	58085.07
548.84	57946.98
549.01	57970.39
549.18	57930.60
549.34	58239.55
549.51	58017.20
549.68	58096.78
549.84	58438.50
550.01	58106.14
550.18	58237.21
550.34	58375.30
550.51	58277.00
550.68	58262.96
550.84	58094.44
551.01	58365.94
551.18	58178.70
551.34	58300.40
551.51	58639.78
551.68	58529.78
551.84	58487.65
552.01	58349.56
552.18	58562.54
552.34	58174.02
552.51	58539.14
552.68	58637.44
552.84	58726.38
553.01	58838.73
553.18	58588.29
553.34	58754.47
553.51	58466.58
553.67	58656.17
553.84	58820.00
554.01	58768.51
554.17	58777.87
554.34	58890.22
554.51	58890.22
554.67	58836.39
554.84	58979.16
555.00	58602.33
555.17	58773.19
555.33	59021.29
555.50	58937.03
555.67	58845.75
555.83	58852.77
556.00	59018.95
556.16	59281.09
556.33	59143.00
556.50	58981.50
556.66	59164.06
556.83	59121.93
556.99	59222.58
557.16	59318.54
557.32	59234.28
557.49	59255.34
557.65	59412.16
557.82	59337.26
557.98	59288.11
558.15	59414.50
558.32	59480.03
558.48	59248.32
558.65	59391.09
558.81	59430.88
558.98	59358.33
559.14	59325.56
559.31	59660.26
559.47	59480.03
559.64	59671.96
559.80	59487.06
559.97	59664.94
560.13	59538.55
560.30	59470.67
560.46	59702.38
560.63	59524.50
560.79	59643.87
560.96	59627.49
561.12	59697.70
561.29	59676.64
561.45	59646.21
561.61	59503.44
561.78	59732.81
561.94	59599.40
562.11	59655.57
562.27	59847.50
562.44	59758.56
562.60	59992.61
562.77	59927.08
562.93	59721.11
563.10	59826.43
563.26	59798.35
563.42	60121.34
563.59	60030.06
563.75	59515.14
563.92	59952.82
564.08	59952.82
564.24	60140.07
564.41	59774.94
564.57	59934.10
564.74	59941.12
564.90	60210.28
565.07	59838.14
565.23	59990.27
565.39	60027.72
565.56	60069.85
565.72	60104.96
565.88	60018.36
566.05	59709.41
566.21	60121.34
566.38	59990.27
566.54	60006.65
566.70	60165.81
566.87	60191.56
567.03	59999.63
567.19	60409.23
567.36	60144.75
567.52	60095.60
567.68	60376.46
567.85	60233.69
568.01	60243.05
568.17	60126.02
568.34	60406.89
568.50	60280.50
568.66	60093.25
568.83	60301.56
568.99	60219.64
569.15	60521.57
569.32	60186.88
569.48	60289.86
569.64	60441.99
569.81	60301.56
569.97	60353.05
570.13	60285.18
570.30	60154.11
570.46	60285.18
570.62	60135.38
570.78	60383.48
570.95	60285.18
571.11	60444.33
571.27	60619.88
571.43	60430.29
571.60	60243.05
571.76	60409.23
571.92	60348.37
572.09	60493.49
572.25	60456.04
572.41	60301.56
572.57	60530.93
572.74	60664.35
572.90	60231.35
573.06	60645.62
573.22	60453.70
573.38	60495.83
573.55	60521.57
573.71	60828.18
573.87	60470.08
574.03	60200.92
574.20	60608.17
574.36	60434.97
574.52	60444.33
574.68	60594.13
574.84	60624.56
575.01	60519.23
575.17	60708.82
575.33	60392.84
575.49	60514.55
575.65	60608.17
575.82	60582.43
575.98	60722.86
576.14	60748.60
576.30	60580.09
576.46	60554.34
576.62	60556.68
576.79	60542.64
576.95	60552.00
577.11	60748.60
577.27	60580.09
577.43	60821.16
577.59	60619.88
577.75	60617.53
577.92	60542.64
578.08	60659.66
578.24	60790.73
578.40	60746.26
578.56	60858.61
578.72	60659.66
578.88	60739.24
579.04	60795.42
579.21	60680.73
579.37	60767.33
579.53	60718.18
579.69	60556.68
579.85	60481.78
580.01	60718.18
580.17	60575.40
580.33	60713.50
580.49	60856.27
580.65	60921.80
580.82	60671.37
580.98	60669.03
581.14	60622.22
581.30	60882.02
581.46	60727.54
581.62	60900.74
581.78	60530.93
581.94	60849.25
582.10	60664.35
582.26	60793.07
582.42	60755.63
582.58	60718.18
582.74	60760.31
582.90	60884.36
583.06	60865.63
583.22	60395.18
583.38	60764.99
583.54	61015.43
583.70	60963.93
583.86	60743.92
584.02	60456.04
584.18	60924.14
584.34	60912.44
584.50	60757.97
584.66	60928.83
584.82	60647.96
584.98	61003.72
585.14	60874.99
585.30	60849.25
585.46	61071.60
585.62	60694.77
585.78	61059.90
585.94	60905.42
586.10	60844.57
586.26	60942.87
586.42	60860.95
586.58	61029.47
586.74	60980.32
586.90	60891.38
587.06	60727.54
587.22	61038.83
587.38	61038.83
587.54	60865.63
587.70	61125.43
587.86	61118.41
588.02	60844.57
588.18	61202.67
588.34	60940.53
588.49	61043.51
