SpectraSuite Data File
++++++++++++++++++++++++++++++++++++
Date: Fri Oct 25 11:25:19 EDT 2013
User: price-jones
Dark Spectrum Present: No
Reference Spectrum Present: No
Number of Sampled Component Spectra: 1
Spectrometers: USB2+H05261
Integration Time (usec): 100000 (USB2+H05261)
Spectra Averaged: 1 (USB2+H05261)
Boxcar Smoothing: 0 (USB2+H05261)
Correct for Electrical Dark: No (USB2+H05261)
Strobe/Lamp Enabled: No (USB2+H05261)
Correct for Detector Non-linearity: No (USB2+H05261)
Correct for Stray Light: No (USB2+H05261)
Number of Pixels in Processed Spectrum: 2048
>>>>>Begin Processed Spectral Data<<<<<
365.73	257.46
365.92	257.46
366.12	257.46
366.32	91.28
366.52	133.41
366.72	142.77
366.91	128.73
367.11	46.81
367.31	121.71
367.51	112.35
367.70	86.60
367.90	168.52
368.10	74.90
368.30	163.84
368.49	156.82
368.69	175.54
368.89	194.26
369.09	149.79
369.28	177.88
369.48	222.35
369.68	182.56
369.87	182.56
370.07	224.69
370.27	248.10
370.47	334.70
370.66	512.58
370.86	592.16
371.06	664.71
371.25	716.20
371.45	657.69
371.65	760.67
371.84	599.18
372.04	589.82
372.24	718.54
372.44	734.93
372.63	664.71
372.83	779.40
373.03	770.04
373.22	767.70
373.42	819.19
373.62	795.78
373.81	807.48
374.01	741.95
374.21	734.93
374.40	772.38
374.60	784.08
374.79	833.23
374.99	814.51
375.19	875.36
375.38	835.57
375.58	866.00
375.78	908.13
375.97	842.59
376.17	912.81
376.37	880.04
376.56	793.44
376.76	830.89
376.95	882.38
377.15	866.00
377.35	880.04
377.54	842.59
377.74	870.68
377.93	938.55
378.13	940.90
378.33	926.85
378.52	929.19
378.72	980.68
378.91	971.32
379.11	950.26
379.31	903.45
379.50	957.28
379.70	919.83
379.89	1027.50
380.09	940.90
380.28	966.64
380.48	1060.26
380.68	983.02
380.87	952.60
381.07	1039.20
381.26	1011.11
381.46	1025.15
381.65	954.94
381.85	1048.56
382.04	1104.73
382.24	983.02
382.43	1076.65
382.63	971.32
382.83	1015.79
383.02	1013.45
383.22	1111.75
383.41	950.26
383.61	1088.35
383.80	1114.10
384.00	1090.69
384.19	1095.37
384.39	1116.44
384.58	1146.86
384.78	1186.65
384.97	1104.73
385.17	1090.69
385.36	1226.44
385.56	1097.71
385.75	1238.14
385.95	1165.59
386.14	1203.04
386.34	1083.67
386.53	1245.16
386.72	1252.19
386.92	1240.48
387.11	1306.02
387.31	1252.19
387.50	1275.59
387.70	1228.78
387.89	1266.23
388.09	1301.34
388.28	1259.21
388.48	1268.57
388.67	1373.89
388.86	1336.45
389.06	1315.38
389.25	1324.74
389.45	1369.21
389.64	1294.32
389.84	1327.08
390.03	1341.13
390.22	1329.42
390.42	1345.81
390.61	1404.32
390.81	1341.13
391.00	1462.83
391.19	1383.26
391.39	1327.08
391.58	1474.54
391.78	1387.94
391.97	1479.22
392.16	1420.71
392.36	1493.26
392.55	1465.18
392.75	1423.05
392.94	1563.48
393.13	1486.24
393.33	1420.71
393.52	1460.49
393.71	1533.05
393.91	1582.20
394.10	1607.95
394.29	1514.33
394.49	1659.44
394.68	1526.03
394.88	1666.46
395.07	1685.19
395.26	1661.78
395.46	1603.27
395.65	1732.00
395.84	1755.40
396.04	1734.34
396.23	1720.29
396.42	1694.55
396.62	1811.57
396.81	1856.04
397.00	1783.49
397.19	1790.51
397.39	1802.21
397.58	1830.30
397.77	1851.36
397.97	1898.17
398.16	1888.81
398.35	1870.09
398.55	1809.23
398.74	1928.60
398.93	1935.62
399.12	1830.30
399.32	1832.64
399.51	1900.52
399.70	2045.63
399.90	1872.43
400.09	2045.63
400.28	1987.11
400.47	2003.50
400.67	2097.12
400.86	2118.18
401.05	2047.97
401.24	2083.08
401.44	2221.17
401.63	2150.95
401.82	2125.21
402.01	2139.25
402.21	2069.03
402.40	2183.72
402.59	2113.50
402.78	2115.84
402.97	2188.40
403.17	2263.30
403.36	2256.28
403.55	2232.87
403.74	2385.01
403.93	2275.00
404.13	2319.47
404.32	2380.32
404.51	2352.24
404.70	2363.94
404.89	2249.25
405.09	2495.01
405.28	2420.11
405.47	2476.29
405.66	2478.63
405.85	2574.59
406.05	2532.46
406.24	2509.05
406.43	2513.74
406.62	2586.29
406.81	2757.15
407.00	2675.23
407.20	2665.87
407.39	2483.31
407.58	2740.77
407.77	2754.81
407.96	2607.36
408.15	2771.19
408.34	2661.19
408.54	2853.11
408.73	2722.04
408.92	2785.24
409.11	2827.37
409.30	2956.10
409.49	2960.78
409.68	2935.03
409.87	2874.18
410.07	2911.63
410.26	2993.55
410.45	2918.65
410.64	3056.74
410.83	3002.91
411.02	3122.27
411.21	3243.98
411.40	3112.91
411.59	3155.04
411.78	3152.70
411.98	3187.81
412.17	3213.56
412.36	3356.33
412.55	3363.35
412.74	3349.31
412.93	3431.23
413.12	3258.03
413.31	3562.30
413.50	3463.99
413.69	3520.17
413.88	3515.48
414.07	3442.93
414.26	3459.31
414.45	3653.58
414.64	3623.15
414.83	3751.88
415.02	3779.97
415.22	3707.41
415.41	3784.65
415.60	3868.91
415.79	3836.14
415.98	3913.38
416.17	3957.85
416.36	3829.12
416.55	3913.38
416.74	4042.11
416.93	4016.36
417.12	4044.45
417.31	4109.98
417.50	4051.47
417.69	4367.44
417.88	4222.33
418.07	4222.33
418.26	4203.60
418.45	4259.78
418.64	4248.07
418.83	4414.25
419.02	4449.36
419.21	4503.19
419.39	4465.74
419.58	4425.95
419.77	4285.52
419.96	4379.14
420.15	4638.94
420.34	4510.21
420.53	4468.08
420.72	4585.11
420.91	4620.22
421.10	4732.56
421.29	4615.54
421.48	4535.96
421.67	4767.67
421.86	4744.27
422.05	4671.71
422.24	4856.61
422.43	4816.82
422.61	4823.84
422.80	4894.06
422.99	4737.24
423.18	4695.11
423.37	4891.72
423.56	4903.42
423.75	4793.42
423.94	4863.63
424.13	4477.44
424.32	4702.14
424.50	4826.18
424.69	5034.49
424.88	4924.49
425.07	5067.26
425.26	4943.21
425.45	4882.36
425.64	4905.76
425.83	4882.36
426.01	5048.54
426.20	5104.71
426.39	5027.47
426.58	5015.77
426.77	5121.09
426.96	5207.69
427.15	5102.37
427.33	5247.48
427.52	5078.96
427.71	5263.86
427.90	5111.73
428.09	5273.23
428.28	5235.78
428.46	5317.70
428.65	5411.32
428.84	5432.38
429.03	5465.15
429.22	5273.23
429.40	5357.49
429.59	5315.36
429.78	5289.61
429.97	5188.97
430.16	5420.68
430.34	5528.35
430.53	5542.39
430.72	5762.40
430.91	5526.00
431.10	5696.86
431.28	5689.84
431.47	5741.33
431.66	5888.79
431.85	5671.12
432.03	5816.23
432.22	5886.45
432.41	5860.70
432.60	5769.42
432.79	6087.73
432.97	5771.76
433.16	5984.75
433.35	5989.43
433.54	6139.23
433.72	6061.99
433.91	6239.87
434.10	6141.57
434.28	6040.92
434.47	6146.25
434.66	6249.23
434.85	6242.21
435.03	6366.26
435.22	6202.42
435.41	6492.65
435.59	6289.02
435.78	6333.49
435.97	6375.62
436.16	6506.69
436.34	6221.14
436.53	6354.55
436.72	6586.27
436.90	6380.30
437.09	6537.12
437.28	6387.32
437.46	6619.04
437.65	6665.85
437.84	6829.68
438.02	6787.55
438.21	6654.14
438.40	6553.50
438.58	6738.40
438.77	7068.42
438.96	6855.43
439.14	7112.89
439.33	7094.16
439.52	6981.82
439.70	7110.55
439.89	7260.34
440.08	7241.62
440.26	7475.67
440.45	7201.83
440.63	7447.58
440.82	7557.59
441.01	7304.81
441.19	7499.08
441.38	7548.23
441.57	7740.15
441.75	7793.98
441.94	7730.79
442.12	7740.15
442.31	7868.88
442.50	8067.83
442.68	7936.76
442.87	7920.37
443.05	7838.45
443.24	7976.55
443.43	8021.02
443.61	7941.44
443.80	8390.82
443.98	7988.25
444.17	7761.22
444.35	8065.49
444.54	8334.65
444.73	8175.49
444.91	8386.14
445.10	8182.51
445.28	8257.41
445.47	8070.17
445.65	8219.96
445.84	8575.72
446.02	8423.59
446.21	8327.63
446.39	8273.79
446.58	8505.51
446.77	8428.27
446.95	8135.70
447.14	8255.07
447.32	8362.73
447.51	8348.69
447.69	8397.84
447.88	8528.91
448.06	8336.99
448.25	8358.05
448.43	8491.46
448.62	8540.61
448.80	8435.29
448.99	8610.83
449.17	8624.87
449.36	8542.96
449.54	8842.54
449.73	8863.61
449.91	8924.46
450.10	8879.99
450.28	8997.02
450.46	8938.51
450.65	9172.56
450.83	9036.81
451.02	9102.34
451.20	9041.49
451.39	9142.13
451.57	9053.19
451.76	9053.19
451.94	9123.41
452.13	9235.75
452.31	9308.31
452.49	8924.46
452.68	9472.15
452.86	9252.14
453.05	9479.17
453.23	9376.19
453.42	9172.56
453.60	9479.17
453.78	9472.15
453.97	9298.95
454.15	9390.23
454.34	9418.32
454.52	9675.77
454.70	9664.07
454.89	9657.05
455.07	9727.27
455.26	9764.72
455.44	10104.09
455.62	9830.25
455.81	9961.32
455.99	9856.00
456.17	9874.72
456.36	10022.17
456.54	9987.07
456.73	10040.90
456.91	10422.41
457.09	10200.05
457.28	10445.81
457.46	10211.76
457.64	10267.93
457.83	10424.75
458.01	10562.84
458.19	10663.48
458.38	10417.72
458.56	10410.70
458.74	10572.20
458.93	10597.95
459.11	10721.99
459.29	10565.18
459.48	10490.28
459.66	10885.83
459.84	10621.35
460.03	10764.12
460.21	10693.91
460.39	10977.11
460.57	10832.00
460.76	10965.41
460.94	11253.30
461.12	11002.86
461.31	10995.84
461.49	11131.59
461.67	11094.14
461.85	11307.13
462.04	11185.42
462.22	11728.42
462.40	11330.53
462.59	11405.43
462.77	11276.70
462.95	11557.57
463.13	11461.60
463.32	11463.94
463.50	11611.40
463.68	11426.50
463.86	11501.39
464.05	11435.86
464.23	11573.95
464.41	11786.94
464.59	11625.44
464.78	12044.40
464.96	11850.13
465.14	11531.82
465.32	11995.25
465.50	12039.72
465.69	11882.90
465.87	12058.44
466.05	12170.79
466.23	12093.55
466.41	12189.51
466.60	12484.42
466.78	12051.42
466.96	12018.65
467.14	12332.28
467.32	12252.70
467.51	12542.93
467.69	11887.58
467.87	12379.09
468.05	12540.59
468.23	12004.61
468.41	12180.15
468.60	12758.26
468.78	12840.18
468.96	12369.73
469.14	12690.38
469.32	12989.97
469.50	12585.06
469.69	13123.38
469.87	12903.37
470.05	12751.24
470.23	13083.59
470.41	13057.85
470.59	13245.09
470.77	13146.79
470.95	13022.74
471.14	13451.06
471.32	13034.44
471.50	13628.94
471.68	13488.51
471.86	13399.57
472.04	13406.59
472.22	13907.46
472.40	13577.45
472.58	13631.28
472.77	13619.58
472.95	14134.50
473.13	14375.57
473.31	13921.51
473.49	14167.26
473.67	14061.94
473.85	14288.97
474.03	14293.65
474.21	14354.51
474.39	14548.77
474.57	14656.43
474.75	14712.61
474.93	14944.32
475.12	14834.32
475.30	15105.82
475.48	14803.89
475.66	15098.80
475.84	14782.82
476.02	15143.27
476.20	15246.25
476.38	15414.77
476.56	15892.24
476.74	15712.02
476.92	15367.96
477.10	15852.45
477.28	16093.52
477.46	15999.90
477.64	16130.97
477.82	16678.66
478.00	16940.80
478.18	16468.01
478.36	16863.56
478.54	16978.25
478.72	16891.65
478.90	17062.51
479.08	17338.69
479.26	17425.29
479.44	17678.07
479.62	17736.58
479.80	17874.67
479.98	17776.37
480.16	18370.86
480.34	18010.42
480.52	18368.52
480.70	18548.75
480.88	18038.51
481.06	18595.56
481.24	18485.55
481.41	18897.49
481.59	19122.18
481.77	19550.49
481.95	19274.31
482.13	19417.08
482.31	19501.34
482.49	19873.49
482.67	20154.35
482.85	20257.34
483.03	20467.98
483.21	20746.51
483.39	20561.61
483.57	20570.97
483.74	20940.77
483.92	21202.91
484.10	20957.16
484.28	21553.99
484.46	21678.04
484.64	22099.34
484.82	21682.72
485.00	21940.18
485.18	22466.80
485.35	22745.33
485.53	22504.25
485.71	22780.43
485.89	23108.11
486.07	22792.14
486.25	23384.29
486.43	23616.01
486.61	23749.42
486.78	23845.38
486.96	24369.66
487.14	24219.86
487.32	24343.91
487.50	24828.40
487.68	24489.03
487.85	25046.07
488.03	25277.79
488.21	25572.69
488.39	25577.37
488.57	25837.17
488.75	25881.64
488.92	26249.11
489.10	26300.60
489.28	26181.23
489.46	27084.68
489.64	26904.46
489.81	27690.88
489.99	27475.55
490.17	27821.95
490.35	27924.93
490.53	28063.02
490.70	27964.72
490.88	28081.75
491.06	28402.40
491.24	28535.81
491.41	28725.39
491.59	28919.66
491.77	29039.03
491.95	29455.64
492.13	29804.38
492.30	29654.59
492.48	29575.01
492.66	29919.07
492.84	30134.40
493.01	30436.33
493.19	30567.40
493.37	30543.99
493.54	31000.40
493.72	31447.44
493.90	31562.12
494.08	31211.04
494.25	31889.80
494.43	31681.49
494.61	31857.03
494.79	32044.27
494.96	32088.74
495.14	32313.44
495.32	32933.68
495.49	32907.93
495.67	33127.94
495.85	33628.82
496.02	33350.29
496.20	33425.19
496.38	33942.45
496.55	33722.44
496.73	34279.49
496.91	34270.12
497.09	34604.82
497.26	34735.89
497.44	34782.70
497.62	34869.30
497.79	35358.47
497.97	35136.12
498.14	35700.19
498.32	35969.35
498.50	36320.43
498.67	35915.52
498.85	35821.90
499.03	36243.20
499.20	36549.81
499.38	36591.94
499.56	36676.19
499.73	36833.01
499.91	37144.30
500.08	37399.42
500.26	37163.03
500.44	37450.91
500.61	37659.22
500.79	37322.18
500.97	37809.01
501.14	38256.06
501.32	38433.94
501.49	38588.41
501.67	38490.11
501.84	38745.23
502.02	38660.97
502.20	38450.32
502.37	39218.02
502.55	38653.95
502.72	38909.07
502.90	39414.62
503.07	39157.16
503.25	39550.37
503.43	39239.08
503.60	39526.97
503.78	39981.03
503.95	39856.98
504.13	40154.23
504.30	40769.79
504.48	40336.79
504.65	40500.63
504.83	40638.72
505.01	40746.39
505.18	41118.53
505.36	41373.65
505.53	40858.73
505.71	40914.90
505.88	41598.34
506.06	41216.83
506.23	41436.84
506.41	41406.42
506.58	42045.38
506.76	41518.76
506.93	41743.45
507.11	42363.70
507.28	42389.44
507.46	42199.86
507.63	42752.23
507.81	42689.03
507.98	42375.40
508.16	42574.34
508.33	42801.38
508.50	42714.78
508.68	43079.90
508.85	43557.37
509.03	43512.90
509.20	43625.25
509.38	44257.19
509.55	44109.74
509.73	43910.79
509.90	44383.58
510.08	44105.06
510.25	44018.46
510.42	44425.71
510.60	44596.57
510.77	45015.52
510.95	45361.92
511.12	44980.42
511.30	44861.05
511.47	45181.70
511.64	45378.31
511.82	45717.68
511.99	45713.00
512.17	45558.53
512.34	45528.10
512.51	46078.13
512.69	45954.08
512.86	45956.42
513.04	46403.46
513.21	46375.37
513.38	46150.68
513.56	46490.06
513.73	46579.00
513.90	46717.09
514.08	46492.40
514.25	46642.20
514.43	46951.15
514.60	46941.78
514.77	47021.36
514.95	47449.68
515.12	47173.50
515.29	47412.23
515.47	47285.84
515.64	47955.24
515.81	47318.61
515.99	47870.98
516.16	48327.38
516.33	47735.23
516.51	48383.55
516.68	47800.76
516.85	48062.90
517.03	48453.77
517.20	48582.50
517.37	48254.82
517.54	48191.63
517.72	48802.51
517.89	48959.33
518.06	48851.66
518.24	48952.30
518.41	49085.72
518.58	49287.00
518.75	49291.68
518.93	49343.17
519.10	49151.25
519.27	49357.22
519.45	49595.95
519.62	49345.51
519.79	49467.22
519.96	49764.47
520.14	49930.65
520.31	49902.56
520.48	49860.43
520.65	49530.42
520.83	50475.99
521.00	50354.29
521.17	50314.50
521.34	50553.23
521.52	50497.06
521.69	50288.75
521.86	50651.53
522.03	50464.29
522.20	51004.95
522.38	50979.21
522.55	51201.56
522.72	51086.87
522.89	50866.86
523.07	51145.39
523.24	51166.45
523.41	51444.98
523.58	51201.56
523.75	51489.45
523.92	51377.10
524.10	51711.80
524.27	51639.24
524.44	51512.85
524.61	51391.14
524.78	51835.84
524.96	51941.17
525.13	52041.81
525.30	52058.20
525.47	52135.43
525.64	52193.95
525.81	52435.02
525.98	52645.67
526.16	52294.59
526.33	52182.24
526.50	52659.71
526.67	52486.51
526.84	52774.40
527.01	52566.09
527.18	52582.48
527.36	52912.49
527.53	52729.93
527.70	53071.65
527.87	53394.64
528.04	52952.28
528.21	52978.03
528.38	53165.27
528.55	53380.60
528.72	53174.63
528.89	53038.88
529.07	53036.54
529.24	53127.82
529.41	53408.68
529.58	53284.64
529.75	53109.10
529.92	53368.90
530.09	53970.41
530.26	53436.77
530.43	53954.03
530.60	53509.33
530.77	53521.03
530.94	53738.70
531.11	53883.81
531.28	53888.49
531.46	53832.32
531.63	54000.84
531.80	53900.20
531.97	53851.05
532.14	54216.17
532.31	54169.36
532.48	54384.69
532.65	54436.18
532.82	54209.15
532.99	54293.41
533.16	54113.19
533.33	54394.05
533.50	54642.15
533.67	54583.63
533.84	54695.98
534.01	54471.29
534.18	54759.17
534.35	55241.32
534.52	54801.30
534.69	55049.40
534.86	55061.10
535.03	54705.34
535.20	55018.97
535.37	55370.05
535.54	55103.23
535.71	55159.41
535.88	55049.40
536.05	55133.66
536.22	55447.29
536.38	55353.67
536.55	55374.73
536.72	55297.50
536.89	55379.42
537.06	55215.58
537.23	55753.90
537.40	55339.63
537.57	55650.92
537.74	55449.63
537.91	55765.60
538.08	55704.75
538.25	55664.96
538.42	55721.13
538.59	56116.68
538.75	55774.97
538.92	55742.20
539.09	55929.44
539.26	55913.06
539.43	55753.90
539.60	56104.98
539.77	56093.28
539.94	56526.28
540.11	56128.39
540.28	56058.17
540.44	56416.27
540.61	56109.66
540.78	56060.51
540.95	56156.47
541.12	56432.66
541.29	56189.24
541.46	56360.10
541.62	56367.12
541.79	56502.87
541.96	56355.42
542.13	56114.34
542.30	56491.17
542.47	56577.77
542.63	56769.69
542.80	56657.35
542.97	56982.68
543.14	57001.41
543.31	57022.47
543.48	57036.51
543.64	56996.73
543.81	57289.29
543.98	57200.35
544.15	57118.43
544.32	57219.08
544.48	57530.37
544.65	57293.97
544.82	57401.64
544.99	57172.27
545.16	57282.27
545.32	57322.06
545.49	57396.96
545.66	57436.75
545.83	57488.24
546.00	57460.15
546.16	57382.91
546.33	57403.98
546.50	57279.93
546.67	57403.98
546.83	57235.46
547.00	57530.37
547.17	57502.28
547.34	57818.25
547.50	57757.40
547.67	57951.66
547.84	57862.72
548.00	57822.93
548.17	57979.75
548.34	57986.77
548.51	57876.77
548.67	58066.35
548.84	57935.28
549.01	58066.35
549.18	57886.13
549.34	58012.52
549.51	58368.28
549.68	58082.73
549.84	58323.81
550.01	58089.76
550.18	58042.95
550.34	58337.85
550.51	58277.00
550.68	58291.04
550.84	58042.95
551.01	58478.28
551.18	58482.97
551.34	58450.20
551.51	58197.42
551.68	58492.33
551.84	58183.38
552.01	58052.31
552.18	58513.39
552.34	58351.90
552.51	58412.75
552.68	58138.91
552.84	58417.43
553.01	58536.80
553.18	58508.71
553.34	58705.32
553.51	58429.13
553.67	58621.06
553.84	58808.30
554.01	58618.72
554.17	58820.00
554.34	59037.67
554.51	58564.88
554.67	58677.23
554.84	58922.99
555.00	58660.85
555.17	58740.42
555.33	58700.64
555.50	58798.94
555.67	58801.28
555.83	58857.45
556.00	58890.22
556.16	59327.90
556.33	59089.16
556.50	58967.46
556.66	59241.30
556.83	58749.79
556.99	59281.09
557.16	59185.13
557.32	59348.96
557.49	59327.90
557.65	59164.06
557.82	59117.25
557.98	59098.53
558.15	59243.64
558.32	59274.07
558.48	59217.89
558.65	59309.18
558.81	59435.56
558.98	59592.38
559.14	59465.99
559.31	59297.47
559.47	59430.88
559.64	59339.60
559.80	59540.89
559.97	59545.57
560.13	59414.50
560.30	59290.45
560.46	59505.78
560.63	59622.81
560.79	59601.74
560.96	59646.21
561.12	59739.83
561.29	59877.93
561.45	59636.85
561.61	59491.74
561.78	59529.19
561.94	59578.34
562.11	59437.90
562.27	59608.76
562.44	59924.74
562.60	59875.58
562.77	59693.02
562.93	59545.57
563.10	60023.04
563.26	59505.78
563.42	59980.91
563.59	59793.67
563.75	59700.04
563.92	59765.58
564.08	59894.31
564.24	59978.57
564.41	59873.24
564.57	59945.80
564.74	59915.37
564.90	59966.87
565.07	60046.44
565.23	59894.31
565.39	59950.48
565.56	60116.66
565.72	59955.16
565.88	60044.10
566.05	60011.34
566.21	59920.05
566.38	60020.70
566.54	60079.21
566.70	60018.36
566.87	60186.88
567.03	60137.72
567.19	60154.11
567.36	60090.91
567.52	60172.83
567.68	60390.50
567.85	60149.43
568.01	60310.92
568.17	59943.46
568.34	60301.56
568.50	60163.47
568.66	60254.75
568.83	60268.79
568.99	60093.25
569.15	60114.32
569.32	60151.77
569.48	60001.97
569.64	60425.61
569.81	60104.96
569.97	60182.19
570.13	60292.20
570.30	60229.01
570.46	60119.00
570.62	60479.44
570.78	60229.01
570.95	60271.14
571.11	60346.03
571.27	60219.64
571.43	60467.74
571.60	60463.06
571.76	60383.48
571.92	60364.76
572.09	60542.64
572.25	60477.10
572.41	60484.12
572.57	60530.93
572.74	60573.06
572.90	60296.88
573.06	60324.97
573.22	60413.91
573.38	60425.61
573.55	60526.25
573.71	60573.06
573.87	60360.08
574.03	60360.08
574.20	60582.43
574.36	60589.45
574.52	60458.38
574.68	60509.87
574.84	60563.70
575.01	60584.77
575.17	60528.59
575.33	60236.03
575.49	60329.65
575.65	60603.49
575.82	60598.81
575.98	60685.41
576.14	60807.12
576.30	60748.60
576.46	60516.89
576.62	60509.87
576.79	60425.61
576.95	60680.73
577.11	60474.76
577.27	60839.89
577.43	60622.22
577.59	60580.09
577.75	60456.04
577.92	60575.40
578.08	60692.43
578.24	60580.09
578.40	60755.63
578.56	60582.43
578.72	60519.23
578.88	60809.46
579.04	60748.60
579.21	60762.65
579.37	60865.63
579.53	60814.14
579.69	60331.99
579.85	60467.74
580.01	60638.60
580.17	60612.85
580.33	60720.52
580.49	60729.88
580.65	60746.26
580.82	60830.52
580.98	60633.92
581.14	60662.00
581.30	60739.24
581.46	60654.98
581.62	60678.39
581.78	60631.58
581.94	60804.78
582.10	60711.16
582.26	60598.81
582.42	60678.39
582.58	60753.29
582.74	60802.44
582.90	60877.33
583.06	60898.40
583.22	60713.50
583.38	60666.69
583.54	60722.86
583.70	60779.03
583.86	60825.84
584.02	60748.60
584.18	60692.43
584.34	60741.58
584.50	60879.67
584.66	60823.50
584.82	60577.75
584.98	60907.76
585.14	60851.59
585.30	60741.58
585.46	60924.14
585.62	60865.63
585.78	60992.02
585.94	60568.38
586.10	60898.40
586.26	60764.99
586.42	60865.63
586.58	60786.05
586.74	60910.10
586.90	60692.43
587.06	60905.42
587.22	60924.14
587.38	61027.13
587.54	60699.45
587.70	60992.02
587.86	60828.18
588.02	60844.57
588.18	60905.42
588.34	60708.82
588.49	60825.84
