SpectraSuite Data File
++++++++++++++++++++++++++++++++++++
Date: Fri Oct 25 10:43:13 EDT 2013
User: price-jones
Dark Spectrum Present: No
Reference Spectrum Present: No
Number of Sampled Component Spectra: 1
Spectrometers: USB2+H05261
Integration Time (usec): 100000 (USB2+H05261)
Spectra Averaged: 1 (USB2+H05261)
Boxcar Smoothing: 0 (USB2+H05261)
Correct for Electrical Dark: No (USB2+H05261)
Strobe/Lamp Enabled: No (USB2+H05261)
Correct for Detector Non-linearity: No (USB2+H05261)
Correct for Stray Light: No (USB2+H05261)
Number of Pixels in Processed Spectrum: 2048
>>>>>Begin Processed Spectral Data<<<<<
365.73	98.30
365.92	98.30
366.12	98.30
366.32	102.98
366.52	0.00
366.72	58.51
366.91	35.11
367.11	35.11
367.31	60.85
367.51	16.38
367.70	23.41
367.90	58.51
368.10	46.81
368.30	0.00
368.49	0.00
368.69	14.04
368.89	23.41
369.09	2.34
369.28	102.98
369.48	70.22
369.68	42.13
369.87	93.62
370.07	58.51
370.27	145.11
370.47	182.56
370.66	430.66
370.86	428.32
371.06	430.66
371.25	454.06
371.45	454.06
371.65	500.87
371.84	437.68
372.04	440.02
372.24	425.98
372.44	533.64
372.63	477.47
372.83	475.13
373.03	468.11
373.22	468.11
373.42	585.13
373.62	468.11
373.81	538.32
374.01	617.90
374.21	514.92
374.40	578.11
374.60	528.96
374.79	479.81
374.99	585.13
375.19	528.96
375.38	585.13
375.58	531.30
375.78	575.77
375.97	547.69
376.17	692.80
376.37	638.97
376.56	594.50
376.76	594.50
376.95	617.90
377.15	650.67
377.35	620.24
377.54	660.03
377.74	550.03
377.93	655.35
378.13	592.16
378.33	711.52
378.52	545.34
378.72	629.60
378.91	617.90
379.11	634.29
379.31	592.16
379.50	610.88
379.70	767.70
379.89	718.54
380.09	671.73
380.28	678.76
380.48	720.88
380.68	678.76
380.87	660.03
381.07	650.67
381.26	788.76
381.46	669.39
381.65	711.52
381.85	755.99
382.04	669.39
382.24	676.41
382.43	770.04
382.63	695.14
382.83	674.07
383.02	711.52
383.22	702.16
383.41	664.71
383.61	692.80
383.80	795.78
384.00	741.95
384.19	809.83
384.39	758.33
384.58	833.23
384.78	765.36
384.97	744.29
385.17	800.46
385.36	807.48
385.56	828.55
385.75	826.21
385.95	800.46
386.14	828.55
386.34	875.36
386.53	802.80
386.72	805.14
386.92	877.70
387.11	933.87
387.31	870.68
387.50	858.98
387.70	901.11
387.89	828.55
388.09	905.79
388.28	880.04
388.48	889.40
388.67	922.17
388.86	926.85
389.06	933.87
389.25	1001.75
389.45	992.39
389.64	971.32
389.84	1076.65
390.03	985.37
390.22	945.58
390.42	952.60
390.61	1097.71
390.81	938.55
391.00	1043.88
391.19	1076.65
391.39	1043.88
391.58	1076.65
391.78	1071.97
391.97	1008.77
392.16	947.92
392.36	1083.67
392.55	929.19
392.75	1001.75
392.94	952.60
393.13	980.68
393.33	1001.75
393.52	1090.69
393.71	1076.65
393.91	1118.78
394.10	1170.27
394.29	1153.88
394.49	1071.97
394.68	1060.26
394.88	1233.46
395.07	1254.53
395.26	1296.66
395.46	1196.01
395.65	1387.94
395.84	1275.59
396.04	1135.16
396.23	1165.59
396.42	1160.91
396.62	1156.22
396.81	1224.10
397.00	1198.35
397.19	1299.00
397.39	1280.27
397.58	1289.64
397.77	1341.13
397.97	1502.62
398.16	1362.19
398.35	1481.56
398.55	1397.30
398.74	1526.03
398.93	1434.75
399.12	1425.39
399.32	1502.62
399.51	1383.26
399.70	1577.52
399.90	1570.50
400.09	1617.31
400.28	1570.50
400.47	1570.50
400.67	1659.44
400.86	1605.61
401.05	1650.08
401.24	1678.16
401.44	1750.72
401.63	1727.32
401.82	1781.15
402.01	1708.59
402.21	1708.59
402.40	1783.49
402.59	1764.76
402.78	1729.66
402.97	1781.15
403.17	1816.26
403.36	1853.70
403.55	1846.68
403.74	1860.73
403.93	1806.89
404.13	1874.77
404.32	1820.94
404.51	1877.11
404.70	1907.54
404.89	1860.73
405.09	2083.08
405.28	1909.88
405.47	1891.15
405.66	1994.14
405.85	1900.52
406.05	1839.66
406.24	2050.31
406.43	1905.20
406.62	2012.86
406.81	2097.12
407.00	1989.46
407.20	1989.46
407.39	2139.25
407.58	1982.43
407.77	2169.68
407.96	2127.55
408.15	2235.21
408.34	2197.76
408.54	2338.20
408.73	2282.02
408.92	2218.83
409.11	2232.87
409.30	2347.56
409.49	2338.20
409.68	2312.45
409.87	2204.78
410.07	2291.38
410.26	2380.32
410.45	2473.95
410.64	2368.62
410.83	2438.84
411.02	2576.93
411.21	2574.59
411.40	2597.99
411.59	2590.97
411.78	2605.02
411.98	2548.84
412.17	2583.95
412.36	2658.85
412.55	2754.81
412.74	2712.68
412.93	2729.06
413.12	2616.72
413.31	2771.19
413.50	2668.21
413.69	2862.48
413.88	2920.99
414.07	2818.00
414.26	2827.37
414.45	2986.52
414.64	2998.23
414.83	2913.97
415.02	2991.20
415.22	3038.02
415.41	3119.93
415.60	3112.91
415.79	3295.47
415.98	3276.75
416.17	3309.52
416.36	3185.47
416.55	3258.03
416.74	3297.81
416.93	3297.81
417.12	3255.69
417.31	3288.45
417.50	3311.86
417.69	3489.74
417.88	3419.52
418.07	3445.27
418.26	3471.01
418.45	3449.95
418.64	3541.23
418.83	3538.89
419.02	3442.93
419.21	3585.70
419.39	3471.01
419.58	3517.83
419.77	3463.99
419.96	3548.25
420.15	3702.73
420.34	3658.26
420.53	3861.88
420.72	3885.29
420.91	3754.22
421.10	3859.54
421.29	3997.64
421.48	3679.32
421.67	3906.35
421.86	3857.20
422.05	3702.73
422.24	3723.79
422.43	3864.22
422.61	3833.80
422.80	3850.18
422.99	3878.27
423.18	3892.31
423.37	3969.55
423.56	3962.53
423.75	3829.12
423.94	3859.54
424.13	3571.66
424.32	3854.86
424.50	3866.56
424.69	4011.68
424.88	3920.40
425.07	3864.22
425.26	3882.95
425.45	3932.10
425.64	3953.16
425.83	3969.55
426.01	3939.12
426.20	4037.42
426.39	3995.29
426.58	4004.66
426.77	3967.21
426.96	3957.85
427.15	3971.89
427.33	4011.68
427.52	3948.48
427.71	4095.94
427.90	4056.15
428.09	4222.33
428.28	4248.07
428.46	4255.09
428.65	4173.18
428.84	4109.98
429.03	4224.67
429.22	4077.21
429.40	4049.13
429.59	4138.07
429.78	3974.23
429.97	3981.25
430.16	3974.23
430.34	4131.05
430.53	4093.60
430.72	4189.56
430.91	4243.39
431.10	4355.74
431.28	4503.19
431.47	4610.86
431.66	4641.28
431.85	4667.03
432.03	4615.54
432.22	4788.74
432.41	4592.13
432.60	4582.77
432.79	4760.65
432.97	4674.05
433.16	4589.79
433.35	4683.41
433.54	4629.58
433.72	4603.83
433.91	4737.24
434.10	4795.76
434.28	4739.58
434.47	4751.29
434.66	4826.18
434.85	5008.75
435.03	4919.81
435.22	4737.24
435.41	5104.71
435.59	5039.17
435.78	5205.35
435.97	5151.52
436.16	4980.66
436.34	5048.54
436.53	5238.12
436.72	5268.55
436.90	5046.20
437.09	5078.96
437.28	5011.09
437.46	5121.09
437.65	5102.37
437.84	5217.05
438.02	5233.44
438.21	5085.98
438.40	5018.11
438.58	5369.19
438.77	5406.64
438.96	5261.52
439.14	5605.58
439.33	5586.86
439.52	5467.49
439.70	5713.25
439.89	5706.23
440.08	5626.65
440.26	5788.14
440.45	5722.61
440.63	5919.21
440.82	6015.18
441.01	5947.30
441.19	6094.76
441.38	6090.07
441.57	6218.80
441.75	6354.55
441.94	6204.76
442.12	6244.55
442.31	6396.68
442.50	6258.59
442.68	6321.79
442.87	6270.30
443.05	6289.02
443.24	6253.91
443.43	6499.67
443.61	6445.84
443.80	6590.95
443.98	6333.49
444.17	6225.82
444.35	6452.86
444.54	6715.00
444.73	6569.88
444.91	6513.71
445.10	6487.96
445.28	6504.35
445.47	6265.61
445.65	6511.37
445.84	6532.44
446.02	6647.12
446.21	6434.13
446.39	6574.56
446.58	6562.86
446.77	6635.42
446.95	6572.22
447.14	6686.91
447.32	6700.95
447.51	6677.55
447.69	6576.91
447.88	6588.61
448.06	6696.27
448.25	6668.19
448.43	6806.28
448.62	6689.25
448.80	6752.45
448.99	6806.28
449.17	6698.61
449.36	6490.31
449.54	7066.08
449.73	7052.03
449.91	7265.02
450.10	7056.72
450.28	7136.29
450.46	7166.72
450.65	7047.35
450.83	7316.51
451.02	7087.14
451.20	7208.85
451.39	7229.91
451.57	7213.53
451.76	7105.87
451.94	7101.19
452.13	7215.87
452.31	7042.67
452.49	7126.93
452.68	7286.09
452.86	7173.74
453.05	7330.56
453.23	7379.71
453.42	7213.53
453.60	7173.74
453.78	7468.65
453.97	7250.98
454.15	7426.52
454.34	7279.07
454.52	7428.86
454.70	7510.78
454.89	7531.84
455.07	7569.29
455.26	7545.89
455.44	7726.11
455.62	7644.19
455.81	7751.85
455.99	7840.79
456.17	7529.50
456.36	7901.65
456.54	7878.24
456.73	7974.21
456.91	7941.44
457.09	8013.99
457.28	8133.36
457.46	7920.37
457.64	8070.17
457.83	8088.89
458.01	7838.45
458.19	8264.43
458.38	8208.26
458.56	8203.58
458.74	8182.51
458.93	8236.35
459.11	8367.42
459.29	8142.72
459.48	8327.63
459.66	8297.20
459.84	8416.57
460.03	8613.17
460.21	8425.93
460.39	8519.55
460.57	8435.29
460.76	8603.81
460.94	8477.42
461.12	8692.75
461.31	8638.92
461.49	8554.66
461.67	8725.52
461.85	8662.32
462.04	8772.33
462.22	9291.93
462.40	9004.04
462.59	8842.54
462.77	8549.98
462.95	8987.66
463.13	8875.31
463.32	8706.79
463.50	9013.40
463.68	9100.00
463.86	8793.39
464.05	8894.04
464.23	8943.19
464.41	9167.88
464.59	9041.49
464.78	9125.75
464.96	9011.06
465.14	9025.11
465.32	9149.15
465.50	9277.88
465.69	9170.22
465.87	9224.05
466.05	9083.62
466.23	9207.67
466.41	9252.14
466.60	9380.87
466.78	9231.07
466.96	9259.16
467.14	9275.54
467.32	9350.44
467.51	9355.12
467.69	9060.21
467.87	9263.84
468.05	9348.10
468.23	9366.82
468.41	9303.63
468.60	9343.42
468.78	9626.62
468.96	9554.07
469.14	9497.89
469.32	9657.05
469.50	9418.32
469.69	9713.22
469.87	9888.76
470.05	9771.74
470.23	9722.59
470.41	9975.36
470.59	9984.73
470.77	9970.68
470.95	9687.48
471.14	10052.60
471.32	9874.72
471.50	10296.02
471.68	10164.95
471.86	10373.25
472.04	10551.14
472.22	10534.75
472.40	10167.29
472.58	10375.59
472.77	10530.07
472.95	10611.99
473.13	10839.02
473.31	10558.16
473.49	10424.75
473.67	10623.69
473.85	10724.33
474.03	10995.84
474.21	10843.70
474.39	11115.20
474.57	11108.18
474.75	11026.26
474.93	11077.76
475.12	11126.91
475.30	11262.66
475.48	11246.27
475.66	11012.22
475.84	11265.00
476.02	11283.72
476.20	11290.74
476.38	11674.59
476.56	11815.02
476.74	11929.71
476.92	11756.51
477.10	11726.08
477.28	12095.89
477.46	11927.37
477.64	12042.06
477.82	12498.46
478.00	12582.72
478.18	12760.60
478.36	12545.27
478.54	12851.88
478.72	12718.47
478.90	12896.35
479.08	13090.62
479.26	13181.90
479.44	13205.30
479.62	13284.88
479.80	13462.76
479.98	13561.06
480.16	13619.58
480.34	13518.93
480.52	13554.04
480.70	13701.50
480.88	13584.47
481.06	13687.45
481.24	13741.29
481.41	14359.19
481.59	14221.10
481.77	14293.65
481.95	14258.54
482.13	14670.48
482.31	14438.76
482.49	14614.30
482.67	14960.70
482.85	14787.50
483.03	14892.83
483.21	15382.00
483.39	15389.02
483.57	15286.04
483.74	15360.94
483.92	15765.85
484.10	15484.98
484.28	15747.12
484.46	15974.16
484.64	16161.40
484.82	16056.08
485.00	16098.20
485.18	16425.88
485.35	16222.25
485.53	16276.09
485.71	16079.48
485.89	16287.79
486.07	16477.37
486.25	16400.13
486.43	16709.08
486.61	17029.74
486.78	17261.45
486.96	17249.75
487.14	17687.43
487.32	17607.85
487.50	17996.38
487.68	18125.11
487.85	18373.21
488.03	18511.30
488.21	18689.18
488.39	17987.02
488.57	18661.09
488.75	18661.09
488.92	18920.89
489.10	19213.46
489.28	19489.64
489.46	19913.28
489.64	19688.59
489.81	19960.09
489.99	19936.68
490.17	20032.65
490.35	20493.73
490.53	20641.18
490.70	20336.91
490.88	20372.02
491.06	20821.41
491.24	20594.37
491.41	20505.43
491.59	20603.74
491.77	20437.56
491.95	20669.27
492.13	21298.88
492.30	21376.11
492.48	21902.73
492.66	21561.02
492.84	21720.17
493.01	22019.76
493.19	21813.79
493.37	22155.51
493.54	22108.70
493.72	22398.93
493.90	22443.40
494.08	22682.13
494.25	23393.65
494.43	22864.69
494.61	23339.82
494.79	22993.42
494.96	23185.35
495.14	23208.75
495.32	23620.69
495.49	23641.75
495.67	23878.15
495.85	23812.61
496.02	23812.61
496.20	24393.06
496.38	24393.06
496.55	24570.94
496.73	25184.16
496.91	24393.06
497.09	24781.59
497.26	24734.78
497.44	24936.07
497.62	25348.00
497.79	25165.44
497.97	25221.61
498.14	25685.04
498.32	25380.77
498.50	25245.02
498.67	25663.97
498.85	26040.80
499.03	25923.77
499.20	25940.16
499.38	26099.31
499.56	26291.24
499.73	26441.03
499.91	26342.73
500.08	26455.08
500.26	25898.03
500.44	26305.28
500.61	26623.59
500.79	26565.08
500.97	26558.06
501.14	27365.54
501.32	27260.22
501.49	27262.56
501.67	26813.18
501.84	27395.97
502.02	27344.48
502.20	27917.91
502.37	27531.72
502.55	27936.63
502.72	27924.93
502.90	27929.61
503.07	28027.92
503.25	28121.54
503.43	27990.47
503.60	27861.74
503.78	28327.50
503.95	28217.50
504.13	28175.37
504.30	28601.35
504.48	28397.72
504.65	28929.02
504.83	28975.83
505.01	29081.16
505.18	29130.31
505.36	29097.54
505.53	29453.30
505.71	29600.76
505.88	29340.96
506.06	29544.58
506.23	30228.02
506.41	29397.13
506.58	29502.45
506.76	29806.72
506.93	29916.73
507.11	29825.45
507.28	29783.32
507.46	29935.45
507.63	30050.14
507.81	30340.36
507.98	29783.32
508.16	30096.95
508.33	30333.34
508.50	30389.52
508.68	30885.71
508.85	30976.99
509.03	31157.21
509.20	30871.67
509.38	30696.13
509.55	30993.37
509.73	31007.42
509.90	31323.39
510.08	31255.51
510.25	31119.76
510.42	31688.51
510.60	31484.89
510.77	31737.66
510.95	32065.34
511.12	31653.40
511.30	31889.80
511.47	32149.60
511.64	32266.63
511.82	32247.90
511.99	31922.57
512.17	31861.71
512.34	32098.11
512.51	32245.56
512.69	32631.75
512.86	32451.53
513.04	32914.95
513.21	32650.47
513.38	32456.21
513.56	32266.63
513.73	32645.79
513.90	32690.26
514.08	32552.17
514.25	32802.61
514.43	32673.88
514.60	33408.81
514.77	33064.75
514.95	33163.05
515.12	33376.04
515.29	33479.02
515.47	33727.12
515.64	34045.43
515.81	33743.50
515.99	33785.63
516.16	33752.87
516.33	33326.89
516.51	33626.48
516.68	33188.80
516.85	33139.65
517.03	33106.88
517.20	33464.98
517.37	34202.25
517.54	34206.93
517.72	34368.43
517.89	33809.04
518.06	34122.67
518.24	33502.43
518.41	34291.19
518.58	34567.37
518.75	34249.06
518.93	34630.57
519.10	34660.99
519.27	34759.30
519.45	34677.38
519.62	35182.93
519.79	34979.31
519.96	35351.45
520.14	35007.39
520.31	34991.01
520.48	34944.20
520.65	35302.30
520.83	35681.47
521.00	35913.18
521.17	35442.73
521.34	35747.00
521.52	35878.07
521.69	36023.19
521.86	35978.72
522.03	36306.39
522.20	36245.54
522.38	36353.20
522.55	36128.51
522.72	35838.28
522.89	36126.17
523.07	36315.75
523.24	36322.77
523.41	36844.71
523.58	36849.39
523.75	37102.17
523.92	36947.70
524.10	36713.64
524.27	37076.43
524.44	37315.16
524.61	37345.59
524.78	37076.43
524.96	37294.10
525.13	37081.11
525.30	37462.61
525.47	37909.66
525.64	37633.47
525.81	37769.22
525.98	37467.30
526.16	36919.61
526.33	37237.92
526.50	37020.25
526.67	37111.53
526.84	37013.23
527.01	37083.45
527.18	37535.17
527.36	37684.97
527.53	37961.15
527.70	38356.70
527.87	37806.67
528.04	38012.64
528.21	38277.12
528.38	38164.78
528.55	38735.87
528.72	38583.73
528.89	38672.67
529.07	38459.68
529.24	38455.00
529.41	38389.47
529.58	38604.80
529.75	38274.78
529.92	38813.10
530.09	38637.56
530.26	38841.19
530.43	39194.61
530.60	38862.26
530.77	39054.18
530.94	39173.55
531.11	38759.27
531.28	39269.51
531.46	39196.95
531.63	39732.93
531.80	39103.33
531.97	39002.69
532.14	39281.21
532.31	38583.73
532.48	39346.75
532.65	39358.45
532.82	39758.68
532.99	39164.18
533.16	39557.39
533.33	39732.93
533.50	39777.40
533.67	39786.77
533.84	39564.42
534.01	39313.98
534.18	39817.19
534.35	39643.99
534.52	39824.22
534.69	40154.23
534.86	40315.73
535.03	40212.74
535.20	40399.99
535.37	40477.22
535.54	40605.95
535.71	40458.50
535.88	40446.80
536.05	40479.57
536.22	40446.80
536.38	40708.94
536.55	40917.25
536.72	40278.28
536.89	40093.38
537.06	40458.50
537.23	40966.40
537.40	40634.04
537.57	40467.86
537.74	41083.42
537.91	41418.12
538.08	41235.56
538.25	40781.49
538.42	41305.77
538.59	41240.24
538.75	40886.82
538.92	41050.66
539.09	41174.70
539.26	41261.30
539.43	40891.50
539.60	40690.21
539.77	40739.36
539.94	41055.34
540.11	40514.67
540.28	41280.03
540.44	41385.35
540.61	41090.44
540.78	41277.69
540.95	41118.53
541.12	40832.99
541.29	41151.30
541.46	41385.35
541.62	41769.20
541.79	41951.76
541.96	41177.04
542.13	41825.37
542.30	41638.13
542.47	42064.11
542.63	41570.25
542.80	41935.38
542.97	42431.57
543.14	42340.29
543.31	42157.73
543.48	42377.74
543.64	42674.99
543.81	42499.45
543.98	42396.46
544.15	42576.69
544.32	42871.59
544.48	42911.38
544.65	42532.22
544.82	42239.65
544.99	42178.79
545.16	42373.06
545.32	42344.97
545.49	43400.55
545.66	43274.16
545.83	42895.00
546.00	43026.07
546.16	42632.86
546.33	42110.92
546.50	42590.73
546.67	43000.32
546.83	42380.08
547.00	42986.28
547.17	42871.59
547.34	42651.58
547.50	43297.57
547.67	43372.47
547.84	43185.22
548.00	43304.59
548.17	43484.81
548.34	43583.12
548.51	43440.34
548.67	43452.05
548.84	43178.20
549.01	43274.16
549.18	43131.39
549.34	43117.35
549.51	43145.44
549.68	43838.23
549.84	43328.00
550.01	43597.16
550.18	43599.50
550.34	43775.04
550.51	43660.35
550.68	43620.56
550.84	43086.92
551.01	43695.46
551.18	43688.44
551.34	43732.91
551.51	43643.97
551.68	43878.02
551.84	43798.44
552.01	44088.67
552.18	43777.38
552.34	43428.64
552.51	43756.32
552.68	43679.08
552.84	43948.24
553.01	43964.62
553.18	44011.43
553.34	44165.91
553.51	44229.10
553.67	44603.59
553.84	44392.94
554.01	44751.04
554.17	44577.84
554.34	44439.75
554.51	44105.06
554.67	45067.02
554.84	44156.55
555.00	44505.29
555.17	44226.76
555.33	44521.67
555.50	44638.70
555.67	44566.14
555.83	44512.31
556.00	44552.10
556.16	44404.64
556.33	44884.45
556.50	44734.66
556.66	44631.68
556.83	44341.45
556.99	44301.66
557.16	44589.55
557.32	44924.24
557.49	44999.14
557.65	44264.21
557.82	44947.65
557.98	44837.64
558.15	44636.36
558.32	45085.74
558.48	44446.77
558.65	44390.60
558.81	44769.77
558.98	44512.31
559.14	44760.40
559.31	44231.44
559.47	44741.68
559.64	44671.46
559.80	44718.28
559.97	45022.54
560.13	44786.15
560.30	45179.36
560.46	45123.19
560.63	44938.29
560.79	45155.96
560.96	45272.98
561.12	44959.35
561.29	44849.35
561.45	45050.63
561.61	44912.54
561.78	45092.76
561.94	45045.95
562.11	44849.35
562.27	44755.72
562.44	45109.14
562.60	45450.86
562.77	45387.67
562.93	45427.46
563.10	45251.92
563.26	44818.92
563.42	45097.44
563.59	45127.87
563.75	45059.99
563.92	45219.15
564.08	45471.93
564.24	45401.71
564.41	45265.96
564.57	45064.67
564.74	44912.54
564.90	45167.66
565.07	45584.27
565.23	45406.39
565.39	45071.70
565.56	45308.09
565.72	45209.79
565.88	45296.39
566.05	45212.13
566.21	45170.00
566.38	45261.28
566.54	45174.68
566.70	45745.77
566.87	45860.46
567.03	45591.30
567.19	45813.65
567.36	45621.72
567.52	45254.26
567.68	45502.35
567.85	45088.08
568.01	45497.67
568.17	45649.81
568.34	45834.71
568.50	45221.49
568.66	45067.02
568.83	45731.73
568.99	45390.01
569.15	45296.39
569.32	45500.01
569.48	45703.64
569.64	45944.72
569.81	45235.53
569.97	45930.67
570.13	45565.55
570.30	45317.45
570.46	45425.12
570.62	44823.60
570.78	45560.87
570.95	44842.32
571.11	45530.44
571.27	45247.24
571.43	45727.05
571.60	45392.35
571.76	45492.99
571.92	45209.79
572.09	45846.41
572.25	45610.02
572.41	45537.46
572.57	45621.72
572.74	46272.39
572.90	45963.44
573.06	45680.24
573.22	45649.81
573.38	45701.30
573.55	45270.64
573.71	45954.08
573.87	45947.06
574.03	45886.20
574.20	45642.79
574.36	45490.65
574.52	45755.13
574.68	45626.40
574.84	45387.67
575.01	45434.48
575.17	45336.18
575.33	45390.01
575.49	45521.08
575.65	45930.67
575.82	45467.25
575.98	45720.02
576.14	45883.86
576.30	46328.56
576.46	45808.96
576.62	45610.02
576.79	45507.04
576.95	45425.12
577.11	45876.84
577.27	45799.60
577.43	45251.92
577.59	45638.11
577.75	45120.85
577.92	45221.49
578.08	45460.23
578.24	45558.53
578.40	45495.33
578.56	45621.72
578.72	45876.84
578.88	45600.66
579.04	46061.74
579.21	45179.36
579.37	45647.47
579.53	45710.66
579.69	45371.28
579.85	45567.89
580.01	45462.57
580.17	45523.42
580.33	46312.18
580.49	46061.74
580.65	45579.59
580.82	45785.56
580.98	45521.08
581.14	45317.45
581.30	45855.78
581.46	45600.66
581.62	46007.91
581.78	45734.07
581.94	46202.18
582.10	45944.72
582.26	45799.60
582.42	45736.41
582.58	45865.14
582.74	45933.01
582.90	45785.56
583.06	45998.55
583.22	46080.47
583.38	45689.60
583.54	46120.26
583.70	46087.49
583.86	45680.24
584.02	45979.82
584.18	45921.31
584.34	46021.95
584.50	45792.58
584.66	45708.32
584.82	45956.42
584.98	45743.43
585.14	45933.01
585.30	45895.56
585.46	45724.71
585.62	45441.50
585.78	45858.12
585.94	45703.64
586.10	45649.81
586.26	45450.86
586.42	46483.04
586.58	46057.06
586.74	46174.09
586.90	45965.78
587.06	46160.05
587.22	46021.95
587.38	45937.69
587.54	45588.95
587.70	46204.52
587.86	45542.14
588.02	45607.68
588.18	46031.32
588.34	45162.98
588.49	45368.94
588.65	45097.44
588.81	45631.08
588.97	45701.30
589.13	45221.49
589.29	45200.43
589.45	45378.31
589.61	45834.71
589.77	46124.94
589.93	45818.33
590.08	46136.64
