SpectraSuite Data File
++++++++++++++++++++++++++++++++++++
Date: Fri Oct 25 11:33:31 EDT 2013
User: price-jones
Dark Spectrum Present: No
Reference Spectrum Present: No
Number of Sampled Component Spectra: 1
Spectrometers: USB2+H05261
Integration Time (usec): 100000 (USB2+H05261)
Spectra Averaged: 1 (USB2+H05261)
Boxcar Smoothing: 0 (USB2+H05261)
Correct for Electrical Dark: No (USB2+H05261)
Strobe/Lamp Enabled: No (USB2+H05261)
Correct for Detector Non-linearity: No (USB2+H05261)
Correct for Stray Light: No (USB2+H05261)
Number of Pixels in Processed Spectrum: 2048
>>>>>Begin Processed Spectral Data<<<<<
365.73	262.14
365.92	262.14
366.12	262.14
366.32	147.45
366.52	170.86
366.72	201.29
366.91	133.41
367.11	173.20
367.31	114.69
367.51	182.56
367.70	140.43
367.90	224.69
368.10	224.69
368.30	196.60
368.49	100.64
368.69	208.31
368.89	156.82
369.09	145.11
369.28	182.56
369.48	135.75
369.68	168.52
369.87	297.25
370.07	252.78
370.27	259.80
370.47	301.93
370.66	468.11
370.86	425.98
371.06	498.53
371.25	578.11
371.45	524.28
371.65	557.05
371.84	557.05
372.04	514.92
372.24	587.47
372.44	533.64
372.63	617.90
372.83	599.18
373.03	599.18
373.22	617.90
373.42	676.41
373.62	606.20
373.81	660.03
374.01	667.05
374.21	685.78
374.40	660.03
374.60	697.48
374.79	655.35
374.99	543.00
375.19	596.84
375.38	627.26
375.58	704.50
375.78	678.76
375.97	711.52
376.17	713.86
376.37	641.31
376.56	695.14
376.76	653.01
376.95	655.35
377.15	636.63
377.35	648.33
377.54	685.78
377.74	688.12
377.93	685.78
378.13	688.12
378.33	737.27
378.52	690.46
378.72	713.86
378.91	671.73
379.11	655.35
379.31	748.97
379.50	716.20
379.70	739.61
379.89	732.59
380.09	716.20
380.28	748.97
380.48	702.16
380.68	690.46
380.87	657.69
381.07	723.23
381.26	730.25
381.46	767.70
381.65	774.72
381.85	802.80
382.04	744.29
382.24	746.63
382.43	751.31
382.63	795.78
382.83	777.06
383.02	734.93
383.22	770.04
383.41	702.16
383.61	844.93
383.80	777.06
384.00	774.72
384.19	753.65
384.39	889.40
384.58	758.33
384.78	866.00
384.97	840.25
385.17	767.70
385.36	814.51
385.56	763.01
385.75	877.70
385.95	844.93
386.14	847.27
386.34	880.04
386.53	849.61
386.72	912.81
386.92	898.77
387.11	931.53
387.31	936.21
387.50	950.26
387.70	903.45
387.89	868.34
388.09	880.04
388.28	919.83
388.48	866.00
388.67	891.74
388.86	868.34
389.06	957.28
389.25	898.77
389.45	978.34
389.64	976.00
389.84	980.68
390.03	931.53
390.22	973.66
390.42	971.32
390.61	933.87
390.81	1004.09
391.00	936.21
391.19	987.71
391.39	968.98
391.58	1081.33
391.78	978.34
391.97	1001.75
392.16	1032.18
392.36	1156.22
392.55	1071.97
392.75	1029.84
392.94	1069.62
393.13	980.68
393.33	1039.20
393.52	973.66
393.71	1207.72
393.91	1114.10
394.10	1226.44
394.29	1104.73
394.49	1135.16
394.68	1109.41
394.88	1062.60
395.07	1074.31
395.26	1109.41
395.46	1156.22
395.65	1184.31
395.84	1186.65
396.04	1266.23
396.23	1193.67
396.42	1217.08
396.62	1261.55
396.81	1266.23
397.00	1228.78
397.19	1181.97
397.39	1165.59
397.58	1254.53
397.77	1231.12
397.97	1291.98
398.16	1308.36
398.35	1273.25
398.55	1296.66
398.74	1315.38
398.93	1460.49
399.12	1200.69
399.32	1259.21
399.51	1296.66
399.70	1338.79
399.90	1364.53
400.09	1423.05
400.28	1357.51
400.47	1364.53
400.67	1434.75
400.86	1411.34
401.05	1493.26
401.24	1462.83
401.44	1533.05
401.63	1416.02
401.82	1542.41
402.01	1526.03
402.21	1514.33
402.40	1519.01
402.59	1453.47
402.78	1523.69
402.97	1605.61
403.17	1570.50
403.36	1495.60
403.55	1535.39
403.74	1537.73
403.93	1547.09
404.13	1584.54
404.32	1603.27
404.51	1643.06
404.70	1579.86
404.89	1547.09
405.09	1701.57
405.28	1659.44
405.47	1645.40
405.66	1736.68
405.85	1776.47
406.05	1694.55
406.24	1736.68
406.43	1720.29
406.62	1713.27
406.81	1832.64
407.00	1720.29
407.20	1764.76
407.39	1804.55
407.58	1996.48
407.77	1907.54
407.96	1853.70
408.15	1879.45
408.34	1858.39
408.54	1930.94
408.73	1933.28
408.92	1991.80
409.11	1942.64
409.30	1912.22
409.49	2033.93
409.68	2001.16
409.87	1923.92
410.07	2143.93
410.26	2001.16
410.45	2162.66
410.64	2155.63
410.83	2186.06
411.02	2153.29
411.21	2165.00
411.40	2066.69
411.59	2218.83
411.78	2153.29
411.98	2242.23
412.17	2176.70
412.36	2246.91
412.55	2321.81
412.74	2410.75
412.93	2368.62
413.12	2314.79
413.31	2375.64
413.50	2389.69
413.69	2349.90
413.88	2579.27
414.07	2492.67
414.26	2546.50
414.45	2532.46
414.64	2476.29
414.83	2513.74
415.02	2520.76
415.22	2628.42
415.41	2670.55
415.60	2579.27
415.79	2693.96
415.98	2848.43
416.17	2743.11
416.36	2731.41
416.55	2658.85
416.74	2857.79
416.93	2740.77
417.12	2771.19
417.31	2843.75
417.50	2787.58
417.69	2906.95
417.88	2953.76
418.07	2764.17
418.26	3042.70
418.45	2956.10
418.64	3101.21
418.83	3162.06
419.02	2958.44
419.21	3070.78
419.39	3131.64
419.58	3084.83
419.77	3023.97
419.96	3054.40
420.15	3080.14
420.34	3201.85
420.53	3145.68
420.72	3136.32
420.91	3241.64
421.10	3197.17
421.29	3255.69
421.48	3295.47
421.67	3304.84
421.86	3229.94
422.05	3386.76
422.24	3269.73
422.43	3332.92
422.61	3414.84
422.80	3447.61
422.99	3485.06
423.18	3412.50
423.37	3501.44
423.56	3487.40
423.75	3368.03
423.94	3363.35
424.13	3241.64
424.32	3302.50
424.50	3377.39
424.69	3588.04
424.88	3471.01
425.07	3407.82
425.26	3494.42
425.45	3485.06
425.64	3400.80
425.83	3468.67
426.01	3550.59
426.20	3524.85
426.39	3531.87
426.58	3562.30
426.77	3365.69
426.96	3438.25
427.15	3576.34
427.33	3630.17
427.52	3524.85
427.71	3515.48
427.90	3574.00
428.09	3620.81
428.28	3632.51
428.46	3723.79
428.65	3744.86
428.84	3824.44
429.03	3854.86
429.22	3719.11
429.40	3716.77
429.59	3644.21
429.78	3639.53
429.97	3543.57
430.16	3574.00
430.34	3796.35
430.53	3763.58
430.72	3817.41
430.91	3885.29
431.10	3875.93
431.28	3939.12
431.47	3857.20
431.66	3995.29
431.85	3974.23
432.03	3927.42
432.22	4187.22
432.41	3875.93
432.60	3969.55
432.79	4044.45
432.97	4271.48
433.16	4177.86
433.35	4032.74
433.54	4203.60
433.72	4203.60
433.91	4308.93
434.10	4170.83
434.28	4170.83
434.47	4231.69
434.66	4205.94
434.85	4318.29
435.03	4327.65
435.22	4285.52
435.41	4510.21
435.59	4374.46
435.78	4435.32
435.97	4369.78
436.16	4437.66
436.34	4505.53
436.53	4369.78
436.72	4554.68
436.90	4484.47
437.09	4489.15
437.28	4554.68
437.46	4545.32
437.65	4531.28
437.84	4622.56
438.02	4720.86
438.21	4559.36
438.40	4447.02
438.58	4751.29
438.77	4863.63
438.96	4842.57
439.14	4875.34
439.33	4905.76
439.52	4908.10
439.70	4873.00
439.89	4954.91
440.08	4908.10
440.26	4905.76
440.45	4905.76
440.63	4910.44
440.82	5142.16
441.01	5181.95
441.19	5114.07
441.38	5322.38
441.57	5249.82
441.75	5282.59
441.94	5469.83
442.12	5416.00
442.31	5369.19
442.50	5504.94
442.68	5362.17
442.87	5390.25
443.05	5596.22
443.24	5680.48
443.43	5577.50
443.61	5462.81
443.80	5633.67
443.98	5406.64
444.17	5401.96
444.35	5638.35
444.54	5720.27
444.73	5572.82
444.91	5650.05
445.10	5729.63
445.28	5621.97
445.47	5579.84
445.65	5612.60
445.84	5511.96
446.02	5706.23
446.21	5598.56
446.39	5727.29
446.58	5778.78
446.77	5750.70
446.95	5736.65
447.14	5769.42
447.32	5778.78
447.51	5720.27
447.69	5757.72
447.88	5846.66
448.06	5650.05
448.25	5776.44
448.43	5799.85
448.62	5907.51
448.80	5774.10
448.99	5853.68
449.17	5860.70
449.36	5781.12
449.54	5987.09
449.73	6094.76
449.91	6258.59
450.10	6097.10
450.28	6085.39
450.46	6176.67
450.65	6125.18
450.83	6059.65
451.02	6052.63
451.20	6174.33
451.39	6183.70
451.57	5944.96
451.76	6122.84
451.94	6284.34
452.13	6277.32
452.31	6342.85
452.49	6094.76
452.68	6197.74
452.86	6289.02
453.05	6406.05
453.23	6473.92
453.42	6279.66
453.60	6239.87
453.78	6420.09
453.97	6345.19
454.15	6284.34
454.34	6448.18
454.52	6478.60
454.70	6513.71
454.89	6733.72
455.07	6422.43
455.26	6729.04
455.44	6607.33
455.62	6623.72
455.81	6689.25
455.99	6729.04
456.17	6888.20
456.36	6780.53
456.54	6717.34
456.73	6913.94
456.91	7030.97
457.09	7075.44
457.28	7136.29
457.46	6937.35
457.64	6984.16
457.83	7021.61
458.01	7077.78
458.19	7166.72
458.38	6979.48
458.56	6988.84
458.74	7002.88
458.93	7250.98
459.11	7148.00
459.29	7262.68
459.48	7208.85
459.66	7255.66
459.84	7377.37
460.03	7288.43
460.21	7337.58
460.39	7445.24
460.57	7386.73
460.76	7634.83
460.94	7496.74
461.12	7597.38
461.31	7438.22
461.49	7489.71
461.67	7442.90
461.85	7693.34
462.04	7566.95
462.22	7932.08
462.40	7843.14
462.59	7625.47
462.77	7597.38
462.95	7705.04
463.13	7838.45
463.32	7840.79
463.50	7967.18
463.68	7932.08
463.86	8086.55
464.05	7962.50
464.23	7843.14
464.41	8018.68
464.59	7929.74
464.78	7953.14
464.96	8053.78
465.14	7985.91
465.32	8086.55
465.50	8051.44
465.69	8280.82
465.87	8189.53
466.05	8166.13
466.23	8142.72
466.41	8152.09
466.60	8224.64
466.78	8072.51
466.96	8226.98
467.14	8147.40
467.32	8374.44
467.51	8332.31
467.69	8124.00
467.87	8292.52
468.05	8374.44
468.23	8491.46
468.41	8294.86
468.60	8435.29
468.78	8533.59
468.96	8456.36
469.14	8734.88
469.32	8589.77
469.50	8444.65
469.69	8753.60
469.87	8751.26
470.05	8575.72
470.23	8702.11
470.41	8692.75
470.59	8802.75
470.77	8879.99
470.95	8800.41
471.14	8842.54
471.32	8648.28
471.50	9191.28
471.68	9050.85
471.86	9039.15
472.04	9092.98
472.22	9256.82
472.40	9151.49
472.58	9156.18
472.77	9350.44
472.95	9366.82
473.13	9769.40
473.31	9202.99
473.49	9420.66
473.67	9507.26
473.85	9591.52
474.03	9804.50
474.21	9720.24
474.39	9820.89
474.57	9781.10
474.75	9928.55
474.93	9895.78
475.12	9928.55
475.30	10120.48
475.48	9886.42
475.66	10113.45
475.84	10031.54
476.02	10281.97
476.20	10342.83
476.38	10466.88
476.56	10726.68
476.74	10644.76
476.92	10443.47
477.10	10560.50
477.28	10906.90
477.46	10752.42
477.64	10794.55
477.82	10771.15
478.00	11035.63
478.18	11023.92
478.36	11143.29
478.54	11290.74
478.72	11346.92
478.90	11632.46
479.08	11634.80
479.26	11854.81
479.44	11805.66
479.62	11571.61
479.80	11910.99
479.98	12126.32
480.16	12318.24
480.34	11988.22
480.52	12507.82
480.70	12461.01
480.88	12255.04
481.06	12334.62
481.24	12432.93
481.41	12650.60
481.59	12739.54
481.77	12851.88
481.95	12842.52
482.13	12954.87
482.31	12828.48
482.49	13474.46
482.67	13469.78
482.85	13579.79
483.03	13441.70
483.21	13462.76
483.39	13834.91
483.57	13715.54
483.74	14078.32
483.92	13987.04
484.10	13872.36
484.28	14127.47
484.46	14499.62
484.64	14626.01
484.82	14235.14
485.00	14707.93
485.18	14986.45
485.35	15147.95
485.53	14714.95
485.71	15080.07
485.89	15353.91
486.07	15159.65
486.25	15421.79
486.43	15573.92
486.61	15566.90
486.78	15800.96
486.96	15826.70
487.14	16018.63
487.32	16159.06
487.50	16465.67
487.68	16652.91
487.85	16905.69
488.03	16826.11
488.21	17123.36
488.39	16594.40
488.57	16837.81
488.75	17273.15
488.92	17322.30
489.10	17523.59
489.28	17624.23
489.46	17914.46
489.64	17888.71
489.81	18061.91
489.99	17977.65
490.17	18099.36
490.35	18707.90
490.53	18281.92
490.70	18422.36
490.88	18375.55
491.06	18843.65
491.24	18740.67
491.41	19089.41
491.59	19061.32
491.77	19286.01
491.95	19346.87
492.13	19541.13
492.30	19700.29
492.48	19559.86
492.66	20034.99
492.84	19758.80
493.01	20236.27
493.19	19985.83
493.37	20231.59
493.54	20252.66
493.72	20755.87
493.90	20479.69
494.08	20641.18
494.25	21310.58
494.43	20821.41
494.61	21163.12
494.79	21160.78
494.96	21275.47
495.14	21465.05
495.32	21518.89
495.49	22129.77
495.67	21713.15
495.85	22066.57
496.02	22155.51
496.20	22534.68
496.38	22359.14
496.55	22511.27
496.73	22647.02
496.91	22644.68
497.09	23161.94
497.26	23049.60
497.44	22979.38
497.62	23101.09
497.79	23501.32
497.97	23587.92
498.14	23957.72
498.32	23454.51
498.50	23971.77
498.67	23990.49
498.85	23763.46
499.03	23950.70
499.20	24098.16
499.38	24182.42
499.56	24613.07
499.73	24575.62
499.91	24606.05
500.08	24809.68
500.26	24624.78
500.44	24528.81
500.61	24613.07
500.79	24732.44
500.97	25048.41
501.14	25376.09
501.32	25455.67
501.49	25362.04
501.67	25521.20
501.84	25956.54
502.02	25696.74
502.20	25654.61
502.37	25750.57
502.55	26001.01
502.72	25743.55
502.90	26024.42
503.07	25750.57
503.25	26525.29
503.43	25956.54
503.60	26639.98
503.78	26778.07
503.95	26625.93
504.13	26487.84
504.30	26757.00
504.48	26806.16
504.65	27190.00
504.83	26869.35
505.01	27522.36
505.18	27056.59
505.36	27367.88
505.53	27250.86
505.71	27566.83
505.88	27630.02
506.06	27314.05
506.23	27793.86
506.41	27356.18
506.58	28051.32
506.76	28053.66
506.93	27758.75
507.11	28287.71
507.28	28189.41
507.46	28198.77
507.63	28362.61
507.81	28201.11
507.98	28421.13
508.16	28409.42
508.33	28641.14
508.50	28896.25
508.68	28704.33
508.85	28936.04
509.03	28734.76
509.20	28961.79
509.38	29371.38
509.55	29479.05
509.73	29591.39
509.90	29472.03
510.08	29230.95
510.25	29460.32
510.42	29673.31
510.60	30237.38
510.77	29731.83
510.95	30199.93
511.12	30120.35
511.30	30089.93
511.47	29916.73
511.64	30096.95
511.82	30211.64
511.99	30782.73
512.17	30668.04
512.34	30625.91
512.51	30740.60
512.69	30986.35
512.86	30890.39
513.04	31154.87
513.21	31487.23
513.38	31117.42
513.56	31110.40
513.73	30986.35
513.90	31323.39
514.08	31211.04
514.25	31534.04
514.43	31424.03
514.60	31541.06
514.77	31676.81
514.95	32070.02
515.12	31711.92
515.29	31821.92
515.47	31690.85
515.64	31868.73
515.81	32020.87
515.99	32301.73
516.16	32676.22
516.33	32116.83
516.51	32570.90
516.68	32421.10
516.85	32336.84
517.03	32879.85
517.20	32687.92
517.37	32734.73
517.54	32755.80
517.72	33158.37
517.89	32966.45
518.06	33333.91
518.24	33036.66
518.41	33139.65
518.58	33015.60
518.75	33001.55
518.93	33579.67
519.10	33149.01
519.27	33261.35
519.45	33696.69
519.62	33376.04
519.79	33785.63
519.96	33464.98
520.14	33984.58
520.31	33383.06
520.48	33479.02
520.65	33965.85
520.83	34785.04
521.00	34478.43
521.17	34026.71
521.34	34546.31
521.52	34354.38
521.69	34829.51
521.86	34782.70
522.03	34703.12
522.20	34813.13
522.38	35152.51
522.55	35606.57
522.72	35407.62
522.89	35101.01
523.07	35835.94
523.24	35592.53
523.41	35484.86
523.58	35154.85
523.75	35339.75
523.92	35454.44
524.10	35304.64
524.27	35585.50
524.44	35763.39
524.61	35573.80
524.78	35962.33
524.96	36285.33
525.13	36484.27
525.30	36151.91
525.47	36151.91
525.64	36163.62
525.81	36271.28
525.98	36512.36
526.16	36671.51
526.33	36755.77
526.50	36591.94
526.67	36734.71
526.84	36713.64
527.01	36741.73
527.18	36828.33
527.36	37151.32
527.53	36811.95
527.70	37544.53
527.87	37223.88
528.04	37331.54
528.21	37188.77
528.38	36968.76
528.55	37258.99
528.72	37577.30
528.89	37184.09
529.07	37284.73
529.24	37242.60
529.41	37680.28
529.58	37497.72
529.75	37420.48
529.92	38253.72
530.09	37710.71
530.26	37958.81
530.43	37951.79
530.60	37584.32
530.77	37467.30
530.94	38026.68
531.11	37738.80
531.28	38054.77
531.46	37916.68
531.63	38426.92
531.80	38178.82
531.97	38239.67
532.14	38373.08
532.31	38593.09
532.48	38642.24
532.65	38862.26
532.82	38550.96
532.99	38499.47
533.16	38749.91
533.33	38506.49
533.50	38684.37
533.67	38426.92
533.84	38745.23
534.01	38930.13
534.18	38639.90
534.35	39716.55
534.52	38923.11
534.69	39311.64
534.86	39332.70
535.03	39140.78
535.20	39384.19
535.37	39737.62
535.54	39236.74
535.71	39545.69
535.88	39943.58
536.05	39407.60
536.22	39864.00
536.38	39590.16
536.55	39779.74
536.72	39945.92
536.89	39594.84
537.06	39950.60
537.23	40825.96
537.40	39882.73
537.57	40076.99
537.74	40196.36
537.91	39941.24
538.08	40081.67
538.25	40540.42
538.42	40095.72
538.59	40364.88
538.75	40177.64
538.92	40437.44
539.09	40692.55
539.26	40652.76
539.43	40477.22
539.60	40840.01
539.77	40465.52
539.94	40823.62
540.11	40856.39
540.28	40739.36
540.44	40952.35
540.61	41209.81
540.78	40854.05
540.95	41111.51
541.12	41116.19
541.29	40800.22
541.46	41280.03
541.62	41092.79
541.79	41436.84
541.96	40882.14
542.13	41364.29
542.30	41188.75
542.47	41331.52
542.63	41462.59
542.80	41886.23
542.97	41958.78
543.14	42153.05
543.31	41312.80
543.48	41792.61
543.64	42029.00
543.81	42178.79
543.98	41923.68
544.15	41904.95
544.32	42096.88
544.48	42878.61
544.65	42265.39
544.82	42602.43
544.99	42096.88
545.16	42845.85
545.32	42380.08
545.49	42586.05
545.66	42990.96
545.83	42653.92
546.00	42674.99
546.16	42316.89
546.33	42841.17
546.50	42719.46
546.67	43107.99
546.83	41916.65
547.00	42609.45
547.17	42403.49
547.34	42974.58
547.50	43302.25
547.67	43267.14
547.84	43065.86
548.00	43316.29
548.17	43400.55
548.34	43269.48
548.51	43248.42
548.67	43250.76
548.84	43533.96
549.01	43129.05
549.18	43093.94
549.34	43356.08
549.51	43592.48
549.68	43756.32
549.84	43269.48
550.01	43608.86
550.18	43412.26
550.34	43590.14
550.51	44161.23
550.68	43611.20
550.84	44041.86
551.01	43576.09
551.18	43686.10
551.34	43615.88
551.51	44304.00
551.68	43697.80
551.84	43662.69
552.01	43641.63
552.18	43955.26
552.34	43709.50
552.51	43842.92
552.68	43564.39
552.84	43861.64
553.01	44601.25
553.18	43840.57
553.34	44186.97
553.51	44313.36
553.67	44098.03
553.84	44577.84
554.01	44612.95
554.17	44423.37
554.34	44093.35
554.51	44439.75
554.67	44467.84
554.84	44760.40
555.00	44519.33
555.17	44388.26
555.33	44582.52
555.50	44552.10
555.67	45090.42
555.83	44863.39
556.00	45050.63
556.16	45233.19
556.33	45216.81
556.50	44870.41
556.66	44645.72
556.83	44589.55
556.99	44762.75
557.16	45869.82
557.32	45500.01
557.49	45099.78
557.65	44905.52
557.82	44957.01
557.98	45226.17
558.15	45392.35
558.32	45263.62
558.48	45134.89
558.65	44931.26
558.81	45429.80
558.98	44884.45
559.14	45282.34
559.31	45415.76
559.47	45331.50
559.64	45366.60
559.80	45408.73
559.97	45607.68
560.13	45425.12
560.30	45813.65
560.46	45652.15
560.63	45521.08
560.79	45743.43
560.96	45759.81
561.12	45736.41
561.29	46117.92
561.45	45940.04
561.61	45439.16
561.78	45825.35
561.94	45834.71
562.11	45478.95
562.27	45588.95
562.44	45979.82
562.60	46108.55
562.77	45872.16
562.93	45752.79
563.10	46040.68
563.26	46314.52
563.42	46216.22
563.59	46106.21
563.75	45382.99
563.92	45865.14
564.08	46181.11
564.24	45844.07
564.41	46148.34
564.57	46120.26
564.74	46047.70
564.90	46293.46
565.07	45808.96
565.23	46021.95
565.39	46218.56
565.56	46248.99
565.72	46017.27
565.88	46272.39
566.05	46588.36
566.21	45923.65
566.38	46740.50
566.54	46593.04
566.70	46302.82
566.87	46239.62
567.03	45956.42
567.19	46646.88
567.36	46557.94
567.52	46464.32
567.68	46337.93
567.85	46490.06
568.01	46754.54
568.17	46190.47
568.34	46916.04
568.50	46621.13
568.66	46258.35
568.83	46319.20
568.99	46403.46
569.15	46625.81
569.32	46515.81
569.48	46178.77
569.64	47086.90
569.81	46810.71
569.97	46735.82
570.13	47035.41
570.30	46251.33
570.46	46803.69
570.62	46983.91
570.78	46794.33
570.95	46752.20
571.11	47140.73
571.27	46511.13
571.43	46623.47
571.60	46321.54
571.76	46698.37
571.92	46841.14
572.09	46525.17
572.25	46878.59
572.41	46836.46
572.57	46639.86
572.74	47386.49
572.90	46733.48
573.06	46791.99
573.22	46897.31
573.38	46993.28
573.55	46752.20
573.71	47723.52
573.87	46920.72
574.03	47234.35
574.20	47454.36
574.36	47243.71
574.52	46955.83
574.68	47299.89
574.84	47412.23
575.01	47573.73
575.17	46890.29
575.33	46866.89
575.49	46969.87
575.65	47117.32
575.82	47100.94
575.98	46962.85
576.14	46761.56
576.30	47533.94
576.46	47150.09
576.62	47206.26
576.79	47297.55
576.95	46483.04
577.11	46885.61
577.27	47430.96
577.43	46822.42
577.59	47084.56
577.75	47236.69
577.92	46672.62
578.08	47166.48
578.24	47398.19
578.40	47349.04
578.56	46923.06
578.72	47386.49
578.88	47473.09
579.04	47313.93
579.21	46810.71
579.37	47405.21
579.53	47459.04
579.69	46993.28
579.85	47133.71
580.01	46866.89
580.17	46953.49
580.33	47426.28
580.49	47346.70
580.65	46974.55
580.82	46916.04
580.98	47290.52
581.14	47173.50
581.30	47206.26
581.46	47276.48
581.62	47019.02
581.78	47599.47
581.94	47304.57
582.10	47281.16
582.26	47430.96
582.42	47281.16
582.58	47133.71
582.74	47503.51
582.90	47562.03
583.06	47508.19
583.22	47112.64
583.38	47339.68
583.54	47447.34
583.70	47503.51
583.86	47894.38
584.02	47166.48
584.18	48367.17
584.34	47494.15
584.50	47852.25
584.66	47372.44
584.82	47690.76
584.98	47515.22
585.14	47753.95
585.30	47344.36
585.46	47517.56
585.62	47449.68
585.78	47765.65
585.94	47578.41
586.10	47290.52
586.26	47124.35
586.42	47173.50
586.58	47487.13
586.74	47257.76
586.90	47262.44
587.06	47374.78
587.22	47852.25
587.38	47194.56
587.54	47473.09
587.70	47760.97
587.86	47646.29
588.02	47290.52
588.18	47274.14
588.34	47426.28
588.49	47634.58
588.65	47257.76
588.81	47112.64
588.97	47894.38
589.13	47749.27
589.29	47531.60
589.45	47665.01
589.61	47653.31
589.77	48058.22
589.93	47723.52
590.08	48172.91
