SpectraSuite Data File
++++++++++++++++++++++++++++++++++++
Date: Fri Oct 25 11:26:16 EDT 2013
User: price-jones
Dark Spectrum Present: No
Reference Spectrum Present: No
Number of Sampled Component Spectra: 1
Spectrometers: USB2+H05261
Integration Time (usec): 100000 (USB2+H05261)
Spectra Averaged: 1 (USB2+H05261)
Boxcar Smoothing: 0 (USB2+H05261)
Correct for Electrical Dark: No (USB2+H05261)
Strobe/Lamp Enabled: No (USB2+H05261)
Correct for Detector Non-linearity: No (USB2+H05261)
Correct for Stray Light: No (USB2+H05261)
Number of Pixels in Processed Spectrum: 2048
>>>>>Begin Processed Spectral Data<<<<<
365.73	255.12
365.92	255.12
366.12	255.12
366.32	166.18
366.52	177.88
366.72	191.92
366.91	187.24
367.11	161.50
367.31	152.13
367.51	138.09
367.70	112.35
367.90	166.18
368.10	126.39
368.30	142.77
368.49	229.37
368.69	119.37
368.89	180.22
369.09	67.88
369.28	168.52
369.48	121.71
369.68	187.24
369.87	198.95
370.07	238.73
370.27	292.57
370.47	315.97
370.66	617.90
370.86	594.50
371.06	683.44
371.25	699.82
371.45	641.31
371.65	697.48
371.84	683.44
372.04	667.05
372.24	589.82
372.44	723.23
372.63	770.04
372.83	683.44
373.03	765.36
373.22	692.80
373.42	784.08
373.62	781.74
373.81	758.33
374.01	835.57
374.21	795.78
374.40	805.14
374.60	828.55
374.79	823.87
374.99	795.78
375.19	788.76
375.38	779.40
375.58	833.23
375.78	891.74
375.97	866.00
376.17	990.05
376.37	919.83
376.56	915.15
376.76	849.61
376.95	828.55
377.15	856.64
377.35	866.00
377.54	842.59
377.74	933.87
377.93	866.00
378.13	905.79
378.33	931.53
378.52	891.74
378.72	973.66
378.91	971.32
379.11	922.17
379.31	894.08
379.50	966.64
379.70	1025.15
379.89	922.17
380.09	952.60
380.28	997.07
380.48	1006.43
380.68	1076.65
380.87	1083.67
381.07	952.60
381.26	1069.62
381.46	1043.88
381.65	1034.52
381.85	1015.79
382.04	1104.73
382.24	1093.03
382.43	1111.75
382.63	1055.58
382.83	1013.45
383.02	1060.26
383.22	1050.90
383.41	1076.65
383.61	1149.20
383.80	1130.48
384.00	1142.18
384.19	1123.46
384.39	1235.80
384.58	1146.86
384.78	1238.14
384.97	1205.38
385.17	1174.95
385.36	1118.78
385.56	1130.48
385.75	1050.90
385.95	1158.57
386.14	1226.44
386.34	1184.31
386.53	1214.74
386.72	1270.91
386.92	1245.16
387.11	1184.31
387.31	1277.93
387.50	1254.53
387.70	1256.87
387.89	1268.57
388.09	1282.61
388.28	1235.80
388.48	1291.98
388.67	1299.00
388.86	1266.23
389.06	1362.19
389.25	1282.61
389.45	1364.53
389.64	1322.40
389.84	1376.24
390.03	1350.49
390.22	1418.36
390.42	1437.09
390.61	1451.13
390.81	1376.24
391.00	1338.79
391.19	1448.79
391.39	1397.30
391.58	1313.04
391.78	1502.62
391.97	1528.37
392.16	1465.18
392.36	1647.74
392.55	1537.73
392.75	1446.45
392.94	1488.58
393.13	1591.56
393.33	1511.99
393.52	1572.84
393.71	1577.52
393.91	1603.27
394.10	1530.71
394.29	1603.27
394.49	1582.20
394.68	1600.93
394.88	1605.61
395.07	1703.91
395.26	1736.68
395.46	1680.50
395.65	1666.46
395.84	1675.82
396.04	1631.35
396.23	1624.33
396.42	1621.99
396.62	1774.13
396.81	1809.23
397.00	1778.81
397.19	1872.43
397.39	1830.30
397.58	1853.70
397.77	1865.41
397.97	1898.17
398.16	1860.73
398.35	1949.67
398.55	1923.92
398.74	1937.96
398.93	1881.79
399.12	1926.26
399.32	1963.71
399.51	1877.11
399.70	2136.91
399.90	2024.56
400.09	1984.77
400.28	2003.50
400.47	2078.40
400.67	1975.41
400.86	2099.46
401.05	2090.10
401.24	2050.31
401.44	2113.50
401.63	2167.34
401.82	2146.27
402.01	2111.16
402.21	2111.16
402.40	2052.65
402.59	2207.13
402.78	2122.87
402.97	2169.68
403.17	2321.81
403.36	2319.47
403.55	2258.62
403.74	2307.77
403.93	2267.98
404.13	2263.30
404.32	2333.51
404.51	2335.85
404.70	2389.69
404.89	2333.51
405.09	2431.82
405.28	2373.30
405.47	2448.20
405.66	2375.64
405.85	2401.39
406.05	2546.50
406.24	2572.25
406.43	2654.17
406.62	2724.38
406.81	2537.14
407.00	2537.14
407.20	2614.38
407.39	2619.06
407.58	2785.24
407.77	2703.32
407.96	2691.62
408.15	2752.47
408.34	2869.50
408.54	2794.60
408.73	2710.34
408.92	2881.20
409.11	3005.25
409.30	2972.48
409.49	2874.18
409.68	2967.80
409.87	3030.99
410.07	3033.33
410.26	3084.83
410.45	3082.49
410.64	2946.73
410.83	3066.10
411.02	3234.62
411.21	3073.12
411.40	3094.19
411.59	3293.13
411.78	3169.09
411.98	3176.11
412.17	3206.53
412.36	3283.77
412.55	3365.69
412.74	3398.46
412.93	3300.16
413.12	3393.78
413.31	3602.08
413.50	3452.29
413.69	3349.31
413.88	3719.11
414.07	3590.38
414.26	3653.58
414.45	3681.66
414.64	3623.15
414.83	3791.67
415.02	3705.07
415.22	3857.20
415.41	3796.35
415.60	3908.69
415.79	3826.78
415.98	3941.46
416.17	3939.12
416.36	3983.59
416.55	4016.36
416.74	3943.80
416.93	3941.46
417.12	4086.58
417.31	4091.26
417.50	4283.18
417.69	4187.22
417.88	4339.35
418.07	4219.99
418.26	4358.08
418.45	4301.90
418.64	4503.19
418.83	4374.46
419.02	4444.68
419.21	4580.43
419.39	4533.62
419.58	4601.49
419.77	4542.98
419.96	4510.21
420.15	4547.66
420.34	4638.94
420.53	4564.04
420.72	4671.71
420.91	4645.96
421.10	4692.77
421.29	4779.37
421.48	4648.30
421.67	4844.91
421.86	4837.89
422.05	4842.57
422.24	4601.49
422.43	4753.63
422.61	4851.93
422.80	5088.32
422.99	4997.04
423.18	4936.19
423.37	4943.21
423.56	4795.76
423.75	4943.21
423.94	4737.24
424.13	4615.54
424.32	4657.67
424.50	5076.62
424.69	5011.09
424.88	5001.72
425.07	5039.17
425.26	4849.59
425.45	4894.06
425.64	4957.25
425.83	4994.70
426.01	5046.20
426.20	5032.15
426.39	5067.26
426.58	5093.01
426.77	4910.44
426.96	5151.52
427.15	5128.11
427.33	4990.02
427.52	5123.43
427.71	5231.10
427.90	5252.16
428.09	5263.86
428.28	5394.93
428.46	5317.70
428.65	5287.27
428.84	5392.59
429.03	5540.05
429.22	5296.63
429.40	5387.91
429.59	5420.68
429.78	5334.08
429.97	5296.63
430.16	5418.34
430.34	5558.77
430.53	5430.04
430.72	5673.46
430.91	5570.48
431.10	5561.11
431.28	5554.09
431.47	5673.46
431.66	5823.25
431.85	5579.84
432.03	5940.28
432.22	5914.53
432.41	5963.68
432.60	5912.19
432.79	6031.56
432.97	6059.65
433.16	5970.71
433.35	5928.58
433.54	6073.69
433.72	5940.28
433.91	6024.54
434.10	6087.73
434.28	6188.38
434.47	6251.57
434.66	6328.81
434.85	6328.81
435.03	6434.13
435.22	6253.91
435.41	6544.14
435.59	6342.85
435.78	6445.84
435.97	6455.20
436.16	6366.26
436.34	6356.90
436.53	6527.75
436.72	6487.96
436.90	6342.85
437.09	6654.14
437.28	6375.62
437.46	6480.94
437.65	6698.61
437.84	6930.33
438.02	6483.28
438.21	6513.71
438.40	6836.70
438.58	6920.96
438.77	7019.27
438.96	6979.48
439.14	7176.08
439.33	7131.61
439.52	7176.08
439.70	6995.86
439.89	7258.00
440.08	7155.02
440.26	7199.49
440.45	7494.40
440.63	7351.62
440.82	7609.08
441.01	7709.72
441.19	7566.95
441.38	7714.41
441.57	7637.17
441.75	7691.00
441.94	7974.21
442.12	8051.44
442.31	7999.95
442.50	7873.56
442.68	7934.42
442.87	7964.84
443.05	7955.48
443.24	8278.47
443.43	8035.06
443.61	8060.80
443.80	8339.33
443.98	8196.56
444.17	7845.48
444.35	8194.22
444.54	8414.23
444.73	8226.98
444.91	8287.84
445.10	8173.15
445.28	8341.67
445.47	8147.40
445.65	8248.05
445.84	8243.37
446.02	8456.36
446.21	8493.80
446.39	8388.48
446.58	8411.89
446.77	8500.83
446.95	8262.09
447.14	8418.91
447.32	8496.14
447.51	8458.70
447.69	8477.42
447.88	8477.42
448.06	8322.94
448.25	8346.35
448.43	8561.68
448.62	8439.97
448.80	8381.46
448.99	8891.70
449.17	8798.07
449.36	8589.77
449.54	8788.71
449.73	8971.27
449.91	8872.97
450.10	8997.02
450.28	9151.49
450.46	9088.30
450.65	9064.89
450.83	9081.28
451.02	8978.30
451.20	9221.71
451.39	9067.24
451.57	9053.19
451.76	9123.41
451.94	9214.69
452.13	9357.46
452.31	9100.00
452.49	9057.87
452.68	9111.71
452.86	9090.64
453.05	9647.69
453.23	9364.48
453.42	9390.23
453.60	9210.01
453.78	9696.84
453.97	9184.26
454.15	9467.47
454.34	9437.04
454.52	9563.43
454.70	9528.32
454.89	9949.62
455.07	9584.49
455.26	9638.33
455.44	9982.38
455.62	9879.40
455.81	9696.84
455.99	9987.07
456.17	10022.17
456.36	10090.05
456.54	10204.74
456.73	10237.50
456.91	10504.32
457.09	10422.41
457.28	10494.96
457.46	10333.47
457.64	10501.98
457.83	10485.60
458.01	10445.81
458.19	10413.04
458.38	10373.25
458.56	10586.24
458.74	10675.18
458.93	10504.32
459.11	10597.95
459.29	10593.26
459.48	10890.51
459.66	10691.57
459.84	10918.60
460.03	10822.64
460.21	10977.11
460.39	10920.94
460.57	10946.69
460.76	11176.06
460.94	11063.71
461.12	11087.12
461.31	11082.44
461.49	10981.79
461.67	11187.76
461.85	11337.56
462.04	11110.52
462.22	11882.90
462.40	11765.87
462.59	11405.43
462.77	11492.03
462.95	11552.88
463.13	11719.06
463.32	11681.61
463.50	11957.80
463.68	11571.61
463.86	11763.53
464.05	11452.24
464.23	11597.35
464.41	11866.52
464.59	11810.34
464.78	11992.90
464.96	11908.65
465.14	11852.47
465.32	11988.22
465.50	12060.78
465.69	12018.65
465.87	12009.29
466.05	12123.98
466.23	12004.61
466.41	12306.54
466.60	12332.28
466.78	12081.85
466.96	12145.04
467.14	12070.14
467.32	12379.09
467.51	12636.55
467.69	11988.22
467.87	12500.80
468.05	12461.01
468.23	12355.69
468.41	12259.73
468.60	12369.73
468.78	12657.62
468.96	12503.14
469.14	12610.81
469.32	12999.34
469.50	12292.49
469.69	13020.40
469.87	12957.21
470.05	12940.82
470.23	13097.64
470.41	13099.98
470.59	13369.14
470.77	12952.52
470.95	13064.87
471.14	13387.86
471.32	13245.09
471.50	13607.87
471.68	13551.70
471.86	13591.49
472.04	13591.49
472.22	13806.82
472.40	13706.18
472.58	13858.31
472.77	13879.38
472.95	14099.39
473.13	14773.46
473.31	14043.21
473.49	13879.38
473.67	14129.81
473.85	14310.04
474.03	14317.06
474.21	14436.42
474.39	14623.67
474.57	14600.26
474.75	14572.18
474.93	15126.88
475.12	14846.02
475.30	15070.71
475.48	14857.72
475.66	15232.21
475.84	15131.56
476.02	15276.68
476.20	15187.74
476.38	15630.10
476.56	16121.61
476.74	15756.49
476.92	15789.25
477.10	15784.57
477.28	15939.05
477.46	16114.59
477.64	16294.81
477.82	16161.40
478.00	16723.13
478.18	16809.73
478.36	17069.53
478.54	17214.64
478.72	16992.29
478.90	17392.52
479.08	17432.31
479.26	17493.16
479.44	17694.45
479.62	17935.53
479.80	17994.04
479.98	17980.00
480.16	18602.58
480.34	18221.07
480.52	18712.58
480.70	18897.49
480.88	18244.48
481.06	18555.77
481.24	18630.66
481.41	19063.66
481.59	19173.67
481.77	19166.65
481.95	19201.76
482.13	19697.95
482.31	19461.55
482.49	20046.69
482.67	19948.39
482.85	20362.66
483.03	20582.67
483.21	20704.38
483.39	20915.03
483.57	20652.89
483.74	20940.77
483.92	21380.79
484.10	21062.48
484.28	21502.50
484.46	21792.73
484.64	22078.27
484.82	22176.58
485.00	22476.16
485.18	22492.55
485.35	22780.43
485.53	22607.23
485.71	22831.93
485.89	23150.24
486.07	23288.33
486.25	23597.28
486.43	23580.90
486.61	23857.08
486.78	23660.48
486.96	24109.86
487.14	24489.03
487.32	24498.39
487.50	24680.95
487.68	24762.87
487.85	24903.30
488.03	25593.76
488.21	25565.67
488.39	25518.86
488.57	25757.60
488.75	26024.42
488.92	26295.92
489.10	26347.41
489.28	26614.23
489.46	26782.75
489.64	26827.22
489.81	27285.97
489.99	27414.69
490.17	27634.71
490.35	27721.30
490.53	27936.63
490.70	28336.87
490.88	28369.63
491.06	28716.03
491.24	28620.07
491.41	29207.55
491.59	29170.10
491.77	29357.34
491.95	29551.60
492.13	29558.63
492.30	30022.05
492.48	29802.04
492.66	29865.24
492.84	29855.87
493.01	30415.26
493.19	30267.81
493.37	31068.27
493.54	30848.26
493.72	31323.39
493.90	31358.50
494.08	31896.82
494.25	31742.35
494.43	31878.10
494.61	31962.36
494.79	32484.30
494.96	32189.39
495.14	32493.66
495.32	33031.98
495.49	32802.61
495.67	32945.38
495.85	33284.76
496.02	33397.10
496.20	33626.48
496.38	34080.54
496.55	33921.38
496.73	34871.64
496.91	34593.12
497.09	34567.37
497.26	34478.43
497.44	34639.93
497.62	34553.33
497.79	35880.41
497.97	35143.14
498.14	35206.34
498.32	36151.91
498.50	36048.93
498.67	36395.33
498.85	36282.98
499.03	36287.67
499.20	36098.08
499.38	36467.89
499.56	36978.12
499.73	36795.56
499.91	37141.96
500.08	37455.59
500.26	37336.23
500.44	37411.12
500.61	37434.53
500.79	37273.03
500.97	37579.64
501.14	38560.33
501.32	38345.00
501.49	38326.27
501.67	38382.45
501.84	38618.84
502.02	38639.90
502.20	38845.87
502.37	38859.91
502.55	38742.89
502.72	39335.04
502.90	39583.14
503.07	39475.48
503.25	39634.63
503.43	39304.62
503.60	39761.02
503.78	40030.18
503.95	39880.39
504.13	40243.17
504.30	40418.71
504.48	40055.93
504.65	40535.74
504.83	40390.62
505.01	41301.09
505.18	40940.65
505.36	41235.56
505.53	41315.14
505.71	41375.99
505.88	41551.53
506.06	41270.67
506.23	41605.36
506.41	41607.70
506.58	41970.49
506.76	42356.67
506.93	42223.26
507.11	41846.44
507.28	42249.01
507.46	42628.18
507.63	42466.68
507.81	43330.34
507.98	42724.14
508.16	42770.95
508.33	43440.34
508.50	43412.26
508.68	43304.59
508.85	43674.40
509.03	43393.53
509.20	43791.42
509.38	43772.70
509.55	44053.56
509.73	44591.89
509.90	44074.63
510.08	44254.85
510.25	44739.34
510.42	44502.95
510.60	44563.80
510.77	45017.86
510.95	45055.31
511.12	44975.73
511.30	44910.20
511.47	45001.48
511.64	45434.48
511.82	45909.61
511.99	45200.43
512.17	46026.63
512.34	46019.61
512.51	46349.63
512.69	46286.43
512.86	45918.97
513.04	46314.52
513.21	46209.20
513.38	46508.79
513.56	46852.84
513.73	46602.41
513.90	46363.67
514.08	46707.73
514.25	46890.29
514.43	47215.63
514.60	46972.21
514.77	47241.37
514.95	47863.96
515.12	47255.42
515.29	47707.14
515.47	47510.53
515.64	47824.17
515.81	47505.85
515.99	47917.79
516.16	47980.98
516.33	47990.34
516.51	48790.81
516.68	47924.81
516.85	48198.65
517.03	48626.97
517.20	48701.87
517.37	48732.29
517.54	48804.85
517.72	48608.25
517.89	48666.76
518.06	49270.62
518.24	48975.71
518.41	49034.22
518.58	48921.88
518.75	48928.90
518.93	49174.66
519.10	49731.70
519.27	49525.74
519.45	49483.61
519.62	49511.69
519.79	49727.02
519.96	49621.70
520.14	50267.69
520.31	49780.85
520.48	50064.06
520.65	50157.68
520.83	50761.54
521.00	50515.78
521.17	50335.56
521.34	50279.39
521.52	50415.14
521.69	50646.85
521.86	50735.79
522.03	50923.04
522.20	51278.80
522.38	51381.78
522.55	51304.54
522.72	51341.99
522.89	51049.42
523.07	51566.68
523.24	51716.48
523.41	51597.11
523.58	51117.30
523.75	51384.12
523.92	51552.64
524.10	51746.90
524.27	51728.18
524.44	51952.87
524.61	52179.90
524.78	51915.42
524.96	51971.60
525.13	52250.12
525.30	52107.35
525.47	52514.60
525.64	52299.27
525.81	52336.72
525.98	52486.51
526.16	52332.04
526.33	52582.48
526.50	52978.03
526.67	52622.26
526.84	52914.83
527.01	52795.46
527.18	52882.06
527.36	52708.86
527.53	53027.18
527.70	52898.45
527.87	53181.65
528.04	53125.48
528.21	53312.72
528.38	53027.18
528.55	53319.74
528.72	53209.74
528.89	53298.68
529.07	53155.91
529.24	53415.71
529.41	53481.24
529.58	53315.06
529.75	53511.67
529.92	53659.12
530.09	53645.08
530.26	53719.98
530.43	53762.11
530.60	53727.00
530.77	53621.67
530.94	53872.11
531.11	53759.76
531.28	54106.16
531.46	54181.06
531.63	54202.13
531.80	54120.21
531.97	54274.68
532.14	54230.21
532.31	54412.77
532.48	54347.24
532.65	54635.13
532.82	54295.75
532.99	54651.51
533.16	54445.54
533.33	54433.84
533.50	54775.56
533.67	54941.74
533.84	54380.01
534.01	54705.34
534.18	54920.67
534.35	55288.13
534.52	54890.24
534.69	55356.01
534.86	54897.27
535.03	55159.41
535.20	55180.47
535.37	55049.40
535.54	55208.56
535.71	55114.94
535.88	55037.70
536.05	55323.24
536.22	55365.37
536.38	55442.61
536.55	55412.18
536.72	55285.79
536.89	55306.86
537.06	55482.40
537.23	55697.73
537.40	55440.27
537.57	55636.87
537.74	55554.96
537.91	55749.22
538.08	55948.17
538.25	55629.85
538.42	55723.47
538.59	56011.36
538.75	55880.29
538.92	55894.33
539.09	55943.48
539.26	56086.26
539.43	55796.03
539.60	55997.32
539.77	56016.04
539.94	56250.09
540.11	56397.55
540.28	56282.86
540.44	56467.76
540.61	56336.69
540.78	56317.97
540.95	56254.78
541.12	56477.13
541.29	56371.80
541.46	56315.63
541.62	56385.85
541.79	56685.43
541.96	56245.41
542.13	56502.87
542.30	56545.00
542.47	56685.43
542.63	56589.47
542.80	56687.78
542.97	56739.27
543.14	57228.44
543.31	57102.05
543.48	57116.09
543.64	57052.90
543.81	57350.15
543.98	57289.29
544.15	57139.50
544.32	57315.04
544.48	57460.15
544.65	57097.37
544.82	57560.79
544.99	57186.31
545.16	57350.15
545.32	57256.53
545.49	57668.46
545.66	57701.23
545.83	57567.82
546.00	57577.18
546.16	57469.51
546.33	57303.34
546.50	57179.29
546.67	57659.10
546.83	57354.83
547.00	57654.42
547.17	57705.91
547.34	57757.40
547.50	57808.89
547.67	57928.26
547.84	57586.54
548.00	57836.98
548.17	58017.20
548.34	58014.86
548.51	58143.59
548.67	58075.71
548.84	57900.17
549.01	57991.45
549.18	58145.93
549.34	58010.18
549.51	58110.82
549.68	58017.20
549.84	58234.87
550.01	58305.09
550.18	57972.73
550.34	58096.78
550.51	58501.69
550.68	58401.05
550.84	58075.71
551.01	58284.02
551.18	58398.71
551.34	58197.42
551.51	58487.65
551.68	58443.18
551.84	58429.13
552.01	58621.06
552.18	58316.79
552.34	58403.39
552.51	58560.20
552.68	58506.37
552.84	58532.12
553.01	58834.05
553.18	58719.36
553.34	58740.42
553.51	58564.88
553.67	58812.98
553.84	58815.32
554.01	58738.08
554.17	58747.45
554.34	58803.62
554.51	58761.49
554.67	59241.30
554.84	58864.47
555.00	58997.88
555.17	59047.04
555.33	58883.20
555.50	58892.56
555.67	58894.90
555.83	58866.81
556.00	59009.59
556.16	59208.53
556.33	59035.33
556.50	59145.34
556.66	59409.82
556.83	58925.33
556.99	59351.30
557.16	59379.39
557.32	59330.24
557.49	59363.01
557.65	59271.73
557.82	59381.73
557.98	59414.50
558.15	59377.05
558.32	59414.50
558.48	59355.99
558.65	59377.05
558.81	59512.80
558.98	59192.15
559.14	59461.31
559.31	59475.35
559.47	59353.65
559.64	59611.10
559.80	59634.51
559.97	59695.36
560.13	59355.99
560.30	59625.15
560.46	59526.84
560.63	59480.03
560.79	59550.25
560.96	59765.58
561.12	59660.26
561.29	59732.81
561.45	59730.47
561.61	59716.43
561.78	59597.06
561.94	59716.43
562.11	59695.36
562.27	59695.36
562.44	59880.27
562.60	59908.35
562.77	59908.35
562.93	59648.55
563.10	60135.38
563.26	59835.80
563.42	60020.70
563.59	59714.09
563.75	59788.98
563.92	59833.46
564.08	59786.64
564.24	60140.07
564.41	59915.37
564.57	60006.65
564.74	60191.56
564.90	60116.66
565.07	59957.50
565.23	60151.77
565.39	60039.42
565.56	59943.46
565.72	60086.23
565.88	60250.07
566.05	59990.27
566.21	60018.36
566.38	60189.22
566.54	60060.49
566.70	60172.83
566.87	60236.03
567.03	59931.76
567.19	60441.99
567.36	60013.68
567.52	60191.56
567.68	60205.60
567.85	60495.83
568.01	60310.92
568.17	60236.03
568.34	60334.33
568.50	60095.60
568.66	60191.56
568.83	60261.77
568.99	60072.19
569.15	60378.80
569.32	60346.03
569.48	60163.47
569.64	60406.89
569.81	60320.29
569.97	60226.66
570.13	60182.19
570.30	60060.49
570.46	60470.08
570.62	60200.92
570.78	60289.86
570.95	60137.72
571.11	60608.17
571.27	60156.45
571.43	60404.55
571.60	60460.72
571.76	60425.61
571.92	60498.17
572.09	60306.24
572.25	60491.15
572.41	60544.98
572.57	60430.29
572.74	60584.77
572.90	60416.25
573.06	60509.87
573.22	60577.75
573.38	60736.90
573.55	60608.17
573.71	60807.12
573.87	60519.23
574.03	60374.12
574.20	60512.21
574.36	60498.17
574.52	60509.87
574.68	60739.24
574.84	60764.99
575.01	60673.71
575.17	60650.30
575.33	60566.04
575.49	60423.27
575.65	60608.17
575.82	60774.35
575.98	60786.05
576.14	60858.61
576.30	60727.54
576.46	60769.67
576.62	60638.60
576.79	60535.62
576.95	60561.36
577.11	60673.71
577.27	60830.52
577.43	60598.81
577.59	60786.05
577.75	60622.22
577.92	60601.15
578.08	60683.07
578.24	60601.15
578.40	60823.50
578.56	60912.44
578.72	60687.75
578.88	60647.96
579.04	60893.72
579.21	60757.97
579.37	60757.97
579.53	60779.03
579.69	60521.57
579.85	60601.15
580.01	60671.37
580.17	60566.04
580.33	60662.00
580.49	60617.53
580.65	60788.39
580.82	60680.73
580.98	60846.91
581.14	60764.99
581.30	60858.61
581.46	60788.39
581.62	60671.37
581.78	60603.49
581.94	60809.46
582.10	60659.66
582.26	60863.29
582.42	60671.37
582.58	60704.13
582.74	60755.63
582.90	60928.83
583.06	60800.10
583.22	60706.47
583.38	60889.04
583.54	60750.94
583.70	60952.23
583.86	60774.35
584.02	60860.95
584.18	60917.12
584.34	60879.67
584.50	60874.99
584.66	60708.82
584.82	60612.85
584.98	61102.03
585.14	61015.43
585.30	60713.50
585.46	61069.26
585.62	60994.36
585.78	60961.59
585.94	60575.40
586.10	60832.86
586.26	60931.17
586.42	61095.00
586.58	60867.97
586.74	60935.85
586.90	60893.72
587.06	60982.66
587.22	61151.18
587.38	60816.48
587.54	61113.73
587.70	61172.24
587.86	60783.71
588.02	61022.45
588.18	61031.81
588.34	61043.51
588.49	60954.57
