SpectraSuite Data File
++++++++++++++++++++++++++++++++++++
Date: Fri Oct 25 11:34:13 EDT 2013
User: price-jones
Dark Spectrum Present: No
Reference Spectrum Present: No
Number of Sampled Component Spectra: 1
Spectrometers: USB2+H05261
Integration Time (usec): 100000 (USB2+H05261)
Spectra Averaged: 1 (USB2+H05261)
Boxcar Smoothing: 0 (USB2+H05261)
Correct for Electrical Dark: No (USB2+H05261)
Strobe/Lamp Enabled: No (USB2+H05261)
Correct for Detector Non-linearity: No (USB2+H05261)
Correct for Stray Light: No (USB2+H05261)
Number of Pixels in Processed Spectrum: 2048
>>>>>Begin Processed Spectral Data<<<<<
365.73	269.16
365.92	269.16
366.12	269.16
366.32	191.92
366.52	175.54
366.72	177.88
366.91	170.86
367.11	182.56
367.31	175.54
367.51	128.73
367.70	142.77
367.90	217.67
368.10	154.48
368.30	131.07
368.49	184.90
368.69	191.92
368.89	208.31
369.09	166.18
369.28	231.71
369.48	224.69
369.68	243.42
369.87	294.91
370.07	196.60
370.27	292.57
370.47	339.38
370.66	486.83
370.86	535.98
371.06	547.69
371.25	519.60
371.45	589.82
371.65	458.74
371.84	554.71
372.04	517.26
372.24	620.24
372.44	669.39
372.63	606.20
372.83	580.45
373.03	653.01
373.22	620.24
373.42	653.01
373.62	613.22
373.81	678.76
374.01	589.82
374.21	653.01
374.40	653.01
374.60	681.10
374.79	678.76
374.99	713.86
375.19	622.58
375.38	650.67
375.58	636.63
375.78	688.12
375.97	702.16
376.17	723.23
376.37	657.69
376.56	727.91
376.76	608.54
376.95	638.97
377.15	645.99
377.35	690.46
377.54	624.92
377.74	641.31
377.93	601.52
378.13	732.59
378.33	734.93
378.52	692.80
378.72	702.16
378.91	676.41
379.11	737.27
379.31	741.95
379.50	655.35
379.70	727.91
379.89	730.25
380.09	641.31
380.28	772.38
380.48	784.08
380.68	706.84
380.87	814.51
381.07	748.97
381.26	772.38
381.46	755.99
381.65	725.57
381.85	777.06
382.04	805.14
382.24	739.61
382.43	777.06
382.63	662.37
382.83	779.40
383.02	784.08
383.22	788.76
383.41	741.95
383.61	746.63
383.80	798.12
384.00	763.01
384.19	856.64
384.39	716.20
384.58	795.78
384.78	802.80
384.97	828.55
385.17	798.12
385.36	772.38
385.56	739.61
385.75	777.06
385.95	833.23
386.14	842.59
386.34	858.98
386.53	849.61
386.72	826.21
386.92	912.81
387.11	898.77
387.31	947.92
387.50	889.40
387.70	847.27
387.89	828.55
388.09	873.02
388.28	784.08
388.48	898.77
388.67	837.91
388.86	933.87
389.06	882.38
389.25	952.60
389.45	889.40
389.64	880.04
389.84	987.71
390.03	968.98
390.22	983.02
390.42	936.21
390.61	1013.45
390.81	957.28
391.00	943.24
391.19	990.05
391.39	1018.13
391.58	1011.11
391.78	1001.75
391.97	1062.60
392.16	1046.22
392.36	1102.39
392.55	1076.65
392.75	968.98
392.94	1071.97
393.13	999.41
393.33	1027.50
393.52	1135.16
393.71	1062.60
393.91	1046.22
394.10	1015.79
394.29	1076.65
394.49	1022.81
394.68	1102.39
394.88	1095.37
395.07	1151.54
395.26	1086.01
395.46	1088.35
395.65	1146.86
395.84	1217.08
396.04	1345.81
396.23	1165.59
396.42	1135.16
396.62	1210.06
396.81	1259.21
397.00	1231.12
397.19	1132.82
397.39	1273.25
397.58	1200.69
397.77	1252.19
397.97	1174.95
398.16	1128.14
398.35	1245.16
398.55	1273.25
398.74	1186.65
398.93	1238.14
399.12	1018.13
399.32	1238.14
399.51	1343.47
399.70	1352.83
399.90	1380.92
400.09	1376.24
400.28	1357.51
400.47	1303.68
400.67	1406.66
400.86	1313.04
401.05	1362.19
401.24	1411.34
401.44	1467.52
401.63	1444.11
401.82	1444.11
402.01	1413.68
402.21	1416.02
402.40	1504.96
402.59	1481.56
402.78	1469.86
402.97	1437.09
403.17	1519.01
403.36	1490.92
403.55	1500.28
403.74	1568.16
403.93	1558.80
404.13	1523.69
404.32	1514.33
404.51	1542.41
404.70	1582.20
404.89	1586.88
405.09	1680.50
405.28	1703.91
405.47	1657.10
405.66	1673.48
405.85	1692.21
406.05	1746.04
406.24	1785.83
406.43	1755.40
406.62	1788.17
406.81	1827.96
407.00	1757.74
407.20	1614.97
407.39	1748.38
407.58	1837.32
407.77	1785.83
407.96	1891.15
408.15	1799.87
408.34	1736.68
408.54	1858.39
408.73	1783.49
408.92	1865.41
409.11	1933.28
409.30	1940.30
409.49	1916.90
409.68	1921.58
409.87	1956.69
410.07	1944.99
410.26	1994.14
410.45	2066.69
410.64	2085.42
410.83	2125.21
411.02	2115.84
411.21	2153.29
411.40	2038.61
411.59	2087.76
411.78	2232.87
411.98	2157.97
412.17	2204.78
412.36	2209.47
412.55	2272.66
412.74	2399.05
412.93	2251.60
413.12	2253.94
413.31	2380.32
413.50	2249.25
413.69	2338.20
413.88	2504.37
414.07	2523.10
414.26	2399.05
414.45	2438.84
414.64	2382.67
414.83	2455.22
415.02	2609.70
415.22	2600.34
415.41	2644.81
415.60	2619.06
415.79	2609.70
415.98	2761.83
416.17	2731.41
416.36	2740.77
416.55	2752.47
416.74	2733.75
416.93	2726.72
417.12	2789.92
417.31	2775.88
417.50	2766.51
417.69	2958.44
417.88	2862.48
418.07	2740.77
418.26	2839.07
418.45	3059.08
418.64	3061.42
418.83	3073.12
419.02	2881.20
419.21	2988.86
419.39	3035.67
419.58	2986.52
419.77	2956.10
419.96	3049.72
420.15	2993.55
420.34	2977.16
420.53	3138.66
420.72	3077.80
420.91	3192.49
421.10	3290.79
421.29	3162.06
421.48	3171.43
421.67	3218.24
421.86	3204.19
422.05	3148.02
422.24	3201.85
422.43	3304.84
422.61	3281.43
422.80	3356.33
422.99	3286.11
423.18	3321.22
423.37	3368.03
423.56	3328.24
423.75	3307.18
423.94	3361.01
424.13	3117.59
424.32	3323.56
424.50	3330.58
424.69	3232.28
424.88	3318.88
425.07	3253.34
425.26	3255.69
425.45	3358.67
425.64	3251.00
425.83	3279.09
426.01	3398.46
426.20	3384.41
426.39	3379.73
426.58	3435.91
426.77	3309.52
426.96	3529.53
427.15	3346.97
427.33	3445.27
427.52	3524.85
427.71	3520.17
427.90	3630.17
428.09	3552.93
428.28	3737.84
428.46	3693.37
428.65	3585.70
428.84	3768.26
429.03	3653.58
429.22	3674.64
429.40	3585.70
429.59	3794.01
429.78	3531.87
429.97	3646.55
430.16	3630.17
430.34	3693.37
430.53	3796.35
430.72	3719.11
430.91	3833.80
431.10	3796.35
431.28	3850.18
431.47	3934.44
431.66	3976.57
431.85	3871.25
432.03	4002.32
432.22	3997.64
432.41	3941.46
432.60	3904.01
432.79	3976.57
432.97	3997.64
433.16	3992.95
433.35	4023.38
433.54	4074.87
433.72	4011.68
433.91	3985.93
434.10	3981.25
434.28	3969.55
434.47	4119.34
434.66	4147.43
434.85	4184.88
435.03	4084.23
435.22	4051.47
435.41	4292.54
435.59	4353.40
435.78	4299.56
435.97	4250.41
436.16	4276.16
436.34	4173.18
436.53	4273.82
436.72	4454.04
436.90	4535.96
437.09	4479.79
437.28	4329.99
437.46	4341.69
437.65	4404.89
437.84	4559.36
438.02	4582.77
438.21	4423.61
438.40	4489.15
438.58	4660.01
438.77	4674.05
438.96	4669.37
439.14	4706.82
439.33	4814.48
439.52	4685.75
439.70	4760.65
439.89	5022.79
440.08	4908.10
440.26	4823.84
440.45	4882.36
440.63	4987.68
440.82	5048.54
441.01	4903.42
441.19	5252.16
441.38	5135.14
441.57	5046.20
441.75	5107.05
441.94	5341.10
442.12	5317.70
442.31	5362.17
442.50	5366.85
442.68	5198.33
442.87	5275.57
443.05	5451.11
443.24	5411.32
443.43	5357.49
443.61	5263.86
443.80	5544.73
443.98	5247.48
444.17	5334.08
444.35	5420.68
444.54	5476.85
444.73	5579.84
444.91	5640.69
445.10	5551.75
445.28	5713.25
445.47	5612.60
445.65	5582.18
445.84	5600.90
446.02	5486.22
446.21	5572.82
446.39	5507.28
446.58	5722.61
446.77	5643.03
446.95	5397.28
447.14	5575.16
447.32	5600.90
447.51	5462.81
447.69	5645.37
447.88	5584.52
448.06	5678.14
448.25	5418.34
448.43	5657.07
448.62	5710.91
448.80	5619.63
448.99	5558.77
449.17	5811.55
449.36	5727.29
449.54	5785.80
449.73	5781.12
449.91	6054.97
450.10	5966.03
450.28	5902.83
450.46	6050.28
450.65	5940.28
450.83	6022.20
451.02	5844.32
451.20	6087.73
451.39	6090.07
451.57	6069.01
451.76	6036.24
451.94	6033.90
452.13	6218.80
452.31	6183.70
452.49	6012.84
452.68	5991.77
452.86	6078.37
453.05	6270.30
453.23	6204.76
453.42	6085.39
453.60	6132.20
453.78	6483.28
453.97	6022.20
454.15	6303.06
454.34	6115.82
454.52	6384.98
454.70	6408.39
454.89	6427.11
455.07	6480.94
455.26	6429.45
455.44	6518.39
455.62	6326.47
455.81	6541.80
455.99	6609.67
456.17	6691.59
456.36	6560.52
456.54	6668.19
456.73	6789.89
456.91	6981.82
457.09	6939.69
457.28	6960.75
457.46	6651.80
457.64	6925.65
457.83	6981.82
458.01	6916.28
458.19	7056.72
458.38	6977.14
458.56	7103.53
458.74	6993.52
458.93	7145.66
459.11	7023.95
459.29	7028.63
459.48	6890.54
459.66	7112.89
459.84	7117.57
460.03	7194.81
460.21	7290.77
460.39	7171.40
460.57	7225.23
460.76	7171.40
460.94	7190.13
461.12	7370.35
461.31	7316.51
461.49	7400.77
461.67	7265.02
461.85	7353.96
462.04	7262.68
462.22	7859.52
462.40	7538.87
462.59	7562.27
462.77	7501.42
462.95	7698.02
463.13	7571.63
463.32	7499.08
463.50	7726.11
463.68	7679.30
463.86	7698.02
464.05	7632.49
464.23	7658.23
464.41	7655.89
464.59	7475.67
464.78	7950.80
464.96	7789.30
465.14	7747.17
465.32	7796.32
465.50	8067.83
465.69	7850.16
465.87	8131.02
466.05	7873.56
466.23	7969.52
466.41	7953.14
466.60	8175.49
466.78	7943.78
466.96	8018.68
467.14	7871.22
467.32	8131.02
467.51	8013.99
467.69	7763.56
467.87	8070.17
468.05	8194.22
468.23	8168.47
468.41	7997.61
468.60	8374.44
468.78	8257.41
468.96	8311.24
469.14	8208.26
469.32	8472.74
469.50	8294.86
469.69	8517.21
469.87	8564.02
470.05	8456.36
470.23	8617.85
470.41	8465.72
470.59	8671.68
470.77	8629.56
470.95	8585.08
471.14	8777.01
471.32	8596.79
471.50	8765.31
471.68	8870.63
471.86	8929.14
472.04	8903.40
472.22	9090.64
472.40	8788.71
472.58	8917.44
472.77	9085.96
472.95	9242.78
473.13	9312.99
473.31	9001.70
473.49	9233.41
473.67	8992.34
473.85	9387.89
474.03	9521.30
474.21	9502.58
474.39	9577.47
474.57	9685.14
474.75	9692.16
474.93	9865.36
475.12	9706.20
475.30	9846.63
475.48	9753.01
475.66	9860.68
475.84	9743.65
476.02	9715.56
476.20	9902.81
476.38	10064.30
476.56	10487.94
476.74	10256.23
476.92	10190.69
477.10	10200.05
477.28	10380.28
477.46	10331.12
477.64	10518.37
477.82	10619.01
478.00	10864.77
478.18	11037.97
478.36	10883.49
478.54	11304.79
478.72	11014.56
478.90	11332.87
479.08	11316.49
479.26	11325.85
479.44	11101.16
479.62	11276.70
479.80	11639.48
479.98	11566.93
480.16	12049.08
480.34	11875.88
480.52	11838.43
480.70	12053.76
480.88	11707.36
481.06	12020.99
481.24	11894.60
481.41	12028.01
481.59	12287.81
481.77	12428.24
481.95	12528.89
482.13	12774.64
482.31	12744.22
482.49	12912.74
482.67	12793.37
482.85	12943.16
483.03	13254.45
483.21	13589.15
483.39	13401.91
483.57	13451.06
483.74	13408.93
483.92	13598.51
484.10	13621.92
484.28	13874.70
484.46	13973.00
484.64	14303.01
484.82	14068.96
485.00	14164.92
485.18	14569.83
485.35	14654.09
485.53	14684.52
485.71	14843.68
485.89	14878.79
486.07	15103.48
486.25	15108.16
486.43	15229.87
486.61	15227.53
486.78	15658.18
486.96	15534.14
487.14	15475.62
487.32	15618.39
487.50	15852.45
487.68	16004.58
487.85	16187.14
488.03	16542.91
488.21	16409.50
488.39	16397.79
488.57	16608.44
488.75	16800.37
488.92	17132.72
489.10	16884.62
489.28	16982.93
489.46	17034.42
489.64	17146.76
489.81	17736.58
489.99	17621.89
490.17	17940.21
490.35	18108.72
490.53	17895.74
490.70	18242.14
490.88	17944.89
491.06	18670.45
491.24	18331.08
491.41	18415.34
491.59	18677.48
491.77	18595.56
491.95	18932.59
492.13	19070.68
492.30	19262.61
492.48	19222.82
492.66	19152.60
492.84	19269.63
493.01	19527.09
493.19	19723.69
493.37	19807.95
493.54	19903.92
493.72	20280.74
493.90	19782.21
494.08	20264.36
494.25	20297.13
494.43	20292.44
494.61	20580.33
494.79	20503.09
494.96	20802.68
495.14	20608.42
495.32	21092.91
495.49	20945.45
495.67	21371.43
495.85	21497.82
496.02	21479.10
496.20	21539.95
496.38	21745.92
496.55	21610.17
496.73	22122.74
496.91	22111.04
497.09	22061.89
497.26	22574.47
497.44	22251.47
497.62	22588.51
497.79	22778.09
497.97	22787.46
498.14	22899.80
498.32	23056.62
498.50	23243.86
498.67	23358.55
498.85	23307.05
499.03	23545.79
499.20	23103.43
499.38	23529.41
499.56	23983.47
499.73	24041.98
499.91	23889.85
500.08	24006.87
500.26	23901.55
500.44	23943.68
500.61	24194.12
500.79	24430.51
500.97	24203.48
501.14	24718.40
501.32	24622.44
501.49	24402.43
501.67	24247.95
501.84	24964.15
502.02	24652.86
502.20	24629.46
502.37	24943.09
502.55	25123.31
502.72	25151.40
502.90	25132.67
503.07	25064.80
503.25	25230.98
503.43	25394.81
503.60	25752.91
503.78	25846.54
503.95	25558.65
504.13	25663.97
504.30	25905.05
504.48	25928.45
504.65	26321.66
504.83	26354.43
505.01	26380.18
505.18	26373.16
505.36	26436.35
505.53	26590.83
505.71	26263.15
505.88	26801.47
506.06	26600.19
506.23	27136.17
506.41	26703.17
506.58	27035.53
506.76	27089.36
506.93	27384.27
507.11	27133.83
507.28	27388.95
507.46	27225.11
507.63	27246.18
507.81	27550.45
507.98	27503.64
508.16	27615.98
508.33	27803.22
508.50	28196.43
508.68	28109.83
508.85	27964.72
509.03	27915.57
509.20	28095.79
509.38	28112.17
509.55	28491.34
509.73	28355.59
509.90	28704.33
510.08	28559.22
510.25	28657.52
510.42	29001.58
510.60	29226.27
510.77	29106.90
510.95	28978.17
511.12	29340.96
511.30	28863.49
511.47	29317.55
511.64	29284.78
511.82	29294.14
511.99	29237.97
512.17	29757.57
512.34	29387.77
512.51	29755.23
512.69	29972.90
512.86	30171.85
513.04	30026.73
513.21	30185.89
513.38	30183.55
513.56	30043.12
513.73	30185.89
513.90	30518.25
514.08	30478.46
514.25	30473.78
514.43	30359.09
514.60	30787.41
514.77	30731.23
514.95	30644.63
515.12	30815.49
515.29	30829.54
515.47	31421.69
515.64	31463.82
515.81	30862.30
515.99	31168.91
516.16	31620.64
516.33	31339.77
516.51	31440.42
516.68	31732.98
516.85	31393.61
517.03	31442.76
517.20	31658.09
517.37	31620.64
517.54	31852.35
517.72	32137.90
517.89	32100.45
518.06	32208.11
518.24	32196.41
518.41	32350.88
518.58	32226.84
518.75	31793.84
518.93	32449.19
519.10	32320.46
519.27	32638.77
519.45	32596.64
519.62	32739.41
519.79	32610.68
519.96	32849.42
520.14	32622.39
520.31	32575.58
520.48	32830.69
520.65	33060.07
520.83	33259.01
521.00	33324.55
521.17	33837.12
521.34	33507.11
521.52	33734.14
521.69	33177.09
521.86	33635.84
522.03	33397.10
522.20	33914.36
522.38	34066.50
522.55	34274.80
522.72	34115.65
522.89	34127.35
523.07	34506.52
523.24	34026.71
523.41	34588.44
523.58	34377.79
523.75	34920.79
523.92	34192.89
524.10	34937.18
524.27	34323.96
524.44	34789.72
524.61	34586.10
524.78	34986.33
524.96	34820.15
525.13	35119.74
525.30	35168.89
525.47	35407.62
525.64	35262.51
525.81	35229.74
525.98	34876.32
526.16	35138.46
526.33	35419.33
526.50	35622.95
526.67	35381.88
526.84	35424.01
527.01	35768.07
527.18	35594.87
527.36	35885.09
527.53	36105.10
527.70	36238.51
527.87	36355.54
528.04	35978.72
528.21	36350.86
528.38	36016.16
528.55	36568.53
528.72	35990.42
528.89	36079.36
529.07	36222.13
529.24	35978.72
529.41	36414.05
529.58	36392.99
529.75	35981.06
529.92	36744.07
530.09	36629.38
530.26	36844.71
530.43	36350.86
530.60	36556.83
530.77	36842.37
530.94	36769.82
531.11	37172.39
531.28	36690.24
531.46	37095.15
531.63	37130.26
531.80	37001.53
531.97	37256.65
532.14	37235.58
532.31	37436.87
532.48	37647.52
532.65	37539.85
532.82	37291.76
532.99	37633.47
533.16	37556.24
533.33	37640.50
533.50	37818.38
533.67	38136.69
533.84	37200.47
534.01	37926.04
534.18	37680.28
534.35	38059.45
534.52	37654.54
534.69	38864.60
534.86	38068.81
535.03	38267.76
535.20	38321.59
535.37	37996.26
535.54	38452.66
535.71	38469.04
535.88	38373.08
536.05	38274.78
536.22	39021.41
536.38	38689.06
536.55	38686.71
536.72	38581.39
536.89	38220.95
537.06	38141.37
537.23	39124.40
537.40	38431.60
537.57	38029.02
537.74	38466.70
537.91	39611.23
538.08	38838.85
538.25	38679.69
538.42	39124.40
538.59	39524.63
538.75	39433.35
538.92	39578.46
539.09	39454.41
539.26	39501.22
539.43	39456.75
539.60	39761.02
539.77	39075.24
539.94	39473.13
540.11	39821.87
540.28	39592.50
540.44	39966.99
540.61	39730.59
540.78	39749.32
540.95	40006.78
541.12	39779.74
541.29	39660.38
541.46	39625.27
541.62	40025.50
541.79	39789.11
541.96	39669.74
542.13	39321.00
542.30	40074.65
542.47	40062.95
542.63	40179.98
542.80	40762.77
542.97	40886.82
543.14	40753.41
543.31	40341.47
543.48	40444.46
543.64	41368.97
543.81	40680.85
543.98	40463.18
544.15	40648.08
544.32	40795.54
544.48	41436.84
544.65	41308.11
544.82	41132.57
544.99	40872.78
545.16	41284.71
545.32	41179.39
545.49	41493.02
545.66	41666.22
545.83	41329.18
546.00	41572.60
546.16	41214.49
546.33	41284.71
546.50	40973.42
546.67	41340.88
546.83	41460.25
547.00	41209.81
547.17	41504.72
547.34	41727.07
547.50	42108.58
547.67	41996.23
547.84	41701.32
548.00	41923.68
548.17	42010.28
548.34	42211.56
548.51	42209.22
548.67	42267.73
548.84	42117.94
549.01	42071.13
549.18	42094.53
549.34	42197.52
549.51	42670.31
549.68	42649.24
549.84	42293.48
550.01	42674.99
550.18	41900.27
550.34	42103.90
550.51	42674.99
550.68	42445.62
550.84	42457.32
551.01	42574.34
551.18	42412.85
551.34	42490.09
551.51	42780.31
551.68	42810.74
551.84	42745.20
552.01	42548.60
552.18	42649.24
552.34	42464.34
552.51	43306.93
552.68	42799.04
552.84	43002.66
553.01	43133.73
553.18	43157.14
553.34	43255.44
553.51	43129.05
553.67	43061.18
553.84	43299.91
554.01	43192.25
554.17	42911.38
554.34	43536.30
554.51	43386.51
554.67	43665.03
554.84	43536.30
555.00	43377.15
555.17	43433.32
555.33	43650.99
555.50	43571.41
555.67	43377.15
555.83	43147.78
556.00	43634.61
556.16	43866.32
556.33	44100.37
556.50	43732.91
556.66	43363.11
556.83	43398.21
556.99	43732.91
557.16	43899.09
557.32	43863.98
557.49	44208.04
557.65	43587.80
557.82	43744.61
557.98	43882.70
558.15	43887.39
558.32	44126.12
558.48	43908.45
558.65	43941.22
558.81	44549.76
558.98	43863.98
559.14	43648.65
559.31	44196.34
559.47	43917.81
559.64	44219.74
559.80	44435.07
559.97	44575.50
560.13	44107.40
560.30	44587.21
560.46	44182.29
560.63	44655.08
560.79	44823.60
560.96	44720.62
561.12	44123.78
561.29	44201.02
561.45	44612.95
561.61	44332.09
561.78	43753.97
561.94	44371.88
562.11	44109.74
562.27	44624.65
562.44	44779.13
562.60	44959.35
562.77	44521.67
562.93	44767.43
563.10	44666.78
563.26	44687.85
563.42	45078.72
563.59	44402.30
563.75	44975.73
563.92	44701.89
564.08	44828.28
564.24	45043.61
564.41	44748.70
564.57	44465.50
564.74	44507.63
564.90	44795.51
565.07	44889.13
565.23	44839.98
565.39	45057.65
565.56	45118.51
565.72	44818.92
565.88	44814.24
566.05	44786.15
566.21	45123.19
566.38	44844.66
566.54	44982.76
566.70	45303.41
566.87	44870.41
567.03	44931.26
567.19	45659.17
567.36	45382.99
567.52	44772.11
567.68	45474.27
567.85	45165.32
568.01	45013.18
568.17	45280.00
568.34	45345.54
568.50	45401.71
568.66	45207.45
568.83	45212.13
568.99	45813.65
569.15	45244.90
569.32	45422.78
569.48	45696.62
569.64	45544.48
569.81	45385.33
569.97	45268.30
570.13	45352.56
570.30	45071.70
570.46	45654.49
570.62	45418.10
570.78	45464.91
570.95	45375.97
571.11	45837.05
571.27	45249.58
571.43	45268.30
571.60	45240.21
571.76	45230.85
571.92	45099.78
572.09	45598.32
572.25	45539.80
572.41	45385.33
572.57	45366.60
572.74	45642.79
572.90	45509.38
573.06	45839.39
573.22	45640.45
573.38	46295.80
573.55	45656.83
573.71	46075.79
573.87	45542.14
574.03	45820.67
574.20	46176.43
574.36	45815.99
574.52	45886.20
574.68	45544.48
574.84	45736.41
575.01	45853.44
575.17	45794.92
575.33	45867.48
575.49	45794.92
575.65	45853.44
575.82	45855.78
575.98	45315.11
576.14	45780.88
576.30	45818.33
576.46	45649.81
576.62	45546.82
576.79	45989.19
576.95	45008.50
577.11	45652.15
577.27	45610.02
577.43	45970.46
577.59	45890.88
577.75	45951.74
577.92	45584.27
578.08	45794.92
578.24	46038.34
578.40	45975.14
578.56	45977.48
578.72	45935.35
578.88	46256.01
579.04	45542.14
579.21	45680.24
579.37	46106.21
579.53	46131.96
579.69	45757.47
579.85	45841.73
580.01	45895.56
580.17	45687.26
580.33	45921.31
580.49	46080.47
580.65	46059.40
580.82	46174.09
580.98	46225.58
581.14	46078.13
581.30	45738.75
581.46	46096.85
581.62	46110.89
581.78	45888.54
581.94	46010.25
582.10	45890.88
582.26	46005.57
582.42	46026.63
582.58	45813.65
582.74	45869.82
582.90	46225.58
583.06	46405.80
583.22	45797.26
583.38	46153.02
583.54	46047.70
583.70	46068.76
583.86	46232.60
584.02	45755.13
584.18	46366.01
584.34	45727.05
584.50	46120.26
584.66	46089.83
584.82	45872.16
584.98	46906.68
585.14	46031.32
585.30	45961.10
585.46	46239.62
585.62	46080.47
585.78	46195.15
585.94	45759.81
586.10	46356.65
586.26	46021.95
586.42	46110.89
586.58	46136.64
586.74	46288.77
586.90	45933.01
587.06	46143.66
587.22	46075.79
587.38	45954.08
587.54	45815.99
587.70	46412.82
587.86	46665.60
588.02	45818.33
588.18	46195.15
588.34	46127.28
588.49	46314.52
588.65	45876.84
588.81	46230.26
588.97	46396.44
589.13	46293.46
589.29	46363.67
589.45	46569.64
589.61	46382.40
589.77	46532.19
589.93	46134.30
590.08	46511.13
