SpectraSuite Data File
++++++++++++++++++++++++++++++++++++
Date: Fri Oct 25 10:44:45 EDT 2013
User: price-jones
Dark Spectrum Present: No
Reference Spectrum Present: No
Number of Sampled Component Spectra: 1
Spectrometers: USB2+H05261
Integration Time (usec): 100000 (USB2+H05261)
Spectra Averaged: 1 (USB2+H05261)
Boxcar Smoothing: 0 (USB2+H05261)
Correct for Electrical Dark: No (USB2+H05261)
Strobe/Lamp Enabled: No (USB2+H05261)
Correct for Detector Non-linearity: No (USB2+H05261)
Correct for Stray Light: No (USB2+H05261)
Number of Pixels in Processed Spectrum: 2048
>>>>>Begin Processed Spectral Data<<<<<
365.73	65.54
365.92	65.54
366.12	65.54
366.32	0.00
366.52	42.13
366.72	70.22
366.91	21.06
367.11	58.51
367.31	0.00
367.51	35.11
367.70	39.79
367.90	65.54
368.10	0.00
368.30	28.09
368.49	42.13
368.69	56.17
368.89	18.72
369.09	0.00
369.28	44.47
369.48	58.51
369.68	56.17
369.87	131.07
370.07	131.07
370.27	117.03
370.47	161.50
370.66	423.64
370.86	362.78
371.06	444.70
371.25	440.02
371.45	404.91
371.65	451.72
371.84	367.46
372.04	430.66
372.24	395.55
372.44	489.17
372.63	521.94
372.83	524.28
373.03	486.83
373.22	535.98
373.42	477.47
373.62	491.51
373.81	564.07
374.01	507.90
374.21	468.11
374.40	486.83
374.60	557.05
374.79	477.47
374.99	552.37
375.19	554.71
375.38	493.85
375.58	514.92
375.78	566.41
375.97	608.54
376.17	643.65
376.37	624.92
376.56	552.37
376.76	629.60
376.95	535.98
377.15	540.66
377.35	552.37
377.54	587.47
377.74	620.24
377.93	559.39
378.13	629.60
378.33	561.73
378.52	599.18
378.72	641.31
378.91	610.88
379.11	545.34
379.31	620.24
379.50	568.75
379.70	629.60
379.89	671.73
380.09	676.41
380.28	585.13
380.48	564.07
380.68	620.24
380.87	606.20
381.07	645.99
381.26	702.16
381.46	645.99
381.65	709.18
381.85	660.03
382.04	671.73
382.24	681.10
382.43	720.88
382.63	709.18
382.83	674.07
383.02	699.82
383.22	669.39
383.41	739.61
383.61	688.12
383.80	744.29
384.00	746.63
384.19	744.29
384.39	807.48
384.58	781.74
384.78	786.42
384.97	847.27
385.17	793.44
385.36	774.72
385.56	741.95
385.75	699.82
385.95	746.63
386.14	791.10
386.34	723.23
386.53	732.59
386.72	795.78
386.92	809.83
387.11	837.91
387.31	809.83
387.50	861.32
387.70	844.93
387.89	840.25
388.09	814.51
388.28	781.74
388.48	823.87
388.67	821.53
388.86	873.02
389.06	875.36
389.25	947.92
389.45	936.21
389.64	954.94
389.84	901.11
390.03	1004.09
390.22	964.30
390.42	957.28
390.61	954.94
390.81	959.62
391.00	976.00
391.19	1034.52
391.39	950.26
391.58	978.34
391.78	938.55
391.97	990.05
392.16	924.51
392.36	1008.77
392.55	978.34
392.75	971.32
392.94	1022.81
393.13	973.66
393.33	901.11
393.52	1013.45
393.71	1018.13
393.91	1071.97
394.10	973.66
394.29	1062.60
394.49	1057.92
394.68	1081.33
394.88	1144.52
395.07	1100.05
395.26	1032.18
395.46	1151.54
395.65	1111.75
395.84	1163.25
396.04	1233.46
396.23	1025.15
396.42	1116.44
396.62	1111.75
396.81	1121.12
397.00	1193.67
397.19	1299.00
397.39	1165.59
397.58	1200.69
397.77	1299.00
397.97	1273.25
398.16	1315.38
398.35	1322.40
398.55	1322.40
398.74	1387.94
398.93	1277.93
399.12	1273.25
399.32	1317.72
399.51	1373.89
399.70	1385.60
399.90	1369.21
400.09	1390.28
400.28	1437.09
400.47	1345.81
400.67	1528.37
400.86	1404.32
401.05	1488.58
401.24	1486.24
401.44	1519.01
401.63	1537.73
401.82	1530.71
402.01	1425.39
402.21	1631.35
402.40	1533.05
402.59	1495.60
402.78	1479.22
402.97	1570.50
403.17	1631.35
403.36	1558.80
403.55	1680.50
403.74	1638.38
403.93	1732.00
404.13	1600.93
404.32	1607.95
404.51	1633.69
404.70	1680.50
404.89	1666.46
405.09	1769.44
405.28	1715.61
405.47	1757.74
405.66	1785.83
405.85	1755.40
406.05	1760.08
406.24	1820.94
406.43	1837.32
406.62	1961.37
406.81	1888.81
407.00	1895.83
407.20	1837.32
407.39	1877.11
407.58	1912.22
407.77	1973.07
407.96	1991.80
408.15	1984.77
408.34	1930.94
408.54	2066.69
408.73	2022.22
408.92	2045.63
409.11	2139.25
409.30	2120.53
409.49	2085.42
409.68	2134.57
409.87	2017.54
410.07	2207.13
410.26	2031.58
410.45	2223.51
410.64	2062.01
410.83	2275.00
411.02	2300.75
411.21	2228.19
411.40	2307.77
411.59	2317.13
411.78	2279.68
411.98	2349.90
412.17	2303.09
412.36	2466.92
412.55	2434.16
412.74	2394.37
412.93	2466.92
413.12	2387.35
413.31	2593.31
413.50	2609.70
413.69	2551.18
413.88	2649.49
414.07	2654.17
414.26	2619.06
414.45	2637.78
414.64	2626.08
414.83	2745.45
415.02	2696.30
415.22	2745.45
415.41	2764.17
415.60	2738.43
415.79	2813.32
415.98	3023.97
416.17	2937.37
416.36	2986.52
416.55	2892.90
416.74	3063.76
416.93	2920.99
417.12	2998.23
417.31	2928.01
417.50	2988.86
417.69	3272.07
417.88	3194.83
418.07	3049.72
418.26	3138.66
418.45	3166.74
418.64	3293.13
418.83	3206.53
419.02	3286.11
419.21	3281.43
419.39	3370.37
419.58	3225.26
419.77	3157.38
419.96	3279.09
420.15	3297.81
420.34	3314.20
420.53	3473.36
420.72	3431.23
420.91	3456.97
421.10	3447.61
421.29	3552.93
421.48	3447.61
421.67	3489.74
421.86	3403.14
422.05	3442.93
422.24	3515.48
422.43	3426.54
422.61	3520.17
422.80	3527.19
422.99	3487.40
423.18	3548.25
423.37	3653.58
423.56	3658.26
423.75	3620.81
423.94	3536.55
424.13	3344.63
424.32	3426.54
424.50	3609.11
424.69	3655.92
424.88	3630.17
425.07	3538.89
425.26	3459.31
425.45	3581.02
425.64	3440.59
425.83	3435.91
426.01	3705.07
426.20	3810.39
426.39	3611.45
426.58	3651.24
426.77	3548.25
426.96	3770.60
427.15	3662.94
427.33	3749.54
427.52	3805.71
427.71	3749.54
427.90	3758.90
428.09	3801.03
428.28	3819.75
428.46	3960.19
428.65	3782.31
428.84	3997.64
429.03	3798.69
429.22	3686.34
429.40	3889.97
429.59	3939.12
429.78	3728.47
429.97	3747.20
430.16	3709.75
430.34	3866.56
430.53	3953.16
430.72	3885.29
430.91	3873.59
431.10	3955.51
431.28	4049.13
431.47	4238.71
431.66	4236.37
431.85	4182.54
432.03	4081.89
432.22	4360.42
432.41	4051.47
432.60	4224.67
432.79	4315.95
432.97	4318.29
433.16	4379.14
433.35	4299.56
433.54	4201.26
433.72	4430.63
433.91	4461.06
434.10	4425.95
434.28	4376.80
434.47	4550.00
434.66	4510.21
434.85	4557.02
435.03	4585.11
435.22	4554.68
435.41	4685.75
435.59	4599.15
435.78	4723.20
435.97	4739.58
436.16	4578.09
436.34	4580.43
436.53	4652.98
436.72	4856.61
436.90	4636.60
437.09	4770.01
437.28	4730.22
437.46	4760.65
437.65	4748.95
437.84	4772.35
438.02	4777.03
438.21	4863.63
438.40	4767.67
438.58	4929.17
438.77	4959.60
438.96	4826.18
439.14	5001.72
439.33	5186.63
439.52	5102.37
439.70	5111.73
439.89	5179.61
440.08	5345.78
440.26	5188.97
440.45	5125.77
440.63	5273.23
440.82	5287.27
441.01	5359.83
441.19	5467.49
441.38	5607.92
441.57	5617.29
441.75	5715.59
441.94	5565.79
442.12	5863.04
442.31	5748.36
442.50	5795.17
442.68	5738.99
442.87	5694.52
443.05	5914.53
443.24	5844.32
443.43	5802.19
443.61	5949.64
443.80	6024.54
443.98	5879.43
444.17	5598.56
444.35	5895.81
444.54	6026.88
444.73	6038.58
444.91	5830.27
445.10	5987.09
445.28	5841.98
445.47	5879.43
445.65	5806.87
445.84	5996.45
446.02	5886.45
446.21	6012.84
446.39	5895.81
446.58	6057.31
446.77	6097.10
446.95	5809.21
447.14	5975.39
447.32	6069.01
447.51	6134.54
447.69	5940.28
447.88	6129.86
448.06	6066.67
448.25	6094.76
448.43	6106.46
448.62	6076.03
448.80	6050.28
448.99	6094.76
449.17	6232.85
449.36	6122.84
449.54	6253.91
449.73	6546.48
449.91	6576.91
450.10	6534.78
450.28	6642.44
450.46	6595.63
450.65	6518.39
450.83	6480.94
451.02	6314.77
451.20	6604.99
451.39	6581.59
451.57	6478.60
451.76	6579.25
451.94	6473.92
452.13	6651.80
452.31	6691.59
452.49	6698.61
452.68	6621.38
452.86	6583.93
453.05	6696.27
453.23	6628.40
453.42	6677.55
453.60	6541.80
453.78	6801.60
453.97	6686.91
454.15	6703.29
454.34	6785.21
454.52	6827.34
454.70	6731.38
454.89	6766.49
455.07	6913.94
455.26	7016.93
455.44	7005.22
455.62	6981.82
455.81	7173.74
455.99	6902.24
456.17	6930.33
456.36	7211.19
456.54	7255.66
456.73	7183.10
456.91	7328.22
457.09	7407.80
457.28	7485.03
457.46	7267.36
457.64	7431.20
457.83	7396.09
458.01	7283.75
458.19	7613.76
458.38	7424.18
458.56	7524.82
458.74	7250.98
458.93	7559.93
459.11	7606.74
459.29	7480.35
459.48	7679.30
459.66	7655.89
459.84	7492.05
460.03	7793.98
460.21	7822.07
460.39	7836.11
460.57	7861.86
460.76	7686.32
460.94	7812.71
461.12	8018.68
461.31	7915.69
461.49	7803.35
461.67	7927.39
461.85	8016.33
462.04	7903.99
462.22	8203.58
462.40	8210.60
462.59	8100.59
462.77	7962.50
462.95	8414.23
463.13	8021.02
463.32	8112.30
463.50	8210.60
463.68	8248.05
463.86	8198.90
464.05	8217.62
464.23	8245.71
464.41	8205.92
464.59	8180.17
464.78	8531.25
464.96	8320.60
465.14	8355.71
465.32	8369.76
465.50	8505.51
465.69	8477.42
465.87	8339.33
466.05	8435.29
466.23	8435.29
466.41	8503.17
466.60	8624.87
466.78	8514.87
466.96	8613.17
467.14	8641.26
467.32	8568.70
467.51	8582.74
467.69	8564.02
467.87	8620.19
468.05	8608.49
468.23	8678.71
468.41	8594.45
468.60	8606.15
468.78	8919.78
468.96	8940.85
469.14	8950.21
469.32	9060.21
469.50	8636.58
469.69	9069.58
469.87	9132.77
470.05	9039.15
470.23	9057.87
470.41	9174.90
470.59	9055.53
470.77	9259.16
470.95	9226.39
471.14	9191.28
471.32	9205.33
471.50	9418.32
471.68	9282.56
471.86	9394.91
472.04	9488.53
472.22	9703.86
472.40	9280.22
472.58	9535.34
472.77	9458.10
472.95	9631.30
473.13	9989.41
473.31	9724.93
473.49	9694.50
473.67	9874.72
473.85	9671.09
474.03	9956.64
474.21	10167.29
474.39	10169.63
474.57	9888.76
474.75	10228.14
474.93	10303.04
475.12	10202.40
475.30	10459.85
475.48	10104.09
475.66	10352.19
475.84	10611.99
476.02	10476.24
476.20	10551.14
476.38	10644.76
476.56	10984.13
476.74	10782.85
476.92	11103.50
477.10	10946.69
477.28	11073.07
477.46	11140.95
477.64	11445.22
477.82	11433.52
478.00	11447.56
478.18	11330.53
478.36	11606.72
478.54	11627.78
478.72	11644.17
478.90	11712.04
479.08	12011.63
479.26	11995.25
479.44	12081.85
479.62	12166.10
479.80	12133.34
479.98	12416.54
480.16	12594.42
480.34	12512.50
480.52	12666.98
480.70	12926.78
480.88	12479.74
481.06	12561.66
481.24	13008.70
481.41	13123.38
481.59	13420.63
481.77	13310.63
481.95	13371.48
482.13	13483.83
482.31	13263.82
482.49	13664.05
482.67	13586.81
482.85	13989.38
483.03	14122.79
483.21	14134.50
483.39	14085.34
483.57	13928.53
483.74	14066.62
483.92	14436.42
484.10	14520.68
484.28	14764.10
484.46	14696.22
484.64	15035.60
484.82	15283.70
485.00	15314.13
485.18	15281.36
485.35	14822.61
485.53	15171.35
485.71	15255.61
485.89	15506.05
486.07	15620.74
486.25	15625.42
486.43	15445.20
486.61	16030.33
486.78	16046.71
486.96	16304.17
487.14	16327.58
487.32	16430.56
487.50	16702.06
487.68	16566.31
487.85	17029.74
488.03	17198.26
488.21	17067.19
488.39	17418.27
488.57	17181.87
488.75	17418.27
488.92	17458.06
489.10	18099.36
489.28	17785.73
489.46	18242.14
489.64	18211.71
489.81	18675.13
489.99	18773.44
490.17	18799.18
490.35	18803.86
490.53	18621.30
490.70	18789.82
490.88	18867.06
491.06	19201.76
491.24	19468.58
491.41	19314.10
491.59	19396.02
491.77	19211.12
491.95	19639.44
492.13	19637.09
492.30	20198.82
492.48	20013.92
492.66	20350.96
492.84	20201.16
493.01	20577.99
493.19	20350.96
493.37	20599.05
493.54	20526.50
493.72	20716.08
493.90	21060.14
494.08	21174.83
494.25	21509.52
494.43	21366.75
494.61	21708.47
494.79	21656.98
494.96	21893.37
495.14	21893.37
495.32	22174.24
495.49	22221.05
495.67	22225.73
495.85	22288.92
496.02	22651.70
496.20	22567.45
496.38	22553.40
496.55	22892.78
496.73	23262.58
496.91	23082.36
497.09	23173.64
497.26	23318.76
497.44	22955.97
497.62	23241.52
497.79	23873.46
497.97	23503.66
498.14	23754.10
498.32	24027.94
498.50	23754.10
498.67	24086.45
498.85	24182.42
499.03	24437.53
499.20	24151.99
499.38	24849.47
499.56	24526.47
499.73	24795.64
499.91	25020.33
500.08	24847.13
500.26	24489.03
500.44	25062.46
500.61	25174.80
500.79	24863.51
500.97	24996.92
501.14	25537.59
501.32	25441.62
501.49	25226.29
501.67	25387.79
501.84	25893.35
502.02	25991.65
502.20	26047.82
502.37	26061.87
502.55	26214.00
502.72	26342.73
502.90	26223.36
503.07	26256.13
503.25	26237.41
503.43	26141.44
503.60	26167.19
503.78	26398.90
503.95	26214.00
504.13	26190.59
504.30	26904.46
504.48	26759.34
504.65	27101.06
504.83	27349.16
505.01	27328.10
505.18	26979.36
505.36	27316.39
505.53	27442.78
505.71	27889.82
505.88	27831.31
506.06	27669.81
506.23	27351.50
506.41	27800.88
506.58	27819.61
506.76	27550.45
506.93	27866.42
507.11	27892.16
507.28	28109.83
507.46	27814.93
507.63	28093.45
507.81	28526.45
507.98	28327.50
508.16	28112.17
508.33	28980.51
508.50	28547.51
508.68	28746.46
508.85	29172.44
509.03	29034.35
509.20	29322.23
509.38	29324.57
509.55	29280.10
509.73	29198.18
509.90	29532.88
510.08	29441.60
510.25	29610.12
510.42	29970.56
510.60	29532.88
510.77	30019.71
510.95	29628.84
511.12	29879.28
511.30	29942.47
511.47	30321.64
511.64	30335.68
511.82	30192.91
511.99	30288.87
512.17	30321.64
512.34	30087.59
512.51	30630.59
512.69	31175.94
512.86	30850.60
513.04	30831.88
513.21	30506.54
513.38	30944.22
513.56	30742.94
513.73	31101.04
513.90	31321.05
514.08	30806.13
514.25	31281.26
514.43	31290.62
514.60	31438.08
514.77	31468.50
514.95	31821.92
515.12	31409.99
515.29	31641.70
515.47	31555.10
515.64	31941.29
515.81	31817.24
515.99	31747.03
516.16	32079.38
516.33	31594.89
516.51	31779.79
516.68	31861.71
516.85	31880.44
517.03	31751.71
517.20	31938.95
517.37	32128.53
517.54	32458.55
517.72	32283.01
517.89	32290.03
518.06	32304.07
518.24	32261.94
518.41	32746.44
518.58	32786.22
518.75	32762.82
518.93	32830.69
519.10	32570.90
519.27	32987.51
519.45	33053.05
519.62	33193.48
519.79	33078.79
519.96	33675.63
520.14	33493.07
520.31	33331.57
520.48	33598.39
520.65	33600.73
520.83	33834.78
521.00	33708.40
521.17	33837.12
521.34	34010.32
521.52	34007.98
521.69	34417.58
521.86	34192.89
522.03	34162.46
522.20	34642.27
522.38	34480.77
522.55	34398.85
522.72	34293.53
522.89	34574.39
523.07	34628.23
523.24	35297.62
523.41	34895.05
523.58	34625.89
523.75	35454.44
523.92	35051.86
524.10	35388.90
524.27	35461.46
524.44	35211.02
524.61	35756.36
524.78	35555.08
524.96	35049.52
525.13	35068.25
525.30	35363.15
525.47	35782.11
525.64	35505.93
525.81	35545.72
525.98	35398.26
526.16	35599.55
526.33	35435.71
526.50	35999.78
526.67	35232.08
526.84	35639.34
527.01	35510.61
527.18	35714.23
527.36	36514.70
527.53	36437.46
527.70	36718.32
527.87	36608.32
528.04	36320.43
528.21	36353.20
528.38	36814.29
528.55	36470.23
528.72	36657.47
528.89	36847.05
529.07	36931.31
529.24	36818.97
529.41	36861.10
529.58	36556.83
529.75	36718.32
529.92	37167.71
530.09	37165.37
530.26	37364.31
530.43	37184.09
530.60	36971.10
530.77	37207.50
530.94	37565.60
531.11	36947.70
531.28	37195.79
531.46	37811.35
531.63	38026.68
531.80	37600.71
531.97	37567.94
532.14	37556.24
532.31	37111.53
532.48	37324.52
532.65	37933.06
532.82	37427.51
532.99	37832.42
533.16	37738.80
533.33	38150.73
533.50	38022.00
533.67	37989.24
533.84	38246.69
534.01	38188.18
534.18	38050.09
534.35	38656.29
534.52	38415.21
534.69	38799.06
534.86	38352.02
535.03	38321.59
535.20	38925.45
535.37	38958.22
535.54	38785.02
535.71	38726.50
535.88	38682.03
536.05	38639.90
536.22	38752.25
536.38	38696.08
536.55	39033.11
536.72	38637.56
536.89	38394.15
537.06	38705.44
537.23	39180.57
537.40	39009.71
537.57	38841.19
537.74	39136.10
537.91	39522.29
538.08	39239.08
538.25	38817.78
538.42	39164.18
538.59	39295.25
538.75	39285.89
538.92	39337.38
539.09	39473.13
539.26	39428.66
539.43	39716.55
539.60	39821.87
539.77	39431.01
539.94	39339.72
540.11	39431.01
540.28	39512.92
540.44	39613.57
540.61	39831.24
540.78	39828.90
540.95	39491.86
541.12	39515.26
541.29	39693.15
541.46	39934.22
541.62	40184.66
541.79	40081.67
541.96	39096.31
542.13	40189.34
542.30	39910.82
542.47	39903.79
542.63	40463.18
542.80	40231.47
542.97	40381.26
543.14	40832.99
543.31	40755.75
543.48	40811.92
543.64	41352.58
543.81	41095.13
543.98	41041.29
544.15	40821.28
544.32	40823.62
544.48	40774.47
544.65	40992.14
544.82	40957.03
544.99	40886.82
545.16	40575.53
545.32	40692.55
545.49	41570.25
545.66	41633.45
545.83	41163.00
546.00	41869.84
546.16	41123.21
546.33	40975.76
546.50	40821.28
546.67	41397.06
546.83	40992.14
547.00	40868.09
547.17	41539.83
547.34	41387.69
547.50	41794.95
547.67	41413.44
547.84	41397.06
548.00	42057.09
548.17	42167.09
548.34	41694.30
548.51	41984.53
548.67	42052.41
548.84	41813.67
549.01	41797.29
549.18	41436.84
549.34	41984.53
549.51	41530.47
549.68	41823.03
549.84	41776.22
550.01	42265.39
550.18	42216.24
550.34	41911.97
550.51	42014.96
550.68	42134.32
550.84	41872.18
551.01	42071.13
551.18	42389.44
551.34	42223.26
551.51	42258.37
551.68	42150.71
551.84	42426.89
552.01	42110.92
552.18	42089.85
552.34	42293.48
552.51	42384.76
552.68	42663.28
552.84	42859.89
553.01	42742.86
553.18	42876.27
553.34	42763.93
553.51	42436.25
553.67	42679.67
553.84	43016.71
554.01	42726.48
554.17	42864.57
554.34	42677.33
554.51	43009.68
554.67	43068.20
554.84	42838.83
555.00	43079.90
555.17	42508.81
555.33	42738.18
555.50	43051.81
555.67	42754.57
555.83	42890.32
556.00	43325.66
556.16	43192.25
556.33	43110.33
556.50	43117.35
556.66	43206.29
556.83	42967.55
556.99	43393.53
557.16	43445.02
557.32	43402.89
557.49	43665.03
557.65	43112.67
557.82	43164.16
557.98	43426.30
558.15	43335.02
558.32	43627.59
558.48	43192.25
558.65	43697.80
558.81	43042.45
558.98	43145.44
559.14	43306.93
559.31	43157.14
559.47	43583.12
559.64	44023.14
559.80	43686.10
559.97	43508.22
560.13	43510.56
560.30	43625.25
560.46	43936.54
560.63	43604.18
560.79	44025.48
560.96	43798.44
561.12	43971.64
561.29	43552.69
561.45	43725.89
561.61	43438.00
561.78	43805.47
561.94	43653.33
562.11	43737.59
562.27	43959.94
562.44	43578.43
562.60	43990.37
562.77	44135.48
562.93	44074.63
563.10	43749.29
563.26	43442.68
563.42	43969.30
563.59	43627.59
563.75	44105.06
563.92	43985.69
564.08	44402.30
564.24	43906.11
564.41	43964.62
564.57	43824.19
564.74	44123.78
564.90	44271.23
565.07	43992.71
565.23	43856.96
565.39	44222.08
565.56	44280.60
565.72	43880.36
565.88	44034.84
566.05	44142.50
566.21	43995.05
566.38	44135.48
566.54	43714.19
566.70	44484.22
566.87	44378.90
567.03	44296.98
567.19	44549.76
567.36	44381.24
567.52	44397.62
567.68	44245.49
567.85	44009.09
568.01	44509.97
568.17	44072.29
568.34	44266.55
568.50	43983.35
568.66	44271.23
568.83	44329.75
568.99	44170.59
569.15	44039.52
569.32	43761.00
569.48	44069.95
569.64	44334.43
569.81	44549.76
569.97	44046.54
570.13	44526.35
570.30	43934.20
570.46	44100.37
570.62	44006.75
570.78	44156.55
570.95	43948.24
571.11	44673.81
571.27	44388.26
571.43	44332.09
571.60	44346.13
571.76	44074.63
571.92	44238.47
572.09	44170.59
572.25	43812.49
572.41	44023.14
572.57	44769.77
572.74	44699.55
572.90	44470.18
573.06	44783.81
573.22	44568.48
573.38	44383.58
573.55	44229.10
573.71	44495.92
573.87	44507.63
574.03	44336.77
574.20	44294.64
574.36	44502.95
574.52	44718.28
574.68	44355.49
574.84	44046.54
575.01	44671.46
575.17	44308.68
575.33	44664.44
575.49	44636.36
575.65	44315.70
575.82	44662.10
575.98	44634.02
576.14	44650.40
576.30	44587.21
576.46	44498.26
576.62	44285.28
576.79	44289.96
576.95	43838.23
577.11	44371.88
577.27	44411.67
577.43	44481.88
577.59	44252.51
577.75	44547.42
577.92	43962.28
578.08	44165.91
578.24	44135.48
578.40	44425.71
578.56	44519.33
578.72	44612.95
578.88	44645.72
579.04	45139.57
579.21	45031.91
579.37	44175.27
579.53	44734.66
579.69	44474.86
579.85	44957.01
580.01	44788.49
580.17	44959.35
580.33	44762.75
580.49	44999.14
580.65	45179.36
580.82	44879.77
580.98	44392.94
581.14	44783.81
581.30	44814.24
581.46	44793.17
581.62	45055.31
581.78	44580.18
581.94	44753.38
582.10	44811.90
582.26	44807.22
582.42	44699.55
582.58	44540.39
582.74	44566.14
582.90	44540.39
583.06	44889.13
583.22	45050.63
583.38	44999.14
583.54	44790.83
583.70	44294.64
583.86	44741.68
584.02	44306.34
584.18	45013.18
584.34	45275.32
584.50	44463.16
584.66	44720.62
584.82	44685.51
584.98	44788.49
585.14	44907.86
585.30	44580.18
585.46	44699.55
585.62	44849.35
585.78	44994.46
585.94	44540.39
586.10	44926.58
586.26	44694.87
586.42	44687.85
586.58	45322.13
586.74	44767.43
586.90	44673.81
587.06	44641.04
587.22	44912.54
587.38	44158.89
587.54	45022.54
587.70	45113.83
587.86	44781.47
588.02	44648.06
588.18	45127.87
588.34	44421.03
588.49	44657.42
588.65	44402.30
588.81	44697.21
588.97	44634.02
589.13	44383.58
589.29	44531.03
589.45	44582.52
589.61	44975.73
589.77	45368.94
589.93	45301.07
590.08	44921.90
590.24	44987.44
