SpectraSuite Data File
++++++++++++++++++++++++++++++++++++
Date: Fri Oct 25 10:47:41 EDT 2013
User: price-jones
Dark Spectrum Present: No
Reference Spectrum Present: No
Number of Sampled Component Spectra: 1
Spectrometers: USB2+H05261
Integration Time (usec): 100000 (USB2+H05261)
Spectra Averaged: 1 (USB2+H05261)
Boxcar Smoothing: 0 (USB2+H05261)
Correct for Electrical Dark: No (USB2+H05261)
Strobe/Lamp Enabled: No (USB2+H05261)
Correct for Detector Non-linearity: No (USB2+H05261)
Correct for Stray Light: No (USB2+H05261)
Number of Pixels in Processed Spectrum: 2048
>>>>>Begin Processed Spectral Data<<<<<
365.73	107.66
365.92	107.66
366.12	107.66
366.32	11.70
366.52	0.00
366.72	65.54
366.91	28.09
367.11	72.56
367.31	63.19
367.51	14.04
367.70	65.54
367.90	60.85
368.10	0.00
368.30	32.77
368.49	9.36
368.69	77.24
368.89	79.58
369.09	28.09
369.28	18.72
369.48	65.54
369.68	67.88
369.87	56.17
370.07	100.64
370.27	163.84
370.47	119.37
370.66	372.15
370.86	337.04
371.06	465.77
371.25	400.23
371.45	397.89
371.65	397.89
371.84	444.70
372.04	507.90
372.24	517.26
372.44	440.02
372.63	423.64
372.83	531.30
373.03	437.68
373.22	507.90
373.42	507.90
373.62	437.68
373.81	526.62
374.01	561.73
374.21	538.32
374.40	505.56
374.60	531.30
374.79	526.62
374.99	629.60
375.19	608.54
375.38	641.31
375.58	580.45
375.78	561.73
375.97	568.75
376.17	629.60
376.37	550.03
376.56	564.07
376.76	585.13
376.95	507.90
377.15	592.16
377.35	540.66
377.54	636.63
377.74	601.52
377.93	617.90
378.13	631.94
378.33	660.03
378.52	608.54
378.72	660.03
378.91	660.03
379.11	648.33
379.31	641.31
379.50	627.26
379.70	643.65
379.89	676.41
380.09	615.56
380.28	653.01
380.48	592.16
380.68	648.33
380.87	650.67
381.07	678.76
381.26	713.86
381.46	699.82
381.65	704.50
381.85	671.73
382.04	648.33
382.24	716.20
382.43	653.01
382.63	664.71
382.83	692.80
383.02	723.23
383.22	751.31
383.41	674.07
383.61	699.82
383.80	779.40
384.00	755.99
384.19	690.46
384.39	744.29
384.58	755.99
384.78	732.59
384.97	791.10
385.17	798.12
385.36	781.74
385.56	763.01
385.75	837.91
385.95	791.10
386.14	814.51
386.34	814.51
386.53	791.10
386.72	819.19
386.92	800.46
387.11	812.17
387.31	802.80
387.50	798.12
387.70	777.06
387.89	854.30
388.09	828.55
388.28	798.12
388.48	788.76
388.67	917.49
388.86	896.43
389.06	873.02
389.25	917.49
389.45	884.72
389.64	1039.20
389.84	957.28
390.03	915.15
390.22	873.02
390.42	833.23
390.61	919.83
390.81	903.45
391.00	924.51
391.19	814.51
391.39	961.96
391.58	1013.45
391.78	957.28
391.97	919.83
392.16	905.79
392.36	961.96
392.55	929.19
392.75	978.34
392.94	915.15
393.13	968.98
393.33	898.77
393.52	959.62
393.71	966.64
393.91	1027.50
394.10	1015.79
394.29	1114.10
394.49	1020.47
394.68	1116.44
394.88	1083.67
395.07	1170.27
395.26	1132.82
395.46	1078.99
395.65	1210.06
395.84	1210.06
396.04	1111.75
396.23	1076.65
396.42	1083.67
396.62	1177.29
396.81	1156.22
397.00	1149.20
397.19	1114.10
397.39	1252.19
397.58	1233.46
397.77	1282.61
397.97	1158.57
398.16	1219.42
398.35	1294.32
398.55	1266.23
398.74	1284.95
398.93	1352.83
399.12	1364.53
399.32	1327.08
399.51	1338.79
399.70	1397.30
399.90	1345.81
400.09	1434.75
400.28	1387.94
400.47	1460.49
400.67	1401.98
400.86	1476.88
401.05	1427.73
401.24	1514.33
401.44	1540.07
401.63	1357.51
401.82	1554.12
402.01	1481.56
402.21	1523.69
402.40	1659.44
402.59	1549.43
402.78	1547.09
402.97	1519.01
403.17	1645.40
403.36	1570.50
403.55	1558.80
403.74	1533.05
403.93	1558.80
404.13	1652.42
404.32	1706.25
404.51	1687.53
404.70	1729.66
404.89	1647.74
405.09	1769.44
405.28	1769.44
405.47	1610.29
405.66	1769.44
405.85	1788.17
406.05	1736.68
406.24	1806.89
406.43	1706.25
406.62	1879.45
406.81	1907.54
407.00	1806.89
407.20	1823.28
407.39	1795.19
407.58	1902.86
407.77	1909.88
407.96	2012.86
408.15	2073.71
408.34	2022.22
408.54	2033.93
408.73	1991.80
408.92	1895.83
409.11	2024.56
409.30	2092.44
409.49	2062.01
409.68	2033.93
409.87	2162.66
410.07	2092.44
410.26	2104.14
410.45	2200.10
410.64	2024.56
410.83	2113.50
411.02	2204.78
411.21	2363.94
411.40	2338.20
411.59	2228.19
411.78	2239.89
411.98	2230.53
412.17	2389.69
412.36	2375.64
412.55	2361.60
412.74	2438.84
412.93	2502.03
413.12	2345.22
413.31	2504.37
413.50	2516.08
413.69	2562.89
413.88	2733.75
414.07	2544.16
414.26	2640.12
414.45	2612.04
414.64	2600.34
414.83	2801.62
415.02	2808.64
415.22	2738.43
415.41	2752.47
415.60	2801.62
415.79	2745.45
415.98	2946.73
416.17	2937.37
416.36	2829.71
416.55	2871.84
416.74	2909.29
416.93	2923.33
417.12	3019.29
417.31	2951.42
417.50	2974.82
417.69	2995.89
417.88	3155.04
418.07	3052.06
418.26	3016.95
418.45	3136.32
418.64	3248.66
418.83	3169.09
419.02	3155.04
419.21	3215.90
419.39	3239.30
419.58	3122.27
419.77	3192.49
419.96	3361.01
420.15	3302.50
420.34	3232.28
420.53	3229.94
420.72	3508.46
420.91	3435.91
421.10	3372.71
421.29	3428.88
421.48	3449.95
421.67	3426.54
421.86	3487.40
422.05	3372.71
422.24	3391.44
422.43	3492.08
422.61	3456.97
422.80	3508.46
422.99	3499.10
423.18	3389.10
423.37	3676.98
423.56	3630.17
423.75	3581.02
423.94	3445.27
424.13	3272.07
424.32	3255.69
424.50	3538.89
424.69	3712.09
424.88	3590.38
425.07	3510.80
425.26	3475.70
425.45	3562.30
425.64	3562.30
425.83	3599.74
426.01	3639.53
426.20	3609.11
426.39	3669.96
426.58	3613.79
426.77	3459.31
426.96	3625.49
427.15	3454.63
427.33	3623.15
427.52	3602.08
427.71	3833.80
427.90	3875.93
428.09	3791.67
428.28	3674.64
428.46	3918.06
428.65	3854.86
428.84	3822.09
429.03	3808.05
429.22	3728.47
429.40	3971.89
429.59	3742.52
429.78	3578.68
429.97	3609.11
430.16	3702.73
430.34	3836.14
430.53	3859.54
430.72	3789.33
430.91	3789.33
431.10	3920.40
431.28	4018.70
431.47	4152.11
431.66	4105.30
431.85	3960.19
432.03	4222.33
432.22	4255.09
432.41	4236.37
432.60	4098.28
432.79	4170.83
432.97	4367.44
433.16	4257.43
433.35	4229.35
433.54	4369.78
433.72	4329.99
433.91	4133.39
434.10	4407.23
434.28	4376.80
434.47	4376.80
434.66	4409.57
434.85	4447.02
435.03	4461.06
435.22	4542.98
435.41	4638.94
435.59	4585.11
435.78	4601.49
435.97	4629.58
436.16	4674.05
436.34	4564.04
436.53	4732.56
436.72	4765.33
436.90	4542.98
437.09	4624.90
437.28	4564.04
437.46	4564.04
437.65	4755.97
437.84	4638.94
438.02	4692.77
438.21	4856.61
438.40	4559.36
438.58	4901.08
438.77	4901.08
438.96	4865.97
439.14	4994.70
439.33	5018.11
439.52	5032.15
439.70	4999.38
439.89	5170.24
440.08	5095.35
440.26	5043.85
440.45	5109.39
440.63	5343.44
440.82	5446.43
441.01	5294.29
441.19	5434.72
441.38	5493.24
441.57	5263.86
441.75	5406.64
441.94	5724.95
442.12	5540.05
442.31	5638.35
442.50	5685.16
442.68	5593.88
442.87	5626.65
443.05	5708.57
443.24	5914.53
443.43	5802.19
443.61	5675.80
443.80	5781.12
443.98	5682.82
444.17	5549.41
444.35	5963.68
444.54	5837.30
444.73	5877.09
444.91	5696.86
445.10	5860.70
445.28	5804.53
445.47	5818.57
445.65	5753.04
445.84	5841.98
446.02	5968.37
446.21	6043.26
446.39	5933.26
446.58	5954.32
446.77	5928.58
446.95	5844.32
447.14	5891.13
447.32	6019.86
447.51	6033.90
447.69	6045.60
447.88	5909.85
448.06	5982.41
448.25	6003.47
448.43	6050.28
448.62	6040.92
448.80	5977.73
448.99	6146.25
449.17	6193.06
449.36	6242.21
449.54	6202.42
449.73	6228.17
449.91	6403.71
450.10	6349.87
450.28	6225.82
450.46	6434.13
450.65	6473.92
450.83	6427.11
451.02	6445.84
451.20	6497.33
451.39	6345.19
451.57	6394.34
451.76	6413.07
451.94	6600.31
452.13	6565.20
452.31	6443.49
452.49	6476.26
452.68	6525.41
452.86	6441.15
453.05	6677.55
453.23	6672.87
453.42	6562.86
453.60	6567.54
453.78	6736.06
453.97	6665.85
454.15	6710.32
454.34	6672.87
454.52	6644.78
454.70	6668.19
454.89	6750.10
455.07	6906.92
455.26	6794.58
455.44	6771.17
455.62	6902.24
455.81	6911.60
455.99	7002.88
456.17	7178.42
456.36	7082.46
456.54	7126.93
456.73	7290.77
456.91	7239.28
457.09	7281.41
457.28	7440.56
457.46	7061.40
457.64	7349.28
457.83	7386.73
458.01	7321.20
458.19	7566.95
458.38	7456.95
458.56	7447.58
458.74	7389.07
458.93	7499.08
459.11	7386.73
459.29	7529.50
459.48	7571.63
459.66	7478.01
459.84	7466.31
460.03	7723.77
460.21	7604.40
460.39	7700.36
460.57	7646.53
460.76	7903.99
460.94	7719.09
461.12	7770.58
461.31	7840.79
461.49	8023.36
461.67	7906.33
461.85	8072.51
462.04	7864.20
462.22	8341.67
462.40	8070.17
462.59	8035.06
462.77	7925.05
462.95	8056.12
463.13	7901.65
463.32	7983.57
463.50	8189.53
463.68	8049.10
463.86	8098.25
464.05	7999.95
464.23	7922.71
464.41	8276.13
464.59	8114.64
464.78	8266.77
464.96	8159.11
465.14	8098.25
465.32	8100.59
465.50	8369.76
465.69	8395.50
465.87	8226.98
466.05	8493.80
466.23	8510.19
466.41	8383.80
466.60	8571.04
466.78	8264.43
466.96	8304.22
467.14	8397.84
467.32	8421.25
467.51	8648.28
467.69	8184.85
467.87	8671.68
468.05	8791.05
468.23	8617.85
468.41	8484.44
468.60	8798.07
468.78	8667.00
468.96	8549.98
469.14	8802.75
469.32	8982.98
469.50	8685.73
469.69	8894.04
469.87	8971.27
470.05	8901.06
470.23	8863.61
470.41	8964.25
470.59	8950.21
470.77	8938.51
470.95	9298.95
471.14	9231.07
471.32	9008.72
471.50	9179.58
471.68	9198.31
471.86	9261.50
472.04	9327.03
472.22	9563.43
472.40	9308.31
472.58	9453.42
472.77	9500.23
472.95	9572.79
473.13	10057.28
473.31	9511.94
473.49	9533.00
473.67	9635.99
473.85	9645.35
474.03	10005.79
474.21	9872.38
474.39	9937.91
474.57	10038.56
474.75	10169.63
474.93	10202.40
475.12	10083.03
475.30	10335.81
475.48	10338.15
475.66	10258.57
475.84	10274.95
476.02	10499.64
476.20	10635.39
476.38	10656.46
476.56	11164.36
476.74	10768.80
476.92	10705.61
477.10	10682.20
477.28	10817.96
477.46	10820.30
477.64	11044.99
477.82	11337.56
478.00	11229.89
478.18	11267.34
478.36	11335.21
478.54	11632.46
478.72	11719.06
478.90	11789.28
479.08	11723.74
479.26	12077.16
479.44	12067.80
479.62	12020.99
479.80	12100.57
479.98	12039.72
480.16	12311.22
480.34	12006.95
480.52	12568.68
480.70	12514.84
480.88	12425.90
481.06	12507.82
481.24	12798.05
481.41	12938.48
481.59	13193.60
481.77	13088.28
481.95	13121.04
482.13	13348.08
482.31	13193.60
482.49	13575.11
482.67	13577.45
482.85	13752.99
483.03	13650.00
483.21	13760.01
483.39	14094.71
483.57	14127.47
483.74	13989.38
483.92	14267.91
484.10	14401.32
484.28	14438.76
484.46	14792.19
484.64	15084.75
484.82	14700.90
485.00	14923.26
485.18	14874.10
485.35	15056.67
485.53	15143.27
485.71	15428.81
485.89	15311.78
486.07	15630.10
486.25	15564.56
486.43	15435.83
486.61	15693.29
486.78	15917.98
486.96	15950.75
487.14	16304.17
487.32	16348.64
487.50	16168.42
487.68	16751.21
487.85	16819.09
488.03	16971.22
488.21	17067.19
488.39	17163.15
488.57	17352.73
488.75	17270.81
488.92	17334.01
489.10	17579.76
489.28	17762.33
489.46	18052.55
489.64	18106.38
489.81	18441.08
489.99	18604.92
490.17	18319.37
490.35	18813.23
490.53	18525.34
490.70	18824.93
490.88	18883.44
491.06	18897.49
491.24	19419.42
491.41	19286.01
491.59	18998.13
491.77	19063.66
491.95	19463.90
492.13	19548.15
492.30	19852.42
492.48	19943.70
492.66	20294.79
492.84	20170.74
493.01	20285.42
493.19	20194.14
493.37	20697.36
493.54	20365.00
493.72	20517.14
493.90	20631.82
494.08	21289.51
494.25	21289.51
494.43	21195.89
494.61	21462.71
494.79	21415.90
494.96	21546.97
495.14	21645.27
495.32	21818.47
495.49	21832.52
495.67	21916.78
495.85	22230.41
496.02	22373.18
496.20	22621.28
496.38	22532.34
496.55	22668.09
496.73	22836.61
496.91	22576.81
497.09	22860.01
497.26	23311.74
497.44	23096.41
497.62	23073.00
497.79	23456.85
497.97	23566.85
498.14	23449.83
498.32	23873.46
498.50	23630.05
498.67	23988.15
498.85	24170.71
499.03	24177.73
499.20	24432.85
499.38	24313.48
499.56	24306.46
499.73	24315.83
499.91	24240.93
500.08	24552.22
500.26	24542.86
500.44	24762.87
500.61	24512.43
500.79	24470.30
500.97	25303.53
501.14	25493.12
501.32	24833.08
501.49	25373.75
501.67	25621.84
501.84	25369.07
502.02	25364.39
502.20	25888.67
502.37	26003.35
502.55	25605.46
502.72	25818.45
502.90	25818.45
503.07	25727.17
503.25	25832.49
503.43	26015.05
503.60	26272.51
503.78	26328.69
503.95	26319.32
504.13	26600.19
504.30	26822.54
504.48	26441.03
504.65	26808.50
504.83	27126.81
505.01	27063.61
505.18	26824.88
505.36	27438.10
505.53	27468.53
505.71	27475.55
505.88	27669.81
506.06	27154.90
506.23	27175.96
506.41	27185.32
506.58	27552.79
506.76	27562.15
506.93	27960.04
507.11	27758.75
507.28	27821.95
507.46	28161.33
507.63	28137.92
507.81	28041.96
507.98	28121.54
508.16	28170.69
508.33	28467.94
508.50	28299.42
508.68	28617.73
508.85	28994.56
509.03	28856.46
509.20	28400.06
509.38	29069.45
509.55	28924.34
509.73	29003.92
509.90	29083.50
510.08	29214.57
510.25	29467.34
510.42	29235.63
510.60	29233.29
510.77	29813.74
510.95	29703.74
511.12	29493.09
511.30	29558.63
511.47	30052.48
511.64	29673.31
511.82	29977.58
511.99	30036.09
512.17	30162.48
512.34	30064.18
512.51	30689.10
512.69	30424.62
512.86	30639.95
513.04	30373.13
513.21	30904.43
513.38	30469.09
513.56	30541.65
513.73	30548.67
513.90	31288.28
514.08	31063.59
514.25	31019.12
514.43	30864.64
514.60	30962.95
514.77	30944.22
514.95	31290.62
515.12	31290.62
515.29	31283.60
515.47	31976.40
515.64	31791.50
515.81	31541.06
515.99	31868.73
516.16	31632.34
516.33	31632.34
516.51	32119.17
516.68	31742.35
516.85	31899.16
517.03	31803.20
517.20	32198.75
517.37	31892.14
517.54	32430.46
517.72	32409.40
517.89	32144.92
518.06	32362.59
518.24	32369.61
518.41	31859.37
518.58	32414.08
518.75	32439.82
518.93	32936.02
519.10	32739.41
519.27	32652.81
519.45	32966.45
519.62	33205.18
519.79	33282.42
519.96	33277.74
520.14	33251.99
520.31	33251.99
520.48	33483.70
520.65	33352.63
520.83	33888.62
521.00	33806.70
521.17	33563.28
521.34	33998.62
521.52	33635.84
521.69	34047.77
521.86	34094.58
522.03	33853.51
522.20	34246.72
522.38	34471.41
522.55	34403.53
522.72	34419.92
522.89	34190.55
523.07	34373.11
523.24	34122.67
523.41	34735.89
523.58	34300.55
523.75	34792.06
523.92	34834.19
524.10	35185.27
524.27	35054.20
524.44	35201.66
524.61	35262.51
524.78	34927.81
524.96	35185.27
525.13	35634.66
525.30	35370.18
525.47	35611.25
525.64	35405.28
525.81	35299.96
525.98	35311.66
526.16	35377.20
526.33	35318.68
526.50	35997.44
526.67	35519.97
526.84	35267.19
527.01	35599.55
527.18	35861.69
527.36	35674.45
527.53	35765.73
527.70	36655.13
527.87	36201.07
528.04	36292.35
528.21	36381.29
528.38	36032.55
528.55	36495.97
528.72	36294.69
528.89	36833.01
529.07	36521.72
529.24	36533.42
529.41	36748.75
529.58	36299.37
529.75	36503.00
529.92	36816.63
530.09	36978.12
530.26	37017.91
530.43	37172.39
530.60	36566.19
530.77	36680.88
530.94	37542.19
531.11	36896.20
531.28	37455.59
531.46	37127.92
531.63	37439.21
531.80	37055.36
531.97	37457.93
532.14	37221.54
532.31	37336.23
532.48	37509.43
532.65	37717.73
532.82	37333.89
532.99	37642.84
533.16	37511.77
533.33	37603.05
533.50	38263.08
533.67	37839.44
533.84	37713.05
534.01	38108.60
534.18	37661.56
534.35	37963.49
534.52	37902.64
534.69	38204.56
534.86	38504.15
535.03	37989.24
535.20	38443.30
535.37	38380.10
535.54	38625.86
535.71	38705.44
535.88	38239.67
536.05	38705.44
536.22	38452.66
536.38	38469.04
536.55	38354.36
536.72	38693.74
536.89	38770.97
537.06	38843.53
537.23	38724.16
537.40	38817.78
537.57	39112.69
537.74	38841.19
537.91	39171.21
538.08	39159.50
538.25	38923.11
538.42	39236.74
538.59	39248.44
538.75	38614.16
538.92	39452.07
539.09	39456.75
539.26	39227.38
539.43	39391.22
539.60	39751.66
539.77	39370.15
539.94	39763.36
540.11	39475.48
540.28	39363.13
540.44	39562.08
540.61	39889.75
540.78	39070.56
540.95	39477.82
541.12	39096.31
541.29	39182.91
541.46	39475.48
541.62	39653.36
541.79	40339.13
541.96	39625.27
542.13	39833.58
542.30	40175.30
542.47	40287.64
542.63	39840.60
542.80	40189.34
542.97	40044.23
543.14	40870.43
543.31	40531.06
543.48	40538.08
543.64	41165.34
543.81	40722.98
543.98	41022.57
544.15	40807.24
544.32	40968.74
544.48	41359.61
544.65	40582.55
544.82	41069.38
544.99	40800.22
545.16	41179.39
545.32	40809.58
545.49	41415.78
545.66	41083.42
545.83	41031.93
546.00	41284.71
546.16	41106.83
546.33	41158.32
546.50	40924.27
546.67	41174.70
546.83	40992.14
547.00	41380.67
547.17	41031.93
547.34	40872.78
547.50	41502.38
547.67	41677.92
547.84	41488.34
548.00	41441.53
548.17	41780.90
548.34	41546.85
548.51	41670.90
548.67	41581.96
548.84	41558.55
549.01	41675.58
549.18	41579.62
549.34	41596.00
549.51	41811.33
549.68	42110.92
549.84	41900.27
550.01	42003.25
550.18	41626.43
550.34	41844.10
550.51	41729.41
550.68	41830.05
550.84	41841.76
551.01	42237.31
551.18	42305.18
551.34	41933.04
551.51	42494.77
551.68	42167.09
551.84	42195.18
552.01	42312.20
552.18	42342.63
552.34	41610.04
552.51	42417.53
552.68	42628.18
552.84	42506.47
553.01	42813.08
553.18	42572.00
553.34	42600.09
553.51	42330.93
553.67	42330.93
553.84	42777.97
554.01	42850.53
554.17	43168.84
554.34	42808.40
554.51	42546.26
554.67	43096.28
554.84	43093.94
555.00	42817.76
555.17	42663.28
555.33	43072.88
555.50	43152.46
555.67	43154.80
555.83	42597.75
556.00	43180.54
556.16	43739.93
556.33	43267.14
556.50	43105.65
556.66	43189.91
556.83	42766.27
556.99	42742.86
557.16	43140.75
557.32	43323.32
557.49	43346.72
557.65	42969.90
557.82	43391.19
557.98	42976.92
558.15	43187.56
558.32	43746.95
558.48	43129.05
558.65	43655.67
558.81	43370.13
558.98	43318.64
559.14	43325.66
559.31	42789.67
559.47	43779.72
559.64	43388.85
559.80	44055.90
559.97	43711.84
560.13	43299.91
560.30	43419.28
560.46	43482.47
560.63	43519.92
560.79	43833.55
560.96	43548.01
561.12	43505.88
561.29	43646.31
561.45	43618.22
561.61	43887.39
561.78	43665.03
561.94	43477.79
562.11	43997.39
562.27	43758.66
562.44	43669.72
562.60	43550.35
562.77	44205.70
562.93	43971.64
563.10	43871.00
563.26	43763.34
563.42	43817.17
563.59	44191.65
563.75	44060.58
563.92	44112.08
564.08	44002.07
564.24	43859.30
564.41	43917.81
564.57	44055.90
564.74	43962.28
564.90	44353.15
565.07	44091.01
565.23	44168.25
565.39	43896.75
565.56	44231.44
565.72	43997.39
565.88	43943.56
566.05	44109.74
566.21	43665.03
566.38	43772.70
566.54	44245.49
566.70	44067.61
566.87	44266.55
567.03	43934.20
567.19	44484.22
567.36	43922.49
567.52	44116.76
567.68	44526.35
567.85	44481.88
568.01	44098.03
568.17	44158.89
568.34	44217.40
568.50	44095.69
568.66	44020.80
568.83	44259.53
568.99	43674.40
569.15	44402.30
569.32	43854.62
569.48	44271.23
569.64	44547.42
569.81	44589.55
569.97	44170.59
570.13	44252.51
570.30	44128.46
570.46	44343.79
570.62	44020.80
570.78	44037.18
570.95	43938.88
571.11	44524.01
571.27	44315.70
571.43	44069.95
571.60	44912.54
571.76	44477.20
571.92	44238.47
572.09	44346.13
572.25	44268.89
572.41	44079.31
572.57	44418.69
572.74	45132.55
572.90	44453.79
573.06	44577.84
573.22	44458.48
573.38	44374.22
573.55	44414.01
573.71	44481.88
573.87	44067.61
574.03	44219.74
574.20	44491.24
574.36	44444.43
574.52	44664.44
574.68	44921.90
574.84	44622.31
575.01	44622.31
575.17	44299.32
575.33	44495.92
575.49	44072.29
575.65	44765.09
575.82	44671.46
575.98	44865.73
576.14	45013.18
576.30	44643.38
576.46	44289.96
576.62	44271.23
576.79	44568.48
576.95	44296.98
577.11	44540.39
577.27	44453.79
577.43	44816.58
577.59	44505.29
577.75	44683.17
577.92	44343.79
578.08	44563.80
578.24	44332.09
578.40	44378.90
578.56	44680.83
578.72	44535.71
578.88	44856.37
579.04	44425.71
579.21	44722.96
579.37	44715.93
579.53	44437.41
579.69	44582.52
579.85	44189.31
580.01	44603.59
580.17	44701.89
580.33	44975.73
580.49	45024.89
580.65	45322.13
580.82	44531.03
580.98	44865.73
581.14	44493.58
581.30	44830.62
581.46	45008.50
581.62	44964.03
581.78	44102.71
581.94	45308.09
582.10	45146.59
582.26	44865.73
582.42	44692.53
582.58	45043.61
582.74	44512.31
582.90	44839.98
583.06	44959.35
583.22	44999.14
583.38	45048.29
583.54	44470.18
583.70	44931.26
583.86	44802.53
584.02	44498.26
584.18	45008.50
584.34	45188.72
584.50	44769.77
584.66	44769.77
584.82	45015.52
584.98	44781.47
585.14	44978.07
585.30	44617.63
585.46	44566.14
585.62	44481.88
585.78	44343.79
585.94	44456.14
586.10	44509.97
586.26	44397.62
586.42	45048.29
586.58	45085.74
586.74	44889.13
586.90	44589.55
587.06	44341.45
587.22	45064.67
587.38	44619.97
587.54	45017.86
587.70	45041.27
587.86	44652.74
588.02	44961.69
588.18	45394.69
588.34	44589.55
588.49	44856.37
588.65	44266.55
588.81	44442.09
588.97	44779.13
589.13	44460.82
589.29	44643.38
589.45	45350.22
589.61	44568.48
589.77	45057.65
589.93	44818.92
590.08	45127.87
590.24	44912.54
