SpectraSuite Data File
++++++++++++++++++++++++++++++++++++
Date: Fri Oct 25 11:26:02 EDT 2013
User: price-jones
Dark Spectrum Present: No
Reference Spectrum Present: No
Number of Sampled Component Spectra: 1
Spectrometers: USB2+H05261
Integration Time (usec): 100000 (USB2+H05261)
Spectra Averaged: 1 (USB2+H05261)
Boxcar Smoothing: 0 (USB2+H05261)
Correct for Electrical Dark: No (USB2+H05261)
Strobe/Lamp Enabled: No (USB2+H05261)
Correct for Detector Non-linearity: No (USB2+H05261)
Correct for Stray Light: No (USB2+H05261)
Number of Pixels in Processed Spectrum: 2048
>>>>>Begin Processed Spectral Data<<<<<
365.73	222.35
365.92	222.35
366.12	222.35
366.32	166.18
366.52	102.98
366.72	147.45
366.91	161.50
367.11	138.09
367.31	110.01
367.51	138.09
367.70	163.84
367.90	166.18
368.10	105.32
368.30	166.18
368.49	152.13
368.69	198.95
368.89	135.75
369.09	128.73
369.28	161.50
369.48	154.48
369.68	259.80
369.87	222.35
370.07	175.54
370.27	229.37
370.47	355.76
370.66	535.98
370.86	629.60
371.06	704.50
371.25	711.52
371.45	655.35
371.65	716.20
371.84	662.37
372.04	667.05
372.24	718.54
372.44	669.39
372.63	758.33
372.83	746.63
373.03	723.23
373.22	814.51
373.42	840.25
373.62	795.78
373.81	830.89
374.01	851.96
374.21	814.51
374.40	786.42
374.60	835.57
374.79	802.80
374.99	798.12
375.19	875.36
375.38	781.74
375.58	798.12
375.78	809.83
375.97	922.17
376.17	919.83
376.37	828.55
376.56	784.08
376.76	896.43
376.95	837.91
377.15	837.91
377.35	833.23
377.54	933.87
377.74	922.17
377.93	851.96
378.13	858.98
378.33	957.28
378.52	929.19
378.72	1015.79
378.91	938.55
379.11	945.58
379.31	950.26
379.50	901.11
379.70	971.32
379.89	1074.31
380.09	915.15
380.28	931.53
380.48	971.32
380.68	936.21
380.87	966.64
381.07	985.37
381.26	1097.71
381.46	1001.75
381.65	1067.28
381.85	1020.47
382.04	1090.69
382.24	1032.18
382.43	1027.50
382.63	1022.81
382.83	1048.56
383.02	1139.84
383.22	1153.88
383.41	1107.07
383.61	1132.82
383.80	1132.82
384.00	1083.67
384.19	1135.16
384.39	1118.78
384.58	1111.75
384.78	1067.28
384.97	1156.22
385.17	1174.95
385.36	1247.51
385.56	1128.14
385.75	1191.33
385.95	1200.69
386.14	1228.78
386.34	1224.10
386.53	1212.40
386.72	1273.25
386.92	1317.72
387.11	1277.93
387.31	1186.65
387.50	1226.44
387.70	1275.59
387.89	1289.64
388.09	1287.29
388.28	1277.93
388.48	1184.31
388.67	1322.40
388.86	1327.08
389.06	1345.81
389.25	1273.25
389.45	1399.64
389.64	1348.15
389.84	1413.68
390.03	1371.55
390.22	1359.85
390.42	1378.58
390.61	1364.53
390.81	1289.64
391.00	1352.83
391.19	1399.64
391.39	1385.60
391.58	1441.77
391.78	1355.17
391.97	1495.60
392.16	1497.94
392.36	1542.41
392.55	1507.30
392.75	1467.52
392.94	1516.67
393.13	1458.15
393.33	1425.39
393.52	1617.31
393.71	1591.56
393.91	1526.03
394.10	1603.27
394.29	1652.42
394.49	1612.63
394.68	1610.29
394.88	1570.50
395.07	1696.89
395.26	1582.20
395.46	1631.35
395.65	1706.25
395.84	1687.53
396.04	1818.60
396.23	1727.32
396.42	1788.17
396.62	1703.91
396.81	1764.76
397.00	1795.19
397.19	1736.68
397.39	1764.76
397.58	1823.28
397.77	1753.06
397.97	1790.51
398.16	1856.04
398.35	1851.36
398.55	1809.23
398.74	1860.73
398.93	1961.37
399.12	1923.92
399.32	1895.83
399.51	1973.07
399.70	2064.35
399.90	1949.67
400.09	2078.40
400.28	1940.30
400.47	1942.64
400.67	1980.09
400.86	2115.84
401.05	2115.84
401.24	2008.18
401.44	2246.91
401.63	2188.40
401.82	2134.57
402.01	2062.01
402.21	2150.95
402.40	2146.27
402.59	2150.95
402.78	2235.21
402.97	2153.29
403.17	2143.93
403.36	2225.85
403.55	2232.87
403.74	2277.34
403.93	2310.11
404.13	2464.58
404.32	2363.94
404.51	2373.30
404.70	2443.52
404.89	2321.81
405.09	2583.95
405.28	2532.46
405.47	2462.24
405.66	2602.68
405.85	2658.85
406.05	2656.51
406.24	2572.25
406.43	2630.76
406.62	2635.44
406.81	2581.61
407.00	2623.74
407.20	2600.34
407.39	2619.06
407.58	2644.81
407.77	2640.12
407.96	2719.70
408.15	2764.17
408.34	2693.96
408.54	2832.05
408.73	2825.03
408.92	2857.79
409.11	2977.16
409.30	2963.12
409.49	2885.88
409.68	2822.69
409.87	2796.94
410.07	2967.80
410.26	3040.36
410.45	2949.08
410.64	3042.70
410.83	3157.38
411.02	3049.72
411.21	3105.89
411.40	3232.28
411.59	3145.68
411.78	3155.04
411.98	3063.76
412.17	3276.75
412.36	3297.81
412.55	3281.43
412.74	3433.57
412.93	3293.13
413.12	3433.57
413.31	3466.33
413.50	3452.29
413.69	3365.69
413.88	3604.42
414.07	3637.19
414.26	3597.40
414.45	3646.55
414.64	3639.53
414.83	3662.94
415.02	3714.43
415.22	3796.35
415.41	3833.80
415.60	3918.06
415.79	3936.78
415.98	4112.32
416.17	4004.66
416.36	4060.83
416.55	4053.81
416.74	3950.82
416.93	4044.45
417.12	4121.68
417.31	4093.60
417.50	4203.60
417.69	4407.23
417.88	4166.15
418.07	4262.12
418.26	4248.07
418.45	4475.10
418.64	4514.89
418.83	4423.61
419.02	4320.63
419.21	4517.23
419.39	4557.02
419.58	4582.77
419.77	4393.19
419.96	4610.86
420.15	4493.83
420.34	4608.51
420.53	4594.47
420.72	4596.81
420.91	4727.88
421.10	4758.31
421.29	4795.76
421.48	4631.92
421.67	4798.10
421.86	4805.12
422.05	4746.61
422.24	4671.71
422.43	4730.22
422.61	4819.16
422.80	4887.04
422.99	4856.61
423.18	4887.04
423.37	4964.28
423.56	4889.38
423.75	4961.94
423.94	4856.61
424.13	4552.34
424.32	4624.90
424.50	4980.66
424.69	5015.77
424.88	5048.54
425.07	4978.32
425.26	4992.36
425.45	5029.81
425.64	4987.68
425.83	4952.57
426.01	5135.14
426.20	5036.83
426.39	5109.39
426.58	5088.32
426.77	5034.49
426.96	5018.11
427.15	5034.49
427.33	5334.08
427.52	5139.82
427.71	5277.91
427.90	5107.05
428.09	5327.06
428.28	5385.57
428.46	5273.23
428.65	5324.72
428.84	5530.69
429.03	5460.47
429.22	5231.10
429.40	5500.26
429.59	5411.32
429.78	5256.84
429.97	5397.28
430.16	5411.32
430.34	5603.24
430.53	5617.29
430.72	5584.52
430.91	5453.45
431.10	5584.52
431.28	5645.37
431.47	5757.72
431.66	5818.57
431.85	5762.40
432.03	5998.79
432.22	5905.17
432.41	5797.51
432.60	5874.74
432.79	5923.90
432.97	6024.54
433.16	5942.62
433.35	6047.94
433.54	6146.25
433.72	6059.65
433.91	6036.24
434.10	6197.74
434.28	5989.43
434.47	6230.51
434.66	6134.54
434.85	6186.04
435.03	6193.06
435.22	6143.91
435.41	6555.84
435.59	6352.21
435.78	6373.28
435.97	6455.20
436.16	6450.52
436.34	6377.96
436.53	6607.33
436.72	6593.29
436.90	6415.41
437.09	6612.01
437.28	6424.77
437.46	6719.68
437.65	6523.07
437.84	6609.67
438.02	6876.49
438.21	6665.85
438.40	6651.80
438.58	7007.56
438.77	7014.59
438.96	6829.68
439.14	7131.61
439.33	7101.19
439.52	7171.40
439.70	7258.00
439.89	7356.30
440.08	7414.82
440.26	7279.07
440.45	7246.30
440.63	7410.14
440.82	7431.20
441.01	7517.80
441.19	7667.60
441.38	7850.16
441.57	7714.41
441.75	7604.40
441.94	7836.11
442.12	7927.39
442.31	7939.10
442.50	7903.99
442.68	7950.80
442.87	7892.29
443.05	8170.81
443.24	8084.21
443.43	8114.64
443.61	8226.98
443.80	8446.99
443.98	8161.45
444.17	7805.69
444.35	8264.43
444.54	8454.02
444.73	8318.26
444.91	8388.48
445.10	8367.42
445.28	8294.86
445.47	8152.09
445.65	8360.39
445.84	8559.34
446.02	8442.31
446.21	8486.78
446.39	8372.10
446.58	8486.78
446.77	8397.84
446.95	8168.47
447.14	8425.93
447.32	8383.80
447.51	8425.93
447.69	8461.04
447.88	8582.74
448.06	8493.80
448.25	8517.21
448.43	8519.55
448.62	8723.18
448.80	8526.57
448.99	8748.92
449.17	8748.92
449.36	8725.52
449.54	8800.41
449.73	8891.70
449.91	9088.30
450.10	8919.78
450.28	8915.10
450.46	8952.55
450.65	8727.86
450.83	9064.89
451.02	8856.59
451.20	9202.99
451.39	9088.30
451.57	9048.51
451.76	9071.92
451.94	9212.35
452.13	9247.46
452.31	9465.13
452.49	9226.39
452.68	9240.44
452.86	9305.97
453.05	9149.15
453.23	9434.70
453.42	9273.20
453.60	9291.93
453.78	9628.96
453.97	9504.92
454.15	9591.52
454.34	9406.61
454.52	9474.49
454.70	9774.08
454.89	9872.38
455.07	9816.21
455.26	9984.73
455.44	9879.40
455.62	9884.08
455.81	9820.89
455.99	10209.42
456.17	9984.73
456.36	10129.84
456.54	10059.62
456.73	10080.69
456.91	10300.70
457.09	10363.89
457.28	10581.56
457.46	10370.91
457.64	10406.02
457.83	10506.66
458.01	10263.25
458.19	10635.39
458.38	10534.75
458.56	10682.20
458.74	10679.86
458.93	10724.33
459.11	10548.79
459.29	10590.92
459.48	10724.33
459.66	10750.08
459.84	11037.97
460.03	11112.86
460.21	10855.40
460.39	10780.51
460.57	10785.19
460.76	11026.26
460.94	10991.16
461.12	10923.28
461.31	11028.60
461.49	11293.08
461.67	11236.91
461.85	11276.70
462.04	11082.44
462.22	11831.41
462.40	11524.80
462.59	11499.05
462.77	11595.01
462.95	11590.33
463.13	11379.68
463.32	11616.08
463.50	11800.98
463.68	11644.17
463.86	11819.71
464.05	11698.00
464.23	11527.14
464.41	11988.22
464.59	11576.29
464.78	12002.27
464.96	11871.20
465.14	11936.73
465.32	12049.08
465.50	12063.12
465.69	12119.29
465.87	12023.33
466.05	12198.87
466.23	12374.41
466.41	12177.81
466.60	12318.24
466.78	12053.76
466.96	12224.62
467.14	12128.66
467.32	12556.97
467.51	12463.35
467.69	12226.96
467.87	12461.01
468.05	12573.36
468.23	12229.30
468.41	12367.39
468.60	12706.77
468.78	12535.91
468.96	12692.73
469.14	12699.75
469.32	12985.29
469.50	12610.81
469.69	12891.67
469.87	12999.34
470.05	12968.91
470.23	13146.79
470.41	12896.35
470.59	13334.03
470.77	12840.18
470.95	13341.05
471.14	13598.51
471.32	13125.72
471.50	13771.71
471.68	13556.38
471.86	13523.62
472.04	13816.18
472.22	13951.93
472.40	13530.64
472.58	13778.73
472.77	14246.84
472.95	13872.36
473.13	14595.58
473.31	14036.19
473.49	14319.40
473.67	14225.78
473.85	14293.65
474.03	14728.99
474.21	14534.73
474.39	14565.15
474.57	14525.36
474.75	15096.46
474.93	15042.62
475.12	14796.87
475.30	14897.51
475.48	15028.58
475.66	15033.26
475.84	15576.27
476.02	15360.94
476.20	15166.67
476.38	15676.91
476.56	15978.84
476.74	15810.32
476.92	15522.43
477.10	15735.42
477.28	16070.12
477.46	16046.71
477.64	16376.73
477.82	16526.52
478.00	16938.46
478.18	16889.31
478.36	16783.98
478.54	17245.07
478.72	16767.60
478.90	17231.02
479.08	17453.37
479.26	17605.51
479.44	17617.21
479.62	17827.86
479.80	18036.17
479.98	18122.77
480.16	18485.55
480.34	18134.47
480.52	18544.06
480.70	18401.29
480.88	18457.46
481.06	18944.30
481.24	18899.83
481.41	19119.84
481.59	19124.52
481.77	19297.72
481.95	19543.47
482.13	19796.25
482.31	19417.08
482.49	20123.93
482.67	20142.65
482.85	20273.72
483.03	20350.96
483.21	20875.24
483.39	20783.96
483.57	20610.76
483.74	20936.09
483.92	21343.35
484.10	21336.32
484.28	21607.83
484.46	21645.27
484.64	22066.57
484.82	21673.36
485.00	22071.25
485.18	22855.33
485.35	22932.57
485.53	22604.89
485.71	22747.67
485.89	23442.81
486.07	23192.37
486.25	23199.39
486.43	23428.76
486.61	23646.43
486.78	23723.67
486.96	23985.81
487.14	24636.48
487.32	24725.42
487.50	24622.44
487.68	24790.95
487.85	25493.12
488.03	25303.53
488.21	25701.42
488.39	25778.66
488.57	26066.55
488.75	26370.82
488.92	26307.62
489.10	26705.51
489.28	26354.43
489.46	26611.89
489.64	26951.27
489.81	27276.60
489.99	27611.30
490.17	27590.24
490.35	28006.85
490.53	27997.49
490.70	28189.41
490.88	28411.76
491.06	28631.77
491.24	28741.78
491.41	28870.51
491.59	29235.63
491.77	29371.38
491.95	29652.25
492.13	29759.91
492.30	29785.66
492.48	29528.20
492.66	30188.23
492.84	30008.01
493.01	30672.72
493.19	30438.67
493.37	30988.69
493.54	31084.65
493.72	31253.17
493.90	31367.86
494.08	31592.55
494.25	31857.03
494.43	32037.25
494.61	32414.08
494.79	32390.67
494.96	32467.91
495.14	32474.93
495.32	33141.99
495.49	33144.33
495.67	33020.28
495.85	33340.93
496.02	33631.16
496.20	34143.74
496.38	34099.26
496.55	33986.92
496.73	34541.63
496.91	34714.83
497.09	34534.60
497.26	34756.96
497.44	34698.44
497.62	35143.14
497.79	35248.47
497.97	35218.04
498.14	35950.63
498.32	36184.68
498.50	35857.01
498.67	36060.63
498.85	36072.34
499.03	36528.74
499.20	36479.59
499.38	36996.85
499.56	36678.54
499.73	37214.52
499.91	37153.66
500.08	37387.72
500.26	36514.70
500.44	37593.68
500.61	37429.85
500.79	37539.85
500.97	38160.09
501.14	38232.65
501.32	38443.30
501.49	38150.73
501.67	38862.26
501.84	38473.73
502.02	38817.78
502.20	39393.56
502.37	39353.77
502.55	39194.61
502.72	39550.37
502.90	39400.58
503.07	39821.87
503.25	39793.79
503.43	39735.27
503.60	39913.16
503.78	39866.34
503.95	40313.39
504.13	39969.33
504.30	40748.73
504.48	40325.09
504.65	40701.92
504.83	40835.33
505.01	40928.95
505.18	40783.83
505.36	41525.78
505.53	40715.96
505.71	41509.40
505.88	41441.53
506.06	41038.95
506.23	41750.48
506.41	41731.75
506.58	41947.08
506.76	42139.00
506.93	42197.52
507.11	42581.37
507.28	42705.41
507.46	42230.29
507.63	42777.97
507.81	42829.46
507.98	42724.14
508.16	42726.48
508.33	42997.98
508.50	43639.29
508.68	43653.33
508.85	43875.68
509.03	43454.39
509.20	44109.74
509.38	43840.57
509.55	44165.91
509.73	43983.35
509.90	44252.51
510.08	44484.22
510.25	44470.18
510.42	44634.02
510.60	44666.78
510.77	44989.78
510.95	45436.82
511.12	45280.00
511.30	44832.96
511.47	45406.39
511.64	45429.80
511.82	45612.36
511.99	45490.65
512.17	45879.18
512.34	45778.54
512.51	45869.82
512.69	46167.07
512.86	46265.37
513.04	46234.94
513.21	46490.06
513.38	46330.90
513.56	46763.90
513.73	46784.97
513.90	46667.94
514.08	46862.21
514.25	46976.89
514.43	47243.71
514.60	47503.51
514.77	47395.85
514.95	48076.94
515.12	47351.38
515.29	47402.87
515.47	47924.81
515.64	47936.51
515.81	47859.27
515.99	48105.03
516.16	48343.77
516.33	47945.87
516.51	48282.91
516.68	48200.99
516.85	48142.48
517.03	48704.21
517.20	48701.87
517.37	48477.18
517.54	48751.02
517.72	48591.86
517.89	48561.44
518.06	49242.53
518.24	49132.53
518.41	49675.53
518.58	49251.89
518.75	49006.14
518.93	49165.29
519.10	49598.29
519.27	49862.77
519.45	49691.91
519.62	50073.42
519.79	49689.57
519.96	49848.73
520.14	49874.48
520.31	50237.26
520.48	50564.93
520.65	50513.44
520.83	50473.65
521.00	50450.25
521.17	50391.73
521.34	50382.37
521.52	50710.05
521.69	50293.43
521.86	50883.25
522.03	51189.86
522.20	51306.88
522.38	51178.15
522.55	51159.43
522.72	51264.75
522.89	51068.15
523.07	51613.49
523.24	51262.41
523.41	51634.56
523.58	51011.98
523.75	51557.32
523.92	51686.05
524.10	51934.15
524.27	51716.48
524.44	51854.57
524.61	52381.19
524.78	51885.00
524.96	51831.16
525.13	52088.62
525.30	52119.05
525.47	52519.28
525.64	52453.75
525.81	52516.94
525.98	52411.62
526.16	52479.49
526.33	52552.05
526.50	52781.42
526.67	52509.92
526.84	52818.87
527.01	52919.51
527.18	52671.42
527.36	52762.70
527.53	52978.03
527.70	53144.20
527.87	53153.57
528.04	53132.50
528.21	53331.45
528.38	53092.71
528.55	53478.90
528.72	53265.91
528.89	53158.25
529.07	53146.54
529.24	53352.51
529.41	53598.27
529.58	53499.97
529.75	53705.93
529.92	53478.90
530.09	53738.70
530.26	53939.99
530.43	54080.42
530.60	53701.25
530.77	53591.25
530.94	53918.92
531.11	53822.96
531.28	54026.59
531.46	54005.52
531.63	54288.73
531.80	53944.67
531.97	54141.27
532.14	54438.52
532.31	54284.04
532.48	54396.39
532.65	54417.46
532.82	54398.73
532.99	54543.84
533.16	54419.80
533.33	54562.57
533.50	54796.62
533.67	54576.61
533.84	54684.28
534.01	54951.10
534.18	54953.44
534.35	55136.00
534.52	54894.92
534.69	55194.51
534.86	55164.09
535.03	54894.92
535.20	55440.27
535.37	55260.05
535.54	55096.21
535.71	55187.49
535.88	55250.69
536.05	55138.34
536.22	55515.17
536.38	55501.12
536.55	55508.14
536.72	55398.14
536.89	55360.69
537.06	55473.04
537.23	55594.74
537.40	55353.67
537.57	55842.84
537.74	55662.62
537.91	55723.47
538.08	55629.85
538.25	55458.99
538.42	55849.86
538.59	55950.51
538.75	55772.63
538.92	56058.17
539.09	56182.22
539.26	56081.58
539.43	56121.37
539.60	56112.00
539.77	56039.45
539.94	56451.38
540.11	56236.05
540.28	56126.05
540.44	56109.66
540.61	56355.42
540.78	56442.02
540.95	56327.33
541.12	56446.70
541.29	56495.85
541.46	56282.86
541.62	56601.18
541.79	56566.07
541.96	56168.18
542.13	56430.32
542.30	56605.86
542.47	56942.89
542.63	56811.82
542.80	56863.32
542.97	57045.88
543.14	57073.96
543.31	56933.53
543.48	57256.53
543.64	57677.82
543.81	57434.41
543.98	57230.78
544.15	57242.48
544.32	57270.57
544.48	57528.03
544.65	57462.49
544.82	57364.19
544.99	57111.41
545.16	57284.61
545.32	57209.71
545.49	57574.84
545.66	57481.22
545.83	57577.18
546.00	57598.24
546.16	57551.43
546.33	57773.78
546.50	57502.28
546.67	57733.99
546.83	57305.68
547.00	57418.02
547.17	57476.54
547.34	57626.33
547.50	58005.50
547.67	57825.28
547.84	57806.55
548.00	58024.22
548.17	57968.05
548.34	58040.60
548.51	58181.04
548.67	58274.66
548.84	58192.74
549.01	57928.26
549.18	57895.49
549.34	58183.38
549.51	58218.49
549.68	58302.74
549.84	58344.87
550.01	58459.56
550.18	58117.84
550.34	58286.36
550.51	58269.98
550.68	58246.57
550.84	58213.80
551.01	58485.31
551.18	58471.26
551.34	58293.38
551.51	58684.25
551.68	58497.01
551.84	58307.43
552.01	58370.62
552.18	58677.23
552.34	58497.01
552.51	58525.10
552.68	58468.92
552.84	58672.55
553.01	58829.37
553.18	58726.38
553.34	58951.07
553.51	58747.45
553.67	58726.38
553.84	58838.73
554.01	58599.99
554.17	58944.05
554.34	59007.25
554.51	59037.67
554.67	58941.71
554.84	58820.00
555.00	58913.62
555.17	59009.59
555.33	58897.24
555.50	59077.46
555.67	58866.81
555.83	59000.22
556.00	59035.33
556.16	59107.89
556.33	59463.65
556.50	59124.27
556.66	59407.48
556.83	59035.33
556.99	59224.92
557.16	59337.26
557.32	59400.46
557.49	59451.95
557.65	59110.23
557.82	59267.05
557.98	59056.40
558.15	59358.33
558.32	59538.55
558.48	59381.73
558.65	59428.54
558.81	59587.70
558.98	59388.75
559.14	59491.74
559.31	59587.70
559.47	59370.03
559.64	59526.84
559.80	59608.76
559.97	59686.00
560.13	59587.70
560.30	59444.93
560.46	59714.09
560.63	59711.75
560.79	59852.18
560.96	59882.61
561.12	59639.19
561.29	59622.81
561.45	59491.74
561.61	59606.42
561.78	59931.76
561.94	59751.54
562.11	59711.75
562.27	59870.90
562.44	59908.35
562.60	59730.47
562.77	60018.36
562.93	59714.09
563.10	59945.80
563.26	59870.90
563.42	60119.00
563.59	59821.75
563.75	59758.56
563.92	59877.93
564.08	59880.27
564.24	60133.04
564.41	59973.89
564.57	59971.55
564.74	59924.74
564.90	60121.34
565.07	59987.93
565.23	60090.91
565.39	59976.23
565.56	60037.08
565.72	60165.81
565.88	59913.03
566.05	60034.74
566.21	60009.00
566.38	60184.54
566.54	59896.65
566.70	60346.03
566.87	60271.14
567.03	60114.32
567.19	60324.97
567.36	60074.53
567.52	60203.26
567.68	60556.68
567.85	60303.90
568.01	60397.52
568.17	60449.02
568.34	60413.91
568.50	60130.70
568.66	60353.05
568.83	60430.29
568.99	60341.35
569.15	60413.91
569.32	60397.52
569.48	60172.83
569.64	60299.22
569.81	60271.14
569.97	60310.92
570.13	60430.29
570.30	60313.26
570.46	60341.35
570.62	60299.22
570.78	60526.25
570.95	60275.82
571.11	60502.85
571.27	60240.71
571.43	60484.12
571.60	60692.43
571.76	60336.67
571.92	60570.72
572.09	60413.91
572.25	60570.72
572.41	60521.57
572.57	60479.44
572.74	60577.75
572.90	60603.49
573.06	60760.31
573.22	60589.45
573.38	60617.53
573.55	60544.98
573.71	60795.42
573.87	60722.86
574.03	60425.61
574.20	60591.79
574.36	60411.57
574.52	60622.22
574.68	60633.92
574.84	60776.69
575.01	60629.24
575.17	60509.87
575.33	60647.96
575.49	60519.23
575.65	60814.14
575.82	60605.83
575.98	60575.40
576.14	60797.76
576.30	60629.24
576.46	60500.51
576.62	60715.84
576.79	60547.32
576.95	60671.37
577.11	60673.71
577.27	60732.22
577.43	60762.65
577.59	60563.70
577.75	60760.31
577.92	60605.83
578.08	60795.42
578.24	60802.44
578.40	60954.57
578.56	60919.46
578.72	60753.29
578.88	60821.16
579.04	60919.46
579.21	60762.65
579.37	60652.64
579.53	60863.29
579.69	60631.58
579.85	60678.39
580.01	60903.08
580.17	60821.16
580.33	60797.76
580.49	60823.50
580.65	60870.31
580.82	60736.90
580.98	60795.42
581.14	60764.99
581.30	60912.44
581.46	60884.36
581.62	61015.43
581.78	60683.07
581.94	60924.14
582.10	60664.35
582.26	60814.14
582.42	60727.54
582.58	60783.71
582.74	60851.59
582.90	60811.80
583.06	60835.20
583.22	60687.75
583.38	60807.12
583.54	60872.65
583.70	60970.96
583.86	61024.79
584.02	60753.29
584.18	61003.72
584.34	60992.02
584.50	60874.99
584.66	60853.93
584.82	60786.05
584.98	61055.21
585.14	60933.51
585.30	60821.16
585.46	60917.12
585.62	60966.27
585.78	60952.23
585.94	60781.37
586.10	60797.76
586.26	60828.18
586.42	61034.15
586.58	61127.77
586.74	60884.36
586.90	60985.00
587.06	60718.18
587.22	61125.43
587.38	61066.92
587.54	61027.13
587.70	61139.47
587.86	60977.98
588.02	61050.53
588.18	61132.45
588.34	60954.57
588.49	60898.40
