SpectraSuite Data File
++++++++++++++++++++++++++++++++++++
Date: Fri Oct 25 11:26:34 EDT 2013
User: price-jones
Dark Spectrum Present: No
Reference Spectrum Present: No
Number of Sampled Component Spectra: 1
Spectrometers: USB2+H05261
Integration Time (usec): 100000 (USB2+H05261)
Spectra Averaged: 1 (USB2+H05261)
Boxcar Smoothing: 0 (USB2+H05261)
Correct for Electrical Dark: No (USB2+H05261)
Strobe/Lamp Enabled: No (USB2+H05261)
Correct for Detector Non-linearity: No (USB2+H05261)
Correct for Stray Light: No (USB2+H05261)
Number of Pixels in Processed Spectrum: 2048
>>>>>Begin Processed Spectral Data<<<<<
365.73	229.37
365.92	229.37
366.12	229.37
366.32	205.97
366.52	131.07
366.72	124.05
366.91	177.88
367.11	168.52
367.31	220.01
367.51	161.50
367.70	67.88
367.90	203.63
368.10	114.69
368.30	177.88
368.49	203.63
368.69	180.22
368.89	70.22
369.09	205.97
369.28	180.22
369.48	67.88
369.68	196.60
369.87	212.99
370.07	243.42
370.27	205.97
370.47	367.46
370.66	622.58
370.86	681.10
371.06	674.07
371.25	648.33
371.45	690.46
371.65	683.44
371.84	692.80
372.04	725.57
372.24	692.80
372.44	688.12
372.63	793.44
372.83	718.54
373.03	734.93
373.22	732.59
373.42	814.51
373.62	889.40
373.81	814.51
374.01	849.61
374.21	821.53
374.40	870.68
374.60	849.61
374.79	816.85
374.99	837.91
375.19	828.55
375.38	837.91
375.58	805.14
375.78	898.77
375.97	929.19
376.17	968.98
376.37	805.14
376.56	905.79
376.76	868.34
376.95	842.59
377.15	875.36
377.35	931.53
377.54	964.30
377.74	973.66
377.93	901.11
378.13	877.70
378.33	1004.09
378.52	882.38
378.72	947.92
378.91	884.72
379.11	938.55
379.31	926.85
379.50	924.51
379.70	919.83
379.89	952.60
380.09	971.32
380.28	957.28
380.48	1015.79
380.68	1004.09
380.87	994.73
381.07	1060.26
381.26	1013.45
381.46	1142.18
381.65	1018.13
381.85	1078.99
382.04	1067.28
382.24	1048.56
382.43	1071.97
382.63	1163.25
382.83	1137.50
383.02	1095.37
383.22	1146.86
383.41	1078.99
383.61	1090.69
383.80	1214.74
384.00	1158.57
384.19	1076.65
384.39	1174.95
384.58	1093.03
384.78	1170.27
384.97	1156.22
385.17	1228.78
385.36	1130.48
385.56	1165.59
385.75	1198.35
385.95	1235.80
386.14	1247.51
386.34	1233.46
386.53	1200.69
386.72	1252.19
386.92	1282.61
387.11	1165.59
387.31	1226.44
387.50	1224.10
387.70	1249.85
387.89	1338.79
388.09	1266.23
388.28	1315.38
388.48	1224.10
388.67	1301.34
388.86	1291.98
389.06	1306.02
389.25	1338.79
389.45	1345.81
389.64	1317.72
389.84	1425.39
390.03	1345.81
390.22	1355.17
390.42	1418.36
390.61	1373.89
390.81	1371.55
391.00	1394.96
391.19	1465.18
391.39	1420.71
391.58	1446.45
391.78	1432.41
391.97	1549.43
392.16	1521.35
392.36	1565.82
392.55	1509.65
392.75	1495.60
392.94	1523.69
393.13	1507.30
393.33	1575.18
393.52	1575.18
393.71	1535.39
393.91	1556.46
394.10	1584.54
394.29	1710.93
394.49	1612.63
394.68	1680.50
394.88	1643.06
395.07	1689.87
395.26	1657.10
395.46	1605.61
395.65	1802.21
395.84	1720.29
396.04	1722.63
396.23	1785.83
396.42	1650.08
396.62	1797.53
396.81	1743.70
397.00	1781.15
397.19	1755.40
397.39	1827.96
397.58	1877.11
397.77	1846.68
397.97	1811.57
398.16	1851.36
398.35	1853.70
398.55	1844.34
398.74	1916.90
398.93	1968.39
399.12	2012.86
399.32	1856.04
399.51	1963.71
399.70	1961.37
399.90	1902.86
400.09	2146.27
400.28	2076.06
400.47	2050.31
400.67	2097.12
400.86	2064.35
401.05	2143.93
401.24	2190.74
401.44	2148.61
401.63	2197.76
401.82	2174.36
402.01	2148.61
402.21	2211.81
402.40	2115.84
402.59	2143.93
402.78	2214.15
402.97	2232.87
403.17	2134.57
403.36	2366.28
403.55	2333.51
403.74	2420.11
403.93	2331.17
404.13	2396.71
404.32	2207.13
404.51	2312.45
404.70	2319.47
404.89	2303.09
405.09	2373.30
405.28	2504.37
405.47	2420.11
405.66	2394.37
405.85	2513.74
406.05	2466.92
406.24	2670.55
406.43	2600.34
406.62	2583.95
406.81	2649.49
407.00	2576.93
407.20	2679.91
407.39	2565.23
407.58	2752.47
407.77	2857.79
407.96	2766.51
408.15	2775.88
408.34	2738.43
408.54	2736.09
408.73	2703.32
408.92	2890.56
409.11	2949.08
409.30	2928.01
409.49	2991.20
409.68	2946.73
409.87	2939.71
410.07	3002.91
410.26	3101.21
410.45	2981.84
410.64	3038.02
410.83	3091.85
411.02	3080.14
411.21	3150.36
411.40	3133.98
411.59	3243.98
411.78	3155.04
411.98	3171.43
412.17	3372.71
412.36	3227.60
412.55	3489.74
412.74	3365.69
412.93	3440.59
413.12	3405.48
413.31	3473.36
413.50	3478.04
413.69	3571.66
413.88	3604.42
414.07	3564.64
414.26	3646.55
414.45	3531.87
414.64	3772.94
414.83	3889.97
415.02	3803.37
415.22	3969.55
415.41	3873.59
415.60	3829.12
415.79	3812.73
415.98	4058.49
416.17	4035.08
416.36	3967.21
416.55	3932.10
416.74	4093.60
416.93	4180.20
417.12	4067.85
417.31	4227.01
417.50	4231.69
417.69	4262.12
417.88	4409.57
418.07	4327.65
418.26	4318.29
418.45	4262.12
418.64	4491.49
418.83	4346.37
419.02	4250.41
419.21	4454.04
419.39	4540.64
419.58	4440.00
419.77	4444.68
419.96	4554.68
420.15	4589.79
420.34	4660.01
420.53	4685.75
420.72	4704.48
420.91	4655.33
421.10	4809.80
421.29	4959.60
421.48	4662.35
421.67	4662.35
421.86	4741.93
422.05	4770.01
422.24	4952.57
422.43	4971.30
422.61	4929.17
422.80	4936.19
422.99	4924.49
423.18	4945.55
423.37	5067.26
423.56	5050.88
423.75	4880.02
423.94	4858.95
424.13	4615.54
424.32	4795.76
424.50	5053.22
424.69	5195.99
424.88	4964.28
425.07	5125.77
425.26	4858.95
425.45	5008.75
425.64	5050.88
425.83	4994.70
426.01	5025.13
426.20	5151.52
426.39	5069.60
426.58	4966.62
426.77	5118.75
426.96	5322.38
427.15	5057.90
427.33	5362.17
427.52	5198.33
427.71	5259.18
427.90	5294.29
428.09	5240.46
428.28	5369.19
428.46	5390.25
428.65	5181.95
428.84	5425.36
429.03	5549.41
429.22	5486.22
429.40	5497.92
429.59	5530.69
429.78	5280.25
429.97	5289.61
430.16	5589.20
430.34	5551.75
430.53	5652.39
430.72	5687.50
430.91	5654.73
431.10	5636.01
431.28	5762.40
431.47	5783.46
431.66	5724.95
431.85	5970.71
432.03	5942.62
432.22	6033.90
432.41	5970.71
432.60	5926.24
432.79	6085.39
432.97	5968.37
433.16	6003.47
433.35	5963.68
433.54	6160.29
433.72	5947.30
433.91	6176.67
434.10	6125.18
434.28	6162.63
434.47	6022.20
434.66	6340.51
434.85	6284.34
435.03	6347.53
435.22	6153.27
435.41	6429.45
435.59	6321.79
435.78	6576.91
435.97	6478.60
436.16	6590.95
436.34	6445.84
436.53	6487.96
436.72	6637.76
436.90	6462.22
437.09	6595.63
437.28	6558.18
437.46	6551.16
437.65	6719.68
437.84	6890.54
438.02	6775.85
438.21	6923.30
438.40	6670.53
438.58	7033.31
438.77	7117.57
438.96	7007.56
439.14	7129.27
439.33	7246.30
439.52	7253.32
439.70	7218.21
439.89	7304.81
440.08	7351.62
440.26	7325.88
440.45	7389.07
440.63	7478.01
440.82	7679.30
441.01	7545.89
441.19	7627.81
441.38	7761.22
441.57	7639.51
441.75	7721.43
441.94	7941.44
442.12	7873.56
442.31	8084.21
442.50	8039.74
442.68	7803.35
442.87	8013.99
443.05	8142.72
443.24	8056.12
443.43	8217.62
443.61	8142.72
443.80	8423.59
443.98	7761.22
444.17	7857.18
444.35	8322.94
444.54	8332.31
444.73	8393.16
444.91	8334.65
445.10	8533.59
445.28	8407.20
445.47	8173.15
445.65	8365.07
445.84	8367.42
446.02	8503.17
446.21	8423.59
446.39	8311.24
446.58	8430.61
446.77	8514.87
446.95	8238.69
447.14	8463.38
447.32	8500.83
447.51	8568.70
447.69	8463.38
447.88	8564.02
448.06	8643.60
448.25	8564.02
448.43	8566.36
448.62	8547.64
448.80	8561.68
448.99	8566.36
449.17	8905.74
449.36	8835.52
449.54	8858.93
449.73	8952.55
449.91	9085.96
450.10	9114.05
450.28	8990.00
450.46	9039.15
450.65	8849.57
450.83	9153.84
451.02	9036.81
451.20	8994.68
451.39	9100.00
451.57	9254.48
451.76	9020.42
451.94	9139.79
452.13	9284.91
452.31	9200.65
452.49	9254.48
452.68	9462.79
452.86	9195.96
453.05	9399.59
453.23	9706.20
453.42	9153.84
453.60	9411.29
453.78	9668.75
453.97	9633.64
454.15	9741.31
454.34	9474.49
454.52	9834.93
454.70	9792.80
454.89	9802.16
455.07	9652.37
455.26	9647.69
455.44	10146.22
455.62	9884.08
455.81	9774.08
455.99	9870.04
456.17	10033.88
456.36	10155.58
456.54	10382.62
456.73	10263.25
456.91	10586.24
457.09	10462.19
457.28	10572.20
457.46	10466.88
457.64	10289.00
457.83	10637.73
458.01	10548.79
458.19	10925.62
458.38	10714.97
458.56	10796.89
458.74	10654.12
458.93	10794.55
459.11	10827.32
459.29	10696.25
459.48	10965.41
459.66	10654.12
459.84	10909.24
460.03	10937.32
460.21	11059.03
460.39	10932.64
460.57	11253.30
460.76	11014.56
460.94	11040.31
461.12	11199.46
461.31	11426.50
461.49	11213.51
461.67	11410.11
461.85	11508.41
462.04	11290.74
462.22	11618.42
462.40	11707.36
462.59	11571.61
462.77	11604.38
462.95	11852.47
463.13	11435.86
463.32	11590.33
463.50	11749.49
463.68	11665.23
463.86	11798.64
464.05	11789.28
464.23	11611.40
464.41	11716.72
464.59	11777.58
464.78	12006.95
464.96	11754.17
465.14	11939.07
465.32	11992.90
465.50	12095.89
465.69	12081.85
465.87	11815.02
466.05	12119.29
466.23	12292.49
466.41	12020.99
466.60	12381.43
466.78	12142.70
466.96	12290.15
467.14	12421.22
467.32	12386.12
467.51	12578.04
467.69	12037.38
467.87	12461.01
468.05	12587.40
468.23	12421.22
468.41	12568.68
468.60	12500.80
468.78	12765.28
468.96	12514.84
469.14	12709.11
469.32	12851.88
469.50	12582.72
469.69	13011.04
469.87	13165.51
470.05	13217.01
470.23	13217.01
470.41	13245.09
470.59	13462.76
470.77	13202.96
470.95	13289.56
471.14	13507.23
471.32	13097.64
471.50	13610.22
471.68	13717.88
471.86	13624.26
472.04	13778.73
472.22	14267.91
472.40	13682.77
472.58	13900.44
472.77	14052.58
472.95	14230.46
473.13	14581.54
473.31	13914.48
473.49	14382.59
473.67	14288.97
473.85	14576.86
474.03	14469.19
474.21	14773.46
474.39	14665.80
474.57	14684.52
474.75	14834.32
474.93	15094.11
475.12	14757.08
475.30	15269.66
475.48	15063.69
475.66	15456.90
475.84	15152.63
476.02	15286.04
476.20	15246.25
476.38	15707.34
476.56	16116.93
476.74	16301.83
476.92	15953.09
477.10	15845.43
477.28	16011.60
477.46	16025.65
477.64	16449.28
477.82	16821.43
478.00	16758.24
478.18	16861.22
478.36	16819.09
478.54	16989.95
478.72	17308.26
478.90	17191.23
479.08	17263.79
479.26	17642.96
479.44	17935.53
479.62	17682.75
479.80	17933.18
479.98	18375.55
480.16	18441.08
480.34	18232.77
480.52	18799.18
480.70	18651.73
480.88	18394.27
481.06	18930.25
481.24	18836.63
481.41	18974.72
481.59	19597.31
481.77	19274.31
481.95	19536.45
482.13	19431.13
482.31	19524.75
482.49	20247.97
482.67	20182.44
482.85	20475.01
483.03	20762.89
483.21	20779.28
483.39	21027.37
483.57	20964.18
483.74	21139.72
483.92	21366.75
484.10	21214.62
484.28	21289.51
484.46	22125.08
484.64	22237.43
484.82	21839.54
485.00	22288.92
485.18	22719.58
485.35	23133.86
485.53	22916.19
485.71	23276.63
485.89	23412.38
486.07	23388.97
486.25	23679.20
486.43	24011.56
486.61	23948.36
486.78	24184.76
486.96	24542.86
487.14	24577.97
487.32	24650.52
487.50	24643.50
487.68	25205.23
487.85	25254.38
488.03	25535.24
488.21	26157.83
488.39	25755.26
488.57	25989.31
488.75	26319.32
488.92	26242.09
489.10	26595.51
489.28	26539.33
489.46	26953.61
489.64	26958.29
489.81	27419.38
489.99	27634.71
490.17	27686.20
490.35	28091.11
490.53	28217.50
490.70	28467.94
490.88	28196.43
491.06	28807.31
491.24	28854.12
491.41	29041.37
491.59	29558.63
491.77	29462.66
491.95	29839.49
492.13	29614.80
492.30	30005.67
492.48	30190.57
492.66	30338.02
492.84	30265.47
493.01	30670.38
493.19	30569.74
493.37	30925.50
493.54	31370.20
493.72	31608.93
493.90	31971.72
494.08	31915.54
494.25	32093.43
494.43	32116.83
494.61	32435.14
494.79	32624.73
494.96	32479.61
495.14	32837.72
495.32	33090.49
495.49	33310.50
495.67	33359.66
495.85	33584.35
496.02	33825.42
496.20	33923.72
496.38	33802.02
496.55	34178.84
496.73	34738.23
496.91	34539.29
497.09	34300.55
497.26	35051.86
497.44	35000.37
497.62	35166.55
497.79	36194.04
497.97	35482.52
498.14	36212.77
498.32	35995.10
498.50	36282.98
498.67	36701.94
498.85	36456.18
499.03	36840.03
499.20	37090.47
499.38	36973.44
499.56	36713.64
499.73	37385.38
499.91	37397.08
500.08	37457.93
500.26	37677.94
500.44	37820.72
500.61	37825.40
500.79	37951.79
500.97	37958.81
501.14	38586.07
501.32	38499.47
501.49	38604.80
501.67	38747.57
501.84	38747.57
502.02	38794.38
502.20	39292.91
502.37	39030.77
502.55	39037.80
502.72	39276.53
502.90	39564.42
503.07	39594.84
503.25	40498.29
503.43	39597.18
503.60	39669.74
503.78	40121.46
503.95	40439.78
504.13	40568.51
504.30	40484.25
504.48	40360.20
504.65	40472.54
504.83	41242.58
505.01	41518.76
505.18	41216.83
505.36	41670.90
505.53	41495.36
505.71	41511.74
505.88	41607.70
506.06	41308.11
506.23	41958.78
506.41	41598.34
506.58	42127.30
506.76	42373.06
506.93	42600.09
507.11	42674.99
507.28	42752.23
507.46	43044.79
507.63	42988.62
507.81	43040.11
507.98	42373.06
508.16	43285.87
508.33	43363.11
508.50	43665.03
508.68	43622.90
508.85	43456.73
509.03	43718.87
509.20	43761.00
509.38	44161.23
509.55	44528.69
509.73	44545.08
509.90	44458.48
510.08	44575.50
510.25	44683.17
510.42	44935.95
510.60	45244.90
510.77	44896.16
510.95	45680.24
511.12	44889.13
511.30	45226.17
511.47	45392.35
511.64	45799.60
511.82	45834.71
511.99	45727.05
512.17	46036.00
512.34	46241.96
512.51	46803.69
512.69	46440.91
512.86	46319.20
513.04	46988.60
513.21	46642.20
513.38	46780.29
513.56	47044.77
513.73	46951.15
513.90	46972.21
514.08	46927.74
514.25	47187.54
514.43	47243.71
514.60	47330.31
514.77	47164.14
514.95	47615.86
515.12	47437.98
515.29	47611.18
515.47	47990.34
515.64	48367.17
515.81	47931.83
515.99	48238.44
516.16	48301.64
516.33	48095.67
516.51	48392.92
516.68	48336.74
516.85	48800.17
517.03	48851.66
517.20	49301.04
517.37	48872.73
517.54	49001.46
517.72	48580.16
517.89	48865.70
518.06	49478.92
518.24	48924.22
518.41	49289.34
518.58	49174.66
518.75	49261.26
518.93	49881.50
519.10	49530.42
519.27	50021.93
519.45	49694.25
519.62	50094.49
519.79	49998.52
519.96	49874.48
520.14	50230.24
520.31	50342.58
520.48	50342.58
520.65	50365.99
520.83	50501.74
521.00	50527.48
521.17	50588.34
521.34	50731.11
521.52	50899.63
521.69	50883.25
521.86	51040.06
522.03	51253.05
522.20	51023.68
522.38	51283.48
522.55	51643.92
522.72	51344.33
522.89	51386.46
523.07	51400.50
523.24	51461.36
523.41	51758.61
523.58	51339.65
523.75	52617.58
523.92	51777.33
524.10	51952.87
524.27	51828.82
524.44	52236.08
524.61	52224.37
524.78	52210.33
524.96	52175.22
525.13	52317.99
525.30	52364.81
525.47	52397.57
525.64	52390.55
525.81	52767.38
525.98	52743.97
526.16	52832.91
526.33	52507.58
526.50	53198.04
526.67	52839.93
526.84	53048.24
527.01	53017.82
527.18	53097.39
527.36	53081.01
527.53	52596.52
527.70	53579.54
527.87	53336.13
528.04	53095.05
528.21	53467.20
528.38	53485.92
528.55	53839.34
528.72	53237.83
528.89	53542.10
529.07	53296.34
529.24	53471.88
529.41	53939.99
529.58	53546.78
529.75	53668.48
529.92	53748.06
530.09	53841.68
530.26	54101.48
530.43	54298.09
530.60	53769.13
530.77	54078.08
530.94	54244.26
531.11	54019.56
531.28	54092.12
531.46	54071.06
531.63	54307.45
531.80	54298.09
531.97	54040.63
532.14	54560.23
532.31	54822.37
532.48	54602.36
532.65	54440.86
532.82	54511.08
532.99	54691.30
533.16	54623.42
533.33	54824.71
533.50	54988.55
533.67	55002.59
533.84	54768.54
534.01	55056.42
534.18	54972.16
534.35	55196.85
534.52	55093.87
534.69	54946.42
534.86	55370.05
535.03	55257.71
535.20	55330.26
535.37	55627.51
535.54	55451.97
535.71	55278.77
535.88	55671.98
536.05	55636.87
536.22	55573.68
536.38	55412.18
536.55	55578.36
536.72	55454.31
536.89	55435.59
537.06	55643.90
537.23	55845.18
537.40	55468.36
537.57	55772.63
537.74	55894.33
537.91	56144.77
538.08	56165.84
538.25	55517.51
538.42	56112.00
538.59	56013.70
538.75	55793.69
538.92	55899.01
539.09	56156.47
539.26	56245.41
539.43	56315.63
539.60	56376.48
539.77	56170.52
539.94	56418.61
540.11	56332.01
540.28	56552.02
540.44	56327.33
540.61	56453.72
540.78	56369.46
540.95	56507.55
541.12	56104.98
541.29	56451.38
541.46	56493.51
541.62	56573.09
541.79	56900.76
541.96	56685.43
542.13	56500.53
542.30	56729.90
542.47	56608.20
542.63	56919.49
542.80	56919.49
542.97	57041.20
543.14	57392.28
543.31	57153.54
543.48	57293.97
543.64	57553.77
543.81	57567.82
543.98	57158.22
544.15	57333.76
544.32	57670.80
544.48	57623.99
544.65	57455.47
544.82	57389.94
544.99	57380.57
545.16	57549.09
545.32	57546.75
545.49	57853.36
545.66	57764.42
545.83	57565.48
546.00	57631.01
546.16	57729.31
546.33	57528.03
546.50	57476.54
546.67	57649.74
546.83	57453.13
547.00	57708.25
547.17	57836.98
547.34	57726.97
547.50	57939.96
547.67	58129.54
547.84	58110.82
548.00	58117.84
548.17	58141.25
548.34	58293.38
548.51	58277.00
548.67	58047.63
548.84	58169.33
549.01	58277.00
549.18	57979.75
549.34	58286.36
549.51	58363.60
549.68	58443.18
549.84	58340.19
550.01	58445.52
550.18	58295.72
550.34	58396.37
550.51	58569.57
550.68	58461.90
550.84	58351.90
551.01	58749.79
551.18	58541.48
551.34	58288.70
551.51	58663.19
551.68	58604.67
551.84	58614.04
552.01	58396.37
552.18	58632.76
552.34	58632.76
552.51	58770.85
552.68	58588.29
552.84	58473.60
553.01	58953.41
553.18	58672.55
553.34	58798.94
553.51	58740.42
553.67	58782.55
553.84	59037.67
554.01	58862.13
554.17	59063.42
554.34	59203.85
554.51	58885.54
554.67	59075.12
554.84	58990.86
555.00	59166.40
555.17	58838.73
555.33	59084.48
555.50	59028.31
555.67	59135.98
555.83	59023.63
556.00	59274.07
556.16	59458.97
556.33	59344.28
556.50	59079.80
556.66	59255.34
556.83	59028.31
556.99	59529.19
557.16	59475.35
557.32	59554.93
557.49	59718.77
557.65	59519.82
557.82	59260.02
557.98	59491.74
558.15	59395.77
558.32	59547.91
558.48	59419.18
558.65	59456.63
558.81	59381.73
558.98	59426.20
559.14	59784.30
559.31	59643.87
559.47	59676.64
559.64	59674.30
559.80	59674.30
559.97	59737.49
560.13	59648.55
560.30	59695.36
560.46	59915.37
560.63	59838.14
560.79	59620.47
560.96	60023.04
561.12	59962.18
561.29	59849.84
561.45	59807.71
561.61	59957.50
561.78	59772.60
561.94	59896.65
562.11	59901.33
562.27	59929.42
562.44	60053.47
562.60	59927.08
562.77	60111.98
562.93	59903.67
563.10	60198.58
563.26	60161.13
563.42	60210.28
563.59	60027.72
563.75	59985.59
563.92	60161.13
564.08	60037.08
564.24	60060.49
564.41	60179.85
564.57	60278.16
564.74	59950.48
564.90	60126.02
565.07	60189.22
565.23	60238.37
565.39	60055.81
565.56	60060.49
565.72	59849.84
565.88	60044.10
566.05	60121.34
566.21	60172.83
566.38	60177.51
566.54	60271.14
566.70	60313.26
566.87	60399.86
567.03	60226.66
567.19	60479.44
567.36	60252.41
567.52	60214.96
567.68	60449.02
567.85	60378.80
568.01	60367.10
568.17	60465.40
568.34	60420.93
568.50	60416.25
568.66	60458.38
568.83	60481.78
568.99	60111.98
569.15	60512.21
569.32	60549.66
569.48	60460.72
569.64	60776.69
569.81	60481.78
569.97	60317.95
570.13	60521.57
570.30	60444.33
570.46	60530.93
570.62	60549.66
570.78	60535.62
570.95	60463.06
571.11	60591.79
571.27	60416.25
571.43	60612.85
571.60	60542.64
571.76	60535.62
571.92	60605.83
572.09	60645.62
572.25	60542.64
572.41	60622.22
572.57	60561.36
572.74	60842.23
572.90	60509.87
573.06	60720.52
573.22	60493.49
573.38	60631.58
573.55	60678.39
573.71	60800.10
573.87	60786.05
574.03	60680.73
574.20	60647.96
574.36	60720.52
574.52	60743.92
574.68	60750.94
574.84	60790.73
575.01	60903.08
575.17	60619.88
575.33	60570.72
575.49	60507.53
575.65	60505.19
575.82	60912.44
575.98	60711.16
576.14	61013.08
576.30	60725.20
576.46	60753.29
576.62	60762.65
576.79	60727.54
576.95	60544.98
577.11	60956.91
577.27	60910.10
577.43	60963.93
577.59	60793.07
577.75	60788.39
577.92	60605.83
578.08	60910.10
578.24	60781.37
578.40	61183.94
578.56	60982.66
578.72	60720.52
578.88	61123.09
579.04	60954.57
579.21	61006.06
579.37	61038.83
579.53	60921.80
579.69	60734.56
579.85	60755.63
580.01	60839.89
580.17	60846.91
580.33	60844.57
580.49	60961.59
580.65	60970.96
580.82	60856.27
580.98	61017.77
581.14	60631.58
581.30	60879.67
581.46	60741.58
581.62	60743.92
581.78	60867.97
581.94	60933.51
582.10	60889.04
582.26	60924.14
582.42	60804.78
582.58	60982.66
582.74	60947.55
582.90	61020.11
583.06	61001.38
583.22	60924.14
583.38	60952.23
583.54	60994.36
583.70	61155.86
583.86	61048.19
584.02	61109.05
584.18	61034.15
584.34	61085.64
584.50	60919.46
584.66	61050.53
584.82	60849.25
584.98	61153.52
585.14	61111.39
585.30	60790.73
585.46	61118.41
585.62	60985.00
585.78	61099.68
585.94	60760.31
586.10	60975.64
586.26	61104.37
586.42	61258.84
586.58	61146.50
586.74	61066.92
586.90	60973.30
587.06	60945.21
587.22	61069.26
587.38	60921.80
587.54	61272.88
587.70	61291.61
587.86	61036.49
588.02	60987.34
588.18	61228.41
588.34	61076.28
588.49	61078.62
