SpectraSuite Data File
++++++++++++++++++++++++++++++++++++
Date: Fri Oct 25 10:48:07 EDT 2013
User: price-jones
Dark Spectrum Present: No
Reference Spectrum Present: No
Number of Sampled Component Spectra: 1
Spectrometers: USB2+H05261
Integration Time (usec): 100000 (USB2+H05261)
Spectra Averaged: 1 (USB2+H05261)
Boxcar Smoothing: 0 (USB2+H05261)
Correct for Electrical Dark: No (USB2+H05261)
Strobe/Lamp Enabled: No (USB2+H05261)
Correct for Detector Non-linearity: No (USB2+H05261)
Correct for Stray Light: No (USB2+H05261)
Number of Pixels in Processed Spectrum: 2048
>>>>>Begin Processed Spectral Data<<<<<
365.73	184.90
365.92	184.90
366.12	184.90
366.32	91.28
366.52	18.72
366.72	74.90
366.91	44.47
367.11	21.06
367.31	18.72
367.51	77.24
367.70	21.06
367.90	14.04
368.10	93.62
368.30	65.54
368.49	56.17
368.69	72.56
368.89	42.13
369.09	70.22
369.28	138.09
369.48	35.11
369.68	53.83
369.87	72.56
370.07	102.98
370.27	159.16
370.47	81.92
370.66	409.59
370.86	386.19
371.06	435.34
371.25	526.62
371.45	498.53
371.65	444.70
371.84	409.59
372.04	482.15
372.24	454.06
372.44	493.85
372.63	493.85
372.83	440.02
373.03	491.51
373.22	477.47
373.42	479.81
373.62	484.49
373.81	552.37
374.01	566.41
374.21	496.19
374.40	540.66
374.60	552.37
374.79	573.43
374.99	519.60
375.19	615.56
375.38	486.83
375.58	575.77
375.78	622.58
375.97	587.47
376.17	559.39
376.37	568.75
376.56	610.88
376.76	603.86
376.95	547.69
377.15	599.18
377.35	610.88
377.54	578.11
377.74	608.54
377.93	571.09
378.13	643.65
378.33	660.03
378.52	547.69
378.72	594.50
378.91	631.94
379.11	629.60
379.31	599.18
379.50	592.16
379.70	615.56
379.89	634.29
380.09	582.79
380.28	547.69
380.48	657.69
380.68	683.44
380.87	575.77
381.07	631.94
381.26	638.97
381.46	643.65
381.65	627.26
381.85	648.33
382.04	660.03
382.24	674.07
382.43	671.73
382.63	641.31
382.83	667.05
383.02	695.14
383.22	695.14
383.41	678.76
383.61	755.99
383.80	727.91
384.00	702.16
384.19	643.65
384.39	723.23
384.58	753.65
384.78	819.19
384.97	814.51
385.17	730.25
385.36	706.84
385.56	772.38
385.75	720.88
385.95	767.70
386.14	765.36
386.34	704.50
386.53	760.67
386.72	716.20
386.92	802.80
387.11	823.87
387.31	875.36
387.50	779.40
387.70	751.31
387.89	765.36
388.09	837.91
388.28	823.87
388.48	800.46
388.67	851.96
388.86	837.91
389.06	849.61
389.25	919.83
389.45	954.94
389.64	954.94
389.84	882.38
390.03	919.83
390.22	903.45
390.42	917.49
390.61	774.72
390.81	868.34
391.00	910.47
391.19	919.83
391.39	868.34
391.58	894.08
391.78	1029.84
391.97	983.02
392.16	954.94
392.36	971.32
392.55	926.85
392.75	835.57
392.94	931.53
393.13	919.83
393.33	889.40
393.52	1006.43
393.71	1001.75
393.91	1048.56
394.10	997.07
394.29	980.68
394.49	1093.03
394.68	1128.14
394.88	1203.04
395.07	1069.62
395.26	1015.79
395.46	1071.97
395.65	1097.71
395.84	1123.46
396.04	1205.38
396.23	1048.56
396.42	1128.14
396.62	1088.35
396.81	1123.46
397.00	1121.12
397.19	1125.80
397.39	1188.99
397.58	1273.25
397.77	1188.99
397.97	1343.47
398.16	1254.53
398.35	1322.40
398.55	1313.04
398.74	1355.17
398.93	1324.74
399.12	1242.82
399.32	1291.98
399.51	1280.27
399.70	1418.36
399.90	1343.47
400.09	1359.85
400.28	1427.73
400.47	1380.92
400.67	1434.75
400.86	1394.96
401.05	1359.85
401.24	1432.41
401.44	1362.19
401.63	1479.22
401.82	1430.07
402.01	1523.69
402.21	1427.73
402.40	1481.56
402.59	1526.03
402.78	1537.73
402.97	1650.08
403.17	1540.07
403.36	1584.54
403.55	1549.43
403.74	1600.93
403.93	1586.88
404.13	1598.59
404.32	1579.86
404.51	1600.93
404.70	1680.50
404.89	1713.27
405.09	1724.97
405.28	1652.42
405.47	1617.31
405.66	1706.25
405.85	1659.44
406.05	1586.88
406.24	1710.93
406.43	1734.34
406.62	1832.64
406.81	1865.41
407.00	1703.91
407.20	1757.74
407.39	1799.87
407.58	1753.06
407.77	1977.75
407.96	1893.49
408.15	1996.48
408.34	1879.45
408.54	1956.69
408.73	1952.01
408.92	2012.86
409.11	1970.73
409.30	1973.07
409.49	1905.20
409.68	2057.33
409.87	2071.37
410.07	1928.60
410.26	2040.95
410.45	2043.29
410.64	2097.12
410.83	2195.42
411.02	2085.42
411.21	2324.15
411.40	2218.83
411.59	2221.17
411.78	2225.85
411.98	2176.70
412.17	2359.26
412.36	2277.34
412.55	2338.20
412.74	2476.29
412.93	2513.74
413.12	2359.26
413.31	2586.29
413.50	2396.71
413.69	2349.90
413.88	2612.04
414.07	2616.72
414.26	2546.50
414.45	2567.57
414.64	2651.83
414.83	2633.10
415.02	2590.97
415.22	2626.08
415.41	2766.51
415.60	2759.49
415.79	2722.04
415.98	2750.13
416.17	2920.99
416.36	2918.65
416.55	2839.07
416.74	2916.31
416.93	2860.13
417.12	2949.08
417.31	2925.67
417.50	2860.13
417.69	2956.10
417.88	2986.52
418.07	2883.54
418.26	2935.03
418.45	3075.46
418.64	3190.15
418.83	3040.36
419.02	3112.91
419.21	3190.15
419.39	3227.60
419.58	3016.95
419.77	3119.93
419.96	3211.22
420.15	3279.09
420.34	3138.66
420.53	3272.07
420.72	3265.05
420.91	3403.14
421.10	3405.48
421.29	3386.76
421.48	3323.56
421.67	3513.14
421.86	3370.37
422.05	3391.44
422.24	3433.57
422.43	3356.33
422.61	3377.39
422.80	3471.01
422.99	3419.52
423.18	3356.33
423.37	3468.67
423.56	3438.25
423.75	3393.78
423.94	3431.23
424.13	3232.28
424.32	3295.47
424.50	3442.93
424.69	3543.57
424.88	3438.25
425.07	3508.46
425.26	3471.01
425.45	3459.31
425.64	3442.93
425.83	3452.29
426.01	3510.80
426.20	3384.41
426.39	3513.14
426.58	3517.83
426.77	3527.19
426.96	3510.80
427.15	3583.36
427.33	3576.34
427.52	3634.85
427.71	3552.93
427.90	3625.49
428.09	3808.05
428.28	3786.99
428.46	3648.90
428.65	3667.62
428.84	3786.99
429.03	3913.38
429.22	3742.52
429.40	3805.71
429.59	3744.86
429.78	3641.87
429.97	3648.90
430.16	3782.31
430.34	3829.12
430.53	3843.16
430.72	3721.45
430.91	3847.84
431.10	3808.05
431.28	3971.89
431.47	4049.13
431.66	4002.32
431.85	3955.51
432.03	4032.74
432.22	4109.98
432.41	4105.30
432.60	4262.12
432.79	4121.68
432.97	4074.87
433.16	4121.68
433.35	3967.21
433.54	4077.21
433.72	4142.75
433.91	4245.73
434.10	4238.71
434.28	4210.62
434.47	4325.31
434.66	4311.27
434.85	4404.89
435.03	4283.18
435.22	4358.08
435.41	4547.66
435.59	4369.78
435.78	4386.16
435.97	4440.00
436.16	4615.54
436.34	4550.00
436.53	4554.68
436.72	4599.15
436.90	4447.02
437.09	4594.47
437.28	4561.70
437.46	4557.02
437.65	4622.56
437.84	4564.04
438.02	4648.30
438.21	4795.76
438.40	4690.43
438.58	4706.82
438.77	4805.12
438.96	4847.25
439.14	4739.58
439.33	4854.27
439.52	4926.83
439.70	4947.89
439.89	4983.00
440.08	5055.56
440.26	4985.34
440.45	5022.79
440.63	5231.10
440.82	5231.10
441.01	5350.46
441.19	5338.76
441.38	5439.40
441.57	5301.31
441.75	5425.36
441.94	5427.70
442.12	5434.72
442.31	5558.77
442.50	5547.07
442.68	5434.72
442.87	5614.95
443.05	5537.71
443.24	5734.31
443.43	5577.50
443.61	5643.03
443.80	5750.70
443.98	5460.47
444.17	5418.34
444.35	5778.78
444.54	5790.49
444.73	5631.33
444.91	5689.84
445.10	5666.44
445.28	5746.02
445.47	5643.03
445.65	5575.16
445.84	5895.81
446.02	5891.13
446.21	5942.62
446.39	5753.04
446.58	5825.59
446.77	5998.79
446.95	5713.25
447.14	5893.47
447.32	5933.26
447.51	5898.15
447.69	5795.17
447.88	5912.19
448.06	5923.90
448.25	5795.17
448.43	6090.07
448.62	5907.51
448.80	5914.53
448.99	5832.62
449.17	6012.84
449.36	5921.56
449.54	5937.94
449.73	6209.44
449.91	6125.18
450.10	6179.01
450.28	6375.62
450.46	6129.86
450.65	6218.80
450.83	6335.83
451.02	6216.46
451.20	6179.01
451.39	6373.28
451.57	6296.04
451.76	6162.63
451.94	6314.77
452.13	6335.83
452.31	6349.87
452.49	6232.85
452.68	6417.75
452.86	6382.64
453.05	6520.73
453.23	6541.80
453.42	6382.64
453.60	6436.47
453.78	6410.73
453.97	6511.37
454.15	6417.75
454.34	6401.37
454.52	6544.14
454.70	6609.67
454.89	6672.87
455.07	6750.10
455.26	6726.70
455.44	6726.70
455.62	6731.38
455.81	6796.92
455.99	6850.75
456.17	6904.58
456.36	6832.02
456.54	6881.18
456.73	6939.69
456.91	7155.02
457.09	6984.16
457.28	7178.42
457.46	7068.42
457.64	7250.98
457.83	7059.06
458.01	7187.79
458.19	7222.89
458.38	7138.63
458.56	7248.64
458.74	7197.15
458.93	7187.79
459.11	7304.81
459.29	7424.18
459.48	7351.62
459.66	7445.24
459.84	7286.09
460.03	7445.24
460.21	7499.08
460.39	7363.33
460.57	7473.33
460.76	7796.32
460.94	7709.72
461.12	7625.47
461.31	7625.47
461.49	7744.83
461.67	7691.00
461.85	7681.64
462.04	7770.58
462.22	8088.89
462.40	7896.97
462.59	7822.07
462.77	8035.06
462.95	8011.65
463.13	7705.04
463.32	7838.45
463.50	7815.05
463.68	7894.63
463.86	7861.86
464.05	7705.04
464.23	7831.43
464.41	7929.74
464.59	7955.48
464.78	8145.06
464.96	8152.09
465.14	7995.27
465.32	8196.56
465.50	8215.28
465.69	8037.40
465.87	8234.00
466.05	8212.94
466.23	8224.64
466.41	8269.11
466.60	8299.54
466.78	8177.83
466.96	8229.32
467.14	8292.52
467.32	8184.85
467.51	8493.80
467.69	8091.23
467.87	8287.84
468.05	8599.13
468.23	8201.24
468.41	8252.73
468.60	8421.25
468.78	8540.61
468.96	8540.61
469.14	8650.62
469.32	8674.03
469.50	8683.39
469.69	8571.04
469.87	8809.78
470.05	8830.84
470.23	8901.06
470.41	8779.35
470.59	8945.53
470.77	8788.71
470.95	8741.90
471.14	9053.19
471.32	8938.51
471.50	9092.98
471.68	9008.72
471.86	9172.56
472.04	9135.11
472.22	9329.38
472.40	9128.09
472.58	9266.18
472.77	9153.84
472.95	9312.99
473.13	9462.79
473.31	9434.70
473.49	9352.78
473.67	9376.19
473.85	9624.28
474.03	9708.54
474.21	9790.46
474.39	9708.54
474.57	9848.97
474.75	10113.45
474.93	9907.49
475.12	9935.57
475.30	10139.20
475.48	10150.90
475.66	10232.82
475.84	10214.10
476.02	10059.62
476.20	10242.18
476.38	10321.76
476.56	10621.35
476.74	10651.78
476.92	10434.11
477.10	10656.46
477.28	10740.72
477.46	10700.93
477.64	10899.87
477.82	11096.48
478.00	11300.11
478.18	11140.95
478.36	11183.08
478.54	11417.13
478.72	11239.25
478.90	11562.25
479.08	11786.94
479.26	11662.89
479.44	11433.52
479.62	11674.59
479.80	12086.53
479.98	11817.36
480.16	12079.50
480.34	12203.55
480.52	12241.00
480.70	11990.56
480.88	12009.29
481.06	12376.75
481.24	12512.50
481.41	12685.70
481.59	12774.64
481.77	12823.80
481.95	12901.03
482.13	12875.29
482.31	12931.46
482.49	13343.39
482.67	13345.73
482.85	13542.34
483.03	13392.55
483.21	13666.39
483.39	13811.50
483.57	13781.07
483.74	13783.41
483.92	14073.64
484.10	13853.63
484.28	14345.14
484.46	14516.00
484.64	14621.33
484.82	14380.25
485.00	14508.98
485.18	14871.76
485.35	14974.75
485.53	14839.00
485.71	14736.01
485.89	15264.97
486.07	14871.76
486.25	14986.45
486.43	15442.85
486.61	15337.53
486.78	15906.28
486.96	15719.04
487.14	15988.20
487.32	16053.73
487.50	16290.13
487.68	16332.26
487.85	16531.20
488.03	16592.06
488.21	16580.36
488.39	16933.78
488.57	17036.76
488.75	16945.48
488.92	17121.02
489.10	17039.10
489.28	17387.84
489.46	17664.02
489.64	17568.06
489.81	18003.40
489.99	18078.30
490.17	18324.05
490.35	18230.43
490.53	18132.13
490.70	18625.98
490.88	18464.49
491.06	18939.62
491.24	18939.62
491.41	18750.03
491.59	18948.98
491.77	18998.13
491.95	18810.89
492.13	19307.08
492.30	19391.34
492.48	20053.71
492.66	19557.52
492.84	19936.68
493.01	20093.50
493.19	19892.21
493.37	20133.29
493.54	20137.97
493.72	20346.28
493.90	20194.14
494.08	20769.91
494.25	20751.19
494.43	20823.75
494.61	21331.64
494.79	21341.00
494.96	20793.32
495.14	21111.63
495.32	21378.45
495.49	21511.86
495.67	21774.00
495.85	21661.66
496.02	21937.84
496.20	22115.72
496.38	22010.40
496.55	22029.12
496.73	22838.95
496.91	22260.84
497.09	22567.45
497.26	22843.63
497.44	22457.44
497.62	22740.64
497.79	23232.16
497.97	23260.24
498.14	23175.98
498.32	23159.60
498.50	23143.22
498.67	23396.00
498.85	23587.92
499.03	23786.86
499.20	23690.90
499.38	24142.63
499.56	24053.69
499.73	24032.62
499.91	24423.49
500.08	24294.76
500.26	23735.37
500.44	24503.07
500.61	23990.49
500.79	24472.64
500.97	24474.98
501.14	24683.29
501.32	24919.68
501.49	24835.42
501.67	25127.99
501.84	25095.22
502.02	25275.45
502.20	25355.02
502.37	25500.14
502.55	25336.30
502.72	25378.43
502.90	25652.27
503.07	25242.68
503.25	25673.34
503.43	25624.18
503.60	25886.32
503.78	25848.88
503.95	25921.43
504.13	25876.96
504.30	25921.43
504.48	25759.94
504.65	26450.39
504.83	26426.99
505.01	26560.40
505.18	26803.82
505.36	26803.82
505.53	27042.55
505.71	27019.14
505.88	27098.72
506.06	26792.11
506.23	26855.31
506.41	26757.00
506.58	27239.15
506.76	27498.95
506.93	27482.57
507.11	27571.51
507.28	27470.87
507.46	27655.77
507.63	27644.07
507.81	27606.62
507.98	27690.88
508.16	27693.22
508.33	28144.94
508.50	28173.03
508.68	28002.17
508.85	28481.98
509.03	28229.20
509.20	28699.65
509.38	28648.16
509.55	28528.79
509.73	28507.72
509.90	28936.04
510.08	28587.30
510.25	28613.05
510.42	28870.51
510.60	29254.36
510.77	29123.29
510.95	29392.45
511.12	29500.11
511.30	29291.80
511.47	29818.42
511.64	29890.98
511.82	29624.16
511.99	29591.39
512.17	30122.69
512.34	29596.07
512.51	30033.75
512.69	29972.90
512.86	30251.42
513.04	30345.05
513.21	30448.03
513.38	30284.19
513.56	30316.96
513.73	30244.40
513.90	30368.45
514.08	30103.97
514.25	30740.60
514.43	30569.74
514.60	30326.32
514.77	30654.00
514.95	30890.39
515.12	30892.73
515.29	31173.60
515.47	31129.12
515.64	31494.25
515.81	30974.65
515.99	31356.16
516.16	31295.30
516.33	31377.22
516.51	31243.81
516.68	30951.24
516.85	31295.30
517.03	31625.32
517.20	31400.63
517.37	31625.32
517.54	31938.95
517.72	31620.64
517.89	31711.92
518.06	31791.50
518.24	31831.29
518.41	31889.80
518.58	32339.18
518.75	31885.12
518.93	32210.45
519.10	32009.17
519.27	32479.61
519.45	32397.70
519.62	32734.73
519.79	32706.65
519.96	32739.41
520.14	32772.18
520.31	33282.42
520.48	33104.54
520.65	32950.06
520.83	32978.15
521.00	33708.40
521.17	33067.09
521.34	33308.16
521.52	33345.61
521.69	33720.10
521.86	33635.84
522.03	33888.62
522.20	33951.81
522.38	33823.08
522.55	34068.84
522.72	33942.45
522.89	33804.36
523.07	34153.10
523.24	33834.78
523.41	34609.50
523.58	33958.83
523.75	34106.29
523.92	34569.71
524.10	34515.88
524.27	35040.16
524.44	34597.80
524.61	34490.13
524.78	34555.67
524.96	34672.70
525.13	35009.73
525.30	35157.19
525.47	35002.71
525.64	34859.94
525.81	34670.36
525.98	34576.73
526.16	34749.93
526.33	35115.06
526.50	34958.24
526.67	35381.88
526.84	35402.94
527.01	35295.28
527.18	35220.38
527.36	35314.00
527.53	35559.76
527.70	35871.05
527.87	35777.43
528.04	35763.39
528.21	35758.70
528.38	35936.59
528.55	35871.05
528.72	35948.29
528.89	36495.97
529.07	35917.86
529.24	36072.34
529.41	36210.43
529.58	36374.27
529.75	35737.64
529.92	36540.44
530.09	36123.83
530.26	36318.09
530.43	36343.84
530.60	36252.56
530.77	36208.09
530.94	37090.47
531.11	36484.27
531.28	36421.08
531.46	36643.43
531.63	36905.57
531.80	37048.34
531.97	37130.26
532.14	36973.44
532.31	36465.55
532.48	36767.48
532.65	37359.63
532.82	37078.77
532.99	37776.25
533.16	36858.76
533.33	37542.19
533.50	37516.45
533.67	37130.26
533.84	37350.27
534.01	37785.61
534.18	37212.18
534.35	37940.08
534.52	37600.71
534.69	37708.37
534.86	37677.94
535.03	37537.51
535.20	37888.59
535.37	37869.87
535.54	38106.26
535.71	37649.86
535.88	38026.68
536.05	38234.99
536.22	38307.55
536.38	38614.16
536.55	38363.72
536.72	38658.63
536.89	38239.67
537.06	37928.38
537.23	37968.17
537.40	38478.41
537.57	38183.50
537.74	38162.43
537.91	38995.67
538.08	38600.12
538.25	38220.95
538.42	38745.23
538.59	39136.10
538.75	38586.07
538.92	38726.50
539.09	38998.01
539.26	38792.04
539.43	38822.47
539.60	38815.44
539.77	38693.74
539.94	39019.07
540.11	38703.10
540.28	38824.81
540.44	39012.05
540.61	39084.61
540.78	38822.47
540.95	38967.58
541.12	38951.20
541.29	38742.89
541.46	39524.63
541.62	39281.21
541.79	39569.10
541.96	39599.52
542.13	39033.11
542.30	39742.30
542.47	39374.83
542.63	39491.86
542.80	39887.41
542.97	39988.05
543.14	39938.90
543.31	40259.55
543.48	40093.38
543.64	40320.41
543.81	40121.46
543.98	40617.66
544.15	40463.18
544.32	40711.28
544.48	40463.18
544.65	40517.01
544.82	40334.45
544.99	40215.08
545.16	40549.78
545.32	40350.84
545.49	40952.35
545.66	40722.98
545.83	40573.19
546.00	40692.55
546.16	40587.23
546.33	40418.71
546.50	40254.87
546.67	40722.98
546.83	40514.67
547.00	40748.73
547.17	41034.27
547.34	40907.88
547.50	41155.98
547.67	41010.87
547.84	40694.89
548.00	41198.11
548.17	41413.44
548.34	41181.73
548.51	41738.77
548.67	41130.23
548.84	41490.68
549.01	41350.24
549.18	41273.01
549.34	41823.03
549.51	41495.36
549.68	41673.24
549.84	41251.94
550.01	41626.43
550.18	41551.53
550.34	41895.59
550.51	41291.73
550.68	41659.20
550.84	41839.42
551.01	41750.48
551.18	41511.74
551.34	41839.42
551.51	41816.01
551.68	41710.69
551.84	42232.63
552.01	41883.89
552.18	41918.99
552.34	41745.80
552.51	41879.21
552.68	41853.46
552.84	42501.79
553.01	42134.32
553.18	42410.51
553.34	41963.46
553.51	41794.95
553.67	42295.82
553.84	42279.44
554.01	42485.40
554.17	42316.89
554.34	42677.33
554.51	42593.07
554.67	42536.90
554.84	42323.91
555.00	42649.24
555.17	42319.23
555.33	42546.26
555.50	42557.96
555.67	42408.17
555.83	42398.80
556.00	42953.51
556.16	43056.50
556.33	42396.46
556.50	42256.03
556.66	42855.21
556.83	42094.53
556.99	43213.31
557.16	43171.18
557.32	42525.19
557.49	43103.31
557.65	42422.21
557.82	42822.44
557.98	42904.36
558.15	42621.16
558.32	42756.91
558.48	42995.64
558.65	42586.05
558.81	42852.87
558.98	43079.90
559.14	42827.12
559.31	42696.05
559.47	43166.50
559.64	43299.91
559.80	43388.85
559.97	43456.73
560.13	42955.85
560.30	42745.20
560.46	43187.56
560.63	43122.03
560.79	43246.08
560.96	43299.91
561.12	43407.58
561.29	43175.86
561.45	43470.77
561.61	43072.88
561.78	42981.60
561.94	43281.19
562.11	43185.22
562.27	42988.62
562.44	43498.86
562.60	43849.94
562.77	43988.03
562.93	43278.85
563.10	43653.33
563.26	43033.09
563.42	43667.37
563.59	43409.92
563.75	43632.27
563.92	43611.20
564.08	43573.75
564.24	43665.03
564.41	43686.10
564.57	43704.82
564.74	43742.27
564.90	43508.22
565.07	43959.94
565.23	43550.35
565.39	43770.36
565.56	44053.56
565.72	43744.61
565.88	43672.06
566.05	43622.90
566.21	43590.14
566.38	43246.08
566.54	43768.02
566.70	43992.71
566.87	44025.48
567.03	43917.81
567.19	44191.65
567.36	44292.30
567.52	43508.22
567.68	43943.56
567.85	43515.24
568.01	43753.97
568.17	43906.11
568.34	43772.70
568.50	43676.74
568.66	43674.40
568.83	43924.83
568.99	43927.17
569.15	43800.79
569.32	43519.92
569.48	43601.84
569.64	44088.67
569.81	44451.45
569.97	44137.82
570.13	43997.39
570.30	43812.49
570.46	44355.49
570.62	43753.97
570.78	43636.95
570.95	43842.92
571.11	44048.88
571.27	44182.29
571.43	43854.62
571.60	44292.30
571.76	43973.98
571.92	43964.62
572.09	44278.25
572.25	43945.90
572.41	44102.71
572.57	44004.41
572.74	44311.02
572.90	44210.38
573.06	44175.27
573.22	44229.10
573.38	44219.74
573.55	43913.13
573.71	44182.29
573.87	43938.88
574.03	43882.70
574.20	44215.06
574.36	44041.86
574.52	44198.68
574.68	44554.44
574.84	44505.29
575.01	43583.12
575.17	44275.91
575.33	44114.42
575.49	43955.26
575.65	44711.25
575.82	44587.21
575.98	44509.97
576.14	44737.00
576.30	44147.18
576.46	44130.80
576.62	44044.20
576.79	44617.63
576.95	43997.39
577.11	44055.90
577.27	43981.01
577.43	44404.64
577.59	44186.97
577.75	44165.91
577.92	43985.69
578.08	43772.70
578.24	44062.93
578.40	44472.52
578.56	44531.03
578.72	44406.98
578.88	44669.12
579.04	44320.38
579.21	44198.68
579.37	44271.23
579.53	44332.09
579.69	44051.22
579.85	43988.03
580.01	44409.32
580.17	44968.71
580.33	44755.72
580.49	44673.81
580.65	44306.34
580.82	44435.07
580.98	44144.84
581.14	44130.80
581.30	44706.57
581.46	44631.68
581.62	44804.88
581.78	44563.80
581.94	44641.04
582.10	44570.82
582.26	44516.99
582.42	44570.82
582.58	44142.50
582.74	44149.53
582.90	44652.74
583.06	44800.19
583.22	44573.16
583.38	44701.89
583.54	44194.00
583.70	44502.95
583.86	44149.53
584.02	43971.64
584.18	44566.14
584.34	44568.48
584.50	44348.47
584.66	44224.42
584.82	44383.58
584.98	44678.49
585.14	44753.38
585.30	44280.60
585.46	44313.36
585.62	44107.40
585.78	44512.31
585.94	43885.04
586.10	44168.25
586.26	44243.15
586.42	44477.20
586.58	44720.62
586.74	44734.66
586.90	44100.37
587.06	44334.43
587.22	44275.91
587.38	44046.54
587.54	44554.44
587.70	45010.84
587.86	44500.61
588.02	44570.82
588.18	44718.28
588.34	44528.69
588.49	44755.72
588.65	44252.51
588.81	44392.94
588.97	44299.32
589.13	44453.79
589.29	44715.93
589.45	44479.54
589.61	44519.33
589.77	44683.17
589.93	44533.37
590.08	44769.77
590.24	44502.95
