SpectraSuite Data File
++++++++++++++++++++++++++++++++++++
Date: Fri Oct 25 11:23:54 EDT 2013
User: price-jones
Dark Spectrum Present: No
Reference Spectrum Present: No
Number of Sampled Component Spectra: 1
Spectrometers: USB2+H05261
Integration Time (usec): 100000 (USB2+H05261)
Spectra Averaged: 1 (USB2+H05261)
Boxcar Smoothing: 0 (USB2+H05261)
Correct for Electrical Dark: No (USB2+H05261)
Strobe/Lamp Enabled: No (USB2+H05261)
Correct for Detector Non-linearity: No (USB2+H05261)
Correct for Stray Light: No (USB2+H05261)
Number of Pixels in Processed Spectrum: 2048
>>>>>Begin Processed Spectral Data<<<<<
365.73	236.39
365.92	236.39
366.12	236.39
366.32	182.56
366.52	215.33
366.72	131.07
366.91	154.48
367.11	138.09
367.31	107.66
367.51	114.69
367.70	142.77
367.90	182.56
368.10	105.32
368.30	98.30
368.49	74.90
368.69	142.77
368.89	161.50
369.09	124.05
369.28	210.65
369.48	175.54
369.68	215.33
369.87	203.63
370.07	152.13
370.27	229.37
370.47	374.49
370.66	585.13
370.86	662.37
371.06	760.67
371.25	685.78
371.45	653.01
371.65	716.20
371.84	662.37
372.04	688.12
372.24	723.23
372.44	720.88
372.63	725.57
372.83	720.88
373.03	709.18
373.22	704.50
373.42	777.06
373.62	760.67
373.81	802.80
374.01	807.48
374.21	802.80
374.40	772.38
374.60	844.93
374.79	781.74
374.99	748.97
375.19	887.06
375.38	866.00
375.58	866.00
375.78	816.85
375.97	849.61
376.17	968.98
376.37	807.48
376.56	873.02
376.76	851.96
376.95	898.77
377.15	837.91
377.35	908.13
377.54	891.74
377.74	938.55
377.93	894.08
378.13	882.38
378.33	898.77
378.52	933.87
378.72	947.92
378.91	929.19
379.11	961.96
379.31	901.11
379.50	945.58
379.70	936.21
379.89	973.66
380.09	894.08
380.28	966.64
380.48	896.43
380.68	943.24
380.87	985.37
381.07	922.17
381.26	1053.24
381.46	1076.65
381.65	1025.15
381.85	985.37
382.04	1102.39
382.24	1034.52
382.43	1111.75
382.63	1039.20
382.83	1086.01
383.02	1048.56
383.22	1151.54
383.41	1076.65
383.61	1043.88
383.80	1074.31
384.00	1095.37
384.19	1186.65
384.39	1083.67
384.58	992.39
384.78	1132.82
384.97	1093.03
385.17	1158.57
385.36	1217.08
385.56	1179.63
385.75	1130.48
385.95	1221.76
386.14	1165.59
386.34	1167.93
386.53	1217.08
386.72	1167.93
386.92	1132.82
387.11	1261.55
387.31	1221.76
387.50	1233.46
387.70	1320.06
387.89	1350.49
388.09	1263.89
388.28	1263.89
388.48	1294.32
388.67	1313.04
388.86	1322.40
389.06	1294.32
389.25	1348.15
389.45	1364.53
389.64	1320.06
389.84	1352.83
390.03	1444.11
390.22	1341.13
390.42	1409.00
390.61	1254.53
390.81	1364.53
391.00	1352.83
391.19	1420.71
391.39	1418.36
391.58	1401.98
391.78	1502.62
391.97	1418.36
392.16	1369.21
392.36	1579.86
392.55	1500.28
392.75	1511.99
392.94	1540.07
393.13	1572.84
393.33	1586.88
393.52	1481.56
393.71	1547.09
393.91	1582.20
394.10	1511.99
394.29	1577.52
394.49	1636.03
394.68	1694.55
394.88	1591.56
395.07	1689.87
395.26	1717.95
395.46	1680.50
395.65	1741.36
395.84	1757.74
396.04	1673.48
396.23	1778.81
396.42	1746.04
396.62	1788.17
396.81	1750.72
397.00	1785.83
397.19	1804.55
397.39	1830.30
397.58	1893.49
397.77	1760.08
397.97	1774.13
398.16	1921.58
398.35	1977.75
398.55	1874.77
398.74	1900.52
398.93	1900.52
399.12	1996.48
399.32	1785.83
399.51	2043.29
399.70	1961.37
399.90	1961.37
400.09	2057.33
400.28	1987.11
400.47	2073.71
400.67	2052.65
400.86	1998.82
401.05	2033.93
401.24	2146.27
401.44	2165.00
401.63	2195.42
401.82	2174.36
402.01	2090.10
402.21	2136.91
402.40	2230.53
402.59	2167.34
402.78	2214.15
402.97	2181.38
403.17	2279.68
403.36	2258.62
403.55	2300.75
403.74	2483.31
403.93	2408.41
404.13	2380.32
404.32	2356.92
404.51	2363.94
404.70	2464.58
404.89	2487.99
405.09	2532.46
405.28	2546.50
405.47	2382.67
405.66	2403.73
405.85	2644.81
406.05	2597.99
406.24	2581.61
406.43	2548.84
406.62	2719.70
406.81	2647.15
407.00	2686.94
407.20	2651.83
407.39	2665.87
407.58	2698.64
407.77	2757.15
407.96	2682.25
408.15	2743.11
408.34	2670.55
408.54	2818.00
408.73	2822.69
408.92	2810.98
409.11	2906.95
409.30	2981.84
409.49	2803.96
409.68	2923.33
409.87	2832.05
410.07	3028.65
410.26	3033.33
410.45	3068.44
410.64	3021.63
410.83	3131.64
411.02	3187.81
411.21	3220.58
411.40	3129.30
411.59	3178.45
411.78	3229.94
411.98	3171.43
412.17	3293.13
412.36	3400.80
412.55	3368.03
412.74	3391.44
412.93	3370.37
413.12	3318.88
413.31	3632.51
413.50	3456.97
413.69	3424.20
413.88	3604.42
414.07	3637.19
414.26	3691.02
414.45	3702.73
414.64	3630.17
414.83	3681.66
415.02	3765.92
415.22	3700.39
415.41	3885.29
415.60	3847.84
415.79	3971.89
415.98	3985.93
416.17	3892.31
416.36	3995.29
416.55	3922.74
416.74	4105.30
416.93	4058.49
417.12	4105.30
417.31	4163.81
417.50	3997.64
417.69	4287.86
417.88	4264.46
418.07	4278.50
418.26	4271.48
418.45	4154.45
418.64	4503.19
418.83	4442.34
419.02	4610.86
419.21	4477.44
419.39	4528.94
419.58	4503.19
419.77	4510.21
419.96	4767.67
420.15	4702.14
420.34	4606.17
420.53	4734.90
420.72	4798.10
420.91	4606.17
421.10	4908.10
421.29	4847.25
421.48	4692.77
421.67	4601.49
421.86	4877.68
422.05	4856.61
422.24	4833.21
422.43	4849.59
422.61	4884.70
422.80	5006.41
422.99	4896.40
423.18	4856.61
423.37	5083.64
423.56	4919.81
423.75	4905.76
423.94	4751.29
424.13	4601.49
424.32	4732.56
424.50	5055.56
424.69	5310.68
424.88	5156.20
425.07	4999.38
425.26	4873.00
425.45	4943.21
425.64	5139.82
425.83	5015.77
426.01	5088.32
426.20	4994.70
426.39	5076.62
426.58	5088.32
426.77	4950.23
426.96	5097.69
427.15	5210.03
427.33	5291.95
427.52	5083.64
427.71	5399.62
427.90	5331.74
428.09	5193.65
428.28	5380.89
428.46	5383.23
428.65	5399.62
428.84	5453.45
429.03	5586.86
429.22	5502.60
429.40	5418.34
429.59	5472.17
429.78	5324.72
429.97	5348.12
430.16	5425.36
430.34	5500.26
430.53	5607.92
430.72	5743.67
430.91	5785.80
431.10	5743.67
431.28	5722.61
431.47	5813.89
431.66	6085.39
431.85	5717.93
432.03	5944.96
432.22	5996.45
432.41	5954.32
432.60	5895.81
432.79	6036.24
432.97	5919.21
433.16	6045.60
433.35	6073.69
433.54	6085.39
433.72	6209.44
433.91	6188.38
434.10	6221.14
434.28	5940.28
434.47	6136.88
434.66	6143.91
434.85	6303.06
435.03	6267.95
435.22	6108.80
435.41	6450.52
435.59	6457.54
435.78	6392.00
435.97	6286.68
436.16	6483.28
436.34	6504.35
436.53	6483.28
436.72	6801.60
436.90	6408.39
437.09	6597.97
437.28	6345.19
437.46	6778.19
437.65	6743.08
437.84	7012.24
438.02	6677.55
438.21	6841.39
438.40	6696.27
438.58	6972.46
438.77	7056.72
438.96	6960.75
439.14	7112.89
439.33	7286.09
439.52	7332.90
439.70	7225.23
439.89	7311.83
440.08	7393.75
440.26	7459.29
440.45	7398.43
440.63	7307.15
440.82	7557.59
441.01	7595.04
441.19	7494.40
441.38	7756.54
441.57	7747.17
441.75	7765.90
441.94	7793.98
442.12	7927.39
442.31	7946.12
442.50	7992.93
442.68	8112.30
442.87	7983.57
443.05	8182.51
443.24	8159.11
443.43	8166.13
443.61	8351.03
443.80	8479.76
443.98	8086.55
444.17	7889.95
444.35	8255.07
444.54	8360.39
444.73	8313.58
444.91	8297.20
445.10	8325.29
445.28	8486.78
445.47	8278.47
445.65	8442.31
445.84	8437.63
446.02	8444.65
446.21	8365.07
446.39	8421.25
446.58	8690.41
446.77	8613.17
446.95	8332.31
447.14	8379.12
447.32	8608.49
447.51	8322.94
447.69	8493.80
447.88	8449.33
448.06	8512.53
448.25	8514.87
448.43	8674.03
448.62	8580.40
448.80	8641.26
448.99	8468.06
449.17	8837.86
449.36	8713.81
449.54	9011.06
449.73	8903.40
449.91	9139.79
450.10	9053.19
450.28	8896.38
450.46	8987.66
450.65	9116.39
450.83	9090.64
451.02	9228.73
451.20	9296.61
451.39	9247.46
451.57	9137.45
451.76	9097.66
451.94	9198.31
452.13	9525.98
452.31	9401.93
452.49	9174.90
452.68	9289.59
452.86	9401.93
453.05	9525.98
453.23	9493.21
453.42	9310.65
453.60	9448.74
453.78	9689.82
453.97	9430.02
454.15	9551.73
454.34	9605.56
454.52	9802.16
454.70	9617.26
454.89	9830.25
455.07	9708.54
455.26	9776.42
455.44	10001.11
455.62	9863.02
455.81	9963.66
455.99	9977.70
456.17	9914.51
456.36	10101.75
456.54	10104.09
456.73	10232.82
456.91	10658.80
457.09	10345.17
457.28	10366.23
457.46	10200.05
457.64	10478.58
457.83	10581.56
458.01	10478.58
458.19	10745.40
458.38	10537.09
458.56	10874.13
458.74	10843.70
458.93	10820.30
459.11	11007.54
459.29	10778.17
459.48	10668.16
459.66	10944.34
459.84	10729.02
460.03	11087.12
460.21	10918.60
460.39	11030.94
460.57	11321.17
460.76	11021.58
460.94	11180.74
461.12	11433.52
461.31	10972.43
461.49	11360.96
461.67	11187.76
461.85	11468.62
462.04	11286.06
462.22	11468.62
462.40	11501.39
462.59	11288.40
462.77	11470.97
462.95	11719.06
463.13	11723.74
463.32	11515.44
463.50	11726.08
463.68	11686.29
463.86	11878.22
464.05	11730.76
464.23	11747.15
464.41	11971.84
464.59	12065.46
464.78	12067.80
464.96	12081.85
465.14	11655.87
465.32	12135.68
465.50	12133.34
465.69	12105.25
465.87	12037.38
466.05	12208.23
466.23	12245.68
466.41	12224.62
466.60	12674.00
466.78	12138.02
466.96	12004.61
467.14	12386.12
467.32	12482.08
467.51	12446.97
467.69	12252.70
467.87	12594.42
468.05	12578.04
468.23	12496.12
468.41	12362.71
468.60	12461.01
468.78	12894.01
468.96	12484.42
469.14	13085.94
469.32	13085.94
469.50	12863.58
469.69	13116.36
469.87	12987.63
470.05	13209.98
470.23	13074.23
470.41	13221.69
470.59	13593.83
470.77	13266.16
470.95	13331.69
471.14	13462.76
471.32	13212.32
471.50	13568.09
471.68	13715.54
471.86	13764.69
472.04	13781.07
472.22	13930.87
472.40	13874.70
472.58	13884.06
472.77	14127.47
472.95	14190.67
473.13	14668.14
473.31	14101.73
473.49	14207.05
473.67	14333.44
473.85	14544.09
474.03	14740.69
474.21	14684.52
474.39	14626.01
474.57	14934.96
474.75	14750.06
474.93	15028.58
475.12	14876.44
475.30	15094.11
475.48	15087.09
475.66	14881.13
475.84	15169.01
476.02	15510.73
476.20	15541.16
476.38	15866.49
476.56	15953.09
476.74	15927.35
476.92	15927.35
477.10	15819.68
477.28	15885.22
477.46	16182.46
477.64	16304.17
477.82	16713.77
478.00	17097.61
478.18	16844.84
478.36	17085.91
478.54	17193.58
478.72	17268.47
478.90	17376.14
479.08	17420.61
479.26	17743.60
479.44	17738.92
479.62	17888.71
479.80	18038.51
479.98	18310.01
480.16	18700.88
480.34	18361.50
480.52	18506.62
480.70	18515.98
480.88	18216.39
481.06	18649.39
481.24	18642.37
481.41	19274.31
481.59	19499.00
481.77	19719.01
481.95	19730.72
482.13	19859.45
482.31	19620.71
482.49	20353.30
482.67	20144.99
482.85	20369.68
483.03	20465.64
483.21	21078.86
483.39	21252.06
483.57	20929.07
483.74	21247.38
483.92	21537.61
484.10	21296.53
484.28	21647.61
484.46	22073.59
484.64	22274.88
484.82	22155.51
485.00	22537.02
485.18	22757.03
485.35	23241.52
485.53	22829.59
485.71	23314.08
485.89	23538.77
486.07	23269.61
486.25	23386.63
486.43	23576.22
486.61	23910.91
486.78	24093.47
486.96	24503.07
487.14	24458.60
487.32	24762.87
487.50	24959.47
487.68	25165.44
487.85	25193.53
488.03	25874.62
488.21	25956.54
488.39	25825.47
488.57	25986.97
488.75	26085.27
488.92	26941.91
489.10	26890.41
489.28	26944.25
489.46	27255.54
489.64	27363.20
489.81	27861.74
489.99	28016.21
490.17	27744.71
490.35	28037.28
490.53	28369.63
490.70	28793.27
490.88	28414.10
491.06	28861.15
491.24	28931.36
491.41	28922.00
491.59	29336.27
491.77	29240.31
491.95	29759.91
492.13	29640.54
492.30	29930.77
492.48	30134.40
492.66	30506.54
492.84	30326.32
493.01	30738.26
493.19	30962.95
493.37	31201.68
493.54	31096.36
493.72	31648.72
493.90	31473.18
494.08	31896.82
494.25	31903.84
494.43	32004.49
494.61	32488.98
494.79	32795.59
494.96	32718.35
495.14	32769.84
495.32	33256.67
495.49	33420.51
495.67	33415.83
495.85	33645.20
496.02	33993.94
496.20	34136.71
496.38	34010.32
496.55	34204.59
496.73	34813.13
496.91	34153.10
497.09	35084.63
497.26	35030.80
497.44	34639.93
497.62	35557.42
497.79	35742.32
497.97	35426.35
498.14	36137.87
498.32	35927.22
498.50	36669.17
498.67	36713.64
498.85	36449.16
499.03	36685.56
499.20	36720.66
499.38	37163.03
499.56	37235.58
499.73	37060.04
499.91	37907.32
500.08	37708.37
500.26	37792.63
500.44	37912.00
500.61	37642.84
500.79	37525.81
500.97	37956.47
501.14	38625.86
501.32	38560.33
501.49	38284.14
501.67	38937.15
501.84	38675.01
502.02	38653.95
502.20	39278.87
502.37	39236.74
502.55	39526.97
502.72	39412.28
502.90	39803.15
503.07	39496.54
503.25	39782.09
503.43	39899.11
503.60	40126.14
503.78	40041.88
503.95	40435.10
504.13	40914.90
504.30	40917.25
504.48	40479.57
504.65	41099.81
504.83	40863.41
505.01	41820.69
505.18	41053.00
505.36	41694.30
505.53	41310.46
505.71	41720.05
505.88	42033.68
506.06	41455.57
506.23	42244.33
506.41	42167.09
506.58	42141.35
506.76	42284.12
506.93	42541.58
507.11	42337.95
507.28	42775.63
507.46	42953.51
507.63	43086.92
507.81	43187.56
507.98	42698.39
508.16	43363.11
508.33	43922.49
508.50	42843.51
508.68	43681.42
508.85	43859.30
509.03	44516.99
509.20	43854.62
509.38	44552.10
509.55	44673.81
509.73	44587.21
509.90	44547.42
510.08	44720.62
510.25	44842.32
510.42	44626.99
510.60	45102.12
510.77	45155.96
510.95	45586.61
511.12	45532.78
511.30	45474.27
511.47	45720.02
511.64	45375.97
511.82	45703.64
511.99	45710.66
512.17	45961.10
512.34	46113.23
512.51	46253.67
512.69	46471.34
512.86	46309.84
513.04	46667.94
513.21	47126.69
513.38	46834.12
513.56	46628.15
513.73	47278.82
513.90	47297.55
514.08	47222.65
514.25	47381.80
514.43	47718.84
514.60	47423.93
514.77	47700.12
514.95	47480.11
515.12	47620.54
515.29	47945.87
515.47	48388.24
515.64	48231.42
515.81	47973.96
515.99	48390.58
516.16	48928.90
516.33	48334.40
516.51	48832.94
516.68	48598.88
516.85	48882.09
517.03	48945.28
517.20	49305.73
517.37	49006.14
517.54	49294.02
517.72	49553.82
517.89	49146.57
518.06	49296.36
518.24	49333.81
518.41	49343.17
518.58	49434.45
518.75	49364.24
518.93	50176.40
519.10	49455.52
519.27	50181.09
519.45	50019.59
519.62	50171.72
519.79	50094.49
519.96	50068.74
520.14	50578.98
520.31	50183.43
520.48	50611.74
520.65	50630.47
520.83	50667.92
521.00	50890.27
521.17	50522.80
521.34	50705.37
521.52	51129.00
521.69	50883.25
521.86	51206.24
522.03	51297.52
522.20	51674.35
522.38	51515.19
522.55	51622.86
522.72	51475.40
522.89	51693.07
523.07	51657.96
523.24	51306.88
523.41	51852.23
523.58	51746.90
523.75	51959.89
523.92	51880.31
524.10	52163.52
524.27	52041.81
524.44	52182.24
524.61	51856.91
524.78	52411.62
524.96	52259.48
525.13	52418.64
525.30	52605.88
525.47	52666.73
525.64	52584.82
525.81	52861.00
525.98	53083.35
526.16	52727.59
526.33	52956.96
526.50	53057.60
526.67	52729.93
526.84	53102.07
527.01	53099.73
527.18	53219.10
527.36	53109.10
527.53	53031.86
527.70	53375.92
527.87	53818.28
528.04	53340.81
528.21	53602.95
528.38	53525.71
528.55	53748.06
528.72	53443.79
528.89	53581.88
529.07	53565.50
529.24	53357.19
529.41	53542.10
529.58	53951.69
529.75	53633.38
529.92	53727.00
530.09	54047.65
530.26	54319.15
530.43	54262.98
530.60	54096.80
530.77	53839.34
530.94	54174.04
531.11	53982.12
531.28	54326.17
531.46	54377.67
531.63	54284.04
531.80	54319.15
531.97	54513.42
532.14	54557.89
532.31	54700.66
532.48	54646.83
532.65	54695.98
532.82	54703.00
532.99	54932.37
533.16	54504.06
533.33	55004.93
533.50	54923.01
533.67	54932.37
533.84	54948.76
534.01	55000.25
534.18	54869.18
534.35	55365.37
534.52	55037.70
534.69	55056.42
534.86	55107.91
535.03	55126.64
535.20	55325.58
535.37	55370.05
535.54	55718.79
535.71	55454.31
535.88	55412.18
536.05	55641.56
536.22	55629.85
536.38	55767.94
536.55	55494.10
536.72	55826.46
536.89	55793.69
537.06	55826.46
537.23	55873.27
537.40	55543.25
537.57	55845.18
537.74	55751.56
537.91	56081.58
538.08	55964.55
538.25	55842.84
538.42	56128.39
538.59	56296.91
538.75	56126.05
538.92	55945.83
539.09	56287.54
539.26	56392.87
539.43	56264.14
539.60	56264.14
539.77	56090.94
539.94	56362.44
540.11	56287.54
540.28	56456.06
540.44	56540.32
540.61	56339.04
540.78	56697.14
540.95	56610.54
541.12	56563.73
541.29	56678.41
541.46	56629.26
541.62	56750.97
541.79	56830.55
541.96	56631.60
542.13	56683.09
542.30	56603.52
542.47	56882.04
542.63	57043.54
542.80	56743.95
542.97	57186.31
543.14	57425.04
543.31	57368.87
543.48	57230.78
543.64	57588.88
543.81	57371.21
543.98	57352.49
544.15	57467.17
544.32	57553.77
544.48	57579.52
544.65	57415.68
544.82	57471.85
544.99	57436.75
545.16	57759.74
545.32	57542.07
545.49	57752.72
545.66	57757.40
545.83	57598.24
546.00	57921.24
546.16	57834.64
546.33	57635.69
546.50	57673.14
546.67	57844.00
546.83	57635.69
547.00	57729.31
547.17	57729.31
547.34	57808.89
547.50	58068.69
547.67	58068.69
547.84	58251.25
548.00	58068.69
548.17	58223.17
548.34	58176.36
548.51	58314.45
548.67	58466.58
548.84	58239.55
549.01	57937.62
549.18	58117.84
549.34	58183.38
549.51	58319.13
549.68	58478.28
549.84	58272.32
550.01	58457.22
550.18	58141.25
550.34	58489.99
550.51	58651.48
550.68	58602.33
550.84	58365.94
551.01	58831.71
551.18	58567.23
551.34	58529.78
551.51	58674.89
551.68	58777.87
551.84	58630.42
552.01	58515.73
552.18	58944.05
552.34	58583.61
552.51	58773.19
552.68	58485.31
552.84	58735.74
553.01	59000.22
553.18	58955.75
553.34	58939.37
553.51	58817.66
553.67	58836.39
553.84	58869.15
554.01	58967.46
554.17	58852.77
554.34	59100.87
554.51	59028.31
554.67	59042.35
554.84	59147.68
555.00	59236.62
555.17	58878.52
555.33	59292.79
555.50	59018.95
555.67	59178.10
555.83	59180.45
556.00	59133.63
556.16	59543.23
556.33	59475.35
556.50	59386.41
556.66	59517.48
556.83	59161.72
556.99	59599.40
557.16	59498.76
557.32	59554.93
557.49	59756.22
557.65	59288.11
557.82	59470.67
557.98	59517.48
558.15	59484.72
558.32	59639.19
558.48	59470.67
558.65	59646.21
558.81	59784.30
558.98	59524.50
559.14	59723.45
559.31	59749.20
559.47	59730.47
559.64	59655.57
559.80	59721.11
559.97	59910.69
560.13	59451.95
560.30	59952.82
560.46	59973.89
560.63	59920.05
560.79	59896.65
560.96	59920.05
561.12	59826.43
561.29	59882.61
561.45	59976.23
561.61	59749.20
561.78	59803.03
561.94	60095.60
562.11	59934.10
562.27	59725.79
562.44	60051.12
562.60	60203.26
562.77	59980.91
562.93	59929.42
563.10	60079.21
563.26	59980.91
563.42	60259.43
563.59	60247.73
563.75	60142.41
563.92	60128.36
564.08	60254.75
564.24	60137.72
564.41	60327.31
564.57	60343.69
564.74	60142.41
564.90	60137.72
565.07	59990.27
565.23	60250.07
565.39	60285.18
565.56	60317.95
565.72	60210.28
565.88	60437.31
566.05	60296.88
566.21	60088.57
566.38	60236.03
566.54	60460.72
566.70	60472.42
566.87	60250.07
567.03	60275.82
567.19	60477.10
567.36	60477.10
567.52	60348.37
567.68	60643.28
567.85	60353.05
568.01	60552.00
568.17	60371.78
568.34	60357.74
568.50	60463.06
568.66	60273.48
568.83	60654.98
568.99	60594.13
569.15	60474.76
569.32	60381.14
569.48	60514.55
569.64	60594.13
569.81	60608.17
569.97	60439.65
570.13	60509.87
570.30	60313.26
570.46	60491.15
570.62	60519.23
570.78	60547.32
570.95	60470.08
571.11	60680.73
571.27	60552.00
571.43	60430.29
571.60	60657.32
571.76	60640.94
571.92	60687.75
572.09	60594.13
572.25	60685.41
572.41	60573.06
572.57	60910.10
572.74	60928.83
572.90	60626.90
573.06	60624.56
573.22	60860.95
573.38	60704.13
573.55	60683.07
573.71	60764.99
573.87	60715.84
574.03	60664.35
574.20	60912.44
574.36	60594.13
574.52	60865.63
574.68	60867.97
574.84	60898.40
575.01	60821.16
575.17	60865.63
575.33	60741.58
575.49	60622.22
575.65	60692.43
575.82	60917.12
575.98	60879.67
576.14	61092.66
576.30	61076.28
576.46	60692.43
576.62	60877.33
576.79	60858.61
576.95	60711.16
577.11	60905.42
577.27	61038.83
577.43	60942.87
577.59	60615.19
577.75	60612.85
577.92	60690.09
578.08	60837.54
578.24	60989.68
578.40	60947.55
578.56	61118.41
578.72	60933.51
578.88	61010.74
579.04	61059.90
579.21	60940.53
579.37	61258.84
579.53	61066.92
579.69	60757.97
579.85	60940.53
580.01	60809.46
580.17	60870.31
580.33	60931.17
580.49	61013.08
580.65	61165.22
580.82	61092.66
580.98	60823.50
581.14	60865.63
581.30	60940.53
581.46	60860.95
581.62	61050.53
581.78	61167.56
581.94	61134.79
582.10	61015.43
582.26	60860.95
582.42	61006.06
582.58	60853.93
582.74	60884.36
582.90	60992.02
583.06	60926.49
583.22	60790.73
583.38	61059.90
583.54	60989.68
583.70	61020.11
583.86	60912.44
584.02	60970.96
584.18	61265.86
584.34	61106.71
584.50	61158.20
584.66	61036.49
584.82	61010.74
584.98	61153.52
585.14	61303.31
585.30	60858.61
585.46	61076.28
585.62	61015.43
585.78	61097.34
585.94	61008.40
586.10	61310.33
586.26	60870.31
586.42	61146.50
586.58	61293.95
586.74	61226.07
586.90	61284.59
587.06	60989.68
587.22	61296.29
587.38	61099.68
587.54	61226.07
587.70	61272.88
587.86	61258.84
588.02	61017.77
588.18	61226.07
588.34	61193.31
588.49	61041.17
