SpectraSuite Data File
++++++++++++++++++++++++++++++++++++
Date: Fri Oct 25 11:25:05 EDT 2013
User: price-jones
Dark Spectrum Present: No
Reference Spectrum Present: No
Number of Sampled Component Spectra: 1
Spectrometers: USB2+H05261
Integration Time (usec): 100000 (USB2+H05261)
Spectra Averaged: 1 (USB2+H05261)
Boxcar Smoothing: 0 (USB2+H05261)
Correct for Electrical Dark: No (USB2+H05261)
Strobe/Lamp Enabled: No (USB2+H05261)
Correct for Detector Non-linearity: No (USB2+H05261)
Correct for Stray Light: No (USB2+H05261)
Number of Pixels in Processed Spectrum: 2048
>>>>>Begin Processed Spectral Data<<<<<
365.73	264.48
365.92	264.48
366.12	264.48
366.32	124.05
366.52	145.11
366.72	112.35
366.91	175.54
367.11	163.84
367.31	159.16
367.51	140.43
367.70	140.43
367.90	140.43
368.10	124.05
368.30	170.86
368.49	138.09
368.69	201.29
368.89	191.92
369.09	138.09
369.28	152.13
369.48	135.75
369.68	212.99
369.87	177.88
370.07	182.56
370.27	243.42
370.47	369.80
370.66	531.30
370.86	636.63
371.06	552.37
371.25	620.24
371.45	704.50
371.65	737.27
371.84	690.46
372.04	706.84
372.24	683.44
372.44	695.14
372.63	709.18
372.83	765.36
373.03	786.42
373.22	793.44
373.42	739.61
373.62	748.97
373.81	798.12
374.01	753.65
374.21	767.70
374.40	753.65
374.60	891.74
374.79	795.78
374.99	786.42
375.19	819.19
375.38	816.85
375.58	894.08
375.78	823.87
375.97	847.27
376.17	931.53
376.37	812.17
376.56	802.80
376.76	887.06
376.95	896.43
377.15	844.93
377.35	842.59
377.54	994.73
377.74	943.24
377.93	905.79
378.13	772.38
378.33	896.43
378.52	851.96
378.72	999.41
378.91	968.98
379.11	943.24
379.31	919.83
379.50	940.90
379.70	961.96
379.89	1086.01
380.09	966.64
380.28	964.30
380.48	1006.43
380.68	964.30
380.87	992.39
381.07	924.51
381.26	973.66
381.46	968.98
381.65	938.55
381.85	1064.94
382.04	1057.92
382.24	1032.18
382.43	1064.94
382.63	1041.54
382.83	1057.92
383.02	1090.69
383.22	1170.27
383.41	1095.37
383.61	1156.22
383.80	1102.39
384.00	1132.82
384.19	1128.14
384.39	1116.44
384.58	1219.42
384.78	1219.42
384.97	1130.48
385.17	1181.97
385.36	1128.14
385.56	1163.25
385.75	1078.99
385.95	1146.86
386.14	1144.52
386.34	1170.27
386.53	1198.35
386.72	1270.91
386.92	1289.64
387.11	1247.51
387.31	1200.69
387.50	1249.85
387.70	1273.25
387.89	1181.97
388.09	1158.57
388.28	1135.16
388.48	1275.59
388.67	1289.64
388.86	1221.76
389.06	1390.28
389.25	1315.38
389.45	1427.73
389.64	1362.19
389.84	1392.62
390.03	1423.05
390.22	1376.24
390.42	1446.45
390.61	1387.94
390.81	1430.07
391.00	1383.26
391.19	1448.79
391.39	1425.39
391.58	1469.86
391.78	1430.07
391.97	1469.86
392.16	1409.00
392.36	1441.77
392.55	1577.52
392.75	1432.41
392.94	1453.47
393.13	1572.84
393.33	1455.81
393.52	1526.03
393.71	1638.38
393.91	1582.20
394.10	1514.33
394.29	1533.05
394.49	1694.55
394.68	1671.14
394.88	1549.43
395.07	1776.47
395.26	1640.72
395.46	1760.08
395.65	1732.00
395.84	1682.85
396.04	1762.42
396.23	1699.23
396.42	1661.78
396.62	1785.83
396.81	1724.97
397.00	1720.29
397.19	1732.00
397.39	1830.30
397.58	1820.94
397.77	1767.10
397.97	1842.00
398.16	1888.81
398.35	1865.41
398.55	1930.94
398.74	1895.83
398.93	1926.26
399.12	1865.41
399.32	1909.88
399.51	1870.09
399.70	1961.37
399.90	1977.75
400.09	2057.33
400.28	1977.75
400.47	2080.74
400.67	2043.29
400.86	1937.96
401.05	2012.86
401.24	2031.58
401.44	2136.91
401.63	2150.95
401.82	2176.70
402.01	2080.74
402.21	2036.27
402.40	2162.66
402.59	2143.93
402.78	2176.70
402.97	2275.00
403.17	2277.34
403.36	2272.66
403.55	2317.13
403.74	2284.36
403.93	2342.88
404.13	2239.89
404.32	2284.36
404.51	2310.11
404.70	2300.75
404.89	2239.89
405.09	2424.80
405.28	2324.15
405.47	2523.10
405.66	2445.86
405.85	2518.42
406.05	2438.84
406.24	2495.01
406.43	2572.25
406.62	2588.63
406.81	2649.49
407.00	2520.76
407.20	2628.42
407.39	2558.21
407.58	2567.57
407.77	2663.53
407.96	2693.96
408.15	2551.18
408.34	2792.26
408.54	2862.48
408.73	2684.59
408.92	2775.88
409.11	2918.65
409.30	2738.43
409.49	2846.09
409.68	2808.64
409.87	2911.63
410.07	2986.52
410.26	2967.80
410.45	3038.02
410.64	2860.13
410.83	3138.66
411.02	3009.93
411.21	3173.77
411.40	3063.76
411.59	3232.28
411.78	3180.79
411.98	3201.85
412.17	3293.13
412.36	3295.47
412.55	3358.67
412.74	3485.06
412.93	3311.86
413.12	3452.29
413.31	3478.04
413.50	3426.54
413.69	3531.87
413.88	3578.68
414.07	3576.34
414.26	3632.51
414.45	3637.19
414.64	3665.28
414.83	3709.75
415.02	3768.26
415.22	3777.62
415.41	3791.67
415.60	3803.37
415.79	3810.39
415.98	3915.72
416.17	3918.06
416.36	3864.22
416.55	3864.22
416.74	4028.06
416.93	4049.13
417.12	3936.78
417.31	4161.47
417.50	4084.23
417.69	4327.65
417.88	4257.43
418.07	4341.69
418.26	4269.14
418.45	4346.37
418.64	4437.66
418.83	4292.54
419.02	4472.76
419.21	4463.40
419.39	4379.14
419.58	4440.00
419.77	4369.78
419.96	4463.40
420.15	4482.13
420.34	4613.20
420.53	4526.60
420.72	4631.92
420.91	4627.24
421.10	4671.71
421.29	4638.94
421.48	4690.43
421.67	4840.23
421.86	4587.45
422.05	4774.69
422.24	4889.38
422.43	4706.82
422.61	4746.61
422.80	4835.55
422.99	4781.71
423.18	4933.85
423.37	4917.47
423.56	4826.18
423.75	4732.56
423.94	4566.39
424.13	4643.62
424.32	4711.50
424.50	4884.70
424.69	5015.77
424.88	5107.05
425.07	4975.98
425.26	4957.25
425.45	4947.89
425.64	4833.21
425.83	5006.41
426.01	5050.88
426.20	5039.17
426.39	4882.36
426.58	5004.07
426.77	4975.98
426.96	4994.70
427.15	4954.91
427.33	5156.20
427.52	5193.65
427.71	5177.26
427.90	5118.75
428.09	5235.78
428.28	5160.88
428.46	5387.91
428.65	5378.55
428.84	5390.25
429.03	5455.79
429.22	5289.61
429.40	5563.45
429.59	5294.29
429.78	5266.21
429.97	5221.74
430.16	5507.28
430.34	5500.26
430.53	5474.51
430.72	5631.33
430.91	5661.76
431.10	5530.69
431.28	5769.42
431.47	5788.14
431.66	5699.20
431.85	5692.18
432.03	5762.40
432.22	6076.03
432.41	6092.41
432.60	6010.50
432.79	5874.74
432.97	5921.56
433.16	6019.86
433.35	5980.07
433.54	5954.32
433.72	6050.28
433.91	6183.70
434.10	5996.45
434.28	6022.20
434.47	6071.35
434.66	6031.56
434.85	6153.27
435.03	6237.53
435.22	6190.72
435.41	6565.20
435.59	6394.34
435.78	6197.74
435.97	6546.48
436.16	6296.04
436.34	6286.68
436.53	6455.20
436.72	6490.31
436.90	6251.57
437.09	6558.18
437.28	6600.31
437.46	6502.01
437.65	6595.63
437.84	6792.23
438.02	6612.01
438.21	6815.64
438.40	6677.55
438.58	6913.94
438.77	6780.53
438.96	6956.07
439.14	7082.46
439.33	7037.99
439.52	7019.27
439.70	7197.15
439.89	7300.13
440.08	7250.98
440.26	7379.71
440.45	7136.29
440.63	7349.28
440.82	7693.34
441.01	7566.95
441.19	7419.50
441.38	7592.70
441.57	7592.70
441.75	7798.66
441.94	7936.76
442.12	7892.29
442.31	8215.28
442.50	7826.75
442.68	7833.77
442.87	7911.01
443.05	8100.59
443.24	8212.94
443.43	8173.15
443.61	8198.90
443.80	8421.25
443.98	7899.31
444.17	7840.79
444.35	8053.78
444.54	8446.99
444.73	8208.26
444.91	8231.66
445.10	8397.84
445.28	8308.90
445.47	8248.05
445.65	8208.26
445.84	8219.96
446.02	8390.82
446.21	8252.73
446.39	8402.52
446.58	8489.12
446.77	8454.02
446.95	8198.90
447.14	8479.76
447.32	8573.38
447.51	8489.12
447.69	8210.60
447.88	8484.44
448.06	8416.57
448.25	8456.36
448.43	8510.19
448.62	8479.76
448.80	8514.87
448.99	8554.66
449.17	8627.21
449.36	8617.85
449.54	8606.15
449.73	8910.42
449.91	8910.42
450.10	9067.24
450.28	9004.04
450.46	9139.79
450.65	8840.20
450.83	9039.15
451.02	9102.34
451.20	9060.21
451.39	9071.92
451.57	9074.26
451.76	8926.80
451.94	9186.60
452.13	9287.25
452.31	9064.89
452.49	9027.45
452.68	9312.99
452.86	9144.47
453.05	9420.66
453.23	9320.01
453.42	9528.32
453.60	9310.65
453.78	9338.74
453.97	9427.68
454.15	9474.49
454.34	9420.66
454.52	9832.59
454.70	9565.77
454.89	9589.17
455.07	9757.69
455.26	9757.69
455.44	9802.16
455.62	9753.01
455.81	9870.04
455.99	9940.26
456.17	10073.67
456.36	9975.36
456.54	9940.26
456.73	10099.41
456.91	10406.02
457.09	10197.71
457.28	10373.25
457.46	10127.50
457.64	10469.22
457.83	10532.41
458.01	10370.91
458.19	10471.56
458.38	10403.68
458.56	10806.25
458.74	10649.44
458.93	10251.55
459.11	10661.14
459.29	10628.37
459.48	10750.08
459.66	10691.57
459.84	10663.48
460.03	10906.90
460.21	10979.45
460.39	10766.46
460.57	10656.46
460.76	10958.39
460.94	11110.52
461.12	11276.70
461.31	11040.31
461.49	11005.20
461.67	11009.88
461.85	11286.06
462.04	11382.03
462.22	11377.34
462.40	11419.47
462.59	11508.41
462.77	11358.62
462.95	11543.52
463.13	11461.60
463.32	11456.92
463.50	11583.31
463.68	11609.06
463.86	11871.20
464.05	11592.67
464.23	11534.16
464.41	11676.93
464.59	11576.29
464.78	12056.10
464.96	11925.03
465.14	11674.59
465.32	11829.07
465.50	12233.98
465.69	12084.19
465.87	12058.44
466.05	12105.25
466.23	12049.08
466.41	11960.14
466.60	12674.00
466.78	11976.52
466.96	12067.80
467.14	12259.73
467.32	12325.26
467.51	12383.77
467.69	12180.15
467.87	12243.34
468.05	12510.16
468.23	12395.48
468.41	12472.71
468.60	12585.06
468.78	12596.76
468.96	12615.49
469.14	12725.49
469.32	12973.59
469.50	12404.84
469.69	12978.27
469.87	12898.69
470.05	12917.42
470.23	13142.11
470.41	13219.35
470.59	13025.08
470.77	13015.72
470.95	13235.73
471.14	13287.22
471.32	12985.29
471.50	13490.85
471.68	13329.35
471.86	13844.27
472.04	13474.46
472.22	14249.18
472.40	13584.47
472.58	13769.37
472.77	13816.18
472.95	13785.76
473.13	14623.67
473.31	14176.62
473.49	14003.43
473.67	13968.32
473.85	14277.27
474.03	14555.79
474.21	14532.39
474.39	14785.16
474.57	14958.36
474.75	14651.75
474.93	14918.57
475.12	14513.66
475.30	14899.85
475.48	15009.86
475.66	14951.34
475.84	15403.07
476.02	15342.21
476.20	15260.29
476.38	15634.78
476.56	15843.09
476.74	15831.38
476.92	15648.82
477.10	15721.38
477.28	16133.31
477.46	15882.88
477.64	16187.14
477.82	16320.56
478.00	16638.87
478.18	16802.71
478.36	16411.84
478.54	16833.13
478.72	17252.09
478.90	17088.25
479.08	17305.92
479.26	17507.21
479.44	17774.03
479.62	17720.20
479.80	17759.98
479.98	18181.28
480.16	18471.51
480.34	18185.96
480.52	18085.32
480.70	18569.81
480.88	18546.40
481.06	18347.46
481.24	18214.05
481.41	18883.44
481.59	19199.41
481.77	19442.83
481.95	19655.82
482.13	19564.54
482.31	19545.81
482.49	20121.59
482.67	20072.43
482.85	20154.35
483.03	20255.00
483.21	20585.01
483.39	20489.05
483.57	20697.36
483.74	20957.16
483.92	21322.28
484.10	21139.72
484.28	21497.82
484.46	21858.26
484.64	22059.55
484.82	21731.87
485.00	22415.31
485.18	22288.92
485.35	22576.81
485.53	22761.71
485.71	22998.10
485.89	23384.29
486.07	22916.19
486.25	23260.24
486.43	23686.22
486.61	23754.10
486.78	23697.92
486.96	23875.80
487.14	24624.78
487.32	24266.67
487.50	24690.31
487.68	24678.61
487.85	25317.57
488.03	25439.28
488.21	25572.69
488.39	25830.15
488.57	25682.70
488.75	26066.55
488.92	26347.41
489.10	26544.02
489.28	26316.98
489.46	27161.92
489.64	26661.04
489.81	27555.13
489.99	27255.54
490.17	27683.86
490.35	28180.05
490.53	28119.20
490.70	27936.63
490.88	27943.66
491.06	28650.50
491.24	28631.77
491.41	28346.23
491.59	28900.94
491.77	29230.95
491.95	29326.91
492.13	29797.36
492.30	29919.07
492.48	29979.92
492.66	30026.73
492.84	30185.89
493.01	30410.58
493.19	30654.00
493.37	31262.54
493.54	31117.42
493.72	31459.14
493.90	31072.95
494.08	31218.07
494.25	31819.58
494.43	31859.37
494.61	32137.90
494.79	32133.21
494.96	32325.14
495.14	32713.67
495.32	32659.84
495.49	32835.38
495.67	32704.31
495.85	32945.38
496.02	33511.79
496.20	33638.18
496.38	33923.72
496.55	33605.41
496.73	34185.86
496.91	34206.93
497.09	34515.88
497.26	34726.53
497.44	34876.32
497.62	34972.28
497.79	35388.90
497.97	34913.77
498.14	35660.40
498.32	35814.88
498.50	35803.17
498.67	35976.37
498.85	36341.50
499.03	35821.90
499.20	36425.76
499.38	36566.19
499.56	36872.80
499.73	36898.55
499.91	36884.50
500.08	37067.06
500.26	37237.92
500.44	37226.22
500.61	37820.72
500.79	37326.86
500.97	38047.75
501.14	38745.23
501.32	38527.56
501.49	38176.48
501.67	38810.76
501.84	38593.09
502.02	39084.61
502.20	38637.56
502.37	39283.55
502.55	38934.81
502.72	38962.90
502.90	39601.86
503.07	39337.38
503.25	39716.55
503.43	39222.70
503.60	39864.00
503.78	40016.14
503.95	40105.08
504.13	40306.37
504.30	40240.83
504.48	40158.91
504.65	40289.98
504.83	40657.45
505.01	40697.24
505.18	40664.47
505.36	41514.08
505.53	41165.34
505.71	41141.94
505.88	41584.30
506.06	41008.53
506.23	41603.02
506.41	41303.43
506.58	41647.49
506.76	41593.66
506.93	42335.61
507.11	42038.36
507.28	42176.45
507.46	42445.62
507.63	42742.86
507.81	43152.46
507.98	42513.49
508.16	42712.44
508.33	43112.67
508.50	42948.83
508.68	43459.07
508.85	43861.64
509.03	43807.81
509.20	43606.52
509.38	44158.89
509.55	44011.43
509.73	44247.83
509.90	44208.04
510.08	44563.80
510.25	44006.75
510.42	44053.56
510.60	44545.08
510.77	45172.34
510.95	45111.49
511.12	44816.58
511.30	45055.31
511.47	44858.71
511.64	44966.37
511.82	45610.02
511.99	45027.23
512.17	46031.32
512.34	45638.11
512.51	45406.39
512.69	46316.86
512.86	46162.39
513.04	46656.24
513.21	46164.73
513.38	46817.74
513.56	46782.63
513.73	46244.30
513.90	46902.00
514.08	46160.05
514.25	46983.91
514.43	47124.35
514.60	47206.26
514.77	47304.57
514.95	47466.06
515.12	47318.61
515.29	47374.78
515.47	47892.04
515.64	47971.62
515.81	47367.76
515.99	48332.06
516.16	48449.09
516.33	47875.66
516.51	48797.83
516.68	48193.97
516.85	48371.85
517.03	48526.33
517.20	48699.53
517.37	48694.85
517.54	48643.35
517.72	48334.40
517.89	48928.90
518.06	48825.92
518.24	48821.23
518.41	49268.28
518.58	49198.06
518.75	48926.56
518.93	49202.74
519.10	49394.67
519.27	49254.23
519.45	49439.14
519.62	49722.34
519.79	49521.05
519.96	49921.29
520.14	50174.06
520.31	49897.88
520.48	50005.55
520.65	49684.89
520.83	50248.96
521.00	50550.89
521.17	50255.98
521.34	50382.37
521.52	50698.34
521.69	50660.90
521.86	50965.17
522.03	51021.34
522.20	51023.68
522.38	51100.92
522.55	51192.20
522.72	51363.06
522.89	50843.46
523.07	51484.76
523.24	51086.87
523.41	51732.86
523.58	51323.27
523.75	51739.88
523.92	51353.69
524.10	51629.88
524.27	51936.49
524.44	51749.24
524.61	52027.77
524.78	52165.86
524.96	52006.70
525.13	52147.14
525.30	52158.84
525.47	52388.21
525.64	52329.70
525.81	52186.92
525.98	52533.32
526.16	52781.42
526.33	52294.59
526.50	52837.59
526.67	52516.94
526.84	52711.20
527.01	52383.53
527.18	52669.08
527.36	52807.17
527.53	52725.25
527.70	53240.17
527.87	53205.06
528.04	53118.46
528.21	52978.03
528.38	53162.93
528.55	53333.79
528.72	53090.37
528.89	53230.80
529.07	53265.91
529.24	53256.55
529.41	53469.54
529.58	53340.81
529.75	53588.91
529.92	53530.39
530.09	53441.45
530.26	53649.76
530.43	53872.11
530.60	53741.04
530.77	53640.40
530.94	53879.13
531.11	53879.13
531.28	53715.29
531.46	53909.56
531.63	54167.02
531.80	53872.11
531.97	54202.13
532.14	54515.76
532.31	54185.74
532.48	54473.63
532.65	54459.58
532.82	54188.08
532.99	54447.88
533.16	54375.33
533.33	54487.67
533.50	54506.40
533.67	54497.03
533.84	54609.38
534.01	54801.30
534.18	54878.54
534.35	55058.76
534.52	54733.43
534.69	54927.69
534.86	55016.63
535.03	54752.15
535.20	54932.37
535.37	55075.15
535.54	55304.52
535.71	55051.74
535.88	55035.36
536.05	55030.68
536.22	55330.26
536.38	55171.11
536.55	55451.97
536.72	55285.79
536.89	55480.06
537.06	55442.61
537.23	55702.41
537.40	55238.98
537.57	55482.40
537.74	55594.74
537.91	55681.34
538.08	55730.50
538.25	55517.51
538.42	55845.18
538.59	55964.55
538.75	55730.50
538.92	55913.06
539.09	56140.09
539.26	55877.95
539.43	55774.97
539.60	56137.75
539.77	55805.39
539.94	56336.69
540.11	56336.69
540.28	56170.52
540.44	56530.96
540.61	55884.97
540.78	56357.76
540.95	56090.94
541.12	55997.32
541.29	56081.58
541.46	56392.87
541.62	56289.88
541.79	56507.55
541.96	56303.93
542.13	56610.54
542.30	56530.96
542.47	56671.39
542.63	56760.33
542.80	56816.50
542.97	56816.50
543.14	57045.88
543.31	57134.82
543.48	56804.80
543.64	57059.92
543.81	57031.83
543.98	57172.27
544.15	57052.90
544.32	57209.71
544.48	57331.42
544.65	57415.68
544.82	57188.65
544.99	57027.15
545.16	57354.83
545.32	57340.78
545.49	57319.72
545.66	57649.74
545.83	57373.55
546.00	57684.84
546.16	57532.71
546.33	57448.45
546.50	57329.08
546.67	57364.19
546.83	57326.74
547.00	57684.84
547.17	57523.35
547.34	57677.82
547.50	58096.78
547.67	57776.12
547.84	57865.06
548.00	57883.79
548.17	58038.26
548.34	57780.81
548.51	58040.60
548.67	58019.54
548.84	57958.69
549.01	57965.71
549.18	57963.37
549.34	58199.76
549.51	57888.47
549.68	58166.99
549.84	58106.14
550.01	58284.02
550.18	58026.56
550.34	58272.32
550.51	58164.65
550.68	58241.89
550.84	58127.20
551.01	58178.70
551.18	58602.33
551.34	58260.62
551.51	58475.94
551.68	58501.69
551.84	58440.84
552.01	58117.84
552.18	58588.29
552.34	58368.28
552.51	58649.14
552.68	58234.87
552.84	58599.99
553.01	58674.89
553.18	58511.05
553.34	58691.27
553.51	58513.39
553.67	58651.48
553.84	58726.38
554.01	58541.48
554.17	58866.81
554.34	58707.66
554.51	58859.79
554.67	58876.18
554.84	58880.86
555.00	58852.77
555.17	58798.94
555.33	58920.65
555.50	58850.43
555.67	58686.59
555.83	58532.12
556.00	58897.24
556.16	59100.87
556.33	59077.46
556.50	59009.59
556.66	59222.58
556.83	59150.02
556.99	59091.51
557.16	59105.55
557.32	59330.24
557.49	59208.53
557.65	59103.21
557.82	59025.97
557.98	59250.66
558.15	59253.00
558.32	59325.56
558.48	59135.98
558.65	59281.09
558.81	59285.77
558.98	59503.44
559.14	59435.56
559.31	59203.85
559.47	59662.60
559.64	59594.72
559.80	59538.55
559.97	59571.32
560.13	59538.55
560.30	59704.73
560.46	59536.21
560.63	59580.68
560.79	59522.16
560.96	59774.94
561.12	59634.51
561.29	59760.90
561.45	59641.53
561.61	59756.22
561.78	59662.60
561.94	59842.82
562.11	59667.28
562.27	59650.89
562.44	59985.59
562.60	59688.34
562.77	59840.48
562.93	59770.26
563.10	60011.34
563.26	59571.32
563.42	60102.62
563.59	59751.54
563.75	59856.86
563.92	59753.88
564.08	59688.34
564.24	59913.03
564.41	60001.97
564.57	59962.18
564.74	59938.78
564.90	59927.08
565.07	59814.73
565.23	59948.14
565.39	60093.25
565.56	60200.92
565.72	59863.88
565.88	60179.85
566.05	60065.17
566.21	60039.42
566.38	59997.29
566.54	60020.70
566.70	60395.18
566.87	60287.52
567.03	59994.95
567.19	60182.19
567.36	60072.19
567.52	59976.23
567.68	60383.48
567.85	60083.89
568.01	60170.49
568.17	60079.21
568.34	60250.07
568.50	60165.81
568.66	60282.84
568.83	60273.48
568.99	60254.75
569.15	60182.19
569.32	60278.16
569.48	60090.91
569.64	60198.58
569.81	60439.65
569.97	60018.36
570.13	60198.58
570.30	60357.74
570.46	60303.90
570.62	60324.97
570.78	60397.52
570.95	60264.11
571.11	60427.95
571.27	60381.14
571.43	60243.05
571.60	60472.42
571.76	60451.36
571.92	60198.58
572.09	60554.34
572.25	60498.17
572.41	60320.29
572.57	60425.61
572.74	60767.33
572.90	60280.50
573.06	60339.01
573.22	60549.66
573.38	60566.04
573.55	60465.40
573.71	60519.23
573.87	60748.60
574.03	60423.27
574.20	60481.78
574.36	60343.69
574.52	60470.08
574.68	60430.29
574.84	60633.92
575.01	60612.85
575.17	60481.78
575.33	60687.75
575.49	60479.44
575.65	60629.24
575.82	60544.98
575.98	60603.49
576.14	60746.26
576.30	60821.16
576.46	60657.32
576.62	60729.88
576.79	60449.02
576.95	60324.97
577.11	60577.75
577.27	60626.90
577.43	60413.91
577.59	60769.67
577.75	60750.94
577.92	60434.97
578.08	60470.08
578.24	60769.67
578.40	60835.20
578.56	60676.05
578.72	60657.32
578.88	60767.33
579.04	60938.19
579.21	60891.38
579.37	60940.53
579.53	60903.08
579.69	60353.05
579.85	60683.07
580.01	60795.42
580.17	60629.24
580.33	60849.25
580.49	60772.01
580.65	60715.84
580.82	60687.75
580.98	60711.16
581.14	60601.15
581.30	61022.45
581.46	60830.52
581.62	60992.02
581.78	60687.75
581.94	60898.40
582.10	60633.92
582.26	60849.25
582.42	60729.88
582.58	60870.31
582.74	60669.03
582.90	60760.31
583.06	60533.28
583.22	60626.90
583.38	60896.06
583.54	60842.23
583.70	60617.53
583.86	60591.79
584.02	60643.28
584.18	60760.31
584.34	60954.57
584.50	60790.73
584.66	60523.91
584.82	60683.07
584.98	60933.51
585.14	60795.42
585.30	60793.07
585.46	60884.36
585.62	60811.80
585.78	60987.34
585.94	60722.86
586.10	60867.97
586.26	60767.33
586.42	60985.00
586.58	61113.73
586.74	60959.25
586.90	60853.93
587.06	60935.85
587.22	61038.83
587.38	60846.91
587.54	61045.85
587.70	61024.79
587.86	60849.25
588.02	61001.38
588.18	60924.14
588.34	60860.95
588.49	60690.09
