SpectraSuite Data File
++++++++++++++++++++++++++++++++++++
Date: Fri Oct 25 10:43:30 EDT 2013
User: price-jones
Dark Spectrum Present: No
Reference Spectrum Present: No
Number of Sampled Component Spectra: 1
Spectrometers: USB2+H05261
Integration Time (usec): 100000 (USB2+H05261)
Spectra Averaged: 1 (USB2+H05261)
Boxcar Smoothing: 0 (USB2+H05261)
Correct for Electrical Dark: No (USB2+H05261)
Strobe/Lamp Enabled: No (USB2+H05261)
Correct for Detector Non-linearity: No (USB2+H05261)
Correct for Stray Light: No (USB2+H05261)
Number of Pixels in Processed Spectrum: 2048
>>>>>Begin Processed Spectral Data<<<<<
365.73	152.13
365.92	152.13
366.12	152.13
366.32	42.13
366.52	0.00
366.72	35.11
366.91	0.00
367.11	44.47
367.31	0.00
367.51	0.00
367.70	4.68
367.90	44.47
368.10	0.00
368.30	46.81
368.49	0.00
368.69	133.41
368.89	65.54
369.09	0.00
369.28	51.49
369.48	30.43
369.68	46.81
369.87	16.38
370.07	37.45
370.27	126.39
370.47	138.09
370.66	344.06
370.86	470.45
371.06	528.96
371.25	468.11
371.45	400.23
371.65	507.90
371.84	449.38
372.04	489.17
372.24	451.72
372.44	454.06
372.63	451.72
372.83	470.45
373.03	500.87
373.22	409.59
373.42	557.05
373.62	538.32
373.81	514.92
374.01	543.00
374.21	592.16
374.40	458.74
374.60	561.73
374.79	456.40
374.99	547.69
375.19	564.07
375.38	606.20
375.58	636.63
375.78	624.92
375.97	596.84
376.17	592.16
376.37	634.29
376.56	676.41
376.76	594.50
376.95	543.00
377.15	653.01
377.35	599.18
377.54	671.73
377.74	624.92
377.93	678.76
378.13	564.07
378.33	606.20
378.52	695.14
378.72	655.35
378.91	741.95
379.11	601.52
379.31	697.48
379.50	657.69
379.70	678.76
379.89	699.82
380.09	636.63
380.28	636.63
380.48	732.59
380.68	610.88
380.87	711.52
381.07	725.57
381.26	739.61
381.46	725.57
381.65	671.73
381.85	720.88
382.04	683.44
382.24	713.86
382.43	662.37
382.63	629.60
382.83	681.10
383.02	763.01
383.22	779.40
383.41	718.54
383.61	725.57
383.80	739.61
384.00	751.31
384.19	744.29
384.39	781.74
384.58	699.82
384.78	753.65
384.97	887.06
385.17	774.72
385.36	779.40
385.56	821.53
385.75	753.65
385.95	847.27
386.14	866.00
386.34	802.80
386.53	744.29
386.72	814.51
386.92	847.27
387.11	863.66
387.31	873.02
387.50	828.55
387.70	828.55
387.89	884.72
388.09	760.67
388.28	898.77
388.48	905.79
388.67	954.94
388.86	950.26
389.06	894.08
389.25	1004.09
389.45	1076.65
389.64	959.62
389.84	1015.79
390.03	1109.41
390.22	1029.84
390.42	936.21
390.61	954.94
390.81	1114.10
391.00	1015.79
391.19	1027.50
391.39	1025.15
391.58	1011.11
391.78	1090.69
391.97	1088.35
392.16	933.87
392.36	1081.33
392.55	1067.28
392.75	971.32
392.94	1001.75
393.13	1020.47
393.33	994.73
393.52	1008.77
393.71	1093.03
393.91	1086.01
394.10	1181.97
394.29	1153.88
394.49	1151.54
394.68	1261.55
394.88	1308.36
395.07	1270.91
395.26	1191.33
395.46	1165.59
395.65	1144.52
395.84	1214.74
396.04	1317.72
396.23	1156.22
396.42	1125.80
396.62	1146.86
396.81	1245.16
397.00	1160.91
397.19	1291.98
397.39	1186.65
397.58	1268.57
397.77	1310.70
397.97	1399.64
398.16	1425.39
398.35	1451.13
398.55	1390.28
398.74	1509.65
398.93	1526.03
399.12	1448.79
399.32	1397.30
399.51	1521.35
399.70	1490.92
399.90	1598.59
400.09	1570.50
400.28	1514.33
400.47	1668.80
400.67	1636.03
400.86	1636.03
401.05	1575.18
401.24	1703.91
401.44	1741.36
401.63	1668.80
401.82	1680.50
402.01	1720.29
402.21	1680.50
402.40	1739.02
402.59	1708.59
402.78	1771.79
402.97	1811.57
403.17	1809.23
403.36	1715.61
403.55	1809.23
403.74	1762.42
403.93	1898.17
404.13	1895.83
404.32	1844.34
404.51	1823.28
404.70	1877.11
404.89	2031.58
405.09	2038.61
405.28	1961.37
405.47	1879.45
405.66	1977.75
405.85	1956.69
406.05	2003.50
406.24	1956.69
406.43	2038.61
406.62	2106.48
406.81	2172.02
407.00	2057.33
407.20	1989.46
407.39	2003.50
407.58	2094.78
407.77	2179.04
407.96	2251.60
408.15	2228.19
408.34	2260.96
408.54	2333.51
408.73	2190.74
408.92	2331.17
409.11	2326.49
409.30	2319.47
409.49	2354.58
409.68	2291.38
409.87	2190.74
410.07	2291.38
410.26	2436.50
410.45	2338.20
410.64	2345.22
410.83	2410.75
411.02	2417.77
411.21	2586.29
411.40	2499.69
411.59	2530.12
411.78	2679.91
411.98	2581.61
412.17	2729.06
412.36	2726.72
412.55	2801.62
412.74	2672.89
412.93	2775.88
413.12	2551.18
413.31	2843.75
413.50	2839.07
413.69	2895.24
413.88	2932.69
414.07	2822.69
414.26	2967.80
414.45	2904.60
414.64	3021.63
414.83	2930.35
415.02	3119.93
415.22	2949.08
415.41	3176.11
415.60	3038.02
415.79	3187.81
415.98	3248.66
416.17	3246.32
416.36	3236.96
416.55	3269.73
416.74	3274.41
416.93	3309.52
417.12	3260.37
417.31	3321.22
417.50	3243.98
417.69	3452.29
417.88	3379.73
418.07	3492.08
418.26	3335.26
418.45	3410.16
418.64	3417.18
418.83	3599.74
419.02	3550.59
419.21	3463.99
419.39	3618.47
419.58	3496.76
419.77	3651.24
419.96	3581.02
420.15	3686.34
420.34	3744.86
420.53	3770.60
420.72	3791.67
420.91	3868.91
421.10	3723.79
421.29	3859.54
421.48	3726.13
421.67	3925.08
421.86	3833.80
422.05	3772.94
422.24	3812.73
422.43	3763.58
422.61	3822.09
422.80	3889.97
422.99	3995.29
423.18	3875.93
423.37	3969.55
423.56	3941.46
423.75	3967.21
423.94	3894.65
424.13	3754.22
424.32	3791.67
424.50	3864.22
424.69	3918.06
424.88	3948.48
425.07	3969.55
425.26	3936.78
425.45	3871.25
425.64	3946.14
425.83	3978.91
426.01	3936.78
426.20	4053.81
426.39	4032.74
426.58	3899.33
426.77	4051.47
426.96	3925.08
427.15	3946.14
427.33	3981.25
427.52	4117.00
427.71	4098.28
427.90	4098.28
428.09	4177.86
428.28	4222.33
428.46	4039.76
428.65	4037.42
428.84	4271.48
429.03	4308.93
429.22	4074.87
429.40	4194.24
429.59	4142.75
429.78	3988.27
429.97	3981.25
430.16	3983.59
430.34	4105.30
430.53	4154.45
430.72	4322.97
430.91	4355.74
431.10	4215.30
431.28	4397.87
431.47	4580.43
431.66	4720.86
431.85	4578.09
432.03	4568.73
432.22	4564.04
432.41	4571.07
432.60	4748.95
432.79	4564.04
432.97	4805.12
433.16	4702.14
433.35	4627.24
433.54	4622.56
433.72	4608.51
433.91	4641.28
434.10	4667.03
434.28	4837.89
434.47	5027.47
434.66	4919.81
434.85	4884.70
435.03	4926.83
435.22	5057.90
435.41	5242.80
435.59	5153.86
435.78	5095.35
435.97	5212.37
436.16	5235.78
436.34	5116.41
436.53	5151.52
436.72	5179.61
436.90	4931.51
437.09	5320.04
437.28	5153.86
437.46	5210.03
437.65	5104.71
437.84	5177.26
438.02	5128.11
438.21	5247.48
438.40	5069.60
438.58	5439.40
438.77	5277.91
438.96	5308.34
439.14	5322.38
439.33	5678.14
439.52	5685.16
439.70	5561.11
439.89	5671.12
440.08	5678.14
440.26	5643.03
440.45	5713.25
440.63	5888.79
440.82	6066.67
441.01	5944.96
441.19	5954.32
441.38	6061.99
441.57	6001.13
441.75	6284.34
441.94	6239.87
442.12	6307.74
442.31	6312.42
442.50	6249.23
442.68	6260.93
442.87	6303.06
443.05	6408.39
443.24	6525.41
443.43	6356.90
443.61	6375.62
443.80	6616.69
443.98	6354.55
444.17	6249.23
444.35	6448.18
444.54	6649.46
444.73	6544.14
444.91	6530.09
445.10	6389.66
445.28	6548.82
445.47	6356.90
445.65	6377.96
445.84	6478.60
446.02	6607.33
446.21	6473.92
446.39	6511.37
446.58	6642.44
446.77	6691.59
446.95	6553.50
447.14	6574.56
447.32	6558.18
447.51	6738.40
447.69	6626.06
447.88	6640.10
448.06	6738.40
448.25	6853.09
448.43	6855.43
448.62	6773.51
448.80	6787.55
448.99	6801.60
449.17	6813.30
449.36	6633.08
449.54	6991.18
449.73	6979.48
449.91	7080.12
450.10	7129.27
450.28	7286.09
450.46	7283.75
450.65	7239.28
450.83	7094.16
451.02	7279.07
451.20	7140.97
451.39	7157.36
451.57	7222.89
451.76	7185.44
451.94	7129.27
452.13	7283.75
452.31	7290.77
452.49	7190.13
452.68	7098.84
452.86	7283.75
453.05	7178.42
453.23	7253.32
453.42	7281.41
453.60	7438.22
453.78	7382.05
453.97	7442.90
454.15	7290.77
454.34	7424.18
454.52	7513.12
454.70	7625.47
454.89	7419.50
455.07	7506.10
455.26	7562.27
455.44	7899.31
455.62	7660.57
455.81	7798.66
455.99	7812.71
456.17	7796.32
456.36	7805.69
456.54	7836.11
456.73	7847.82
456.91	8229.32
457.09	8095.91
457.28	8119.32
457.46	7995.27
457.64	8086.55
457.83	8093.57
458.01	7868.88
458.19	8131.02
458.38	7943.78
458.56	8386.14
458.74	8264.43
458.93	8332.31
459.11	8280.82
459.29	8222.30
459.48	8217.62
459.66	8276.13
459.84	8383.80
460.03	8549.98
460.21	8641.26
460.39	8404.86
460.57	8383.80
460.76	8425.93
460.94	8472.74
461.12	8748.92
461.31	8608.49
461.49	8720.84
461.67	8643.60
461.85	8910.42
462.04	8826.16
462.22	9132.77
462.40	9027.45
462.59	8978.30
462.77	8922.12
462.95	8882.33
463.13	8704.45
463.32	8814.46
463.50	9050.85
463.68	8922.12
463.86	8910.42
464.05	9036.81
464.23	8971.27
464.41	9085.96
464.59	8856.59
464.78	9221.71
464.96	9184.26
465.14	8997.02
465.32	9327.03
465.50	9163.20
465.69	9348.10
465.87	9224.05
466.05	9195.96
466.23	9245.12
466.41	9118.73
466.60	9355.12
466.78	9062.55
466.96	9191.28
467.14	9205.33
467.32	9193.62
467.51	9439.38
467.69	9273.20
467.87	9415.98
468.05	9399.59
468.23	9345.76
468.41	9385.55
468.60	9331.72
468.78	9619.60
468.96	9561.09
469.14	9586.83
469.32	9741.31
469.50	9607.90
469.69	9465.13
469.87	9792.80
470.05	9783.44
470.23	9963.66
470.41	9806.84
470.59	9900.47
470.77	9891.10
470.95	10078.35
471.14	9980.04
471.32	9832.59
471.50	10328.78
471.68	10403.68
471.86	10434.11
472.04	10040.90
472.22	10506.66
472.40	10272.61
472.58	10244.52
472.77	10384.96
472.95	10443.47
473.13	10827.32
473.31	10511.35
473.49	10401.34
473.67	10541.77
473.85	10611.99
474.03	10785.19
474.21	11023.92
474.39	10925.62
474.57	11162.01
474.75	11332.87
474.93	10972.43
475.12	10869.45
475.30	11190.10
475.48	11211.17
475.66	11126.91
475.84	11470.97
476.02	11323.51
476.20	11337.56
476.38	11529.48
476.56	11857.15
476.74	11887.58
476.92	11606.72
477.10	11602.04
477.28	12102.91
477.46	12037.38
477.64	12306.54
477.82	12456.33
478.00	12411.86
478.18	12421.22
478.36	12594.42
478.54	12568.68
478.72	12613.15
478.90	12798.05
479.08	13198.28
479.26	12940.82
479.44	13048.49
479.62	13343.39
479.80	13474.46
479.98	13434.68
480.16	13624.26
480.34	13427.65
480.52	13874.70
480.70	13734.26
480.88	13378.50
481.06	13844.27
481.24	14038.53
481.41	14244.50
481.59	14293.65
481.77	14310.04
481.95	14338.12
482.13	14391.95
482.31	14431.74
482.49	14703.25
482.67	14670.48
482.85	14815.59
483.03	15267.31
483.21	15384.34
483.39	15300.08
483.57	15412.43
483.74	15470.94
483.92	15461.58
484.10	15609.03
484.28	15719.04
484.46	15988.20
484.64	16196.51
484.82	16056.08
485.00	15941.39
485.18	16130.97
485.35	16350.98
485.53	16013.95
485.71	16166.08
485.89	16259.70
486.07	16472.69
486.25	16781.64
486.43	16791.00
486.61	17102.29
486.78	17170.17
486.96	17069.53
487.14	17451.03
487.32	17645.30
487.50	17994.04
487.68	18120.43
487.85	18354.48
488.03	18277.24
488.21	18637.69
488.39	18532.36
488.57	18665.77
488.75	18611.94
488.92	18869.40
489.10	19356.23
489.28	19138.56
489.46	19566.88
489.64	19587.94
489.81	19836.04
489.99	20049.03
490.17	20095.84
490.35	20224.57
490.53	20105.20
490.70	20676.29
490.88	20318.19
491.06	20400.11
491.24	20563.95
491.41	20704.38
491.59	20599.05
491.77	20531.18
491.95	20947.79
492.13	20952.48
492.30	21666.34
492.48	21633.57
492.66	21685.06
492.84	21949.54
493.01	21745.92
493.19	21769.32
493.37	21869.97
493.54	22331.05
493.72	22305.31
493.90	22312.33
494.08	22710.22
494.25	23084.70
494.43	23058.96
494.61	22927.89
494.79	23122.15
494.96	23482.59
495.14	23178.33
495.32	23576.22
495.49	23374.93
495.67	23896.87
495.85	23653.45
496.02	23800.91
496.20	24170.71
496.38	24041.98
496.55	24460.94
496.73	25193.53
496.91	24751.17
497.09	24837.76
497.26	24636.48
497.44	24673.93
497.62	25022.67
497.79	25151.40
497.97	24687.97
498.14	25420.56
498.32	25249.70
498.50	25605.46
498.67	26015.05
498.85	25926.11
499.03	26096.97
499.20	26139.10
499.38	26106.34
499.56	26108.68
499.73	26190.59
499.91	26525.29
500.08	26560.40
500.26	26298.26
500.44	26457.42
500.61	26541.68
500.79	26635.30
500.97	26609.55
501.14	27190.00
501.32	26967.65
501.49	27077.66
501.67	27126.81
501.84	27356.18
502.02	27246.18
502.20	27817.27
502.37	27463.85
502.55	27522.36
502.72	27473.21
502.90	27889.82
503.07	27843.01
503.25	27976.42
503.43	27587.89
503.60	28222.18
503.78	27824.29
503.95	28009.19
504.13	28477.30
504.30	28697.31
504.48	28297.08
504.65	28683.27
504.83	28837.74
505.01	29137.33
505.18	29137.33
505.36	29699.06
505.53	29369.04
505.71	29371.38
505.88	29783.32
506.06	28870.51
506.23	29565.65
506.41	29502.45
506.58	29811.40
506.76	29963.54
506.93	29809.06
507.11	29422.87
507.28	29537.56
507.46	29947.15
507.63	29876.94
507.81	29869.92
507.98	29668.63
508.16	30384.83
508.33	30560.37
508.50	30595.48
508.68	30562.72
508.85	31068.27
509.03	30693.79
509.20	31051.89
509.38	31098.70
509.55	31330.41
509.73	31133.81
509.90	31161.89
510.08	31185.30
510.25	31505.95
510.42	31573.83
510.60	31562.12
510.77	31218.07
510.95	32229.18
511.12	31351.48
511.30	31929.59
511.47	32264.28
511.64	32187.05
511.82	32306.41
511.99	32123.85
512.17	32133.21
512.34	32343.86
512.51	32844.74
512.69	32449.19
512.86	32135.56
513.04	32858.78
513.21	32800.27
513.38	32826.01
513.56	33036.66
513.73	32697.28
513.90	33083.47
514.08	32549.83
514.25	33394.76
514.43	32961.76
514.60	33046.02
514.77	32905.59
514.95	33762.23
515.12	33017.94
515.29	33549.24
515.47	33862.87
515.64	33780.95
515.81	33661.58
515.99	33895.64
516.16	33518.81
516.33	33656.90
516.51	33450.94
516.68	32931.34
516.85	33090.49
517.03	33364.34
517.20	33656.90
517.37	34251.40
517.54	34342.68
517.72	33928.41
517.89	33670.95
518.06	33745.84
518.24	33986.92
518.41	33982.24
518.58	34520.56
518.75	34286.51
518.93	34850.58
519.10	34438.64
519.27	34705.46
519.45	34925.47
519.62	35159.53
519.79	35187.61
519.96	35192.30
520.14	35056.54
520.31	34927.81
520.48	35323.36
520.65	35395.92
520.83	35543.38
521.00	35789.13
521.17	35793.81
521.34	35501.25
521.52	35938.93
521.69	36023.19
521.86	35723.60
522.03	36503.00
522.20	36385.97
522.38	36519.38
522.55	36217.45
522.72	36383.63
522.89	35985.74
523.07	36208.09
523.24	36524.06
523.41	36739.39
523.58	36706.62
523.75	37277.71
523.92	36924.29
524.10	36781.52
524.27	37141.96
524.44	37163.03
524.61	37546.87
524.78	37223.88
524.96	37425.17
525.13	37282.39
525.30	37326.86
525.47	37591.34
525.64	37284.73
525.81	37326.86
525.98	37706.03
526.16	37340.91
526.33	37177.07
526.50	37699.01
526.67	37244.94
526.84	36952.38
527.01	37282.39
527.18	37408.78
527.36	37785.61
527.53	37668.58
527.70	38787.36
527.87	38314.57
528.04	38007.96
528.21	38171.80
528.38	38354.36
528.55	38298.19
528.72	38476.07
528.89	38593.09
529.07	38139.03
529.24	38789.70
529.41	38667.99
529.58	38625.86
529.75	38450.32
529.92	39007.37
530.09	38958.22
530.26	38698.42
530.43	38656.29
530.60	38738.21
530.77	39288.23
530.94	39409.94
531.11	38792.04
531.28	39194.61
531.46	39321.00
531.63	39208.65
531.80	39321.00
531.97	39295.25
532.14	39295.25
532.31	39044.82
532.48	39236.74
532.65	39629.95
532.82	39491.86
532.99	39723.57
533.16	39672.08
533.33	39730.59
533.50	40119.12
533.67	39620.59
533.84	39459.09
534.01	39847.62
534.18	40084.01
534.35	40048.91
534.52	39856.98
534.69	40332.11
534.86	40446.80
535.03	39990.39
535.20	40680.85
535.37	40704.26
535.54	41055.34
535.71	40423.39
535.88	40652.76
536.05	40369.56
536.22	40612.98
536.38	40430.41
536.55	40388.28
536.72	39910.82
536.89	40156.57
537.06	40814.26
537.23	40959.38
537.40	41188.75
537.57	41179.39
537.74	40872.78
537.91	41329.18
538.08	41053.00
538.25	41134.92
538.42	40872.78
538.59	41125.55
538.75	40512.33
538.92	41111.51
539.09	41474.29
539.26	41106.83
539.43	40788.52
539.60	41092.79
539.77	41045.97
539.94	41116.19
540.11	41163.00
540.28	41432.16
540.44	41017.89
540.61	41446.21
540.78	41706.01
540.95	41240.24
541.12	41350.24
541.29	41195.77
541.46	41490.68
541.62	41500.04
541.79	42033.68
541.96	41352.58
542.13	41727.07
542.30	41581.96
542.47	41848.78
542.63	41507.06
542.80	42562.64
542.97	42522.85
543.14	42251.35
543.31	42270.08
543.48	42487.74
543.64	42693.71
543.81	42646.90
543.98	42417.53
544.15	42251.35
544.32	42333.27
544.48	43016.71
544.65	42602.43
544.82	42609.45
544.99	42256.03
545.16	42426.89
545.32	42288.80
545.49	43395.87
545.66	43395.87
545.83	43248.42
546.00	42969.90
546.16	42887.98
546.33	42508.81
546.50	42660.94
546.67	43042.45
546.83	42763.93
547.00	42946.49
547.17	42827.12
547.34	43049.47
547.50	43391.19
547.67	43281.19
547.84	43222.67
548.00	43606.52
548.17	43414.60
548.34	43213.31
548.51	43622.90
548.67	43779.72
548.84	43583.12
549.01	43480.13
549.18	43714.19
549.34	43540.99
549.51	43812.49
549.68	44002.07
549.84	43824.19
550.01	44074.63
550.18	43625.25
550.34	43805.47
550.51	43510.56
550.68	44051.22
550.84	43409.92
551.01	43875.68
551.18	43779.72
551.34	43655.67
551.51	44378.90
551.68	44545.08
551.84	43716.53
552.01	43938.88
552.18	44217.40
552.34	43849.94
552.51	44369.54
552.68	44304.00
552.84	44516.99
553.01	44203.36
553.18	43955.26
553.34	44135.48
553.51	44360.17
553.67	44498.26
553.84	44179.95
554.01	44250.17
554.17	44795.51
554.34	44711.25
554.51	44299.32
554.67	44985.10
554.84	44133.14
555.00	44390.60
555.17	44521.67
555.33	44744.02
555.50	45052.97
555.67	44451.45
555.83	44664.44
556.00	44865.73
556.16	44898.50
556.33	44552.10
556.50	44772.11
556.66	44800.19
556.83	44533.37
556.99	44364.85
557.16	44828.28
557.32	44779.13
557.49	44655.08
557.65	44697.21
557.82	44655.08
557.98	44896.16
558.15	44643.38
558.32	44561.46
558.48	44870.41
558.65	44889.13
558.81	45106.80
558.98	44769.77
559.14	44229.10
559.31	45177.02
559.47	45240.21
559.64	44797.85
559.80	44954.67
559.97	44985.10
560.13	44837.64
560.30	44949.99
560.46	45242.56
560.63	45331.50
560.79	45251.92
560.96	45490.65
561.12	45177.02
561.29	45102.12
561.45	45280.00
561.61	44966.37
561.78	45141.91
561.94	44989.78
562.11	45312.77
562.27	44994.46
562.44	45027.23
562.60	45710.66
562.77	45631.08
562.93	45031.91
563.10	45357.24
563.26	45120.85
563.42	45703.64
563.59	45258.94
563.75	45226.17
563.92	45572.57
564.08	45521.08
564.24	45595.98
564.41	45432.14
564.57	45326.81
564.74	45165.32
564.90	45542.14
565.07	45249.58
565.23	45509.38
565.39	45523.42
565.56	45326.81
565.72	45357.24
565.88	45284.68
566.05	45497.67
566.21	45345.54
566.38	45209.79
566.54	45457.88
566.70	45947.06
566.87	45907.27
567.03	45687.26
567.19	46017.27
567.36	45970.46
567.52	45333.84
567.68	45984.51
567.85	45680.24
568.01	45722.37
568.17	45713.00
568.34	45979.82
568.50	45705.98
568.66	45247.24
568.83	45773.86
568.99	45621.72
569.15	45691.94
569.32	45247.24
569.48	45598.32
569.64	45797.26
569.81	45935.35
569.97	45518.74
570.13	45556.19
570.30	45020.20
570.46	45081.06
570.62	45518.74
570.78	45354.90
570.95	45076.38
571.11	45918.97
571.27	45287.03
571.43	45764.49
571.60	45794.92
571.76	45588.95
571.92	45364.26
572.09	45488.31
572.25	46059.40
572.41	45942.38
572.57	45691.94
572.74	46188.13
572.90	45741.09
573.06	45881.52
573.22	45649.81
573.38	45759.81
573.55	45759.81
573.71	46323.88
573.87	46068.76
574.03	45535.12
574.20	45457.88
574.36	45558.53
574.52	45694.28
574.68	45848.75
574.84	45713.00
575.01	45755.13
575.17	45694.28
575.33	45235.53
575.49	45558.53
575.65	45848.75
575.82	45989.19
575.98	45591.30
576.14	45759.81
576.30	45797.26
576.46	45874.50
576.62	45937.69
576.79	46014.93
576.95	45422.78
577.11	45923.65
577.27	45457.88
577.43	46183.45
577.59	45682.58
577.75	45764.49
577.92	44949.99
578.08	45312.77
578.24	45434.48
578.40	45780.88
578.56	45825.35
578.72	45628.74
578.88	46171.75
579.04	45729.39
579.21	45123.19
579.37	45727.05
579.53	45804.28
579.69	45570.23
579.85	45368.94
580.01	45694.28
580.17	45703.64
580.33	46202.18
580.49	46005.57
580.65	45675.55
580.82	46033.66
580.98	45542.14
581.14	45670.87
581.30	45893.22
581.46	46057.06
581.62	46054.72
581.78	45750.45
581.94	46483.04
582.10	45830.03
582.26	46028.98
582.42	45963.44
582.58	45982.16
582.74	45834.71
582.90	46031.32
583.06	45886.20
583.22	45813.65
583.38	45993.87
583.54	45811.31
583.70	45937.69
583.86	46164.73
584.02	45977.48
584.18	46396.44
584.34	45563.21
584.50	45958.76
584.66	45507.04
584.82	45724.71
584.98	45715.34
585.14	45783.22
585.30	45614.70
585.46	45900.25
585.62	45780.88
585.78	45935.35
585.94	45462.57
586.10	45965.78
586.26	45502.35
586.42	46066.42
586.58	46085.15
586.74	46033.66
586.90	45961.10
587.06	45757.47
587.22	46279.41
587.38	45698.96
587.54	45734.07
587.70	46038.34
587.86	46131.96
588.02	45914.29
588.18	45914.29
588.34	45659.17
588.49	45198.09
588.65	45705.98
588.81	45682.58
588.97	45588.95
589.13	45099.78
589.29	45975.14
589.45	45401.71
589.61	45673.21
589.77	46050.04
589.93	46050.04
590.08	46021.95
