SpectraSuite Data File
++++++++++++++++++++++++++++++++++++
Date: Fri Oct 25 11:23:05 EDT 2013
User: price-jones
Dark Spectrum Present: No
Reference Spectrum Present: No
Number of Sampled Component Spectra: 1
Spectrometers: USB2+H05261
Integration Time (usec): 100000 (USB2+H05261)
Spectra Averaged: 1 (USB2+H05261)
Boxcar Smoothing: 0 (USB2+H05261)
Correct for Electrical Dark: No (USB2+H05261)
Strobe/Lamp Enabled: No (USB2+H05261)
Correct for Detector Non-linearity: No (USB2+H05261)
Correct for Stray Light: No (USB2+H05261)
Number of Pixels in Processed Spectrum: 2048
>>>>>Begin Processed Spectral Data<<<<<
365.73	203.63
365.92	203.63
366.12	203.63
366.32	161.50
366.52	88.94
366.72	210.65
366.91	126.39
367.11	133.41
367.31	81.92
367.51	119.37
367.70	112.35
367.90	105.32
368.10	121.71
368.30	145.11
368.49	124.05
368.69	131.07
368.89	93.62
369.09	163.84
369.28	189.58
369.48	135.75
369.68	184.90
369.87	243.42
370.07	191.92
370.27	184.90
370.47	318.31
370.66	613.22
370.86	589.82
371.06	657.69
371.25	631.94
371.45	688.12
371.65	655.35
371.84	660.03
372.04	660.03
372.24	718.54
372.44	751.31
372.63	723.23
372.83	751.31
373.03	741.95
373.22	706.84
373.42	798.12
373.62	744.29
373.81	774.72
374.01	772.38
374.21	861.32
374.40	779.40
374.60	791.10
374.79	732.59
374.99	737.27
375.19	755.99
375.38	770.04
375.58	805.14
375.78	929.19
375.97	851.96
376.17	908.13
376.37	875.36
376.56	917.49
376.76	795.78
376.95	856.64
377.15	866.00
377.35	957.28
377.54	901.11
377.74	861.32
377.93	807.48
378.13	938.55
378.33	964.30
378.52	992.39
378.72	887.06
378.91	1011.11
379.11	891.74
379.31	968.98
379.50	912.81
379.70	1006.43
379.89	961.96
380.09	959.62
380.28	992.39
380.48	936.21
380.68	1043.88
380.87	945.58
381.07	1060.26
381.26	1057.92
381.46	1032.18
381.65	1149.20
381.85	1067.28
382.04	1006.43
382.24	978.34
382.43	1039.20
382.63	1074.31
382.83	1067.28
383.02	1088.35
383.22	1064.94
383.41	1039.20
383.61	1053.24
383.80	1177.29
384.00	1107.07
384.19	1114.10
384.39	1083.67
384.58	1100.05
384.78	1172.61
384.97	1158.57
385.17	1198.35
385.36	1207.72
385.56	1207.72
385.75	1151.54
385.95	1156.22
386.14	1221.76
386.34	1259.21
386.53	1231.12
386.72	1306.02
386.92	1179.63
387.11	1196.01
387.31	1212.40
387.50	1210.06
387.70	1275.59
387.89	1245.16
388.09	1263.89
388.28	1327.08
388.48	1289.64
388.67	1308.36
388.86	1233.46
389.06	1308.36
389.25	1392.62
389.45	1338.79
389.64	1284.95
389.84	1359.85
390.03	1420.71
390.22	1378.58
390.42	1406.66
390.61	1322.40
390.81	1418.36
391.00	1451.13
391.19	1521.35
391.39	1500.28
391.58	1451.13
391.78	1401.98
391.97	1479.22
392.16	1502.62
392.36	1416.02
392.55	1493.26
392.75	1453.47
392.94	1540.07
393.13	1509.65
393.33	1561.14
393.52	1551.78
393.71	1638.38
393.91	1521.35
394.10	1523.69
394.29	1575.18
394.49	1572.84
394.68	1605.61
394.88	1612.63
395.07	1678.16
395.26	1741.36
395.46	1650.08
395.65	1734.34
395.84	1762.42
396.04	1832.64
396.23	1795.19
396.42	1760.08
396.62	1860.73
396.81	1729.66
397.00	1834.98
397.19	1832.64
397.39	1846.68
397.58	1914.56
397.77	1858.39
397.97	1937.96
398.16	1895.83
398.35	1912.22
398.55	1881.79
398.74	1991.80
398.93	1998.82
399.12	1961.37
399.32	1935.62
399.51	1919.24
399.70	1996.48
399.90	1956.69
400.09	2108.82
400.28	2162.66
400.47	2031.58
400.67	2127.55
400.86	2097.12
401.05	2015.20
401.24	2047.97
401.44	2202.44
401.63	2148.61
401.82	2125.21
402.01	2099.46
402.21	2003.50
402.40	2136.91
402.59	2204.78
402.78	2275.00
402.97	2314.79
403.17	2319.47
403.36	2275.00
403.55	2324.15
403.74	2237.55
403.93	2333.51
404.13	2326.49
404.32	2333.51
404.51	2368.62
404.70	2448.20
404.89	2410.75
405.09	2478.63
405.28	2497.35
405.47	2431.82
405.66	2490.33
405.85	2506.71
406.05	2487.99
406.24	2612.04
406.43	2595.65
406.62	2576.93
406.81	2583.95
407.00	2541.82
407.20	2602.68
407.39	2614.38
407.58	2719.70
407.77	2836.73
407.96	2925.67
408.15	2733.75
408.34	2759.49
408.54	2782.90
408.73	2752.47
408.92	2775.88
409.11	2949.08
409.30	2871.84
409.49	2965.46
409.68	2981.84
409.87	2939.71
410.07	2967.80
410.26	2930.35
410.45	2988.86
410.64	3098.87
410.83	3035.67
411.02	2981.84
411.21	3122.27
411.40	3129.30
411.59	3243.98
411.78	3211.22
411.98	3192.49
412.17	3269.73
412.36	3258.03
412.55	3325.90
412.74	3337.60
412.93	3480.38
413.12	3389.10
413.31	3618.47
413.50	3569.32
413.69	3541.23
413.88	3534.21
414.07	3557.61
414.26	3698.05
414.45	3772.94
414.64	3817.41
414.83	3829.12
415.02	3887.63
415.22	3810.39
415.41	3983.59
415.60	3962.53
415.79	3950.82
415.98	4049.13
416.17	3948.48
416.36	3896.99
416.55	4046.79
416.74	4014.02
416.93	4049.13
417.12	4049.13
417.31	4142.75
417.50	4248.07
417.69	4395.53
417.88	4231.69
418.07	4442.34
418.26	4255.09
418.45	4379.14
418.64	4643.62
418.83	4489.15
419.02	4540.64
419.21	4519.57
419.39	4498.51
419.58	4512.55
419.77	4367.44
419.96	4552.34
420.15	4503.19
420.34	4638.94
420.53	4706.82
420.72	4734.90
420.91	4828.53
421.10	4807.46
421.29	4767.67
421.48	4858.95
421.67	4901.08
421.86	4795.76
422.05	5004.07
422.24	4896.40
422.43	4912.78
422.61	4917.47
422.80	4889.38
422.99	5029.81
423.18	4961.94
423.37	5109.39
423.56	4947.89
423.75	5132.79
423.94	4964.28
424.13	4571.07
424.32	4800.44
424.50	4919.81
424.69	5191.31
424.88	5123.43
425.07	4926.83
425.26	4973.64
425.45	4997.04
425.64	5130.45
425.83	5027.47
426.01	5200.67
426.20	5240.46
426.39	5156.20
426.58	5100.03
426.77	5097.69
426.96	5174.92
427.15	5149.18
427.33	5195.99
427.52	5268.55
427.71	5467.49
427.90	5366.85
428.09	5273.23
428.28	5357.49
428.46	5380.89
428.65	5427.70
428.84	5439.40
429.03	5423.02
429.22	5392.59
429.40	5472.17
429.59	5523.66
429.78	5390.25
429.97	5301.31
430.16	5481.53
430.34	5788.14
430.53	5813.89
430.72	5785.80
430.91	5621.97
431.10	5788.14
431.28	5813.89
431.47	5968.37
431.66	5982.41
431.85	5771.76
432.03	6141.57
432.22	5912.19
432.41	5940.28
432.60	5982.41
432.79	5944.96
432.97	5977.73
433.16	6146.25
433.35	6162.63
433.54	6153.27
433.72	6108.80
433.91	6029.22
434.10	6188.38
434.28	5982.41
434.47	6221.14
434.66	6431.79
434.85	6539.46
435.03	6380.30
435.22	6314.77
435.41	6595.63
435.59	6352.21
435.78	6640.10
435.97	6506.69
436.16	6413.07
436.34	6356.90
436.53	6619.04
436.72	6588.61
436.90	6502.01
437.09	6834.36
437.28	6509.03
437.46	6785.21
437.65	6597.97
437.84	6825.00
438.02	6944.37
438.21	6759.47
438.40	6647.12
438.58	7037.99
438.77	7133.95
438.96	6937.35
439.14	7101.19
439.33	7267.36
439.52	7225.23
439.70	7173.74
439.89	7503.76
440.08	7426.52
440.26	7475.67
440.45	7353.96
440.63	7637.17
440.82	7592.70
441.01	7524.82
441.19	7683.98
441.38	7730.79
441.57	7894.63
441.75	7723.77
441.94	8016.33
442.12	7999.95
442.31	8086.55
442.50	8154.43
442.68	8114.64
442.87	8166.13
443.05	8140.38
443.24	8241.03
443.43	8098.25
443.61	8390.82
443.80	8568.70
443.98	8198.90
444.17	8021.02
444.35	8121.66
444.54	8292.52
444.73	8280.82
444.91	8308.90
445.10	8503.17
445.28	8395.50
445.47	8280.82
445.65	8269.11
445.84	8601.47
446.02	8519.55
446.21	8531.25
446.39	8423.59
446.58	8706.79
446.77	8524.23
446.95	8390.82
447.14	8456.36
447.32	8702.11
447.51	8585.08
447.69	8472.74
447.88	8510.19
448.06	8528.91
448.25	8786.37
448.43	8608.49
448.62	8538.27
448.80	8664.66
448.99	8760.63
449.17	8702.11
449.36	8580.40
449.54	8894.04
449.73	8987.66
449.91	8975.95
450.10	9001.70
450.28	8992.34
450.46	9057.87
450.65	9200.65
450.83	9207.67
451.02	9078.94
451.20	9280.22
451.39	9441.72
451.57	9228.73
451.76	9163.20
451.94	9184.26
452.13	9343.42
452.31	9387.89
452.49	9207.67
452.68	9563.43
452.86	9324.69
453.05	9640.67
453.23	9533.00
453.42	9320.01
453.60	9324.69
453.78	9619.60
453.97	9645.35
454.15	9474.49
454.34	9514.28
454.52	9776.42
454.70	9612.58
454.89	9692.16
455.07	9919.19
455.26	10083.03
455.44	9715.56
455.62	10026.86
455.81	9738.97
455.99	10183.67
456.17	10209.42
456.36	10274.95
456.54	10188.35
456.73	10342.83
456.91	10560.50
457.09	10492.62
457.28	10621.35
457.46	10485.60
457.64	10895.19
457.83	10583.90
458.01	10616.67
458.19	10876.47
458.38	10492.62
458.56	10878.81
458.74	10731.36
458.93	10916.26
459.11	10707.95
459.29	10841.36
459.48	10810.93
459.66	10689.23
459.84	10974.77
460.03	11375.00
460.21	10841.36
460.39	10806.25
460.57	11016.90
460.76	11026.26
460.94	11314.15
461.12	11428.84
461.31	11346.92
461.49	11295.43
461.67	11400.75
461.85	11487.35
462.04	11412.45
462.22	11552.88
462.40	11913.33
462.59	11538.84
462.77	11583.31
462.95	11552.88
463.13	11779.92
463.32	11693.32
463.50	11777.58
463.68	11943.75
463.86	11992.90
464.05	11735.45
464.23	11726.08
464.41	11910.99
464.59	11866.52
464.78	12086.53
464.96	12053.76
465.14	11854.81
465.32	12180.15
465.50	12191.85
465.69	12222.28
465.87	12156.74
466.05	12203.55
466.23	12320.58
466.41	12084.19
466.60	12734.85
466.78	12154.40
466.96	12287.81
467.14	12367.39
467.32	12343.99
467.51	12652.94
467.69	12250.36
467.87	12416.54
468.05	12779.32
468.23	12404.84
468.41	12578.04
468.60	13078.91
468.78	13085.94
468.96	12765.28
469.14	12985.29
469.32	13099.98
469.50	12774.64
469.69	13170.19
469.87	13179.56
470.05	13212.32
470.23	13493.19
470.41	13266.16
470.59	13348.08
470.77	13429.99
470.95	13317.65
471.14	13874.70
471.32	13369.14
471.50	13554.04
471.68	13930.87
471.86	13678.09
472.04	13811.50
472.22	14125.13
472.40	13919.17
472.58	13879.38
472.77	14118.11
472.95	14345.14
473.13	14637.71
473.31	14370.89
473.49	14281.95
473.67	14260.88
473.85	14506.64
474.03	15012.20
474.21	14817.93
474.39	14808.57
474.57	14616.65
474.75	15110.50
474.93	15374.98
475.12	15103.48
475.30	15187.74
475.48	15218.16
475.66	15332.85
475.84	15367.96
476.02	15515.41
476.20	15690.95
476.38	16042.03
476.56	15934.37
476.74	16271.40
476.92	16224.59
477.10	15826.70
477.28	16304.17
477.46	16313.53
477.64	16692.70
477.82	17003.99
478.00	17095.27
478.18	17062.51
478.36	16812.07
478.54	17341.03
478.72	17252.09
478.90	17685.09
479.08	17659.34
479.26	17909.78
479.44	17837.22
479.62	18216.39
479.80	18373.21
479.98	18221.07
480.16	18937.27
480.34	18530.02
480.52	18499.59
480.70	18356.82
480.88	18604.92
481.06	19094.09
481.24	19049.62
481.41	19236.86
481.59	19314.10
481.77	19782.21
481.95	19777.53
482.13	19791.57
482.31	19992.86
482.49	20332.23
482.67	20421.17
482.85	20706.72
483.03	20542.88
483.21	21008.65
483.39	21366.75
483.57	21359.73
483.74	21184.19
483.92	21502.50
484.10	21376.11
484.28	22075.93
484.46	22340.41
484.64	22438.72
484.82	22335.73
485.00	22696.17
485.18	23016.83
485.35	23037.89
485.53	22967.68
485.71	23112.79
485.89	23653.45
486.07	23578.56
486.25	23737.71
486.43	23953.04
486.61	24065.39
486.78	24395.40
486.96	24577.97
487.14	24526.47
487.32	24645.84
487.50	25160.76
487.68	24994.58
487.85	25584.40
488.03	25549.29
488.21	25797.38
488.39	26132.08
488.57	25933.14
488.75	26581.46
488.92	26785.09
489.10	26958.29
489.28	27094.04
489.46	27599.60
489.64	27351.50
489.81	27978.76
489.99	27880.46
490.17	27803.22
490.35	28500.70
490.53	28629.43
490.70	28723.05
490.88	28737.10
491.06	29034.35
491.24	28994.56
491.41	29134.99
491.59	29415.85
491.77	29731.83
491.95	30251.42
492.13	29998.65
492.30	30078.22
492.48	30099.29
492.66	30555.69
492.84	30932.52
493.01	31131.47
493.19	30682.08
493.37	31601.91
493.54	31529.36
493.72	31971.72
493.90	32025.55
494.08	32194.07
494.25	32570.90
494.43	32226.84
494.61	32538.13
494.79	32781.54
494.96	32573.24
495.14	33034.32
495.32	33237.95
495.49	33652.22
495.67	33406.47
495.85	33722.44
496.02	34132.03
496.20	34515.88
496.38	34328.64
496.55	34237.36
496.73	34927.81
496.91	34930.16
497.09	35278.89
497.26	35108.04
497.44	35292.94
497.62	35597.21
497.79	36205.75
497.97	35922.54
498.14	36070.00
498.32	36456.18
498.50	36126.17
498.67	36938.33
498.85	36804.92
499.03	36818.97
499.20	36884.50
499.38	37312.82
499.56	37713.05
499.73	37350.27
499.91	38117.96
500.08	38024.34
500.26	37453.25
500.44	38216.27
500.61	37937.74
500.79	38080.52
500.97	38850.55
501.14	39047.16
501.32	39257.81
501.49	38939.49
501.67	38960.56
501.84	39285.89
502.02	39189.93
502.20	39583.14
502.37	39749.32
502.55	39665.06
502.72	39646.33
502.90	39697.83
503.07	39732.93
503.25	40072.31
503.43	39840.60
503.60	40301.68
503.78	40638.72
503.95	40809.58
504.13	40711.28
504.30	40982.78
504.48	40460.84
504.65	41003.85
504.83	41750.48
505.01	41413.44
505.18	41691.96
505.36	41764.52
505.53	41338.54
505.71	41654.51
505.88	42258.37
506.06	41897.93
506.23	42197.52
506.41	42342.63
506.58	42707.76
506.76	42623.50
506.93	42824.78
507.11	42801.38
507.28	42850.53
507.46	43016.71
507.63	42909.04
507.81	43452.05
507.98	42946.49
508.16	43157.14
508.33	43945.90
508.50	43721.21
508.68	44023.14
508.85	44458.48
509.03	44451.45
509.20	44467.84
509.38	44905.52
509.55	44348.47
509.73	44842.32
509.90	44814.24
510.08	44488.90
510.25	45146.59
510.42	45144.25
510.60	45125.53
510.77	45443.84
510.95	45638.11
511.12	45900.25
511.30	45588.95
511.47	45492.99
511.64	45584.27
511.82	46452.61
511.99	45797.26
512.17	46356.65
512.34	46382.40
512.51	46623.47
512.69	46590.70
512.86	46464.32
513.04	47016.68
513.21	46923.06
513.38	47026.04
513.56	47456.70
513.73	47105.62
513.90	47419.25
514.08	47515.22
514.25	47819.49
514.43	47845.23
514.60	47945.87
514.77	47756.29
514.95	48149.50
515.12	48032.47
515.29	48198.65
515.47	48217.38
515.64	48505.26
515.81	48055.88
515.99	49205.08
516.16	48727.61
516.33	48577.82
516.51	49244.87
516.68	49116.14
516.85	49139.55
517.03	49345.51
517.20	49272.96
517.37	49160.61
517.54	49132.53
517.72	49504.67
517.89	49399.35
518.06	49696.59
518.24	49350.20
518.41	49425.09
518.58	49455.52
518.75	49734.04
518.93	49771.49
519.10	49448.50
519.27	50122.57
519.45	50209.17
519.62	50230.24
519.79	50321.52
519.96	50302.79
520.14	50387.05
520.31	50293.43
520.48	50478.33
520.65	50763.88
520.83	50962.82
521.00	51009.64
521.17	51180.49
521.34	51061.13
521.52	50986.23
521.69	51159.43
521.86	51367.74
522.03	51573.70
522.20	51409.87
522.38	51899.04
522.55	51655.62
522.72	51491.79
522.89	51852.23
523.07	52121.39
523.24	51718.82
523.41	51868.61
523.58	51433.27
523.75	52161.18
523.92	52065.22
524.10	52371.83
524.27	52184.58
524.44	52168.20
524.61	52381.19
524.78	52769.72
524.96	52376.51
525.13	52416.30
525.30	53073.99
525.47	53104.41
525.64	52729.93
525.81	52926.53
525.98	52858.66
526.16	52985.05
526.33	52851.64
526.50	53209.74
526.67	53088.03
526.84	53296.34
527.01	53038.88
527.18	53118.46
527.36	53240.17
527.53	53345.49
527.70	53528.05
527.87	53806.58
528.04	53319.74
528.21	53612.31
528.38	53701.25
528.55	53703.59
528.72	53361.87
528.89	53673.16
529.07	53581.88
529.24	53722.32
529.41	54024.25
529.58	54089.78
529.75	53794.87
529.92	53944.67
530.09	54314.47
530.26	54157.66
530.43	54152.97
530.60	54218.51
530.77	54145.95
530.94	54358.94
531.11	54560.23
531.28	54710.02
531.46	54511.08
531.63	54590.66
531.80	54485.33
531.97	54749.81
532.14	54855.14
532.31	54635.13
532.48	54834.07
532.65	54908.97
532.82	54838.75
532.99	54944.08
533.16	54892.58
533.33	55086.85
533.50	55040.04
533.67	55234.30
533.84	54972.16
534.01	55107.91
534.18	55100.89
534.35	55533.89
534.52	55519.85
534.69	55494.10
534.86	55407.50
535.03	55246.00
535.20	55484.74
535.37	55751.56
535.54	55494.10
535.71	55606.45
535.88	55618.15
536.05	55891.99
536.22	55966.89
536.38	55969.23
536.55	55793.69
536.72	55866.25
536.89	55700.07
537.06	55873.27
537.23	56119.02
537.40	55800.71
537.57	55917.74
537.74	55824.12
537.91	56200.94
538.08	56193.92
538.25	55800.71
538.42	55962.21
538.59	56315.63
538.75	56191.58
538.92	56320.31
539.09	56554.36
539.26	56282.86
539.43	56315.63
539.60	56535.64
539.77	56301.59
539.94	56870.34
540.11	56523.94
540.28	56718.20
540.44	56601.18
540.61	56636.28
540.78	56659.69
540.95	56493.51
541.12	56699.48
541.29	56488.83
541.46	56825.87
541.62	56587.13
541.79	56933.53
541.96	56640.96
542.13	56727.56
542.30	56992.04
542.47	57010.77
542.63	57139.50
542.80	57226.10
542.97	57301.00
543.14	57385.25
543.31	57258.87
543.48	57336.10
543.64	57504.62
543.81	57839.32
543.98	57614.63
544.15	57764.42
544.32	57694.21
544.48	57918.90
544.65	57427.38
544.82	57708.25
544.99	57656.76
545.16	57956.35
545.32	57666.12
545.49	57954.00
545.66	57844.00
545.83	57834.64
546.00	57876.77
546.16	57818.25
546.33	57804.21
546.50	57848.68
546.67	57846.34
546.83	57872.09
547.00	57918.90
547.17	58047.63
547.34	58064.01
547.50	58082.73
547.67	58319.13
547.84	58157.63
548.00	58471.26
548.17	58756.81
548.34	58412.75
548.51	58391.68
548.67	58539.14
548.84	58433.81
549.01	58164.65
549.18	58284.02
549.34	58714.68
549.51	58651.48
549.68	58602.33
549.84	58714.68
550.01	58616.38
550.18	58520.41
550.34	58597.65
550.51	58616.38
550.68	58705.32
550.84	58532.12
551.01	58801.28
551.18	58562.54
551.34	58759.15
551.51	58656.17
551.68	58798.94
551.84	58663.19
552.01	58660.85
552.18	58906.60
552.34	58539.14
552.51	59025.97
552.68	58976.82
552.84	59061.08
553.01	59187.47
553.18	59096.19
553.34	59164.06
553.51	58892.56
553.67	59234.28
553.84	59206.19
554.01	59325.56
554.17	59304.49
554.34	59227.26
554.51	59103.21
554.67	59292.79
554.84	59086.82
555.00	59112.57
555.17	59072.78
555.33	59430.88
555.50	59117.25
555.67	59086.82
555.83	59267.05
556.00	59189.81
556.16	59777.28
556.33	59428.54
556.50	59442.59
556.66	59681.32
556.83	59391.09
556.99	59456.63
557.16	59573.66
557.32	59671.96
557.49	59714.09
557.65	59458.97
557.82	59606.42
557.98	59599.40
558.15	59664.94
558.32	59877.93
558.48	59590.04
558.65	59763.24
558.81	59622.81
558.98	59934.10
559.14	59756.22
559.31	59859.20
559.47	59945.80
559.64	59840.48
559.80	59866.22
559.97	60086.23
560.13	59810.05
560.30	59877.93
560.46	60086.23
560.63	59971.55
560.79	59788.98
560.96	60198.58
561.12	60126.02
561.29	60037.08
561.45	60079.21
561.61	59772.60
561.78	60055.81
561.94	59997.29
562.11	60119.00
562.27	60168.15
562.44	60072.19
562.60	60205.60
562.77	60189.22
562.93	59973.89
563.10	60296.88
563.26	60076.87
563.42	60313.26
563.59	60299.22
563.75	60308.58
563.92	60221.98
564.08	60186.88
564.24	60388.16
564.41	60301.56
564.57	60273.48
564.74	60301.56
564.90	60289.86
565.07	60317.95
565.23	60285.18
565.39	60324.97
565.56	60355.39
565.72	60500.51
565.88	60559.02
566.05	60355.39
566.21	60402.21
566.38	60582.43
566.54	60388.16
566.70	60692.43
566.87	60486.46
567.03	60416.25
567.19	60739.24
567.36	60498.17
567.52	60467.74
567.68	60687.75
567.85	60481.78
568.01	60570.72
568.17	60507.53
568.34	60835.20
568.50	60446.68
568.66	60261.77
568.83	60739.24
568.99	60694.77
569.15	60624.56
569.32	60654.98
569.48	60535.62
569.64	60669.03
569.81	60776.69
569.97	60535.62
570.13	60615.19
570.30	60598.81
570.46	60561.36
570.62	60795.42
570.78	60626.90
570.95	60722.86
571.11	60954.57
571.27	60734.56
571.43	60793.07
571.60	61001.38
571.76	60816.48
571.92	60924.14
572.09	60739.24
572.25	60729.88
572.41	60732.22
572.57	60853.93
572.74	60907.76
572.90	60741.58
573.06	60858.61
573.22	60788.39
573.38	60772.01
573.55	60870.31
573.71	60992.02
573.87	60781.37
574.03	60753.29
574.20	60940.53
574.36	60793.07
574.52	61008.40
574.68	60977.98
574.84	61181.60
575.01	61015.43
575.17	60905.42
575.33	60903.08
575.49	60956.91
575.65	61034.15
575.82	61151.18
575.98	60907.76
576.14	61139.47
576.30	60968.61
576.46	60842.23
576.62	60671.37
576.79	60917.12
576.95	61020.11
577.11	61172.24
577.27	61113.73
577.43	60973.30
577.59	61092.66
577.75	60853.93
577.92	60769.67
578.08	61181.60
578.24	61242.46
578.40	61050.53
578.56	61326.72
578.72	61127.77
578.88	61279.91
579.04	61153.52
579.21	61092.66
579.37	61242.46
579.53	61205.01
579.69	60982.66
579.85	60886.70
580.01	61153.52
580.17	60935.85
580.33	61151.18
580.49	61181.60
580.65	61029.47
580.82	61043.51
580.98	60999.04
581.14	61132.45
581.30	61144.16
581.46	60893.72
581.62	61090.32
581.78	61095.00
581.94	61235.44
582.10	61209.69
582.26	61139.47
582.42	61078.62
582.58	61155.86
582.74	60987.34
582.90	61071.60
583.06	60966.27
583.22	60982.66
583.38	61214.37
583.54	61057.56
583.70	61279.91
583.86	61303.31
584.02	61080.96
584.18	61212.03
584.34	61034.15
584.50	61155.86
584.66	61071.60
584.82	61013.08
584.98	61427.36
585.14	61499.92
585.30	60914.78
585.46	61230.75
585.62	61307.99
585.78	61511.62
585.94	61097.34
586.10	61118.41
586.26	61258.84
586.42	61293.95
586.58	61432.04
586.74	61153.52
586.90	61190.97
587.06	61064.58
587.22	61251.82
587.38	61193.31
587.54	61434.38
587.70	61584.18
587.86	61322.04
588.02	61291.61
588.18	61460.13
588.34	61148.84
588.49	61361.82
