SpectraSuite Data File
++++++++++++++++++++++++++++++++++++
Date: Fri Oct 25 11:22:56 EDT 2013
User: price-jones
Dark Spectrum Present: No
Reference Spectrum Present: No
Number of Sampled Component Spectra: 1
Spectrometers: USB2+H05261
Integration Time (usec): 100000 (USB2+H05261)
Spectra Averaged: 1 (USB2+H05261)
Boxcar Smoothing: 0 (USB2+H05261)
Correct for Electrical Dark: No (USB2+H05261)
Strobe/Lamp Enabled: No (USB2+H05261)
Correct for Detector Non-linearity: No (USB2+H05261)
Correct for Stray Light: No (USB2+H05261)
Number of Pixels in Processed Spectrum: 2048
>>>>>Begin Processed Spectral Data<<<<<
365.73	222.35
365.92	222.35
366.12	222.35
366.32	163.84
366.52	102.98
366.72	170.86
366.91	159.16
367.11	159.16
367.31	147.45
367.51	42.13
367.70	117.03
367.90	112.35
368.10	163.84
368.30	166.18
368.49	147.45
368.69	154.48
368.89	84.26
369.09	159.16
369.28	156.82
369.48	175.54
369.68	156.82
369.87	196.60
370.07	112.35
370.27	198.95
370.47	278.52
370.66	550.03
370.86	608.54
371.06	636.63
371.25	732.59
371.45	589.82
371.65	725.57
371.84	688.12
372.04	690.46
372.24	711.52
372.44	744.29
372.63	772.38
372.83	779.40
373.03	662.37
373.22	720.88
373.42	772.38
373.62	748.97
373.81	758.33
374.01	753.65
374.21	800.46
374.40	805.14
374.60	814.51
374.79	833.23
374.99	833.23
375.19	830.89
375.38	842.59
375.58	802.80
375.78	849.61
375.97	765.36
376.17	889.40
376.37	882.38
376.56	835.57
376.76	835.57
376.95	830.89
377.15	903.45
377.35	933.87
377.54	896.43
377.74	847.27
377.93	851.96
378.13	849.61
378.33	999.41
378.52	866.00
378.72	903.45
378.91	922.17
379.11	901.11
379.31	919.83
379.50	905.79
379.70	961.96
379.89	976.00
380.09	912.81
380.28	954.94
380.48	959.62
380.68	978.34
380.87	997.07
381.07	1118.78
381.26	1158.57
381.46	933.87
381.65	1001.75
381.85	1025.15
382.04	1132.82
382.24	1043.88
382.43	1053.24
382.63	978.34
382.83	1076.65
383.02	1123.46
383.22	1139.84
383.41	1062.60
383.61	1041.54
383.80	1167.93
384.00	1186.65
384.19	1067.28
384.39	1102.39
384.58	1128.14
384.78	1144.52
384.97	1177.29
385.17	1137.50
385.36	1217.08
385.56	1125.80
385.75	1116.44
385.95	1088.35
386.14	1144.52
386.34	1231.12
386.53	1287.29
386.72	1235.80
386.92	1277.93
387.11	1261.55
387.31	1303.68
387.50	1247.51
387.70	1280.27
387.89	1308.36
388.09	1329.42
388.28	1210.06
388.48	1284.95
388.67	1320.06
388.86	1315.38
389.06	1341.13
389.25	1350.49
389.45	1359.85
389.64	1348.15
389.84	1394.96
390.03	1411.34
390.22	1404.32
390.42	1409.00
390.61	1359.85
390.81	1383.26
391.00	1476.88
391.19	1504.96
391.39	1502.62
391.58	1472.20
391.78	1430.07
391.97	1526.03
392.16	1387.94
392.36	1582.20
392.55	1511.99
392.75	1490.92
392.94	1516.67
393.13	1540.07
393.33	1516.67
393.52	1511.99
393.71	1633.69
393.91	1547.09
394.10	1614.97
394.29	1694.55
394.49	1579.86
394.68	1607.95
394.88	1657.10
395.07	1664.12
395.26	1612.63
395.46	1682.85
395.65	1795.19
395.84	1764.76
396.04	1715.61
396.23	1781.15
396.42	1757.74
396.62	1797.53
396.81	1816.26
397.00	1783.49
397.19	1806.89
397.39	1783.49
397.58	1783.49
397.77	1877.11
397.97	1736.68
398.16	1837.32
398.35	1959.03
398.55	1834.98
398.74	1881.79
398.93	1973.07
399.12	1846.68
399.32	1902.86
399.51	1947.33
399.70	1998.82
399.90	1956.69
400.09	2010.52
400.28	2017.54
400.47	2050.31
400.67	2125.21
400.86	2120.53
401.05	2148.61
401.24	2172.02
401.44	2108.82
401.63	2076.06
401.82	2127.55
402.01	2186.06
402.21	2155.63
402.40	2193.08
402.59	2150.95
402.78	2115.84
402.97	2277.34
403.17	2162.66
403.36	2267.98
403.55	2314.79
403.74	2356.92
403.93	2443.52
404.13	2380.32
404.32	2389.69
404.51	2431.82
404.70	2438.84
404.89	2427.14
405.09	2546.50
405.28	2487.99
405.47	2406.07
405.66	2441.18
405.85	2605.02
406.05	2553.52
406.24	2558.21
406.43	2628.42
406.62	2726.72
406.81	2752.47
407.00	2605.02
407.20	2621.40
407.39	2703.32
407.58	2663.53
407.77	2703.32
407.96	2759.49
408.15	2724.38
408.34	2745.45
408.54	2841.41
408.73	2813.32
408.92	2855.45
409.11	2909.29
409.30	2981.84
409.49	2937.37
409.68	2937.37
409.87	2949.08
410.07	3042.70
410.26	3033.33
410.45	3094.19
410.64	3012.27
410.83	2995.89
411.02	3190.15
411.21	3101.21
411.40	3089.51
411.59	3248.66
411.78	3183.13
411.98	3227.60
412.17	3141.00
412.36	3311.86
412.55	3506.12
412.74	3361.01
412.93	3424.20
413.12	3346.97
413.31	3524.85
413.50	3510.80
413.69	3627.83
413.88	3552.93
414.07	3499.10
414.26	3737.84
414.45	3805.71
414.64	3637.19
414.83	3758.90
415.02	3960.19
415.22	3927.42
415.41	3936.78
415.60	3801.03
415.79	3925.08
415.98	4039.76
416.17	4046.79
416.36	3997.64
416.55	4035.08
416.74	4065.51
416.93	3978.91
417.12	4112.32
417.31	4189.56
417.50	4325.31
417.69	4217.65
417.88	4337.01
418.07	4285.52
418.26	4280.84
418.45	4514.89
418.64	4535.96
418.83	4531.28
419.02	4409.57
419.21	4554.68
419.39	4550.00
419.58	4432.97
419.77	4493.83
419.96	4484.47
420.15	4676.39
420.34	4685.75
420.53	4645.96
420.72	4788.74
420.91	4774.69
421.10	4652.98
421.29	4793.42
421.48	4631.92
421.67	4713.84
421.86	4802.78
422.05	4793.42
422.24	4847.25
422.43	4849.59
422.61	4992.36
422.80	5036.83
422.99	4933.85
423.18	4905.76
423.37	5025.13
423.56	5001.72
423.75	4919.81
423.94	4915.12
424.13	4622.56
424.32	4744.27
424.50	5114.07
424.69	5132.79
424.88	5074.28
425.07	5039.17
425.26	4987.68
425.45	4983.00
425.64	5039.17
425.83	4959.60
426.01	4973.64
426.20	5057.90
426.39	5167.90
426.58	4961.94
426.77	5027.47
426.96	5146.84
427.15	5210.03
427.33	5224.08
427.52	5221.74
427.71	5387.91
427.90	5186.63
428.09	5488.56
428.28	5327.06
428.46	5514.30
428.65	5369.19
428.84	5636.01
429.03	5556.43
429.22	5575.16
429.40	5631.33
429.59	5596.22
429.78	5329.40
429.97	5273.23
430.16	5572.82
430.34	5593.88
430.53	5647.71
430.72	5783.46
430.91	5724.95
431.10	5659.42
431.28	5746.02
431.47	5760.06
431.66	6061.99
431.85	5760.06
432.03	5912.19
432.22	5966.03
432.41	6043.26
432.60	5949.64
432.79	5963.68
432.97	6029.22
433.16	6209.44
433.35	6033.90
433.54	6232.85
433.72	6080.71
433.91	6120.50
434.10	6164.97
434.28	6146.25
434.47	6207.10
434.66	6132.20
434.85	6253.91
435.03	6349.87
435.22	6228.17
435.41	6455.20
435.59	6518.39
435.78	6600.31
435.97	6471.58
436.16	6516.05
436.34	6347.53
436.53	6546.48
436.72	6619.04
436.90	6530.09
437.09	6679.89
437.28	6576.91
437.46	6640.10
437.65	6724.36
437.84	6803.94
438.02	6841.39
438.21	6869.47
438.40	6729.04
438.58	7056.72
438.77	6885.86
438.96	6972.46
439.14	7199.49
439.33	7201.83
439.52	7166.72
439.70	7496.74
439.89	7311.83
440.08	7421.84
440.26	7492.05
440.45	7342.26
440.63	7522.48
440.82	7618.44
441.01	7466.31
441.19	7597.38
441.38	7674.62
441.57	7749.51
441.75	7892.29
441.94	7929.74
442.12	7934.42
442.31	8339.33
442.50	8231.66
442.68	7948.46
442.87	8145.06
443.05	8018.68
443.24	8091.23
443.43	8421.25
443.61	8259.75
443.80	8540.61
443.98	8072.51
444.17	7836.11
444.35	8311.24
444.54	8407.20
444.73	8327.63
444.91	8425.93
445.10	8411.89
445.28	8540.61
445.47	8334.65
445.65	8311.24
445.84	8477.42
446.02	8416.57
446.21	8245.71
446.39	8468.06
446.58	8655.30
446.77	8641.26
446.95	8369.76
447.14	8362.73
447.32	8578.06
447.51	8596.79
447.69	8489.12
447.88	8664.66
448.06	8557.00
448.25	8442.31
448.43	8549.98
448.62	8769.99
448.80	8564.02
448.99	8767.65
449.17	8947.87
449.36	8814.46
449.54	8931.48
449.73	9114.05
449.91	9034.47
450.10	8945.53
450.28	9114.05
450.46	9233.41
450.65	9022.77
450.83	9144.47
451.02	9071.92
451.20	9345.76
451.39	9142.13
451.57	9170.22
451.76	9043.83
451.94	9334.06
452.13	9614.92
452.31	9404.27
452.49	9221.71
452.68	9451.08
452.86	9554.07
453.05	9565.77
453.23	9591.52
453.42	9664.07
453.60	9296.61
453.78	9638.33
453.97	9439.38
454.15	9490.87
454.34	9472.15
454.52	9692.16
454.70	9621.94
454.89	9722.59
455.07	9720.24
455.26	9937.91
455.44	10108.77
455.62	10183.67
455.81	10120.48
455.99	10031.54
456.17	10155.58
456.36	10181.33
456.54	10225.80
456.73	10197.71
456.91	10523.05
457.09	10249.21
457.28	10663.48
457.46	10340.49
457.64	10654.12
457.83	10464.54
458.01	10420.06
458.19	10841.36
458.38	10621.35
458.56	10951.37
458.74	10672.84
458.93	10647.10
459.11	10726.68
459.29	10932.64
459.48	11049.67
459.66	10895.19
459.84	10965.41
460.03	11236.91
460.21	10902.22
460.39	11108.18
460.57	11059.03
460.76	11112.86
460.94	11335.21
461.12	11150.31
461.31	11232.23
461.49	11272.02
461.67	11241.59
461.85	11613.74
462.04	11421.81
462.22	11885.24
462.40	11733.11
462.59	11503.73
462.77	11674.59
462.95	11660.55
463.13	11669.91
463.32	11791.62
463.50	11796.30
463.68	11775.24
463.86	11913.33
464.05	11999.93
464.23	11908.65
464.41	11978.86
464.59	11908.65
464.78	12269.09
464.96	12126.32
465.14	12042.06
465.32	12250.36
465.50	12205.89
465.69	12231.64
465.87	12341.64
466.05	12365.05
466.23	12198.87
466.41	12320.58
466.60	12510.16
466.78	12166.10
466.96	12217.60
467.14	12442.29
467.32	12643.57
467.51	12741.88
467.69	12201.21
467.87	12493.78
468.05	12720.81
468.23	12540.59
468.41	12676.34
468.60	12699.75
468.78	12891.67
468.96	12578.04
469.14	12915.08
469.32	13270.84
469.50	13025.08
469.69	13046.15
469.87	13312.97
470.05	13092.96
470.23	13123.38
470.41	13287.22
470.59	13362.12
470.77	13287.22
470.95	13432.33
471.14	13748.31
471.32	13345.73
471.50	13767.03
471.68	13664.05
471.86	13851.29
472.04	13923.85
472.22	14178.97
472.40	13827.88
472.58	13905.12
472.77	14153.22
472.95	14277.27
473.13	14853.04
473.31	14228.12
473.49	14492.60
473.67	14478.55
473.85	14314.72
474.03	14658.78
474.21	14490.26
474.39	14743.03
474.57	14810.91
474.75	14883.47
474.93	15140.93
475.12	15218.16
475.30	15197.10
475.48	15253.27
475.66	15360.94
475.84	15302.42
476.02	15620.74
476.20	15524.77
476.38	15770.53
476.56	16140.33
476.74	16224.59
476.92	15920.32
477.10	15901.60
477.28	16468.01
477.46	16290.13
477.64	16428.22
477.82	17050.80
478.00	17158.47
478.18	17062.51
478.36	17104.64
478.54	17224.00
478.72	17301.24
478.90	17497.84
479.08	17668.70
479.26	17661.68
479.44	17933.18
479.62	18090.00
479.80	18183.62
479.98	18349.80
480.16	18705.56
480.34	18576.83
480.52	18565.13
480.70	18911.53
480.88	18487.89
481.06	18738.33
481.24	18934.93
481.41	19384.32
481.59	19599.65
481.77	19768.16
481.95	19800.93
482.13	20056.05
482.31	19726.04
482.49	20500.75
482.67	20524.16
482.85	20552.24
483.03	20779.28
483.21	20706.72
483.39	21291.85
483.57	21228.66
483.74	21553.99
483.92	21991.67
484.10	21184.19
484.28	21830.18
484.46	22136.79
484.64	22522.98
484.82	22022.10
485.00	22897.46
485.18	22981.72
485.35	23028.53
485.53	22848.31
485.71	23260.24
485.89	23723.67
486.07	23571.54
486.25	23737.71
486.43	24114.54
486.61	23981.13
486.78	24198.80
486.96	24582.65
487.14	24374.34
487.32	24716.06
487.50	25287.15
487.68	25099.90
487.85	25654.61
488.03	25844.20
488.21	26031.44
488.39	25951.86
488.57	25991.65
488.75	26441.03
488.92	26740.62
489.10	27096.38
489.28	27030.85
489.46	27157.24
489.64	27108.08
489.81	27857.06
489.99	27768.12
490.17	28025.57
490.35	28554.54
490.53	28524.11
490.70	28566.24
490.88	28545.17
491.06	29118.60
491.24	29291.80
491.41	29532.88
491.59	29415.85
491.77	29830.13
491.95	29844.17
492.13	30511.22
492.30	30256.11
492.48	30132.06
492.66	30759.32
492.84	30361.43
493.01	30897.41
493.19	31061.25
493.37	31475.52
493.54	31297.64
493.72	31960.02
493.90	31955.33
494.08	32091.09
494.25	32266.63
494.43	32184.71
494.61	32713.67
494.79	32795.59
494.96	32751.12
495.14	33060.07
495.32	33422.85
495.49	33542.22
495.67	33584.35
495.85	33663.93
496.02	34235.02
496.20	34206.93
496.38	34300.55
496.55	34593.12
496.73	35491.88
496.91	34632.91
497.09	35168.89
497.26	35239.11
497.44	35658.06
497.62	35566.78
497.79	35992.76
497.97	35482.52
498.14	36299.37
498.32	36659.81
498.50	36535.76
498.67	36708.96
498.85	36788.54
499.03	37022.59
499.20	37020.25
499.38	36982.80
499.56	37216.86
499.73	37294.10
499.91	37378.36
500.08	37961.15
500.26	37731.78
500.44	38206.90
500.61	38143.71
500.79	38057.11
500.97	38642.24
501.14	39054.18
501.32	39037.80
501.49	38904.38
501.67	39218.02
501.84	39140.78
502.02	39475.48
502.20	39126.74
502.37	39887.41
502.55	39419.30
502.72	39821.87
502.90	40067.63
503.07	39756.34
503.25	40107.42
503.43	40081.67
503.60	40140.19
503.78	40449.14
503.95	40266.58
504.13	40765.11
504.30	41244.92
504.48	40769.79
504.65	41408.76
504.83	41455.57
505.01	41563.23
505.18	41682.60
505.36	41951.76
505.53	41581.96
505.71	41904.95
505.88	41900.27
506.06	41839.42
506.23	42550.94
506.41	42522.85
506.58	42347.31
506.76	42487.74
506.93	42976.92
507.11	42469.02
507.28	42885.64
507.46	42944.15
507.63	42953.51
507.81	43526.94
507.98	43217.99
508.16	43658.01
508.33	44074.63
508.50	43938.88
508.68	43859.30
508.85	44271.23
509.03	44133.14
509.20	44119.10
509.38	44875.09
509.55	44493.58
509.73	44893.82
509.90	44790.83
510.08	44891.48
510.25	44935.95
510.42	45237.87
510.60	44910.20
510.77	45450.86
510.95	46176.43
511.12	45668.53
511.30	45729.39
511.47	45855.78
511.64	46122.60
511.82	46454.95
511.99	45876.84
512.17	46721.77
512.34	46160.05
512.51	46780.29
512.69	46894.97
512.86	46777.95
513.04	46728.80
513.21	47028.38
513.38	47564.37
513.56	47164.14
513.73	47248.39
513.90	47264.78
514.08	47313.93
514.25	47475.43
514.43	47129.03
514.60	47775.02
514.77	47667.35
514.95	48299.30
515.12	48053.54
515.29	48072.26
515.47	48378.87
515.64	48753.36
515.81	48158.86
515.99	48542.71
516.16	48584.84
516.33	48662.08
516.51	49052.95
516.68	48769.74
516.85	48336.74
517.03	48961.67
517.20	49221.47
517.37	49111.46
517.54	49106.78
517.72	49179.34
517.89	49474.24
518.06	49474.24
518.24	49689.57
518.41	49499.99
518.58	49909.58
518.75	49434.45
518.93	50138.96
519.10	49682.55
519.27	50300.45
519.45	50192.79
519.62	50171.72
519.79	50401.10
519.96	50288.75
520.14	50511.10
520.31	50380.03
520.48	50494.72
520.65	50784.94
520.83	50960.48
521.00	50798.99
521.17	50724.09
521.34	50855.16
521.52	51243.69
521.69	51164.11
521.86	51189.86
522.03	51435.61
522.20	51461.36
522.38	51674.35
522.55	51969.26
522.72	51657.96
522.89	51714.14
523.07	51924.78
523.24	51723.50
523.41	51772.65
523.58	51725.84
523.75	52233.74
523.92	52090.96
524.10	52423.32
524.27	52488.85
524.44	52212.67
524.61	52605.88
524.78	52423.32
524.96	52748.65
525.13	52580.13
525.30	52811.85
525.47	52711.20
525.64	52720.57
525.81	52898.45
525.98	52996.75
526.16	52755.68
526.33	53165.27
526.50	53181.65
526.67	53193.36
526.84	53296.34
527.01	53024.84
527.18	53165.27
527.36	53303.36
527.53	53230.80
527.70	53607.63
527.87	53797.21
528.04	53434.43
528.21	53476.56
528.38	53642.74
528.55	54171.70
528.72	53542.10
528.89	53825.30
529.07	53624.01
529.24	53900.20
529.41	53956.37
529.58	54019.56
529.75	53790.19
529.92	54000.84
530.09	54117.87
530.26	54099.14
530.43	54281.70
530.60	54270.00
530.77	54162.34
530.94	54574.27
531.11	54110.85
531.28	54412.77
531.46	54679.60
531.63	54583.63
531.80	54482.99
531.97	54653.85
532.14	54923.01
532.31	54993.23
532.48	54590.66
532.65	54794.28
532.82	54740.45
532.99	55030.68
533.16	54815.35
533.33	55224.94
533.50	55107.91
533.67	55077.49
533.84	55011.95
534.01	55007.27
534.18	55033.02
534.35	55409.84
534.52	55384.10
534.69	55269.41
534.86	55681.34
535.03	55419.20
535.20	55306.86
535.37	55693.05
535.54	55716.45
535.71	55466.02
535.88	55381.76
536.05	55594.74
536.22	55915.40
536.38	55870.93
536.55	56086.26
536.72	55859.23
536.89	55627.51
537.06	55686.03
537.23	55992.64
537.40	55950.51
537.57	56081.58
537.74	55936.46
537.91	56067.53
538.08	56200.94
538.25	55994.98
538.42	56109.66
538.59	56713.52
538.75	56135.41
538.92	56278.18
539.09	56357.76
539.26	56271.16
539.43	56306.27
539.60	56275.84
539.77	56397.55
539.94	56793.10
540.11	56502.87
540.28	56603.52
540.44	56807.14
540.61	56734.59
540.78	56690.12
540.95	56659.69
541.12	56720.54
541.29	56835.23
541.46	56718.20
541.62	57073.96
541.79	56772.03
541.96	56694.80
542.13	56891.40
542.30	56952.26
542.47	57090.35
542.63	57160.56
542.80	57017.79
542.97	57174.61
543.14	57272.91
543.31	57354.83
543.48	57485.90
543.64	57759.74
543.81	57558.45
543.98	57581.86
544.15	57521.01
544.32	57858.04
544.48	57673.14
544.65	57628.67
544.82	57495.26
544.99	57558.45
545.16	57797.19
545.32	57726.97
545.49	57827.62
545.66	57918.90
545.83	57867.40
546.00	57719.95
546.16	57738.68
546.33	57621.65
546.50	58028.90
546.67	57900.17
546.83	57815.91
547.00	57958.69
547.17	58017.20
547.34	58113.16
547.50	58181.04
547.67	58368.28
547.84	58085.07
548.00	58349.56
548.17	58349.56
548.34	58419.77
548.51	58546.16
548.67	58391.68
548.84	58585.95
549.01	58370.62
549.18	58335.51
549.34	58375.30
549.51	58515.73
549.68	58688.93
549.84	58646.80
550.01	58595.31
550.18	58532.12
550.34	58553.18
550.51	58557.86
550.68	58646.80
550.84	58436.16
551.01	58745.11
551.18	58534.46
551.34	58756.81
551.51	58834.05
551.68	58791.92
551.84	58663.19
552.01	58686.59
552.18	58724.04
552.34	58883.20
552.51	59159.38
552.68	58920.65
552.84	58901.92
553.01	59271.73
553.18	58974.48
553.34	59075.12
553.51	59030.65
553.67	59035.33
553.84	59147.68
554.01	59082.14
554.17	59203.85
554.34	59370.03
554.51	59187.47
554.67	59281.09
554.84	59072.78
555.00	59470.67
555.17	59133.63
555.33	59217.89
555.50	59283.43
555.67	59180.45
555.83	59203.85
556.00	59475.35
556.16	59861.54
556.33	59655.57
556.50	59496.42
556.66	59517.48
556.83	59131.29
556.99	59597.06
557.16	59749.20
557.32	59723.45
557.49	59793.67
557.65	59519.82
557.82	59482.37
557.98	59501.10
558.15	59716.43
558.32	59505.78
558.48	59742.17
558.65	59742.17
558.81	59700.04
558.98	59674.30
559.14	60037.08
559.31	59702.38
559.47	59791.33
559.64	59854.52
559.80	59938.78
559.97	59969.21
560.13	60053.47
560.30	59873.24
560.46	60037.08
560.63	60158.79
560.79	59980.91
560.96	60018.36
561.12	60065.17
561.29	60121.34
561.45	60027.72
561.61	60016.02
561.78	60151.77
561.94	59842.82
562.11	60023.04
562.27	60161.13
562.44	60210.28
562.60	60303.90
562.77	60346.03
562.93	60004.31
563.10	60252.41
563.26	60046.44
563.42	60367.10
563.59	60383.48
563.75	60245.39
563.92	60226.66
564.08	60179.85
564.24	60509.87
564.41	60257.09
564.57	60329.65
564.74	60367.10
564.90	60430.29
565.07	60350.71
565.23	60423.27
565.39	60301.56
565.56	60355.39
565.72	60317.95
565.88	60360.08
566.05	60282.84
566.21	60371.78
566.38	60568.38
566.54	60533.28
566.70	60315.61
566.87	60603.49
567.03	60282.84
567.19	60673.71
567.36	60535.62
567.52	60481.78
567.68	60811.80
567.85	60549.66
568.01	60568.38
568.17	60629.24
568.34	60589.45
568.50	60727.54
568.66	60353.05
568.83	60580.09
568.99	60605.83
569.15	60694.77
569.32	60512.21
569.48	60741.58
569.64	60690.09
569.81	60633.92
569.97	60580.09
570.13	60640.94
570.30	60570.72
570.46	60563.70
570.62	60797.76
570.78	60870.31
570.95	60776.69
571.11	60767.33
571.27	60657.32
571.43	60676.05
571.60	60687.75
571.76	60910.10
571.92	60802.44
572.09	60776.69
572.25	60783.71
572.41	60760.31
572.57	60807.12
572.74	60989.68
572.90	60867.97
573.06	60968.61
573.22	60746.26
573.38	60722.86
573.55	60601.15
573.71	61006.06
573.87	60804.78
574.03	60732.22
574.20	60760.31
574.36	60870.31
574.52	60886.70
574.68	60837.54
574.84	61151.18
575.01	60952.23
575.17	61020.11
575.33	60891.38
575.49	60977.98
575.65	61038.83
575.82	61123.09
575.98	61120.75
576.14	61205.01
576.30	61031.81
576.46	60872.65
576.62	60767.33
576.79	60947.55
576.95	60999.04
577.11	60764.99
577.27	61092.66
577.43	61013.08
577.59	60823.50
577.75	60985.00
577.92	60982.66
578.08	60896.06
578.24	61109.05
578.40	61102.03
578.56	61254.16
578.72	61291.61
578.88	61221.39
579.04	61375.87
579.21	60977.98
579.37	61160.54
579.53	61151.18
579.69	61015.43
579.85	61083.30
580.01	61064.58
580.17	60825.84
580.33	61251.82
580.49	61221.39
580.65	61006.06
580.82	61052.87
580.98	60917.12
581.14	61116.07
581.30	61209.69
581.46	61001.38
581.62	61275.22
581.78	61230.75
581.94	61041.17
582.10	61106.71
582.26	61195.65
582.42	61216.71
582.58	60924.14
582.74	61190.97
582.90	61066.92
583.06	61109.05
583.22	60959.25
583.38	61057.56
583.54	61209.69
583.70	61162.88
583.86	61071.60
584.02	60982.66
584.18	61319.70
584.34	61179.26
584.50	61324.38
584.66	61205.01
584.82	60900.74
584.98	61193.31
585.14	61148.84
585.30	61006.06
585.46	61242.46
585.62	61275.22
585.78	61265.86
585.94	61085.64
586.10	61293.95
586.26	61092.66
586.42	61251.82
586.58	61481.19
586.74	61305.65
586.90	61293.95
587.06	61190.97
587.22	61329.06
587.38	61092.66
587.54	61460.13
587.70	61387.57
587.86	61186.28
588.02	61148.84
588.18	61429.70
588.34	61282.25
588.49	61207.35
