SpectraSuite Data File
++++++++++++++++++++++++++++++++++++
Date: Fri Oct 25 10:44:42 EDT 2013
User: price-jones
Dark Spectrum Present: No
Reference Spectrum Present: No
Number of Sampled Component Spectra: 1
Spectrometers: USB2+H05261
Integration Time (usec): 100000 (USB2+H05261)
Spectra Averaged: 1 (USB2+H05261)
Boxcar Smoothing: 0 (USB2+H05261)
Correct for Electrical Dark: No (USB2+H05261)
Strobe/Lamp Enabled: No (USB2+H05261)
Correct for Detector Non-linearity: No (USB2+H05261)
Correct for Stray Light: No (USB2+H05261)
Number of Pixels in Processed Spectrum: 2048
>>>>>Begin Processed Spectral Data<<<<<
365.73	119.37
365.92	119.37
366.12	119.37
366.32	65.54
366.52	0.00
366.72	79.58
366.91	0.00
367.11	0.00
367.31	23.41
367.51	60.85
367.70	98.30
367.90	67.88
368.10	7.02
368.30	0.00
368.49	0.00
368.69	98.30
368.89	81.92
369.09	56.17
369.28	110.01
369.48	121.71
369.68	124.05
369.87	56.17
370.07	39.79
370.27	58.51
370.47	56.17
370.66	369.80
370.86	414.27
371.06	517.26
371.25	491.51
371.45	468.11
371.65	430.66
371.84	437.68
372.04	472.79
372.24	465.77
372.44	463.43
372.63	477.47
372.83	521.94
373.03	505.56
373.22	503.22
373.42	486.83
373.62	538.32
373.81	418.96
374.01	554.71
374.21	585.13
374.40	528.96
374.60	477.47
374.79	484.49
374.99	514.92
375.19	582.79
375.38	624.92
375.58	526.62
375.78	564.07
375.97	592.16
376.17	571.09
376.37	585.13
376.56	594.50
376.76	493.85
376.95	477.47
377.15	559.39
377.35	678.76
377.54	615.56
377.74	596.84
377.93	568.75
378.13	657.69
378.33	587.47
378.52	631.94
378.72	599.18
378.91	645.99
379.11	620.24
379.31	594.50
379.50	519.60
379.70	690.46
379.89	645.99
380.09	624.92
380.28	629.60
380.48	662.37
380.68	650.67
380.87	599.18
381.07	587.47
381.26	737.27
381.46	643.65
381.65	697.48
381.85	638.97
382.04	631.94
382.24	655.35
382.43	653.01
382.63	655.35
382.83	690.46
383.02	807.48
383.22	802.80
383.41	685.78
383.61	634.29
383.80	688.12
384.00	690.46
384.19	688.12
384.39	770.04
384.58	671.73
384.78	692.80
384.97	779.40
385.17	755.99
385.36	784.08
385.56	793.44
385.75	704.50
385.95	760.67
386.14	716.20
386.34	695.14
386.53	753.65
386.72	667.05
386.92	837.91
387.11	730.25
387.31	816.85
387.50	940.90
387.70	816.85
387.89	805.14
388.09	854.30
388.28	821.53
388.48	807.48
388.67	870.68
388.86	868.34
389.06	873.02
389.25	908.13
389.45	880.04
389.64	837.91
389.84	880.04
390.03	819.19
390.22	910.47
390.42	903.45
390.61	905.79
390.81	854.30
391.00	950.26
391.19	919.83
391.39	884.72
391.58	1053.24
391.78	1001.75
391.97	987.71
392.16	992.39
392.36	1041.54
392.55	973.66
392.75	966.64
392.94	884.72
393.13	971.32
393.33	978.34
393.52	917.49
393.71	1011.11
393.91	983.02
394.10	1053.24
394.29	1076.65
394.49	1048.56
394.68	1036.86
394.88	1090.69
395.07	1132.82
395.26	1048.56
395.46	1196.01
395.65	1174.95
395.84	1125.80
396.04	1172.61
396.23	1076.65
396.42	1071.97
396.62	1062.60
396.81	1217.08
397.00	1184.31
397.19	1247.51
397.39	1226.44
397.58	1214.74
397.77	1245.16
397.97	1275.59
398.16	1261.55
398.35	1282.61
398.55	1200.69
398.74	1242.82
398.93	1387.94
399.12	1369.21
399.32	1287.29
399.51	1406.66
399.70	1371.55
399.90	1345.81
400.09	1390.28
400.28	1507.30
400.47	1364.53
400.67	1467.52
400.86	1413.68
401.05	1514.33
401.24	1558.80
401.44	1460.49
401.63	1488.58
401.82	1558.80
402.01	1507.30
402.21	1568.16
402.40	1521.35
402.59	1488.58
402.78	1591.56
402.97	1530.71
403.17	1526.03
403.36	1533.05
403.55	1675.82
403.74	1626.67
403.93	1680.50
404.13	1582.20
404.32	1701.57
404.51	1610.29
404.70	1776.47
404.89	1621.99
405.09	1823.28
405.28	1720.29
405.47	1678.16
405.66	1722.63
405.85	1748.38
406.05	1741.36
406.24	1790.51
406.43	1830.30
406.62	1881.79
406.81	2017.54
407.00	1870.09
407.20	1783.49
407.39	1860.73
407.58	1888.81
407.77	1926.26
407.96	1909.88
408.15	1987.11
408.34	1898.17
408.54	2019.88
408.73	2040.95
408.92	2069.03
409.11	1968.39
409.30	2120.53
409.49	2092.44
409.68	2132.23
409.87	2031.58
410.07	2127.55
410.26	2057.33
410.45	2143.93
410.64	2197.76
410.83	2256.28
411.02	2078.40
411.21	2279.68
411.40	2305.43
411.59	2244.57
411.78	2387.35
411.98	2251.60
412.17	2424.80
412.36	2431.82
412.55	2408.41
412.74	2464.58
412.93	2349.90
413.12	2431.82
413.31	2532.46
413.50	2686.94
413.69	2558.21
413.88	2675.23
414.07	2562.89
414.26	2602.68
414.45	2588.63
414.64	2649.49
414.83	2740.77
415.02	2647.15
415.22	2780.56
415.41	2881.20
415.60	2738.43
415.79	2789.92
415.98	2960.78
416.17	2862.48
416.36	2750.13
416.55	2813.32
416.74	3033.33
416.93	3000.57
417.12	2862.48
417.31	2925.67
417.50	2949.08
417.69	3157.38
417.88	3169.09
418.07	3005.25
418.26	3077.80
418.45	3166.74
418.64	3353.99
418.83	3129.30
419.02	3171.43
419.21	3229.94
419.39	3258.03
419.58	3253.34
419.77	3162.06
419.96	3300.16
420.15	3311.86
420.34	3133.98
420.53	3346.97
420.72	3442.93
420.91	3421.86
421.10	3384.41
421.29	3379.73
421.48	3463.99
421.67	3414.84
421.86	3384.41
422.05	3382.07
422.24	3433.57
422.43	3522.51
422.61	3478.04
422.80	3552.93
422.99	3468.67
423.18	3545.91
423.37	3637.19
423.56	3581.02
423.75	3538.89
423.94	3494.42
424.13	3309.52
424.32	3346.97
424.50	3449.95
424.69	3644.21
424.88	3590.38
425.07	3623.15
425.26	3550.59
425.45	3637.19
425.64	3574.00
425.83	3599.74
426.01	3648.90
426.20	3705.07
426.39	3613.79
426.58	3494.42
426.77	3548.25
426.96	3784.65
427.15	3618.47
427.33	3639.53
427.52	3719.11
427.71	3726.13
427.90	3660.60
428.09	3789.33
428.28	3831.46
428.46	3705.07
428.65	3826.78
428.84	3840.82
429.03	3782.31
429.22	3747.20
429.40	3737.84
429.59	3742.52
429.78	3574.00
429.97	3588.04
430.16	3655.92
430.34	3702.73
430.53	3873.59
430.72	3843.16
430.91	3772.94
431.10	3955.51
431.28	4084.23
431.47	4140.41
431.66	4255.09
431.85	4065.51
432.03	4217.65
432.22	4215.30
432.41	4217.65
432.60	4187.22
432.79	4348.72
432.97	4348.72
433.16	4273.82
433.35	4114.66
433.54	4264.46
433.72	4257.43
433.91	4177.86
434.10	4322.97
434.28	4329.99
434.47	4390.84
434.66	4374.46
434.85	4444.68
435.03	4507.87
435.22	4458.72
435.41	4526.60
435.59	4545.32
435.78	4512.55
435.97	4629.58
436.16	4610.86
436.34	4589.79
436.53	4643.62
436.72	4713.84
436.90	4561.70
437.09	4648.30
437.28	4594.47
437.46	4681.07
437.65	4643.62
437.84	4664.69
438.02	4713.84
438.21	4620.22
438.40	4683.41
438.58	4882.36
438.77	4821.50
438.96	4741.93
439.14	5043.85
439.33	4945.55
439.52	5100.03
439.70	5029.81
439.89	4994.70
440.08	5174.92
440.26	5198.33
440.45	5055.56
440.63	5198.33
440.82	5305.99
441.01	5207.69
441.19	5408.98
441.38	5483.88
441.57	5383.23
441.75	5694.52
441.94	5731.97
442.12	5661.76
442.31	5811.55
442.50	5577.50
442.68	5647.71
442.87	5619.63
443.05	5785.80
443.24	5895.81
443.43	5727.29
443.61	5741.33
443.80	5804.53
443.98	5701.54
444.17	5551.75
444.35	5905.17
444.54	6057.31
444.73	5914.53
444.91	5870.06
445.10	5905.17
445.28	5914.53
445.47	5804.53
445.65	5713.25
445.84	5720.27
446.02	6125.18
446.21	5991.77
446.39	5788.14
446.58	6061.99
446.77	5994.11
446.95	5956.66
447.14	6083.05
447.32	6106.46
447.51	6005.81
447.69	6019.86
447.88	6045.60
448.06	6179.01
448.25	6005.81
448.43	5966.03
448.62	6052.63
448.80	6125.18
448.99	6066.67
449.17	6202.42
449.36	6120.50
449.54	6214.12
449.73	6363.92
449.91	6413.07
450.10	6443.49
450.28	6494.99
450.46	6434.13
450.65	6464.56
450.83	6424.77
451.02	6408.39
451.20	6504.35
451.39	6370.94
451.57	6546.48
451.76	6356.90
451.94	6544.14
452.13	6487.96
452.31	6548.82
452.49	6303.06
452.68	6612.01
452.86	6441.15
453.05	6628.40
453.23	6590.95
453.42	6410.73
453.60	6626.06
453.78	6883.52
453.97	6722.02
454.15	6712.66
454.34	6518.39
454.52	6785.21
454.70	6780.53
454.89	6761.81
455.07	6766.49
455.26	6918.62
455.44	6998.20
455.62	6878.83
455.81	6904.58
455.99	6956.07
456.17	7112.89
456.36	7016.93
456.54	7103.53
456.73	7098.84
456.91	7346.94
457.09	7424.18
457.28	7431.20
457.46	7307.15
457.64	7272.04
457.83	7269.70
458.01	7307.15
458.19	7426.52
458.38	7297.79
458.56	7531.84
458.74	7110.55
458.93	7325.88
459.11	7407.80
459.29	7482.69
459.48	7630.15
459.66	7391.41
459.84	7660.57
460.03	7777.60
460.21	7749.51
460.39	7651.21
460.57	7609.08
460.76	7552.91
460.94	7756.54
461.12	7751.85
461.31	7803.35
461.49	7772.92
461.67	7772.92
461.85	8035.06
462.04	7782.28
462.22	8093.57
462.40	8142.72
462.59	7819.73
462.77	8021.02
462.95	8044.42
463.13	8030.38
463.32	8021.02
463.50	8203.58
463.68	8180.17
463.86	8222.30
464.05	7946.12
464.23	8156.77
464.41	8116.98
464.59	8046.76
464.78	8168.47
464.96	8234.00
465.14	8187.19
465.32	8489.12
465.50	8444.65
465.69	8386.14
465.87	8496.14
466.05	8318.26
466.23	8423.59
466.41	8442.31
466.60	8512.53
466.78	8500.83
466.96	8119.32
467.14	8500.83
467.32	8528.91
467.51	8606.15
467.69	8156.77
467.87	8524.23
468.05	8599.13
468.23	8435.29
468.41	8690.41
468.60	8610.83
468.78	8648.28
468.96	8636.58
469.14	8781.69
469.32	8821.48
469.50	8854.25
469.69	8807.44
469.87	8905.74
470.05	9128.09
470.23	9083.62
470.41	8968.93
470.59	8896.38
470.77	8936.17
470.95	9125.75
471.14	9247.46
471.32	9083.62
471.50	9357.46
471.68	9146.81
471.86	9434.70
472.04	9390.23
472.22	9408.95
472.40	9188.94
472.58	9369.16
472.77	9605.56
472.95	9638.33
473.13	10045.58
473.31	9582.15
473.49	9605.56
473.67	9570.45
473.85	9799.82
474.03	9877.06
474.21	10040.90
474.39	10115.80
474.57	10036.22
474.75	9877.06
474.93	10052.60
475.12	10328.78
475.30	10326.44
475.48	10190.69
475.66	10202.40
475.84	10272.61
476.02	10307.72
476.20	10148.56
476.38	10523.05
476.56	10796.89
476.74	11131.59
476.92	10743.06
477.10	10942.00
477.28	11000.52
477.46	10942.00
477.64	11110.52
477.82	11262.66
478.00	11515.44
478.18	11400.75
478.36	11456.92
478.54	11234.57
478.72	11602.04
478.90	11824.39
479.08	11997.59
479.26	11716.72
479.44	11906.31
479.62	11957.80
479.80	12257.39
479.98	12308.88
480.16	12226.96
480.34	12224.62
480.52	12564.00
480.70	12451.65
480.88	12346.33
481.06	12538.25
481.24	12477.40
481.41	12833.16
481.59	13062.53
481.77	12922.10
481.95	13055.51
482.13	13139.77
482.31	13373.82
482.49	13870.01
482.67	13638.30
482.85	13610.22
483.03	13816.18
483.21	14066.62
483.39	14106.41
483.57	13760.01
483.74	14099.39
483.92	14494.94
484.10	14059.60
484.28	14640.05
484.46	14843.68
484.64	15169.01
484.82	14796.87
485.00	15009.86
485.18	15115.18
485.35	15126.88
485.53	15377.32
485.71	14974.75
485.89	15187.74
486.07	15171.35
486.25	15452.22
486.43	15302.42
486.61	15737.76
486.78	16042.03
486.96	16271.40
487.14	16142.67
487.32	16313.53
487.50	16402.47
487.68	16631.85
487.85	16823.77
488.03	17062.51
488.21	17041.44
488.39	17092.93
488.57	16931.44
488.75	17331.67
488.92	17275.49
489.10	17802.11
489.28	17792.75
489.46	18005.74
489.64	18066.60
489.81	18321.71
489.99	18232.77
490.17	18574.49
490.35	18672.79
490.53	18864.72
490.70	18808.54
490.88	18834.29
491.06	19131.54
491.24	19028.56
491.41	19007.49
491.59	19150.26
491.77	19030.90
491.95	19424.11
492.13	19726.04
492.30	19700.29
492.48	19777.53
492.66	20137.97
492.84	20299.47
493.01	20231.59
493.19	20217.55
493.37	20961.84
493.54	20821.41
493.72	20421.17
493.90	20854.17
494.08	21057.80
494.25	21205.25
494.43	21259.09
494.61	21235.68
494.79	21507.18
494.96	21378.45
495.14	21553.99
495.32	22029.12
495.49	21895.71
495.67	22122.74
495.85	22272.54
496.02	22188.28
496.20	22508.93
496.38	22356.80
496.55	22628.30
496.73	23070.66
496.91	22712.56
497.09	23077.68
497.26	22822.56
497.44	22794.48
497.62	23192.37
497.79	23304.71
497.97	23400.68
498.14	23281.31
498.32	23358.55
498.50	23882.83
498.67	24002.19
498.85	24315.83
499.03	23997.51
499.20	24486.68
499.38	24240.93
499.56	24184.76
499.73	24409.45
499.91	24514.77
500.08	24409.45
500.26	24662.22
500.44	24683.29
500.61	24879.89
500.79	24542.86
500.97	24849.47
501.14	25125.65
501.32	25137.35
501.49	25053.09
501.67	25263.74
501.84	25652.27
502.02	25631.21
502.20	25584.40
502.37	25514.18
502.55	25947.18
502.72	25685.04
502.90	25844.20
503.07	26223.36
503.25	26125.06
503.43	26178.89
503.60	26309.96
503.78	26150.81
503.95	26146.12
504.13	26305.28
504.30	26501.89
504.48	26682.11
504.65	27000.42
504.83	27084.68
505.01	26831.90
505.18	26785.09
505.36	27260.22
505.53	27166.60
505.71	27356.18
505.88	27484.91
506.06	27318.73
506.23	27765.78
506.41	27070.64
506.58	27733.01
506.76	27639.39
506.93	27695.56
507.11	27812.59
507.28	27620.66
507.46	27934.29
507.63	27964.72
507.81	27967.06
507.98	27604.28
508.16	28327.50
508.33	28273.67
508.50	28678.58
508.68	28463.25
508.85	29200.52
509.03	28709.01
509.20	28725.39
509.38	28751.14
509.55	29118.60
509.73	29102.22
509.90	29034.35
510.08	29144.35
510.25	29174.78
510.42	29139.67
510.60	29221.59
510.77	29825.45
510.95	29968.22
511.12	29378.40
511.30	30052.48
511.47	29874.60
511.64	29837.15
511.82	30361.43
511.99	29741.19
512.17	29935.45
512.34	30120.35
512.51	30433.99
512.69	30438.67
512.86	30703.15
513.04	30586.12
513.21	30457.39
513.38	30808.47
513.56	30384.83
513.73	30679.74
513.90	30792.09
514.08	30780.39
514.25	31021.46
514.43	31225.09
514.60	30677.40
514.77	31218.07
514.95	31452.12
515.12	31175.94
515.29	31232.11
515.47	31522.34
515.64	31578.51
515.81	31419.35
515.99	31695.53
516.16	31786.82
516.33	31655.75
516.51	31688.51
516.68	31243.81
516.85	31438.08
517.03	31676.81
517.20	31915.54
517.37	31971.72
517.54	32163.64
517.72	32215.13
517.89	32278.33
518.06	32437.48
518.24	32301.73
518.41	32393.01
518.58	32318.12
518.75	32643.45
518.93	32903.25
519.10	32591.96
519.27	32617.71
519.45	32891.55
519.62	33006.23
519.79	33134.96
519.96	33242.63
520.14	33401.79
520.31	33141.99
520.48	33259.01
520.65	32823.67
520.83	33549.24
521.00	33890.96
521.17	33956.49
521.34	33546.90
521.52	33642.86
521.69	33682.65
521.86	34110.97
522.03	33867.55
522.20	34153.10
522.38	34195.23
522.55	34401.19
522.72	34410.56
522.89	34192.89
523.07	34429.28
523.24	34366.09
523.41	34696.10
523.58	34274.80
523.75	34808.45
523.92	35178.25
524.10	34916.11
524.27	35314.00
524.44	34689.08
524.61	35061.22
524.78	35150.17
524.96	35154.85
525.13	35211.02
525.30	35140.80
525.47	35412.31
525.64	35447.41
525.81	35358.47
525.98	35592.53
526.16	35288.26
526.33	35124.42
526.50	35637.00
526.67	34998.03
526.84	35508.27
527.01	35477.84
527.18	35550.40
527.36	35896.80
527.53	35924.88
527.70	36243.20
527.87	36095.74
528.04	35875.73
528.21	36168.30
528.38	36086.38
528.55	36470.23
528.72	36414.05
528.89	36477.25
529.07	36584.91
529.24	36598.96
529.41	36765.14
529.58	36362.56
529.75	36381.29
529.92	36512.36
530.09	36540.44
530.26	36996.85
530.43	36573.21
530.60	36882.16
530.77	37024.93
530.94	36641.09
531.11	37317.50
531.28	37167.71
531.46	37364.31
531.63	37015.57
531.80	36875.14
531.97	37186.43
532.14	37167.71
532.31	37443.89
532.48	37312.82
532.65	37591.34
532.82	37282.39
532.99	37811.35
533.16	37385.38
533.33	37464.96
533.50	37785.61
533.67	37713.05
533.84	37607.73
534.01	37890.93
534.18	37682.62
534.35	38267.76
534.52	37790.29
534.69	37970.51
534.86	38562.67
535.03	38464.36
535.20	38508.83
535.37	38211.59
535.54	38328.61
535.71	38422.23
535.88	38279.46
536.05	38321.59
536.22	38529.90
536.38	38066.47
536.55	38520.54
536.72	38822.47
536.89	38213.93
537.06	38185.84
537.23	38480.75
537.40	38630.54
537.57	38321.59
537.74	38642.24
537.91	38794.38
538.08	39112.69
538.25	38742.89
538.42	38569.69
538.59	39079.92
538.75	38440.96
538.92	38752.25
539.09	39021.41
539.26	39449.73
539.43	39215.68
539.60	39491.86
539.77	39082.27
539.94	39508.24
540.11	39353.77
540.28	39330.36
540.44	39335.04
540.61	39302.28
540.78	39594.84
540.95	39232.06
541.12	39189.93
541.29	39548.03
541.46	39775.06
541.62	39777.40
541.79	39445.05
541.96	39681.44
542.13	39662.72
542.30	39777.40
542.47	39538.67
542.63	40055.93
542.80	39988.05
542.97	40072.31
543.14	40704.26
543.31	40348.50
543.48	40297.00
543.64	41308.11
543.81	40680.85
543.98	40739.36
544.15	40627.02
544.32	40652.76
544.48	41303.43
544.65	40608.29
544.82	40598.93
544.99	40678.51
545.16	40931.29
545.32	40385.94
545.49	40933.63
545.66	40713.62
545.83	40931.29
546.00	41104.49
546.16	40889.16
546.33	40718.30
546.50	40584.89
546.67	41350.24
546.83	40856.39
547.00	40973.42
547.17	41060.02
547.34	41076.40
547.50	41549.19
547.67	41598.34
547.84	41720.05
548.00	41177.04
548.17	41734.09
548.34	41537.49
548.51	41392.37
548.67	41755.16
548.84	41567.91
549.01	41432.16
549.18	41689.62
549.34	41605.36
549.51	41596.00
549.68	41736.43
549.84	41581.96
550.01	42120.28
550.18	41832.39
550.34	41963.46
550.51	41883.89
550.68	41792.61
550.84	41172.36
551.01	42279.44
551.18	42122.62
551.34	42092.19
551.51	41958.78
551.68	42260.71
551.84	42260.71
552.01	41984.53
552.18	42202.20
552.34	42061.77
552.51	41977.51
552.68	42398.80
552.84	42532.22
553.01	42562.64
553.18	42361.36
553.34	42213.90
553.51	41963.46
553.67	42569.66
553.84	42497.11
554.01	42595.41
554.17	42749.88
554.34	42869.25
554.51	42663.28
554.67	42618.81
554.84	42880.95
555.00	42674.99
555.17	43021.39
555.33	42286.46
555.50	42501.79
555.67	42621.16
555.83	42604.77
556.00	42813.08
556.16	43234.38
556.33	42667.97
556.50	42712.44
556.66	42686.69
556.83	42583.71
556.99	43037.77
557.16	42979.26
557.32	43220.33
557.49	42698.39
557.65	42511.15
557.82	43346.72
557.98	43643.97
558.15	43232.04
558.32	42925.42
558.48	42796.70
558.65	43246.08
558.81	43234.38
558.98	43026.07
559.14	43292.89
559.31	43306.93
559.47	43332.68
559.64	43627.59
559.80	43545.67
559.97	43138.41
560.13	42923.08
560.30	42892.66
560.46	43461.41
560.63	43578.43
560.79	43938.88
560.96	43498.86
561.12	43646.31
561.29	43182.88
561.45	43276.51
561.61	43592.48
561.78	43442.68
561.94	43517.58
562.11	43533.96
562.27	43370.13
562.44	43737.59
562.60	43934.20
562.77	43714.19
562.93	43660.35
563.10	43847.60
563.26	43384.17
563.42	43714.19
563.59	43351.40
563.75	43650.99
563.92	43718.87
564.08	44203.36
564.24	43791.42
564.41	43243.74
564.57	44170.59
564.74	43817.17
564.90	43927.17
565.07	43999.73
565.23	43608.86
565.39	44273.57
565.56	44032.50
565.72	43725.89
565.88	43707.16
566.05	43927.17
566.21	43576.09
566.38	43669.72
566.54	43971.64
566.70	44034.84
566.87	44280.60
567.03	43847.60
567.19	44409.32
567.36	44151.87
567.52	43847.60
567.68	43936.54
567.85	43927.17
568.01	43903.77
568.17	44177.61
568.34	43810.15
568.50	43866.32
568.66	43990.37
568.83	43838.23
568.99	43852.28
569.15	43934.20
569.32	43728.23
569.48	43775.04
569.64	44196.34
569.81	44231.44
569.97	44318.04
570.13	44158.89
570.30	44161.23
570.46	43732.91
570.62	43889.73
570.78	44161.23
570.95	44130.80
571.11	44208.04
571.27	44271.23
571.43	43798.44
571.60	44144.84
571.76	44030.16
571.92	44172.93
572.09	44318.04
572.25	44041.86
572.41	44156.55
572.57	44470.18
572.74	44615.29
572.90	44238.47
573.06	44718.28
573.22	44142.50
573.38	44222.08
573.55	44275.91
573.71	44294.64
573.87	44343.79
574.03	44484.22
574.20	44341.45
574.36	44184.63
574.52	44484.22
574.68	44285.28
574.84	44348.47
575.01	44081.65
575.17	43833.55
575.33	43927.17
575.49	43941.22
575.65	44247.83
575.82	44222.08
575.98	44713.59
576.14	44467.84
576.30	44414.01
576.46	44238.47
576.62	44320.38
576.79	44608.27
576.95	43833.55
577.11	44343.79
577.27	44673.81
577.43	44423.37
577.59	44662.10
577.75	44210.38
577.92	44011.43
578.08	43873.34
578.24	43906.11
578.40	44238.47
578.56	44643.38
578.72	44409.32
578.88	44390.60
579.04	44472.52
579.21	44055.90
579.37	43871.00
579.53	44479.54
579.69	44161.23
579.85	44140.16
580.01	44858.71
580.17	44444.43
580.33	44376.56
580.49	44479.54
580.65	44509.97
580.82	44311.02
580.98	44348.47
581.14	44507.63
581.30	44512.31
581.46	44428.05
581.62	44238.47
581.78	44217.40
581.94	44594.23
582.10	44004.41
582.26	44439.75
582.42	44254.85
582.58	44423.37
582.74	44409.32
582.90	44259.53
583.06	45027.23
583.22	44582.52
583.38	44615.29
583.54	44641.04
583.70	44320.38
583.86	44465.50
584.02	44165.91
584.18	44601.25
584.34	44383.58
584.50	44346.13
584.66	44474.86
584.82	44264.21
584.98	44774.45
585.14	44912.54
585.30	44348.47
585.46	44863.39
585.62	44577.84
585.78	44215.06
585.94	44088.67
586.10	44430.39
586.26	44301.66
586.42	44830.62
586.58	44638.70
586.74	44816.58
586.90	44652.74
587.06	44205.70
587.22	44336.77
587.38	44268.89
587.54	44545.08
587.70	44470.18
587.86	44807.22
588.02	44598.91
588.18	44526.35
588.34	44542.74
588.49	44322.72
588.65	44287.62
588.81	44044.20
588.97	44514.65
589.13	43761.00
589.29	44566.14
589.45	44044.20
589.61	44549.76
589.77	44598.91
589.93	44198.68
590.08	44821.26
590.24	45067.02
