SpectraSuite Data File
++++++++++++++++++++++++++++++++++++
Date: Fri Oct 25 10:44:51 EDT 2013
User: price-jones
Dark Spectrum Present: No
Reference Spectrum Present: No
Number of Sampled Component Spectra: 1
Spectrometers: USB2+H05261
Integration Time (usec): 100000 (USB2+H05261)
Spectra Averaged: 1 (USB2+H05261)
Boxcar Smoothing: 0 (USB2+H05261)
Correct for Electrical Dark: No (USB2+H05261)
Strobe/Lamp Enabled: No (USB2+H05261)
Correct for Detector Non-linearity: No (USB2+H05261)
Correct for Stray Light: No (USB2+H05261)
Number of Pixels in Processed Spectrum: 2048
>>>>>Begin Processed Spectral Data<<<<<
365.73	198.95
365.92	198.95
366.12	198.95
366.32	46.81
366.52	0.00
366.72	39.79
366.91	32.77
367.11	0.00
367.31	56.17
367.51	70.22
367.70	4.68
367.90	0.00
368.10	30.43
368.30	7.02
368.49	42.13
368.69	37.45
368.89	0.00
369.09	58.51
369.28	28.09
369.48	44.47
369.68	81.92
369.87	212.99
370.07	107.66
370.27	121.71
370.47	220.01
370.66	407.25
370.86	414.27
371.06	425.98
371.25	468.11
371.45	395.55
371.65	442.36
371.84	505.56
372.04	386.19
372.24	461.09
372.44	489.17
372.63	512.58
372.83	425.98
373.03	596.84
373.22	571.09
373.42	489.17
373.62	493.85
373.81	505.56
374.01	526.62
374.21	540.66
374.40	557.05
374.60	559.39
374.79	517.26
374.99	454.06
375.19	594.50
375.38	603.86
375.58	615.56
375.78	512.58
375.97	543.00
376.17	617.90
376.37	552.37
376.56	540.66
376.76	512.58
376.95	519.60
377.15	557.05
377.35	622.58
377.54	660.03
377.74	615.56
377.93	638.97
378.13	669.39
378.33	685.78
378.52	622.58
378.72	732.59
378.91	627.26
379.11	554.71
379.31	627.26
379.50	599.18
379.70	716.20
379.89	730.25
380.09	671.73
380.28	559.39
380.48	634.29
380.68	664.71
380.87	650.67
381.07	669.39
381.26	638.97
381.46	613.22
381.65	657.69
381.85	648.33
382.04	634.29
382.24	692.80
382.43	645.99
382.63	683.44
382.83	692.80
383.02	734.93
383.22	695.14
383.41	725.57
383.61	699.82
383.80	725.57
384.00	683.44
384.19	774.72
384.39	706.84
384.58	779.40
384.78	777.06
384.97	718.54
385.17	779.40
385.36	763.01
385.56	732.59
385.75	699.82
385.95	734.93
386.14	784.08
386.34	795.78
386.53	753.65
386.72	807.48
386.92	746.63
387.11	802.80
387.31	805.14
387.50	788.76
387.70	774.72
387.89	777.06
388.09	856.64
388.28	880.04
388.48	833.23
388.67	849.61
388.86	837.91
389.06	929.19
389.25	980.68
389.45	933.87
389.64	840.25
389.84	896.43
390.03	952.60
390.22	812.17
390.42	837.91
390.61	950.26
390.81	933.87
391.00	922.17
391.19	943.24
391.39	1001.75
391.58	954.94
391.78	929.19
391.97	919.83
392.16	793.44
392.36	1027.50
392.55	924.51
392.75	1025.15
392.94	926.85
393.13	971.32
393.33	959.62
393.52	994.73
393.71	1039.20
393.91	1062.60
394.10	1086.01
394.29	1027.50
394.49	1025.15
394.68	1137.50
394.88	1015.79
395.07	1128.14
395.26	1097.71
395.46	1062.60
395.65	1193.67
395.84	1177.29
396.04	1212.40
396.23	1053.24
396.42	1114.10
396.62	1071.97
396.81	1125.80
397.00	1139.84
397.19	1130.48
397.39	1228.78
397.58	1282.61
397.77	1231.12
397.97	1270.91
398.16	1259.21
398.35	1289.64
398.55	1404.32
398.74	1334.11
398.93	1345.81
399.12	1348.15
399.32	1380.92
399.51	1413.68
399.70	1441.77
399.90	1392.62
400.09	1430.07
400.28	1357.51
400.47	1413.68
400.67	1425.39
400.86	1385.60
401.05	1551.78
401.24	1439.43
401.44	1458.15
401.63	1561.14
401.82	1472.20
402.01	1511.99
402.21	1542.41
402.40	1626.67
402.59	1509.65
402.78	1551.78
402.97	1535.39
403.17	1589.22
403.36	1614.97
403.55	1605.61
403.74	1600.93
403.93	1661.78
404.13	1722.63
404.32	1661.78
404.51	1678.16
404.70	1764.76
404.89	1631.35
405.09	1755.40
405.28	1776.47
405.47	1746.04
405.66	1760.08
405.85	1757.74
406.05	1696.89
406.24	1776.47
406.43	1764.76
406.62	1874.77
406.81	1935.62
407.00	1949.67
407.20	1853.70
407.39	1820.94
407.58	1926.26
407.77	1863.07
407.96	2015.20
408.15	1994.14
408.34	1947.33
408.54	2073.71
408.73	1947.33
408.92	2054.99
409.11	2167.34
409.30	2045.63
409.49	2022.22
409.68	2026.90
409.87	2029.24
410.07	2059.67
410.26	2047.97
410.45	2066.69
410.64	2101.80
410.83	2190.74
411.02	2230.53
411.21	2249.25
411.40	2289.04
411.59	2363.94
411.78	2317.13
411.98	2307.77
412.17	2363.94
412.36	2380.32
412.55	2324.15
412.74	2457.56
412.93	2520.76
413.12	2455.22
413.31	2551.18
413.50	2574.59
413.69	2525.44
413.88	2495.01
414.07	2590.97
414.26	2705.66
414.45	2539.48
414.64	2597.99
414.83	2635.44
415.02	2771.19
415.22	2658.85
415.41	2841.41
415.60	2787.58
415.79	2810.98
415.98	2937.37
416.17	2860.13
416.36	2848.43
416.55	2991.20
416.74	2920.99
416.93	2967.80
417.12	2878.86
417.31	2967.80
417.50	3007.59
417.69	3248.66
417.88	3073.12
418.07	3108.23
418.26	3150.36
418.45	3169.09
418.64	3328.24
418.83	3251.00
419.02	3220.58
419.21	3288.45
419.39	3276.75
419.58	3251.00
419.77	3176.11
419.96	3204.19
420.15	3396.12
420.34	3356.33
420.53	3393.78
420.72	3543.57
420.91	3368.03
421.10	3461.65
421.29	3475.70
421.48	3421.86
421.67	3543.57
421.86	3377.39
422.05	3295.47
422.24	3576.34
422.43	3485.06
422.61	3506.12
422.80	3541.23
422.99	3456.97
423.18	3431.23
423.37	3684.00
423.56	3597.40
423.75	3515.48
423.94	3571.66
424.13	3431.23
424.32	3473.36
424.50	3506.12
424.69	3735.50
424.88	3592.72
425.07	3543.57
425.26	3424.20
425.45	3548.25
425.64	3578.68
425.83	3555.27
426.01	3698.05
426.20	3618.47
426.39	3599.74
426.58	3571.66
426.77	3527.19
426.96	3576.34
427.15	3613.79
427.33	3634.85
427.52	3604.42
427.71	3723.79
427.90	3857.20
428.09	3786.99
428.28	3688.68
428.46	3763.58
428.65	3822.09
428.84	3861.88
429.03	3894.65
429.22	3775.28
429.40	3786.99
429.59	3892.31
429.78	3754.22
429.97	3726.13
430.16	3765.92
430.34	3887.63
430.53	3964.87
430.72	3925.08
430.91	3679.32
431.10	4002.32
431.28	4121.68
431.47	4194.24
431.66	4222.33
431.85	4079.55
432.03	4241.05
432.22	4348.72
432.41	4222.33
432.60	4227.01
432.79	4177.86
432.97	4308.93
433.16	4248.07
433.35	4241.05
433.54	4222.33
433.72	4278.50
433.91	4315.95
434.10	4322.97
434.28	4322.97
434.47	4526.60
434.66	4440.00
434.85	4585.11
435.03	4461.06
435.22	4430.63
435.41	4681.07
435.59	4573.41
435.78	4603.83
435.97	4685.75
436.16	4606.17
436.34	4711.50
436.53	4690.43
436.72	4770.01
436.90	4547.66
437.09	4758.31
437.28	4645.96
437.46	4634.26
437.65	4704.48
437.84	4688.09
438.02	4809.80
438.21	4753.63
438.40	4718.52
438.58	4830.87
438.77	4835.55
438.96	4961.94
439.14	5039.17
439.33	5156.20
439.52	5085.98
439.70	5210.03
439.89	5191.31
440.08	5151.52
440.26	5057.90
440.45	5233.44
440.63	5338.76
440.82	5268.55
441.01	5289.61
441.19	5448.77
441.38	5518.98
441.57	5650.05
441.75	5591.54
441.94	5820.91
442.12	5586.86
442.31	5944.96
442.50	5753.04
442.68	5881.77
442.87	5650.05
443.05	5783.46
443.24	5954.32
443.43	5621.97
443.61	6031.56
443.80	6047.94
443.98	5671.12
444.17	5563.45
444.35	5968.37
444.54	5968.37
444.73	5947.30
444.91	5806.87
445.10	5806.87
445.28	5977.73
445.47	5795.17
445.65	5776.44
445.84	5849.00
446.02	6061.99
446.21	5928.58
446.39	5966.03
446.58	6092.41
446.77	5907.51
446.95	5956.66
447.14	5982.41
447.32	6054.97
447.51	5841.98
447.69	5984.75
447.88	6120.50
448.06	5963.68
448.25	6001.13
448.43	5959.00
448.62	6038.58
448.80	6066.67
448.99	6202.42
449.17	6193.06
449.36	6200.08
449.54	6141.57
449.73	6377.96
449.91	6179.01
450.10	6403.71
450.28	6602.65
450.46	6497.33
450.65	6607.33
450.83	6387.32
451.02	6450.52
451.20	6452.86
451.39	6574.56
451.57	6729.04
451.76	6431.79
451.94	6476.26
452.13	6619.04
452.31	6494.99
452.49	6317.11
452.68	6581.59
452.86	6476.26
453.05	6825.00
453.23	6623.72
453.42	6551.16
453.60	6642.44
453.78	6717.34
453.97	6815.64
454.15	6607.33
454.34	6684.57
454.52	6703.29
454.70	6799.26
454.89	6944.37
455.07	6635.42
455.26	6902.24
455.44	6970.12
455.62	6993.52
455.81	6991.18
455.99	7005.22
456.17	7084.80
456.36	7068.42
456.54	7194.81
456.73	7349.28
456.91	7368.01
457.09	7265.02
457.28	7370.35
457.46	7318.86
457.64	7342.26
457.83	7368.01
458.01	7389.07
458.19	7613.76
458.38	7389.07
458.56	7478.01
458.74	7445.24
458.93	7293.11
459.11	7606.74
459.29	7424.18
459.48	7489.71
459.66	7440.56
459.84	7550.57
460.03	7740.15
460.21	7775.26
460.39	7676.96
460.57	7754.19
460.76	7801.01
460.94	7847.82
461.12	7756.54
461.31	7747.17
461.49	7939.10
461.67	7896.97
461.85	8135.70
462.04	7903.99
462.22	8177.83
462.40	8091.23
462.59	8205.92
462.77	8072.51
462.95	8287.84
463.13	8236.35
463.32	8163.79
463.50	8121.66
463.68	8360.39
463.86	8173.15
464.05	8262.09
464.23	8163.79
464.41	8269.11
464.59	8241.03
464.78	8306.56
464.96	8341.67
465.14	8205.92
465.32	8585.08
465.50	8404.86
465.69	8486.78
465.87	8404.86
466.05	8395.50
466.23	8334.65
466.41	8477.42
466.60	8496.14
466.78	8222.30
466.96	8435.29
467.14	8446.99
467.32	8573.38
467.51	8383.80
467.69	8372.10
467.87	8589.77
468.05	8762.97
468.23	8514.87
468.41	8795.73
468.60	8837.86
468.78	8898.72
468.96	8760.63
469.14	8755.94
469.32	8690.41
469.50	8659.98
469.69	8903.40
469.87	8837.86
470.05	9011.06
470.23	8961.91
470.41	8882.33
470.59	9345.76
470.77	9076.60
470.95	8952.55
471.14	9385.55
471.32	8968.93
471.50	9287.25
471.68	9432.36
471.86	9357.46
472.04	9277.88
472.22	9764.72
472.40	9401.93
472.58	9575.13
472.77	9624.28
472.95	9668.75
473.13	10080.69
473.31	9678.12
473.49	9556.41
473.67	9727.27
473.85	9483.85
474.03	10101.75
474.21	9912.17
474.39	9870.04
474.57	10118.14
474.75	10141.54
474.93	10141.54
475.12	10141.54
475.30	10345.17
475.48	10211.76
475.66	10448.15
475.84	10094.73
476.02	10347.51
476.20	10410.70
476.38	10640.08
476.56	11016.90
476.74	10867.11
476.92	10808.59
477.10	10808.59
477.28	11253.30
477.46	10848.38
477.64	11372.66
477.82	11375.00
478.00	11712.04
478.18	11410.11
478.36	11672.25
478.54	11777.58
478.72	11681.61
478.90	11901.62
479.08	11719.06
479.26	12063.12
479.44	12198.87
479.62	12308.88
479.80	12187.17
479.98	12189.51
480.16	12559.31
480.34	12428.24
480.52	12905.71
480.70	12545.27
480.88	12512.50
481.06	12699.75
481.24	12683.36
481.41	12849.54
481.59	13125.72
481.77	13053.17
481.95	13006.36
482.13	13191.26
482.31	13422.97
482.49	13692.13
482.67	13479.15
482.85	13769.37
483.03	13729.58
483.21	13900.44
483.39	14221.10
483.57	14115.77
483.74	14513.66
483.92	14345.14
484.10	14366.21
484.28	14600.26
484.46	14672.82
484.64	15056.67
484.82	14583.88
485.00	14876.44
485.18	15028.58
485.35	15262.63
485.53	14988.79
485.71	15253.27
485.89	15335.19
486.07	15342.21
486.25	15377.32
486.43	15712.02
486.61	15854.79
486.78	16105.23
486.96	16081.82
487.14	16325.24
487.32	16259.70
487.50	16783.98
487.68	16868.24
487.85	16704.40
488.03	16968.88
488.21	17186.55
488.39	17139.74
488.57	17572.74
488.75	17296.56
488.92	17792.75
489.10	17767.01
489.28	17678.07
489.46	18015.10
489.64	18005.74
489.81	18649.39
489.99	18597.90
490.17	18628.32
490.35	18806.20
490.53	18906.85
490.70	18960.68
490.88	18855.36
491.06	19405.38
491.24	19201.76
491.41	19126.86
491.59	19288.35
491.77	19293.04
491.95	19702.63
492.13	19901.58
492.30	19889.87
492.48	19960.09
492.66	19892.21
492.84	20236.27
493.01	20453.94
493.19	20334.57
493.37	20559.27
493.54	20706.72
493.72	20762.89
493.90	20947.79
494.08	21294.19
494.25	21064.82
494.43	21476.76
494.61	21563.36
494.79	21458.03
494.96	21532.93
495.14	21799.75
495.32	21940.18
495.49	22157.85
495.67	22054.87
495.85	22375.52
496.02	22679.79
496.20	22525.32
496.38	22637.66
496.55	22750.01
496.73	23133.86
496.91	22750.01
497.09	23140.88
497.26	23295.35
497.44	23379.61
497.62	23166.62
497.79	23374.93
497.97	23520.04
498.14	23690.90
498.32	23744.73
498.50	24051.34
498.67	24077.09
498.85	24063.05
499.03	24486.68
499.20	24404.77
499.38	24568.60
499.56	24360.30
499.73	24627.12
499.91	24680.95
500.08	24631.80
500.26	24486.68
500.44	24875.21
500.61	24816.70
500.79	24975.86
500.97	24849.47
501.14	25247.36
501.32	25247.36
501.49	25263.74
501.67	25441.62
501.84	25509.50
502.02	25649.93
502.20	25872.28
502.37	25635.89
502.55	25933.14
502.72	25956.54
502.90	25914.41
503.07	26274.85
503.25	26192.94
503.43	26178.89
503.60	26230.38
503.78	26094.63
503.95	26223.36
504.13	26829.56
504.30	26490.18
504.48	26874.03
504.65	27056.59
504.83	26848.29
505.01	27473.21
505.18	27292.99
505.36	27211.07
505.53	27489.59
505.71	27744.71
505.88	28025.57
506.06	27328.10
506.23	27339.80
506.41	27498.95
506.58	27470.87
506.76	27906.21
506.93	28166.01
507.11	28116.86
507.28	28048.98
507.46	27878.12
507.63	28079.41
507.81	28386.02
507.98	28701.99
508.16	28741.78
508.33	28528.79
508.50	28056.00
508.68	28809.65
508.85	29439.26
509.03	28900.94
509.20	28907.96
509.38	29165.42
509.55	29046.05
509.73	29420.53
509.90	28863.49
510.08	29256.70
510.25	29336.27
510.42	29048.39
510.60	29984.60
510.77	29823.11
510.95	29947.15
511.12	29605.44
511.30	29818.42
511.47	30419.94
511.64	30078.22
511.82	30429.30
511.99	30438.67
512.17	30679.74
512.34	30368.45
512.51	30553.35
512.69	30679.74
512.86	30581.44
513.04	30820.17
513.21	30778.04
513.38	30455.05
513.56	30974.65
513.73	30677.40
513.90	30974.65
514.08	30864.64
514.25	31009.76
514.43	30883.37
514.60	31295.30
514.77	31129.12
514.95	31669.79
515.12	31742.35
515.29	31594.89
515.47	31917.89
515.64	32004.49
515.81	31281.26
515.99	32053.64
516.16	31962.36
516.33	31828.95
516.51	31660.43
516.68	31417.01
516.85	31585.53
517.03	31929.59
517.20	32130.87
517.37	32404.72
517.54	32631.75
517.72	32378.97
517.89	31913.20
518.06	32018.53
518.24	32393.01
518.41	32453.87
518.58	32645.79
518.75	32645.79
518.93	32746.44
519.10	32783.88
519.27	32943.04
519.45	32809.63
519.62	33495.41
519.79	33352.63
519.96	33495.41
520.14	33247.31
520.31	33254.33
520.48	33755.21
520.65	33212.20
520.83	33663.93
521.00	33909.68
521.17	33919.04
521.34	34117.99
521.52	33972.88
521.69	34078.20
521.86	34192.89
522.03	34307.57
522.20	34391.83
522.38	34293.53
522.55	34471.41
522.72	34548.65
522.89	34359.06
523.07	34813.13
523.24	34618.86
523.41	34866.96
523.58	34916.11
523.75	34953.56
523.92	34731.21
524.10	35161.87
524.27	35227.40
524.44	34808.45
524.61	34866.96
524.78	35077.61
524.96	35428.69
525.13	35332.73
525.30	36023.19
525.47	35674.45
525.64	35796.15
525.81	35660.40
525.98	35470.82
526.16	35115.06
526.33	35318.68
526.50	36123.83
526.67	35676.79
526.84	35346.77
527.01	35452.09
527.18	35857.01
527.36	35943.61
527.53	36423.42
527.70	36395.33
527.87	36397.67
528.04	36098.08
528.21	36175.32
528.38	35990.42
528.55	36664.49
528.72	36409.37
528.89	36755.77
529.07	36802.58
529.24	36444.48
529.41	36765.14
529.58	36720.66
529.75	36919.61
529.92	36643.43
530.09	36840.03
530.26	37085.79
530.43	37130.26
530.60	37034.30
530.77	37001.53
530.94	36987.49
531.11	37483.68
531.28	37041.32
531.46	36903.23
531.63	37607.73
531.80	37640.50
531.97	37390.06
532.14	37270.69
532.31	37268.35
532.48	37539.85
532.65	37682.62
532.82	37799.65
532.99	37823.06
533.16	37654.54
533.33	38295.85
533.50	38220.95
533.67	38003.28
533.84	38239.67
534.01	37635.81
534.18	38284.14
534.35	38401.17
534.52	38232.65
534.69	38066.47
534.86	38071.15
535.03	38419.89
535.20	38548.62
535.37	38501.81
535.54	38902.04
535.71	38614.16
535.88	38326.27
536.05	38452.66
536.22	38703.10
536.38	38852.89
536.55	38848.21
536.72	38796.72
536.89	38705.44
537.06	38534.58
537.23	39075.24
537.40	38883.32
537.57	39103.33
537.74	38539.26
537.91	38890.34
538.08	39255.46
538.25	38925.45
538.42	39145.46
538.59	39749.32
538.75	38965.24
538.92	39519.95
539.09	39166.52
539.26	38993.32
539.43	39077.58
539.60	39379.51
539.77	39089.29
539.94	39515.26
540.11	39917.84
540.28	39552.71
540.44	39562.08
540.61	39718.89
540.78	39461.43
540.95	39922.52
541.12	39601.86
541.29	39950.60
541.46	39625.27
541.62	39908.47
541.79	40257.21
541.96	39770.38
542.13	39681.44
542.30	40123.80
542.47	40095.72
542.63	40172.96
542.80	40587.23
542.97	40807.24
543.14	40589.57
543.31	40737.02
543.48	40814.26
543.64	41617.07
543.81	40811.92
543.98	41048.32
544.15	40746.39
544.32	40945.33
544.48	41130.23
544.65	40849.37
544.82	40713.62
544.99	41116.19
545.16	41078.74
545.32	40928.95
545.49	40917.25
545.66	41586.64
545.83	41439.18
546.00	41572.60
546.16	41375.99
546.33	40989.80
546.50	40985.12
546.67	41186.41
546.83	40861.07
547.00	41113.85
547.17	41371.31
547.34	41268.33
547.50	41626.43
547.67	41385.35
547.84	41371.31
548.00	41703.67
548.17	42169.43
548.34	41862.82
548.51	41801.97
548.67	41954.10
548.84	42057.09
549.01	41970.49
549.18	41720.05
549.34	41471.95
549.51	42131.98
549.68	42323.91
549.84	41902.61
550.01	41883.89
550.18	42696.05
550.34	41748.14
550.51	41628.77
550.68	42277.10
550.84	42075.81
551.01	42405.83
551.18	42197.52
551.34	42307.52
551.51	42148.37
551.68	42440.93
551.84	42272.42
552.01	42389.44
552.18	42223.26
552.34	42188.16
552.51	42682.01
552.68	42616.47
552.84	42845.85
553.01	43068.20
553.18	42408.17
553.34	42525.19
553.51	42391.78
553.67	42738.18
553.84	42983.94
554.01	43000.32
554.17	42944.15
554.34	43452.05
554.51	43058.84
554.67	43063.52
554.84	42759.25
555.00	42988.62
555.17	42707.76
555.33	43063.52
555.50	42717.12
555.67	42733.50
555.83	42974.58
556.00	42892.66
556.16	43662.69
556.33	42752.23
556.50	42878.61
556.66	43548.01
556.83	42913.72
556.99	43442.68
557.16	43281.19
557.32	43180.54
557.49	43770.36
557.65	43107.99
557.82	43248.42
557.98	43461.41
558.15	43030.75
558.32	43688.44
558.48	43388.85
558.65	43232.04
558.81	43232.04
558.98	43489.49
559.14	43143.09
559.31	43501.20
559.47	43407.58
559.64	43779.72
559.80	44102.71
559.97	44037.18
560.13	43634.61
560.30	43863.98
560.46	44018.46
560.63	43775.04
560.79	43665.03
560.96	44161.23
561.12	43590.14
561.29	43824.19
561.45	43620.56
561.61	44100.37
561.78	43683.76
561.94	43786.74
562.11	43629.93
562.27	43704.82
562.44	43817.17
562.60	44184.63
562.77	44058.24
562.93	44280.60
563.10	44161.23
563.26	43452.05
563.42	44306.34
563.59	43428.64
563.75	44067.61
563.92	44067.61
564.08	43941.22
564.24	43569.07
564.41	43817.17
564.57	44161.23
564.74	43648.65
564.90	44182.29
565.07	44037.18
565.23	44140.16
565.39	43840.57
565.56	43957.60
565.72	44163.57
565.88	44254.85
566.05	44182.29
566.21	44126.12
566.38	44184.63
566.54	43990.37
566.70	43943.56
566.87	44371.88
567.03	44165.91
567.19	45010.84
567.36	44526.35
567.52	44538.05
567.68	44343.79
567.85	44194.00
568.01	44191.65
568.17	44095.69
568.34	44318.04
568.50	43908.45
568.66	44121.44
568.83	44264.21
568.99	43976.33
569.15	44065.27
569.32	43735.25
569.48	44217.40
569.64	44421.03
569.81	44203.36
569.97	44439.75
570.13	44226.76
570.30	44535.71
570.46	44243.15
570.62	44112.08
570.78	44362.51
570.95	43866.32
571.11	44168.25
571.27	44460.82
571.43	44095.69
571.60	44325.07
571.76	43959.94
571.92	44123.78
572.09	43934.20
572.25	44287.62
572.41	44477.20
572.57	44704.23
572.74	44964.03
572.90	44524.01
573.06	44720.62
573.22	44451.45
573.38	44397.62
573.55	44463.16
573.71	44994.46
573.87	44212.72
574.03	44076.97
574.20	44584.86
574.36	44636.36
574.52	44261.87
574.68	44790.83
574.84	44109.74
575.01	44481.88
575.17	44727.64
575.33	44287.62
575.49	44229.10
575.65	44753.38
575.82	44514.65
575.98	44800.19
576.14	45148.93
576.30	45062.33
576.46	44460.82
576.62	44521.67
576.79	44304.00
576.95	43892.07
577.11	44858.71
577.27	44643.38
577.43	44626.99
577.59	44453.79
577.75	44594.23
577.92	44374.22
578.08	44353.15
578.24	43981.01
578.40	44371.88
578.56	44247.83
578.72	44399.96
578.88	44818.92
579.04	44865.73
579.21	44783.81
579.37	44624.65
579.53	44444.43
579.69	44346.13
579.85	44645.72
580.01	44446.77
580.17	44481.88
580.33	44914.88
580.49	44863.39
580.65	44722.96
580.82	44383.58
580.98	44538.05
581.14	44872.75
581.30	45282.34
581.46	44701.89
581.62	44648.06
581.78	44626.99
581.94	44942.97
582.10	44603.59
582.26	44655.08
582.42	44512.31
582.58	44423.37
582.74	44364.85
582.90	44617.63
583.06	44577.84
583.22	45071.70
583.38	45221.49
583.54	44790.83
583.70	44891.48
583.86	44996.80
584.02	44294.64
584.18	44790.83
584.34	44671.46
584.50	44807.22
584.66	44783.81
584.82	44531.03
584.98	44898.50
585.14	45062.33
585.30	44755.72
585.46	44821.26
585.62	44631.68
585.78	44711.25
585.94	44444.43
586.10	44589.55
586.26	44877.43
586.42	45050.63
586.58	44865.73
586.74	45031.91
586.90	44442.09
587.06	44755.72
587.22	44868.07
587.38	44528.69
587.54	44835.30
587.70	45134.89
587.86	44751.04
588.02	44926.58
588.18	45230.85
588.34	44540.39
588.49	44371.88
588.65	44486.56
588.81	44484.22
588.97	44704.23
589.13	44315.70
589.29	44634.02
589.45	44652.74
589.61	44896.16
589.77	45226.17
589.93	44725.30
590.08	45125.53
590.24	44755.72
