SpectraSuite Data File
++++++++++++++++++++++++++++++++++++
Date: Fri Oct 25 11:34:00 EDT 2013
User: price-jones
Dark Spectrum Present: No
Reference Spectrum Present: No
Number of Sampled Component Spectra: 1
Spectrometers: USB2+H05261
Integration Time (usec): 100000 (USB2+H05261)
Spectra Averaged: 1 (USB2+H05261)
Boxcar Smoothing: 0 (USB2+H05261)
Correct for Electrical Dark: No (USB2+H05261)
Strobe/Lamp Enabled: No (USB2+H05261)
Correct for Detector Non-linearity: No (USB2+H05261)
Correct for Stray Light: No (USB2+H05261)
Number of Pixels in Processed Spectrum: 2048
>>>>>Begin Processed Spectral Data<<<<<
365.73	290.23
365.92	290.23
366.12	290.23
366.32	126.39
366.52	201.29
366.72	220.01
366.91	194.26
367.11	124.05
367.31	187.24
367.51	212.99
367.70	227.03
367.90	224.69
368.10	102.98
368.30	168.52
368.49	191.92
368.69	163.84
368.89	187.24
369.09	205.97
369.28	262.14
369.48	210.65
369.68	231.71
369.87	191.92
370.07	248.10
370.27	306.61
370.47	402.57
370.66	421.30
370.86	547.69
371.06	543.00
371.25	531.30
371.45	528.96
371.65	571.09
371.84	507.90
372.04	512.58
372.24	554.71
372.44	599.18
372.63	594.50
372.83	599.18
373.03	521.94
373.22	622.58
373.42	608.54
373.62	664.71
373.81	655.35
374.01	608.54
374.21	685.78
374.40	617.90
374.60	650.67
374.79	613.22
374.99	596.84
375.19	690.46
375.38	692.80
375.58	643.65
375.78	692.80
375.97	631.94
376.17	636.63
376.37	678.76
376.56	606.20
376.76	662.37
376.95	676.41
377.15	718.54
377.35	690.46
377.54	760.67
377.74	660.03
377.93	610.88
378.13	741.95
378.33	748.97
378.52	737.27
378.72	739.61
378.91	641.31
379.11	650.67
379.31	699.82
379.50	744.29
379.70	800.46
379.89	753.65
380.09	770.04
380.28	727.91
380.48	730.25
380.68	816.85
380.87	758.33
381.07	634.29
381.26	772.38
381.46	819.19
381.65	835.57
381.85	912.81
382.04	723.23
382.24	809.83
382.43	695.14
382.63	744.29
382.83	760.67
383.02	772.38
383.22	781.74
383.41	840.25
383.61	774.72
383.80	854.30
384.00	777.06
384.19	760.67
384.39	779.40
384.58	826.21
384.78	767.70
384.97	861.32
385.17	851.96
385.36	884.72
385.56	739.61
385.75	763.01
385.95	910.47
386.14	882.38
386.34	840.25
386.53	915.15
386.72	814.51
386.92	863.66
387.11	866.00
387.31	938.55
387.50	898.77
387.70	847.27
387.89	882.38
388.09	961.96
388.28	882.38
388.48	866.00
388.67	987.71
388.86	1055.58
389.06	924.51
389.25	898.77
389.45	917.49
389.64	877.70
389.84	936.21
390.03	959.62
390.22	1050.90
390.42	966.64
390.61	919.83
390.81	950.26
391.00	999.41
391.19	1041.54
391.39	959.62
391.58	1027.50
391.78	1001.75
391.97	1020.47
392.16	950.26
392.36	1114.10
392.55	1062.60
392.75	980.68
392.94	1041.54
393.13	1048.56
393.33	1055.58
393.52	1055.58
393.71	983.02
393.91	1142.18
394.10	1062.60
394.29	1074.31
394.49	1104.73
394.68	1118.78
394.88	1057.92
395.07	1163.25
395.26	1151.54
395.46	1212.40
395.65	1252.19
395.84	1193.67
396.04	1275.59
396.23	1247.51
396.42	1198.35
396.62	1259.21
396.81	1167.93
397.00	1184.31
397.19	1191.33
397.39	1205.38
397.58	1184.31
397.77	1259.21
397.97	1226.44
398.16	1282.61
398.35	1376.24
398.55	1280.27
398.74	1291.98
398.93	1345.81
399.12	1390.28
399.32	1317.72
399.51	1254.53
399.70	1320.06
399.90	1280.27
400.09	1397.30
400.28	1343.47
400.47	1383.26
400.67	1376.24
400.86	1362.19
401.05	1357.51
401.24	1373.89
401.44	1401.98
401.63	1425.39
401.82	1373.89
402.01	1409.00
402.21	1575.18
402.40	1519.01
402.59	1495.60
402.78	1472.20
402.97	1427.73
403.17	1537.73
403.36	1572.84
403.55	1633.69
403.74	1600.93
403.93	1535.39
404.13	1516.67
404.32	1551.78
404.51	1603.27
404.70	1619.65
404.89	1626.67
405.09	1753.06
405.28	1633.69
405.47	1600.93
405.66	1633.69
405.85	1687.53
406.05	1755.40
406.24	1764.76
406.43	1781.15
406.62	1748.38
406.81	1832.64
407.00	1797.53
407.20	1633.69
407.39	1774.13
407.58	1914.56
407.77	1912.22
407.96	1912.22
408.15	1816.26
408.34	1923.92
408.54	1914.56
408.73	1879.45
408.92	1856.04
409.11	1937.96
409.30	1968.39
409.49	1905.20
409.68	1961.37
409.87	2040.95
410.07	2019.88
410.26	1998.82
410.45	2040.95
410.64	2017.54
410.83	2111.16
411.02	1977.75
411.21	2160.31
411.40	2183.72
411.59	2139.25
411.78	2127.55
411.98	2120.53
412.17	2256.28
412.36	2289.04
412.55	2258.62
412.74	2211.81
412.93	2298.41
413.12	2228.19
413.31	2450.54
413.50	2469.27
413.69	2338.20
413.88	2537.14
414.07	2450.54
414.26	2438.84
414.45	2420.11
414.64	2544.16
414.83	2574.59
415.02	2619.06
415.22	2516.08
415.41	2581.61
415.60	2633.10
415.79	2656.51
415.98	2675.23
416.17	2771.19
416.36	2607.36
416.55	2654.17
416.74	2759.49
416.93	2733.75
417.12	2846.09
417.31	2874.18
417.50	2813.32
417.69	2916.31
417.88	2944.39
418.07	2888.22
418.26	2935.03
418.45	2960.78
418.64	3021.63
418.83	2925.67
419.02	3030.99
419.21	3080.14
419.39	3110.57
419.58	3141.00
419.77	2963.12
419.96	3033.33
420.15	3187.81
420.34	3117.59
420.53	3101.21
420.72	3246.32
420.91	3225.26
421.10	3150.36
421.29	3410.16
421.48	3103.55
421.67	3241.64
421.86	3260.37
422.05	3412.50
422.24	3323.56
422.43	3293.13
422.61	3421.86
422.80	3267.39
422.99	3290.79
423.18	3386.76
423.37	3414.84
423.56	3396.12
423.75	3384.41
423.94	3255.69
424.13	3145.68
424.32	3255.69
424.50	3428.88
424.69	3414.84
424.88	3475.70
425.07	3379.73
425.26	3358.67
425.45	3529.53
425.64	3389.10
425.83	3393.78
426.01	3332.92
426.20	3412.50
426.39	3524.85
426.58	3452.29
426.77	3421.86
426.96	3604.42
427.15	3449.95
427.33	3475.70
427.52	3487.40
427.71	3599.74
427.90	3590.38
428.09	3541.23
428.28	3623.15
428.46	3515.48
428.65	3693.37
428.84	3756.56
429.03	3761.24
429.22	3559.95
429.40	3571.66
429.59	3679.32
429.78	3655.92
429.97	3592.72
430.16	3756.56
430.34	3779.97
430.53	3819.75
430.72	3922.74
430.91	3843.16
431.10	3707.41
431.28	3810.39
431.47	3880.61
431.66	4014.02
431.85	3854.86
432.03	4039.76
432.22	4072.53
432.41	4095.94
432.60	4051.47
432.79	3962.53
432.97	4077.21
433.16	4046.79
433.35	4037.42
433.54	4318.29
433.72	4229.35
433.91	4175.52
434.10	4198.92
434.28	4084.23
434.47	4039.76
434.66	4231.69
434.85	4236.37
435.03	4320.63
435.22	4278.50
435.41	4327.65
435.59	4341.69
435.78	4395.53
435.97	4409.57
436.16	4402.55
436.34	4367.44
436.53	4409.57
436.72	4482.13
436.90	4402.55
437.09	4458.72
437.28	4463.40
437.46	4409.57
437.65	4409.57
437.84	4690.43
438.02	4582.77
438.21	4608.51
438.40	4521.92
438.58	4748.95
438.77	4954.91
438.96	4610.86
439.14	4858.95
439.33	4894.06
439.52	4837.89
439.70	4868.31
439.89	4868.31
440.08	4940.87
440.26	4894.06
440.45	4924.49
440.63	5097.69
440.82	5181.95
441.01	4891.72
441.19	5217.05
441.38	5186.63
441.57	5217.05
441.75	5282.59
441.94	5231.10
442.12	5362.17
442.31	5313.02
442.50	5380.89
442.68	5200.67
442.87	5331.74
443.05	5245.14
443.24	5432.38
443.43	5570.48
443.61	5509.62
443.80	5579.84
443.98	5593.88
444.17	5210.03
444.35	5362.17
444.54	5598.56
444.73	5570.48
444.91	5600.90
445.10	5703.89
445.28	5600.90
445.47	5523.66
445.65	5612.60
445.84	5633.67
446.02	5610.26
446.21	5703.89
446.39	5643.03
446.58	5797.51
446.77	5820.91
446.95	5518.98
447.14	5650.05
447.32	5785.80
447.51	5696.86
447.69	5757.72
447.88	5563.45
448.06	5668.78
448.25	5867.72
448.43	5841.98
448.62	5675.80
448.80	5640.69
448.99	5802.19
449.17	5760.06
449.36	5783.46
449.54	5806.87
449.73	5951.98
449.91	5963.68
450.10	5940.28
450.28	6054.97
450.46	6232.85
450.65	6155.61
450.83	6024.54
451.02	5900.49
451.20	6073.69
451.39	5907.51
451.57	6146.25
451.76	6223.48
451.94	6136.88
452.13	6183.70
452.31	6183.70
452.49	6045.60
452.68	6125.18
452.86	6174.33
453.05	6228.17
453.23	6249.23
453.42	6347.53
453.60	6352.21
453.78	6494.99
453.97	6310.08
454.15	6204.76
454.34	6368.60
454.52	6504.35
454.70	6394.34
454.89	6431.79
455.07	6441.15
455.26	6581.59
455.44	6572.22
455.62	6520.73
455.81	6553.50
455.99	6691.59
456.17	6663.51
456.36	6722.02
456.54	6890.54
456.73	6829.68
456.91	7059.06
457.09	6970.12
457.28	6906.92
457.46	6825.00
457.64	6988.84
457.83	7009.90
458.01	6953.73
458.19	7229.91
458.38	7129.27
458.56	7082.46
458.74	7009.90
458.93	7187.79
459.11	7171.40
459.29	7140.97
459.48	7206.51
459.66	7358.64
459.84	7272.04
460.03	7290.77
460.21	7405.46
460.39	7428.86
460.57	7386.73
460.76	7265.02
460.94	7346.94
461.12	7548.23
461.31	7400.77
461.49	7573.97
461.67	7398.43
461.85	7674.62
462.04	7609.08
462.22	7906.33
462.40	7686.32
462.59	7726.11
462.77	7548.23
462.95	7641.85
463.13	7552.91
463.32	7616.10
463.50	7632.49
463.68	7960.16
463.86	7637.17
464.05	7719.09
464.23	7894.63
464.41	7840.79
464.59	7602.06
464.78	7957.82
464.96	7953.14
465.14	7599.72
465.32	7985.91
465.50	7995.27
465.69	8088.89
465.87	8147.40
466.05	7946.12
466.23	7899.31
466.41	8098.25
466.60	8229.32
466.78	8222.30
466.96	8074.85
467.14	8135.70
467.32	8372.10
467.51	8414.23
467.69	8070.17
467.87	8222.30
468.05	8276.13
468.23	8187.19
468.41	8334.65
468.60	8329.97
468.78	8439.97
468.96	8217.62
469.14	8589.77
469.32	8617.85
469.50	8437.63
469.69	8454.02
469.87	8580.40
470.05	8505.51
470.23	8718.50
470.41	8816.80
470.59	8938.51
470.77	8610.83
470.95	8814.46
471.14	8830.84
471.32	8613.17
471.50	8699.77
471.68	8872.97
471.86	9069.58
472.04	9020.42
472.22	9327.03
472.40	9004.04
472.58	9090.64
472.77	9181.92
472.95	9202.99
473.13	9373.85
473.31	9132.77
473.49	9357.46
473.67	9284.91
473.85	9493.21
474.03	9680.46
474.21	9652.37
474.39	9439.38
474.57	9589.17
474.75	9720.24
474.93	9816.21
475.12	9771.74
475.30	9970.68
475.48	9963.66
475.66	9886.42
475.84	9940.26
476.02	10178.99
476.20	10029.20
476.38	10246.87
476.56	10399.00
476.74	10368.57
476.92	10176.65
477.10	10183.67
477.28	10532.41
477.46	10602.63
477.64	10782.85
477.82	10934.98
478.00	11000.52
478.18	11075.42
478.36	10998.18
478.54	11047.33
478.72	11154.99
478.90	11070.73
479.08	11269.68
479.26	11255.64
479.44	11576.29
479.62	11602.04
479.80	11836.09
479.98	11723.74
480.16	11903.96
480.34	11833.75
480.52	12030.35
480.70	12131.00
480.88	12035.03
481.06	12297.17
481.24	12397.82
481.41	12479.74
481.59	12615.49
481.77	12589.74
481.95	12781.67
482.13	12751.24
482.31	12788.69
482.49	12971.25
482.67	13235.73
482.85	13088.28
483.03	13254.45
483.21	13355.10
483.39	13329.35
483.57	13523.62
483.74	13834.91
483.92	13919.17
484.10	13956.61
484.28	14090.02
484.46	14157.90
484.64	14279.61
484.82	14223.44
485.00	14487.92
485.18	14682.18
485.35	14860.06
485.53	14616.65
485.71	15094.11
485.89	15187.74
486.07	14965.39
486.25	15492.01
486.43	15445.20
486.61	15199.44
486.78	15410.09
486.96	15744.78
487.14	15836.06
487.32	16145.02
487.50	16191.83
487.68	16327.58
487.85	16421.20
488.03	16842.50
488.21	16683.34
488.39	16669.30
488.57	16851.86
488.75	16601.42
488.92	17202.94
489.10	17362.09
489.28	17509.55
489.46	17666.36
489.64	17319.96
489.81	17980.00
489.99	17919.14
490.17	17998.72
490.35	18164.90
490.53	18200.01
490.70	18625.98
490.88	18347.46
491.06	18537.04
491.24	18277.24
491.41	18848.33
491.59	19012.17
491.77	18817.91
491.95	18988.77
492.13	19164.31
492.30	19374.95
492.48	19449.85
492.66	19840.72
492.84	19529.43
493.01	19733.06
493.19	19971.79
493.37	20109.88
493.54	20093.50
493.72	20442.24
493.90	20460.96
494.08	20840.13
494.25	20655.23
494.43	20645.87
494.61	20989.92
494.79	21010.99
494.96	21083.55
495.14	21249.72
495.32	21357.39
495.49	21329.30
495.67	21806.77
495.85	21649.96
496.02	21769.32
496.20	22008.06
496.38	22089.98
496.55	22221.05
496.73	22555.74
496.91	22148.49
497.09	22450.42
497.26	22843.63
497.44	22881.08
497.62	22845.97
497.79	23264.92
497.97	23040.23
498.14	23192.37
498.32	23592.60
498.50	23126.83
498.67	23665.16
498.85	23330.46
499.03	23573.88
499.20	23784.52
499.38	24025.60
499.56	23798.57
499.73	24151.99
499.91	24154.33
500.08	24575.62
500.26	24236.25
500.44	24666.91
500.61	24507.75
500.79	24271.36
500.97	24926.71
501.14	25095.22
501.32	24926.71
501.49	25027.35
501.67	25074.16
501.84	25748.23
502.02	25165.44
502.20	25219.27
502.37	25408.86
502.55	25013.31
502.72	25460.35
502.90	25919.09
503.07	25116.29
503.25	25886.32
503.43	25570.35
503.60	25848.88
503.78	26143.78
503.95	26216.34
504.13	26246.77
504.30	26490.18
504.48	26265.49
504.65	26345.07
504.83	26815.52
505.01	26595.51
505.18	26925.52
505.36	27232.13
505.53	26871.69
505.71	27440.44
505.88	27328.10
506.06	27328.10
506.23	27571.51
506.41	27056.59
506.58	27393.63
506.76	28156.64
506.93	27852.38
507.11	27707.26
507.28	27854.72
507.46	28046.64
507.63	27651.09
507.81	28151.96
507.98	27566.83
508.16	27882.80
508.33	27953.02
508.50	28559.22
508.68	28257.29
508.85	28442.19
509.03	28507.72
509.20	28804.97
509.38	28854.12
509.55	29010.94
509.73	28730.08
509.90	28954.77
510.08	28985.19
510.25	29043.71
510.42	29003.92
510.60	29535.22
510.77	29294.14
510.95	29762.25
511.12	29661.61
511.30	29165.42
511.47	29783.32
511.64	29785.66
511.82	30099.29
511.99	29708.42
512.17	30082.91
512.34	29989.28
512.51	30543.99
512.69	30466.75
512.86	29905.02
513.04	30356.75
513.21	30036.09
513.38	30654.00
513.56	30642.29
513.73	30941.88
513.90	31180.62
514.08	31002.74
514.25	30810.81
514.43	31236.79
514.60	31307.01
514.77	31337.43
514.95	31438.08
515.12	31243.81
515.29	31260.20
515.47	31386.58
515.64	31681.49
515.81	31246.15
515.99	31793.84
516.16	31899.16
516.33	31590.21
516.51	32112.15
516.68	31826.60
516.85	32421.10
517.03	32254.92
517.20	32013.85
517.37	32147.26
517.54	32421.10
517.72	32208.11
517.89	32505.36
518.06	32701.96
518.24	32769.84
518.41	32549.83
518.58	33013.26
518.75	32577.92
518.93	32950.06
519.10	32797.93
519.27	32818.99
519.45	33329.23
519.62	33268.37
519.79	33111.56
519.96	33186.46
520.14	33301.14
520.31	33259.01
520.48	33450.94
520.65	33589.03
520.83	34005.64
521.00	34078.20
521.17	33486.04
521.34	33844.15
521.52	34232.68
521.69	34129.69
521.86	34087.56
522.03	34504.18
522.20	34141.39
522.38	34532.26
522.55	34183.52
522.72	34651.63
522.89	34785.04
523.07	34796.74
523.24	34581.42
523.41	34520.56
523.58	34403.53
523.75	35194.64
523.92	35157.19
524.10	35185.27
524.27	35269.53
524.44	35587.85
524.61	35215.70
524.78	35367.84
524.96	35534.01
525.13	35447.41
525.30	35728.28
525.47	35606.57
525.64	35892.12
525.81	36072.34
525.98	36308.73
526.16	35842.96
526.33	35910.84
526.50	36009.14
526.67	36041.91
526.84	36404.69
527.01	35859.35
527.18	36442.14
527.36	36458.52
527.53	36463.21
527.70	36734.71
527.87	36622.36
528.04	36945.36
528.21	36467.89
528.38	36449.16
528.55	37008.55
528.72	36718.32
528.89	36584.91
529.07	36559.17
529.24	36299.37
529.41	37088.13
529.58	37053.02
529.75	36713.64
529.92	37266.01
530.09	37258.99
530.26	37289.42
530.43	37258.99
530.60	37020.25
530.77	37156.00
530.94	37549.21
531.11	37125.58
531.28	37158.34
531.46	37422.83
531.63	37818.38
531.80	37556.24
531.97	37949.45
532.14	37940.08
532.31	37874.55
532.48	38232.65
532.65	38146.05
532.82	37970.51
532.99	38359.04
533.16	37809.01
533.33	38103.92
533.50	38134.35
533.67	37837.10
533.84	38562.67
534.01	38190.52
534.18	38504.15
534.35	38609.48
534.52	38455.00
534.69	38534.58
534.86	38932.47
535.03	38649.27
535.20	38623.52
535.37	38726.50
535.54	38796.72
535.71	39009.71
535.88	38595.43
536.05	39255.46
536.22	39269.51
536.38	39271.85
536.55	38990.98
536.72	39054.18
536.89	38925.45
537.06	39136.10
537.23	39218.02
537.40	39131.42
537.57	39166.52
537.74	39150.14
537.91	39313.98
538.08	39271.85
538.25	39526.97
538.42	39590.16
538.59	39847.62
538.75	39894.43
538.92	39943.58
539.09	40133.17
539.26	39620.59
539.43	39625.27
539.60	40002.10
539.77	40226.79
539.94	40320.41
540.11	40381.26
540.28	40076.99
540.44	39934.22
540.61	40470.20
540.78	40512.33
540.95	40430.41
541.12	40371.90
541.29	40594.25
541.46	40128.48
541.62	40662.13
541.79	40189.34
541.96	40350.84
542.13	40692.55
542.30	40378.92
542.47	40423.39
542.63	40795.54
542.80	40844.69
542.97	41095.13
543.14	41200.45
543.31	40872.78
543.48	41163.00
543.64	41507.06
543.81	41621.75
543.98	41385.35
544.15	41720.05
544.32	41333.86
544.48	42036.02
544.65	41523.44
544.82	41790.27
544.99	42040.70
545.16	41537.49
545.32	41818.35
545.49	42122.62
545.66	42021.98
545.83	42110.92
546.00	42029.00
546.16	42366.04
546.33	41415.78
546.50	42031.34
546.67	42146.03
546.83	41544.51
547.00	42080.49
547.17	41776.22
547.34	41921.34
547.50	42337.95
547.67	42637.54
547.84	42504.13
548.00	42340.29
548.17	42454.98
548.34	42817.76
548.51	42843.51
548.67	42602.43
548.84	42586.05
549.01	42380.08
549.18	42670.31
549.34	42691.37
549.51	43360.76
549.68	42714.78
549.84	42909.04
550.01	43007.34
550.18	42562.64
550.34	43077.56
550.51	43306.93
550.68	43199.27
550.84	42677.33
551.01	43262.46
551.18	43000.32
551.34	42925.42
551.51	43313.95
551.68	43007.34
551.84	43365.45
552.01	43290.55
552.18	43648.65
552.34	43573.75
552.51	43852.28
552.68	43494.18
552.84	43051.81
553.01	43260.12
553.18	43559.71
553.34	43948.24
553.51	43416.94
553.67	43880.36
553.84	43840.57
554.01	43896.75
554.17	43840.57
554.34	43763.34
554.51	43880.36
554.67	44392.94
554.84	44301.66
555.00	43580.78
555.17	43725.89
555.33	44198.68
555.50	44034.84
555.67	44360.17
555.83	43978.67
556.00	44296.98
556.16	44395.28
556.33	44182.29
556.50	44083.99
556.66	44538.05
556.83	44353.15
556.99	44463.16
557.16	44591.89
557.32	44481.88
557.49	44619.97
557.65	44404.64
557.82	44624.65
557.98	44500.61
558.15	44765.09
558.32	44823.60
558.48	44327.41
558.65	44704.23
558.81	44631.68
558.98	44849.35
559.14	44706.57
559.31	44921.90
559.47	44645.72
559.64	44720.62
559.80	44814.24
559.97	44818.92
560.13	44444.43
560.30	45160.64
560.46	45263.62
560.63	45439.16
560.79	45343.20
560.96	45476.61
561.12	45385.33
561.29	44800.19
561.45	45553.85
561.61	45050.63
561.78	45092.76
561.94	44648.06
562.11	45207.45
562.27	45539.80
562.44	45315.11
562.60	45275.32
562.77	45069.36
562.93	45006.16
563.10	45736.41
563.26	45200.43
563.42	45979.82
563.59	45411.07
563.75	45092.76
563.92	45371.28
564.08	45354.90
564.24	45619.38
564.41	45654.49
564.57	45551.51
564.74	45790.24
564.90	45354.90
565.07	45230.85
565.23	45607.68
565.39	45460.23
565.56	45291.71
565.72	45478.95
565.88	45392.35
566.05	45656.83
566.21	45925.99
566.38	45509.38
566.54	45528.10
566.70	45855.78
566.87	45787.90
567.03	45350.22
567.19	45682.58
567.36	45954.08
567.52	45776.20
567.68	45689.60
567.85	46089.83
568.01	46138.98
568.17	45579.59
568.34	46010.25
568.50	45642.79
568.66	45301.07
568.83	45886.20
568.99	45649.81
569.15	46157.70
569.32	45682.58
569.48	45783.22
569.64	46192.81
569.81	45958.76
569.97	45989.19
570.13	46312.18
570.30	45528.10
570.46	46293.46
570.62	46153.02
570.78	46241.96
570.95	46045.36
571.11	45928.33
571.27	46045.36
571.43	45806.62
571.60	45951.74
571.76	46043.02
571.92	45876.84
572.09	46101.53
572.25	45827.69
572.41	46340.27
572.57	46185.79
572.74	46143.66
572.90	46328.56
573.06	46550.91
573.22	46211.54
573.38	46272.39
573.55	46593.04
573.71	46574.32
573.87	46251.33
574.03	45942.38
574.20	46494.74
574.36	46314.52
574.52	46473.68
574.68	46511.13
574.84	46838.80
575.01	46181.11
575.17	46525.17
575.33	46384.74
575.49	46452.61
575.65	46677.30
575.82	46220.90
575.98	46241.96
576.14	46780.29
576.30	46651.56
576.46	46471.34
576.62	46370.69
576.79	46571.98
576.95	46368.35
577.11	46143.66
577.27	46340.27
577.43	46335.59
577.59	46724.11
577.75	45998.55
577.92	45750.45
578.08	45951.74
578.24	46625.81
578.40	46754.54
578.56	46831.78
578.72	46782.63
578.88	46794.33
579.04	46672.62
579.21	46473.68
579.37	46658.58
579.53	46707.73
579.69	46457.29
579.85	46169.41
580.01	46710.07
580.17	46735.82
580.33	46642.20
580.49	46298.14
580.65	46501.76
580.82	46291.12
580.98	46756.88
581.14	46506.44
581.30	46916.04
581.46	46134.30
581.62	46625.81
581.78	46789.65
581.94	46581.34
582.10	46588.36
582.26	46742.84
582.42	46616.45
582.58	46670.28
582.74	46773.27
582.90	46817.74
583.06	46677.30
583.22	46653.90
583.38	46712.41
583.54	47063.49
583.70	46775.61
583.86	46986.25
584.02	46681.98
584.18	47157.11
584.34	46944.12
584.50	47374.78
584.66	47105.62
584.82	47117.32
584.98	47023.70
585.14	47203.92
585.30	46375.37
585.46	46768.58
585.62	46822.42
585.78	47040.09
585.94	46513.47
586.10	46808.37
586.26	46553.26
586.42	46815.40
586.58	46719.43
586.74	47037.75
586.90	46834.12
587.06	46686.67
587.22	47077.54
587.38	46993.28
587.54	46988.60
587.70	47126.69
587.86	46850.50
588.02	46534.53
588.18	46787.31
588.34	46859.87
588.49	46869.23
588.65	46548.57
588.81	46593.04
588.97	47033.07
589.13	46735.82
589.29	47063.49
589.45	47269.46
589.61	47222.65
589.77	47082.22
589.93	47082.22
590.08	47161.79
