SpectraSuite Data File
++++++++++++++++++++++++++++++++++++
Date: Fri Oct 25 10:43:53 EDT 2013
User: price-jones
Dark Spectrum Present: No
Reference Spectrum Present: No
Number of Sampled Component Spectra: 1
Spectrometers: USB2+H05261
Integration Time (usec): 100000 (USB2+H05261)
Spectra Averaged: 1 (USB2+H05261)
Boxcar Smoothing: 0 (USB2+H05261)
Correct for Electrical Dark: No (USB2+H05261)
Strobe/Lamp Enabled: No (USB2+H05261)
Correct for Detector Non-linearity: No (USB2+H05261)
Correct for Stray Light: No (USB2+H05261)
Number of Pixels in Processed Spectrum: 2048
>>>>>Begin Processed Spectral Data<<<<<
365.73	168.52
365.92	168.52
366.12	168.52
366.32	126.39
366.52	14.04
366.72	58.51
366.91	0.00
367.11	7.02
367.31	51.49
367.51	0.00
367.70	0.00
367.90	0.00
368.10	0.00
368.30	42.13
368.49	44.47
368.69	56.17
368.89	79.58
369.09	42.13
369.28	56.17
369.48	42.13
369.68	154.48
369.87	163.84
370.07	67.88
370.27	112.35
370.47	215.33
370.66	367.46
370.86	421.30
371.06	388.53
371.25	533.64
371.45	404.91
371.65	552.37
371.84	428.32
372.04	482.15
372.24	538.32
372.44	498.53
372.63	535.98
372.83	500.87
373.03	503.22
373.22	428.32
373.42	510.24
373.62	463.43
373.81	573.43
374.01	514.92
374.21	580.45
374.40	517.26
374.60	601.52
374.79	645.99
374.99	594.50
375.19	631.94
375.38	603.86
375.58	550.03
375.78	713.86
375.97	671.73
376.17	662.37
376.37	615.56
376.56	650.67
376.76	636.63
376.95	655.35
377.15	624.92
377.35	606.20
377.54	667.05
377.74	559.39
377.93	681.10
378.13	610.88
378.33	681.10
378.52	655.35
378.72	676.41
378.91	695.14
379.11	695.14
379.31	650.67
379.50	662.37
379.70	709.18
379.89	685.78
380.09	655.35
380.28	655.35
380.48	755.99
380.68	699.82
380.87	641.31
381.07	744.29
381.26	753.65
381.46	732.59
381.65	800.46
381.85	655.35
382.04	737.27
382.24	739.61
382.43	746.63
382.63	653.01
382.83	699.82
383.02	758.33
383.22	793.44
383.41	709.18
383.61	791.10
383.80	802.80
384.00	844.93
384.19	763.01
384.39	844.93
384.58	816.85
384.78	807.48
384.97	856.64
385.17	830.89
385.36	877.70
385.56	823.87
385.75	793.44
385.95	795.78
386.14	905.79
386.34	877.70
386.53	826.21
386.72	910.47
386.92	924.51
387.11	861.32
387.31	894.08
387.50	856.64
387.70	851.96
387.89	856.64
388.09	884.72
388.28	898.77
388.48	957.28
388.67	898.77
388.86	1008.77
389.06	1022.81
389.25	957.28
389.45	964.30
389.64	1043.88
389.84	1011.11
390.03	980.68
390.22	1022.81
390.42	1006.43
390.61	1116.44
390.81	1107.07
391.00	1008.77
391.19	1153.88
391.39	1137.50
391.58	1071.97
391.78	1060.26
391.97	1104.73
392.16	1022.81
392.36	1076.65
392.55	1093.03
392.75	1029.84
392.94	990.05
393.13	999.41
393.33	1090.69
393.52	999.41
393.71	1076.65
393.91	1100.05
394.10	1179.63
394.29	1289.64
394.49	1263.89
394.68	1238.14
394.88	1301.34
395.07	1268.57
395.26	1249.85
395.46	1317.72
395.65	1247.51
395.84	1240.48
396.04	1263.89
396.23	1245.16
396.42	1163.25
396.62	1270.91
396.81	1249.85
397.00	1226.44
397.19	1322.40
397.39	1247.51
397.58	1394.96
397.77	1474.54
397.97	1476.88
398.16	1493.26
398.35	1523.69
398.55	1556.46
398.74	1565.82
398.93	1561.14
399.12	1504.96
399.32	1596.25
399.51	1561.14
399.70	1626.67
399.90	1682.85
400.09	1643.06
400.28	1673.48
400.47	1640.72
400.67	1675.82
400.86	1650.08
401.05	1626.67
401.24	1778.81
401.44	1764.76
401.63	1638.38
401.82	1727.32
402.01	1921.58
402.21	1863.07
402.40	1769.44
402.59	1790.51
402.78	1792.85
402.97	1781.15
403.17	1966.05
403.36	2012.86
403.55	1907.54
403.74	1980.09
403.93	1921.58
404.13	2040.95
404.32	1893.49
404.51	2012.86
404.70	2043.29
404.89	2005.84
405.09	2036.27
405.28	2017.54
405.47	1923.92
405.66	2019.88
405.85	1956.69
406.05	2143.93
406.24	2050.31
406.43	2059.67
406.62	2155.63
406.81	2172.02
407.00	2099.46
407.20	2118.18
407.39	2122.87
407.58	2207.13
407.77	2239.89
407.96	2253.94
408.15	2345.22
408.34	2354.58
408.54	2340.54
408.73	2354.58
408.92	2392.03
409.11	2345.22
409.30	2415.43
409.49	2363.94
409.68	2396.71
409.87	2424.80
410.07	2385.01
410.26	2518.42
410.45	2576.93
410.64	2614.38
410.83	2619.06
411.02	2487.99
411.21	2715.02
411.40	2698.64
411.59	2717.36
411.78	2717.36
411.98	2693.96
412.17	2806.30
412.36	2729.06
412.55	2850.77
412.74	2883.54
412.93	2853.11
413.12	2841.41
413.31	2967.80
413.50	2981.84
413.69	2930.35
413.88	3000.57
414.07	3005.25
414.26	3068.44
414.45	3098.87
414.64	3145.68
414.83	3077.80
415.02	3159.72
415.22	3141.00
415.41	3286.11
415.60	3281.43
415.79	3342.28
415.98	3421.86
416.17	3300.16
416.36	3426.54
416.55	3400.80
416.74	3356.33
416.93	3384.41
417.12	3475.70
417.31	3503.78
417.50	3447.61
417.69	3691.02
417.88	3566.98
418.07	3581.02
418.26	3597.40
418.45	3452.29
418.64	3588.04
418.83	3576.34
419.02	3674.64
419.21	3695.71
419.39	3646.55
419.58	3597.40
419.77	3658.26
419.96	3801.03
420.15	3843.16
420.34	3887.63
420.53	3831.46
420.72	3920.40
420.91	3950.82
421.10	3974.23
421.29	3976.57
421.48	3911.04
421.67	3899.33
421.86	3981.25
422.05	3899.33
422.24	4016.36
422.43	3899.33
422.61	4063.17
422.80	4128.70
422.99	3995.29
423.18	3985.93
423.37	3978.91
423.56	4210.62
423.75	4077.21
423.94	4109.98
424.13	3871.25
424.32	3904.01
424.50	4042.11
424.69	4205.94
424.88	4238.71
425.07	4100.62
425.26	4119.34
425.45	4011.68
425.64	4086.58
425.83	3948.48
426.01	4189.56
426.20	4273.82
426.39	4219.99
426.58	4133.39
426.77	4037.42
426.96	4156.79
427.15	4140.41
427.33	4217.65
427.52	4222.33
427.71	4173.18
427.90	4301.90
428.09	4334.67
428.28	4458.72
428.46	4287.86
428.65	4262.12
428.84	4442.34
429.03	4447.02
429.22	4236.37
429.40	4210.62
429.59	4257.43
429.78	4093.60
429.97	4084.23
430.16	4032.74
430.34	4243.39
430.53	4231.69
430.72	4320.63
430.91	4313.61
431.10	4447.02
431.28	4526.60
431.47	4744.27
431.66	4791.08
431.85	4692.77
432.03	4765.33
432.22	4858.95
432.41	4765.33
432.60	4816.82
432.79	4980.66
432.97	4971.30
433.16	4875.34
433.35	4837.89
433.54	4800.44
433.72	4798.10
433.91	4788.74
434.10	4910.44
434.28	4950.23
434.47	4926.83
434.66	5135.14
434.85	5046.20
435.03	5057.90
435.22	5043.85
435.41	5287.27
435.59	5242.80
435.78	5284.93
435.97	5291.95
436.16	5238.12
436.34	5254.50
436.53	5200.67
436.72	5247.48
436.90	5238.12
437.09	5366.85
437.28	5163.22
437.46	5219.39
437.65	5394.93
437.84	5418.34
438.02	5259.18
438.21	5273.23
438.40	5472.17
438.58	5500.26
438.77	5647.71
438.96	5535.37
439.14	5610.26
439.33	5778.78
439.52	5701.54
439.70	5657.07
439.89	5959.00
440.08	5996.45
440.26	5930.92
440.45	6024.54
440.63	6129.86
440.82	6113.48
441.01	6207.10
441.19	6193.06
441.38	6314.77
441.57	6532.44
441.75	6244.55
441.94	6511.37
442.12	6438.81
442.31	6565.20
442.50	6567.54
442.68	6494.99
442.87	6497.33
443.05	6612.01
443.24	6806.28
443.43	6780.53
443.61	6693.93
443.80	6876.49
443.98	6761.81
444.17	6553.50
444.35	6719.68
444.54	6745.42
444.73	6935.01
444.91	6696.27
445.10	6775.85
445.28	6658.82
445.47	6768.83
445.65	6670.53
445.84	6679.89
446.02	6771.17
446.21	6899.90
446.39	6719.68
446.58	6911.60
446.77	6949.05
446.95	6806.28
447.14	6932.67
447.32	7005.22
447.51	7021.61
447.69	6930.33
447.88	7007.56
448.06	6981.82
448.25	7056.72
448.43	7014.59
448.62	6965.43
448.80	6949.05
448.99	7005.22
449.17	7190.13
449.36	7030.97
449.54	7269.70
449.73	7417.16
449.91	7391.41
450.10	7442.90
450.28	7627.81
450.46	7442.90
450.65	7475.67
450.83	7543.55
451.02	7487.37
451.20	7403.11
451.39	7623.12
451.57	7581.00
451.76	7513.12
451.94	7456.95
452.13	7475.67
452.31	7386.73
452.49	7356.30
452.68	7541.21
452.86	7463.97
453.05	7496.74
453.23	7543.55
453.42	7599.72
453.60	7555.25
453.78	7705.04
453.97	7517.80
454.15	7534.18
454.34	7557.59
454.52	7754.19
454.70	7817.39
454.89	7798.66
455.07	7763.56
455.26	7896.97
455.44	7939.10
455.62	8063.15
455.81	7850.16
455.99	8248.05
456.17	8182.51
456.36	8147.40
456.54	8311.24
456.73	8449.33
456.91	8355.71
457.09	8435.29
457.28	8519.55
457.46	8397.84
457.64	8608.49
457.83	8315.92
458.01	8238.69
458.19	8425.93
458.38	8479.76
458.56	8592.11
458.74	8559.34
458.93	8439.97
459.11	8526.57
459.29	8655.30
459.48	8755.94
459.66	8486.78
459.84	8669.34
460.03	8912.76
460.21	8727.86
460.39	8748.92
460.57	8896.38
460.76	8891.70
460.94	9053.19
461.12	8910.42
461.31	8875.31
461.49	8999.36
461.67	9055.53
461.85	9312.99
462.04	9025.11
462.22	9275.54
462.40	9172.56
462.59	9179.58
462.77	9177.24
462.95	9268.52
463.13	9277.88
463.32	9341.08
463.50	9303.63
463.68	9284.91
463.86	9446.40
464.05	9221.71
464.23	9146.81
464.41	9460.45
464.59	9170.22
464.78	9628.96
464.96	9256.82
465.14	9277.88
465.32	9507.26
465.50	9533.00
465.69	9476.83
465.87	9537.68
466.05	9628.96
466.23	9486.19
466.41	9387.89
466.60	9743.65
466.78	9357.46
466.96	9439.38
467.14	9664.07
467.32	9671.09
467.51	9795.14
467.69	9483.85
467.87	9661.73
468.05	9785.78
468.23	9753.01
468.41	9818.55
468.60	9947.28
468.78	9809.19
468.96	9970.68
469.14	10019.83
469.32	10022.17
469.50	9703.86
469.69	9893.44
469.87	10047.92
470.05	10209.42
470.23	10132.18
470.41	10092.39
470.59	10202.40
470.77	10340.49
470.95	10307.72
471.14	10644.76
471.32	10253.89
471.50	10616.67
471.68	10881.15
471.86	10815.62
472.04	10499.64
472.22	10899.87
472.40	10534.75
472.58	10602.63
472.77	10829.66
472.95	10925.62
473.13	11052.01
473.31	10626.03
473.49	10799.23
473.67	11248.61
473.85	11026.26
474.03	11180.74
474.21	11403.09
474.39	11456.92
474.57	11398.41
474.75	11506.07
474.93	11534.16
475.12	11417.13
475.30	11520.12
475.48	11592.67
475.66	11871.20
475.84	11683.95
476.02	11892.26
476.20	11789.28
476.38	12002.27
476.56	12058.44
476.74	12109.93
476.92	12119.29
477.10	12315.90
477.28	12561.66
477.46	12355.69
477.64	12571.02
477.82	12938.48
478.00	13020.40
478.18	12980.61
478.36	12999.34
478.54	12816.77
478.72	13013.38
478.90	13247.43
479.08	13350.42
479.26	13652.34
479.44	13738.94
479.62	13762.35
479.80	13811.50
479.98	13743.63
480.16	14080.66
480.34	14026.83
480.52	14216.41
480.70	14232.80
480.88	14317.06
481.06	14391.95
481.24	14574.52
481.41	14736.01
481.59	15030.92
481.77	14960.70
481.95	14773.46
482.13	15108.16
482.31	15002.83
482.49	15585.63
482.67	15236.89
482.85	15386.68
483.03	15737.76
483.21	15833.72
483.39	15695.63
483.57	15850.11
483.74	16173.10
483.92	16194.17
484.10	16191.83
484.28	16355.66
484.46	16592.06
484.64	17071.87
484.82	16681.00
485.00	16765.26
485.18	16781.64
485.35	17015.69
485.53	16872.92
485.71	16496.10
485.89	16760.58
486.07	16903.35
486.25	17099.95
486.43	17465.08
486.61	17652.32
486.78	17664.02
486.96	18087.66
487.14	18164.90
487.32	18375.55
487.50	18558.11
487.68	18490.23
487.85	18939.62
488.03	19257.93
488.21	19180.69
488.39	19358.57
488.57	19145.58
488.75	19391.34
488.92	19754.12
489.10	19932.00
489.28	19962.43
489.46	20098.18
489.64	20243.29
489.81	20641.18
489.99	20786.30
490.17	20884.60
490.35	21146.74
490.53	20856.51
490.70	21296.53
490.88	21249.72
491.06	21256.75
491.24	21535.27
491.41	21701.45
491.59	21511.86
491.77	21500.16
491.95	21764.64
492.13	21565.70
492.30	22199.98
492.48	22031.46
492.66	22352.12
492.84	22604.89
493.01	22593.19
493.19	22677.45
493.37	23087.04
493.54	22852.99
493.72	23318.76
493.90	23058.96
494.08	23761.12
494.25	23803.25
494.43	23838.36
494.61	24077.09
494.79	24477.32
494.96	24126.24
495.14	23920.28
495.32	24512.43
495.49	24531.15
495.67	24465.62
495.85	24650.52
496.02	25163.10
496.20	24748.82
496.38	24793.29
496.55	25355.02
496.73	25656.95
496.91	25528.22
497.09	26068.89
497.26	25919.09
497.44	25895.69
497.62	25851.22
497.79	26235.06
497.97	25949.52
498.14	26101.65
498.32	26223.36
498.50	26429.33
498.67	26682.11
498.85	26532.31
499.03	26799.13
499.20	27309.37
499.38	27061.27
499.56	27103.40
499.73	27215.75
499.91	27314.05
500.08	27267.24
500.26	27108.08
500.44	27302.35
500.61	27491.93
500.79	26962.97
500.97	27555.13
501.14	27611.30
501.32	27531.72
501.49	27686.20
501.67	27878.12
501.84	28142.60
502.02	28189.41
502.20	28313.46
502.37	29032.00
502.55	28503.04
502.72	28989.88
502.90	29237.97
503.07	28615.39
503.25	29237.97
503.43	28587.30
503.60	29034.35
503.78	28884.55
503.95	28835.40
504.13	29242.65
504.30	29633.52
504.48	29266.06
504.65	29977.58
504.83	29989.28
505.01	29993.97
505.18	29811.40
505.36	30473.78
505.53	29825.45
505.71	30391.86
505.88	30679.74
506.06	30260.79
506.23	30574.42
506.41	30305.26
506.58	30658.68
506.76	30555.69
506.93	30869.33
507.11	31079.97
507.28	30696.13
507.46	31014.44
507.63	30831.88
507.81	30707.83
507.98	31124.44
508.16	31498.93
508.33	31599.57
508.50	31557.44
508.68	31681.49
508.85	31945.97
509.03	31941.29
509.20	31969.38
509.38	31840.65
509.55	32119.17
509.73	32098.11
509.90	32004.49
510.08	32037.25
510.25	32273.65
510.42	32275.99
510.60	32521.74
510.77	32535.79
510.95	32479.61
511.12	32762.82
511.30	33134.96
511.47	32989.85
511.64	33179.43
511.82	33378.38
511.99	33434.55
512.17	33263.69
512.34	33268.37
512.51	33247.31
512.69	33413.49
512.86	33518.81
513.04	34089.90
513.21	33638.18
513.38	33565.62
513.56	33659.24
513.73	33652.22
513.90	33900.32
514.08	33862.87
514.25	34169.48
514.43	33769.25
514.60	34405.88
514.77	34022.03
514.95	34525.24
515.12	34375.45
515.29	34363.75
515.47	34878.66
515.64	35119.74
515.81	34852.92
515.99	34761.64
516.16	34429.28
516.33	33830.10
516.51	34380.13
516.68	34064.16
516.85	34176.50
517.03	34429.28
517.20	34565.03
517.37	35133.78
517.54	35213.36
517.72	34941.86
517.89	34799.08
518.06	34857.60
518.24	34834.19
518.41	34878.66
518.58	35330.39
518.75	35711.89
518.93	35468.48
519.10	35295.28
519.27	35868.71
519.45	35857.01
519.62	36208.09
519.79	36158.94
519.96	36301.71
520.14	36371.92
520.31	35974.03
520.48	35917.86
520.65	36446.82
520.83	36795.56
521.00	36655.13
521.17	36863.44
521.34	36610.66
521.52	36795.56
521.69	36950.04
521.86	36882.16
522.03	37413.46
522.20	37038.98
522.38	37198.13
522.55	37127.92
522.72	37120.90
522.89	36786.20
523.07	37656.88
523.24	37244.94
523.41	38284.14
523.58	37457.93
523.75	37909.66
523.92	38113.28
524.10	38295.85
524.27	38050.09
524.44	38078.18
524.61	38637.56
524.78	38316.91
524.96	38382.45
525.13	38792.04
525.30	38632.88
525.47	39000.35
525.64	38557.99
525.81	38480.75
525.98	38279.46
526.16	38328.61
526.33	38415.21
526.50	38417.55
526.67	38122.65
526.84	38230.31
527.01	38323.93
527.18	38433.94
527.36	39124.40
527.53	39009.71
527.70	39264.83
527.87	39023.75
528.04	39426.32
528.21	39042.48
528.38	39218.02
528.55	39763.36
528.72	39896.77
528.89	40020.82
529.07	39936.56
529.24	39665.06
529.41	40069.97
529.58	39564.42
529.75	39913.16
529.92	39992.73
530.09	39889.75
530.26	40254.87
530.43	39959.97
530.60	40130.83
530.77	39962.31
530.94	40102.74
531.11	40622.34
531.28	40367.22
531.46	40364.88
531.63	40568.51
531.80	40460.84
531.97	40442.12
532.14	40196.36
532.31	39999.76
532.48	40748.73
532.65	40884.48
532.82	40360.20
532.99	40451.48
533.16	40643.40
533.33	40900.86
533.50	40849.37
533.67	41258.96
533.84	40456.16
534.01	41331.52
534.18	40722.98
534.35	41361.95
534.52	41298.75
534.69	40786.18
534.86	41167.68
535.03	41013.21
535.20	41656.85
535.37	41808.99
535.54	42178.79
535.71	41935.38
535.88	41404.08
536.05	41340.88
536.22	41652.17
536.38	41502.38
536.55	41586.64
536.72	41680.26
536.89	41748.14
537.06	41567.91
537.23	42398.80
537.40	42014.96
537.57	42000.91
537.74	42106.24
537.91	42295.82
538.08	42007.94
538.25	41816.01
538.42	42085.17
538.59	42431.57
538.75	41806.65
538.92	42127.30
539.09	41867.50
539.26	42263.05
539.43	42298.16
539.60	42312.20
539.77	42281.78
539.94	42096.88
540.11	42370.72
540.28	42356.67
540.44	42204.54
540.61	42529.87
540.78	42272.42
540.95	42309.86
541.12	42476.04
541.29	42707.76
541.46	42623.50
541.62	42916.06
541.79	42738.18
541.96	42323.91
542.13	42726.48
542.30	43026.07
542.47	42848.19
542.63	42464.34
542.80	43337.36
542.97	43325.66
543.14	43665.03
543.31	43086.92
543.48	43538.65
543.64	44018.46
543.81	43526.94
543.98	43894.41
544.15	43676.74
544.32	43866.32
544.48	44423.37
544.65	43915.47
544.82	44058.24
544.99	44133.14
545.16	43597.16
545.32	43421.62
545.49	44493.58
545.66	44196.34
545.83	43966.96
546.00	44521.67
546.16	43629.93
546.33	43861.64
546.50	43730.57
546.67	43929.51
546.83	43770.36
547.00	44091.01
547.17	44231.44
547.34	44004.41
547.50	44088.67
547.67	44741.68
547.84	44643.38
548.00	44261.87
548.17	44783.81
548.34	44507.63
548.51	44917.22
548.67	44842.32
548.84	44559.12
549.01	44509.97
549.18	44678.49
549.34	44821.26
549.51	44725.30
549.68	44914.88
549.84	44708.91
550.01	45036.59
550.18	44531.03
550.34	45137.23
550.51	44760.40
550.68	44540.39
550.84	44547.42
551.01	44566.14
551.18	44912.54
551.34	45134.89
551.51	45319.79
551.68	45310.43
551.84	45162.98
552.01	44706.57
552.18	45762.15
552.34	45050.63
552.51	45172.34
552.68	45020.20
552.84	45270.64
553.01	45687.26
553.18	45263.62
553.34	45151.27
553.51	45296.39
553.67	45219.15
553.84	45476.61
554.01	45703.64
554.17	45773.86
554.34	45413.41
554.51	45511.72
554.67	45820.67
554.84	45668.53
555.00	45439.16
555.17	45310.43
555.33	45471.93
555.50	45429.80
555.67	45844.07
555.83	45560.87
556.00	45579.59
556.16	45832.37
556.33	45759.81
556.50	45521.08
556.66	45523.42
556.83	45294.05
556.99	45881.52
557.16	45705.98
557.32	45801.94
557.49	45930.67
557.65	45762.15
557.82	45851.09
557.98	45457.88
558.15	45991.53
558.32	45867.48
558.48	45947.06
558.65	45895.56
558.81	45595.98
558.98	45577.25
559.14	45605.34
559.31	45832.37
559.47	46298.14
559.64	45991.53
559.80	46012.59
559.97	45839.39
560.13	46059.40
560.30	45801.94
560.46	46314.52
560.63	46073.45
560.79	46506.44
560.96	46600.07
561.12	46251.33
561.29	46061.74
561.45	46305.16
561.61	46141.32
561.78	46270.05
561.94	45993.87
562.11	46040.68
562.27	46218.56
562.44	46117.92
562.60	46583.68
562.77	46197.49
562.93	46082.81
563.10	46607.09
563.26	45757.47
563.42	46600.07
563.59	46082.81
563.75	46443.25
563.92	46731.14
564.08	46733.48
564.24	46707.73
564.41	46529.85
564.57	46660.92
564.74	46525.17
564.90	46494.74
565.07	46721.77
565.23	46433.89
565.39	46230.26
565.56	46284.09
565.72	46473.68
565.88	46632.83
566.05	46202.18
566.21	46160.05
566.38	46438.57
566.54	46595.38
566.70	46288.77
566.87	46768.58
567.03	46866.89
567.19	47093.92
567.36	46621.13
567.52	46307.50
567.68	46546.23
567.85	46642.20
568.01	46408.14
568.17	46642.20
568.34	46597.73
568.50	46667.94
568.66	46541.55
568.83	46513.47
568.99	46316.86
569.15	46412.82
569.32	46153.02
569.48	46234.94
569.64	46595.38
569.81	46649.22
569.97	46579.00
570.13	46541.55
570.30	46036.00
570.46	46153.02
570.62	46092.17
570.78	46115.58
570.95	46759.22
571.11	46803.69
571.27	46672.62
571.43	46469.00
571.60	46389.42
571.76	46670.28
571.92	46518.15
572.09	46380.06
572.25	46740.50
572.41	47002.64
572.57	46703.05
572.74	47044.77
572.90	47103.28
573.06	46857.52
573.22	46791.99
573.38	46532.19
573.55	46445.59
573.71	46958.17
573.87	46824.76
574.03	46824.76
574.20	46604.75
574.36	46567.30
574.52	46822.42
574.68	46763.90
574.84	46930.08
575.01	46822.42
575.17	46972.21
575.33	46492.40
575.49	46787.31
575.65	46803.69
575.82	47180.52
575.98	46550.91
576.14	46663.26
576.30	47028.38
576.46	47002.64
576.62	46719.43
576.79	46672.62
576.95	46801.35
577.11	46855.18
577.27	46693.69
577.43	46787.31
577.59	46705.39
577.75	46644.54
577.92	46267.71
578.08	46450.27
578.24	46731.14
578.40	46417.50
578.56	46948.81
578.72	46883.27
578.88	46754.54
579.04	46976.89
579.21	46829.44
579.37	46787.31
579.53	47063.49
579.69	46803.69
579.85	46698.37
580.01	46843.48
580.17	46766.24
580.33	46939.44
580.49	46660.92
580.65	46995.62
580.82	47100.94
580.98	46871.57
581.14	46735.82
581.30	47110.30
581.46	46705.39
581.62	46644.54
581.78	46731.14
581.94	47103.28
582.10	47103.28
582.26	47026.04
582.42	46824.76
582.58	46831.78
582.74	47302.23
582.90	46885.61
583.06	47182.86
583.22	46939.44
583.38	47035.41
583.54	47150.09
583.70	47100.94
583.86	46548.57
584.02	46852.84
584.18	47079.88
584.34	46859.87
584.50	46773.27
584.66	46864.55
584.82	46384.74
584.98	46862.21
585.14	46974.55
585.30	46745.18
585.46	46777.95
585.62	46483.04
585.78	46642.20
585.94	46562.62
586.10	46878.59
586.26	47044.77
586.42	47075.19
586.58	47180.52
586.74	47061.15
586.90	46890.29
587.06	46859.87
587.22	46707.73
587.38	47023.70
587.54	46869.23
587.70	47129.03
587.86	47215.63
588.02	47021.36
588.18	46738.16
588.34	46618.79
588.49	46417.50
588.65	46230.26
588.81	46078.13
588.97	46394.10
589.13	46143.66
589.29	46344.95
589.45	46447.93
589.61	46576.66
589.77	47257.76
589.93	46784.97
