SpectraSuite Data File
++++++++++++++++++++++++++++++++++++
Date: Fri Oct 25 11:23:43 EDT 2013
User: price-jones
Dark Spectrum Present: No
Reference Spectrum Present: No
Number of Sampled Component Spectra: 1
Spectrometers: USB2+H05261
Integration Time (usec): 100000 (USB2+H05261)
Spectra Averaged: 1 (USB2+H05261)
Boxcar Smoothing: 0 (USB2+H05261)
Correct for Electrical Dark: No (USB2+H05261)
Strobe/Lamp Enabled: No (USB2+H05261)
Correct for Detector Non-linearity: No (USB2+H05261)
Correct for Stray Light: No (USB2+H05261)
Number of Pixels in Processed Spectrum: 2048
>>>>>Begin Processed Spectral Data<<<<<
365.73	180.22
365.92	180.22
366.12	180.22
366.32	126.39
366.52	110.01
366.72	215.33
366.91	93.62
367.11	138.09
367.31	98.30
367.51	81.92
367.70	175.54
367.90	100.64
368.10	121.71
368.30	126.39
368.49	98.30
368.69	65.54
368.89	189.58
369.09	95.96
369.28	198.95
369.48	152.13
369.68	163.84
369.87	173.20
370.07	205.97
370.27	259.80
370.47	320.65
370.66	489.17
370.86	617.90
371.06	688.12
371.25	671.73
371.45	641.31
371.65	690.46
371.84	725.57
372.04	606.20
372.24	711.52
372.44	671.73
372.63	723.23
372.83	748.97
373.03	821.53
373.22	767.70
373.42	777.06
373.62	753.65
373.81	826.21
374.01	844.93
374.21	774.72
374.40	716.20
374.60	718.54
374.79	798.12
374.99	837.91
375.19	835.57
375.38	896.43
375.58	868.34
375.78	896.43
375.97	858.98
376.17	1004.09
376.37	966.64
376.56	917.49
376.76	868.34
376.95	861.32
377.15	844.93
377.35	805.14
377.54	891.74
377.74	889.40
377.93	880.04
378.13	987.71
378.33	968.98
378.52	1013.45
378.72	924.51
378.91	901.11
379.11	919.83
379.31	961.96
379.50	959.62
379.70	933.87
379.89	994.73
380.09	947.92
380.28	964.30
380.48	950.26
380.68	1001.75
380.87	1050.90
381.07	985.37
381.26	1008.77
381.46	1032.18
381.65	1069.62
381.85	1015.79
382.04	997.07
382.24	980.68
382.43	1083.67
382.63	1011.11
382.83	1102.39
383.02	1146.86
383.22	1118.78
383.41	1109.41
383.61	1055.58
383.80	1036.86
384.00	1142.18
384.19	1153.88
384.39	1088.35
384.58	1200.69
384.78	1086.01
384.97	1196.01
385.17	1118.78
385.36	1160.91
385.56	1158.57
385.75	1203.04
385.95	1210.06
386.14	1228.78
386.34	1142.18
386.53	1282.61
386.72	1158.57
386.92	1135.16
387.11	1226.44
387.31	1268.57
387.50	1205.38
387.70	1221.76
387.89	1233.46
388.09	1317.72
388.28	1334.11
388.48	1252.19
388.67	1313.04
388.86	1404.32
389.06	1254.53
389.25	1401.98
389.45	1345.81
389.64	1409.00
389.84	1441.77
390.03	1371.55
390.22	1315.38
390.42	1355.17
390.61	1397.30
390.81	1327.08
391.00	1434.75
391.19	1502.62
391.39	1378.58
391.58	1432.41
391.78	1514.33
391.97	1481.56
392.16	1533.05
392.36	1544.75
392.55	1621.99
392.75	1554.12
392.94	1514.33
393.13	1490.92
393.33	1521.35
393.52	1502.62
393.71	1577.52
393.91	1570.50
394.10	1579.86
394.29	1568.16
394.49	1572.84
394.68	1596.25
394.88	1664.12
395.07	1619.65
395.26	1643.06
395.46	1626.67
395.65	1699.23
395.84	1692.21
396.04	1699.23
396.23	1701.57
396.42	1732.00
396.62	1844.34
396.81	1743.70
397.00	1736.68
397.19	1781.15
397.39	1856.04
397.58	1884.13
397.77	1785.83
397.97	1891.15
398.16	1870.09
398.35	1846.68
398.55	1825.62
398.74	1940.30
398.93	1900.52
399.12	1970.73
399.32	1891.15
399.51	1928.60
399.70	1921.58
399.90	2019.88
400.09	2015.20
400.28	2094.78
400.47	2118.18
400.67	2073.71
400.86	1984.77
401.05	2111.16
401.24	2113.50
401.44	2179.04
401.63	2157.97
401.82	2097.12
402.01	2176.70
402.21	2246.91
402.40	2129.89
402.59	2094.78
402.78	2202.44
402.97	2150.95
403.17	2314.79
403.36	2263.30
403.55	2338.20
403.74	2361.60
403.93	2349.90
404.13	2354.58
404.32	2406.07
404.51	2361.60
404.70	2401.39
404.89	2445.86
405.09	2443.52
405.28	2455.22
405.47	2399.05
405.66	2537.14
405.85	2525.44
406.05	2530.12
406.24	2560.55
406.43	2637.78
406.62	2637.78
406.81	2675.23
407.00	2654.17
407.20	2595.65
407.39	2644.81
407.58	2843.75
407.77	2785.24
407.96	2829.71
408.15	2686.94
408.34	2745.45
408.54	2768.85
408.73	2895.24
408.92	2864.82
409.11	2878.86
409.30	2911.63
409.49	2970.14
409.68	2904.60
409.87	2972.48
410.07	2972.48
410.26	2998.23
410.45	2977.16
410.64	3061.42
410.83	3070.78
411.02	3152.70
411.21	3225.26
411.40	3185.47
411.59	3265.05
411.78	3143.34
411.98	3126.96
412.17	3258.03
412.36	3251.00
412.55	3368.03
412.74	3433.57
412.93	3353.99
413.12	3304.84
413.31	3522.51
413.50	3492.08
413.69	3473.36
413.88	3686.34
414.07	3534.21
414.26	3698.05
414.45	3585.70
414.64	3646.55
414.83	3719.11
415.02	3705.07
415.22	3775.28
415.41	4030.40
415.60	4007.00
415.79	3779.97
415.98	4042.11
416.17	3918.06
416.36	3943.80
416.55	4009.34
416.74	4095.94
416.93	4046.79
417.12	4114.66
417.31	4252.75
417.50	4198.92
417.69	4297.22
417.88	4470.42
418.07	4269.14
418.26	4348.72
418.45	4276.16
418.64	4599.15
418.83	4500.85
419.02	4337.01
419.21	4573.41
419.39	4596.81
419.58	4538.30
419.77	4514.89
419.96	4629.58
420.15	4725.54
420.34	4652.98
420.53	4662.35
420.72	4748.95
420.91	4777.03
421.10	4786.40
421.29	4891.72
421.48	4823.84
421.67	4877.68
421.86	4660.01
422.05	4870.65
422.24	4809.80
422.43	4940.87
422.61	4983.00
422.80	4945.55
422.99	4999.38
423.18	4917.47
423.37	5125.77
423.56	4964.28
423.75	4943.21
423.94	4809.80
424.13	4688.09
424.32	4634.26
424.50	4968.96
424.69	5013.43
424.88	4922.15
425.07	4985.34
425.26	4966.62
425.45	4915.12
425.64	4936.19
425.83	5050.88
426.01	5125.77
426.20	5123.43
426.39	5121.09
426.58	5041.51
426.77	5013.43
426.96	5221.74
427.15	5142.16
427.33	5050.88
427.52	5308.34
427.71	5408.98
427.90	5373.87
428.09	5404.30
428.28	5322.38
428.46	5313.02
428.65	5313.02
428.84	5383.23
429.03	5533.03
429.22	5329.40
429.40	5514.30
429.59	5486.22
429.78	5432.38
429.97	5165.56
430.16	5605.58
430.34	5661.76
430.53	5710.91
430.72	5708.57
430.91	5664.10
431.10	5593.88
431.28	5806.87
431.47	5912.19
431.66	5827.93
431.85	5792.83
432.03	5989.43
432.22	6193.06
432.41	5926.24
432.60	5933.26
432.79	6132.20
432.97	5870.06
433.16	6221.14
433.35	5954.32
433.54	5987.09
433.72	6171.99
433.91	6043.26
434.10	6176.67
434.28	6090.07
434.47	6188.38
434.66	6246.89
434.85	6394.34
435.03	6382.64
435.22	6298.38
435.41	6506.69
435.59	6384.98
435.78	6485.62
435.97	6366.26
436.16	6431.79
436.34	6483.28
436.53	6553.50
436.72	6724.36
436.90	6436.47
437.09	6672.87
437.28	6492.65
437.46	6647.12
437.65	6640.10
437.84	7019.27
438.02	6803.94
438.21	6661.16
438.40	6799.26
438.58	7000.54
438.77	7040.33
438.96	6768.83
439.14	7026.29
439.33	7148.00
439.52	7164.38
439.70	7021.61
439.89	7194.81
440.08	7295.45
440.26	7492.05
440.45	7330.56
440.63	7634.83
440.82	7578.65
441.01	7555.25
441.19	7709.72
441.38	7761.22
441.57	7751.85
441.75	7864.20
441.94	7871.22
442.12	8107.62
442.31	8170.81
442.50	8119.32
442.68	8035.06
442.87	8042.08
443.05	8044.42
443.24	8409.54
443.43	8294.86
443.61	8098.25
443.80	8355.71
443.98	8269.11
444.17	7824.41
444.35	8138.04
444.54	8425.93
444.73	8264.43
444.91	8348.69
445.10	8262.09
445.28	8575.72
445.47	8559.34
445.65	8545.30
445.84	8430.61
446.02	8505.51
446.21	8477.42
446.39	8404.86
446.58	8545.30
446.77	8528.91
446.95	8334.65
447.14	8559.34
447.32	8491.46
447.51	8538.27
447.69	8641.26
447.88	8566.36
448.06	8601.47
448.25	8568.70
448.43	8748.92
448.62	8568.70
448.80	8320.60
448.99	8800.41
449.17	8730.20
449.36	8659.98
449.54	8833.18
449.73	8720.84
449.91	8929.14
450.10	8947.87
450.28	9240.44
450.46	8971.27
450.65	8912.76
450.83	9074.26
451.02	9158.52
451.20	9352.78
451.39	9247.46
451.57	9200.65
451.76	9195.96
451.94	9310.65
452.13	9303.63
452.31	9350.44
452.49	9114.05
452.68	9427.68
452.86	9341.08
453.05	9509.60
453.23	9514.28
453.42	9224.05
453.60	9291.93
453.78	9514.28
453.97	9467.47
454.15	9643.01
454.34	9722.59
454.52	9797.48
454.70	9837.27
454.89	9696.84
455.07	9738.97
455.26	9874.72
455.44	9991.75
455.62	10078.35
455.81	10258.57
455.99	9968.34
456.17	10045.58
456.36	10216.44
456.54	10146.22
456.73	10265.59
456.91	10314.74
457.09	10394.32
457.28	10516.03
457.46	10384.96
457.64	10464.54
457.83	10506.66
458.01	10291.34
458.19	10736.04
458.38	10445.81
458.56	10693.91
458.74	10576.88
458.93	10675.18
459.11	10813.28
459.29	10817.96
459.48	10923.28
459.66	10956.05
459.84	10822.64
460.03	11054.35
460.21	11197.12
460.39	10871.79
460.57	11052.01
460.76	11349.26
460.94	11246.27
461.12	11197.12
461.31	11162.01
461.49	11276.70
461.67	11204.14
461.85	11616.08
462.04	11606.72
462.22	11592.67
462.40	11506.07
462.59	11433.52
462.77	11494.37
462.95	11634.80
463.13	11782.26
463.32	11798.64
463.50	11808.00
463.68	11840.77
463.86	11950.78
464.05	11534.16
464.23	11726.08
464.41	12056.10
464.59	11887.58
464.78	11971.84
464.96	12114.61
465.14	11925.03
465.32	12037.38
465.50	12009.29
465.69	12037.38
465.87	12170.79
466.05	12318.24
466.23	12341.64
466.41	12327.60
466.60	12769.96
466.78	12226.96
466.96	12505.48
467.14	12404.84
467.32	12554.63
467.51	12774.64
467.69	12145.04
467.87	12437.61
468.05	12681.02
468.23	12241.00
468.41	12444.63
468.60	12730.17
468.78	12812.09
468.96	12879.97
469.14	12767.62
469.32	13144.45
469.50	12931.46
469.69	13128.06
469.87	13153.81
470.05	13338.71
470.23	13277.86
470.41	13341.05
470.59	13441.70
470.77	13158.49
470.95	13666.39
471.14	13575.11
471.32	13008.70
471.50	13862.99
471.68	13769.37
471.86	13785.76
472.04	13823.20
472.22	13973.00
472.40	13839.59
472.58	13832.57
472.77	14054.92
472.95	14171.94
473.13	14640.05
473.31	14040.87
473.49	14265.57
473.67	14232.80
473.85	14242.16
474.03	14733.67
474.21	14782.82
474.39	14799.21
474.57	14626.01
474.75	14876.44
474.93	15222.84
475.12	15014.54
475.30	15133.90
475.48	14906.87
475.66	15269.66
475.84	15379.66
476.02	15405.41
476.20	15438.17
476.38	15826.70
476.56	16135.65
476.74	16081.82
476.92	16123.95
477.10	15857.13
477.28	16126.29
477.46	16395.45
477.64	16290.13
477.82	16496.10
478.00	17099.95
478.18	16837.81
478.36	17238.05
478.54	17247.41
478.72	17334.01
478.90	17722.54
479.08	17788.07
479.26	17858.29
479.44	17720.20
479.62	18038.51
479.80	17923.82
479.98	18422.36
480.16	18848.33
480.34	18132.13
480.52	18743.01
480.70	18904.51
480.88	18581.51
481.06	18838.97
481.24	18991.11
481.41	19248.57
481.59	19297.72
481.77	19648.80
481.95	19655.82
482.13	19707.31
482.31	20086.48
482.49	20470.33
482.67	20458.62
482.85	20526.50
483.03	20877.58
483.21	20847.15
483.39	21142.06
483.57	20713.74
483.74	21411.22
483.92	21472.07
484.10	21383.13
484.28	21979.97
484.46	22553.40
484.64	22302.96
484.82	22218.71
485.00	22595.53
485.18	22920.87
485.35	23000.44
485.53	22806.18
485.71	23524.72
485.89	23328.12
486.07	23293.01
486.25	23386.63
486.43	23828.99
486.61	23700.26
486.78	24051.34
486.96	24123.90
487.14	24725.42
487.32	24732.44
487.50	25060.12
487.68	25397.15
487.85	25450.99
488.03	26078.25
488.21	25853.56
488.39	26071.23
488.57	26504.23
488.75	26340.39
488.92	26628.27
489.10	26742.96
489.28	26836.58
489.46	26986.38
489.64	27278.94
489.81	27615.98
489.99	27740.03
490.17	27826.63
490.35	28404.74
490.53	28393.04
490.70	28652.84
490.88	28741.78
491.06	28919.66
491.24	29109.24
491.41	29324.57
491.59	29600.76
491.77	29383.09
491.95	29738.85
492.13	29923.75
492.30	30141.42
492.48	29933.11
492.66	30410.58
492.84	30508.88
493.01	31084.65
493.19	30881.03
493.37	30962.95
493.54	31330.41
493.72	31548.08
493.90	31527.02
494.08	31814.90
494.25	32135.56
494.43	32189.39
494.61	32500.68
494.79	32542.81
494.96	32381.31
495.14	32821.33
495.32	33310.50
495.49	33141.99
495.67	33392.42
495.85	33507.11
496.02	34167.14
496.20	34258.42
496.38	34368.43
496.55	34649.29
496.73	34944.20
496.91	35005.05
497.09	35028.46
497.26	35143.14
497.44	35505.93
497.62	35803.17
497.79	35658.06
497.97	35681.47
498.14	36182.34
498.32	36893.86
498.50	36594.28
498.67	36828.33
498.85	36631.72
499.03	36774.50
499.20	37141.96
499.38	36694.92
499.56	37181.75
499.73	37221.54
499.91	38080.52
500.08	37783.27
500.26	37539.85
500.44	37567.94
500.61	38033.71
500.79	37963.49
500.97	38483.09
501.14	39065.88
501.32	38693.74
501.49	38431.60
501.67	38951.20
501.84	39290.57
502.02	38597.77
502.20	39145.46
502.37	39463.77
502.55	39196.95
502.72	39433.35
502.90	40212.74
503.07	39786.77
503.25	40343.81
503.43	40123.80
503.60	40116.78
503.78	40769.79
503.95	40329.77
504.13	40854.05
504.30	40884.48
504.48	40542.76
504.65	41287.05
504.83	41481.31
505.01	41942.40
505.18	41570.25
505.36	41467.27
505.53	41729.41
505.71	41656.85
505.88	42099.22
506.06	41729.41
506.23	42480.72
506.41	42017.30
506.58	42401.14
506.76	42639.88
506.93	42408.17
507.11	42593.07
507.28	42494.77
507.46	43124.37
507.63	43213.31
507.81	43283.53
507.98	43594.82
508.16	43625.25
508.33	43971.64
508.50	43812.49
508.68	43620.56
508.85	44205.70
509.03	43943.56
509.20	44711.25
509.38	44690.19
509.55	44626.99
509.73	45085.74
509.90	44926.58
510.08	44886.79
510.25	44776.79
510.42	45366.60
510.60	45404.05
510.77	45535.12
510.95	45399.37
511.12	45595.98
511.30	45776.20
511.47	45427.46
511.64	45663.85
511.82	46113.23
511.99	46146.00
512.17	46047.70
512.34	46127.28
512.51	46499.42
512.69	46698.37
512.86	46726.46
513.04	46834.12
513.21	47096.26
513.38	47056.47
513.56	47222.65
513.73	46820.08
513.90	47143.07
514.08	47283.50
514.25	47320.95
514.43	47601.82
514.60	47632.24
514.77	47606.50
514.95	47915.45
515.12	48095.67
515.29	47655.65
515.47	48622.29
515.64	48137.80
515.81	48350.79
515.99	48886.77
516.16	48802.51
516.33	48622.29
516.51	48734.63
516.68	48802.51
516.85	48488.88
517.03	48994.43
517.20	48978.05
517.37	49116.14
517.54	48999.12
517.72	49207.42
517.89	49549.14
518.06	49528.08
518.24	49366.58
518.41	49392.33
518.58	49631.06
518.75	49631.06
518.93	50080.44
519.10	49698.94
519.27	50382.37
519.45	49544.46
519.62	50085.12
519.79	50103.85
519.96	50181.09
520.14	50567.27
520.31	50328.54
520.48	50571.96
520.65	50703.03
520.83	50885.59
521.00	51086.87
521.17	50536.85
521.34	50941.76
521.52	50862.18
521.69	51253.05
521.86	51231.99
522.03	51400.50
522.20	51405.19
522.38	51533.92
522.55	51679.03
522.72	51674.35
522.89	51732.86
523.07	51714.14
523.24	51838.18
523.41	52264.16
523.58	51849.89
523.75	51875.63
523.92	52025.43
524.10	52200.97
524.27	52135.43
524.44	52072.24
524.61	52559.07
524.78	52470.13
524.96	52505.24
525.13	52809.51
525.30	52779.08
525.47	52795.46
525.64	52697.16
525.81	52968.66
525.98	52835.25
526.16	52395.23
526.33	52781.42
526.50	53151.23
526.67	52872.70
526.84	53081.01
527.01	52945.26
527.18	52832.91
527.36	53010.79
527.53	52989.73
527.70	53549.12
527.87	53511.67
528.04	53282.30
528.21	53670.82
528.38	53368.90
528.55	53577.20
528.72	53736.36
528.89	53275.27
529.07	53907.22
529.24	53579.54
529.41	53776.15
529.58	53876.79
529.75	53539.75
529.92	54115.53
530.09	53996.16
530.26	54143.61
530.43	54497.03
530.60	54012.54
530.77	53984.46
530.94	54363.62
531.11	54307.45
531.28	54368.30
531.46	54417.46
531.63	54410.43
531.80	54372.99
531.97	54782.58
532.14	54754.49
532.31	54698.32
532.48	54656.19
532.65	54951.10
532.82	54733.43
532.99	54773.22
533.16	54803.64
533.33	55011.95
533.50	55107.91
533.67	54967.48
533.84	54979.18
534.01	55175.79
534.18	55086.85
534.35	55278.77
534.52	54986.21
534.69	55370.05
534.86	55435.59
535.03	55426.23
535.20	55405.16
535.37	55643.90
535.54	55400.48
535.71	55381.76
535.88	55884.97
536.05	55657.94
536.22	55599.43
536.38	55746.88
536.55	55454.31
536.72	56018.38
536.89	55669.64
537.06	55882.63
537.23	55690.71
537.40	55756.24
537.57	55938.80
537.74	55969.23
537.91	56109.66
538.08	56074.55
538.25	55927.10
538.42	56065.19
538.59	56404.57
538.75	56170.52
538.92	56189.24
539.09	56535.64
539.26	56219.67
539.43	56123.71
539.60	56636.28
539.77	56322.65
539.94	56418.61
540.11	56591.81
540.28	56617.56
540.44	56647.99
540.61	56530.96
540.78	56552.02
540.95	56701.82
541.12	56404.57
541.29	56577.77
541.46	56795.44
541.62	56601.18
541.79	56753.31
541.96	56647.99
542.13	56722.88
542.30	56865.66
542.47	56879.70
542.63	56910.13
542.80	57146.52
542.97	57354.83
543.14	57343.12
543.31	57127.80
543.48	57336.10
543.64	57626.33
543.81	57623.99
543.98	57247.16
544.15	57638.03
544.32	57626.33
544.48	57551.43
544.65	57504.62
544.82	57626.33
544.99	57481.22
545.16	57827.62
545.32	57572.50
545.49	57642.71
545.66	58064.01
545.83	57820.59
546.00	58075.71
546.16	57836.98
546.33	57719.95
546.50	57647.39
546.67	58038.26
546.83	57516.32
547.00	57958.69
547.17	57895.49
547.34	57764.42
547.50	58129.54
547.67	58251.25
547.84	58071.03
548.00	58307.43
548.17	58429.13
548.34	58358.92
548.51	58412.75
548.67	58546.16
548.84	58316.79
549.01	58387.00
549.18	58166.99
549.34	58541.48
549.51	58475.94
549.68	58518.07
549.84	58464.24
550.01	58635.10
550.18	58522.76
550.34	58569.57
550.51	58742.77
550.68	58604.67
550.84	58387.00
551.01	58873.84
551.18	58522.76
551.34	58782.55
551.51	58897.24
551.68	58705.32
551.84	58649.14
552.01	58478.28
552.18	58805.96
552.34	58525.10
552.51	58782.55
552.68	58574.25
552.84	58848.09
553.01	59058.74
553.18	59025.97
553.34	59002.56
553.51	58922.99
553.67	58925.33
553.84	58958.09
554.01	59157.04
554.17	59011.93
554.34	59011.93
554.51	59201.51
554.67	59311.52
554.84	59255.34
555.00	59056.40
555.17	59098.53
555.33	59061.08
555.50	59117.25
555.67	59337.26
555.83	59117.25
556.00	59306.83
556.16	59540.89
556.33	59461.31
556.50	59503.44
556.66	59538.55
556.83	59363.01
556.99	59718.77
557.16	59695.36
557.32	59465.99
557.49	59711.75
557.65	59480.03
557.82	59552.59
557.98	59386.41
558.15	59470.67
558.32	59615.79
558.48	59491.74
558.65	59758.56
558.81	59753.88
558.98	59440.24
559.14	59803.03
559.31	59767.92
559.47	59772.60
559.64	59973.89
559.80	59714.09
559.97	59884.95
560.13	59751.54
560.30	59842.82
560.46	59985.59
560.63	59922.40
560.79	59861.54
560.96	60221.98
561.12	59906.01
561.29	60046.44
561.45	59962.18
561.61	60191.56
561.78	59948.14
561.94	60055.81
562.11	60123.68
562.27	59814.73
562.44	60355.39
562.60	60079.21
562.77	60149.43
562.93	59695.36
563.10	59978.57
563.26	59880.27
563.42	60231.35
563.59	60203.26
563.75	60111.98
563.92	60095.60
564.08	60287.52
564.24	60383.48
564.41	60154.11
564.57	60292.20
564.74	60170.49
564.90	60275.82
565.07	60378.80
565.23	60388.16
565.39	60191.56
565.56	60463.06
565.72	60477.10
565.88	60430.29
566.05	60219.64
566.21	60196.24
566.38	60533.28
566.54	60516.89
566.70	60404.55
566.87	60217.30
567.03	60542.64
567.19	60505.19
567.36	60568.38
567.52	60453.70
567.68	60528.59
567.85	60500.51
568.01	60568.38
568.17	60460.72
568.34	60645.62
568.50	60439.65
568.66	60406.89
568.83	60535.62
568.99	60514.55
569.15	60626.90
569.32	60610.51
569.48	60753.29
569.64	60638.60
569.81	60727.54
569.97	60441.99
570.13	60601.15
570.30	60404.55
570.46	60491.15
570.62	60736.90
570.78	60554.34
570.95	60706.47
571.11	60767.33
571.27	60650.30
571.43	60793.07
571.60	60849.25
571.76	60704.13
571.92	60762.65
572.09	60713.50
572.25	60718.18
572.41	60465.40
572.57	60889.04
572.74	60818.82
572.90	60882.02
573.06	60725.20
573.22	60650.30
573.38	60697.11
573.55	60884.36
573.71	60914.78
573.87	60912.44
574.03	60697.11
574.20	60921.80
574.36	60694.77
574.52	60757.97
574.68	60879.67
574.84	60851.59
575.01	60795.42
575.17	60638.60
575.33	60945.21
575.49	60779.03
575.65	60764.99
575.82	61050.53
575.98	60924.14
576.14	61029.47
576.30	61113.73
576.46	60743.92
576.62	60786.05
576.79	60860.95
576.95	60587.11
577.11	61066.92
577.27	60921.80
577.43	61130.11
577.59	60928.83
577.75	60973.30
577.92	60889.04
578.08	60734.56
578.24	61207.35
578.40	60970.96
578.56	61013.08
578.72	61162.88
578.88	61085.64
579.04	61162.88
579.21	61029.47
579.37	61144.16
579.53	61202.67
579.69	61010.74
579.85	60935.85
580.01	61193.31
580.17	60797.76
580.33	60996.70
580.49	61207.35
580.65	61020.11
580.82	61048.19
580.98	61038.83
581.14	60910.10
581.30	61144.16
581.46	61102.03
581.62	61226.07
581.78	61104.37
581.94	61080.96
582.10	60975.64
582.26	61069.26
582.42	60985.00
582.58	61277.57
582.74	61085.64
582.90	61034.15
583.06	60926.49
583.22	61041.17
583.38	61020.11
583.54	61141.81
583.70	60863.29
583.86	61010.74
584.02	61197.99
584.18	61095.00
584.34	61193.31
584.50	61214.37
584.66	61008.40
584.82	61179.26
584.98	61022.45
585.14	61235.44
585.30	61041.17
585.46	61144.16
585.62	61102.03
585.78	61270.54
585.94	61102.03
586.10	61193.31
586.26	61038.83
586.42	61251.82
586.58	61261.18
586.74	61247.14
586.90	61104.37
587.06	61038.83
587.22	61237.78
587.38	61111.39
587.54	61366.51
587.70	61504.60
587.86	61116.07
588.02	61197.99
588.18	61310.33
588.34	61062.24
588.49	61193.31
