SpectraSuite Data File
++++++++++++++++++++++++++++++++++++
Date: Fri Oct 25 11:23:07 EDT 2013
User: price-jones
Dark Spectrum Present: No
Reference Spectrum Present: No
Number of Sampled Component Spectra: 1
Spectrometers: USB2+H05261
Integration Time (usec): 100000 (USB2+H05261)
Spectra Averaged: 1 (USB2+H05261)
Boxcar Smoothing: 0 (USB2+H05261)
Correct for Electrical Dark: No (USB2+H05261)
Strobe/Lamp Enabled: No (USB2+H05261)
Correct for Detector Non-linearity: No (USB2+H05261)
Correct for Stray Light: No (USB2+H05261)
Number of Pixels in Processed Spectrum: 2048
>>>>>Begin Processed Spectral Data<<<<<
365.73	236.39
365.92	236.39
366.12	236.39
366.32	142.77
366.52	131.07
366.72	91.28
366.91	105.32
367.11	126.39
367.31	117.03
367.51	51.49
367.70	131.07
367.90	145.11
368.10	140.43
368.30	159.16
368.49	133.41
368.69	161.50
368.89	191.92
369.09	149.79
369.28	156.82
369.48	159.16
369.68	201.29
369.87	259.80
370.07	117.03
370.27	297.25
370.47	315.97
370.66	559.39
370.86	545.34
371.06	617.90
371.25	678.76
371.45	697.48
371.65	678.76
371.84	727.91
372.04	716.20
372.24	723.23
372.44	685.78
372.63	704.50
372.83	821.53
373.03	739.61
373.22	664.71
373.42	767.70
373.62	880.04
373.81	882.38
374.01	861.32
374.21	873.02
374.40	826.21
374.60	882.38
374.79	793.44
374.99	837.91
375.19	777.06
375.38	826.21
375.58	716.20
375.78	833.23
375.97	868.34
376.17	884.72
376.37	926.85
376.56	840.25
376.76	854.30
376.95	936.21
377.15	870.68
377.35	901.11
377.54	929.19
377.74	980.68
377.93	922.17
378.13	980.68
378.33	940.90
378.52	959.62
378.72	947.92
378.91	924.51
379.11	992.39
379.31	870.68
379.50	901.11
379.70	1057.92
379.89	1015.79
380.09	964.30
380.28	983.02
380.48	1034.52
380.68	964.30
380.87	976.00
381.07	978.34
381.26	1011.11
381.46	997.07
381.65	1095.37
381.85	1055.58
382.04	1128.14
382.24	954.94
382.43	1090.69
382.63	1093.03
382.83	1055.58
383.02	1130.48
383.22	1158.57
383.41	1064.94
383.61	1086.01
383.80	1172.61
384.00	1111.75
384.19	1088.35
384.39	1088.35
384.58	1071.97
384.78	1207.72
384.97	1249.85
385.17	1277.93
385.36	1184.31
385.56	1151.54
385.75	1130.48
385.95	1198.35
386.14	1217.08
386.34	1151.54
386.53	1277.93
386.72	1210.06
386.92	1277.93
387.11	1226.44
387.31	1212.40
387.50	1247.51
387.70	1301.34
387.89	1263.89
388.09	1280.27
388.28	1310.70
388.48	1289.64
388.67	1327.08
388.86	1327.08
389.06	1275.59
389.25	1315.38
389.45	1359.85
389.64	1299.00
389.84	1345.81
390.03	1430.07
390.22	1383.26
390.42	1390.28
390.61	1336.45
390.81	1430.07
391.00	1366.87
391.19	1413.68
391.39	1490.92
391.58	1490.92
391.78	1451.13
391.97	1504.96
392.16	1472.20
392.36	1493.26
392.55	1530.71
392.75	1582.20
392.94	1554.12
393.13	1514.33
393.33	1603.27
393.52	1568.16
393.71	1596.25
393.91	1621.99
394.10	1511.99
394.29	1610.29
394.49	1645.40
394.68	1717.95
394.88	1685.19
395.07	1776.47
395.26	1689.87
395.46	1680.50
395.65	1706.25
395.84	1830.30
396.04	1717.95
396.23	1640.72
396.42	1762.42
396.62	1750.72
396.81	1802.21
397.00	1708.59
397.19	1767.10
397.39	1813.92
397.58	1764.76
397.77	1675.82
397.97	1788.17
398.16	1832.64
398.35	1849.02
398.55	1863.07
398.74	1895.83
398.93	1935.62
399.12	1989.46
399.32	1912.22
399.51	2050.31
399.70	2071.37
399.90	1940.30
400.09	2062.01
400.28	2062.01
400.47	2022.22
400.67	2045.63
400.86	2146.27
401.05	2167.34
401.24	2120.53
401.44	2143.93
401.63	2064.35
401.82	2214.15
402.01	2188.40
402.21	2218.83
402.40	2246.91
402.59	2272.66
402.78	2211.81
402.97	2326.49
403.17	2270.32
403.36	2279.68
403.55	2230.53
403.74	2445.86
403.93	2387.35
404.13	2377.98
404.32	2429.48
404.51	2429.48
404.70	2459.90
404.89	2340.54
405.09	2520.76
405.28	2436.50
405.47	2546.50
405.66	2471.61
405.85	2534.80
406.05	2499.69
406.24	2516.08
406.43	2572.25
406.62	2700.98
406.81	2644.81
407.00	2565.23
407.20	2663.53
407.39	2672.89
407.58	2764.17
407.77	2803.96
407.96	2785.24
408.15	2775.88
408.34	2920.99
408.54	2715.02
408.73	2747.79
408.92	2693.96
409.11	2995.89
409.30	3009.93
409.49	2855.45
409.68	2920.99
409.87	3000.57
410.07	3014.61
410.26	3082.49
410.45	3038.02
410.64	2993.55
410.83	3096.53
411.02	3185.47
411.21	3211.22
411.40	3084.83
411.59	3311.86
411.78	3258.03
411.98	3192.49
412.17	3358.67
412.36	3386.76
412.55	3403.14
412.74	3426.54
412.93	3447.61
413.12	3468.67
413.31	3545.91
413.50	3550.59
413.69	3548.25
413.88	3595.06
414.07	3632.51
414.26	3616.13
414.45	3581.02
414.64	3730.81
414.83	3602.08
415.02	3829.12
415.22	3896.99
415.41	3918.06
415.60	3934.44
415.79	3882.95
415.98	3962.53
416.17	4009.34
416.36	3971.89
416.55	4002.32
416.74	4152.11
416.93	4074.87
417.12	4133.39
417.31	4184.88
417.50	4290.20
417.69	4337.01
417.88	4332.33
418.07	4161.47
418.26	4201.26
418.45	4362.76
418.64	4519.57
418.83	4547.66
419.02	4662.35
419.21	4542.98
419.39	4767.67
419.58	4514.89
419.77	4608.51
419.96	4550.00
420.15	4594.47
420.34	4643.62
420.53	4641.28
420.72	4737.24
420.91	4791.08
421.10	4849.59
421.29	4760.65
421.48	4774.69
421.67	4713.84
421.86	4865.97
422.05	4889.38
422.24	4809.80
422.43	4828.53
422.61	4858.95
422.80	5013.43
422.99	4847.25
423.18	5050.88
423.37	5095.35
423.56	5027.47
423.75	4964.28
423.94	4835.55
424.13	4617.88
424.32	4704.48
424.50	5020.45
424.69	5238.12
424.88	5163.22
425.07	4924.49
425.26	4978.32
425.45	5022.79
425.64	4985.34
425.83	4917.47
426.01	5015.77
426.20	4997.04
426.39	5097.69
426.58	5078.96
426.77	5142.16
426.96	5046.20
427.15	5198.33
427.33	5235.78
427.52	5252.16
427.71	5301.31
427.90	5394.93
428.09	5378.55
428.28	5329.40
428.46	5607.92
428.65	5387.91
428.84	5540.05
429.03	5439.40
429.22	5416.00
429.40	5551.75
429.59	5593.88
429.78	5214.71
429.97	5268.55
430.16	5282.59
430.34	5687.50
430.53	5668.78
430.72	5640.69
430.91	5717.93
431.10	5621.97
431.28	5961.34
431.47	5856.02
431.66	5909.85
431.85	5998.79
432.03	6071.35
432.22	6022.20
432.41	5891.13
432.60	5921.56
432.79	6069.01
432.97	6242.21
433.16	6167.31
433.35	6111.14
433.54	6143.91
433.72	6188.38
433.91	6160.29
434.10	6345.19
434.28	6043.26
434.47	6272.64
434.66	6249.23
434.85	6162.63
435.03	6392.00
435.22	6368.60
435.41	6373.28
435.59	6403.71
435.78	6546.48
435.97	6558.18
436.16	6588.61
436.34	6354.55
436.53	6588.61
436.72	6761.81
436.90	6597.97
437.09	6628.40
437.28	6572.22
437.46	6593.29
437.65	6743.08
437.84	7061.40
438.02	6740.74
438.21	6890.54
438.40	6836.70
438.58	7169.06
438.77	7143.32
438.96	6916.28
439.14	6855.43
439.33	7047.35
439.52	7403.11
439.70	7255.66
439.89	7585.68
440.08	7449.93
440.26	7412.48
440.45	7349.28
440.63	7435.88
440.82	7604.40
441.01	7592.70
441.19	7751.85
441.38	7901.65
441.57	7779.94
441.75	7971.86
441.94	7955.48
442.12	7927.39
442.31	8196.56
442.50	8236.35
442.68	7957.82
442.87	8294.86
443.05	8358.05
443.24	8566.36
443.43	8081.87
443.61	8313.58
443.80	8692.75
443.98	8149.75
444.17	7871.22
444.35	8299.54
444.54	8439.97
444.73	8234.00
444.91	8465.72
445.10	8564.02
445.28	8549.98
445.47	8278.47
445.65	8463.38
445.84	8587.43
446.02	8573.38
446.21	8451.67
446.39	8444.65
446.58	8627.21
446.77	8442.31
446.95	8376.78
447.14	8365.07
447.32	8580.40
447.51	8456.36
447.69	8379.12
447.88	8657.64
448.06	8564.02
448.25	8807.44
448.43	8697.43
448.62	8652.96
448.80	8753.60
448.99	8833.18
449.17	8741.90
449.36	8528.91
449.54	8952.55
449.73	9032.13
449.91	9121.07
450.10	8954.89
450.28	9057.87
450.46	9151.49
450.65	9151.49
450.83	9184.26
451.02	9184.26
451.20	9261.50
451.39	9193.62
451.57	9376.19
451.76	9308.31
451.94	9273.20
452.13	9465.13
452.31	9362.14
452.49	9191.28
452.68	9451.08
452.86	9373.85
453.05	9675.77
453.23	9846.63
453.42	9518.96
453.60	9408.95
453.78	9628.96
453.97	9659.39
454.15	9628.96
454.34	9729.61
454.52	9914.51
454.70	9778.76
454.89	9736.63
455.07	9874.72
455.26	10064.30
455.44	9963.66
455.62	10076.01
455.81	10113.45
455.99	10071.33
456.17	10150.90
456.36	10249.21
456.54	10406.02
456.73	10387.30
456.91	10431.77
457.09	10504.32
457.28	10630.71
457.46	10382.62
457.64	10799.23
457.83	10644.76
458.01	10478.58
458.19	11108.18
458.38	10572.20
458.56	10881.15
458.74	10799.23
458.93	10813.28
459.11	10977.11
459.29	10820.30
459.48	10906.90
459.66	10796.89
459.84	11154.99
460.03	11288.40
460.21	11087.12
460.39	11112.86
460.57	10977.11
460.76	11335.21
460.94	11286.06
461.12	11206.48
461.31	11470.97
461.49	11204.14
461.67	11339.90
461.85	11726.08
462.04	11384.37
462.22	11590.33
462.40	11733.11
462.59	11482.67
462.77	11730.76
462.95	11786.94
463.13	11662.89
463.32	11728.42
463.50	11782.26
463.68	11786.94
463.86	12091.21
464.05	11824.39
464.23	11548.20
464.41	12168.45
464.59	11559.91
464.78	12362.71
464.96	12107.59
465.14	11964.82
465.32	12133.34
465.50	12102.91
465.69	12287.81
465.87	12468.03
466.05	12322.92
466.23	12367.39
466.41	12489.10
466.60	12533.57
466.78	12222.28
466.96	12269.09
467.14	12362.71
467.32	12533.57
467.51	12819.11
467.69	12470.37
467.87	12575.70
468.05	12872.95
468.23	12528.89
468.41	12795.71
468.60	12671.66
468.78	12814.43
468.96	12819.11
469.14	12896.35
469.32	13268.50
469.50	12800.39
469.69	13149.13
469.87	13413.61
470.05	12975.93
470.23	13233.39
470.41	13160.83
470.59	13437.02
470.77	13434.68
470.95	13343.39
471.14	13626.60
471.32	13277.86
471.50	13432.33
471.68	13802.14
471.86	13998.74
472.04	14040.87
472.22	14005.77
472.40	13919.17
472.58	14225.78
472.77	14038.53
472.95	14459.83
473.13	14787.50
473.31	14090.02
473.49	14277.27
473.67	14595.58
473.85	14513.66
474.03	14789.85
474.21	14827.29
474.39	15007.52
474.57	14981.77
474.75	15051.99
474.93	14995.81
475.12	15260.29
475.30	15477.96
475.48	15059.01
475.66	15351.57
475.84	15454.56
476.02	15536.48
476.20	15524.77
476.38	15665.21
476.56	16411.84
476.74	16149.70
476.92	15999.90
477.10	16004.58
477.28	16360.34
477.46	16236.30
477.64	16608.44
477.82	16610.78
478.00	16772.28
478.18	16947.82
478.36	17181.87
478.54	17083.57
478.72	17216.98
478.90	17324.65
479.08	17820.84
479.26	17823.18
479.44	17839.56
479.62	17958.93
479.80	18300.65
479.98	18403.63
480.16	19096.43
480.34	18368.52
480.52	18883.44
480.70	18766.42
480.88	18679.82
481.06	18838.97
481.24	19220.48
481.41	19440.49
481.59	19557.52
481.77	19847.74
481.95	19943.70
482.13	19791.57
482.31	20163.72
482.49	20711.40
482.67	20589.69
482.85	20418.83
483.03	20631.82
483.21	21067.16
483.39	21018.01
483.57	21214.62
483.74	21703.79
483.92	21518.89
484.10	21462.71
484.28	21860.60
484.46	22239.77
484.64	22855.33
484.82	22422.33
485.00	22457.44
485.18	22820.22
485.35	23154.92
485.53	23215.77
485.71	23470.89
485.89	23941.34
486.07	23442.81
486.25	23587.92
486.43	23716.65
486.61	24226.89
486.78	24479.66
486.96	24376.68
487.14	24856.49
487.32	24776.91
487.50	25280.13
487.68	25158.42
487.85	25455.67
488.03	25619.50
488.21	25963.56
488.39	26237.41
488.57	26169.53
488.75	26511.25
488.92	27000.42
489.10	27098.72
489.28	27391.29
489.46	27461.51
489.64	27372.57
489.81	27985.79
489.99	27803.22
490.17	28058.34
490.35	28650.50
490.53	28577.94
490.70	29015.62
490.88	28552.20
491.06	29481.39
491.24	29165.42
491.41	29418.19
491.59	29710.76
491.77	30003.33
491.95	29982.26
492.13	29928.43
492.30	30183.55
492.48	30258.45
492.66	30649.32
492.84	30768.68
493.01	31199.34
493.19	31349.14
493.37	31309.35
493.54	31515.31
493.72	31725.96
493.90	31627.66
494.08	32137.90
494.25	32350.88
494.43	32252.58
494.61	32746.44
494.79	32519.40
494.96	32795.59
495.14	33134.96
495.32	33677.97
495.49	33771.59
495.67	33572.64
495.85	33954.15
496.02	34106.29
496.20	34155.44
496.38	34424.60
496.55	34705.46
496.73	35196.98
496.91	34995.69
497.09	35143.14
497.26	35438.05
497.44	35161.87
497.62	35498.91
497.79	36119.15
497.97	36182.34
498.14	36280.64
498.32	36528.74
498.50	36889.18
498.67	37069.40
498.85	36360.22
499.03	37170.05
499.20	37371.33
499.38	37549.21
499.56	37200.47
499.73	37806.67
499.91	37471.98
500.08	38089.88
500.26	37727.10
500.44	38089.88
500.61	38141.37
500.79	38614.16
500.97	38347.34
501.14	38920.77
501.32	39192.27
501.49	39136.10
501.67	39522.29
501.84	39140.78
502.02	39302.28
502.20	39150.14
502.37	39873.37
502.55	39866.34
502.72	39789.11
502.90	39913.16
503.07	39711.87
503.25	40701.92
503.43	40287.64
503.60	40509.99
503.78	40727.66
503.95	40547.44
504.13	41062.36
504.30	41008.53
504.48	40926.61
504.65	41244.92
504.83	41338.54
505.01	41556.21
505.18	41897.93
505.36	42223.26
505.53	41820.69
505.71	42153.05
505.88	42202.20
506.06	41928.36
506.23	42754.57
506.41	42129.64
506.58	42607.11
506.76	42443.27
506.93	42859.89
507.11	42639.88
507.28	43122.03
507.46	43346.72
507.63	43285.87
507.81	43686.10
507.98	43442.68
508.16	43606.52
508.33	43753.97
508.50	43966.96
508.68	43903.77
508.85	44112.08
509.03	44715.93
509.20	44289.96
509.38	44615.29
509.55	44676.15
509.73	44830.62
509.90	44875.09
510.08	45057.65
510.25	45113.83
510.42	45240.21
510.60	45436.82
510.77	45867.48
510.95	45326.81
511.12	45574.91
511.30	45371.28
511.47	45708.32
511.64	45963.44
511.82	46253.67
511.99	46073.45
512.17	46777.95
512.34	46260.69
512.51	46576.66
512.69	46433.89
512.86	46344.95
513.04	46857.52
513.21	47058.81
513.38	46883.27
513.56	47505.85
513.73	47030.72
513.90	47447.34
514.08	47627.56
514.25	47791.40
514.43	47767.99
514.60	47927.15
514.77	47524.58
514.95	48119.07
515.12	47517.56
515.29	48100.35
515.47	48098.01
515.64	48552.07
515.81	48751.02
515.99	48381.21
516.16	48725.27
516.33	48704.21
516.51	49366.58
516.68	49219.13
516.85	49158.27
517.03	49429.77
517.20	49048.27
517.37	49518.71
517.54	49326.79
517.72	49336.15
517.89	49202.74
518.06	49703.62
518.24	49270.62
518.41	49474.24
518.58	50106.19
518.75	49354.88
518.93	49694.25
519.10	49668.51
519.27	50270.03
519.45	50284.07
519.62	50422.16
519.79	50452.59
519.96	50354.29
520.14	50597.70
520.31	50333.22
520.48	50880.91
520.65	50817.71
520.83	51381.78
521.00	51112.62
521.17	50815.37
521.34	51185.18
521.52	51470.72
521.69	51494.13
521.86	51592.43
522.03	51594.77
522.20	51554.98
522.38	51641.58
522.55	51690.73
522.72	51807.76
522.89	51742.22
523.07	52112.03
523.24	51786.69
523.41	52004.36
523.58	51774.99
523.75	52252.46
523.92	52147.14
524.10	52254.80
524.27	52406.94
524.44	52428.00
524.61	52547.37
524.78	52704.18
524.96	52669.08
525.13	52973.34
525.30	52547.37
525.47	52914.83
525.64	52832.91
525.81	52910.15
525.98	53081.01
526.16	52945.26
526.33	52774.40
526.50	53270.59
526.67	53268.25
526.84	53235.48
527.01	53167.61
527.18	53020.16
527.36	53310.38
527.53	53366.55
527.70	53883.81
527.87	53719.98
528.04	53741.04
528.21	53808.92
528.38	53652.10
528.55	54000.84
528.72	53801.89
528.89	53902.54
529.07	53860.41
529.24	53668.48
529.41	54188.08
529.58	54115.53
529.75	53935.30
529.92	54024.25
530.09	54120.21
530.26	54412.77
530.43	54522.78
530.60	54150.63
530.77	54019.56
530.94	54262.98
531.11	54347.24
531.28	54445.54
531.46	54553.21
531.63	54768.54
531.80	54571.93
531.97	54794.28
532.14	54747.47
532.31	54733.43
532.48	54827.05
532.65	54974.50
532.82	54787.26
532.99	55222.60
533.16	54770.88
533.33	55128.98
533.50	55084.51
533.67	54911.31
533.84	55070.46
534.01	55262.39
534.18	55175.79
534.35	55494.10
534.52	55501.12
534.69	55456.65
534.86	55587.72
535.03	55288.13
535.20	55554.96
535.37	55894.33
535.54	55611.13
535.71	55784.33
535.88	55538.57
536.05	55728.16
536.22	55821.78
536.38	55800.71
536.55	55835.82
536.72	55819.44
536.89	55753.90
537.06	55664.96
537.23	56086.26
537.40	55812.41
537.57	55887.31
537.74	56048.81
537.91	56156.47
538.08	56170.52
538.25	56058.17
538.42	56222.01
538.59	56453.72
538.75	56317.97
538.92	56451.38
539.09	56788.42
539.26	56266.48
539.43	56172.86
539.60	56477.13
539.77	56662.03
539.94	56816.50
540.11	56598.83
540.28	56678.41
540.44	56853.95
540.61	56629.26
540.78	56549.68
540.95	56741.61
541.12	56694.80
541.29	56624.58
541.46	56610.54
541.62	56748.63
541.79	56893.74
541.96	56800.12
542.13	56989.70
542.30	56652.67
542.47	57038.86
542.63	57132.48
542.80	57008.43
542.97	57055.24
543.14	57418.02
543.31	57509.30
543.48	57607.61
543.64	57743.36
543.81	57598.24
543.98	57518.67
544.15	57567.82
544.32	57771.44
544.48	57834.64
544.65	57654.42
544.82	57691.86
544.99	57528.03
545.16	57638.03
545.32	57778.46
545.49	57956.35
545.66	58089.76
545.83	57867.40
546.00	57897.83
546.16	57968.05
546.33	57748.04
546.50	57787.83
546.67	57757.40
546.83	57766.76
547.00	58033.58
547.17	57677.82
547.34	58211.46
547.50	58262.96
547.67	58349.56
547.84	58340.19
548.00	58417.43
548.17	58625.74
548.34	58370.62
548.51	58431.47
548.67	58405.73
548.84	58415.09
549.01	58265.30
549.18	58571.91
549.34	58663.19
549.51	58440.84
549.68	58726.38
549.84	58604.67
550.01	58794.26
550.18	58543.82
550.34	58693.61
550.51	58726.38
550.68	58726.38
550.84	58777.87
551.01	58972.14
551.18	58820.00
551.34	58885.54
551.51	58944.05
551.68	58787.24
551.84	58791.92
552.01	58747.45
552.18	59042.35
552.34	58815.32
552.51	59028.31
552.68	58812.98
552.84	58965.12
553.01	59168.74
553.18	59199.17
553.34	59217.89
553.51	59040.01
553.67	59009.59
553.84	59009.59
554.01	59072.78
554.17	59049.38
554.34	59332.58
554.51	59297.47
554.67	59271.73
554.84	59365.35
555.00	59173.42
555.17	59135.98
555.33	59292.79
555.50	59028.31
555.67	59416.84
555.83	59444.93
556.00	59337.26
556.16	59639.19
556.33	59657.91
556.50	59545.57
556.66	59826.43
556.83	59344.28
556.99	59636.85
557.16	59774.94
557.32	59725.79
557.49	59980.91
557.65	59416.84
557.82	59711.75
557.98	59625.15
558.15	59636.85
558.32	59671.96
558.48	59451.95
558.65	59721.11
558.81	59805.37
558.98	59686.00
559.14	59695.36
559.31	59833.46
559.47	59763.24
559.64	60135.38
559.80	59887.29
559.97	59896.65
560.13	59873.24
560.30	60100.28
560.46	59873.24
560.63	59964.52
560.79	59992.61
560.96	60081.55
561.12	60198.58
561.29	60051.12
561.45	60193.90
561.61	60259.43
561.78	60252.41
561.94	60093.25
562.11	59859.20
562.27	60107.30
562.44	60172.83
562.60	60177.51
562.77	60100.28
562.93	60051.12
563.10	60243.05
563.26	60062.83
563.42	60446.68
563.59	60224.32
563.75	60177.51
563.92	60254.75
564.08	60119.00
564.24	60425.61
564.41	60432.63
564.57	60353.05
564.74	60336.67
564.90	60434.97
565.07	60306.24
565.23	60460.72
565.39	60467.74
565.56	60477.10
565.72	60395.18
565.88	60467.74
566.05	60140.07
566.21	60278.16
566.38	60556.68
566.54	60437.31
566.70	60470.08
566.87	60516.89
567.03	60474.76
567.19	60933.51
567.36	60537.96
567.52	60477.10
567.68	60842.23
567.85	60577.75
568.01	60874.99
568.17	60542.64
568.34	60495.83
568.50	60437.31
568.66	60533.28
568.83	60563.70
568.99	60395.18
569.15	60748.60
569.32	60589.45
569.48	60605.83
569.64	61029.47
569.81	60793.07
569.97	60472.42
570.13	60612.85
570.30	60552.00
570.46	60783.71
570.62	60912.44
570.78	60956.91
570.95	60619.88
571.11	61020.11
571.27	60713.50
571.43	60793.07
571.60	61041.17
571.76	60722.86
571.92	60757.97
572.09	60933.51
572.25	60884.36
572.41	60914.78
572.57	60697.11
572.74	61113.73
572.90	60678.39
573.06	60842.23
573.22	60804.78
573.38	60732.22
573.55	60954.57
573.71	61165.22
573.87	60985.00
574.03	60828.18
574.20	60956.91
574.36	60928.83
574.52	60879.67
574.68	61024.79
574.84	61095.00
575.01	61080.96
575.17	61160.54
575.33	61102.03
575.49	60886.70
575.65	61118.41
575.82	60959.25
575.98	61031.81
576.14	60992.02
576.30	61073.94
576.46	60910.10
576.62	60933.51
576.79	61141.81
576.95	61024.79
577.11	61186.28
577.27	61041.17
577.43	61034.15
577.59	60966.27
577.75	60905.42
577.92	61010.74
578.08	61029.47
578.24	60874.99
578.40	61205.01
578.56	61010.74
578.72	60940.53
578.88	61247.14
579.04	61141.81
579.21	61078.62
579.37	61319.70
579.53	61256.50
579.69	61155.86
579.85	61214.37
580.01	61214.37
580.17	61024.79
580.33	61205.01
580.49	61275.22
580.65	61219.05
580.82	61205.01
580.98	61132.45
581.14	60947.55
581.30	61228.41
581.46	61099.68
581.62	61172.24
581.78	61087.98
581.94	61310.33
582.10	61158.20
582.26	61073.94
582.42	61151.18
582.58	61160.54
582.74	61062.24
582.90	61300.97
583.06	60959.25
583.22	60963.93
583.38	61102.03
583.54	61048.19
583.70	61160.54
583.86	61209.69
584.02	61050.53
584.18	61322.04
584.34	61272.88
584.50	61247.14
584.66	61069.26
584.82	60992.02
584.98	61315.01
585.14	61195.65
585.30	61160.54
585.46	61073.94
585.62	61352.46
585.78	61345.44
585.94	61109.05
586.10	61434.38
586.26	61462.47
586.42	61434.38
586.58	61392.25
586.74	61347.78
586.90	61146.50
587.06	61432.04
587.22	61305.65
587.38	61247.14
587.54	61432.04
587.70	61380.55
587.86	61392.25
588.02	61240.12
588.18	61492.89
588.34	61076.28
588.49	61202.67
