SpectraSuite Data File
++++++++++++++++++++++++++++++++++++
Date: Fri Oct 25 10:47:52 EDT 2013
User: price-jones
Dark Spectrum Present: No
Reference Spectrum Present: No
Number of Sampled Component Spectra: 1
Spectrometers: USB2+H05261
Integration Time (usec): 100000 (USB2+H05261)
Spectra Averaged: 1 (USB2+H05261)
Boxcar Smoothing: 0 (USB2+H05261)
Correct for Electrical Dark: No (USB2+H05261)
Strobe/Lamp Enabled: No (USB2+H05261)
Correct for Detector Non-linearity: No (USB2+H05261)
Correct for Stray Light: No (USB2+H05261)
Number of Pixels in Processed Spectrum: 2048
>>>>>Begin Processed Spectral Data<<<<<
365.73	88.94
365.92	88.94
366.12	88.94
366.32	25.75
366.52	42.13
366.72	119.37
366.91	0.00
367.11	49.15
367.31	14.04
367.51	14.04
367.70	11.70
367.90	0.00
368.10	58.51
368.30	18.72
368.49	21.06
368.69	60.85
368.89	35.11
369.09	46.81
369.28	124.05
369.48	140.43
369.68	88.94
369.87	128.73
370.07	70.22
370.27	163.84
370.47	243.42
370.66	292.57
370.86	379.17
371.06	456.40
371.25	472.79
371.45	400.23
371.65	465.77
371.84	440.02
372.04	512.58
372.24	435.34
372.44	472.79
372.63	472.79
372.83	514.92
373.03	578.11
373.22	493.85
373.42	437.68
373.62	521.94
373.81	580.45
374.01	498.53
374.21	503.22
374.40	552.37
374.60	479.81
374.79	554.71
374.99	594.50
375.19	557.05
375.38	587.47
375.58	470.45
375.78	617.90
375.97	524.28
376.17	671.73
376.37	510.24
376.56	505.56
376.76	568.75
376.95	685.78
377.15	648.33
377.35	533.64
377.54	617.90
377.74	573.43
377.93	603.86
378.13	613.22
378.33	662.37
378.52	528.96
378.72	641.31
378.91	589.82
379.11	650.67
379.31	610.88
379.50	660.03
379.70	543.00
379.89	592.16
380.09	638.97
380.28	674.07
380.48	660.03
380.68	613.22
380.87	674.07
381.07	671.73
381.26	720.88
381.46	643.65
381.65	674.07
381.85	662.37
382.04	645.99
382.24	692.80
382.43	683.44
382.63	685.78
382.83	702.16
383.02	795.78
383.22	692.80
383.41	662.37
383.61	695.14
383.80	753.65
384.00	699.82
384.19	748.97
384.39	699.82
384.58	748.97
384.78	706.84
384.97	755.99
385.17	765.36
385.36	779.40
385.56	716.20
385.75	737.27
385.95	837.91
386.14	854.30
386.34	809.83
386.53	858.98
386.72	812.17
386.92	887.06
387.11	784.08
387.31	823.87
387.50	760.67
387.70	786.42
387.89	830.89
388.09	784.08
388.28	873.02
388.48	763.01
388.67	894.08
388.86	950.26
389.06	922.17
389.25	889.40
389.45	912.81
389.64	901.11
389.84	943.24
390.03	901.11
390.22	887.06
390.42	945.58
390.61	1004.09
390.81	973.66
391.00	936.21
391.19	999.41
391.39	894.08
391.58	950.26
391.78	980.68
391.97	1015.79
392.16	891.74
392.36	950.26
392.55	980.68
392.75	954.94
392.94	976.00
393.13	964.30
393.33	912.81
393.52	898.77
393.71	1013.45
393.91	952.60
394.10	985.37
394.29	1158.57
394.49	1050.90
394.68	1118.78
394.88	1078.99
395.07	1158.57
395.26	1121.12
395.46	1144.52
395.65	1109.41
395.84	1139.84
396.04	1095.37
396.23	1090.69
396.42	1064.94
396.62	1221.76
396.81	1102.39
397.00	1137.50
397.19	1128.14
397.39	1125.80
397.58	1214.74
397.77	1287.29
397.97	1308.36
398.16	1165.59
398.35	1277.93
398.55	1263.89
398.74	1343.47
398.93	1385.60
399.12	1245.16
399.32	1284.95
399.51	1259.21
399.70	1317.72
399.90	1366.87
400.09	1397.30
400.28	1481.56
400.47	1327.08
400.67	1462.83
400.86	1383.26
401.05	1460.49
401.24	1533.05
401.44	1394.96
401.63	1411.34
401.82	1577.52
402.01	1479.22
402.21	1542.41
402.40	1469.86
402.59	1495.60
402.78	1521.35
402.97	1598.59
403.17	1544.75
403.36	1556.46
403.55	1554.12
403.74	1631.35
403.93	1617.31
404.13	1666.46
404.32	1565.82
404.51	1659.44
404.70	1729.66
404.89	1760.08
405.09	1682.85
405.28	1678.16
405.47	1680.50
405.66	1739.02
405.85	1722.63
406.05	1640.72
406.24	1781.15
406.43	1844.34
406.62	1820.94
406.81	1790.51
407.00	1870.09
407.20	1746.04
407.39	1851.36
407.58	1820.94
407.77	1952.01
407.96	1902.86
408.15	1956.69
408.34	1870.09
408.54	1994.14
408.73	2026.90
408.92	2143.93
409.11	2057.33
409.30	2071.37
409.49	1928.60
409.68	1900.52
409.87	2073.71
410.07	2176.70
410.26	2143.93
410.45	2146.27
410.64	2066.69
410.83	2265.64
411.02	2183.72
411.21	2113.50
411.40	2150.95
411.59	2246.91
411.78	2286.70
411.98	2289.04
412.17	2321.81
412.36	2438.84
412.55	2429.48
412.74	2377.98
412.93	2466.92
413.12	2387.35
413.31	2525.44
413.50	2548.84
413.69	2502.03
413.88	2555.86
414.07	2457.56
414.26	2537.14
414.45	2698.64
414.64	2668.21
414.83	2724.38
415.02	2729.06
415.22	2715.02
415.41	2792.26
415.60	2738.43
415.79	2775.88
415.98	2883.54
416.17	2832.05
416.36	2761.83
416.55	2806.30
416.74	2946.73
416.93	2899.92
417.12	2963.12
417.31	2909.29
417.50	2892.90
417.69	2998.23
417.88	3007.59
418.07	3082.49
418.26	2979.50
418.45	3077.80
418.64	3131.64
418.83	3187.81
419.02	3197.17
419.21	3103.55
419.39	3173.77
419.58	3215.90
419.77	3169.09
419.96	3447.61
420.15	3370.37
420.34	3311.86
420.53	3258.03
420.72	3346.97
420.91	3337.60
421.10	3398.46
421.29	3407.82
421.48	3428.88
421.67	3351.65
421.86	3372.71
422.05	3431.23
422.24	3330.58
422.43	3426.54
422.61	3426.54
422.80	3478.04
422.99	3449.95
423.18	3496.76
423.37	3543.57
423.56	3548.25
423.75	3529.53
423.94	3337.60
424.13	3295.47
424.32	3487.40
424.50	3571.66
424.69	3571.66
424.88	3517.83
425.07	3510.80
425.26	3581.02
425.45	3496.76
425.64	3463.99
425.83	3478.04
426.01	3618.47
426.20	3578.68
426.39	3555.27
426.58	3679.32
426.77	3454.63
426.96	3529.53
427.15	3492.08
427.33	3634.85
427.52	3658.26
427.71	3637.19
427.90	3712.09
428.09	3653.58
428.28	3770.60
428.46	3714.43
428.65	3772.94
428.84	3920.40
429.03	3929.76
429.22	3794.01
429.40	3857.20
429.59	3880.61
429.78	3555.27
429.97	3599.74
430.16	3721.45
430.34	3768.26
430.53	3932.10
430.72	3824.44
430.91	3985.93
431.10	3927.42
431.28	3934.44
431.47	4032.74
431.66	4194.24
431.85	4161.47
432.03	4290.20
432.22	4187.22
432.41	4018.70
432.60	4187.22
432.79	4287.86
432.97	4273.82
433.16	4184.88
433.35	4227.01
433.54	4107.64
433.72	4337.01
433.91	4287.86
434.10	4308.93
434.28	4189.56
434.47	4400.21
434.66	4430.63
434.85	4456.38
435.03	4505.53
435.22	4442.34
435.41	4521.92
435.59	4622.56
435.78	4510.21
435.97	4620.22
436.16	4571.07
436.34	4545.32
436.53	4622.56
436.72	4660.01
436.90	4545.32
437.09	4517.23
437.28	4645.96
437.46	4629.58
437.65	4636.60
437.84	4699.80
438.02	4741.93
438.21	4636.60
438.40	4657.67
438.58	4812.14
438.77	4837.89
438.96	4786.40
439.14	5001.72
439.33	4910.44
439.52	4952.57
439.70	4980.66
439.89	5095.35
440.08	5022.79
440.26	5076.62
440.45	5191.31
440.63	5282.59
440.82	5329.40
441.01	5305.99
441.19	5383.23
441.38	5413.66
441.57	5341.10
441.75	5467.49
441.94	5612.60
442.12	5504.94
442.31	5547.07
442.50	5685.16
442.68	5631.33
442.87	5647.71
443.05	5788.14
443.24	5858.36
443.43	5659.42
443.61	5849.00
443.80	5837.30
443.98	5657.07
444.17	5544.73
444.35	5790.49
444.54	5767.08
444.73	5900.49
444.91	5771.76
445.10	5785.80
445.28	5708.57
445.47	5792.83
445.65	5865.38
445.84	5888.79
446.02	6022.20
446.21	6008.16
446.39	5788.14
446.58	6043.26
446.77	5970.71
446.95	5846.66
447.14	6024.54
447.32	5900.49
447.51	5989.43
447.69	5790.49
447.88	5968.37
448.06	5987.09
448.25	5980.07
448.43	6043.26
448.62	6157.95
448.80	5951.98
448.99	6101.78
449.17	6050.28
449.36	6017.52
449.54	6272.64
449.73	6211.78
449.91	6349.87
450.10	6263.27
450.28	6420.09
450.46	6338.17
450.65	6384.98
450.83	6417.75
451.02	6291.36
451.20	6370.94
451.39	6537.12
451.57	6413.07
451.76	6363.92
451.94	6401.37
452.13	6593.29
452.31	6509.03
452.49	6298.38
452.68	6469.24
452.86	6406.05
453.05	6415.41
453.23	6607.33
453.42	6476.26
453.60	6403.71
453.78	6539.46
453.97	6583.93
454.15	6541.80
454.34	6581.59
454.52	6792.23
454.70	6867.13
454.89	6895.22
455.07	6813.30
455.26	6773.51
455.44	6892.88
455.62	6906.92
455.81	6820.32
455.99	6970.12
456.17	7063.74
456.36	6988.84
456.54	7026.29
456.73	7143.32
456.91	7229.91
457.09	7227.57
457.28	7215.87
457.46	6984.16
457.64	7187.79
457.83	7360.98
458.01	7143.32
458.19	7461.63
458.38	7213.53
458.56	7262.68
458.74	7454.61
458.93	7524.82
459.11	7265.02
459.29	7393.75
459.48	7468.65
459.66	7468.65
459.84	7466.31
460.03	7735.47
460.21	7506.10
460.39	7756.54
460.57	7527.16
460.76	7527.16
460.94	7733.13
461.12	7595.04
461.31	7524.82
461.49	7716.75
461.67	7712.07
461.85	7740.15
462.04	7777.60
462.22	8557.00
462.40	7803.35
462.59	8072.51
462.77	7962.50
462.95	7974.21
463.13	7976.55
463.32	7976.55
463.50	7976.55
463.68	8245.71
463.86	8028.04
464.05	7960.16
464.23	8032.72
464.41	8264.43
464.59	7981.23
464.78	8252.73
464.96	8208.26
465.14	8208.26
465.32	8430.61
465.50	8203.58
465.69	8397.84
465.87	8128.68
466.05	8182.51
466.23	8301.88
466.41	8203.58
466.60	8505.51
466.78	8212.94
466.96	8297.20
467.14	8383.80
467.32	8386.14
467.51	8475.08
467.69	8250.39
467.87	8542.96
468.05	8493.80
468.23	8470.40
468.41	8285.50
468.60	8585.08
468.78	8655.30
468.96	8510.19
469.14	8762.97
469.32	8706.79
469.50	8667.00
469.69	8940.85
469.87	8725.52
470.05	8777.01
470.23	8917.44
470.41	9013.40
470.59	8901.06
470.77	8798.07
470.95	8816.80
471.14	9025.11
471.32	8990.00
471.50	9408.95
471.68	9287.25
471.86	9399.59
472.04	9263.84
472.22	9334.06
472.40	9200.65
472.58	9378.53
472.77	9474.49
472.95	9427.68
473.13	9678.12
473.31	9469.81
473.49	9547.05
473.67	9500.23
473.85	9879.40
474.03	9666.41
474.21	9825.57
474.39	9956.64
474.57	10008.13
474.75	10005.79
474.93	10115.80
475.12	10232.82
475.30	10340.49
475.48	10389.64
475.66	10272.61
475.84	10361.55
476.02	10345.17
476.20	10270.27
476.38	10647.10
476.56	10752.42
476.74	10637.73
476.92	10684.55
477.10	10686.89
477.28	11012.22
477.46	10902.22
477.64	10958.39
477.82	10960.73
478.00	11445.22
478.18	11438.20
478.36	11655.87
478.54	11496.71
478.72	11410.11
478.90	11796.30
479.08	11812.68
479.26	11758.85
479.44	11728.42
479.62	11997.59
479.80	12280.79
479.98	11971.84
480.16	12458.67
480.34	12184.83
480.52	12484.42
480.70	12341.64
480.88	12315.90
481.06	12517.18
481.24	12648.26
481.41	12760.60
481.59	12999.34
481.77	12950.18
481.95	13069.55
482.13	13064.87
482.31	13256.79
482.49	13469.78
482.67	13837.25
482.85	13584.47
483.03	13607.87
483.21	13909.80
483.39	13942.57
483.57	13612.56
483.74	14108.75
483.92	14438.76
484.10	14054.92
484.28	14403.66
484.46	14867.08
484.64	14794.53
484.82	14527.71
485.00	14679.84
485.18	14970.07
485.35	15117.52
485.53	15073.05
485.71	15016.88
485.89	15274.34
486.07	15059.01
486.25	15297.74
486.43	15487.32
486.61	15995.22
486.78	15620.74
486.96	15988.20
487.14	16240.98
487.32	16231.62
487.50	16617.80
487.68	16372.05
487.85	16615.46
488.03	17146.76
488.21	17036.76
488.39	17041.44
488.57	16732.49
488.75	17303.58
488.92	17521.25
489.10	17844.24
489.28	17631.26
489.46	17797.43
489.64	17877.01
489.81	18202.35
489.99	18326.39
490.17	18319.37
490.35	18689.18
490.53	18251.50
490.70	18958.34
490.88	18815.57
491.06	19016.85
491.24	18998.13
491.41	19073.03
491.59	19131.54
491.77	19119.84
491.95	19274.31
492.13	19515.39
492.30	19653.48
492.48	19948.39
492.66	19985.83
492.84	19924.98
493.01	20376.70
493.19	20247.97
493.37	20568.63
493.54	20500.75
493.72	20435.22
493.90	20568.63
494.08	21088.23
494.25	21275.47
494.43	21415.90
494.61	21291.85
494.79	21226.32
494.96	21376.11
495.14	21518.89
495.32	21605.49
495.49	21926.14
495.67	21776.34
495.85	22174.24
496.02	22281.90
496.20	22354.46
496.38	22534.68
496.55	22382.54
496.73	22932.57
496.91	22813.20
497.09	22918.53
497.26	22792.14
497.44	22806.18
497.62	23185.35
497.79	23367.91
497.97	23309.40
498.14	23393.65
498.32	23346.84
498.50	23536.43
498.67	23962.40
498.85	23814.95
499.03	24074.75
499.20	24210.50
499.38	24119.22
499.56	24449.24
499.73	24414.13
499.91	24386.04
500.08	24666.91
500.26	24407.11
500.44	24709.04
500.61	24395.40
500.79	24638.82
500.97	24608.39
501.14	25083.52
501.32	25097.56
501.49	25099.90
501.67	25078.84
501.84	25085.86
502.02	25289.49
502.20	25582.06
502.37	25626.53
502.55	25820.79
502.72	25930.80
502.90	25799.73
503.07	25869.94
503.25	25956.54
503.43	25874.62
503.60	26314.64
503.78	26075.91
503.95	25926.11
504.13	26068.89
504.30	26375.50
504.48	26375.50
504.65	26387.20
504.83	26794.45
505.01	26991.06
505.18	26801.47
505.36	27166.60
505.53	26827.22
505.71	27014.46
505.88	27623.00
506.06	26955.95
506.23	26984.04
506.41	27269.58
506.58	27480.23
506.76	27527.04
506.93	27578.53
507.11	27946.00
507.28	27733.01
507.46	27847.69
507.63	28041.96
507.81	28119.20
507.98	28006.85
508.16	28112.17
508.33	28173.03
508.50	28512.41
508.68	28629.43
508.85	28636.45
509.03	28491.34
509.20	28566.24
509.38	29146.69
509.55	29406.49
509.73	29099.88
509.90	29170.10
510.08	29032.00
510.25	29050.73
510.42	29287.12
510.60	29731.83
510.77	29305.85
510.95	29757.57
511.12	29483.73
511.30	29631.18
511.47	30129.72
511.64	30319.30
511.82	29926.09
511.99	29727.14
512.17	29598.41
512.34	30082.91
512.51	30433.99
512.69	30771.02
512.86	30469.09
513.04	30780.39
513.21	31007.42
513.38	30813.15
513.56	30429.30
513.73	30223.34
513.90	30923.16
514.08	30654.00
514.25	30707.83
514.43	30759.32
514.60	30731.23
514.77	30852.94
514.95	31274.24
515.12	31307.01
515.29	31255.51
515.47	31028.48
515.64	31744.69
515.81	31276.58
515.99	31512.97
516.16	31952.99
516.33	31454.46
516.51	31732.98
516.68	31445.10
516.85	31580.85
517.03	32095.77
517.20	31974.06
517.37	31777.45
517.54	31936.61
517.72	31988.10
517.89	31604.25
518.06	32058.32
518.24	32158.96
518.41	32081.72
518.58	32290.03
518.75	32598.98
518.93	33104.54
519.10	32870.48
519.27	32807.29
519.45	32989.85
519.62	33027.30
519.79	32980.49
519.96	32914.95
520.14	33134.96
520.31	33354.97
520.48	33535.20
520.65	33167.73
520.83	33362.00
521.00	33574.98
521.17	33509.45
521.34	33675.63
521.52	33549.24
521.69	33940.11
521.86	34211.61
522.03	33614.77
522.20	34036.07
522.38	34108.63
522.55	34513.54
522.72	34101.61
522.89	34064.16
523.07	34625.89
523.24	34125.01
523.41	34902.07
523.58	34347.36
523.75	35026.12
523.92	34522.90
524.10	34763.98
524.27	34859.94
524.44	34855.26
524.61	34822.49
524.78	35072.93
524.96	35372.52
525.13	35211.02
525.30	35318.68
525.47	35344.43
525.64	35559.76
525.81	35477.84
525.98	35264.85
526.16	35339.75
526.33	35098.67
526.50	35234.42
526.67	35522.31
526.84	35171.23
527.01	35283.58
527.18	35431.03
527.36	35927.22
527.53	36086.38
527.70	36030.21
527.87	36098.08
528.04	36203.41
528.21	35957.65
528.38	36051.27
528.55	36680.88
528.72	36353.20
528.89	36332.14
529.07	36577.89
529.24	35934.24
529.41	36627.04
529.58	36411.71
529.75	36439.80
529.92	36404.69
530.09	36966.42
530.26	36636.41
530.43	36964.08
530.60	36425.76
530.77	36723.01
530.94	37184.09
531.11	36772.16
531.28	37179.41
531.46	36814.29
531.63	37469.64
531.80	37230.90
531.97	37027.28
532.14	37696.67
532.31	37294.10
532.48	37118.56
532.65	37507.08
532.82	37481.34
532.99	37649.86
533.16	37230.90
533.33	37970.51
533.50	37607.73
533.67	37895.61
533.84	38047.75
534.01	37895.61
534.18	37567.94
534.35	38059.45
534.52	37455.59
534.69	37865.19
534.86	37872.21
535.03	37809.01
535.20	38415.21
535.37	38227.97
535.54	38581.39
535.71	38246.69
535.88	38244.35
536.05	38433.94
536.22	38616.50
536.38	38527.56
536.55	38429.26
536.72	38541.60
536.89	38218.61
537.06	38628.20
537.23	39178.23
537.40	38572.03
537.57	38754.59
537.74	38918.43
537.91	39068.22
538.08	39091.63
538.25	38309.89
538.42	39416.96
538.59	39208.65
538.75	38749.91
538.92	39075.24
539.09	39442.71
539.26	39047.16
539.43	39157.16
539.60	39276.53
539.77	38986.30
539.94	39105.67
540.11	39136.10
540.28	39012.05
540.44	39292.91
540.61	39402.92
540.78	39688.46
540.95	39487.18
541.12	39625.27
541.29	39037.80
541.46	39241.42
541.62	39529.31
541.79	40170.61
541.96	39393.56
542.13	39487.18
542.30	39847.62
542.47	39636.97
542.63	39927.20
542.80	40128.48
542.97	40126.14
543.14	40683.19
543.31	40053.59
543.48	40378.92
543.64	40774.47
543.81	40732.34
543.98	40306.37
544.15	40299.34
544.32	40720.64
544.48	41020.23
544.65	40912.56
544.82	40795.54
544.99	40453.82
545.16	40720.64
545.32	40505.31
545.49	41439.18
545.66	41301.09
545.83	40643.40
546.00	41106.83
546.16	41144.28
546.33	41111.51
546.50	40568.51
546.67	40832.99
546.83	41029.59
547.00	40905.54
547.17	41053.00
547.34	40910.22
547.50	40933.63
547.67	41385.35
547.84	41186.41
548.00	41399.40
548.17	41867.50
548.34	41581.96
548.51	41766.86
548.67	41757.50
548.84	41579.62
549.01	41333.86
549.18	41298.75
549.34	41717.71
549.51	41867.50
549.68	41930.70
549.84	41993.89
550.01	42122.62
550.18	41448.55
550.34	42014.96
550.51	41785.58
550.68	41794.95
550.84	41476.63
551.01	42319.23
551.18	41979.85
551.34	42237.31
551.51	42066.45
551.68	41923.68
551.84	42429.23
552.01	42160.07
552.18	42344.97
552.34	41975.17
552.51	41942.40
552.68	42143.69
552.84	42120.28
553.01	42820.10
553.18	42160.07
553.34	42110.92
553.51	42068.79
553.67	42029.00
553.84	42651.58
554.01	42801.38
554.17	42997.98
554.34	42660.94
554.51	42899.68
554.67	42836.48
554.84	42756.91
555.00	42452.64
555.17	42204.54
555.33	42962.87
555.50	43086.92
555.67	42822.44
555.83	42319.23
556.00	43115.01
556.16	43285.87
556.33	43005.00
556.50	42955.85
556.66	43210.97
556.83	42923.08
556.99	43089.26
557.16	42911.38
557.32	43438.00
557.49	43229.69
557.65	42850.53
557.82	42672.65
557.98	43061.18
558.15	42501.79
558.32	43201.61
558.48	43302.25
558.65	43470.77
558.81	42775.63
558.98	43367.79
559.14	43562.05
559.31	43335.02
559.47	43620.56
559.64	43454.39
559.80	43515.24
559.97	43618.22
560.13	43138.41
560.30	43136.07
560.46	43351.40
560.63	43065.86
560.79	43290.55
560.96	43503.54
561.12	43510.56
561.29	43398.21
561.45	43452.05
561.61	43337.36
561.78	43122.03
561.94	43650.99
562.11	43316.29
562.27	43318.64
562.44	43438.00
562.60	43716.53
562.77	43985.69
562.93	43416.94
563.10	43463.75
563.26	43641.63
563.42	43620.56
563.59	43739.93
563.75	43753.97
563.92	44081.65
564.08	43643.97
564.24	43959.94
564.41	44439.75
564.57	43840.57
564.74	44210.38
564.90	44212.72
565.07	43742.27
565.23	43667.37
565.39	43971.64
565.56	44179.95
565.72	43824.19
565.88	43896.75
566.05	44053.56
566.21	43938.88
566.38	44154.21
566.54	43892.07
566.70	44044.20
566.87	44023.14
567.03	43913.13
567.19	44587.21
567.36	44259.53
567.52	43379.49
567.68	44119.10
567.85	44287.62
568.01	43896.75
568.17	43770.36
568.34	44119.10
568.50	44161.23
568.66	44093.35
568.83	44130.80
568.99	43709.50
569.15	43934.20
569.32	44088.67
569.48	44112.08
569.64	44467.84
569.81	44065.27
569.97	44130.80
570.13	44622.31
570.30	44165.91
570.46	43480.13
570.62	43924.83
570.78	44245.49
570.95	44137.82
571.11	44397.62
571.27	44266.55
571.43	44186.97
571.60	44442.09
571.76	44301.66
571.92	44250.17
572.09	43765.68
572.25	44261.87
572.41	43812.49
572.57	44568.48
572.74	44921.90
572.90	44191.65
573.06	44086.33
573.22	44458.48
573.38	44669.12
573.55	43880.36
573.71	44673.81
573.87	44175.27
574.03	44154.21
574.20	44259.53
574.36	44516.99
574.52	44612.95
574.68	44556.78
574.84	44439.75
575.01	44474.86
575.17	44694.87
575.33	44367.20
575.49	44243.15
575.65	44404.64
575.82	44662.10
575.98	44566.14
576.14	44350.81
576.30	44748.70
576.46	44715.93
576.62	44559.12
576.79	44168.25
576.95	44044.20
577.11	44414.01
577.27	44758.06
577.43	44521.67
577.59	44603.59
577.75	44430.39
577.92	44350.81
578.08	43941.22
578.24	44182.29
578.40	44626.99
578.56	44655.08
578.72	44690.19
578.88	44706.57
579.04	44741.68
579.21	44786.15
579.37	44451.45
579.53	44500.61
579.69	44360.17
579.85	44634.02
580.01	44538.05
580.17	44608.27
580.33	44643.38
580.49	44964.03
580.65	44341.45
580.82	44729.98
580.98	44699.55
581.14	44807.22
581.30	44917.22
581.46	44692.53
581.62	44919.56
581.78	44430.39
581.94	44940.63
582.10	44582.52
582.26	44882.11
582.42	44552.10
582.58	44687.85
582.74	44713.59
582.90	44538.05
583.06	44957.01
583.22	44619.97
583.38	44816.58
583.54	44842.32
583.70	44516.99
583.86	44392.94
584.02	44198.68
584.18	44767.43
584.34	44964.03
584.50	44732.32
584.66	44781.47
584.82	44540.39
584.98	44807.22
585.14	44715.93
585.30	44252.51
585.46	44521.67
585.62	44465.50
585.78	44666.78
585.94	44474.86
586.10	44325.07
586.26	44617.63
586.42	44610.61
586.58	45015.52
586.74	45022.54
586.90	44573.16
587.06	44425.71
587.22	45088.08
587.38	44619.97
587.54	44858.71
587.70	45198.09
587.86	44940.63
588.02	44737.00
588.18	44582.52
588.34	44966.37
588.49	44484.22
588.65	44404.64
588.81	44385.92
588.97	44538.05
589.13	44449.11
589.29	44645.72
589.45	44353.15
589.61	44942.97
589.77	44973.39
589.93	44739.34
590.08	45174.68
590.24	44830.62
