SpectraSuite Data File
++++++++++++++++++++++++++++++++++++
Date: Fri Oct 25 10:47:59 EDT 2013
User: price-jones
Dark Spectrum Present: No
Reference Spectrum Present: No
Number of Sampled Component Spectra: 1
Spectrometers: USB2+H05261
Integration Time (usec): 100000 (USB2+H05261)
Spectra Averaged: 1 (USB2+H05261)
Boxcar Smoothing: 0 (USB2+H05261)
Correct for Electrical Dark: No (USB2+H05261)
Strobe/Lamp Enabled: No (USB2+H05261)
Correct for Detector Non-linearity: No (USB2+H05261)
Correct for Stray Light: No (USB2+H05261)
Number of Pixels in Processed Spectrum: 2048
>>>>>Begin Processed Spectral Data<<<<<
365.73	138.09
365.92	138.09
366.12	138.09
366.32	95.96
366.52	124.05
366.72	60.85
366.91	74.90
367.11	46.81
367.31	95.96
367.51	37.45
367.70	95.96
367.90	28.09
368.10	81.92
368.30	70.22
368.49	0.00
368.69	114.69
368.89	18.72
369.09	0.00
369.28	49.15
369.48	107.66
369.68	74.90
369.87	159.16
370.07	135.75
370.27	126.39
370.47	126.39
370.66	372.15
370.86	383.85
371.06	390.87
371.25	465.77
371.45	465.77
371.65	449.38
371.84	447.04
372.04	395.55
372.24	451.72
372.44	418.96
372.63	449.38
372.83	442.36
373.03	573.43
373.22	503.22
373.42	519.60
373.62	482.15
373.81	566.41
374.01	538.32
374.21	524.28
374.40	559.39
374.60	671.73
374.79	587.47
374.99	599.18
375.19	615.56
375.38	533.64
375.58	596.84
375.78	599.18
375.97	585.13
376.17	613.22
376.37	484.49
376.56	608.54
376.76	526.62
376.95	594.50
377.15	531.30
377.35	594.50
377.54	631.94
377.74	582.79
377.93	645.99
378.13	533.64
378.33	627.26
378.52	613.22
378.72	606.20
378.91	641.31
379.11	566.41
379.31	608.54
379.50	580.45
379.70	603.86
379.89	713.86
380.09	638.97
380.28	653.01
380.48	711.52
380.68	636.63
380.87	620.24
381.07	678.76
381.26	653.01
381.46	631.94
381.65	624.92
381.85	713.86
382.04	685.78
382.24	763.01
382.43	725.57
382.63	664.71
382.83	678.76
383.02	669.39
383.22	699.82
383.41	624.92
383.61	748.97
383.80	699.82
384.00	688.12
384.19	678.76
384.39	718.54
384.58	699.82
384.78	725.57
384.97	725.57
385.17	732.59
385.36	699.82
385.56	777.06
385.75	737.27
385.95	737.27
386.14	734.93
386.34	779.40
386.53	842.59
386.72	809.83
386.92	805.14
387.11	748.97
387.31	748.97
387.50	809.83
387.70	823.87
387.89	837.91
388.09	849.61
388.28	786.42
388.48	723.23
388.67	835.57
388.86	880.04
389.06	812.17
389.25	903.45
389.45	922.17
389.64	945.58
389.84	933.87
390.03	905.79
390.22	1011.11
390.42	908.13
390.61	917.49
390.81	870.68
391.00	961.96
391.19	952.60
391.39	1001.75
391.58	978.34
391.78	947.92
391.97	952.60
392.16	961.96
392.36	903.45
392.55	997.07
392.75	1020.47
392.94	943.24
393.13	1046.22
393.33	1029.84
393.52	950.26
393.71	1013.45
393.91	1001.75
394.10	936.21
394.29	1116.44
394.49	1022.81
394.68	980.68
394.88	1135.16
395.07	1153.88
395.26	1102.39
395.46	1130.48
395.65	1132.82
395.84	1125.80
396.04	1156.22
396.23	1198.35
396.42	1263.89
396.62	1046.22
396.81	1104.73
397.00	1055.58
397.19	1167.93
397.39	1137.50
397.58	1294.32
397.77	1238.14
397.97	1371.55
398.16	1299.00
398.35	1198.35
398.55	1275.59
398.74	1193.67
398.93	1324.74
399.12	1439.43
399.32	1273.25
399.51	1399.64
399.70	1334.11
399.90	1320.06
400.09	1502.62
400.28	1341.13
400.47	1369.21
400.67	1411.34
400.86	1399.64
401.05	1490.92
401.24	1448.79
401.44	1519.01
401.63	1521.35
401.82	1526.03
402.01	1528.37
402.21	1469.86
402.40	1643.06
402.59	1521.35
402.78	1593.90
402.97	1558.80
403.17	1610.29
403.36	1650.08
403.55	1516.67
403.74	1556.46
403.93	1617.31
404.13	1619.65
404.32	1727.32
404.51	1605.61
404.70	1722.63
404.89	1720.29
405.09	1600.93
405.28	1797.53
405.47	1717.95
405.66	1750.72
405.85	1633.69
406.05	1753.06
406.24	1746.04
406.43	1844.34
406.62	1621.99
406.81	1905.20
407.00	1746.04
407.20	1832.64
407.39	1863.07
407.58	1872.43
407.77	1940.30
407.96	1937.96
408.15	1886.47
408.34	1980.09
408.54	1994.14
408.73	1959.03
408.92	2073.71
409.11	2019.88
409.30	1956.69
409.49	1928.60
409.68	2120.53
409.87	2022.22
410.07	2115.84
410.26	2062.01
410.45	2176.70
410.64	2064.35
410.83	2157.97
411.02	2190.74
411.21	2314.79
411.40	2172.02
411.59	2314.79
411.78	2225.85
411.98	2319.47
412.17	2401.39
412.36	2382.67
412.55	2436.50
412.74	2349.90
412.93	2415.43
413.12	2443.52
413.31	2492.67
413.50	2377.98
413.69	2450.54
413.88	2532.46
414.07	2527.78
414.26	2586.29
414.45	2607.36
414.64	2630.76
414.83	2537.14
415.02	2640.12
415.22	2675.23
415.41	2766.51
415.60	2677.57
415.79	2836.73
415.98	2822.69
416.17	2904.60
416.36	2829.71
416.55	2862.48
416.74	2916.31
416.93	2942.05
417.12	2902.26
417.31	2850.77
417.50	2949.08
417.69	3082.49
417.88	2977.16
418.07	3096.53
418.26	3016.95
418.45	3068.44
418.64	3246.32
418.83	3171.43
419.02	3091.85
419.21	3321.22
419.39	3105.89
419.58	3016.95
419.77	3173.77
419.96	3220.58
420.15	3349.31
420.34	3197.17
420.53	3300.16
420.72	3255.69
420.91	3346.97
421.10	3391.44
421.29	3487.40
421.48	3337.60
421.67	3363.35
421.86	3255.69
422.05	3300.16
422.24	3314.20
422.43	3515.48
422.61	3503.78
422.80	3496.76
422.99	3592.72
423.18	3393.78
423.37	3400.80
423.56	3468.67
423.75	3468.67
423.94	3492.08
424.13	3213.56
424.32	3337.60
424.50	3492.08
424.69	3555.27
424.88	3602.08
425.07	3510.80
425.26	3330.58
425.45	3503.78
425.64	3602.08
425.83	3431.23
426.01	3665.28
426.20	3672.30
426.39	3564.64
426.58	3412.50
426.77	3522.51
426.96	3574.00
427.15	3655.92
427.33	3658.26
427.52	3754.22
427.71	3742.52
427.90	3749.54
428.09	3761.24
428.28	3744.86
428.46	3730.81
428.65	3845.50
428.84	3782.31
429.03	3833.80
429.22	3674.64
429.40	3819.75
429.59	3700.39
429.78	3613.79
429.97	3562.30
430.16	3719.11
430.34	3868.91
430.53	3808.05
430.72	3927.42
430.91	3777.62
431.10	3906.35
431.28	4070.19
431.47	3997.64
431.66	4086.58
431.85	3939.12
432.03	4168.49
432.22	4149.77
432.41	4285.52
432.60	4236.37
432.79	4004.66
432.97	4269.14
433.16	4271.48
433.35	4098.28
433.54	4325.31
433.72	4180.20
433.91	4168.49
434.10	4435.32
434.28	4266.80
434.47	4337.01
434.66	4372.12
434.85	4468.08
435.03	4308.93
435.22	4400.21
435.41	4638.94
435.59	4568.73
435.78	4458.72
435.97	4547.66
436.16	4589.79
436.34	4514.89
436.53	4475.10
436.72	4669.37
436.90	4437.66
437.09	4592.13
437.28	4542.98
437.46	4624.90
437.65	4599.15
437.84	4725.54
438.02	4636.60
438.21	4770.01
438.40	4638.94
438.58	4723.20
438.77	4830.87
438.96	4636.60
439.14	4919.81
439.33	4943.21
439.52	4990.02
439.70	4823.84
439.89	5048.54
440.08	5088.32
440.26	5186.63
440.45	5057.90
440.63	5254.50
440.82	5313.02
441.01	5310.68
441.19	5317.70
441.38	5383.23
441.57	5376.21
441.75	5474.51
441.94	5586.86
442.12	5537.71
442.31	5727.29
442.50	5586.86
442.68	5678.14
442.87	5621.97
443.05	5724.95
443.24	5727.29
443.43	5757.72
443.61	5652.39
443.80	6080.71
443.98	5650.05
444.17	5455.79
444.35	5844.32
444.54	5914.53
444.73	5816.23
444.91	5844.32
445.10	5776.44
445.28	5738.99
445.47	5783.46
445.65	5607.92
445.84	5788.14
446.02	5816.23
446.21	5874.74
446.39	5867.72
446.58	5951.98
446.77	5984.75
446.95	5982.41
447.14	5963.68
447.32	5902.83
447.51	5921.56
447.69	5879.43
447.88	5879.43
448.06	5982.41
448.25	5881.77
448.43	6143.91
448.62	5856.02
448.80	5977.73
448.99	5944.96
449.17	6122.84
449.36	5982.41
449.54	6319.45
449.73	6267.95
449.91	6361.58
450.10	6148.59
450.28	6420.09
450.46	6424.77
450.65	6380.30
450.83	6396.68
451.02	6260.93
451.20	6478.60
451.39	6272.64
451.57	6282.00
451.76	6333.49
451.94	6333.49
452.13	6485.62
452.31	6485.62
452.49	6401.37
452.68	6429.45
452.86	6352.21
453.05	6392.00
453.23	6523.07
453.42	6415.41
453.60	6333.49
453.78	6593.29
453.97	6434.13
454.15	6452.86
454.34	6609.67
454.52	6630.74
454.70	6815.64
454.89	6768.83
455.07	6689.25
455.26	6789.89
455.44	6796.92
455.62	6665.85
455.81	6834.36
455.99	6979.48
456.17	6958.41
456.36	6918.62
456.54	7110.55
456.73	6913.94
456.91	7290.77
457.09	7133.95
457.28	7391.41
457.46	7185.44
457.64	7485.03
457.83	7375.03
458.01	7208.85
458.19	7365.67
458.38	7302.47
458.56	7398.43
458.74	7368.01
458.93	7260.34
459.11	7389.07
459.29	7253.32
459.48	7529.50
459.66	7508.44
459.84	7529.50
460.03	7845.48
460.21	7637.17
460.39	7541.21
460.57	7475.67
460.76	7559.93
460.94	7541.21
461.12	7602.06
461.31	7707.38
461.49	7683.98
461.67	7557.59
461.85	7829.09
462.04	7641.85
462.22	8205.92
462.40	7981.23
462.59	7906.33
462.77	7962.50
462.95	7981.23
463.13	7765.90
463.32	8126.34
463.50	7859.52
463.68	7964.84
463.86	7955.48
464.05	7969.52
464.23	8112.30
464.41	8028.04
464.59	8058.46
464.78	8379.12
464.96	8065.49
465.14	8009.31
465.32	8159.11
465.50	8109.96
465.69	8210.60
465.87	8072.51
466.05	8442.31
466.23	8248.05
466.41	8402.52
466.60	8416.57
466.78	8255.07
466.96	8262.09
467.14	8297.20
467.32	8547.64
467.51	8465.72
467.69	8105.28
467.87	8362.73
468.05	8573.38
468.23	8503.17
468.41	8414.23
468.60	8730.20
468.78	8737.22
468.96	8355.71
469.14	8791.05
469.32	8821.48
469.50	8475.08
469.69	8718.50
469.87	8767.65
470.05	9022.77
470.23	8968.93
470.41	8947.87
470.59	8746.58
470.77	8772.33
470.95	8879.99
471.14	8968.93
471.32	8952.55
471.50	9355.12
471.68	9263.84
471.86	9320.01
472.04	9296.61
472.22	9556.41
472.40	9181.92
472.58	9280.22
472.77	9406.61
472.95	9593.86
473.13	9729.61
473.31	9320.01
473.49	9355.12
473.67	9530.66
473.85	9572.79
474.03	9685.14
474.21	10017.49
474.39	9975.36
474.57	9963.66
474.75	10047.92
474.93	10181.33
475.12	10061.96
475.30	10274.95
475.48	9937.91
475.66	9919.19
475.84	10356.87
476.02	10291.34
476.20	10455.17
476.38	10572.20
476.56	10810.93
476.74	10675.18
476.92	10565.18
477.10	10698.59
477.28	10780.51
477.46	11047.33
477.64	10881.15
477.82	11005.20
478.00	11232.23
478.18	11227.55
478.36	11302.45
478.54	11339.90
478.72	11365.64
478.90	11808.00
479.08	11630.12
479.26	11782.26
479.44	11777.58
479.62	11999.93
479.80	12077.16
479.98	12215.26
480.16	12393.14
480.34	12283.13
480.52	12351.01
480.70	12236.32
480.88	12411.86
481.06	12418.88
481.24	12463.35
481.41	12503.14
481.59	12882.31
481.77	12765.28
481.95	12891.67
482.13	13064.87
482.31	13102.32
482.49	13282.54
482.67	13741.29
482.85	13460.42
483.03	13657.03
483.21	13907.46
483.39	13846.61
483.57	13923.85
483.74	14111.09
483.92	13902.78
484.10	13909.80
484.28	14160.24
484.46	14707.93
484.64	14693.88
484.82	14520.68
485.00	14817.93
485.18	14792.19
485.35	15098.80
485.53	14778.14
485.71	15056.67
485.89	15143.27
486.07	15143.27
486.25	15033.26
486.43	15414.77
486.61	15831.38
486.78	15641.80
486.96	15976.50
487.14	15964.79
487.32	16119.27
487.50	16367.37
487.68	16737.17
487.85	16730.15
488.03	16957.18
488.21	16840.15
488.39	16858.88
488.57	17149.11
488.75	17383.16
488.92	17549.34
489.10	17125.70
489.28	17635.94
489.46	17811.48
489.64	17816.16
489.81	18260.86
489.99	18043.19
490.17	18246.82
490.35	18480.87
490.53	18515.98
490.70	18831.95
490.88	18623.64
491.06	18948.98
491.24	18792.16
491.41	18998.13
491.59	19096.43
491.77	18986.43
491.95	19330.48
492.13	19194.73
492.30	19658.16
492.48	19763.48
492.66	19894.55
492.84	20013.92
493.01	19992.86
493.19	20086.48
493.37	20128.61
493.54	20306.49
493.72	20650.55
493.90	20659.91
494.08	21221.64
494.25	20973.54
494.43	20947.79
494.61	20996.95
494.79	21317.60
494.96	21448.67
495.14	21331.64
495.32	21898.05
495.49	21546.97
495.67	21544.63
495.85	21986.99
496.02	22141.47
496.20	22223.39
496.38	21905.07
496.55	22434.03
496.73	22778.09
496.91	22572.13
497.09	22998.10
497.26	22937.25
497.44	23276.63
497.62	22792.14
497.79	23068.32
497.97	23065.98
498.14	23173.64
498.32	23484.94
498.50	23751.76
498.67	23583.24
498.85	23805.59
499.03	23981.13
499.20	24435.19
499.38	24065.39
499.56	24011.56
499.73	24479.66
499.91	24463.28
500.08	24554.56
500.26	24166.03
500.44	24622.44
500.61	24517.11
500.79	24629.46
500.97	24816.70
501.14	25095.22
501.32	25123.31
501.49	24989.90
501.67	25364.39
501.84	25462.69
502.02	25146.72
502.20	25504.82
502.37	25373.75
502.55	25694.40
502.72	25734.19
502.90	25729.51
503.07	25806.75
503.25	25846.54
503.43	25549.29
503.60	26073.57
503.78	26244.43
503.95	25975.27
504.13	26504.23
504.30	26328.69
504.48	26586.15
504.65	26698.49
504.83	27157.24
505.01	27199.37
505.18	26705.51
505.36	27367.88
505.53	26742.96
505.71	27030.85
505.88	27295.33
506.06	26977.01
506.23	27269.58
506.41	27318.73
506.58	27517.68
506.76	27594.92
506.93	27688.54
507.11	27786.84
507.28	27686.20
507.46	27920.25
507.63	27931.95
507.81	27768.12
507.98	27864.08
508.16	28166.01
508.33	28168.35
508.50	28219.84
508.68	28599.01
508.85	28774.55
509.03	29137.33
509.20	28982.85
509.38	28596.67
509.55	28975.83
509.73	29102.22
509.90	29020.30
510.08	29003.92
510.25	29277.76
510.42	29104.56
510.60	29355.00
510.77	29413.51
510.95	29699.06
511.12	29228.61
511.30	29879.28
511.47	29579.69
511.64	29986.94
511.82	30150.78
511.99	29724.80
512.17	29949.50
512.34	29902.68
512.51	30258.45
512.69	30492.50
512.86	30785.07
513.04	30295.89
513.21	30588.46
513.38	30845.92
513.56	30356.75
513.73	30693.79
513.90	30958.27
514.08	30693.79
514.25	30745.28
514.43	30874.01
514.60	30747.62
514.77	31056.57
514.95	31257.85
515.12	30998.06
515.29	31466.16
515.47	31758.73
515.64	31576.17
515.81	31524.68
515.99	31587.87
516.16	31578.51
516.33	31367.86
516.51	31725.96
516.68	31138.49
516.85	31765.75
517.03	31625.32
517.20	32168.32
517.37	31618.30
517.54	32072.36
517.72	32102.79
517.89	32367.27
518.06	32182.37
518.24	31999.80
518.41	32046.62
518.58	32219.81
518.75	32381.31
518.93	32498.34
519.10	32645.79
519.27	32758.14
519.45	32400.04
519.62	32835.38
519.79	33132.62
519.96	32914.95
520.14	33200.50
520.31	33003.89
520.48	33144.33
520.65	33053.05
520.83	33291.78
521.00	33722.44
521.17	33289.44
521.34	33661.58
521.52	33727.12
521.69	33654.56
521.86	34160.12
522.03	33895.64
522.20	33809.04
522.38	34064.16
522.55	34555.67
522.72	34134.37
522.89	33579.67
523.07	34431.62
523.24	34010.32
523.41	34377.79
523.58	34719.51
523.75	34534.60
523.92	34703.12
524.10	34572.05
524.27	34899.73
524.44	35241.45
524.61	34749.93
524.78	35316.34
524.96	35072.93
525.13	35353.79
525.30	35271.87
525.47	35353.79
525.64	35119.74
525.81	35332.73
525.98	35583.16
526.16	35393.58
526.33	34876.32
526.50	35503.59
526.67	35051.86
526.84	35283.58
527.01	35555.08
527.18	35501.25
527.36	35690.83
527.53	35821.90
527.70	36311.07
527.87	36201.07
528.04	35871.05
528.21	35775.09
528.38	35524.65
528.55	36526.40
528.72	36140.21
528.89	36261.92
529.07	36510.02
529.24	36093.40
529.41	36753.43
529.58	36491.29
529.75	36605.98
529.92	36184.68
530.09	36938.33
530.26	36524.06
530.43	36797.90
530.60	36453.84
530.77	36856.42
530.94	37041.32
531.11	36744.07
531.28	36772.16
531.46	36980.46
531.63	37214.52
531.80	36994.51
531.97	37041.32
532.14	37474.32
532.31	37092.81
532.48	37591.34
532.65	37308.14
532.82	37532.83
532.99	37631.13
533.16	37287.07
533.33	37830.08
533.50	38064.13
533.67	37715.39
533.84	37226.22
534.01	37907.32
534.18	37977.53
534.35	38047.75
534.52	37827.74
534.69	37958.81
534.86	38291.16
535.03	37666.24
535.20	38129.67
535.37	38239.67
535.54	38562.67
535.71	38553.30
535.88	38270.10
536.05	38293.50
536.22	38485.43
536.38	38466.70
536.55	38466.70
536.72	38487.77
536.89	38384.79
537.06	38501.81
537.23	38892.68
537.40	38232.65
537.57	38864.60
537.74	38752.25
537.91	39037.80
538.08	38953.54
538.25	38265.42
538.42	39103.33
538.59	39304.62
538.75	39173.55
538.92	39140.78
539.09	39203.97
539.26	38990.98
539.43	39257.81
539.60	39550.37
539.77	39159.50
539.94	39012.05
540.11	39313.98
540.28	39674.42
540.44	39096.31
540.61	39299.94
540.78	39225.04
540.95	39264.83
541.12	39643.99
541.29	39423.98
541.46	39353.77
541.62	39512.92
541.79	39934.22
541.96	39494.20
542.13	39826.56
542.30	40002.10
542.47	39889.75
542.63	39814.85
542.80	39941.24
542.97	40627.02
543.14	40261.90
543.31	40325.09
543.48	40322.75
543.64	40376.58
543.81	40795.54
543.98	40498.29
544.15	40502.97
544.32	40818.94
544.48	40598.93
544.65	40559.14
544.82	41097.47
544.99	40505.31
545.16	40381.26
545.32	40507.65
545.49	40992.14
545.66	41214.49
545.83	41258.96
546.00	41010.87
546.16	40868.09
546.33	40732.34
546.50	40467.86
546.67	40865.75
546.83	40774.47
547.00	40788.52
547.17	41036.61
547.34	41434.50
547.50	41432.16
547.67	41497.70
547.84	41338.54
548.00	41387.69
548.17	41240.24
548.34	42019.64
548.51	41626.43
548.67	41757.50
548.84	41649.83
549.01	41275.35
549.18	41668.56
549.34	41834.74
549.51	41722.39
549.68	41867.50
549.84	41682.60
550.01	42047.72
550.18	41895.59
550.34	41752.82
550.51	41766.86
550.68	41799.63
550.84	41734.09
551.01	41785.58
551.18	42014.96
551.34	42050.06
551.51	41975.17
551.68	42073.47
551.84	42288.80
552.01	42396.46
552.18	42382.42
552.34	41895.59
552.51	42508.81
552.68	42216.24
552.84	42539.24
553.01	42553.28
553.18	42117.94
553.34	42487.74
553.51	42033.68
553.67	42354.33
553.84	42485.40
554.01	42829.46
554.17	43407.58
554.34	42408.17
554.51	42005.59
554.67	42651.58
554.84	42817.76
555.00	42546.26
555.17	42401.14
555.33	42572.00
555.50	42677.33
555.67	42586.05
555.83	42752.23
556.00	42663.28
556.16	43227.35
556.33	43035.43
556.50	42890.32
556.66	43002.66
556.83	42539.24
556.99	43323.32
557.16	43112.67
557.32	43365.45
557.49	42899.68
557.65	42529.87
557.82	43056.50
557.98	42974.58
558.15	42618.81
558.32	43414.60
558.48	43119.69
558.65	43086.92
558.81	42862.23
558.98	43096.28
559.14	43395.87
559.31	43194.59
559.47	43501.20
559.64	43653.33
559.80	43346.72
559.97	43725.89
560.13	43335.02
560.30	43070.54
560.46	43239.06
560.63	43470.77
560.79	43639.29
560.96	43217.99
561.12	43718.87
561.29	43648.65
561.45	43665.03
561.61	43545.67
561.78	43267.14
561.94	43271.82
562.11	43526.94
562.27	43548.01
562.44	43791.42
562.60	44182.29
562.77	43990.37
562.93	43267.14
563.10	43845.26
563.26	43702.48
563.42	44130.80
563.59	43936.54
563.75	43662.69
563.92	43718.87
564.08	43840.57
564.24	44521.67
564.41	43985.69
564.57	43861.64
564.74	43805.47
564.90	44142.50
565.07	43676.74
565.23	43730.57
565.39	44016.11
565.56	44184.63
565.72	43714.19
565.88	44205.70
566.05	43765.68
566.21	44292.30
566.38	44292.30
566.54	43803.13
566.70	44315.70
566.87	44383.58
567.03	44069.95
567.19	44236.12
567.36	44006.75
567.52	44184.63
567.68	44107.40
567.85	44128.46
568.01	43999.73
568.17	44051.22
568.34	44746.36
568.50	44102.71
568.66	44105.06
568.83	44329.75
568.99	43812.49
569.15	43924.83
569.32	44189.31
569.48	44165.91
569.64	44444.43
569.81	43887.39
569.97	44374.22
570.13	44371.88
570.30	43913.13
570.46	43660.35
570.62	44004.41
570.78	44023.14
570.95	44451.45
571.11	44151.87
571.27	44055.90
571.43	44177.61
571.60	44339.11
571.76	44126.12
571.92	44233.78
572.09	44273.57
572.25	44767.43
572.41	43824.19
572.57	44556.78
572.74	44919.56
572.90	44252.51
573.06	44479.54
573.22	44163.57
573.38	44577.84
573.55	44233.78
573.71	44343.79
573.87	44023.14
574.03	44032.50
574.20	44439.75
574.36	44189.31
574.52	44587.21
574.68	44587.21
574.84	44708.91
575.01	44474.86
575.17	44430.39
575.33	44308.68
575.49	44086.33
575.65	44404.64
575.82	44421.03
575.98	44549.76
576.14	44634.02
576.30	44605.93
576.46	44165.91
576.62	44383.58
576.79	44175.27
576.95	43805.47
577.11	44561.46
577.27	44402.30
577.43	44755.72
577.59	44807.22
577.75	44339.11
577.92	43973.98
578.08	44435.07
578.24	44186.97
578.40	44292.30
578.56	44296.98
578.72	43978.67
578.88	44612.95
579.04	44877.43
579.21	44549.76
579.37	44477.20
579.53	44428.05
579.69	44348.47
579.85	44746.36
580.01	44516.99
580.17	44914.88
580.33	44879.77
580.49	44282.94
580.65	44509.97
580.82	44631.68
580.98	44575.50
581.14	44753.38
581.30	44844.66
581.46	44603.59
581.62	44776.79
581.78	44655.08
581.94	45170.00
582.10	44325.07
582.26	45116.17
582.42	44971.05
582.58	45500.01
582.74	44247.83
582.90	44425.71
583.06	44626.99
583.22	44676.15
583.38	44882.11
583.54	44439.75
583.70	44559.12
583.86	44626.99
584.02	44392.94
584.18	44423.37
584.34	44910.20
584.50	44868.07
584.66	44411.67
584.82	44577.84
584.98	44844.66
585.14	44942.97
585.30	44439.75
585.46	44643.38
585.62	44442.09
585.78	45020.20
585.94	44533.37
586.10	44563.80
586.26	44507.63
586.42	45256.60
586.58	45123.19
586.74	44456.14
586.90	44191.65
587.06	44186.97
587.22	45024.89
587.38	44645.72
587.54	45099.78
587.70	45085.74
587.86	44626.99
588.02	44999.14
588.18	44612.95
588.34	44528.69
588.49	44594.23
588.65	44634.02
588.81	44914.88
588.97	44577.84
589.13	44399.96
589.29	44617.63
589.45	44589.55
589.61	44828.28
589.77	44732.32
589.93	45167.66
590.08	44830.62
590.24	44830.62
