SpectraSuite Data File
++++++++++++++++++++++++++++++++++++
Date: Fri Oct 25 11:23:38 EDT 2013
User: price-jones
Dark Spectrum Present: No
Reference Spectrum Present: No
Number of Sampled Component Spectra: 1
Spectrometers: USB2+H05261
Integration Time (usec): 100000 (USB2+H05261)
Spectra Averaged: 1 (USB2+H05261)
Boxcar Smoothing: 0 (USB2+H05261)
Correct for Electrical Dark: No (USB2+H05261)
Strobe/Lamp Enabled: No (USB2+H05261)
Correct for Detector Non-linearity: No (USB2+H05261)
Correct for Stray Light: No (USB2+H05261)
Number of Pixels in Processed Spectrum: 2048
>>>>>Begin Processed Spectral Data<<<<<
365.73	229.37
365.92	229.37
366.12	229.37
366.32	145.11
366.52	79.58
366.72	128.73
366.91	51.49
367.11	128.73
367.31	145.11
367.51	168.52
367.70	98.30
367.90	86.60
368.10	140.43
368.30	58.51
368.49	152.13
368.69	205.97
368.89	128.73
369.09	121.71
369.28	212.99
369.48	142.77
369.68	201.29
369.87	215.33
370.07	184.90
370.27	245.76
370.47	353.42
370.66	622.58
370.86	608.54
371.06	634.29
371.25	636.63
371.45	624.92
371.65	681.10
371.84	667.05
372.04	725.57
372.24	713.86
372.44	664.71
372.63	751.31
372.83	730.25
373.03	727.91
373.22	716.20
373.42	695.14
373.62	807.48
373.81	734.93
374.01	849.61
374.21	791.10
374.40	777.06
374.60	784.08
374.79	805.14
374.99	819.19
375.19	826.21
375.38	866.00
375.58	809.83
375.78	877.70
375.97	807.48
376.17	947.92
376.37	861.32
376.56	894.08
376.76	842.59
376.95	880.04
377.15	933.87
377.35	835.57
377.54	814.51
377.74	798.12
377.93	847.27
378.13	884.72
378.33	987.71
378.52	875.36
378.72	945.58
378.91	1001.75
379.11	884.72
379.31	903.45
379.50	938.55
379.70	964.30
379.89	980.68
380.09	945.58
380.28	943.24
380.48	1036.86
380.68	1027.50
380.87	931.53
381.07	1034.52
381.26	987.71
381.46	1071.97
381.65	1043.88
381.85	1050.90
382.04	1121.12
382.24	1067.28
382.43	1067.28
382.63	1053.24
382.83	1067.28
383.02	1160.91
383.22	1174.95
383.41	1095.37
383.61	1036.86
383.80	1186.65
384.00	1109.41
384.19	1097.71
384.39	1203.04
384.58	1146.86
384.78	1048.56
384.97	1207.72
385.17	1174.95
385.36	1203.04
385.56	1123.46
385.75	1069.62
385.95	1179.63
386.14	1266.23
386.34	1224.10
386.53	1219.42
386.72	1188.99
386.92	1149.20
387.11	1291.98
387.31	1329.42
387.50	1284.95
387.70	1207.72
387.89	1331.76
388.09	1259.21
388.28	1268.57
388.48	1231.12
388.67	1277.93
388.86	1387.94
389.06	1287.29
389.25	1249.85
389.45	1306.02
389.64	1228.78
389.84	1378.58
390.03	1306.02
390.22	1476.88
390.42	1380.92
390.61	1423.05
390.81	1462.83
391.00	1465.18
391.19	1418.36
391.39	1493.26
391.58	1458.15
391.78	1455.81
391.97	1481.56
392.16	1430.07
392.36	1521.35
392.55	1509.65
392.75	1476.88
392.94	1537.73
393.13	1497.94
393.33	1453.47
393.52	1493.26
393.71	1689.87
393.91	1549.43
394.10	1558.80
394.29	1575.18
394.49	1624.33
394.68	1511.99
394.88	1600.93
395.07	1643.06
395.26	1652.42
395.46	1668.80
395.65	1671.14
395.84	1701.57
396.04	1736.68
396.23	1713.27
396.42	1703.91
396.62	1813.92
396.81	1739.02
397.00	1764.76
397.19	1701.57
397.39	1811.57
397.58	1816.26
397.77	1741.36
397.97	1842.00
398.16	1816.26
398.35	1827.96
398.55	1825.62
398.74	1900.52
398.93	1989.46
399.12	1980.09
399.32	1966.05
399.51	2029.24
399.70	1944.99
399.90	1886.47
400.09	1942.64
400.28	2155.63
400.47	1991.80
400.67	2057.33
400.86	1926.26
401.05	2026.90
401.24	2136.91
401.44	2050.31
401.63	2249.25
401.82	2115.84
402.01	2172.02
402.21	2195.42
402.40	2153.29
402.59	2237.55
402.78	2270.32
402.97	2363.94
403.17	2172.02
403.36	2275.00
403.55	2242.23
403.74	2263.30
403.93	2406.07
404.13	2373.30
404.32	2340.54
404.51	2338.20
404.70	2401.39
404.89	2399.05
405.09	2513.74
405.28	2485.65
405.47	2448.20
405.66	2487.99
405.85	2539.48
406.05	2492.67
406.24	2544.16
406.43	2595.65
406.62	2698.64
406.81	2675.23
407.00	2539.48
407.20	2586.29
407.39	2525.44
407.58	2712.68
407.77	2689.28
407.96	2712.68
408.15	2932.69
408.34	2691.62
408.54	2832.05
408.73	2881.20
408.92	2902.26
409.11	2942.05
409.30	2923.33
409.49	2818.00
409.68	2923.33
409.87	2897.58
410.07	2937.37
410.26	2869.50
410.45	3035.67
410.64	3016.95
410.83	3054.40
411.02	3211.22
411.21	2998.23
411.40	3075.46
411.59	3173.77
411.78	3183.13
411.98	3192.49
412.17	3265.05
412.36	3215.90
412.55	3318.88
412.74	3398.46
412.93	3375.05
413.12	3405.48
413.31	3534.21
413.50	3503.78
413.69	3492.08
413.88	3576.34
414.07	3463.99
414.26	3606.77
414.45	3770.60
414.64	3571.66
414.83	3719.11
415.02	3674.64
415.22	3871.25
415.41	3859.54
415.60	3913.38
415.79	3901.67
415.98	3896.99
416.17	3969.55
416.36	3896.99
416.55	4044.45
416.74	4117.00
416.93	4131.05
417.12	4241.05
417.31	4166.15
417.50	4177.86
417.69	4285.52
417.88	4285.52
418.07	4241.05
418.26	4294.88
418.45	4250.41
418.64	4414.25
418.83	4297.22
419.02	4451.70
419.21	4346.37
419.39	4585.11
419.58	4425.95
419.77	4383.82
419.96	4561.70
420.15	4557.02
420.34	4486.81
420.53	4631.92
420.72	4652.98
420.91	4781.71
421.10	4777.03
421.29	4830.87
421.48	4669.37
421.67	4770.01
421.86	4858.95
422.05	4840.23
422.24	4723.20
422.43	4978.32
422.61	5053.22
422.80	4814.48
422.99	4901.08
423.18	4856.61
423.37	4933.85
423.56	5043.85
423.75	4964.28
423.94	4978.32
424.13	4542.98
424.32	4695.11
424.50	4873.00
424.69	5055.56
424.88	5060.24
425.07	4961.94
425.26	4849.59
425.45	4791.08
425.64	5041.51
425.83	4802.78
426.01	5013.43
426.20	5104.71
426.39	5062.58
426.58	5053.22
426.77	4961.94
426.96	5078.96
427.15	5156.20
427.33	5139.82
427.52	5165.56
427.71	5116.41
427.90	5181.95
428.09	5315.36
428.28	5465.15
428.46	5320.04
428.65	5301.31
428.84	5437.06
429.03	5614.95
429.22	5469.83
429.40	5521.32
429.59	5542.39
429.78	5364.51
429.97	5432.38
430.16	5647.71
430.34	5535.37
430.53	5626.65
430.72	5617.29
430.91	5699.20
431.10	5647.71
431.28	5874.74
431.47	5841.98
431.66	5914.53
431.85	5724.95
432.03	5856.02
432.22	6010.50
432.41	6005.81
432.60	6052.63
432.79	5944.96
432.97	5825.59
433.16	6078.37
433.35	6076.03
433.54	5963.68
433.72	6024.54
433.91	6183.70
434.10	6176.67
434.28	5968.37
434.47	6061.99
434.66	6267.95
434.85	6171.99
435.03	6246.89
435.22	6296.04
435.41	6429.45
435.59	6373.28
435.78	6586.27
435.97	6382.64
436.16	6328.81
436.34	6392.00
436.53	6466.90
436.72	6633.08
436.90	6331.15
437.09	6637.76
437.28	6382.64
437.46	6565.20
437.65	6628.40
437.84	6726.70
438.02	6630.74
438.21	6796.92
438.40	6661.16
438.58	6832.02
438.77	6970.12
438.96	7047.35
439.14	7019.27
439.33	7213.53
439.52	7164.38
439.70	7279.07
439.89	7295.45
440.08	7442.90
440.26	7377.37
440.45	7431.20
440.63	7431.20
440.82	7789.30
441.01	7564.61
441.19	7618.44
441.38	7817.39
441.57	7789.30
441.75	7693.34
441.94	7843.14
442.12	7906.33
442.31	8128.68
442.50	8077.19
442.68	7894.63
442.87	8119.32
443.05	8187.19
443.24	8116.98
443.43	8215.28
443.61	8217.62
443.80	8430.61
443.98	7990.59
444.17	7843.14
444.35	8191.88
444.54	8468.06
444.73	8336.99
444.91	8212.94
445.10	8428.27
445.28	8423.59
445.47	8287.84
445.65	8454.02
445.84	8217.62
446.02	8383.80
446.21	8428.27
446.39	8236.35
446.58	8435.29
446.77	8388.48
446.95	8341.67
447.14	8465.72
447.32	8346.35
447.51	8664.66
447.69	8587.43
447.88	8325.29
448.06	8456.36
448.25	8397.84
448.43	8439.97
448.62	8683.39
448.80	8566.36
448.99	8805.10
449.17	8702.11
449.36	8674.03
449.54	8812.12
449.73	8753.60
449.91	9053.19
450.10	9027.45
450.28	8971.27
450.46	9062.55
450.65	9055.53
450.83	8957.23
451.02	8894.04
451.20	9249.80
451.39	9018.08
451.57	9289.59
451.76	9181.92
451.94	9060.21
452.13	9357.46
452.31	9458.10
452.49	9282.56
452.68	9275.54
452.86	9352.78
453.05	9327.03
453.23	9441.72
453.42	9327.03
453.60	9495.55
453.78	9523.64
453.97	9638.33
454.15	9432.36
454.34	9490.87
454.52	9760.03
454.70	9640.67
454.89	9926.21
455.07	10019.83
455.26	9891.10
455.44	10043.24
455.62	9891.10
455.81	9912.17
455.99	9956.64
456.17	10253.89
456.36	10183.67
456.54	10363.89
456.73	10370.91
456.91	10356.87
457.09	10260.91
457.28	10647.10
457.46	10312.40
457.64	10401.34
457.83	10443.47
458.01	10487.94
458.19	10752.42
458.38	10338.15
458.56	10637.73
458.74	10600.29
458.93	10551.14
459.11	10839.02
459.29	10707.95
459.48	10593.26
459.66	10850.72
459.84	10927.96
460.03	11176.06
460.21	10991.16
460.39	11040.31
460.57	10878.81
460.76	11243.93
460.94	11239.25
461.12	11232.23
461.31	11162.01
461.49	11199.46
461.67	11068.39
461.85	11503.73
462.04	11421.81
462.22	11658.21
462.40	11524.80
462.59	11627.78
462.77	11487.35
462.95	11674.59
463.13	11798.64
463.32	11452.24
463.50	11740.13
463.68	11751.83
463.86	11810.34
464.05	11651.19
464.23	11660.55
464.41	11793.96
464.59	11714.38
464.78	11955.46
464.96	11988.22
465.14	11906.31
465.32	12238.66
465.50	12095.89
465.69	11868.86
465.87	12016.31
466.05	12189.51
466.23	12074.82
466.41	12145.04
466.60	12697.41
466.78	12226.96
466.96	12376.75
467.14	12503.14
467.32	12524.21
467.51	12718.47
467.69	12145.04
467.87	12341.64
468.05	12774.64
468.23	12367.39
468.41	12409.52
468.60	12561.66
468.78	12891.67
468.96	12603.78
469.14	12793.37
469.32	12987.63
469.50	12587.40
469.69	12737.20
469.87	13181.90
470.05	13029.76
470.23	13174.88
470.41	13069.55
470.59	13317.65
470.77	13207.64
470.95	13385.52
471.14	13605.53
471.32	13238.07
471.50	13376.16
471.68	13486.17
471.86	13565.74
472.04	14029.17
472.22	13694.47
472.40	13792.78
472.58	13980.02
472.77	14024.49
472.95	13991.72
473.13	14829.63
473.31	14010.45
473.49	14005.77
473.67	14183.65
473.85	14265.57
474.03	14363.87
474.21	14644.73
474.39	14717.29
474.57	14766.44
474.75	14834.32
474.93	14895.17
475.12	15124.54
475.30	15119.86
475.48	15147.95
475.66	15178.37
475.84	15321.15
476.02	15293.06
476.20	15496.69
476.38	15616.05
476.56	15915.64
476.74	15976.50
476.92	15857.13
477.10	15889.90
477.28	16388.43
477.46	16341.62
477.64	16341.62
477.82	16746.53
478.00	16898.67
478.18	16606.10
478.36	16718.45
478.54	17205.28
478.72	17329.33
478.90	17280.18
479.08	17539.97
479.26	17785.73
479.44	17708.49
479.62	18197.67
479.80	18148.51
479.98	18183.62
480.16	18677.48
480.34	18326.39
480.52	18698.54
480.70	18651.73
480.88	18349.80
481.06	18920.89
481.24	18874.08
481.41	19016.85
481.59	19143.24
481.77	19651.14
481.95	19756.46
482.13	19454.53
482.31	19709.65
482.49	20215.21
482.67	20449.26
482.85	20500.75
483.03	20802.68
483.21	20849.49
483.39	21046.10
483.57	20952.48
483.74	21095.25
483.92	21235.68
484.10	21205.25
484.28	21961.25
484.46	21818.47
484.64	22235.09
484.82	21846.56
485.00	22263.18
485.18	22970.02
485.35	23061.30
485.53	23126.83
485.71	23068.32
485.89	23456.85
486.07	23484.94
486.25	23496.64
486.43	23683.88
486.61	24147.31
486.78	24182.42
486.96	24006.87
487.14	24751.17
487.32	24840.11
487.50	24793.29
487.68	25230.98
487.85	25406.52
488.03	25708.44
488.21	26174.21
488.39	25759.94
488.57	26141.44
488.75	26010.37
488.92	26129.74
489.10	26803.82
489.28	27019.14
489.46	26604.87
489.64	26986.38
489.81	27777.48
489.99	27840.67
490.17	27667.47
490.35	27990.47
490.53	28051.32
490.70	28446.87
490.88	28467.94
491.06	28823.70
491.24	28746.46
491.41	28980.51
491.59	28996.90
491.77	29390.11
491.95	29848.85
492.13	29649.91
492.30	29837.15
492.48	29729.48
492.66	30225.68
492.84	30347.39
493.01	30375.47
493.19	30799.11
493.37	30888.05
493.54	31147.85
493.72	31751.71
493.90	31304.67
494.08	31552.76
494.25	31583.19
494.43	31807.88
494.61	32374.29
494.79	32402.38
494.96	32481.95
495.14	32456.21
495.32	33223.90
495.49	33055.39
495.67	33408.81
495.85	33670.95
496.02	33897.98
496.20	33916.70
496.38	34192.89
496.55	34281.83
496.73	34555.67
496.91	34284.17
497.09	34618.86
497.26	34993.35
497.44	34597.80
497.62	35737.64
497.79	35742.32
497.97	35398.26
498.14	36238.51
498.32	36306.39
498.50	36065.31
498.67	36402.35
498.85	36467.89
499.03	36767.48
499.20	36748.75
499.38	37247.29
499.56	36966.42
499.73	37249.63
499.91	37691.99
500.08	37443.89
500.26	37486.02
500.44	37745.82
500.61	37839.44
500.79	37907.32
500.97	38003.28
501.14	38480.75
501.32	38401.17
501.49	38412.87
501.67	38586.07
501.84	38560.33
502.02	38934.81
502.20	38962.90
502.37	39512.92
502.55	39189.93
502.72	39222.70
502.90	39789.11
503.07	39138.44
503.25	39531.65
503.43	39758.68
503.60	39969.33
503.78	40329.77
503.95	40390.62
504.13	40547.44
504.30	40629.36
504.48	40601.27
504.65	40500.63
504.83	41006.19
505.01	41645.15
505.18	41476.63
505.36	41172.36
505.53	41123.21
505.71	41783.24
505.88	41794.95
506.06	41404.08
506.23	42347.31
506.41	41888.57
506.58	42249.01
506.76	42094.53
506.93	42579.03
507.11	42251.35
507.28	42506.47
507.46	42398.80
507.63	42927.77
507.81	43119.69
507.98	42663.28
508.16	43171.18
508.33	43503.54
508.50	43662.69
508.68	43777.38
508.85	43927.17
509.03	44196.34
509.20	43985.69
509.38	44404.64
509.55	44032.50
509.73	44528.69
509.90	44905.52
510.08	44109.74
510.25	44226.76
510.42	44769.77
510.60	44945.31
510.77	45291.71
510.95	45525.76
511.12	45137.23
511.30	45027.23
511.47	45471.93
511.64	45553.85
511.82	45965.78
511.99	45729.39
512.17	45855.78
512.34	46066.42
512.51	46417.50
512.69	46333.24
512.86	46382.40
513.04	46899.65
513.21	47105.62
513.38	46754.54
513.56	46672.62
513.73	47042.43
513.90	47264.78
514.08	46972.21
514.25	47512.88
514.43	47152.43
514.60	47665.01
514.77	47407.55
514.95	48046.52
515.12	47531.60
515.29	47910.77
515.47	47973.96
515.64	47852.25
515.81	47934.17
515.99	48158.86
516.16	48435.05
516.33	48458.45
516.51	48486.54
516.68	48629.31
516.85	48629.31
517.03	49008.48
517.20	48823.58
517.37	48825.92
517.54	48942.94
517.72	48617.61
517.89	49389.98
518.06	49200.40
518.24	49343.17
518.41	49146.57
518.58	49191.04
518.75	49235.51
518.93	49668.51
519.10	49977.46
519.27	49783.19
519.45	49287.00
519.62	49925.97
519.79	50143.64
519.96	49839.37
520.14	50028.95
520.31	50216.19
520.48	50319.18
520.65	50567.27
520.83	50499.40
521.00	50522.80
521.17	50487.70
521.34	50852.82
521.52	50894.95
521.69	50969.85
521.86	50637.49
522.03	51110.28
522.20	51217.94
522.38	51627.54
522.55	51554.98
522.72	51442.63
522.89	51178.15
523.07	51676.69
523.24	51435.61
523.41	51660.30
523.58	51491.79
523.75	51704.77
523.92	52032.45
524.10	51964.57
524.27	51920.10
524.44	52025.43
524.61	52102.67
524.78	52245.44
524.96	52112.03
525.13	52446.72
525.30	52699.50
525.47	52350.76
525.64	52739.29
525.81	52605.88
525.98	52762.70
526.16	52900.79
526.33	52807.17
526.50	52954.62
526.67	52680.78
526.84	52945.26
527.01	52839.93
527.18	53083.35
527.36	53097.39
527.53	53038.88
527.70	53064.63
527.87	53450.81
528.04	53176.97
528.21	53427.41
528.38	53436.77
528.55	53485.92
528.72	53380.60
528.89	53406.34
529.07	53153.57
529.24	53167.61
529.41	53492.94
529.58	53820.62
529.75	53848.71
529.92	53593.59
530.09	53710.61
530.26	54150.63
530.43	53982.12
530.60	53911.90
530.77	53928.28
530.94	54164.68
531.11	54220.85
531.28	54085.10
531.46	54319.15
531.63	54145.95
531.80	54314.47
531.97	54396.39
532.14	54494.69
532.31	54478.31
532.48	54590.66
532.65	54630.44
532.82	54368.30
532.99	54681.94
533.16	54471.29
533.33	55004.93
533.50	55112.59
533.67	54906.63
533.84	54871.52
534.01	55168.77
534.18	55126.64
534.35	55341.97
534.52	54953.44
534.69	55522.19
534.86	55007.27
535.03	54934.71
535.20	54995.57
535.37	55304.52
535.54	55473.04
535.71	55318.56
535.88	55346.65
536.05	55569.00
536.22	55618.15
536.38	55573.68
536.55	55587.72
536.72	55973.91
536.89	55627.51
537.06	55737.52
537.23	55992.64
537.40	55721.13
537.57	55639.22
537.74	55941.14
537.91	56102.64
538.08	55884.97
538.25	55824.12
538.42	55861.57
538.59	56233.71
538.75	56128.39
538.92	55962.21
539.09	56250.09
539.26	55889.65
539.43	56116.68
539.60	56147.11
539.77	56296.91
539.94	56315.63
540.11	56203.28
540.28	56374.14
540.44	56540.32
540.61	56374.14
540.78	56320.31
540.95	56692.46
541.12	56427.98
541.29	56395.21
541.46	56596.49
541.62	56420.95
541.79	56835.23
541.96	56168.18
542.13	56505.21
542.30	56748.63
542.47	56610.54
542.63	56729.90
542.80	56779.06
542.97	57162.90
543.14	57261.21
543.31	57008.43
543.48	57155.88
543.64	57478.88
543.81	57141.84
543.98	57439.09
544.15	57434.41
544.32	57499.94
544.48	57504.62
544.65	57364.19
544.82	57656.76
544.99	57027.15
545.16	57518.67
545.32	57422.70
545.49	57668.46
545.66	57822.93
545.83	57773.78
546.00	57673.14
546.16	57752.72
546.33	57570.16
546.50	57640.37
546.67	57783.15
546.83	57565.48
547.00	57918.90
547.17	58103.80
547.34	57853.36
547.50	57951.66
547.67	58035.92
547.84	58000.82
548.00	58068.69
548.17	58419.77
548.34	58120.18
548.51	58237.21
548.67	58279.34
548.84	58169.33
549.01	58237.21
549.18	58092.10
549.34	58307.43
549.51	58312.11
549.68	58408.07
549.84	58344.87
550.01	58354.24
550.18	58192.74
550.34	58592.97
550.51	58457.22
550.68	58564.88
550.84	58447.86
551.01	58670.21
551.18	58660.85
551.34	58433.81
551.51	58726.38
551.68	58735.74
551.84	58621.06
552.01	58475.94
552.18	58932.35
552.34	58588.29
552.51	58789.58
552.68	58808.30
552.84	58674.89
553.01	59021.29
553.18	58848.09
553.34	59063.42
553.51	58791.92
553.67	58871.49
553.84	58906.60
554.01	58983.84
554.17	58904.26
554.34	59175.76
554.51	59096.19
554.67	59178.10
554.84	59058.74
555.00	58979.16
555.17	58986.18
555.33	59135.98
555.50	58810.64
555.67	59023.63
555.83	59154.70
556.00	59171.08
556.16	59367.69
556.33	59288.11
556.50	59379.39
556.66	59400.46
556.83	59119.59
556.99	59416.84
557.16	59538.55
557.32	59536.21
557.49	59536.21
557.65	59192.15
557.82	59353.65
557.98	59671.96
558.15	59334.92
558.32	59444.93
558.48	59494.08
558.65	59475.35
558.81	59660.26
558.98	59475.35
559.14	59524.50
559.31	59648.55
559.47	59707.07
559.64	59746.86
559.80	59915.37
559.97	59927.08
560.13	59594.72
560.30	59721.11
560.46	59835.80
560.63	59781.96
560.79	59849.84
560.96	59767.92
561.12	59788.98
561.29	59906.01
561.45	59884.95
561.61	59817.07
561.78	59812.39
561.94	59770.26
562.11	59945.80
562.27	59674.30
562.44	60074.53
562.60	60069.85
562.77	59987.93
562.93	59817.07
563.10	60186.88
563.26	59945.80
563.42	60142.41
563.59	59959.84
563.75	59943.46
563.92	59800.69
564.08	60133.04
564.24	60179.85
564.41	60250.07
564.57	60303.90
564.74	60048.78
564.90	60154.11
565.07	60196.24
565.23	59978.57
565.39	60229.01
565.56	60009.00
565.72	60161.13
565.88	60320.29
566.05	60135.38
566.21	60177.51
566.38	60170.49
566.54	60397.52
566.70	60507.53
566.87	60505.19
567.03	60287.52
567.19	60505.19
567.36	60350.71
567.52	60301.56
567.68	60481.78
567.85	60404.55
568.01	60568.38
568.17	60285.18
568.34	60329.65
568.50	60348.37
568.66	60460.72
568.83	60542.64
568.99	60474.76
569.15	60357.74
569.32	60362.42
569.48	60603.49
569.64	60713.50
569.81	60383.48
569.97	60331.99
570.13	60617.53
570.30	60189.22
570.46	60528.59
570.62	60556.68
570.78	60474.76
570.95	60456.04
571.11	60795.42
571.27	60570.72
571.43	60608.17
571.60	60680.73
571.76	60498.17
571.92	60659.66
572.09	60690.09
572.25	60336.67
572.41	60470.08
572.57	60577.75
572.74	60797.76
572.90	60561.36
573.06	60631.58
573.22	60498.17
573.38	60762.65
573.55	60809.46
573.71	60800.10
573.87	60776.69
574.03	60505.19
574.20	60671.37
574.36	60645.62
574.52	60891.38
574.68	60654.98
574.84	60680.73
575.01	60788.39
575.17	60860.95
575.33	60603.49
575.49	60652.64
575.65	60870.31
575.82	60800.10
575.98	60748.60
576.14	60823.50
576.30	60804.78
576.46	60718.18
576.62	60856.27
576.79	60685.41
576.95	60638.60
577.11	60750.94
577.27	60903.08
577.43	60734.56
577.59	60743.92
577.75	60954.57
577.92	60802.44
578.08	61057.56
578.24	60844.57
578.40	60910.10
578.56	60900.74
578.72	60907.76
578.88	61092.66
579.04	60977.98
579.21	61001.38
579.37	60846.91
579.53	61003.72
579.69	60802.44
579.85	60882.02
580.01	60748.60
580.17	60814.14
580.33	60931.17
580.49	61043.51
580.65	61127.77
580.82	60872.65
580.98	60830.52
581.14	60793.07
581.30	61118.41
581.46	60856.27
581.62	60891.38
581.78	60713.50
581.94	61071.60
582.10	60966.27
582.26	61073.94
582.42	60961.59
582.58	61015.43
582.74	61008.40
582.90	60945.21
583.06	61116.07
583.22	60935.85
583.38	60835.20
583.54	60903.08
583.70	60893.72
583.86	61057.56
584.02	60982.66
584.18	61118.41
584.34	60900.74
584.50	61022.45
584.66	60926.49
584.82	61017.77
584.98	61188.63
585.14	60977.98
585.30	60851.59
585.46	61174.58
585.62	61006.06
585.78	60966.27
585.94	60893.72
586.10	61179.26
586.26	60966.27
586.42	61158.20
586.58	61043.51
586.74	61146.50
586.90	61076.28
587.06	61076.28
587.22	61146.50
587.38	61036.49
587.54	61064.58
587.70	61209.69
587.86	61066.92
588.02	61017.77
588.18	61258.84
588.34	61261.18
588.49	60987.34
