SpectraSuite Data File
++++++++++++++++++++++++++++++++++++
Date: Fri Oct 25 11:23:30 EDT 2013
User: price-jones
Dark Spectrum Present: No
Reference Spectrum Present: No
Number of Sampled Component Spectra: 1
Spectrometers: USB2+H05261
Integration Time (usec): 100000 (USB2+H05261)
Spectra Averaged: 1 (USB2+H05261)
Boxcar Smoothing: 0 (USB2+H05261)
Correct for Electrical Dark: No (USB2+H05261)
Strobe/Lamp Enabled: No (USB2+H05261)
Correct for Detector Non-linearity: No (USB2+H05261)
Correct for Stray Light: No (USB2+H05261)
Number of Pixels in Processed Spectrum: 2048
>>>>>Begin Processed Spectral Data<<<<<
365.73	163.84
365.92	163.84
366.12	163.84
366.32	114.69
366.52	102.98
366.72	131.07
366.91	119.37
367.11	93.62
367.31	119.37
367.51	95.96
367.70	163.84
367.90	135.75
368.10	126.39
368.30	135.75
368.49	163.84
368.69	180.22
368.89	126.39
369.09	142.77
369.28	128.73
369.48	149.79
369.68	208.31
369.87	163.84
370.07	184.90
370.27	187.24
370.47	327.68
370.66	608.54
370.86	624.92
371.06	690.46
371.25	681.10
371.45	615.56
371.65	702.16
371.84	627.26
372.04	564.07
372.24	760.67
372.44	622.58
372.63	723.23
372.83	805.14
373.03	805.14
373.22	751.31
373.42	716.20
373.62	779.40
373.81	767.70
374.01	748.97
374.21	802.80
374.40	833.23
374.60	814.51
374.79	802.80
374.99	861.32
375.19	851.96
375.38	891.74
375.58	800.46
375.78	856.64
375.97	903.45
376.17	882.38
376.37	753.65
376.56	854.30
376.76	842.59
376.95	875.36
377.15	858.98
377.35	870.68
377.54	847.27
377.74	999.41
377.93	866.00
378.13	898.77
378.33	940.90
378.52	943.24
378.72	1011.11
378.91	1008.77
379.11	880.04
379.31	938.55
379.50	924.51
379.70	1090.69
379.89	926.85
380.09	959.62
380.28	929.19
380.48	990.05
380.68	1034.52
380.87	973.66
381.07	1144.52
381.26	992.39
381.46	992.39
381.65	1114.10
381.85	952.60
382.04	1060.26
382.24	1081.33
382.43	1078.99
382.63	1135.16
382.83	1029.84
383.02	1125.80
383.22	1123.46
383.41	1114.10
383.61	1188.99
383.80	1198.35
384.00	1277.93
384.19	1137.50
384.39	1074.31
384.58	1137.50
384.78	1081.33
384.97	1193.67
385.17	1137.50
385.36	1144.52
385.56	1151.54
385.75	1130.48
385.95	1186.65
386.14	1196.01
386.34	1221.76
386.53	1254.53
386.72	1205.38
386.92	1256.87
387.11	1301.34
387.31	1245.16
387.50	1165.59
387.70	1238.14
387.89	1263.89
388.09	1275.59
388.28	1270.91
388.48	1249.85
388.67	1299.00
388.86	1343.47
389.06	1345.81
389.25	1242.82
389.45	1315.38
389.64	1394.96
389.84	1394.96
390.03	1373.89
390.22	1420.71
390.42	1394.96
390.61	1291.98
390.81	1411.34
391.00	1437.09
391.19	1439.43
391.39	1556.46
391.58	1519.01
391.78	1392.62
391.97	1542.41
392.16	1507.30
392.36	1544.75
392.55	1502.62
392.75	1523.69
392.94	1488.58
393.13	1451.13
393.33	1526.03
393.52	1596.25
393.71	1497.94
393.91	1654.76
394.10	1519.01
394.29	1572.84
394.49	1633.69
394.68	1633.69
394.88	1577.52
395.07	1668.80
395.26	1652.42
395.46	1687.53
395.65	1706.25
395.84	1685.19
396.04	1753.06
396.23	1692.21
396.42	1776.47
396.62	1785.83
396.81	1703.91
397.00	1788.17
397.19	1851.36
397.39	1818.60
397.58	1933.28
397.77	1818.60
397.97	1966.05
398.16	1870.09
398.35	1905.20
398.55	1860.73
398.74	1912.22
398.93	1954.35
399.12	2003.50
399.32	1914.56
399.51	2008.18
399.70	1940.30
399.90	1923.92
400.09	2064.35
400.28	2101.80
400.47	2024.56
400.67	2108.82
400.86	2111.16
401.05	2120.53
401.24	2106.48
401.44	2200.10
401.63	2176.70
401.82	2132.23
402.01	2197.76
402.21	2136.91
402.40	2204.78
402.59	2183.72
402.78	2136.91
402.97	2265.64
403.17	2204.78
403.36	2303.09
403.55	2263.30
403.74	2385.01
403.93	2385.01
404.13	2380.32
404.32	2300.75
404.51	2495.01
404.70	2333.51
404.89	2408.41
405.09	2537.14
405.28	2333.51
405.47	2401.39
405.66	2480.97
405.85	2516.08
406.05	2539.48
406.24	2541.82
406.43	2480.97
406.62	2548.84
406.81	2682.25
407.00	2597.99
407.20	2567.57
407.39	2679.91
407.58	2679.91
407.77	2913.97
407.96	2724.38
408.15	2825.03
408.34	2633.10
408.54	2761.83
408.73	2719.70
408.92	2862.48
409.11	2881.20
409.30	2904.60
409.49	2902.26
409.68	2991.20
409.87	2906.95
410.07	3126.96
410.26	3023.97
410.45	2984.18
410.64	2970.14
410.83	3021.63
411.02	3131.64
411.21	3201.85
411.40	3192.49
411.59	3089.51
411.78	3325.90
411.98	3267.39
412.17	3286.11
412.36	3265.05
412.55	3295.47
412.74	3391.44
412.93	3426.54
413.12	3391.44
413.31	3541.23
413.50	3543.57
413.69	3447.61
413.88	3480.38
414.07	3590.38
414.26	3599.74
414.45	3637.19
414.64	3716.77
414.83	3693.37
415.02	3740.18
415.22	3782.31
415.41	3908.69
415.60	3885.29
415.79	3770.60
415.98	4053.81
416.17	3969.55
416.36	3904.01
416.55	4023.38
416.74	4114.66
416.93	4105.30
417.12	4133.39
417.31	4187.22
417.50	4175.52
417.69	4236.37
417.88	4264.46
418.07	4348.72
418.26	4227.01
418.45	4383.82
418.64	4664.69
418.83	4425.95
419.02	4411.91
419.21	4582.77
419.39	4528.94
419.58	4652.98
419.77	4479.79
419.96	4599.15
420.15	4465.74
420.34	4638.94
420.53	4697.46
420.72	4844.91
420.91	4713.84
421.10	4720.86
421.29	4739.58
421.48	4603.83
421.67	4641.28
421.86	4762.99
422.05	4837.89
422.24	4835.55
422.43	4882.36
422.61	4910.44
422.80	4947.89
422.99	4994.70
423.18	4856.61
423.37	4978.32
423.56	4973.64
423.75	4945.55
423.94	4865.97
424.13	4564.04
424.32	4779.37
424.50	5046.20
424.69	5104.71
424.88	5085.98
425.07	4983.00
425.26	4926.83
425.45	4943.21
425.64	4873.00
425.83	5043.85
426.01	4910.44
426.20	5097.69
426.39	5144.50
426.58	5144.50
426.77	5055.56
426.96	5055.56
427.15	5210.03
427.33	5146.84
427.52	5057.90
427.71	5186.63
427.90	5245.14
428.09	5364.51
428.28	5296.63
428.46	5472.17
428.65	5308.34
428.84	5479.19
429.03	5507.28
429.22	5181.95
429.40	5497.92
429.59	5476.85
429.78	5366.85
429.97	5254.50
430.16	5500.26
430.34	5584.52
430.53	5472.17
430.72	5703.89
430.91	5633.67
431.10	5717.93
431.28	5575.16
431.47	5849.00
431.66	5870.06
431.85	5767.08
432.03	5907.51
432.22	5987.09
432.41	5944.96
432.60	5909.85
432.79	5905.17
432.97	6012.84
433.16	6083.05
433.35	5867.72
433.54	6099.44
433.72	6176.67
433.91	6174.33
434.10	6260.93
434.28	6122.84
434.47	6162.63
434.66	6424.77
434.85	6396.68
435.03	6448.18
435.22	6263.27
435.41	6581.59
435.59	6466.90
435.78	6555.84
435.97	6375.62
436.16	6502.01
436.34	6441.15
436.53	6820.32
436.72	6567.54
436.90	6480.94
437.09	6633.08
437.28	6569.88
437.46	6672.87
437.65	6609.67
437.84	6707.98
438.02	6789.89
438.21	6773.51
438.40	6710.32
438.58	7063.74
438.77	6974.80
438.96	6979.48
439.14	7054.37
439.33	7166.72
439.52	7084.80
439.70	7087.14
439.89	7541.21
440.08	7421.84
440.26	7485.03
440.45	7260.34
440.63	7545.89
440.82	7644.19
441.01	7435.88
441.19	7627.81
441.38	7639.51
441.57	7789.30
441.75	7854.84
441.94	7920.37
442.12	7889.95
442.31	8030.38
442.50	8070.17
442.68	8093.57
442.87	8046.76
443.05	8030.38
443.24	8201.24
443.43	8161.45
443.61	8018.68
443.80	8496.14
443.98	8084.21
444.17	7997.61
444.35	8208.26
444.54	8215.28
444.73	8386.14
444.91	8313.58
445.10	8222.30
445.28	8280.82
445.47	8292.52
445.65	8318.26
445.84	8592.11
446.02	8659.98
446.21	8402.52
446.39	8393.16
446.58	8561.68
446.77	8407.20
446.95	8348.69
447.14	8456.36
447.32	8524.23
447.51	8571.04
447.69	8376.78
447.88	8500.83
448.06	8601.47
448.25	8407.20
448.43	8615.51
448.62	8753.60
448.80	8386.14
448.99	8636.58
449.17	8798.07
449.36	8596.79
449.54	8777.01
449.73	9177.24
449.91	9163.20
450.10	9057.87
450.28	9001.70
450.46	8898.72
450.65	9109.36
450.83	9177.24
451.02	8957.23
451.20	9310.65
451.39	9205.33
451.57	9097.66
451.76	9331.72
451.94	9329.38
452.13	9289.59
452.31	9350.44
452.49	9135.11
452.68	9308.31
452.86	9404.27
453.05	9497.89
453.23	9600.88
453.42	9514.28
453.60	9458.10
453.78	9495.55
453.97	9240.44
454.15	9434.70
454.34	9549.39
454.52	9762.37
454.70	9437.04
454.89	9671.09
455.07	9888.76
455.26	9813.87
455.44	10066.64
455.62	9827.91
455.81	10040.90
455.99	10076.01
456.17	9881.74
456.36	10083.03
456.54	10239.84
456.73	10132.18
456.91	10450.49
457.09	10366.23
457.28	10537.09
457.46	10380.28
457.64	10698.59
457.83	10368.57
458.01	10459.85
458.19	10885.83
458.38	10530.07
458.56	10803.91
458.74	10773.49
458.93	10700.93
459.11	10780.51
459.29	10848.38
459.48	10965.41
459.66	10740.72
459.84	11108.18
460.03	11075.42
460.21	11042.65
460.39	11070.73
460.57	11325.85
460.76	11115.20
460.94	11229.89
461.12	11288.40
461.31	11220.53
461.49	11152.65
461.67	11323.51
461.85	11398.41
462.04	11288.40
462.22	11880.56
462.40	11513.10
462.59	11227.55
462.77	11503.73
462.95	11770.55
463.13	11669.91
463.32	11712.04
463.50	11915.67
463.68	11887.58
463.86	11810.34
464.05	11604.38
464.23	11700.34
464.41	12133.34
464.59	11901.62
464.78	12226.96
464.96	12269.09
465.14	11784.60
465.32	11964.82
465.50	11950.78
465.69	12395.48
465.87	11978.86
466.05	12109.93
466.23	12187.17
466.41	12292.49
466.60	12552.29
466.78	12212.92
466.96	12250.36
467.14	12175.47
467.32	12395.48
467.51	12507.82
467.69	12147.38
467.87	12292.49
468.05	12549.95
468.23	12390.80
468.41	12624.85
468.60	12697.41
468.78	12629.53
468.96	12624.85
469.14	12924.44
469.32	13146.79
469.50	12496.12
469.69	12966.57
469.87	13160.83
470.05	13069.55
470.23	13181.90
470.41	12992.31
470.59	13458.08
470.77	13184.24
470.95	13184.24
471.14	13657.03
471.32	13200.62
471.50	13483.83
471.68	13631.28
471.86	13771.71
472.04	13848.95
472.22	13895.76
472.40	13628.94
472.58	13891.08
472.77	14141.52
472.95	14277.27
473.13	14771.12
473.31	14155.56
473.49	14349.82
473.67	14265.57
473.85	14640.05
474.03	14609.62
474.21	14590.90
474.39	15033.26
474.57	14899.85
474.75	14930.28
474.93	15227.53
475.12	15042.62
475.30	14796.87
475.48	15288.38
475.66	15192.42
475.84	15215.82
476.02	15260.29
476.20	15482.64
476.38	15545.84
476.56	16095.86
476.74	16140.33
476.92	16016.29
477.10	15999.90
477.28	16175.44
477.46	16159.06
477.64	16489.07
477.82	16313.53
478.00	16924.41
478.18	16599.08
478.36	17167.83
478.54	17043.78
478.72	17177.19
478.90	17046.12
479.08	17687.43
479.26	17624.23
479.44	17776.37
479.62	18019.78
479.80	18127.45
479.98	18237.45
480.16	18640.03
480.34	18340.44
480.52	18588.53
480.70	18934.93
480.88	18635.35
481.06	18499.59
481.24	18733.65
481.41	19150.26
481.59	19143.24
481.77	19587.94
481.95	19620.71
482.13	19840.72
482.31	19871.15
482.49	19932.00
482.67	20559.27
482.85	20212.87
483.03	20566.29
483.21	20599.05
483.39	20861.19
483.57	20893.96
483.74	21191.21
483.92	21436.97
484.10	21326.96
484.28	21832.52
484.46	22160.19
484.64	22349.78
484.82	22387.22
485.00	22455.10
485.18	22670.43
485.35	23293.01
485.53	22806.18
485.71	23061.30
485.89	23466.21
486.07	23482.59
486.25	23328.12
486.43	23480.25
486.61	23768.14
486.78	23964.75
486.96	24182.42
487.14	24549.88
487.32	24381.36
487.50	25247.36
487.68	24872.87
487.85	25493.12
488.03	25635.89
488.21	25755.26
488.39	25570.35
488.57	26256.13
488.75	26136.76
488.92	26773.39
489.10	26267.83
489.28	26888.07
489.46	26969.99
489.64	26899.78
489.81	27637.05
489.99	27770.46
490.17	27470.87
490.35	28018.55
490.53	28386.02
490.70	28610.71
490.88	28442.19
491.06	28978.17
491.24	29057.75
491.41	29205.20
491.59	29090.52
491.77	29397.13
491.95	29551.60
492.13	29773.95
492.30	30307.60
492.48	29970.56
492.66	30265.47
492.84	30522.93
493.01	30986.35
493.19	30670.38
493.37	31063.59
493.54	31250.83
493.72	31978.74
493.90	31473.18
494.08	31789.16
494.25	31936.61
494.43	32109.81
494.61	32776.86
494.79	32877.51
494.96	32444.51
495.14	32582.60
495.32	33446.26
495.49	33514.13
495.67	33256.67
495.85	33675.63
496.02	34160.12
496.20	33869.89
496.38	34185.86
496.55	34033.73
496.73	35014.41
496.91	34532.26
497.09	34850.58
497.26	35065.91
497.44	34920.79
497.62	35026.12
497.79	35887.43
497.97	35562.10
498.14	35864.03
498.32	36589.59
498.50	36322.77
498.67	36982.80
498.85	36507.68
499.03	37109.19
499.20	36973.44
499.38	36697.26
499.56	37113.87
499.73	37001.53
499.91	37268.35
500.08	37703.69
500.26	37600.71
500.44	37652.20
500.61	37780.93
500.79	37830.08
500.97	38155.41
501.14	38590.75
501.32	38607.14
501.49	38525.22
501.67	38974.60
501.84	39030.77
502.02	38855.23
502.20	38873.96
502.37	39356.11
502.55	39302.28
502.72	39917.84
502.90	39559.73
503.07	40004.44
503.25	39791.45
503.43	40051.25
503.60	40313.39
503.78	40163.59
503.95	40540.42
504.13	40891.50
504.30	40638.72
504.48	40669.15
504.65	40893.84
504.83	41053.00
505.01	41509.40
505.18	41450.89
505.36	41603.02
505.53	41165.34
505.71	41425.14
505.88	41972.83
506.06	41710.69
506.23	42120.28
506.41	42052.41
506.58	42071.13
506.76	42281.78
506.93	42593.07
507.11	42422.21
507.28	42635.20
507.46	43217.99
507.63	42796.70
507.81	43093.94
507.98	42958.19
508.16	43339.70
508.33	43386.51
508.50	43227.35
508.68	43772.70
508.85	44086.33
509.03	44301.66
509.20	44058.24
509.38	43992.71
509.55	44273.57
509.73	44395.28
509.90	44816.58
510.08	44989.78
510.25	44339.11
510.42	45301.07
510.60	44989.78
510.77	45385.33
510.95	45785.56
511.12	44989.78
511.30	45467.25
511.47	45507.04
511.64	45497.67
511.82	45867.48
511.99	45626.40
512.17	45535.12
512.34	46185.79
512.51	46504.10
512.69	46234.94
512.86	46354.31
513.04	46829.44
513.21	46768.58
513.38	46515.81
513.56	46974.55
513.73	46913.70
513.90	47173.50
514.08	46822.42
514.25	47501.17
514.43	47187.54
514.60	47962.26
514.77	47367.76
514.95	47786.72
515.12	47711.82
515.29	47814.80
515.47	48009.07
515.64	48402.28
515.81	47859.27
515.99	48023.11
516.16	48566.12
516.33	48402.28
516.51	48732.29
516.68	48238.44
516.85	48788.47
517.03	49029.54
517.20	49251.89
517.37	49282.32
517.54	49050.61
517.72	48839.96
517.89	49294.02
518.06	49195.72
518.24	49361.90
518.41	49474.24
518.58	49631.06
518.75	49216.78
518.93	49556.16
519.10	49694.25
519.27	49663.83
519.45	49928.31
519.62	49914.26
519.79	49862.77
519.96	49991.50
520.14	50389.39
520.31	50026.61
520.48	50571.96
520.65	50380.03
520.83	50653.87
521.00	50735.79
521.17	50883.25
521.34	50614.08
521.52	50836.44
521.69	50869.20
521.86	51138.36
522.03	51447.32
522.20	51384.12
522.38	51398.16
522.55	51454.34
522.72	51721.16
522.89	51351.35
523.07	51894.36
523.24	51267.09
523.41	51983.30
523.58	51622.86
523.75	52196.29
523.92	51758.61
524.10	52179.90
524.27	52058.20
524.44	52119.05
524.61	52119.05
524.78	52278.21
524.96	52322.68
525.13	52432.68
525.30	52353.10
525.47	52566.09
525.64	52570.77
525.81	52582.48
525.98	52624.60
526.16	52734.61
526.33	52500.56
526.50	53162.93
526.67	52931.22
526.84	53188.67
527.01	52992.07
527.18	53272.93
527.36	53127.82
527.53	53286.98
527.70	53553.80
527.87	53446.13
528.04	53186.33
528.21	53488.26
528.38	53261.23
528.55	53731.68
528.72	53191.01
528.89	53602.95
529.07	53392.30
529.24	53715.29
529.41	53895.52
529.58	53755.08
529.75	54014.88
529.92	54117.87
530.09	53769.13
530.26	53993.82
530.43	54094.46
530.60	54094.46
530.77	54010.20
530.94	54143.61
531.11	54026.59
531.28	54040.63
531.46	54110.85
531.63	54391.71
531.80	54169.36
531.97	54611.72
532.14	54660.87
532.31	54422.14
532.48	54705.34
532.65	54564.91
532.82	54581.29
532.99	54717.04
533.16	55058.76
533.33	54908.97
533.50	55009.61
533.67	54925.35
533.84	54459.58
534.01	54951.10
534.18	55100.89
534.35	55470.70
534.52	55264.73
534.69	55243.66
534.86	55285.79
535.03	55269.41
535.20	55370.05
535.37	55323.24
535.54	55711.77
535.71	55374.73
535.88	55412.18
536.05	55463.67
536.22	55742.20
536.38	55753.90
536.55	55285.79
536.72	55838.16
536.89	55758.58
537.06	55992.64
537.23	55646.24
537.40	55522.19
537.57	55765.60
537.74	55917.74
537.91	56261.80
538.08	56060.51
538.25	55863.91
538.42	55957.53
538.59	55985.61
538.75	55976.25
538.92	56282.86
539.09	56395.21
539.26	56399.89
539.43	56135.41
539.60	56179.88
539.77	56406.91
539.94	56392.87
540.11	56184.56
540.28	56645.65
540.44	56437.34
540.61	56559.05
540.78	56378.82
540.95	56556.70
541.12	56526.28
541.29	56486.49
541.46	56746.29
541.62	56615.22
541.79	56942.89
541.96	56584.79
542.13	56844.59
542.30	56821.19
542.47	56914.81
542.63	57064.60
542.80	57055.24
542.97	57291.63
543.14	57301.00
543.31	57228.44
543.48	57350.15
543.64	57422.70
543.81	57399.30
543.98	57277.59
544.15	57338.44
544.32	57439.09
544.48	57773.78
544.65	57411.00
544.82	57481.22
544.99	57427.38
545.16	57687.18
545.32	57382.91
545.49	57684.84
545.66	57598.24
545.83	57925.92
546.00	57626.33
546.16	57853.36
546.33	57733.99
546.50	57574.84
546.67	57750.38
546.83	57621.65
547.00	57897.83
547.17	57689.52
547.34	57956.35
547.50	57958.69
547.67	58035.92
547.84	58012.52
548.00	58197.42
548.17	58342.53
548.34	58351.90
548.51	58513.39
548.67	58251.25
548.84	58316.79
549.01	58288.70
549.18	58298.06
549.34	58365.94
549.51	58473.60
549.68	58581.27
549.84	58550.84
550.01	58253.59
550.18	58124.86
550.34	58660.85
550.51	58557.86
550.68	58508.71
550.84	58237.21
551.01	58529.78
551.18	58674.89
551.34	58607.01
551.51	58506.37
551.68	58691.27
551.84	58649.14
552.01	58754.47
552.18	58702.98
552.34	58637.44
552.51	58745.11
552.68	58590.63
552.84	58656.17
553.01	59096.19
553.18	58979.16
553.34	58997.88
553.51	58724.04
553.67	58897.24
553.84	58965.12
554.01	59016.61
554.17	58965.12
554.34	58913.62
554.51	59025.97
554.67	59245.98
554.84	58859.79
555.00	59044.69
555.17	59044.69
555.33	59044.69
555.50	58960.44
555.67	59135.98
555.83	59238.96
556.00	59030.65
556.16	59739.83
556.33	59372.37
556.50	59295.13
556.66	59421.52
556.83	59234.28
556.99	59454.29
557.16	59489.40
557.32	59650.89
557.49	59627.49
557.65	59566.63
557.82	59437.90
557.98	59421.52
558.15	59597.06
558.32	59693.02
558.48	59526.84
558.65	59564.29
558.81	59627.49
558.98	59592.38
559.14	59725.79
559.31	59568.97
559.47	59866.22
559.64	59803.03
559.80	59711.75
559.97	59894.31
560.13	59650.89
560.30	59824.09
560.46	59753.88
560.63	59803.03
560.79	60116.66
560.96	59966.87
561.12	59908.35
561.29	59957.50
561.45	59941.12
561.61	59798.35
561.78	59833.46
561.94	59821.75
562.11	59641.53
562.27	60116.66
562.44	59828.77
562.60	60203.26
562.77	59952.82
562.93	59990.27
563.10	60147.09
563.26	60001.97
563.42	60210.28
563.59	59990.27
563.75	60027.72
563.92	59992.61
564.08	59966.87
564.24	60310.92
564.41	60149.43
564.57	60126.02
564.74	60282.84
564.90	60404.55
565.07	60299.22
565.23	60137.72
565.39	60240.71
565.56	60282.84
565.72	60355.39
565.88	60065.17
566.05	60245.39
566.21	60217.30
566.38	60355.39
566.54	60308.58
566.70	60430.29
566.87	60336.67
567.03	60149.43
567.19	60617.53
567.36	60264.11
567.52	60313.26
567.68	60472.42
567.85	60259.43
568.01	60678.39
568.17	60226.66
568.34	60479.44
568.50	60486.46
568.66	60542.64
568.83	60357.74
568.99	60385.82
569.15	60446.68
569.32	60364.76
569.48	60528.59
569.64	60552.00
569.81	60624.56
569.97	60432.63
570.13	60519.23
570.30	60521.57
570.46	60512.21
570.62	60690.09
570.78	60596.47
570.95	60818.82
571.11	60495.83
571.27	60687.75
571.43	60561.36
571.60	60704.13
571.76	60662.00
571.92	60580.09
572.09	60750.94
572.25	60746.26
572.41	60711.16
572.57	60587.11
572.74	60954.57
572.90	60472.42
573.06	60903.08
573.22	60594.13
573.38	60692.43
573.55	60678.39
573.71	61029.47
573.87	60800.10
574.03	60610.51
574.20	60757.97
574.36	60694.77
574.52	60858.61
574.68	60896.06
574.84	60898.40
575.01	60952.23
575.17	60856.27
575.33	60750.94
575.49	60654.98
575.65	60811.80
575.82	60879.67
575.98	60851.59
576.14	61073.94
576.30	61076.28
576.46	60809.46
576.62	60776.69
576.79	60961.59
576.95	60830.52
577.11	60694.77
577.27	60966.27
577.43	60985.00
577.59	60877.33
577.75	61071.60
577.92	60753.29
578.08	60996.70
578.24	60863.29
578.40	61118.41
578.56	61043.51
578.72	60781.37
578.88	61113.73
579.04	61181.60
579.21	61015.43
579.37	60781.37
579.53	61071.60
579.69	60837.54
579.85	60942.87
580.01	61034.15
580.17	60828.18
580.33	60973.30
580.49	61045.85
580.65	60893.72
580.82	60879.67
580.98	60626.90
581.14	60985.00
581.30	61085.64
581.46	61127.77
581.62	61151.18
581.78	60987.34
581.94	60980.32
582.10	60896.06
582.26	60856.27
582.42	61041.17
582.58	61085.64
582.74	60968.61
582.90	61031.81
583.06	61062.24
583.22	60959.25
583.38	61155.86
583.54	60959.25
583.70	61034.15
583.86	61087.98
584.02	60975.64
584.18	61160.54
584.34	61071.60
584.50	60949.89
584.66	60870.31
584.82	60931.17
584.98	61261.18
585.14	61132.45
585.30	61118.41
585.46	60938.19
585.62	61090.32
585.78	61219.05
585.94	60980.32
586.10	61090.32
586.26	61083.30
586.42	61212.03
586.58	61223.73
586.74	61106.71
586.90	61059.90
587.06	60996.70
587.22	61169.90
587.38	61113.73
587.54	61343.10
587.70	61265.86
587.86	61169.90
588.02	61024.79
588.18	61336.08
588.34	61059.90
588.49	61062.24
