SpectraSuite Data File
++++++++++++++++++++++++++++++++++++
Date: Fri Oct 25 10:47:52 EDT 2013
User: price-jones
Dark Spectrum Present: No
Reference Spectrum Present: No
Number of Sampled Component Spectra: 1
Spectrometers: USB2+H05261
Integration Time (usec): 100000 (USB2+H05261)
Spectra Averaged: 1 (USB2+H05261)
Boxcar Smoothing: 0 (USB2+H05261)
Correct for Electrical Dark: No (USB2+H05261)
Strobe/Lamp Enabled: No (USB2+H05261)
Correct for Detector Non-linearity: No (USB2+H05261)
Correct for Stray Light: No (USB2+H05261)
Number of Pixels in Processed Spectrum: 2048
>>>>>Begin Processed Spectral Data<<<<<
365.73	84.26
365.92	84.26
366.12	84.26
366.32	46.81
366.52	0.00
366.72	93.62
366.91	60.85
367.11	28.09
367.31	0.00
367.51	2.34
367.70	72.56
367.90	21.06
368.10	102.98
368.30	0.00
368.49	51.49
368.69	16.38
368.89	32.77
369.09	79.58
369.28	18.72
369.48	88.94
369.68	91.28
369.87	121.71
370.07	102.98
370.27	98.30
370.47	227.03
370.66	379.17
370.86	409.59
371.06	428.32
371.25	421.30
371.45	395.55
371.65	433.00
371.84	435.34
372.04	430.66
372.24	514.92
372.44	484.49
372.63	470.45
372.83	449.38
373.03	519.60
373.22	510.24
373.42	524.28
373.62	507.90
373.81	540.66
374.01	519.60
374.21	561.73
374.40	507.90
374.60	526.62
374.79	550.03
374.99	521.94
375.19	545.34
375.38	514.92
375.58	510.24
375.78	617.90
375.97	580.45
376.17	585.13
376.37	578.11
376.56	554.71
376.76	559.39
376.95	575.77
377.15	634.29
377.35	482.15
377.54	580.45
377.74	592.16
377.93	557.05
378.13	575.77
378.33	627.26
378.52	641.31
378.72	648.33
378.91	596.84
379.11	540.66
379.31	667.05
379.50	596.84
379.70	704.50
379.89	699.82
380.09	657.69
380.28	695.14
380.48	634.29
380.68	620.24
380.87	645.99
381.07	723.23
381.26	667.05
381.46	697.48
381.65	678.76
381.85	674.07
382.04	641.31
382.24	685.78
382.43	681.10
382.63	688.12
382.83	669.39
383.02	699.82
383.22	819.19
383.41	741.95
383.61	653.01
383.80	751.31
384.00	702.16
384.19	751.31
384.39	744.29
384.58	774.72
384.78	713.86
384.97	620.24
385.17	732.59
385.36	690.46
385.56	709.18
385.75	727.91
385.95	770.04
386.14	866.00
386.34	770.04
386.53	844.93
386.72	711.52
386.92	823.87
387.11	800.46
387.31	786.42
387.50	915.15
387.70	713.86
387.89	795.78
388.09	809.83
388.28	847.27
388.48	905.79
388.67	847.27
388.86	891.74
389.06	844.93
389.25	903.45
389.45	901.11
389.64	889.40
389.84	952.60
390.03	959.62
390.22	957.28
390.42	950.26
390.61	847.27
390.81	973.66
391.00	992.39
391.19	882.38
391.39	1013.45
391.58	922.17
391.78	952.60
391.97	945.58
392.16	919.83
392.36	976.00
392.55	999.41
392.75	954.94
392.94	1043.88
393.13	1001.75
393.33	933.87
393.52	1006.43
393.71	990.05
393.91	961.96
394.10	1064.94
394.29	1081.33
394.49	1048.56
394.68	1046.22
394.88	1107.07
395.07	1050.90
395.26	973.66
395.46	1114.10
395.65	1116.44
395.84	1130.48
396.04	1151.54
396.23	1060.26
396.42	1107.07
396.62	1111.75
396.81	1128.14
397.00	1074.31
397.19	1064.94
397.39	1114.10
397.58	1299.00
397.77	1284.95
397.97	1242.82
398.16	1343.47
398.35	1263.89
398.55	1322.40
398.74	1301.34
398.93	1336.45
399.12	1322.40
399.32	1348.15
399.51	1348.15
399.70	1329.42
399.90	1343.47
400.09	1390.28
400.28	1385.60
400.47	1355.17
400.67	1521.35
400.86	1547.09
401.05	1444.11
401.24	1432.41
401.44	1446.45
401.63	1612.63
401.82	1465.18
402.01	1476.88
402.21	1666.46
402.40	1481.56
402.59	1607.95
402.78	1614.97
402.97	1572.84
403.17	1568.16
403.36	1544.75
403.55	1607.95
403.74	1666.46
403.93	1640.72
404.13	1687.53
404.32	1685.19
404.51	1645.40
404.70	1647.74
404.89	1654.76
405.09	1813.92
405.28	1678.16
405.47	1708.59
405.66	1764.76
405.85	1713.27
406.05	1856.04
406.24	1795.19
406.43	1678.16
406.62	1802.21
406.81	1891.15
407.00	1755.40
407.20	1827.96
407.39	1767.10
407.58	1968.39
407.77	1916.90
407.96	1956.69
408.15	1963.71
408.34	1970.73
408.54	1991.80
408.73	1963.71
408.92	1968.39
409.11	2052.65
409.30	1977.75
409.49	1961.37
409.68	2125.21
409.87	1963.71
410.07	2012.86
410.26	2197.76
410.45	2118.18
410.64	2155.63
410.83	2120.53
411.02	2157.97
411.21	2211.81
411.40	2251.60
411.59	2228.19
411.78	2258.62
411.98	2275.00
412.17	2366.28
412.36	2356.92
412.55	2422.45
412.74	2438.84
412.93	2555.86
413.12	2499.69
413.31	2476.29
413.50	2473.95
413.69	2504.37
413.88	2630.76
414.07	2548.84
414.26	2663.53
414.45	2609.70
414.64	2574.59
414.83	2743.11
415.02	2803.96
415.22	2675.23
415.41	2733.75
415.60	2782.90
415.79	2787.58
415.98	2848.43
416.17	2885.88
416.36	2750.13
416.55	2808.64
416.74	2881.20
416.93	2892.90
417.12	2768.85
417.31	3005.25
417.50	2825.03
417.69	3021.63
417.88	3061.42
418.07	3047.38
418.26	3012.27
418.45	3180.79
418.64	3103.55
418.83	3248.66
419.02	3117.59
419.21	3141.00
419.39	3213.56
419.58	3276.75
419.77	3080.14
419.96	3201.85
420.15	3236.96
420.34	3290.79
420.53	3311.86
420.72	3389.10
420.91	3300.16
421.10	3309.52
421.29	3461.65
421.48	3346.97
421.67	3379.73
421.86	3330.58
422.05	3356.33
422.24	3372.71
422.43	3419.52
422.61	3548.25
422.80	3494.42
422.99	3508.46
423.18	3576.34
423.37	3564.64
423.56	3459.31
423.75	3431.23
423.94	3424.20
424.13	3304.84
424.32	3314.20
424.50	3595.06
424.69	3592.72
424.88	3606.77
425.07	3440.59
425.26	3468.67
425.45	3562.30
425.64	3527.19
425.83	3557.61
426.01	3578.68
426.20	3625.49
426.39	3658.26
426.58	3611.45
426.77	3646.55
426.96	3543.57
427.15	3613.79
427.33	3698.05
427.52	3609.11
427.71	3691.02
427.90	3749.54
428.09	3749.54
428.28	3700.39
428.46	3847.84
428.65	3808.05
428.84	3885.29
429.03	3925.08
429.22	3712.09
429.40	3765.92
429.59	3761.24
429.78	3501.44
429.97	3630.17
430.16	3716.77
430.34	3880.61
430.53	3770.60
430.72	3906.35
430.91	3971.89
431.10	3728.47
431.28	4079.55
431.47	4259.78
431.66	4060.83
431.85	4060.83
432.03	4079.55
432.22	4227.01
432.41	4107.64
432.60	4203.60
432.79	4262.12
432.97	4248.07
433.16	4320.63
433.35	4168.49
433.54	4248.07
433.72	4191.90
433.91	4142.75
434.10	4341.69
434.28	4231.69
434.47	4376.80
434.66	4341.69
434.85	4514.89
435.03	4531.28
435.22	4470.42
435.41	4503.19
435.59	4507.87
435.78	4550.00
435.97	4617.88
436.16	4559.36
436.34	4610.86
436.53	4725.54
436.72	4669.37
436.90	4559.36
437.09	4685.75
437.28	4627.24
437.46	4652.98
437.65	4613.20
437.84	4575.75
438.02	4664.69
438.21	4615.54
438.40	4681.07
438.58	4919.81
438.77	4760.65
438.96	4798.10
439.14	4919.81
439.33	5043.85
439.52	4966.62
439.70	4954.91
439.89	5053.22
440.08	5135.14
440.26	5158.54
440.45	5118.75
440.63	5308.34
440.82	5296.63
441.01	5437.06
441.19	5416.00
441.38	5392.59
441.57	5535.37
441.75	5511.96
441.94	5844.32
442.12	5628.99
442.31	5689.84
442.50	5561.11
442.68	5427.70
442.87	5582.18
443.05	5598.56
443.24	5757.72
443.43	5788.14
443.61	5760.06
443.80	5926.24
443.98	5884.11
444.17	5521.32
444.35	5764.74
444.54	5877.09
444.73	5804.53
444.91	5792.83
445.10	5816.23
445.28	5762.40
445.47	5748.36
445.65	5886.45
445.84	5884.11
446.02	5902.83
446.21	5912.19
446.39	5809.21
446.58	6036.24
446.77	5907.51
446.95	5764.74
447.14	5970.71
447.32	6043.26
447.51	6019.86
447.69	5980.07
447.88	6022.20
448.06	5956.66
448.25	6047.94
448.43	6003.47
448.62	5872.40
448.80	5961.34
448.99	6232.85
449.17	6057.31
449.36	6022.20
449.54	6221.14
449.73	6296.04
449.91	6228.17
450.10	6389.66
450.28	6298.38
450.46	6272.64
450.65	6366.26
450.83	6375.62
451.02	6408.39
451.20	6450.52
451.39	6312.42
451.57	6399.02
451.76	6413.07
451.94	6590.95
452.13	6604.99
452.31	6546.48
452.49	6532.44
452.68	6410.73
452.86	6494.99
453.05	6626.06
453.23	6551.16
453.42	6471.58
453.60	6595.63
453.78	6661.16
453.97	6438.81
454.15	6677.55
454.34	6679.89
454.52	6764.15
454.70	6773.51
454.89	6602.65
455.07	6691.59
455.26	6939.69
455.44	6904.58
455.62	6867.13
455.81	6918.62
455.99	6862.45
456.17	7145.66
456.36	6935.01
456.54	7002.88
456.73	7199.49
456.91	7136.29
457.09	7204.17
457.28	7176.08
457.46	7080.12
457.64	7581.00
457.83	7115.23
458.01	7145.66
458.19	7431.20
458.38	7227.57
458.56	7295.45
458.74	7351.62
458.93	7131.61
459.11	7403.11
459.29	7325.88
459.48	7475.67
459.66	7435.88
459.84	7538.87
460.03	7674.62
460.21	7419.50
460.39	7644.19
460.57	7562.27
460.76	7573.97
460.94	7478.01
461.12	7850.16
461.31	7801.01
461.49	7698.02
461.67	7686.32
461.85	8095.91
462.04	7728.45
462.22	8383.80
462.40	7948.46
462.59	7950.80
462.77	8074.85
462.95	8011.65
463.13	7854.84
463.32	7948.46
463.50	8018.68
463.68	8116.98
463.86	8152.09
464.05	7969.52
464.23	8074.85
464.41	8109.96
464.59	8072.51
464.78	8315.92
464.96	8053.78
465.14	8098.25
465.32	8297.20
465.50	8234.00
465.69	8262.09
465.87	8325.29
466.05	8294.86
466.23	8449.33
466.41	8231.66
466.60	8620.19
466.78	8313.58
466.96	8198.90
467.14	8372.10
467.32	8580.40
467.51	8634.24
467.69	8475.08
467.87	8578.06
468.05	8566.36
468.23	8482.10
468.41	8379.12
468.60	8723.18
468.78	8575.72
468.96	8589.77
469.14	8814.46
469.32	8596.79
469.50	8631.90
469.69	8861.27
469.87	8863.61
470.05	8858.93
470.23	8767.65
470.41	8985.32
470.59	8685.73
470.77	8924.46
470.95	8915.10
471.14	9350.44
471.32	9036.81
471.50	9284.91
471.68	9102.34
471.86	9525.98
472.04	9245.12
472.22	9596.20
472.40	9202.99
472.58	9476.83
472.77	9488.53
472.95	9528.32
473.13	9914.51
473.31	9586.83
473.49	9603.22
473.67	9628.96
473.85	9607.90
474.03	9933.23
474.21	9895.78
474.39	10022.17
474.57	10017.49
474.75	9977.70
474.93	10066.64
475.12	10040.90
475.30	10265.59
475.48	9935.57
475.66	10249.21
475.84	10155.58
476.02	10223.46
476.20	10345.17
476.38	10565.18
476.56	10995.84
476.74	10628.37
476.92	10927.96
477.10	10546.45
477.28	10909.24
477.46	10761.78
477.64	11063.71
477.82	11075.42
478.00	11517.78
478.18	11417.13
478.36	11206.48
478.54	11337.56
478.72	11721.40
478.90	11541.18
479.08	11609.06
479.26	11880.56
479.44	11950.78
479.62	12035.03
479.80	12264.41
479.98	12032.69
480.16	12306.54
480.34	12233.98
480.52	12510.16
480.70	12826.14
480.88	12362.71
481.06	12477.40
481.24	12320.58
481.41	12547.61
481.59	12994.65
481.77	13172.54
481.95	12922.10
482.13	13408.93
482.31	13074.23
482.49	13556.38
482.67	13774.05
482.85	13781.07
483.03	13715.54
483.21	13774.05
483.39	13912.14
483.57	13872.36
483.74	14221.10
483.92	14066.62
484.10	14303.01
484.28	14717.29
484.46	14516.00
484.64	15091.77
484.82	14387.27
485.00	14860.06
485.18	15059.01
485.35	15007.52
485.53	14927.94
485.71	14932.62
485.89	15154.97
486.07	15318.81
486.25	15360.94
486.43	15391.36
486.61	15529.45
486.78	16191.83
486.96	16020.97
487.14	16137.99
487.32	16334.60
487.50	16681.00
487.68	16688.02
487.85	16706.74
488.03	16690.36
488.21	17106.98
488.39	17053.14
488.57	17036.76
488.75	17149.11
488.92	17575.08
489.10	17530.61
489.28	17858.29
489.46	17781.05
489.64	17678.07
489.81	18352.14
489.99	18331.08
490.17	18307.67
490.35	18787.48
490.53	18520.66
490.70	18750.03
490.88	18689.18
491.06	19138.56
491.24	19250.91
491.41	18988.77
491.59	18916.21
491.77	18946.64
491.95	19349.21
492.13	19765.82
492.30	20042.01
492.48	19716.67
492.66	19775.19
492.84	19803.27
493.01	19868.81
493.19	19681.56
493.37	20449.26
493.54	20563.95
493.72	20713.74
493.90	20840.13
494.08	20924.39
494.25	21221.64
494.43	21216.96
494.61	21305.90
494.79	21280.15
494.96	21369.09
495.14	21254.40
495.32	21879.33
495.49	21640.59
495.67	22190.62
495.85	21907.41
496.02	22089.98
496.20	22448.08
496.38	22434.03
496.55	22321.69
496.73	22862.35
496.91	22738.30
497.09	22759.37
497.26	23009.81
497.44	23180.67
497.62	23021.51
497.79	23192.37
497.97	23349.18
498.14	23318.76
498.32	23817.29
498.50	23690.90
498.67	23777.50
498.85	23770.48
499.03	24086.45
499.20	23948.36
499.38	24009.22
499.56	24301.78
499.73	24559.24
499.91	24439.87
500.08	24388.38
500.26	24236.25
500.44	24697.33
500.61	24306.46
500.79	24276.04
500.97	25081.18
501.14	25432.26
501.32	25436.94
501.49	25020.33
501.67	25394.81
501.84	25411.20
502.02	25390.13
502.20	25392.47
502.37	26059.52
502.55	25729.51
502.72	26019.74
502.90	25692.06
503.07	25729.51
503.25	25914.41
503.43	25722.49
503.60	25984.63
503.78	26031.44
503.95	26085.27
504.13	26522.95
504.30	26604.87
504.48	26562.74
504.65	26443.37
504.83	26824.88
505.01	27063.61
505.18	26874.03
505.36	27234.47
505.53	27374.91
505.71	27379.59
505.88	27337.46
506.06	27473.21
506.23	27704.92
506.41	27288.31
506.58	27534.06
506.76	27725.99
506.93	28065.36
507.11	27527.04
507.28	28123.88
507.46	27623.00
507.63	27796.20
507.81	27751.73
507.98	28105.15
508.16	28194.09
508.33	28540.49
508.50	28479.64
508.68	28606.03
508.85	28725.39
509.03	28610.71
509.20	28926.68
509.38	28940.72
509.55	29223.93
509.73	29050.73
509.90	29081.16
510.08	29116.26
510.25	28987.53
510.42	29146.69
510.60	29486.07
510.77	29390.11
510.95	29680.33
511.12	29699.06
511.30	30080.56
511.47	30003.33
511.64	30291.21
511.82	30190.57
511.99	29713.10
512.17	30047.80
512.34	30085.25
512.51	30143.76
512.69	30682.08
512.86	30567.40
513.04	30913.80
513.21	30677.40
513.38	30719.53
513.56	30632.93
513.73	30455.05
513.90	30731.23
514.08	30637.61
514.25	30855.28
514.43	30948.90
514.60	31009.76
514.77	31070.61
514.95	31159.55
515.12	31189.98
515.29	31288.28
515.47	31440.42
515.64	31571.49
515.81	31463.82
515.99	31482.55
516.16	31248.49
516.33	31545.74
516.51	31566.81
516.68	31236.79
516.85	31658.09
517.03	31688.51
517.20	31721.28
517.37	32425.78
517.54	32107.47
517.72	32320.46
517.89	32371.95
518.06	31901.50
518.24	31859.37
518.41	32034.91
518.58	32264.28
518.75	32170.66
518.93	32732.39
519.10	32664.52
519.27	32706.65
519.45	32650.47
519.62	32929.00
519.79	33315.19
519.96	33483.70
520.14	33411.15
520.31	32910.27
520.48	33116.24
520.65	33404.13
520.83	33528.17
521.00	33809.04
521.17	33811.38
521.34	33649.88
521.52	33584.35
521.69	33853.51
521.86	34031.39
522.03	33930.75
522.20	33928.41
522.38	34466.73
522.55	33975.22
522.72	34113.31
522.89	34354.38
523.07	34270.12
523.24	34059.48
523.41	34277.15
523.58	34256.08
523.75	35000.37
523.92	34543.97
524.10	35360.81
524.27	34848.24
524.44	34778.02
524.61	34792.06
524.78	34937.18
524.96	35213.36
525.13	35409.96
525.30	35510.61
525.47	35747.00
525.64	34988.67
525.81	35161.87
525.98	35276.55
526.16	35227.40
526.33	35194.64
526.50	35889.77
526.67	35529.33
526.84	35171.23
527.01	35264.85
527.18	35711.89
527.36	35892.12
527.53	36264.26
527.70	36144.89
527.87	36107.44
528.04	36254.90
528.21	36161.28
528.38	36437.46
528.55	36285.33
528.72	36430.44
528.89	36435.12
529.07	36559.17
529.24	35964.67
529.41	36634.06
529.58	36545.12
529.75	36416.40
529.92	36715.98
530.09	36767.48
530.26	36833.01
530.43	37104.51
530.60	36762.79
530.77	36748.75
530.94	36999.19
531.11	37008.55
531.28	36711.30
531.46	37036.64
531.63	37069.40
531.80	37371.33
531.97	37207.50
532.14	37216.86
532.31	36914.93
532.48	37493.04
532.65	37542.19
532.82	37617.09
532.99	37661.56
533.16	37364.31
533.33	37525.81
533.50	37942.42
533.67	38017.32
533.84	37778.59
534.01	37881.57
534.18	37961.15
534.35	38052.43
534.52	38218.61
534.69	38078.18
534.86	38272.44
535.03	37717.73
535.20	38225.63
535.37	38223.29
535.54	38349.68
535.71	38286.48
535.88	38190.52
536.05	38548.62
536.22	38778.00
536.38	38422.23
536.55	38543.94
536.72	38923.11
536.89	38305.21
537.06	38925.45
537.23	38632.88
537.40	38717.14
537.57	38890.34
537.74	39257.81
537.91	38972.26
538.08	39049.50
538.25	38588.41
538.42	38780.34
538.59	39365.47
538.75	38958.22
538.92	38913.75
539.09	39629.95
539.26	39182.91
539.43	39105.67
539.60	39145.46
539.77	38890.34
539.94	39683.78
540.11	39194.61
540.28	39393.56
540.44	39292.91
540.61	39342.06
540.78	39555.05
540.95	39477.82
541.12	39555.05
541.29	39470.79
541.46	39473.13
541.62	39938.90
541.79	39777.40
541.96	39824.22
542.13	39779.74
542.30	40069.97
542.47	39861.66
542.63	39608.89
542.80	40016.14
542.97	40840.01
543.14	40238.49
543.31	40418.71
543.48	40514.67
543.64	40856.39
543.81	40734.68
543.98	40524.04
544.15	40308.71
544.32	40793.20
544.48	40987.46
544.65	40701.92
544.82	40715.96
544.99	40364.88
545.16	40971.08
545.32	40802.56
545.49	41163.00
545.66	40933.63
545.83	41062.36
546.00	40942.99
546.16	40683.19
546.33	40762.77
546.50	40652.76
546.67	41006.19
546.83	40589.57
547.00	41462.59
547.17	41024.91
547.34	40800.22
547.50	41120.87
547.67	41677.92
547.84	41743.45
548.00	41336.20
548.17	41867.50
548.34	41408.76
548.51	41769.20
548.67	41804.31
548.84	41663.88
549.01	41544.51
549.18	42094.53
549.34	41867.50
549.51	42272.42
549.68	41691.96
549.84	41734.09
550.01	42298.16
550.18	42040.70
550.34	42251.35
550.51	41970.49
550.68	41876.86
550.84	41471.95
551.01	41848.78
551.18	41759.84
551.34	42113.26
551.51	42185.82
551.68	42333.27
551.84	42146.03
552.01	41968.15
552.18	42080.49
552.34	42225.60
552.51	42328.59
552.68	42443.27
552.84	42244.33
553.01	42508.81
553.18	42700.73
553.34	42506.47
553.51	42110.92
553.67	42291.14
553.84	42731.16
554.01	42841.17
554.17	43107.99
554.34	43047.13
554.51	42550.94
554.67	42724.14
554.84	42696.05
555.00	42394.12
555.17	42597.75
555.33	42609.45
555.50	42892.66
555.67	42497.11
555.83	42871.59
556.00	42447.96
556.16	43569.07
556.33	43058.84
556.50	43430.98
556.66	42820.10
556.83	43061.18
556.99	43571.41
557.16	43112.67
557.32	43416.94
557.49	43267.14
557.65	43227.35
557.82	42897.34
557.98	42927.77
558.15	43061.18
558.32	43384.17
558.48	42780.31
558.65	43255.44
558.81	43098.62
558.98	43388.85
559.14	43681.42
559.31	43199.27
559.47	43246.08
559.64	43751.63
559.80	43531.62
559.97	43412.26
560.13	43199.27
560.30	43115.01
560.46	43686.10
560.63	43524.60
560.79	43650.99
560.96	43985.69
561.12	43428.64
561.29	43669.72
561.45	43370.13
561.61	43323.32
561.78	43988.03
561.94	43592.48
562.11	43840.57
562.27	43421.62
562.44	43704.82
562.60	43896.75
562.77	43983.35
562.93	43845.26
563.10	43552.69
563.26	43761.00
563.42	43882.70
563.59	43683.76
563.75	43601.84
563.92	44009.09
564.08	43480.13
564.24	44009.09
564.41	44191.65
564.57	43756.32
564.74	43856.96
564.90	44074.63
565.07	44191.65
565.23	43704.82
565.39	43981.01
565.56	43915.47
565.72	44065.27
565.88	44027.82
566.05	44233.78
566.21	43854.62
566.38	43875.68
566.54	44069.95
566.70	44177.61
566.87	44325.07
567.03	44105.06
567.19	43995.05
567.36	44395.28
567.52	44058.24
567.68	44285.28
567.85	43852.28
568.01	44311.02
568.17	44055.90
568.34	44158.89
568.50	44135.48
568.66	44411.67
568.83	43950.58
568.99	44301.66
569.15	44011.43
569.32	44336.77
569.48	44165.91
569.64	44645.72
569.81	43959.94
569.97	44278.25
570.13	44208.04
570.30	44105.06
570.46	44109.74
570.62	44362.51
570.78	43548.01
570.95	44051.22
571.11	44311.02
571.27	44079.31
571.43	44222.08
571.60	44446.77
571.76	43999.73
571.92	44231.44
572.09	44273.57
572.25	44254.85
572.41	44369.54
572.57	44156.55
572.74	45048.29
572.90	44582.52
573.06	44287.62
573.22	44985.10
573.38	44442.09
573.55	43880.36
573.71	44708.91
573.87	44208.04
574.03	44289.96
574.20	44512.31
574.36	44451.45
574.52	44631.68
574.68	44957.01
574.84	44519.33
575.01	44301.66
575.17	44414.01
575.33	44289.96
575.49	44449.11
575.65	44500.61
575.82	44353.15
575.98	44561.46
576.14	45106.80
576.30	44673.81
576.46	43990.37
576.62	44610.61
576.79	44538.05
576.95	44561.46
577.11	44304.00
577.27	44540.39
577.43	44854.03
577.59	44570.82
577.75	44322.72
577.92	44238.47
578.08	44186.97
578.24	44142.50
578.40	44409.32
578.56	44734.66
578.72	44374.22
578.88	44671.46
579.04	45132.55
579.21	44477.20
579.37	44830.62
579.53	44348.47
579.69	44428.05
579.85	44547.42
580.01	44811.90
580.17	44224.42
580.33	45052.97
580.49	45418.10
580.65	44753.38
580.82	44870.41
580.98	44713.59
581.14	44142.50
581.30	44863.39
581.46	44528.69
581.62	44453.79
581.78	44811.90
581.94	44994.46
582.10	44729.98
582.26	44542.74
582.42	44949.99
582.58	44428.05
582.74	44538.05
582.90	44917.22
583.06	44849.35
583.22	44797.85
583.38	44788.49
583.54	44449.11
583.70	44729.98
583.86	44870.41
584.02	44252.51
584.18	44924.24
584.34	44942.97
584.50	44601.25
584.66	44442.09
584.82	44872.75
584.98	44758.06
585.14	44453.79
585.30	44526.35
585.46	44626.99
585.62	44519.33
585.78	44399.96
585.94	44261.87
586.10	44659.76
586.26	44598.91
586.42	44898.50
586.58	45153.62
586.74	44767.43
586.90	44409.32
587.06	44383.58
587.22	44898.50
587.38	45078.72
587.54	45249.58
587.70	44760.40
587.86	44980.42
588.02	44844.66
588.18	45125.53
588.34	44774.45
588.49	44645.72
588.65	44552.10
588.81	44245.49
588.97	44421.03
589.13	44294.64
589.29	44910.20
589.45	44701.89
589.61	44975.73
589.77	45188.72
589.93	44900.84
590.08	44996.80
590.24	45001.48
590.40	45074.04
