SpectraSuite Data File
++++++++++++++++++++++++++++++++++++
Date: Fri Oct 25 11:25:42 EDT 2013
User: price-jones
Dark Spectrum Present: No
Reference Spectrum Present: No
Number of Sampled Component Spectra: 1
Spectrometers: USB2+H05261
Integration Time (usec): 100000 (USB2+H05261)
Spectra Averaged: 1 (USB2+H05261)
Boxcar Smoothing: 0 (USB2+H05261)
Correct for Electrical Dark: No (USB2+H05261)
Strobe/Lamp Enabled: No (USB2+H05261)
Correct for Detector Non-linearity: No (USB2+H05261)
Correct for Stray Light: No (USB2+H05261)
Number of Pixels in Processed Spectrum: 2048
>>>>>Begin Processed Spectral Data<<<<<
365.73	194.26
365.92	194.26
366.12	194.26
366.32	110.01
366.52	149.79
366.72	189.58
366.91	189.58
367.11	138.09
367.31	170.86
367.51	107.66
367.70	154.48
367.90	119.37
368.10	119.37
368.30	133.41
368.49	163.84
368.69	238.73
368.89	189.58
369.09	140.43
369.28	222.35
369.48	117.03
369.68	175.54
369.87	257.46
370.07	133.41
370.27	201.29
370.47	360.44
370.66	594.50
370.86	585.13
371.06	685.78
371.25	657.69
371.45	664.71
371.65	627.26
371.84	631.94
372.04	645.99
372.24	690.46
372.44	678.76
372.63	716.20
372.83	755.99
373.03	737.27
373.22	751.31
373.42	760.67
373.62	758.33
373.81	744.29
374.01	835.57
374.21	866.00
374.40	917.49
374.60	861.32
374.79	835.57
374.99	866.00
375.19	873.02
375.38	917.49
375.58	847.27
375.78	922.17
375.97	891.74
376.17	926.85
376.37	875.36
376.56	877.70
376.76	924.51
376.95	854.30
377.15	896.43
377.35	898.77
377.54	912.81
377.74	875.36
377.93	910.47
378.13	844.93
378.33	842.59
378.52	929.19
378.72	936.21
378.91	922.17
379.11	940.90
379.31	952.60
379.50	947.92
379.70	1015.79
379.89	943.24
380.09	910.47
380.28	898.77
380.48	943.24
380.68	1013.45
380.87	947.92
381.07	966.64
381.26	1006.43
381.46	1015.79
381.65	999.41
381.85	1088.35
382.04	1013.45
382.24	1034.52
382.43	1029.84
382.63	1032.18
382.83	1078.99
383.02	1001.75
383.22	1046.22
383.41	1095.37
383.61	1144.52
383.80	1170.27
384.00	1118.78
384.19	1123.46
384.39	1170.27
384.58	1130.48
384.78	1116.44
384.97	1198.35
385.17	1116.44
385.36	1174.95
385.56	1149.20
385.75	1174.95
385.95	1137.50
386.14	1249.85
386.34	1186.65
386.53	1188.99
386.72	1151.54
386.92	1287.29
387.11	1212.40
387.31	1219.42
387.50	1308.36
387.70	1263.89
387.89	1247.51
388.09	1306.02
388.28	1263.89
388.48	1378.58
388.67	1348.15
388.86	1294.32
389.06	1324.74
389.25	1235.80
389.45	1371.55
389.64	1348.15
389.84	1364.53
390.03	1406.66
390.22	1336.45
390.42	1355.17
390.61	1392.62
390.81	1413.68
391.00	1423.05
391.19	1479.22
391.39	1338.79
391.58	1547.09
391.78	1474.54
391.97	1519.01
392.16	1507.30
392.36	1537.73
392.55	1535.39
392.75	1430.07
392.94	1397.30
393.13	1577.52
393.33	1488.58
393.52	1476.88
393.71	1530.71
393.91	1561.14
394.10	1584.54
394.29	1626.67
394.49	1629.01
394.68	1710.93
394.88	1610.29
395.07	1734.34
395.26	1650.08
395.46	1657.10
395.65	1722.63
395.84	1727.32
396.04	1792.85
396.23	1680.50
396.42	1692.21
396.62	1682.85
396.81	1741.36
397.00	1692.21
397.19	1748.38
397.39	1762.42
397.58	1809.23
397.77	1753.06
397.97	1783.49
398.16	1638.38
398.35	1891.15
398.55	1865.41
398.74	1984.77
398.93	1959.03
399.12	1980.09
399.32	1905.20
399.51	2045.63
399.70	1998.82
399.90	1952.01
400.09	1909.88
400.28	2069.03
400.47	2012.86
400.67	2045.63
400.86	2040.95
401.05	2040.95
401.24	2122.87
401.44	2078.40
401.63	2148.61
401.82	2190.74
402.01	2085.42
402.21	2118.18
402.40	2202.44
402.59	2169.68
402.78	2209.47
402.97	2167.34
403.17	2200.10
403.36	2181.38
403.55	2354.58
403.74	2312.45
403.93	2377.98
404.13	2347.56
404.32	2450.54
404.51	2361.60
404.70	2319.47
404.89	2415.43
405.09	2462.24
405.28	2298.41
405.47	2480.97
405.66	2424.80
405.85	2558.21
406.05	2600.34
406.24	2579.27
406.43	2602.68
406.62	2675.23
406.81	2668.21
407.00	2569.91
407.20	2654.17
407.39	2558.21
407.58	2597.99
407.77	2700.98
407.96	2745.45
408.15	2759.49
408.34	2523.10
408.54	2738.43
408.73	2754.81
408.92	2761.83
409.11	2953.76
409.30	2906.95
409.49	2818.00
409.68	2869.50
409.87	2967.80
410.07	2906.95
410.26	3035.67
410.45	3009.93
410.64	3007.59
410.83	3169.09
411.02	3080.14
411.21	3136.32
411.40	3103.55
411.59	3157.38
411.78	3255.69
411.98	3246.32
412.17	3243.98
412.36	3293.13
412.55	3382.07
412.74	3377.39
412.93	3459.31
413.12	3407.82
413.31	3625.49
413.50	3529.53
413.69	3463.99
413.88	3513.14
414.07	3555.27
414.26	3574.00
414.45	3644.21
414.64	3681.66
414.83	3791.67
415.02	3794.01
415.22	3679.32
415.41	3794.01
415.60	3892.31
415.79	3875.93
415.98	4016.36
416.17	3946.14
416.36	4030.40
416.55	4042.11
416.74	3904.01
416.93	4025.72
417.12	3946.14
417.31	4168.49
417.50	4243.39
417.69	4238.71
417.88	4311.27
418.07	4219.99
418.26	4177.86
418.45	4257.43
418.64	4353.40
418.83	4386.16
419.02	4519.57
419.21	4498.51
419.39	4360.42
419.58	4472.76
419.77	4217.65
419.96	4573.41
420.15	4521.92
420.34	4552.34
420.53	4667.03
420.72	4676.39
420.91	4671.71
421.10	4746.61
421.29	4737.24
421.48	4664.69
421.67	4770.01
421.86	4805.12
422.05	4854.27
422.24	4875.34
422.43	4849.59
422.61	4851.93
422.80	4849.59
422.99	4868.31
423.18	4903.42
423.37	4973.64
423.56	4987.68
423.75	4980.66
423.94	4795.76
424.13	4582.77
424.32	4702.14
424.50	4812.14
424.69	5041.51
424.88	5046.20
425.07	4926.83
425.26	4931.51
425.45	5008.75
425.64	4840.23
425.83	5083.64
426.01	4971.30
426.20	5032.15
426.39	5142.16
426.58	5008.75
426.77	5107.05
426.96	5062.58
427.15	5060.24
427.33	5104.71
427.52	5095.35
427.71	5256.84
427.90	5088.32
428.09	5284.93
428.28	5341.10
428.46	5273.23
428.65	5263.86
428.84	5516.64
429.03	5483.88
429.22	5345.78
429.40	5460.47
429.59	5481.53
429.78	5177.26
429.97	5282.59
430.16	5544.73
430.34	5518.98
430.53	5596.22
430.72	5727.29
430.91	5547.07
431.10	5542.39
431.28	5537.71
431.47	5687.50
431.66	5680.48
431.85	5661.76
432.03	5884.11
432.22	6022.20
432.41	5914.53
432.60	5802.19
432.79	5790.49
432.97	5951.98
433.16	5940.28
433.35	5933.26
433.54	6120.50
433.72	6101.78
433.91	6141.57
434.10	6057.31
434.28	6085.39
434.47	6148.59
434.66	6277.32
434.85	6279.66
435.03	6331.15
435.22	6171.99
435.41	6340.51
435.59	6352.21
435.78	6291.36
435.97	6476.26
436.16	6282.00
436.34	6349.87
436.53	6394.34
436.72	6569.88
436.90	6387.32
437.09	6623.72
437.28	6340.51
437.46	6373.28
437.65	6541.80
437.84	6806.28
438.02	6787.55
438.21	6771.17
438.40	6700.95
438.58	6817.98
438.77	6965.43
438.96	6810.96
439.14	7176.08
439.33	7035.65
439.52	7201.83
439.70	7133.95
439.89	7318.86
440.08	7325.88
440.26	7283.75
440.45	7344.60
440.63	7475.67
440.82	7499.08
441.01	7325.88
441.19	7658.23
441.38	7674.62
441.57	7721.43
441.75	7793.98
441.94	8002.29
442.12	7829.09
442.31	7932.08
442.50	7960.16
442.68	7978.89
442.87	7857.18
443.05	8170.81
443.24	8271.45
443.43	8205.92
443.61	8243.37
443.80	8353.37
443.98	7999.95
444.17	7803.35
444.35	8203.58
444.54	8332.31
444.73	8205.92
444.91	8418.91
445.10	8198.90
445.28	8292.52
445.47	8135.70
445.65	8187.19
445.84	8334.65
446.02	8248.05
446.21	8264.43
446.39	8177.83
446.58	8437.63
446.77	8482.10
446.95	8203.58
447.14	8313.58
447.32	8482.10
447.51	8531.25
447.69	8470.40
447.88	8573.38
448.06	8304.22
448.25	8580.40
448.43	8606.15
448.62	8409.54
448.80	8549.98
448.99	8631.90
449.17	8692.75
449.36	8547.64
449.54	8837.86
449.73	8774.67
449.91	8870.63
450.10	9060.21
450.28	8978.30
450.46	9001.70
450.65	8844.88
450.83	9107.02
451.02	9018.08
451.20	8959.57
451.39	9263.84
451.57	9277.88
451.76	9053.19
451.94	8978.30
452.13	9247.46
452.31	9202.99
452.49	9114.05
452.68	9275.54
452.86	9289.59
453.05	9294.27
453.23	9453.42
453.42	9334.06
453.60	9259.16
453.78	9467.47
453.97	9446.40
454.15	9446.40
454.34	9521.30
454.52	9364.48
454.70	9540.02
454.89	9675.77
455.07	9507.26
455.26	9757.69
455.44	9867.70
455.62	9731.95
455.81	9825.57
455.99	9830.25
456.17	9994.09
456.36	9977.70
456.54	9973.02
456.73	10246.87
456.91	10562.84
457.09	10340.49
457.28	10377.94
457.46	10223.46
457.64	10359.21
457.83	10363.89
458.01	10434.11
458.19	10745.40
458.38	10408.36
458.56	10822.64
458.74	10361.55
458.93	10644.76
459.11	10693.91
459.29	10670.50
459.48	10689.23
459.66	10523.05
459.84	10743.06
460.03	11150.31
460.21	11016.90
460.39	10930.30
460.57	10747.74
460.76	11185.42
460.94	11112.86
461.12	11133.93
461.31	11037.97
461.49	11000.52
461.67	11049.67
461.85	11180.74
462.04	11269.68
462.22	11740.13
462.40	11962.48
462.59	11433.52
462.77	11358.62
462.95	11639.48
463.13	11447.56
463.32	11522.46
463.50	11658.21
463.68	11587.99
463.86	11634.80
464.05	11602.04
464.23	11606.72
464.41	12013.97
464.59	11716.72
464.78	12250.36
464.96	12020.99
465.14	11639.48
465.32	11939.07
465.50	11978.86
465.69	12140.36
465.87	11749.49
466.05	12084.19
466.23	11936.73
466.41	12030.35
466.60	12498.46
466.78	12212.92
466.96	12292.49
467.14	12077.16
467.32	12367.39
467.51	12472.71
467.69	11880.56
467.87	12355.69
468.05	12283.13
468.23	12222.28
468.41	12554.63
468.60	12369.73
468.78	12650.60
468.96	12638.89
469.14	12685.70
469.32	12929.12
469.50	12587.40
469.69	12938.48
469.87	12779.32
470.05	13069.55
470.23	13022.74
470.41	13013.38
470.59	13076.57
470.77	13095.30
470.95	13240.41
471.14	13530.64
471.32	13156.15
471.50	13289.56
471.68	13476.80
471.86	13343.39
472.04	13385.52
472.22	14293.65
472.40	13685.11
472.58	13668.73
472.77	13689.79
472.95	13895.76
473.13	14597.92
473.31	14068.96
473.49	13893.42
473.67	14111.09
473.85	14115.77
474.03	14635.37
474.21	14331.10
474.39	14265.57
474.57	14768.78
474.75	15061.35
474.93	14920.92
475.12	14829.63
475.30	14878.79
475.48	14958.36
475.66	15178.37
475.84	14949.00
476.02	15398.38
476.20	15382.00
476.38	15578.61
476.56	16065.44
476.74	15683.93
476.92	15644.14
477.10	15812.66
477.28	16016.29
477.46	16161.40
477.64	16421.20
477.82	16231.62
478.00	16568.65
478.18	16638.87
478.36	17076.55
478.54	17163.15
478.72	17184.21
478.90	17181.87
479.08	17645.30
479.26	17355.07
479.44	17671.04
479.62	17612.53
479.80	17972.97
479.98	18064.25
480.16	18429.38
480.34	18363.84
480.52	18480.87
480.70	18499.59
480.88	18235.11
481.06	18665.77
481.24	18567.47
481.41	18897.49
481.59	19386.66
481.77	19253.25
481.95	19456.87
482.13	19534.11
482.31	19620.71
482.49	20074.77
482.67	19969.45
482.85	20482.03
483.03	20386.07
483.21	20744.17
483.39	21062.48
483.57	20929.07
483.74	20980.56
483.92	21310.58
484.10	21191.21
484.28	21345.69
484.46	21586.76
484.64	22113.38
484.82	21839.54
485.00	21951.88
485.18	22836.61
485.35	22625.96
485.53	22625.96
485.71	22801.50
485.89	23417.06
486.07	23197.05
486.25	23190.03
486.43	23407.70
486.61	23969.43
486.78	23676.86
486.96	24119.22
487.14	24638.82
487.32	24397.74
487.50	25081.18
487.68	24772.23
487.85	25078.84
488.03	25458.01
488.21	25750.57
488.39	25696.74
488.57	25977.61
488.75	25778.66
488.92	25982.29
489.10	26888.07
489.28	26829.56
489.46	26810.84
489.64	27047.23
489.81	27353.84
489.99	27744.71
490.17	27510.66
490.35	27742.37
490.53	28056.00
490.70	28226.86
490.88	28163.67
491.06	28617.73
491.24	28556.88
491.41	29273.08
491.59	29191.16
491.77	29074.13
491.95	29371.38
492.13	29752.89
492.30	29788.00
492.48	29663.95
492.66	30040.78
492.84	30307.60
493.01	30457.39
493.19	30614.21
493.37	30745.28
493.54	30916.14
493.72	31236.79
493.90	31152.53
494.08	31337.43
494.25	31735.32
494.43	31784.48
494.61	32348.54
494.79	32093.43
494.96	31920.23
495.14	32313.44
495.32	32655.15
495.49	32933.68
495.67	33441.57
495.85	33387.74
496.02	33804.36
496.20	33926.07
496.38	34036.07
496.55	34052.45
496.73	34321.62
496.91	34342.68
497.09	34330.98
497.26	34911.43
497.44	34693.76
497.62	35133.78
497.79	35604.23
497.97	35372.52
498.14	35786.79
498.32	35868.71
498.50	36226.81
498.67	36385.97
498.85	36301.71
499.03	36306.39
499.20	36217.45
499.38	36392.99
499.56	36641.09
499.73	36910.25
499.91	37266.01
500.08	37064.72
500.26	37331.54
500.44	37640.50
500.61	37612.41
500.79	37528.15
500.97	37457.93
501.14	38337.98
501.32	38073.49
501.49	38398.83
501.67	38731.18
501.84	38918.43
502.02	38983.96
502.20	38660.97
502.37	38560.33
502.55	38859.91
502.72	39161.84
502.90	39412.28
503.07	39344.41
503.25	39501.22
503.43	39543.35
503.60	40081.67
503.78	39831.24
503.95	40053.59
504.13	40329.77
504.30	40280.62
504.48	40292.32
504.65	40411.69
504.83	40840.01
505.01	41102.15
505.18	41312.80
505.36	41560.89
505.53	41219.17
505.71	41390.03
505.88	41776.22
506.06	40868.09
506.23	41752.82
506.41	41525.78
506.58	42103.90
506.76	41881.55
506.93	42373.06
507.11	42197.52
507.28	42124.96
507.46	42553.28
507.63	42911.38
507.81	43100.97
507.98	42405.83
508.16	42880.95
508.33	43512.90
508.50	43353.74
508.68	43353.74
508.85	43405.23
509.03	43217.99
509.20	43571.41
509.38	44088.67
509.55	44182.29
509.73	43943.56
509.90	44034.84
510.08	44421.03
510.25	44634.02
510.42	44531.03
510.60	45036.59
510.77	45134.89
510.95	44917.22
511.12	44959.35
511.30	45017.86
511.47	45162.98
511.64	44868.07
511.82	45640.45
511.99	45654.49
512.17	45911.95
512.34	45982.16
512.51	46326.22
512.69	46209.20
512.86	46195.15
513.04	46321.54
513.21	46328.56
513.38	46574.32
513.56	46508.79
513.73	46115.58
513.90	46988.60
514.08	46705.39
514.25	46906.68
514.43	47009.66
514.60	47089.24
514.77	47004.98
514.95	47744.59
515.12	47189.88
515.29	47360.74
515.47	47608.84
515.64	47854.59
515.81	47889.70
515.99	48154.18
516.16	48044.18
516.33	48226.74
516.51	48315.68
516.68	48095.67
516.85	48505.26
517.03	48760.38
517.20	48837.62
517.37	48582.50
517.54	48617.61
517.72	48612.93
517.89	49048.27
518.06	49020.18
518.24	48966.35
518.41	48861.02
518.58	49090.40
518.75	49001.46
518.93	49233.17
519.10	49169.97
519.27	49357.22
519.45	49607.65
519.62	49631.06
519.79	49532.76
519.96	49904.90
520.14	50384.71
520.31	49860.43
520.48	50225.56
520.65	50396.42
520.83	50323.86
521.00	50576.64
521.17	50375.35
521.34	50230.24
521.52	50574.30
521.69	50501.74
521.86	50637.49
522.03	50714.73
522.20	51299.86
522.38	51281.14
522.55	51220.28
522.72	51278.80
522.89	50887.93
523.07	51442.63
523.24	51316.25
523.41	51770.31
523.58	51096.24
523.75	51494.13
523.92	51751.59
524.10	51697.75
524.27	51908.40
524.44	51751.59
524.61	51892.02
524.78	51990.32
524.96	51849.89
525.13	52013.73
525.30	52009.04
525.47	52465.45
525.64	52161.18
525.81	52753.33
525.98	52259.48
526.16	52360.12
526.33	52514.60
526.50	52746.31
526.67	52633.97
526.84	52818.87
527.01	52594.18
527.18	52582.48
527.36	52942.92
527.53	52865.68
527.70	53083.35
527.87	53230.80
528.04	52893.77
528.21	53354.85
528.38	52982.71
528.55	53345.49
528.72	53481.24
528.89	53616.99
529.07	53483.58
529.24	53139.52
529.41	53312.72
529.58	53406.34
529.75	53413.37
529.92	53544.44
530.09	53982.12
530.26	53872.11
530.43	53734.02
530.60	53364.21
530.77	53757.42
530.94	53619.33
531.11	53949.35
531.28	53949.35
531.46	54136.59
531.63	54010.20
531.80	54120.21
531.97	54181.06
532.14	54347.24
532.31	54363.62
532.48	54375.33
532.65	54445.54
532.82	54232.55
532.99	54717.04
533.16	54468.95
533.33	54557.89
533.50	54684.28
533.67	54597.68
533.84	54365.96
534.01	54780.24
534.18	54649.17
534.35	55147.70
534.52	54681.94
534.69	55077.49
534.86	55000.25
535.03	54513.42
535.20	54932.37
535.37	55311.54
535.54	55388.78
535.71	55147.70
535.88	55208.56
536.05	55363.03
536.22	55449.63
536.38	55447.29
536.55	55531.55
536.72	55365.37
536.89	55491.76
537.06	55592.40
537.23	55533.89
537.40	55583.04
537.57	55594.74
537.74	55920.08
537.91	55819.44
538.08	55870.93
538.25	55463.67
538.42	55564.32
538.59	55945.83
538.75	55641.56
538.92	55915.40
539.09	56212.65
539.26	55845.18
539.43	56039.45
539.60	56093.28
539.77	56254.78
539.94	56376.48
540.11	56097.96
540.28	56346.06
540.44	56488.83
540.61	56296.91
540.78	56114.34
540.95	56313.29
541.12	56413.93
541.29	56100.30
541.46	56411.59
541.62	56093.28
541.79	56584.79
541.96	56278.18
542.13	56212.65
542.30	56507.55
542.47	56767.35
542.63	56926.51
542.80	56552.02
542.97	56687.78
543.14	57015.45
543.31	57015.45
543.48	57052.90
543.64	57429.72
543.81	57261.21
543.98	56912.47
544.15	57277.59
544.32	57249.50
544.48	57214.40
544.65	57291.63
544.82	57277.59
544.99	57031.83
545.16	57532.71
545.32	57106.73
545.49	57485.90
545.66	57628.67
545.83	57317.38
546.00	57469.51
546.16	57396.96
546.33	57371.21
546.50	57380.57
546.67	57612.29
546.83	57373.55
547.00	57614.63
547.17	57584.20
547.34	57717.61
547.50	57769.10
547.67	57977.41
547.84	58038.26
548.00	57895.49
548.17	58110.82
548.34	57726.97
548.51	58075.71
548.67	58244.23
548.84	57982.09
549.01	57911.88
549.18	58019.54
549.34	58134.23
549.51	58115.50
549.68	58230.19
549.84	58211.46
550.01	58344.87
550.18	58056.99
550.34	58422.11
550.51	58241.89
550.68	58321.47
550.84	58089.76
551.01	58269.98
551.18	58316.79
551.34	58300.40
551.51	58384.66
551.68	58426.79
551.84	58571.91
552.01	58295.72
552.18	58576.59
552.34	58494.67
552.51	58672.55
552.68	58487.65
552.84	58443.18
553.01	58735.74
553.18	58571.91
553.34	58660.85
553.51	58560.20
553.67	58564.88
553.84	58756.81
554.01	58894.90
554.17	59030.65
554.34	58803.62
554.51	58897.24
554.67	58864.47
554.84	58745.11
555.00	58993.20
555.17	58777.87
555.33	58983.84
555.50	58707.66
555.67	58986.18
555.83	58674.89
556.00	58808.30
556.16	59341.94
556.33	59068.10
556.50	59077.46
556.66	59093.85
556.83	58857.45
556.99	59121.93
557.16	59405.14
557.32	59334.92
557.49	59377.05
557.65	59049.38
557.82	59447.27
557.98	59157.04
558.15	59313.86
558.32	59384.07
558.48	59348.96
558.65	59260.02
558.81	59449.61
558.98	59508.12
559.14	59419.18
559.31	59489.40
559.47	59517.48
559.64	59463.65
559.80	59751.54
559.97	59814.73
560.13	59489.40
560.30	59285.77
560.46	59554.93
560.63	59604.08
560.79	59650.89
560.96	59707.07
561.12	59662.60
561.29	59693.02
561.45	59576.00
561.61	59763.24
561.78	59554.93
561.94	59487.06
562.11	59833.46
562.27	59725.79
562.44	59693.02
562.60	59856.86
562.77	59709.41
562.93	59650.89
563.10	60037.08
563.26	59770.26
563.42	60065.17
563.59	59788.98
563.75	59697.70
563.92	59901.33
564.08	59938.78
564.24	59999.63
564.41	60023.04
564.57	59964.52
564.74	60027.72
564.90	59887.29
565.07	60130.70
565.23	59901.33
565.39	60062.83
565.56	60154.11
565.72	60013.68
565.88	60020.70
566.05	60168.15
566.21	60102.62
566.38	60083.89
566.54	60168.15
566.70	60212.62
566.87	60177.51
567.03	59929.42
567.19	60191.56
567.36	60037.08
567.52	59980.91
567.68	60399.86
567.85	60158.79
568.01	60296.88
568.17	60198.58
568.34	60214.96
568.50	60240.71
568.66	60224.32
568.83	60268.79
568.99	60090.91
569.15	60317.95
569.32	60320.29
569.48	60229.01
569.64	60615.19
569.81	60179.85
569.97	60193.90
570.13	60451.36
570.30	60339.01
570.46	60233.69
570.62	60278.16
570.78	60413.91
570.95	60453.70
571.11	60547.32
571.27	60350.71
571.43	60313.26
571.60	60446.68
571.76	60488.80
571.92	60519.23
572.09	60439.65
572.25	60467.74
572.41	60334.33
572.57	60563.70
572.74	60647.96
572.90	60577.75
573.06	60526.25
573.22	60542.64
573.38	60577.75
573.55	60451.36
573.71	60748.60
573.87	60720.52
574.03	60381.14
574.20	60610.51
574.36	60680.73
574.52	60631.58
574.68	60371.78
574.84	60769.67
575.01	60554.34
575.17	60640.94
575.33	60451.36
575.49	60451.36
575.65	60650.30
575.82	60537.96
575.98	60640.94
576.14	60767.33
576.30	60811.80
576.46	60612.85
576.62	60587.11
576.79	60626.90
576.95	60334.33
577.11	60816.48
577.27	60652.64
577.43	60732.22
577.59	60673.71
577.75	60463.06
577.92	60339.01
578.08	60580.09
578.24	60722.86
578.40	60926.49
578.56	60987.34
578.72	60643.28
578.88	60933.51
579.04	60912.44
579.21	60692.43
579.37	60816.48
579.53	60807.12
579.69	60514.55
579.85	60767.33
580.01	60769.67
580.17	60514.55
580.33	60860.95
580.49	60945.21
580.65	60980.32
580.82	60760.31
580.98	60465.40
581.14	60654.98
581.30	60839.89
581.46	60788.39
581.62	60809.46
581.78	60736.90
581.94	60837.54
582.10	60818.82
582.26	60734.56
582.42	60697.11
582.58	60797.76
582.74	60732.22
582.90	60816.48
583.06	60762.65
583.22	60535.62
583.38	60970.96
583.54	60748.60
583.70	60779.03
583.86	61031.81
584.02	60783.71
584.18	60882.02
584.34	61031.81
584.50	60956.91
584.66	60715.84
584.82	60825.84
584.98	60956.91
585.14	60938.19
585.30	60846.91
585.46	60994.36
585.62	60844.57
585.78	60940.53
585.94	60776.69
586.10	60832.86
586.26	60825.84
586.42	60961.59
586.58	60999.04
586.74	60975.64
586.90	60959.25
587.06	60912.44
587.22	60947.55
587.38	60914.78
587.54	61158.20
587.70	60989.68
587.86	61043.51
588.02	60928.83
588.18	61099.68
588.34	60863.29
588.49	60952.23
