SpectraSuite Data File
++++++++++++++++++++++++++++++++++++
Date: Fri Oct 25 11:26:06 EDT 2013
User: price-jones
Dark Spectrum Present: No
Reference Spectrum Present: No
Number of Sampled Component Spectra: 1
Spectrometers: USB2+H05261
Integration Time (usec): 100000 (USB2+H05261)
Spectra Averaged: 1 (USB2+H05261)
Boxcar Smoothing: 0 (USB2+H05261)
Correct for Electrical Dark: No (USB2+H05261)
Strobe/Lamp Enabled: No (USB2+H05261)
Correct for Detector Non-linearity: No (USB2+H05261)
Correct for Stray Light: No (USB2+H05261)
Number of Pixels in Processed Spectrum: 2048
>>>>>Begin Processed Spectral Data<<<<<
365.73	290.23
365.92	290.23
366.12	290.23
366.32	163.84
366.52	175.54
366.72	231.71
366.91	102.98
367.11	161.50
367.31	77.24
367.51	93.62
367.70	149.79
367.90	149.79
368.10	163.84
368.30	126.39
368.49	119.37
368.69	187.24
368.89	220.01
369.09	177.88
369.28	196.60
369.48	215.33
369.68	180.22
369.87	187.24
370.07	222.35
370.27	210.65
370.47	346.40
370.66	568.75
370.86	564.07
371.06	631.94
371.25	737.27
371.45	725.57
371.65	664.71
371.84	779.40
372.04	732.59
372.24	681.10
372.44	697.48
372.63	704.50
372.83	835.57
373.03	704.50
373.22	751.31
373.42	755.99
373.62	788.76
373.81	849.61
374.01	830.89
374.21	779.40
374.40	851.96
374.60	739.61
374.79	840.25
374.99	901.11
375.19	884.72
375.38	805.14
375.58	931.53
375.78	887.06
375.97	917.49
376.17	898.77
376.37	777.06
376.56	842.59
376.76	938.55
376.95	866.00
377.15	915.15
377.35	950.26
377.54	873.02
377.74	917.49
377.93	910.47
378.13	976.00
378.33	999.41
378.52	992.39
378.72	877.70
378.91	992.39
379.11	926.85
379.31	980.68
379.50	903.45
379.70	938.55
379.89	931.53
380.09	966.64
380.28	964.30
380.48	940.90
380.68	957.28
380.87	940.90
381.07	1104.73
381.26	1078.99
381.46	990.05
381.65	994.73
381.85	1046.22
382.04	976.00
382.24	1050.90
382.43	1064.94
382.63	1078.99
382.83	1104.73
383.02	1097.71
383.22	1177.29
383.41	1067.28
383.61	1067.28
383.80	1039.20
384.00	1107.07
384.19	1184.31
384.39	1104.73
384.58	1149.20
384.78	1167.93
384.97	1107.07
385.17	1104.73
385.36	1224.10
385.56	1184.31
385.75	1174.95
385.95	1256.87
386.14	1083.67
386.34	1207.72
386.53	1219.42
386.72	1217.08
386.92	1338.79
387.11	1299.00
387.31	1357.51
387.50	1259.21
387.70	1287.29
387.89	1369.21
388.09	1268.57
388.28	1334.11
388.48	1289.64
388.67	1280.27
388.86	1359.85
389.06	1306.02
389.25	1364.53
389.45	1359.85
389.64	1376.24
389.84	1409.00
390.03	1474.54
390.22	1404.32
390.42	1380.92
390.61	1455.81
390.81	1306.02
391.00	1397.30
391.19	1465.18
391.39	1472.20
391.58	1551.78
391.78	1462.83
391.97	1497.94
392.16	1383.26
392.36	1556.46
392.55	1535.39
392.75	1593.90
392.94	1401.98
393.13	1572.84
393.33	1568.16
393.52	1467.52
393.71	1565.82
393.91	1633.69
394.10	1591.56
394.29	1624.33
394.49	1591.56
394.68	1612.63
394.88	1626.67
395.07	1706.25
395.26	1629.01
395.46	1722.63
395.65	1701.57
395.84	1659.44
396.04	1708.59
396.23	1706.25
396.42	1851.36
396.62	1746.04
396.81	1792.85
397.00	1870.09
397.19	1830.30
397.39	1818.60
397.58	1767.10
397.77	1858.39
397.97	1970.73
398.16	1867.75
398.35	1909.88
398.55	1844.34
398.74	1893.49
398.93	1898.17
399.12	1860.73
399.32	1839.66
399.51	1998.82
399.70	2019.88
399.90	2001.16
400.09	2017.54
400.28	2012.86
400.47	1982.43
400.67	2090.10
400.86	1937.96
401.05	2057.33
401.24	2122.87
401.44	2026.90
401.63	2143.93
401.82	2143.93
402.01	2108.82
402.21	2202.44
402.40	2300.75
402.59	2237.55
402.78	2265.64
402.97	2165.00
403.17	2209.47
403.36	2200.10
403.55	2260.96
403.74	2504.37
403.93	2263.30
404.13	2429.48
404.32	2406.07
404.51	2375.64
404.70	2459.90
404.89	2392.03
405.09	2546.50
405.28	2331.17
405.47	2485.65
405.66	2478.63
405.85	2537.14
406.05	2424.80
406.24	2581.61
406.43	2546.50
406.62	2616.72
406.81	2731.41
407.00	2495.01
407.20	2492.67
407.39	2614.38
407.58	2782.90
407.77	2633.10
407.96	2759.49
408.15	2644.81
408.34	2775.88
408.54	2832.05
408.73	2846.09
408.92	2794.60
409.11	2888.22
409.30	2853.11
409.49	2839.07
409.68	2977.16
409.87	2930.35
410.07	3000.57
410.26	3052.06
410.45	3084.83
410.64	3009.93
410.83	3049.72
411.02	3096.53
411.21	3190.15
411.40	3206.53
411.59	3297.81
411.78	3255.69
411.98	3225.26
412.17	3229.94
412.36	3274.41
412.55	3316.54
412.74	3382.07
412.93	3353.99
413.12	3356.33
413.31	3499.10
413.50	3389.10
413.69	3403.14
413.88	3562.30
414.07	3548.25
414.26	3616.13
414.45	3714.43
414.64	3744.86
414.83	3744.86
415.02	3833.80
415.22	3878.27
415.41	3700.39
415.60	3880.61
415.79	3925.08
415.98	3927.42
416.17	4042.11
416.36	3885.29
416.55	3997.64
416.74	4025.72
416.93	3901.67
417.12	4124.02
417.31	4250.41
417.50	4142.75
417.69	4294.88
417.88	4308.93
418.07	4184.88
418.26	4376.80
418.45	4238.71
418.64	4507.87
418.83	4418.93
419.02	4425.95
419.21	4482.13
419.39	4587.45
419.58	4493.83
419.77	4425.95
419.96	4608.51
420.15	4603.83
420.34	4608.51
420.53	4575.75
420.72	4655.33
420.91	4573.41
421.10	4690.43
421.29	4795.76
421.48	4777.03
421.67	4741.93
421.86	4889.38
422.05	4718.52
422.24	4713.84
422.43	4842.57
422.61	4858.95
422.80	4997.04
422.99	4954.91
423.18	5109.39
423.37	4985.34
423.56	4978.32
423.75	4830.87
423.94	4868.31
424.13	4550.00
424.32	4765.33
424.50	5008.75
424.69	5214.71
424.88	5123.43
425.07	5104.71
425.26	5032.15
425.45	4933.85
425.64	4901.08
425.83	4931.51
426.01	5015.77
426.20	5179.61
426.39	4980.66
426.58	5149.18
426.77	5186.63
426.96	5064.92
427.15	5179.61
427.33	5139.82
427.52	5177.26
427.71	5310.68
427.90	5303.65
428.09	5266.21
428.28	5453.45
428.46	5369.19
428.65	5217.05
428.84	5313.02
429.03	5373.87
429.22	5350.46
429.40	5596.22
429.59	5507.28
429.78	5291.95
429.97	5289.61
430.16	5437.06
430.34	5514.30
430.53	5565.79
430.72	5631.33
430.91	5621.97
431.10	5598.56
431.28	5860.70
431.47	5825.59
431.66	5872.40
431.85	5715.59
432.03	5769.42
432.22	5959.00
432.41	5858.36
432.60	5895.81
432.79	5980.07
432.97	6094.76
433.16	5893.47
433.35	5849.00
433.54	6101.78
433.72	5991.77
433.91	6054.97
434.10	6141.57
434.28	6186.04
434.47	6078.37
434.66	6342.85
434.85	6260.93
435.03	6462.22
435.22	6235.19
435.41	6511.37
435.59	6345.19
435.78	6396.68
435.97	6534.78
436.16	6384.98
436.34	6485.62
436.53	6626.06
436.72	6567.54
436.90	6532.44
437.09	6658.82
437.28	6560.52
437.46	6569.88
437.65	6661.16
437.84	6836.70
438.02	6539.46
438.21	6960.75
438.40	6759.47
438.58	6981.82
438.77	7028.63
438.96	6867.13
439.14	7129.27
439.33	7136.29
439.52	7145.66
439.70	7314.17
439.89	7405.46
440.08	7321.20
440.26	7222.89
440.45	7323.54
440.63	7468.65
440.82	7681.64
441.01	7527.16
441.19	7705.04
441.38	7740.15
441.57	7595.04
441.75	7595.04
441.94	7927.39
442.12	7941.44
442.31	8152.09
442.50	7962.50
442.68	7864.20
442.87	8205.92
443.05	8051.44
443.24	8065.49
443.43	8159.11
443.61	8285.50
443.80	8320.60
443.98	7988.25
444.17	8002.29
444.35	8292.52
444.54	8381.46
444.73	8311.24
444.91	8280.82
445.10	8259.75
445.28	8297.20
445.47	8351.03
445.65	8294.86
445.84	8409.54
446.02	8332.31
446.21	8451.67
446.39	8446.99
446.58	8613.17
446.77	8411.89
446.95	8255.07
447.14	8425.93
447.32	8542.96
447.51	8454.02
447.69	8414.23
447.88	8507.85
448.06	8568.70
448.25	8528.91
448.43	8484.44
448.62	8777.01
448.80	8557.00
448.99	8699.77
449.17	8592.11
449.36	8655.30
449.54	8821.48
449.73	8952.55
449.91	9050.85
450.10	8823.82
450.28	9069.58
450.46	8828.50
450.65	9114.05
450.83	9083.62
451.02	8987.66
451.20	9249.80
451.39	9179.58
451.57	9085.96
451.76	9135.11
451.94	9125.75
452.13	9369.16
452.31	9252.14
452.49	9125.75
452.68	9439.38
452.86	9357.46
453.05	9490.87
453.23	9352.78
453.42	9481.51
453.60	9249.80
453.78	9376.19
453.97	9511.94
454.15	9448.74
454.34	9387.89
454.52	9535.34
454.70	9624.28
454.89	9792.80
455.07	9799.82
455.26	9944.94
455.44	9966.00
455.62	9832.59
455.81	9870.04
455.99	10040.90
456.17	10153.24
456.36	9956.64
456.54	9987.07
456.73	10202.40
456.91	10408.36
457.09	10321.76
457.28	10504.32
457.46	10223.46
457.64	10232.82
457.83	10607.31
458.01	10441.13
458.19	10707.95
458.38	10520.71
458.56	10698.59
458.74	10642.42
458.93	10883.49
459.11	10860.09
459.29	10710.29
459.48	10773.49
459.66	10677.52
459.84	11033.29
460.03	10920.94
460.21	11033.29
460.39	10721.99
460.57	10986.47
460.76	11098.82
460.94	11183.08
461.12	11066.05
461.31	11080.10
461.49	11068.39
461.67	11211.17
461.85	11386.71
462.04	11159.67
462.22	11824.39
462.40	11454.58
462.59	11529.48
462.77	11557.57
462.95	11503.73
463.13	11506.07
463.32	11566.93
463.50	11878.22
463.68	11763.53
463.86	12028.01
464.05	11529.48
464.23	11723.74
464.41	12070.14
464.59	11730.76
464.78	12006.95
464.96	12042.06
465.14	11833.75
465.32	11950.78
465.50	12126.32
465.69	12252.70
465.87	12112.27
466.05	12121.63
466.23	12238.66
466.41	12180.15
466.60	12617.83
466.78	12299.52
466.96	12276.11
467.14	12283.13
467.32	12329.94
467.51	12491.44
467.69	12170.79
467.87	12507.82
468.05	12706.77
468.23	12112.27
468.41	12374.41
468.60	12662.30
468.78	12748.90
468.96	12545.27
469.14	12681.02
469.32	13212.32
469.50	12858.90
469.69	12959.55
469.87	13158.49
470.05	13235.73
470.23	13301.26
470.41	13097.64
470.59	13348.08
470.77	13132.75
470.95	13111.68
471.14	13399.57
471.32	12989.97
471.50	13549.36
471.68	13638.30
471.86	13596.17
472.04	13806.82
472.22	13827.88
472.40	13727.24
472.58	13884.06
472.77	13926.19
472.95	13996.40
473.13	14504.30
473.31	14129.81
473.49	14356.85
473.67	14209.39
473.85	14338.12
474.03	14572.18
474.21	14801.55
474.39	14520.68
474.57	14839.00
474.75	14710.27
474.93	15201.78
475.12	14998.15
475.30	15056.67
475.48	15124.54
475.66	15295.40
475.84	15073.05
476.02	15662.86
476.20	15513.07
476.38	15733.08
476.56	15850.11
476.74	15878.19
476.92	16016.29
477.10	15751.81
477.28	16119.27
477.46	16280.77
477.64	16203.53
477.82	16491.41
478.00	16893.99
478.18	16620.14
478.36	16919.73
478.54	17121.02
478.72	17242.73
478.90	17188.89
479.08	17392.52
479.26	17551.68
479.44	17664.02
479.62	17891.06
479.80	17940.21
479.98	18019.78
480.16	18743.01
480.34	17958.93
480.52	18532.36
480.70	18457.46
480.88	18441.08
481.06	18654.07
481.24	18906.85
481.41	19126.86
481.59	19316.44
481.77	19484.96
481.95	19433.47
482.13	19400.70
482.31	19782.21
482.49	20229.25
482.67	20182.44
482.85	20587.35
483.03	20685.65
483.21	21041.42
483.39	20788.64
483.57	20798.00
483.74	20917.37
483.92	21207.59
484.10	21249.72
484.28	21834.86
484.46	21771.66
484.64	22057.21
484.82	21799.75
485.00	22267.86
485.18	22852.99
485.35	22864.69
485.53	22742.99
485.71	23178.33
485.89	23445.15
486.07	23267.27
486.25	23679.20
486.43	23482.59
486.61	23763.46
486.78	24290.08
486.96	24154.33
487.14	24503.07
487.32	24617.75
487.50	24697.33
487.68	24858.83
487.85	25333.96
488.03	25226.29
488.21	25860.58
488.39	25476.73
488.57	26265.49
488.75	26012.71
488.92	26237.41
489.10	26499.55
489.28	26625.93
489.46	26991.06
489.64	26972.33
489.81	27576.19
489.99	27323.41
490.17	27920.25
490.35	28137.92
490.53	28166.01
490.70	28315.80
490.88	28425.81
491.06	28540.49
491.24	28772.21
491.41	28786.25
491.59	29116.26
491.77	29212.23
491.95	29570.33
492.13	29523.52
492.30	29975.24
492.48	29951.84
492.66	29996.31
492.84	30438.67
493.01	30759.32
493.19	30340.36
493.37	31108.06
493.54	30960.61
493.72	31321.05
493.90	31592.55
494.08	31693.19
494.25	32182.37
494.43	32004.49
494.61	32109.81
494.79	32472.59
494.96	32570.90
495.14	32917.29
495.32	33167.73
495.49	33310.50
495.67	33333.91
495.85	33591.37
496.02	33972.88
496.20	33923.72
496.38	34012.66
496.55	34162.46
496.73	34263.10
496.91	34494.82
497.09	35037.82
497.26	35016.75
497.44	34899.73
497.62	35498.91
497.79	35805.52
497.97	35101.01
498.14	35562.10
498.32	36025.53
498.50	36397.67
498.67	36463.21
498.85	36683.22
499.03	36727.69
499.20	35976.37
499.38	36512.36
499.56	36975.78
499.73	37137.28
499.91	37195.79
500.08	37574.96
500.26	37308.14
500.44	37600.71
500.61	37841.78
500.79	37893.27
500.97	38045.41
501.14	38263.08
501.32	38820.13
501.49	38356.70
501.67	38686.71
501.84	38953.54
502.02	38766.29
502.20	39152.48
502.37	39159.50
502.55	39227.38
502.72	39297.59
502.90	39187.59
503.07	39215.68
503.25	39875.71
503.43	39721.23
503.60	39835.92
503.78	40058.27
503.95	40297.00
504.13	40484.25
504.30	40767.45
504.48	40341.47
504.65	40711.28
504.83	41137.26
505.01	41123.21
505.18	41055.34
505.36	41701.32
505.53	41158.32
505.71	41418.12
505.88	41780.90
506.06	41537.49
506.23	42110.92
506.41	41556.21
506.58	42230.29
506.76	42157.73
506.93	42216.24
507.11	42288.80
507.28	42639.88
507.46	42747.54
507.63	43107.99
507.81	43213.31
507.98	42850.53
508.16	42672.65
508.33	43210.97
508.50	43510.56
508.68	43758.66
508.85	43522.26
509.03	43728.23
509.20	43833.55
509.38	44308.68
509.55	44336.77
509.73	44584.86
509.90	44552.10
510.08	44662.10
510.25	44575.50
510.42	44561.46
510.60	44690.19
510.77	44823.60
510.95	45153.62
511.12	45024.89
511.30	45504.70
511.47	45378.31
511.64	45427.46
511.82	45759.81
511.99	45956.42
512.17	45970.46
512.34	46080.47
512.51	46408.14
512.69	45972.80
512.86	46038.34
513.04	46583.68
513.21	46270.05
513.38	46845.82
513.56	46478.36
513.73	46639.86
513.90	47180.52
514.08	46967.53
514.25	47370.10
514.43	47189.88
514.60	47445.00
514.77	47281.16
514.95	47695.44
515.12	47498.83
515.29	47688.42
515.47	48002.05
515.64	47889.70
515.81	47789.06
515.99	48041.84
516.16	48413.98
516.33	47971.62
516.51	48835.28
516.68	48701.87
516.85	48142.48
517.03	48437.39
517.20	49069.33
517.37	48928.90
517.54	48711.23
517.72	48966.35
517.89	49017.84
518.06	49202.74
518.24	49184.02
518.41	49389.98
518.58	49207.42
518.75	49319.77
518.93	49846.39
519.10	49287.00
519.27	49769.15
519.45	49373.60
519.62	49558.50
519.79	49982.14
519.96	49642.76
520.14	49909.58
520.31	49942.35
520.48	50590.68
520.65	50234.92
520.83	50571.96
521.00	50546.21
521.17	50738.13
521.34	50698.34
521.52	50703.03
521.69	50749.84
521.86	50761.54
522.03	51051.76
522.20	51344.33
522.38	51449.66
522.55	51180.49
522.72	51536.26
522.89	51269.43
523.07	51487.10
523.24	51821.80
523.41	51440.29
523.58	51374.76
523.75	51491.79
523.92	51538.60
524.10	51796.06
524.27	51831.16
524.44	52027.77
524.61	52086.28
524.78	52374.17
524.96	51966.91
525.13	52378.85
525.30	52378.85
525.47	52383.53
525.64	52107.35
525.81	52428.00
525.98	52715.89
526.16	52542.69
526.33	52556.73
526.50	53237.83
526.67	52655.03
526.84	52919.51
527.01	52823.55
527.18	52968.66
527.36	52910.15
527.53	52952.28
527.70	53095.05
527.87	53020.16
528.04	52949.94
528.21	53366.55
528.38	53338.47
528.55	53429.75
528.72	53160.59
528.89	53394.64
529.07	53347.83
529.24	53593.59
529.41	53691.89
529.58	53696.57
529.75	53469.54
529.92	53860.41
530.09	53822.96
530.26	53869.77
530.43	54019.56
530.60	53902.54
530.77	53759.76
530.94	54260.64
531.11	53867.43
531.28	53956.37
531.46	54174.04
531.63	54237.23
531.80	54087.44
531.97	54068.72
532.14	54412.77
532.31	54365.96
532.48	54445.54
532.65	54660.87
532.82	54515.76
532.99	54581.29
533.16	54335.54
533.33	54838.75
533.50	54700.66
533.67	54630.44
533.84	54581.29
534.01	54848.11
534.18	54953.44
534.35	55311.54
534.52	54990.89
534.69	55011.95
534.86	54845.77
535.03	54953.44
535.20	55194.51
535.37	55224.94
535.54	55224.94
535.71	55262.39
535.88	55414.52
536.05	55564.32
536.22	55433.25
536.38	55627.51
536.55	55379.42
536.72	55519.85
536.89	55231.96
537.06	55569.00
537.23	55707.09
537.40	55599.43
537.57	55674.32
537.74	55667.30
537.91	55880.29
538.08	55877.95
538.25	55531.55
538.42	55742.20
538.59	56065.19
538.75	55781.99
538.92	55899.01
539.09	56058.17
539.26	56193.92
539.43	56130.73
539.60	56151.79
539.77	56207.97
539.94	56353.08
540.11	56240.73
540.28	56327.33
540.44	56399.89
540.61	56409.25
540.78	56666.71
540.95	56566.07
541.12	56479.47
541.29	56397.55
541.46	56472.45
541.62	56392.87
541.79	56626.92
541.96	56175.20
542.13	56502.87
542.30	56720.54
542.47	56868.00
542.63	56767.35
542.80	56781.40
542.97	56863.32
543.14	57198.01
543.31	57216.74
543.48	57261.21
543.64	57460.15
543.81	57413.34
543.98	57251.84
544.15	57371.21
544.32	57476.54
544.48	57563.14
544.65	57242.48
544.82	57378.23
544.99	57162.90
545.16	57499.94
545.32	57240.14
545.49	57586.54
545.66	57654.42
545.83	57546.75
546.00	57935.28
546.16	57483.56
546.33	57525.69
546.50	57439.09
546.67	57623.99
546.83	57394.62
547.00	57682.50
547.17	57609.95
547.34	57602.92
547.50	57762.08
547.67	58213.80
547.84	57942.30
548.00	57897.83
548.17	58042.95
548.34	57818.25
548.51	58089.76
548.67	58157.63
548.84	58033.58
549.01	57944.64
549.18	58003.16
549.34	58363.60
549.51	58312.11
549.68	58197.42
549.84	58244.23
550.01	58417.43
550.18	58223.17
550.34	58241.89
550.51	58295.72
550.68	58361.26
550.84	58223.17
551.01	58508.71
551.18	58279.34
551.34	58321.47
551.51	58489.99
551.68	58429.13
551.84	58447.86
552.01	58300.40
552.18	58719.36
552.34	58555.52
552.51	58583.61
552.68	58356.58
552.84	58511.05
553.01	58810.64
553.18	58735.74
553.34	58637.44
553.51	58822.34
553.67	58663.19
553.84	58808.30
554.01	58925.33
554.17	58883.20
554.34	59119.59
554.51	58866.81
554.67	59082.14
554.84	58993.20
555.00	58901.92
555.17	58850.43
555.33	58848.09
555.50	58742.77
555.67	59044.69
555.83	58731.06
556.00	58974.48
556.16	59477.69
556.33	59196.83
556.50	59157.04
556.66	59185.13
556.83	58958.09
556.99	59409.82
557.16	59386.41
557.32	59686.00
557.49	59484.72
557.65	59222.58
557.82	59412.16
557.98	59119.59
558.15	59437.90
558.32	59538.55
558.48	59290.45
558.65	59283.43
558.81	59444.93
558.98	59454.29
559.14	59540.89
559.31	59615.79
559.47	59728.13
559.64	59508.12
559.80	59590.04
559.97	59793.67
560.13	59494.08
560.30	59693.02
560.46	59863.88
560.63	59592.38
560.79	59676.64
560.96	59873.24
561.12	59807.71
561.29	59868.56
561.45	59814.73
561.61	59627.49
561.78	59676.64
561.94	59814.73
562.11	59704.73
562.27	59744.51
562.44	59990.27
562.60	60027.72
562.77	60055.81
562.93	59702.38
563.10	59852.18
563.26	59941.12
563.42	60053.47
563.59	60128.36
563.75	59934.10
563.92	60130.70
564.08	59917.71
564.24	60046.44
564.41	59908.35
564.57	59903.67
564.74	60142.41
564.90	60161.13
565.07	60097.94
565.23	59990.27
565.39	60301.56
565.56	60121.34
565.72	60060.49
565.88	60046.44
566.05	59999.63
566.21	60133.04
566.38	60275.82
566.54	60257.09
566.70	60243.05
566.87	60254.75
567.03	60088.57
567.19	60374.12
567.36	60214.96
567.52	60339.01
567.68	60486.46
567.85	60498.17
568.01	60212.62
568.17	60322.63
568.34	60362.42
568.50	60170.49
568.66	60214.96
568.83	60474.76
568.99	60226.66
569.15	60310.92
569.32	60404.55
569.48	60341.35
569.64	60301.56
569.81	60544.98
569.97	60296.88
570.13	60243.05
570.30	60184.54
570.46	60409.23
570.62	60364.76
570.78	60537.96
570.95	60573.06
571.11	60385.82
571.27	60299.22
571.43	60409.23
571.60	60643.28
571.76	60472.42
571.92	60542.64
572.09	60542.64
572.25	60624.56
572.41	60444.33
572.57	60479.44
572.74	60802.44
572.90	60537.96
573.06	60456.04
573.22	60413.91
573.38	60636.26
573.55	60479.44
573.71	60690.09
573.87	60669.03
574.03	60301.56
574.20	60701.79
574.36	60535.62
574.52	60769.67
574.68	60612.85
574.84	60807.12
575.01	60701.79
575.17	60587.11
575.33	60526.25
575.49	60554.34
575.65	60786.05
575.82	60842.23
575.98	60755.63
576.14	60954.57
576.30	60828.18
576.46	60692.43
576.62	60694.77
576.79	60622.22
576.95	60481.78
577.11	60757.97
577.27	60729.88
577.43	60884.36
577.59	60694.77
577.75	60940.53
577.92	60816.48
578.08	60570.72
578.24	60797.76
578.40	60856.27
578.56	60818.82
578.72	60713.50
578.88	61041.17
579.04	61038.83
579.21	60769.67
579.37	61043.51
579.53	61041.17
579.69	60678.39
579.85	60631.58
580.01	60860.95
580.17	60561.36
580.33	60891.38
580.49	60977.98
580.65	60947.55
580.82	60872.65
580.98	60743.92
581.14	60809.46
581.30	60921.80
581.46	60750.94
581.62	60809.46
581.78	61017.77
581.94	60882.02
582.10	60795.42
582.26	60748.60
582.42	60851.59
582.58	60767.33
582.74	60853.93
582.90	60800.10
583.06	60940.53
583.22	60701.79
583.38	60912.44
583.54	60615.19
583.70	60999.04
583.86	61071.60
584.02	60917.12
584.18	61038.83
584.34	60977.98
584.50	60917.12
584.66	60750.94
584.82	60722.86
584.98	60891.38
585.14	61125.43
585.30	60884.36
585.46	60910.10
585.62	61041.17
585.78	61106.71
585.94	61073.94
586.10	60889.04
586.26	61034.15
586.42	61069.26
586.58	61076.28
586.74	61043.51
586.90	61003.72
587.06	60975.64
587.22	61233.10
587.38	60996.70
587.54	61270.54
587.70	61087.98
587.86	60905.42
588.02	60935.85
588.18	61148.84
588.34	61048.19
588.49	60926.49
