SpectraSuite Data File
++++++++++++++++++++++++++++++++++++
Date: Fri Oct 25 11:34:10 EDT 2013
User: price-jones
Dark Spectrum Present: No
Reference Spectrum Present: No
Number of Sampled Component Spectra: 1
Spectrometers: USB2+H05261
Integration Time (usec): 100000 (USB2+H05261)
Spectra Averaged: 1 (USB2+H05261)
Boxcar Smoothing: 0 (USB2+H05261)
Correct for Electrical Dark: No (USB2+H05261)
Strobe/Lamp Enabled: No (USB2+H05261)
Correct for Detector Non-linearity: No (USB2+H05261)
Correct for Stray Light: No (USB2+H05261)
Number of Pixels in Processed Spectrum: 2048
>>>>>Begin Processed Spectral Data<<<<<
365.73	278.52
365.92	278.52
366.12	278.52
366.32	147.45
366.52	201.29
366.72	212.99
366.91	170.86
367.11	161.50
367.31	184.90
367.51	74.90
367.70	196.60
367.90	154.48
368.10	196.60
368.30	234.05
368.49	128.73
368.69	236.39
368.89	236.39
369.09	168.52
369.28	255.12
369.48	259.80
369.68	149.79
369.87	264.48
370.07	229.37
370.27	311.29
370.47	365.12
370.66	496.19
370.86	449.38
371.06	575.77
371.25	594.50
371.45	580.45
371.65	531.30
371.84	510.24
372.04	578.11
372.24	575.77
372.44	528.96
372.63	566.41
372.83	634.29
373.03	545.34
373.22	589.82
373.42	655.35
373.62	681.10
373.81	634.29
374.01	594.50
374.21	641.31
374.40	641.31
374.60	674.07
374.79	606.20
374.99	627.26
375.19	699.82
375.38	669.39
375.58	585.13
375.78	706.84
375.97	615.56
376.17	746.63
376.37	676.41
376.56	681.10
376.76	657.69
376.95	641.31
377.15	660.03
377.35	709.18
377.54	711.52
377.74	624.92
377.93	671.73
378.13	748.97
378.33	702.16
378.52	695.14
378.72	793.44
378.91	772.38
379.11	704.50
379.31	695.14
379.50	681.10
379.70	784.08
379.89	763.01
380.09	660.03
380.28	711.52
380.48	727.91
380.68	713.86
380.87	767.70
381.07	727.91
381.26	704.50
381.46	671.73
381.65	788.76
381.85	751.31
382.04	753.65
382.24	748.97
382.43	819.19
382.63	830.89
382.83	802.80
383.02	711.52
383.22	884.72
383.41	837.91
383.61	786.42
383.80	781.74
384.00	823.87
384.19	800.46
384.39	791.10
384.58	819.19
384.78	798.12
384.97	812.17
385.17	823.87
385.36	891.74
385.56	908.13
385.75	847.27
385.95	805.14
386.14	835.57
386.34	786.42
386.53	889.40
386.72	842.59
386.92	887.06
387.11	875.36
387.31	774.72
387.50	910.47
387.70	957.28
387.89	908.13
388.09	840.25
388.28	933.87
388.48	938.55
388.67	917.49
388.86	870.68
389.06	994.73
389.25	966.64
389.45	994.73
389.64	1011.11
389.84	938.55
390.03	938.55
390.22	950.26
390.42	915.15
390.61	938.55
390.81	1029.84
391.00	1064.94
391.19	1011.11
391.39	1008.77
391.58	997.07
391.78	1011.11
391.97	1069.62
392.16	1034.52
392.36	1034.52
392.55	1036.86
392.75	1053.24
392.94	1043.88
393.13	1034.52
393.33	1053.24
393.52	1060.26
393.71	1102.39
393.91	1060.26
394.10	1067.28
394.29	1064.94
394.49	1053.24
394.68	1081.33
394.88	1109.41
395.07	1160.91
395.26	1200.69
395.46	1121.12
395.65	1151.54
395.84	1174.95
396.04	1151.54
396.23	1207.72
396.42	1128.14
396.62	1221.76
396.81	1205.38
397.00	1263.89
397.19	1207.72
397.39	1132.82
397.58	1270.91
397.77	1226.44
397.97	1205.38
398.16	1247.51
398.35	1327.08
398.55	1224.10
398.74	1184.31
398.93	1273.25
399.12	1306.02
399.32	1231.12
399.51	1245.16
399.70	1275.59
399.90	1334.11
400.09	1287.29
400.28	1369.21
400.47	1329.42
400.67	1418.36
400.86	1378.58
401.05	1411.34
401.24	1460.49
401.44	1345.81
401.63	1509.65
401.82	1411.34
402.01	1343.47
402.21	1479.22
402.40	1437.09
402.59	1418.36
402.78	1416.02
402.97	1479.22
403.17	1474.54
403.36	1453.47
403.55	1593.90
403.74	1481.56
403.93	1577.52
404.13	1565.82
404.32	1528.37
404.51	1591.56
404.70	1607.95
404.89	1509.65
405.09	1638.38
405.28	1659.44
405.47	1727.32
405.66	1643.06
405.85	1636.03
406.05	1680.50
406.24	1781.15
406.43	1795.19
406.62	1732.00
406.81	1713.27
407.00	1703.91
407.20	1715.61
407.39	1699.23
407.58	1827.96
407.77	1856.04
407.96	1764.76
408.15	1834.98
408.34	1863.07
408.54	1811.57
408.73	1837.32
408.92	1863.07
409.11	1959.03
409.30	1968.39
409.49	1996.48
409.68	1888.81
409.87	1949.67
410.07	2066.69
410.26	2010.52
410.45	2047.97
410.64	2062.01
410.83	2162.66
411.02	2085.42
411.21	2071.37
411.40	2071.37
411.59	2127.55
411.78	2066.69
411.98	2090.10
412.17	2108.82
412.36	2235.21
412.55	2214.15
412.74	2310.11
412.93	2326.49
413.12	2221.17
413.31	2441.18
413.50	2382.67
413.69	2366.28
413.88	2471.61
414.07	2354.58
414.26	2340.54
414.45	2385.01
414.64	2527.78
414.83	2492.67
415.02	2443.52
415.22	2541.82
415.41	2609.70
415.60	2513.74
415.79	2736.09
415.98	2691.62
416.17	2593.31
416.36	2691.62
416.55	2785.24
416.74	2738.43
416.93	2654.17
417.12	2780.56
417.31	2834.39
417.50	2722.04
417.69	2846.09
417.88	2810.98
418.07	2724.38
418.26	2761.83
418.45	2810.98
418.64	2988.86
418.83	3000.57
419.02	3005.25
419.21	3105.89
419.39	3045.04
419.58	2951.42
419.77	2923.33
419.96	2993.55
420.15	3084.83
420.34	3119.93
420.53	3208.87
420.72	3152.70
420.91	3258.03
421.10	3129.30
421.29	3267.39
421.48	3176.11
421.67	3143.34
421.86	3180.79
422.05	3262.71
422.24	3232.28
422.43	3253.34
422.61	3211.22
422.80	3281.43
422.99	3323.56
423.18	3311.86
423.37	3377.39
423.56	3288.45
423.75	3386.76
423.94	3213.56
424.13	3166.74
424.32	3211.22
424.50	3382.07
424.69	3405.48
424.88	3536.55
425.07	3262.71
425.26	3255.69
425.45	3480.38
425.64	3325.90
425.83	3314.20
426.01	3407.82
426.20	3503.78
426.39	3372.71
426.58	3386.76
426.77	3321.22
426.96	3471.01
427.15	3398.46
427.33	3595.06
427.52	3403.14
427.71	3606.77
427.90	3499.10
428.09	3513.14
428.28	3756.56
428.46	3564.64
428.65	3529.53
428.84	3763.58
429.03	3559.95
429.22	3578.68
429.40	3562.30
429.59	3665.28
429.78	3489.74
429.97	3475.70
430.16	3786.99
430.34	3808.05
430.53	3810.39
430.72	3801.03
430.91	3779.97
431.10	3794.01
431.28	3864.22
431.47	3824.44
431.66	3878.27
431.85	3920.40
432.03	3946.14
432.22	3950.82
432.41	3927.42
432.60	3974.23
432.79	3964.87
432.97	3985.93
433.16	4170.83
433.35	3918.06
433.54	4131.05
433.72	4210.62
433.91	4081.89
434.10	4135.73
434.28	4081.89
434.47	4142.75
434.66	4215.30
434.85	4224.67
435.03	4306.59
435.22	4243.39
435.41	4257.43
435.59	4234.03
435.78	4386.16
435.97	4341.69
436.16	4397.87
436.34	4257.43
436.53	4227.01
436.72	4362.76
436.90	4187.22
437.09	4367.44
437.28	4315.95
437.46	4447.02
437.65	4421.27
437.84	4418.93
438.02	4461.06
438.21	4547.66
438.40	4444.68
438.58	4561.70
438.77	4664.69
438.96	4688.09
439.14	4805.12
439.33	4657.67
439.52	4788.74
439.70	4767.67
439.89	5039.17
440.08	4933.85
440.26	4961.94
440.45	4784.06
440.63	4835.55
440.82	5172.58
441.01	4987.68
441.19	5060.24
441.38	5107.05
441.57	5137.48
441.75	5036.83
441.94	5254.50
442.12	5231.10
442.31	5385.57
442.50	5266.21
442.68	5355.15
442.87	5383.23
443.05	5362.17
443.24	5355.15
443.43	5261.52
443.61	5413.66
443.80	5563.45
443.98	5359.83
444.17	5193.65
444.35	5394.93
444.54	5610.26
444.73	5556.43
444.91	5509.62
445.10	5493.24
445.28	5526.00
445.47	5469.83
445.65	5565.79
445.84	5685.16
446.02	5603.24
446.21	5661.76
446.39	5572.82
446.58	5638.35
446.77	5853.68
446.95	5434.72
447.14	5614.95
447.32	5837.30
447.51	5572.82
447.69	5563.45
447.88	5565.79
448.06	5640.69
448.25	5467.49
448.43	5734.31
448.62	5785.80
448.80	5563.45
448.99	5724.95
449.17	5717.93
449.36	5741.33
449.54	5757.72
449.73	5802.19
449.91	5959.00
450.10	5893.47
450.28	6033.90
450.46	6038.58
450.65	5877.09
450.83	5977.73
451.02	6008.16
451.20	6061.99
451.39	6120.50
451.57	6045.60
451.76	6069.01
451.94	6008.16
452.13	6059.65
452.31	6176.67
452.49	5987.09
452.68	6153.27
452.86	6125.18
453.05	6036.24
453.23	6179.01
453.42	6197.74
453.60	6059.65
453.78	6169.65
453.97	6230.51
454.15	6204.76
454.34	6211.78
454.52	6396.68
454.70	6354.55
454.89	6401.37
455.07	6399.02
455.26	6307.74
455.44	6534.78
455.62	6509.03
455.81	6504.35
455.99	6422.43
456.17	6588.61
456.36	6670.53
456.54	6883.52
456.73	6853.09
456.91	6909.26
457.09	6810.96
457.28	6881.18
457.46	6717.34
457.64	6972.46
457.83	6857.77
458.01	7009.90
458.19	7194.81
458.38	6920.96
458.56	6883.52
458.74	7087.14
458.93	6883.52
459.11	7115.23
459.29	7052.03
459.48	7155.02
459.66	7077.78
459.84	7145.66
460.03	7250.98
460.21	7344.60
460.39	7145.66
460.57	7241.62
460.76	7274.38
460.94	7286.09
461.12	7442.90
461.31	7323.54
461.49	7239.28
461.67	7173.74
461.85	7442.90
462.04	7346.94
462.22	7793.98
462.40	7686.32
462.59	7571.63
462.77	7531.84
462.95	7644.19
463.13	7478.01
463.32	7728.45
463.50	7625.47
463.68	7665.25
463.86	7859.52
464.05	7758.88
464.23	7508.44
464.41	7793.98
464.59	7770.58
464.78	7833.77
464.96	7655.89
465.14	7845.48
465.32	7946.12
465.50	7850.16
465.69	7812.71
465.87	7779.94
466.05	7726.11
466.23	7941.44
466.41	7941.44
466.60	7985.91
466.78	8011.65
466.96	8208.26
467.14	8060.80
467.32	8051.44
467.51	8262.09
467.69	7999.95
467.87	8077.19
468.05	8346.35
468.23	8102.93
468.41	8168.47
468.60	8311.24
468.78	8402.52
468.96	8166.13
469.14	8557.00
469.32	8400.18
469.50	8215.28
469.69	8439.97
469.87	8505.51
470.05	8496.14
470.23	8339.33
470.41	8678.71
470.59	8842.54
470.77	8428.27
470.95	8826.16
471.14	8575.72
471.32	8753.60
471.50	8671.68
471.68	8645.94
471.86	8968.93
472.04	8938.51
472.22	9186.60
472.40	8901.06
472.58	8966.59
472.77	9092.98
472.95	8945.53
473.13	9380.87
473.31	8903.40
473.49	9142.13
473.67	9289.59
473.85	9451.08
474.03	9404.27
474.21	9455.76
474.39	9722.59
474.57	9563.43
474.75	9771.74
474.93	9671.09
475.12	9605.56
475.30	9762.37
475.48	9769.40
475.66	9837.27
475.84	9664.07
476.02	9942.60
476.20	9832.59
476.38	10092.39
476.56	10221.12
476.74	10443.47
476.92	10277.29
477.10	10232.82
477.28	10530.07
477.46	10555.82
477.64	10656.46
477.82	10654.12
478.00	11073.07
478.18	10815.62
478.36	10920.94
478.54	11192.44
478.72	10995.84
478.90	11131.59
479.08	11426.50
479.26	11501.39
479.44	11344.58
479.62	11477.99
479.80	11541.18
479.98	11793.96
480.16	11908.65
480.34	11714.38
480.52	12042.06
480.70	12058.44
480.88	11857.15
481.06	12009.29
481.24	12091.21
481.41	12152.06
481.59	12287.81
481.77	12362.71
481.95	12315.90
482.13	12692.73
482.31	12615.49
482.49	12849.54
482.67	12959.55
482.85	12966.57
483.03	12933.80
483.21	13291.90
483.39	13645.32
483.57	13401.91
483.74	13579.79
483.92	13872.36
484.10	13540.00
484.28	14033.85
484.46	14235.14
484.64	14391.95
484.82	13879.38
485.00	14104.07
485.18	14544.09
485.35	14621.33
485.53	14792.19
485.71	14988.79
485.89	14846.02
486.07	14743.03
486.25	15250.93
486.43	14913.89
486.61	15346.89
486.78	15220.50
486.96	15356.25
487.14	15864.15
487.32	15508.39
487.50	15791.59
487.68	16203.53
487.85	16191.83
488.03	16245.66
488.21	16575.67
488.39	16423.54
488.57	16758.24
488.75	16823.77
488.92	16954.84
489.10	16905.69
489.28	16912.71
489.46	17312.94
489.64	17298.90
489.81	17605.51
489.99	17696.79
490.17	17736.58
490.35	17914.46
490.53	17848.93
490.70	17806.80
490.88	18345.12
491.06	18298.31
491.24	18511.30
491.41	18579.17
491.59	18551.09
491.77	18565.13
491.95	18937.27
492.13	18998.13
492.30	19066.00
492.48	19302.40
492.66	19241.54
492.84	19288.35
493.01	19747.10
493.19	19594.96
493.37	19789.23
493.54	19660.50
493.72	20189.46
493.90	19978.81
494.08	20046.69
494.25	20542.88
494.43	20313.51
494.61	20751.19
494.79	20547.56
494.96	20671.61
495.14	20730.12
495.32	21364.41
495.49	21348.03
495.67	21219.30
495.85	21350.37
496.02	21460.37
496.20	21989.33
496.38	21799.75
496.55	21984.65
496.73	22403.61
496.91	22256.15
497.09	22274.88
497.26	22043.17
497.44	22162.53
497.62	22459.78
497.79	22883.42
497.97	22874.06
498.14	22960.66
498.32	23082.36
498.50	23002.78
498.67	23311.74
498.85	23143.22
499.03	23548.13
499.20	23651.11
499.38	23985.81
499.56	23807.93
499.73	23796.23
499.91	24079.43
500.08	24116.88
500.26	24091.13
500.44	24301.78
500.61	24254.97
500.79	24489.03
500.97	24493.71
501.14	24407.11
501.32	24954.79
501.49	24535.84
501.67	24683.29
501.84	24769.89
502.02	24954.79
502.20	24922.02
502.37	25422.90
502.55	25427.58
502.72	25413.54
502.90	25221.61
503.07	25378.43
503.25	25352.68
503.43	25406.52
503.60	25326.94
503.78	26143.78
503.95	25888.67
504.13	25947.18
504.30	26052.50
504.48	25776.32
504.65	25940.16
504.83	26644.66
505.01	26342.73
505.18	26373.16
505.36	26644.66
505.53	26366.13
505.71	26953.61
505.88	26813.18
506.06	26473.80
506.23	26813.18
506.41	26829.56
506.58	27122.13
506.76	27206.39
506.93	27358.52
507.11	27264.90
507.28	27342.14
507.46	27168.94
507.63	27564.49
507.81	28147.28
507.98	27590.24
508.16	27845.35
508.33	27878.12
508.50	27985.79
508.68	27943.66
508.85	28114.52
509.03	28343.89
509.20	28048.98
509.38	28582.62
509.55	28327.50
509.73	28685.61
509.90	29109.24
510.08	28751.14
510.25	28744.12
510.42	28905.62
510.60	28851.78
510.77	29053.07
510.95	29233.29
511.12	29268.40
511.30	29036.69
511.47	29773.95
511.64	29296.49
511.82	29317.55
511.99	29326.91
512.17	29689.70
512.34	29745.87
512.51	30174.19
512.69	30103.97
512.86	30267.81
513.04	29940.13
513.21	30153.12
513.38	30820.17
513.56	30354.41
513.73	30457.39
513.90	30607.19
514.08	30366.11
514.25	30639.95
514.43	30932.52
514.60	30628.25
514.77	30967.63
514.95	31168.91
515.12	30749.96
515.29	30934.86
515.47	30939.54
515.64	31489.57
515.81	31335.09
515.99	31335.09
516.16	31426.37
516.33	31531.70
516.51	31440.42
516.68	31653.40
516.85	31475.52
517.03	31737.66
517.20	31791.50
517.37	31538.72
517.54	31630.00
517.72	32046.62
517.89	31915.54
518.06	32016.19
518.24	32121.51
518.41	32201.09
518.58	32191.73
518.75	32039.59
518.93	32945.38
519.10	32535.79
519.27	32594.30
519.45	32318.12
519.62	32835.38
519.79	32746.44
519.96	32505.36
520.14	33041.34
520.31	32769.84
520.48	33270.72
520.65	33301.14
520.83	33589.03
521.00	33507.11
521.17	33287.10
521.34	33684.99
521.52	33565.62
521.69	33755.21
521.86	33912.02
522.03	33556.26
522.20	34075.86
522.38	34352.04
522.55	34057.14
522.72	34260.76
522.89	34501.84
523.07	34499.50
523.24	34501.84
523.41	34539.29
523.58	34237.36
523.75	34843.56
523.92	34581.42
524.10	34721.85
524.27	34705.46
524.44	34747.59
524.61	35257.83
524.78	34604.82
524.96	34539.29
525.13	35283.58
525.30	35646.36
525.47	35756.36
525.64	35229.74
525.81	35328.05
525.98	35688.49
526.16	35512.95
526.33	35538.69
526.50	35826.58
526.67	35676.79
526.84	35995.10
527.01	35505.93
527.18	35852.33
527.36	35817.22
527.53	36079.36
527.70	36243.20
527.87	36503.00
528.04	36233.83
528.21	36098.08
528.38	36091.06
528.55	36355.54
528.72	36261.92
528.89	36811.95
529.07	36346.18
529.24	36505.34
529.41	36865.78
529.58	36320.43
529.75	36137.87
529.92	36577.89
530.09	36648.11
530.26	36708.96
530.43	36987.49
530.60	36694.92
530.77	36701.94
530.94	36648.11
531.11	37062.38
531.28	36847.05
531.46	37462.61
531.63	37612.41
531.80	36818.97
531.97	37331.54
532.14	37153.66
532.31	37116.22
532.48	37624.11
532.65	37310.48
532.82	37443.89
532.99	37640.50
533.16	37549.21
533.33	37741.14
533.50	37624.11
533.67	37806.67
533.84	37553.90
534.01	37888.59
534.18	37804.33
534.35	38029.02
534.52	38543.94
534.69	38443.30
534.86	38249.03
535.03	37930.72
535.20	38337.98
535.37	38333.29
535.54	38630.54
535.71	38326.27
535.88	39005.03
536.05	38527.56
536.22	38394.15
536.38	38527.56
536.55	38499.47
536.72	38787.36
536.89	38890.34
537.06	39075.24
537.23	38960.56
537.40	39044.82
537.57	38417.55
537.74	38827.15
537.91	38838.85
538.08	39129.08
538.25	38485.43
538.42	39255.46
538.59	39941.24
538.75	39042.48
538.92	39473.13
539.09	39732.93
539.26	39653.36
539.43	38890.34
539.60	39676.76
539.77	39594.84
539.94	40027.84
540.11	39709.53
540.28	39524.63
540.44	39711.87
540.61	39871.03
540.78	39866.34
540.95	40044.23
541.12	39480.16
541.29	39573.78
541.46	39894.43
541.62	40123.80
541.79	40568.51
541.96	39920.18
542.13	39934.22
542.30	40215.08
542.47	40662.13
542.63	40631.70
542.80	40589.57
542.97	40863.41
543.14	41181.73
543.31	40741.71
543.48	40645.74
543.64	41214.49
543.81	41240.24
543.98	41050.66
544.15	41064.70
544.32	41310.46
544.48	41453.23
544.65	41270.67
544.82	41256.62
544.99	40865.75
545.16	40926.61
545.32	41326.84
545.49	41165.34
545.66	41345.56
545.83	41930.70
546.00	41624.09
546.16	41375.99
546.33	41226.20
546.50	41525.78
546.67	42143.69
546.83	41401.74
547.00	41462.59
547.17	41738.77
547.34	41715.37
547.50	42106.24
547.67	42698.39
547.84	41909.63
548.00	41787.92
548.17	42342.63
548.34	42312.20
548.51	42136.66
548.67	42206.88
548.84	42307.52
549.01	42108.58
549.18	42115.60
549.34	42178.79
549.51	42616.47
549.68	41942.40
549.84	42078.15
550.01	42295.82
550.18	41961.12
550.34	42155.39
550.51	42780.31
550.68	42784.99
550.84	42375.40
551.01	42794.36
551.18	42555.62
551.34	42866.91
551.51	42653.92
551.68	42904.36
551.84	42808.40
552.01	43007.34
552.18	42717.12
552.34	42866.91
552.51	43042.45
552.68	42759.25
552.84	42660.94
553.01	43084.58
553.18	42925.42
553.34	43021.39
553.51	43089.26
553.67	43398.21
553.84	43152.46
554.01	43643.97
554.17	43363.11
554.34	43555.03
554.51	43365.45
554.67	43835.89
554.84	43550.35
555.00	43346.72
555.17	43566.73
555.33	43503.54
555.50	43428.64
555.67	43566.73
555.83	43316.29
556.00	43686.10
556.16	44294.64
556.33	43538.65
556.50	43842.92
556.66	43892.07
556.83	43966.96
556.99	44301.66
557.16	44215.06
557.32	44198.68
557.49	43758.66
557.65	43611.20
557.82	44006.75
557.98	43782.06
558.15	44147.18
558.32	43650.99
558.48	43868.66
558.65	44027.82
558.81	44404.64
558.98	44079.31
559.14	44039.52
559.31	44142.50
559.47	44133.14
559.64	44446.77
559.80	44105.06
559.97	44271.23
560.13	44144.84
560.30	44456.14
560.46	44540.39
560.63	44999.14
560.79	44928.92
560.96	44704.23
561.12	44624.65
561.29	44699.55
561.45	44839.98
561.61	44341.45
561.78	44704.23
561.94	44161.23
562.11	44493.58
562.27	44807.22
562.44	44926.58
562.60	44863.39
562.77	44676.15
562.93	44505.29
563.10	44947.65
563.26	44823.60
563.42	45062.33
563.59	44758.06
563.75	44919.56
563.92	44746.36
564.08	44851.69
564.24	45368.94
564.41	44741.68
564.57	44638.70
564.74	44699.55
564.90	44626.99
565.07	44783.81
565.23	45031.91
565.39	44914.88
565.56	45455.54
565.72	44795.51
565.88	44900.84
566.05	45591.30
566.21	44753.38
566.38	45127.87
566.54	45420.44
566.70	45139.57
566.87	45244.90
567.03	45134.89
567.19	45265.96
567.36	45270.64
567.52	45120.85
567.68	45509.38
567.85	45485.97
568.01	45574.91
568.17	45132.55
568.34	45502.35
568.50	45336.18
568.66	45284.68
568.83	45272.98
568.99	45280.00
569.15	45207.45
569.32	45282.34
569.48	45434.48
569.64	45378.31
569.81	45209.79
569.97	45464.91
570.13	46216.22
570.30	45504.70
570.46	45645.13
570.62	45141.91
570.78	45832.37
570.95	45598.32
571.11	45392.35
571.27	45876.84
571.43	45701.30
571.60	45411.07
571.76	45492.99
571.92	45687.26
572.09	45399.37
572.25	45441.50
572.41	45155.96
572.57	45329.16
572.74	45799.60
572.90	45823.01
573.06	45579.59
573.22	45893.22
573.38	45530.44
573.55	45558.53
573.71	45839.39
573.87	46258.35
574.03	45691.94
574.20	46017.27
574.36	45703.64
574.52	46174.09
574.68	46176.43
574.84	45916.63
575.01	45865.14
575.17	45975.14
575.33	46052.38
575.49	45598.32
575.65	46089.83
575.82	46073.45
575.98	45769.18
576.14	46253.67
576.30	46075.79
576.46	45862.80
576.62	45614.70
576.79	45750.45
576.95	45832.37
577.11	45738.75
577.27	46148.34
577.43	45584.27
577.59	46043.02
577.75	46108.55
577.92	45799.60
578.08	45734.07
578.24	45750.45
578.40	46291.12
578.56	46576.66
578.72	45773.86
578.88	45673.21
579.04	46239.62
579.21	46223.24
579.37	46174.09
579.53	45937.69
579.69	45633.42
579.85	45970.46
580.01	46192.81
580.17	46000.89
580.33	45705.98
580.49	46108.55
580.65	45743.43
580.82	46192.81
580.98	45970.46
581.14	45764.49
581.30	46321.54
581.46	45521.08
581.62	45879.18
581.78	46225.58
581.94	46106.21
582.10	45935.35
582.26	46045.36
582.42	45904.93
582.58	46256.01
582.74	46700.71
582.90	46045.36
583.06	46398.78
583.22	46380.06
583.38	46330.90
583.54	46094.51
583.70	46256.01
583.86	46466.66
584.02	46066.42
584.18	46745.18
584.34	45935.35
584.50	46129.62
584.66	46609.43
584.82	46300.48
584.98	46780.29
585.14	46373.03
585.30	45951.74
585.46	46230.26
585.62	46398.78
585.78	46445.59
585.94	46256.01
586.10	45839.39
586.26	46251.33
586.42	46307.50
586.58	46281.75
586.74	46075.79
586.90	46192.81
587.06	45902.59
587.22	46522.83
587.38	45801.94
587.54	46389.42
587.70	46639.86
587.86	46759.22
588.02	46199.83
588.18	46291.12
588.34	46007.91
588.49	46356.65
588.65	46300.48
588.81	46078.13
588.97	46658.58
589.13	46696.03
589.29	46358.99
589.45	46988.60
589.61	46429.21
589.77	46892.63
589.93	46450.27
590.08	46522.83
