SpectraSuite Data File
++++++++++++++++++++++++++++++++++++
Date: Fri Oct 25 11:22:51 EDT 2013
User: price-jones
Dark Spectrum Present: No
Reference Spectrum Present: No
Number of Sampled Component Spectra: 1
Spectrometers: USB2+H05261
Integration Time (usec): 100000 (USB2+H05261)
Spectra Averaged: 1 (USB2+H05261)
Boxcar Smoothing: 0 (USB2+H05261)
Correct for Electrical Dark: No (USB2+H05261)
Strobe/Lamp Enabled: No (USB2+H05261)
Correct for Detector Non-linearity: No (USB2+H05261)
Correct for Stray Light: No (USB2+H05261)
Number of Pixels in Processed Spectrum: 2048
>>>>>Begin Processed Spectral Data<<<<<
365.73	163.84
365.92	163.84
366.12	163.84
366.32	168.52
366.52	81.92
366.72	142.77
366.91	105.32
367.11	140.43
367.31	81.92
367.51	117.03
367.70	175.54
367.90	140.43
368.10	112.35
368.30	152.13
368.49	203.63
368.69	222.35
368.89	126.39
369.09	198.95
369.28	135.75
369.48	154.48
369.68	168.52
369.87	135.75
370.07	173.20
370.27	255.12
370.47	360.44
370.66	582.79
370.86	568.75
371.06	638.97
371.25	706.84
371.45	645.99
371.65	674.07
371.84	634.29
372.04	746.63
372.24	699.82
372.44	723.23
372.63	681.10
372.83	746.63
373.03	798.12
373.22	737.27
373.42	709.18
373.62	772.38
373.81	851.96
374.01	877.70
374.21	908.13
374.40	851.96
374.60	847.27
374.79	800.46
374.99	889.40
375.19	809.83
375.38	856.64
375.58	844.93
375.78	800.46
375.97	791.10
376.17	891.74
376.37	854.30
376.56	837.91
376.76	889.40
376.95	866.00
377.15	882.38
377.35	844.93
377.54	842.59
377.74	837.91
377.93	896.43
378.13	835.57
378.33	908.13
378.52	917.49
378.72	880.04
378.91	903.45
379.11	898.77
379.31	938.55
379.50	971.32
379.70	964.30
379.89	976.00
380.09	976.00
380.28	1053.24
380.48	976.00
380.68	1048.56
380.87	938.55
381.07	1053.24
381.26	1053.24
381.46	964.30
381.65	976.00
381.85	1083.67
382.04	1078.99
382.24	1123.46
382.43	1081.33
382.63	1102.39
382.83	1078.99
383.02	1118.78
383.22	1100.05
383.41	1118.78
383.61	1107.07
383.80	1130.48
384.00	1097.71
384.19	1107.07
384.39	1109.41
384.58	1097.71
384.78	1081.33
384.97	1184.31
385.17	1128.14
385.36	1128.14
385.56	1200.69
385.75	1151.54
385.95	1247.51
386.14	1320.06
386.34	1203.04
386.53	1210.06
386.72	1245.16
386.92	1149.20
387.11	1203.04
387.31	1273.25
387.50	1165.59
387.70	1282.61
387.89	1170.27
388.09	1217.08
388.28	1268.57
388.48	1331.76
388.67	1306.02
388.86	1345.81
389.06	1301.34
389.25	1315.38
389.45	1247.51
389.64	1320.06
389.84	1369.21
390.03	1394.96
390.22	1366.87
390.42	1366.87
390.61	1334.11
390.81	1364.53
391.00	1380.92
391.19	1418.36
391.39	1420.71
391.58	1441.77
391.78	1430.07
391.97	1493.26
392.16	1621.99
392.36	1504.96
392.55	1465.18
392.75	1502.62
392.94	1584.54
393.13	1544.75
393.33	1502.62
393.52	1579.86
393.71	1647.74
393.91	1647.74
394.10	1607.95
394.29	1605.61
394.49	1643.06
394.68	1724.97
394.88	1610.29
395.07	1664.12
395.26	1640.72
395.46	1657.10
395.65	1626.67
395.84	1792.85
396.04	1884.13
396.23	1640.72
396.42	1746.04
396.62	1790.51
396.81	1809.23
397.00	1797.53
397.19	1799.87
397.39	1823.28
397.58	1837.32
397.77	1748.38
397.97	1792.85
398.16	1942.64
398.35	1877.11
398.55	1933.28
398.74	1898.17
398.93	1905.20
399.12	1961.37
399.32	1935.62
399.51	1975.41
399.70	1987.11
399.90	1949.67
400.09	2062.01
400.28	2022.22
400.47	1991.80
400.67	2092.44
400.86	2043.29
401.05	2129.89
401.24	2052.65
401.44	2080.74
401.63	2174.36
401.82	2143.93
402.01	2186.06
402.21	2197.76
402.40	2073.71
402.59	2176.70
402.78	2321.81
402.97	2267.98
403.17	2448.20
403.36	2359.26
403.55	2394.37
403.74	2342.88
403.93	2300.75
404.13	2385.01
404.32	2303.09
404.51	2457.56
404.70	2438.84
404.89	2513.74
405.09	2532.46
405.28	2530.12
405.47	2487.99
405.66	2485.65
405.85	2619.06
406.05	2597.99
406.24	2523.10
406.43	2539.48
406.62	2715.02
406.81	2829.71
407.00	2497.35
407.20	2597.99
407.39	2656.51
407.58	2717.36
407.77	2740.77
407.96	2712.68
408.15	2810.98
408.34	2750.13
408.54	2853.11
408.73	2808.64
408.92	2979.50
409.11	3070.78
409.30	2902.26
409.49	2960.78
409.68	2820.35
409.87	3030.99
410.07	3026.31
410.26	3082.49
410.45	2979.50
410.64	3143.34
410.83	3342.28
411.02	3169.09
411.21	3251.00
411.40	3143.34
411.59	3281.43
411.78	3269.73
411.98	3141.00
412.17	3279.09
412.36	3311.86
412.55	3304.84
412.74	3454.63
412.93	3353.99
413.12	3325.90
413.31	3499.10
413.50	3564.64
413.69	3471.01
413.88	3597.40
414.07	3698.05
414.26	3719.11
414.45	3508.46
414.64	3789.33
414.83	3730.81
415.02	3847.84
415.22	3878.27
415.41	3861.88
415.60	3901.67
415.79	4007.00
415.98	3981.25
416.17	4014.02
416.36	3927.42
416.55	3955.51
416.74	4093.60
416.93	4117.00
417.12	4152.11
417.31	4098.28
417.50	4044.45
417.69	4238.71
417.88	4301.90
418.07	4383.82
418.26	4379.14
418.45	4393.19
418.64	4599.15
418.83	4531.28
419.02	4428.29
419.21	4407.23
419.39	4564.04
419.58	4505.53
419.77	4437.66
419.96	4440.00
420.15	4704.48
420.34	4557.02
420.53	4634.26
420.72	4606.17
420.91	4580.43
421.10	4720.86
421.29	4847.25
421.48	4851.93
421.67	4873.00
421.86	4805.12
422.05	4805.12
422.24	4870.65
422.43	4947.89
422.61	4814.48
422.80	4943.21
422.99	4880.02
423.18	5046.20
423.37	5027.47
423.56	4772.35
423.75	4938.53
423.94	4889.38
424.13	4608.51
424.32	4795.76
424.50	5135.14
424.69	5100.03
424.88	5163.22
425.07	4947.89
425.26	4968.96
425.45	4917.47
425.64	4997.04
425.83	5055.56
426.01	5078.96
426.20	5085.98
426.39	5123.43
426.58	5111.73
426.77	5193.65
426.96	5221.74
427.15	5245.14
427.33	5259.18
427.52	5165.56
427.71	5336.42
427.90	5362.17
428.09	5544.73
428.28	5451.11
428.46	5338.76
428.65	5291.95
428.84	5453.45
429.03	5523.66
429.22	5327.06
429.40	5493.24
429.59	5549.41
429.78	5467.49
429.97	5378.55
430.16	5528.35
430.34	5556.43
430.53	5837.30
430.72	5757.72
430.91	5753.04
431.10	5647.71
431.28	5914.53
431.47	5776.44
431.66	5994.11
431.85	5825.59
432.03	6153.27
432.22	5940.28
432.41	5851.34
432.60	5884.11
432.79	6038.58
432.97	6134.54
433.16	6162.63
433.35	5998.79
433.54	6169.65
433.72	6143.91
433.91	6064.33
434.10	6150.93
434.28	6146.25
434.47	6214.12
434.66	6242.21
434.85	6361.58
435.03	6401.37
435.22	6274.98
435.41	6516.05
435.59	6389.66
435.78	6509.03
435.97	6616.69
436.16	6469.24
436.34	6534.78
436.53	6518.39
436.72	6595.63
436.90	6567.54
437.09	6609.67
437.28	6569.88
437.46	6686.91
437.65	6705.63
437.84	6745.42
438.02	6888.20
438.21	6747.76
438.40	6796.92
438.58	7187.79
438.77	7110.55
438.96	7218.21
439.14	7241.62
439.33	7314.17
439.52	7360.98
439.70	7124.59
439.89	7431.20
440.08	7300.13
440.26	7368.01
440.45	7473.33
440.63	7625.47
440.82	7681.64
441.01	7499.08
441.19	7641.85
441.38	7777.60
441.57	7803.35
441.75	7803.35
441.94	8248.05
442.12	7913.35
442.31	8030.38
442.50	8159.11
442.68	8028.04
442.87	8205.92
443.05	8245.71
443.24	8203.58
443.43	7960.16
443.61	8297.20
443.80	8465.72
443.98	8032.72
444.17	7798.66
444.35	8362.73
444.54	8308.90
444.73	8379.12
444.91	8432.95
445.10	8280.82
445.28	8327.63
445.47	8482.10
445.65	8325.29
445.84	8596.79
446.02	8634.24
446.21	8428.27
446.39	8395.50
446.58	8613.17
446.77	8348.69
446.95	8449.33
447.14	8472.74
447.32	8758.28
447.51	8514.87
447.69	8372.10
447.88	8615.51
448.06	8489.12
448.25	8512.53
448.43	8514.87
448.62	8781.69
448.80	8779.35
448.99	8877.65
449.17	8826.16
449.36	8816.80
449.54	8994.68
449.73	8992.34
449.91	9095.32
450.10	9011.06
450.28	9266.18
450.46	9104.68
450.65	9107.02
450.83	9174.90
451.02	9057.87
451.20	9137.45
451.39	9298.95
451.57	9266.18
451.76	9046.17
451.94	9378.53
452.13	9479.17
452.31	9343.42
452.49	9254.48
452.68	9448.74
452.86	9231.07
453.05	9523.64
453.23	9572.79
453.42	9441.72
453.60	9474.49
453.78	9530.66
453.97	9483.85
454.15	9474.49
454.34	9610.24
454.52	9650.03
454.70	9722.59
454.89	9736.63
455.07	9893.44
455.26	10160.27
455.44	10066.64
455.62	10078.35
455.81	9956.64
455.99	10134.52
456.17	9949.62
456.36	10146.22
456.54	10368.57
456.73	10328.78
456.91	10581.56
457.09	10696.25
457.28	10719.65
457.46	10466.88
457.64	10885.83
457.83	10679.86
458.01	10345.17
458.19	10684.55
458.38	10616.67
458.56	10824.98
458.74	10843.70
458.93	10700.93
459.11	10970.09
459.29	10780.51
459.48	11059.03
459.66	10719.65
459.84	10918.60
460.03	11047.33
460.21	10974.77
460.39	11176.06
460.57	10904.56
460.76	11227.55
460.94	11311.81
461.12	11382.03
461.31	11363.30
461.49	11110.52
461.67	11269.68
461.85	11627.78
462.04	11229.89
462.22	12161.42
462.40	11639.48
462.59	11424.15
462.77	11789.28
462.95	11606.72
463.13	11805.66
463.32	11847.79
463.50	11936.73
463.68	11742.47
463.86	11983.54
464.05	11609.06
464.23	11602.04
464.41	11866.52
464.59	11845.45
464.78	12217.60
464.96	11817.36
465.14	12126.32
465.32	12025.67
465.50	12081.85
465.69	12308.88
465.87	12145.04
466.05	12205.89
466.23	12184.83
466.41	12294.83
466.60	12788.69
466.78	12386.12
466.96	12374.41
467.14	12336.96
467.32	12341.64
467.51	12636.55
467.69	12269.09
467.87	12482.08
468.05	12896.35
468.23	12608.47
468.41	12393.14
468.60	12638.89
468.78	12669.32
468.96	12596.76
469.14	12847.20
469.32	13125.72
469.50	12692.73
469.69	13177.22
469.87	13219.35
470.05	12947.84
470.23	13270.84
470.41	13287.22
470.59	13188.92
470.77	13270.84
470.95	13345.73
471.14	13767.03
471.32	13366.80
471.50	13621.92
471.68	13809.16
471.86	13769.37
472.04	13745.97
472.22	14197.69
472.40	13872.36
472.58	14040.87
472.77	14288.97
472.95	14232.80
473.13	14523.02
473.31	14057.26
473.49	14293.65
473.67	14277.27
473.85	14518.34
474.03	14853.04
474.21	14642.39
474.39	14829.63
474.57	14869.42
474.75	14843.68
474.93	15091.77
475.12	15082.41
475.30	15543.50
475.48	15410.09
475.66	15208.80
475.84	15267.31
476.02	15936.71
476.20	15555.20
476.38	15520.09
476.56	15976.50
476.74	16233.96
476.92	16046.71
477.10	15962.45
477.28	16114.59
477.46	16250.34
477.64	16287.79
477.82	16524.18
478.00	17165.49
478.18	16943.14
478.36	17011.01
478.54	17275.49
478.72	17481.46
478.90	17348.05
479.08	17834.88
479.26	18274.90
479.44	17790.41
479.62	17919.14
479.80	17998.72
479.98	18487.89
480.16	18923.23
480.34	18574.49
480.52	18588.53
480.70	18691.52
480.88	18581.51
481.06	19101.11
481.24	19105.79
481.41	19037.92
481.59	19417.08
481.77	19700.29
481.95	19988.18
482.13	19723.69
482.31	19929.66
482.49	20498.41
482.67	20479.69
482.85	20629.48
483.03	20971.20
483.21	20798.00
483.39	21193.55
483.57	21060.14
483.74	21443.99
483.92	21605.49
484.10	21523.57
484.28	21596.12
484.46	22246.79
484.64	22590.85
484.82	21944.86
485.00	22761.71
485.18	22836.61
485.35	23112.79
485.53	23058.96
485.71	23096.41
485.89	23791.55
486.07	23571.54
486.25	23669.84
486.43	23882.83
486.61	23831.33
486.78	24517.11
486.96	24360.30
487.14	24692.65
487.32	25167.78
487.50	25254.38
487.68	24797.98
487.85	25621.84
488.03	25935.48
488.21	25993.99
488.39	26291.24
488.57	26558.06
488.75	26422.31
488.92	26691.47
489.10	26724.24
489.28	26878.71
489.46	27550.45
489.64	27276.60
489.81	27915.57
489.99	27761.09
490.17	27960.04
490.35	28603.69
490.53	28292.40
490.70	28713.69
490.88	28608.37
491.06	29003.92
491.24	29074.13
491.41	29380.74
491.59	29640.54
491.77	29717.78
491.95	29858.21
492.13	30162.48
492.30	29738.85
492.48	30305.26
492.66	30485.48
492.84	30771.02
493.01	31061.25
493.19	30932.52
493.37	31096.36
493.54	31536.38
493.72	31700.22
493.90	31697.88
494.08	31978.74
494.25	32519.40
494.43	32615.37
494.61	32840.06
494.79	32828.35
494.96	33008.58
495.14	33146.67
495.32	33457.96
495.49	33149.01
495.67	33642.86
495.85	33780.95
496.02	34085.22
496.20	34274.80
496.38	34298.21
496.55	34267.78
496.73	35072.93
496.91	34588.44
497.09	35672.10
497.26	35236.77
497.44	35316.34
497.62	35508.27
497.79	36154.26
497.97	35622.95
498.14	36065.31
498.32	36620.02
498.50	36477.25
498.67	36875.14
498.85	36746.41
499.03	36615.34
499.20	37179.41
499.38	37216.86
499.56	37289.42
499.73	37532.83
499.91	37846.46
500.08	37766.88
500.26	37923.70
500.44	37722.41
500.61	38347.34
500.79	37968.17
500.97	38340.32
501.14	38787.36
501.32	38808.42
501.49	38883.32
501.67	38813.10
501.84	39332.70
502.02	38899.70
502.20	39606.55
502.37	39456.75
502.55	39477.82
502.72	39573.78
502.90	39903.79
503.07	39765.70
503.25	40140.19
503.43	39592.50
503.60	40760.43
503.78	40744.05
503.95	40610.64
504.13	41038.95
504.30	40697.24
504.48	40793.20
504.65	40882.14
504.83	41233.22
505.01	41565.57
505.18	41603.02
505.36	41897.93
505.53	41776.22
505.71	41979.85
505.88	42127.30
506.06	41921.34
506.23	42440.93
506.41	41977.51
506.58	42469.02
506.76	42244.33
506.93	42932.45
507.11	43129.05
507.28	42759.25
507.46	43370.13
507.63	43370.13
507.81	43814.83
507.98	43379.49
508.16	43463.75
508.33	44205.70
508.50	43992.71
508.68	43903.77
508.85	44629.34
509.03	44329.75
509.20	44568.48
509.38	44495.92
509.55	44938.29
509.73	44886.79
509.90	44739.34
510.08	45212.13
510.25	44879.77
510.42	45151.27
510.60	45626.40
510.77	45521.08
510.95	45883.86
511.12	45755.13
511.30	45394.69
511.47	46038.34
511.64	45720.02
511.82	46054.72
511.99	46036.00
512.17	46429.21
512.34	46169.41
512.51	46497.08
512.69	46670.28
512.86	46361.33
513.04	47014.34
513.21	47552.66
513.38	47421.59
513.56	47409.89
513.73	46946.47
513.90	47477.77
514.08	47402.87
514.25	47805.44
514.43	47646.29
514.60	47702.46
514.77	47971.62
514.95	47791.40
515.12	48027.79
515.29	47922.47
515.47	48413.98
515.64	48528.67
515.81	48196.31
515.99	48505.26
516.16	49036.56
516.33	48942.94
516.51	48910.17
516.68	48556.75
516.85	48622.29
517.03	49237.85
517.20	49364.24
517.37	49191.04
517.54	49141.89
517.72	49551.48
517.89	49179.34
518.06	49722.34
518.24	49598.29
518.41	49113.80
518.58	50040.65
518.75	49722.34
518.93	49785.54
519.10	49673.19
519.27	50110.87
519.45	50377.69
519.62	50005.55
519.79	50209.17
519.96	50440.89
520.14	50525.14
520.31	50258.32
520.48	50501.74
520.65	50824.73
520.83	50979.21
521.00	50965.17
521.17	50885.59
521.34	50852.82
521.52	51426.25
521.69	51093.89
521.86	51433.27
522.03	51784.35
522.20	51950.53
522.38	51831.16
522.55	51870.95
522.72	51840.53
522.89	51648.60
523.07	52088.62
523.24	51845.21
523.41	51810.10
523.58	51700.09
523.75	52133.09
523.92	51901.38
524.10	52378.85
524.27	52549.71
524.44	52397.57
524.61	52395.23
524.78	52371.83
524.96	52552.05
525.13	52610.56
525.30	52734.61
525.47	52617.58
525.64	52397.57
525.81	52818.87
525.98	53062.29
526.16	52966.32
526.33	52573.11
526.50	53183.99
526.67	53165.27
526.84	53324.43
527.01	53008.45
527.18	52750.99
527.36	53202.72
527.53	53167.61
527.70	53616.99
527.87	53492.94
528.04	53591.25
528.21	53729.34
528.38	53551.46
528.55	53654.44
528.72	53696.57
528.89	53712.95
529.07	53792.53
529.24	54042.97
529.41	53834.66
529.58	54141.27
529.75	53834.66
529.92	53977.43
530.09	54094.46
530.26	54265.32
530.43	54447.88
530.60	53909.56
530.77	54277.02
530.94	54410.43
531.11	54171.70
531.28	54677.25
531.46	54621.08
531.63	54532.14
531.80	54639.81
531.97	54794.28
532.14	54590.66
532.31	54801.30
532.48	54408.09
532.65	54969.82
532.82	54663.21
532.99	54876.20
533.16	54962.80
533.33	54974.50
533.50	54908.97
533.67	55133.66
533.84	55075.15
534.01	55114.94
534.18	55145.36
534.35	55557.30
534.52	55276.43
534.69	55395.80
534.86	55456.65
535.03	55255.37
535.20	55739.86
535.37	55351.33
535.54	55636.87
535.71	55426.23
535.88	55716.45
536.05	55779.65
536.22	55824.12
536.38	55861.57
536.55	55807.73
536.72	55924.76
536.89	55707.09
537.06	55842.84
537.23	55945.83
537.40	55938.80
537.57	55779.65
537.74	55994.98
537.91	56250.09
538.08	55997.32
538.25	56130.73
538.42	56076.90
538.59	56378.82
538.75	56060.51
538.92	56186.90
539.09	56243.07
539.26	56371.80
539.43	56395.21
539.60	56350.74
539.77	56437.34
539.94	56704.16
540.11	56507.55
540.28	56804.80
540.44	56465.42
540.61	56488.83
540.78	56708.84
540.95	56512.23
541.12	56507.55
541.29	56498.19
541.46	56732.25
541.62	56846.93
541.79	57006.09
541.96	56659.69
542.13	56732.25
542.30	56973.32
542.47	56992.04
542.63	56966.30
542.80	57090.35
542.97	57256.53
543.14	57521.01
543.31	57478.88
543.48	57324.40
543.64	57689.52
543.81	57521.01
543.98	57581.86
544.15	57567.82
544.32	57804.21
544.48	57773.78
544.65	57525.69
544.82	57666.12
544.99	57771.44
545.16	57670.80
545.32	57649.74
545.49	57907.19
545.66	58110.82
545.83	58007.84
546.00	58024.22
546.16	58169.33
546.33	57794.85
546.50	57958.69
546.67	58136.57
546.83	57745.70
547.00	57918.90
547.17	57855.70
547.34	57780.81
547.50	58234.87
547.67	58295.72
547.84	58136.57
548.00	58422.11
548.17	58391.68
548.34	58333.17
548.51	58326.15
548.67	58691.27
548.84	58354.24
549.01	58234.87
549.18	58522.76
549.34	58436.16
549.51	58536.80
549.68	58534.46
549.84	58667.87
550.01	58773.19
550.18	58480.63
550.34	58740.42
550.51	58646.80
550.68	58770.85
550.84	58637.44
551.01	58927.67
551.18	58651.48
551.34	58740.42
551.51	58791.92
551.68	58841.07
551.84	58869.15
552.01	58782.55
552.18	58993.20
552.34	58726.38
552.51	58887.88
552.68	58808.30
552.84	58827.02
553.01	59255.34
553.18	59035.33
553.34	59058.74
553.51	58922.99
553.67	59054.06
553.84	59157.04
554.01	59213.21
554.17	59381.73
554.34	59220.23
554.51	59128.95
554.67	59220.23
554.84	59313.86
555.00	59112.57
555.17	59091.51
555.33	59454.29
555.50	59182.79
555.67	59327.90
555.83	59234.28
556.00	59295.13
556.16	59561.95
556.33	59447.27
556.50	59498.76
556.66	59688.34
556.83	59372.37
556.99	59494.08
557.16	59646.21
557.32	59772.60
557.49	59597.06
557.65	59468.33
557.82	59625.15
557.98	59533.87
558.15	59604.08
558.32	59655.57
558.48	59433.22
558.65	59735.15
558.81	59725.79
558.98	59873.24
559.14	60018.36
559.31	60097.94
559.47	60156.45
559.64	59994.95
559.80	59814.73
559.97	59870.90
560.13	59767.92
560.30	59835.80
560.46	60074.53
560.63	60023.04
560.79	59941.12
560.96	60062.83
561.12	60226.66
561.29	59983.25
561.45	59966.87
561.61	59990.27
561.78	59877.93
561.94	59987.93
562.11	60062.83
562.27	60135.38
562.44	60149.43
562.60	60229.01
562.77	59999.63
562.93	59936.44
563.10	60156.45
563.26	60011.34
563.42	60507.53
563.59	60236.03
563.75	60236.03
563.92	60264.11
564.08	60095.60
564.24	60477.10
564.41	60505.19
564.57	60385.82
564.74	60439.65
564.90	60502.85
565.07	60336.67
565.23	60275.82
565.39	60385.82
565.56	60460.72
565.72	60360.08
565.88	60430.29
566.05	60135.38
566.21	60561.36
566.38	60390.50
566.54	60669.03
566.70	60500.51
566.87	60720.52
567.03	60481.78
567.19	60617.53
567.36	60446.68
567.52	60453.70
567.68	60645.62
567.85	60704.13
568.01	60629.24
568.17	60549.66
568.34	60575.40
568.50	60477.10
568.66	60467.74
568.83	60603.49
568.99	60360.08
569.15	60521.57
569.32	60690.09
569.48	60427.95
569.64	60645.62
569.81	60753.29
569.97	60697.11
570.13	60610.51
570.30	60535.62
570.46	60622.22
570.62	60795.42
570.78	60556.68
570.95	60566.04
571.11	60896.06
571.27	60830.52
571.43	60692.43
571.60	60900.74
571.76	60877.33
571.92	60825.84
572.09	60748.60
572.25	60760.31
572.41	60669.03
572.57	60626.90
572.74	60921.80
572.90	60830.52
573.06	61010.74
573.22	60694.77
573.38	60893.72
573.55	60659.66
573.71	60994.36
573.87	60783.71
574.03	60865.63
574.20	60940.53
574.36	60947.55
574.52	61017.77
574.68	60912.44
574.84	60942.87
575.01	60973.30
575.17	61174.58
575.33	60900.74
575.49	60849.25
575.65	60910.10
575.82	60931.17
575.98	61085.64
576.14	61076.28
576.30	61080.96
576.46	60926.49
576.62	60980.32
576.79	60903.08
576.95	60807.12
577.11	61027.13
577.27	61031.81
577.43	61015.43
577.59	60839.89
577.75	61066.92
577.92	60924.14
578.08	61109.05
578.24	60989.68
578.40	61097.34
578.56	61183.94
578.72	61092.66
578.88	61286.93
579.04	61240.12
579.21	60949.89
579.37	61151.18
579.53	61160.54
579.69	60942.87
579.85	61151.18
580.01	60938.19
580.17	60872.65
580.33	61045.85
580.49	61193.31
580.65	61158.20
580.82	61031.81
580.98	60907.76
581.14	60907.76
581.30	61069.26
581.46	60874.99
581.62	61055.21
581.78	60985.00
581.94	61146.50
582.10	61151.18
582.26	61076.28
582.42	61179.26
582.58	61106.71
582.74	61160.54
582.90	61214.37
583.06	61111.39
583.22	61144.16
583.38	61261.18
583.54	61120.75
583.70	61268.20
583.86	61207.35
584.02	61127.77
584.18	61551.41
584.34	61127.77
584.50	61279.91
584.66	61087.98
584.82	61139.47
584.98	61237.78
585.14	61230.75
585.30	61153.52
585.46	61270.54
585.62	61293.95
585.78	61577.15
585.94	61303.31
586.10	61216.71
586.26	61216.71
586.42	61219.05
586.58	61272.88
586.74	61261.18
586.90	61155.86
587.06	61116.07
587.22	61425.02
587.38	61179.26
587.54	61406.30
587.70	61310.33
587.86	61291.61
588.02	61310.33
588.18	61504.60
588.34	61233.10
588.49	61111.39
