SpectraSuite Data File
++++++++++++++++++++++++++++++++++++
Date: Fri Oct 25 11:26:01 EDT 2013
User: price-jones
Dark Spectrum Present: No
Reference Spectrum Present: No
Number of Sampled Component Spectra: 1
Spectrometers: USB2+H05261
Integration Time (usec): 100000 (USB2+H05261)
Spectra Averaged: 1 (USB2+H05261)
Boxcar Smoothing: 0 (USB2+H05261)
Correct for Electrical Dark: No (USB2+H05261)
Strobe/Lamp Enabled: No (USB2+H05261)
Correct for Detector Non-linearity: No (USB2+H05261)
Correct for Stray Light: No (USB2+H05261)
Number of Pixels in Processed Spectrum: 2048
>>>>>Begin Processed Spectral Data<<<<<
365.73	212.99
365.92	212.99
366.12	212.99
366.32	177.88
366.52	161.50
366.72	152.13
366.91	74.90
367.11	105.32
367.31	88.94
367.51	119.37
367.70	91.28
367.90	112.35
368.10	145.11
368.30	161.50
368.49	145.11
368.69	196.60
368.89	107.66
369.09	145.11
369.28	121.71
369.48	138.09
369.68	182.56
369.87	175.54
370.07	196.60
370.27	229.37
370.47	276.18
370.66	596.84
370.86	678.76
371.06	613.22
371.25	678.76
371.45	692.80
371.65	678.76
371.84	697.48
372.04	690.46
372.24	695.14
372.44	624.92
372.63	807.48
372.83	770.04
373.03	741.95
373.22	704.50
373.42	716.20
373.62	744.29
373.81	788.76
374.01	851.96
374.21	800.46
374.40	816.85
374.60	884.72
374.79	828.55
374.99	800.46
375.19	781.74
375.38	910.47
375.58	866.00
375.78	894.08
375.97	844.93
376.17	896.43
376.37	905.79
376.56	908.13
376.76	877.70
376.95	854.30
377.15	922.17
377.35	926.85
377.54	840.25
377.74	875.36
377.93	875.36
378.13	964.30
378.33	931.53
378.52	933.87
378.72	959.62
378.91	973.66
379.11	898.77
379.31	950.26
379.50	945.58
379.70	985.37
379.89	952.60
380.09	938.55
380.28	966.64
380.48	945.58
380.68	999.41
380.87	1022.81
381.07	978.34
381.26	959.62
381.46	1004.09
381.65	1067.28
381.85	1055.58
382.04	1132.82
382.24	1053.24
382.43	1046.22
382.63	1102.39
382.83	997.07
383.02	1097.71
383.22	1146.86
383.41	1078.99
383.61	1121.12
383.80	1163.25
384.00	1146.86
384.19	1132.82
384.39	1086.01
384.58	1137.50
384.78	1137.50
384.97	1128.14
385.17	1062.60
385.36	1139.84
385.56	1231.12
385.75	1219.42
385.95	1163.25
386.14	1219.42
386.34	1149.20
386.53	1181.97
386.72	1191.33
386.92	1263.89
387.11	1217.08
387.31	1275.59
387.50	1275.59
387.70	1249.85
387.89	1291.98
388.09	1226.44
388.28	1291.98
388.48	1287.29
388.67	1310.70
388.86	1299.00
389.06	1334.11
389.25	1341.13
389.45	1460.49
389.64	1322.40
389.84	1348.15
390.03	1380.92
390.22	1352.83
390.42	1357.51
390.61	1392.62
390.81	1430.07
391.00	1409.00
391.19	1474.54
391.39	1465.18
391.58	1404.32
391.78	1423.05
391.97	1490.92
392.16	1465.18
392.36	1533.05
392.55	1526.03
392.75	1469.86
392.94	1493.26
393.13	1493.26
393.33	1554.12
393.52	1624.33
393.71	1572.84
393.91	1554.12
394.10	1612.63
394.29	1558.80
394.49	1586.88
394.68	1537.73
394.88	1699.23
395.07	1685.19
395.26	1540.07
395.46	1788.17
395.65	1732.00
395.84	1699.23
396.04	1825.62
396.23	1713.27
396.42	1654.76
396.62	1722.63
396.81	1694.55
397.00	1668.80
397.19	1748.38
397.39	1736.68
397.58	1696.89
397.77	1767.10
397.97	1849.02
398.16	1797.53
398.35	1830.30
398.55	1895.83
398.74	1891.15
398.93	1926.26
399.12	1853.70
399.32	1820.94
399.51	1996.48
399.70	1980.09
399.90	2050.31
400.09	2026.90
400.28	2043.29
400.47	2045.63
400.67	2069.03
400.86	2087.76
401.05	2090.10
401.24	2083.08
401.44	2073.71
401.63	2122.87
401.82	2188.40
402.01	2052.65
402.21	2190.74
402.40	2148.61
402.59	2129.89
402.78	2230.53
402.97	2146.27
403.17	2251.60
403.36	2193.08
403.55	2242.23
403.74	2352.24
403.93	2209.47
404.13	2347.56
404.32	2387.35
404.51	2349.90
404.70	2513.74
404.89	2448.20
405.09	2417.77
405.28	2499.69
405.47	2441.18
405.66	2558.21
405.85	2576.93
406.05	2537.14
406.24	2534.80
406.43	2532.46
406.62	2588.63
406.81	2628.42
407.00	2616.72
407.20	2649.49
407.39	2656.51
407.58	2647.15
407.77	2633.10
407.96	2789.92
408.15	2729.06
408.34	2761.83
408.54	2853.11
408.73	2818.00
408.92	2747.79
409.11	2839.07
409.30	2878.86
409.49	2956.10
409.68	2848.43
409.87	2860.13
410.07	2993.55
410.26	3038.02
410.45	2979.50
410.64	2981.84
410.83	3049.72
411.02	3023.97
411.21	3122.27
411.40	2986.52
411.59	3194.83
411.78	3192.49
411.98	3159.72
412.17	3330.58
412.36	3363.35
412.55	3377.39
412.74	3353.99
412.93	3368.03
413.12	3187.81
413.31	3431.23
413.50	3461.65
413.69	3442.93
413.88	3494.42
414.07	3545.91
414.26	3637.19
414.45	3634.85
414.64	3466.33
414.83	3761.24
415.02	3772.94
415.22	3768.26
415.41	3812.73
415.60	3756.56
415.79	3896.99
415.98	3953.16
416.17	3948.48
416.36	4025.72
416.55	3887.63
416.74	4238.71
416.93	3983.59
417.12	4077.21
417.31	4161.47
417.50	4107.64
417.69	4112.32
417.88	4184.88
418.07	4362.76
418.26	4290.20
418.45	4496.17
418.64	4493.83
418.83	4320.63
419.02	4409.57
419.21	4615.54
419.39	4587.45
419.58	4461.06
419.77	4355.74
419.96	4578.09
420.15	4542.98
420.34	4510.21
420.53	4554.68
420.72	4727.88
420.91	4821.50
421.10	4634.26
421.29	4791.08
421.48	4645.96
421.67	4709.16
421.86	4781.71
422.05	4884.70
422.24	4882.36
422.43	4912.78
422.61	4957.25
422.80	4980.66
422.99	5011.09
423.18	4924.49
423.37	4933.85
423.56	4968.96
423.75	4983.00
423.94	4816.82
424.13	4638.94
424.32	4762.99
424.50	4905.76
424.69	5109.39
424.88	5193.65
425.07	5074.28
425.26	4903.42
425.45	4957.25
425.64	4819.16
425.83	4985.34
426.01	5200.67
426.20	5069.60
426.39	5151.52
426.58	5146.84
426.77	5095.35
426.96	5158.54
427.15	5172.58
427.33	5240.46
427.52	5160.88
427.71	5179.61
427.90	5210.03
428.09	5167.90
428.28	5233.44
428.46	5270.89
428.65	5231.10
428.84	5558.77
429.03	5462.81
429.22	5263.86
429.40	5514.30
429.59	5596.22
429.78	5350.46
429.97	5184.29
430.16	5547.07
430.34	5554.09
430.53	5685.16
430.72	5671.12
430.91	5657.07
431.10	5757.72
431.28	5771.76
431.47	5717.93
431.66	5734.31
431.85	5680.48
432.03	6001.13
432.22	5746.02
432.41	5827.93
432.60	5989.43
432.79	6001.13
432.97	6125.18
433.16	6249.23
433.35	6001.13
433.54	6031.56
433.72	6190.72
433.91	6113.48
434.10	6059.65
434.28	5991.77
434.47	6171.99
434.66	6143.91
434.85	6263.27
435.03	6190.72
435.22	6045.60
435.41	6410.73
435.59	6356.90
435.78	6558.18
435.97	6455.20
436.16	6445.84
436.34	6274.98
436.53	6403.71
436.72	6715.00
436.90	6361.58
437.09	6541.80
437.28	6502.01
437.46	6530.09
437.65	6612.01
437.84	6778.19
438.02	6771.17
438.21	6775.85
438.40	6574.56
438.58	6953.73
438.77	6923.30
438.96	6979.48
439.14	7007.56
439.33	7239.28
439.52	7070.76
439.70	6920.96
439.89	7143.32
440.08	7351.62
440.26	7297.79
440.45	7250.98
440.63	7339.92
440.82	7606.74
441.01	7653.55
441.19	7538.87
441.38	7513.12
441.57	7735.47
441.75	7735.47
441.94	7911.01
442.12	8046.76
442.31	7929.74
442.50	8152.09
442.68	8093.57
442.87	8058.46
443.05	7992.93
443.24	8201.24
443.43	8372.10
443.61	8133.36
443.80	8344.01
443.98	8091.23
444.17	7981.23
444.35	8065.49
444.54	8332.31
444.73	8138.04
444.91	8276.13
445.10	8313.58
445.28	8248.05
445.47	8278.47
445.65	8271.45
445.84	8421.25
446.02	8468.06
446.21	8334.65
446.39	8262.09
446.58	8444.65
446.77	8505.51
446.95	8194.22
447.14	8514.87
447.32	8589.77
447.51	8521.89
447.69	8446.99
447.88	8683.39
448.06	8519.55
448.25	8575.72
448.43	8449.33
448.62	8545.30
448.80	8446.99
448.99	8631.90
449.17	8676.37
449.36	8624.87
449.54	8767.65
449.73	8889.35
449.91	8896.38
450.10	8968.93
450.28	9095.32
450.46	8882.33
450.65	8940.85
450.83	8966.59
451.02	9015.74
451.20	9067.24
451.39	9104.68
451.57	9315.33
451.76	8887.01
451.94	9233.41
452.13	9202.99
452.31	9130.43
452.49	9191.28
452.68	9390.23
452.86	9383.21
453.05	9516.62
453.23	9507.26
453.42	9177.24
453.60	9167.88
453.78	9572.79
453.97	9511.94
454.15	9507.26
454.34	9289.59
454.52	9479.17
454.70	9598.54
454.89	9647.69
455.07	9769.40
455.26	9837.27
455.44	9996.43
455.62	9753.01
455.81	9905.15
455.99	10040.90
456.17	9961.32
456.36	9996.43
456.54	10106.43
456.73	10279.63
456.91	10319.42
457.09	10494.96
457.28	10586.24
457.46	10469.22
457.64	10373.25
457.83	10534.75
458.01	10300.70
458.19	10792.21
458.38	10658.80
458.56	10785.19
458.74	10438.79
458.93	10705.61
459.11	10675.18
459.29	10827.32
459.48	10860.09
459.66	10574.54
459.84	10721.99
460.03	11080.10
460.21	10801.57
460.39	10775.83
460.57	10888.17
460.76	11157.33
460.94	11239.25
461.12	11253.30
461.31	11063.71
461.49	11007.54
461.67	10967.75
461.85	11232.23
462.04	11164.36
462.22	11798.64
462.40	11707.36
462.59	11459.26
462.77	11382.03
462.95	11597.35
463.13	11382.03
463.32	11555.22
463.50	11564.59
463.68	11800.98
463.86	11871.20
464.05	11552.88
464.23	11587.99
464.41	11838.43
464.59	11602.04
464.78	12028.01
464.96	12074.82
465.14	11887.58
465.32	11878.22
465.50	12173.13
465.69	12004.61
465.87	12168.45
466.05	12147.38
466.23	12173.13
466.41	12348.67
466.60	12229.30
466.78	11950.78
466.96	11962.48
467.14	12346.33
467.32	12224.62
467.51	12578.04
467.69	12184.83
467.87	12381.43
468.05	12573.36
468.23	12343.99
468.41	12301.86
468.60	12475.06
468.78	12540.59
468.96	12692.73
469.14	12671.66
469.32	12952.52
469.50	12573.36
469.69	13109.34
469.87	12936.14
470.05	12943.16
470.23	12875.29
470.41	13116.36
470.59	13425.31
470.77	13277.86
470.95	13254.45
471.14	13699.16
471.32	12959.55
471.50	13383.18
471.68	13441.70
471.86	13556.38
472.04	13659.37
472.22	14047.90
472.40	13549.36
472.58	13736.60
472.77	13895.76
472.95	14244.50
473.13	14506.64
473.31	14150.88
473.49	14164.92
473.67	14185.99
473.85	14455.15
474.03	14626.01
474.21	14534.73
474.39	14583.88
474.57	14572.18
474.75	14689.20
474.93	14960.70
475.12	15000.49
475.30	15311.78
475.48	15124.54
475.66	15246.25
475.84	15103.48
476.02	15506.05
476.20	15557.54
476.38	15489.67
476.56	15981.18
476.74	15943.73
476.92	15665.21
477.10	15665.21
477.28	16285.45
477.46	15793.94
477.64	16128.63
477.82	16404.81
478.00	16968.88
478.18	16561.63
478.36	16627.17
478.54	17109.32
478.72	17151.45
478.90	17294.22
479.08	17324.65
479.26	17621.89
479.44	17666.36
479.62	17862.97
479.80	17734.24
479.98	18008.08
480.16	18527.68
480.34	18251.50
480.52	18665.77
480.70	18501.93
480.88	18352.14
481.06	18721.95
481.24	19021.53
481.41	18724.29
481.59	19190.05
481.77	19325.80
481.95	19489.64
482.13	19690.93
482.31	19796.25
482.49	20009.24
482.67	20013.92
482.85	20009.24
483.03	20945.45
483.21	20844.81
483.39	20664.59
483.57	20713.74
483.74	20999.29
483.92	21486.12
484.10	21090.57
484.28	21546.97
484.46	21752.94
484.64	22436.38
484.82	22075.93
485.00	22328.71
485.18	22827.24
485.35	22904.48
485.53	22740.64
485.71	23061.30
485.89	23513.02
486.07	22829.59
486.25	23442.81
486.43	23616.01
486.61	23365.57
486.78	24051.34
486.96	24210.50
487.14	24198.80
487.32	24648.18
487.50	24826.06
487.68	24692.65
487.85	25535.24
488.03	25282.47
488.21	25607.80
488.39	25668.66
488.57	25947.18
488.75	26017.40
488.92	26387.20
489.10	26754.66
489.28	26359.11
489.46	27344.48
489.64	26742.96
489.81	27761.09
489.99	27524.70
490.17	27578.53
490.35	27929.61
490.53	27999.83
490.70	28395.38
490.88	28341.55
491.06	28975.83
491.24	28699.65
491.41	28900.94
491.59	29102.22
491.77	28870.51
491.95	29453.30
492.13	29876.94
492.30	29811.40
492.48	29783.32
492.66	30092.27
492.84	30010.35
493.01	30649.32
493.19	30527.61
493.37	30972.31
493.54	30742.94
493.72	31407.65
493.90	31412.33
494.08	31833.63
494.25	31824.26
494.43	31850.01
494.61	31782.13
494.79	32484.30
494.96	32425.78
495.14	32496.00
495.32	32900.91
495.49	33425.19
495.67	33062.41
495.85	33696.69
496.02	33362.00
496.20	33881.60
496.38	33354.97
496.55	34148.42
496.73	34864.62
496.91	34513.54
497.09	34761.64
497.26	34543.97
497.44	34672.70
497.62	35225.06
497.79	35559.76
497.97	35526.99
498.14	35709.55
498.32	35775.09
498.50	36100.42
498.67	36488.95
498.85	36524.06
499.03	36657.47
499.20	36472.57
499.38	36992.17
499.56	36978.12
499.73	37191.11
499.91	37053.02
500.08	37347.93
500.26	37572.62
500.44	37717.73
500.61	37628.79
500.79	37528.15
500.97	38082.86
501.14	38529.90
501.32	38377.76
501.49	38281.80
501.67	38401.17
501.84	38754.59
502.02	38581.39
502.20	38918.43
502.37	38934.81
502.55	38857.57
502.72	39505.90
502.90	39112.69
503.07	39150.14
503.25	39679.10
503.43	39683.78
503.60	40062.95
503.78	40140.19
503.95	40032.52
504.13	40231.47
504.30	40395.31
504.48	40467.86
504.65	40921.93
504.83	40872.78
505.01	41207.47
505.18	41308.11
505.36	41783.24
505.53	41045.97
505.71	41490.68
505.88	41394.71
506.06	41418.12
506.23	41865.16
506.41	41965.81
506.58	42190.50
506.76	42270.08
506.93	42344.97
507.11	41816.01
507.28	42513.49
507.46	42429.23
507.63	42618.81
507.81	43129.05
507.98	42796.70
508.16	42916.06
508.33	43152.46
508.50	43470.77
508.68	43452.05
508.85	43819.51
509.03	43487.15
509.20	44172.93
509.38	43847.60
509.55	43835.89
509.73	44451.45
509.90	44217.40
510.08	43800.79
510.25	44453.79
510.42	44500.61
510.60	44879.77
510.77	44608.27
510.95	45111.49
511.12	45148.93
511.30	44839.98
511.47	45188.72
511.64	45352.56
511.82	46003.23
511.99	45457.88
512.17	45790.24
512.34	45991.53
512.51	45961.10
512.69	46286.43
512.86	46052.38
513.04	46506.44
513.21	46244.30
513.38	46600.07
513.56	47051.79
513.73	46494.74
513.90	47030.72
514.08	47147.75
514.25	47276.48
514.43	47365.42
514.60	47297.55
514.77	46756.88
514.95	47515.22
515.12	47512.88
515.29	47367.76
515.47	47749.27
515.64	47938.85
515.81	47856.93
515.99	47938.85
516.16	48514.62
516.33	47852.25
516.51	48753.36
516.68	48332.06
516.85	48622.29
517.03	48879.75
517.20	48985.07
517.37	48816.55
517.54	48582.50
517.72	49085.72
517.89	48818.89
518.06	49137.21
518.24	48760.38
518.41	49392.33
518.58	49277.64
518.75	49242.53
518.93	49413.39
519.10	49015.50
519.27	49528.08
519.45	49602.97
519.62	49949.37
519.79	49858.09
519.96	49872.14
520.14	49991.50
520.31	49624.04
520.48	50145.98
520.65	50314.50
520.83	50403.44
521.00	50646.85
521.17	50314.50
521.34	50536.85
521.52	50796.65
521.69	50501.74
521.86	50726.43
522.03	50948.78
522.20	51276.46
522.38	51545.62
522.55	51510.51
522.72	51091.55
522.89	51086.87
523.07	51519.87
523.24	51351.35
523.41	51632.22
523.58	51222.62
523.75	51674.35
523.92	51480.08
524.10	51756.27
524.27	51868.61
524.44	51702.43
524.61	52168.20
524.78	51999.68
524.96	52044.15
525.13	52222.03
525.30	52364.81
525.47	52268.84
525.64	52287.57
525.81	52739.29
525.98	52652.69
526.16	52343.74
526.33	52523.96
526.50	53041.22
526.67	52753.33
526.84	52823.55
527.01	52849.30
527.18	52750.99
527.36	52963.98
527.53	52669.08
527.70	53228.46
527.87	53235.48
528.04	52996.75
528.21	53099.73
528.38	53029.52
528.55	53640.40
528.72	53289.32
528.89	53155.91
529.07	53495.28
529.24	53581.88
529.41	53591.25
529.58	53883.81
529.75	53408.68
529.92	53717.64
530.09	53492.94
530.26	53778.49
530.43	53923.60
530.60	53605.29
530.77	53708.27
530.94	53867.43
531.11	53909.56
531.28	53965.73
531.46	53909.56
531.63	54073.40
531.80	54211.49
531.97	54171.70
532.14	54550.87
532.31	54293.41
532.48	54443.20
532.65	54340.22
532.82	54330.86
532.99	54466.61
533.16	54607.04
533.33	54724.07
533.50	54794.28
533.67	54623.42
533.84	54766.20
534.01	54852.80
534.18	54681.94
534.35	55220.26
534.52	54913.65
534.69	54986.21
534.86	55171.11
535.03	54794.28
535.20	55079.83
535.37	55185.15
535.54	55466.02
535.71	55138.34
535.88	55473.04
536.05	55227.28
536.22	55547.93
536.38	55543.25
536.55	55332.60
536.72	55337.29
536.89	55353.67
537.06	55470.70
537.23	55587.72
537.40	55487.08
537.57	55356.01
537.74	55592.40
537.91	55924.76
538.08	55774.97
538.25	55882.63
538.42	55767.94
538.59	55966.89
538.75	55702.41
538.92	55957.53
539.09	56027.74
539.26	56037.11
539.43	56046.47
539.60	56076.90
539.77	55950.51
539.94	56371.80
540.11	56069.87
540.28	56362.44
540.44	56320.31
540.61	56580.11
540.78	56332.01
540.95	56191.58
541.12	56406.91
541.29	56514.58
541.46	56254.78
541.62	56573.09
541.79	56619.90
541.96	56425.64
542.13	56339.04
542.30	56161.15
542.47	56722.88
542.63	56767.35
542.80	56746.29
542.97	57045.88
543.14	57261.21
543.31	57158.22
543.48	57190.99
543.64	57268.23
543.81	57195.67
543.98	57221.42
544.15	57483.56
544.32	57373.55
544.48	57406.32
544.65	57158.22
544.82	57303.34
544.99	57069.28
545.16	57373.55
545.32	57092.69
545.49	57553.77
545.66	57614.63
545.83	57492.92
546.00	57628.67
546.16	57883.79
546.33	57483.56
546.50	57333.76
546.67	57595.90
546.83	57581.86
547.00	57511.64
547.17	57584.20
547.34	57851.02
547.50	57867.40
547.67	57883.79
547.84	57813.57
548.00	58197.42
548.17	57836.98
548.34	57904.85
548.51	58227.85
548.67	58288.70
548.84	58164.65
549.01	58157.63
549.18	58028.90
549.34	58312.11
549.51	58241.89
549.68	58405.73
549.84	58166.99
550.01	58284.02
550.18	58218.49
550.34	58274.66
550.51	58323.81
550.68	58244.23
550.84	58108.48
551.01	58471.26
551.18	58487.65
551.34	58218.49
551.51	58585.95
551.68	58506.37
551.84	58536.80
552.01	58431.47
552.18	58433.81
552.34	58379.98
552.51	58401.05
552.68	58536.80
552.84	58590.63
553.01	58798.94
553.18	58702.98
553.34	58815.32
553.51	58562.54
553.67	58726.38
553.84	58700.64
554.01	58733.40
554.17	58894.90
554.34	58969.80
554.51	58850.43
554.67	59107.89
554.84	58876.18
555.00	58862.13
555.17	58817.66
555.33	58969.80
555.50	58649.14
555.67	58901.92
555.83	58834.05
556.00	59131.29
556.16	59257.68
556.33	59068.10
556.50	59110.23
556.66	59194.49
556.83	58960.44
556.99	59442.59
557.16	59372.37
557.32	59377.05
557.49	59491.74
557.65	59150.02
557.82	59231.94
557.98	59213.21
558.15	59384.07
558.32	59377.05
558.48	59231.94
558.65	59355.99
558.81	59414.50
558.98	59571.32
559.14	59611.10
559.31	59416.84
559.47	59533.87
559.64	59550.25
559.80	59590.04
559.97	59613.44
560.13	59777.28
560.30	59632.17
560.46	59629.83
560.63	59611.10
560.79	59814.73
560.96	59936.44
561.12	59746.86
561.29	59678.98
561.45	59639.19
561.61	59845.16
561.78	59723.45
561.94	59583.02
562.11	59772.60
562.27	59709.41
562.44	59821.75
562.60	60095.60
562.77	59980.91
562.93	59700.04
563.10	59938.78
563.26	59891.97
563.42	60158.79
563.59	59667.28
563.75	60025.38
563.92	60081.55
564.08	59803.03
564.24	59936.44
564.41	60062.83
564.57	60287.52
564.74	59969.21
564.90	60041.76
565.07	60151.77
565.23	60147.09
565.39	59943.46
565.56	60083.89
565.72	60097.94
565.88	60058.15
566.05	60142.41
566.21	60221.98
566.38	60086.23
566.54	60027.72
566.70	60294.54
566.87	60406.89
567.03	59962.18
567.19	60331.99
567.36	60170.49
567.52	60170.49
567.68	60423.27
567.85	60205.60
568.01	60229.01
568.17	60196.24
568.34	60100.28
568.50	60411.57
568.66	60285.18
568.83	60444.33
568.99	60245.39
569.15	60404.55
569.32	60266.45
569.48	60257.09
569.64	60397.52
569.81	60453.70
569.97	60308.58
570.13	60341.35
570.30	60289.86
570.46	60406.89
570.62	60514.55
570.78	60434.97
570.95	60404.55
571.11	60441.99
571.27	60413.91
571.43	60463.06
571.60	60362.42
571.76	60474.76
571.92	60388.16
572.09	60552.00
572.25	60420.93
572.41	60282.84
572.57	60329.65
572.74	60556.68
572.90	60416.25
573.06	60631.58
573.22	60411.57
573.38	60767.33
573.55	60657.32
573.71	60715.84
573.87	60692.43
574.03	60411.57
574.20	60715.84
574.36	60360.08
574.52	60720.52
574.68	60502.85
574.84	60729.88
575.01	60608.17
575.17	60732.22
575.33	60502.85
575.49	60505.19
575.65	60472.42
575.82	60739.24
575.98	60654.98
576.14	60865.63
576.30	60734.56
576.46	60411.57
576.62	60722.86
576.79	60631.58
576.95	60725.20
577.11	60685.41
577.27	60734.56
577.43	60734.56
577.59	60654.98
577.75	60528.59
577.92	60701.79
578.08	60727.54
578.24	60748.60
578.40	60889.04
578.56	60877.33
578.72	60678.39
578.88	61015.43
579.04	60933.51
579.21	60842.23
579.37	60746.26
579.53	60874.99
579.69	60718.18
579.85	60526.25
580.01	60776.69
580.17	60619.88
580.33	60680.73
580.49	60867.97
580.65	60776.69
580.82	60900.74
580.98	60662.00
581.14	60680.73
581.30	61104.37
581.46	60877.33
581.62	60828.18
581.78	60830.52
581.94	60910.10
582.10	60795.42
582.26	60853.93
582.42	60954.57
582.58	60683.07
582.74	60910.10
582.90	60762.65
583.06	60823.50
583.22	60580.09
583.38	61113.73
583.54	60788.39
583.70	60856.27
583.86	60900.74
584.02	60743.92
584.18	61062.24
584.34	60821.16
584.50	60959.25
584.66	60732.22
584.82	60650.30
584.98	61111.39
585.14	61036.49
585.30	60769.67
585.46	60931.17
585.62	60926.49
585.78	60973.30
585.94	60692.43
586.10	61045.85
586.26	61024.79
586.42	61151.18
586.58	60954.57
586.74	61043.51
586.90	60870.31
587.06	60844.57
587.22	61155.86
587.38	61029.47
587.54	61176.92
587.70	61219.05
587.86	61020.11
588.02	61048.19
588.18	60992.02
588.34	60977.98
588.49	61080.96
