SpectraSuite Data File
++++++++++++++++++++++++++++++++++++
Date: Fri Oct 25 11:26:26 EDT 2013
User: price-jones
Dark Spectrum Present: No
Reference Spectrum Present: No
Number of Sampled Component Spectra: 1
Spectrometers: USB2+H05261
Integration Time (usec): 100000 (USB2+H05261)
Spectra Averaged: 1 (USB2+H05261)
Boxcar Smoothing: 0 (USB2+H05261)
Correct for Electrical Dark: No (USB2+H05261)
Strobe/Lamp Enabled: No (USB2+H05261)
Correct for Detector Non-linearity: No (USB2+H05261)
Correct for Stray Light: No (USB2+H05261)
Number of Pixels in Processed Spectrum: 2048
>>>>>Begin Processed Spectral Data<<<<<
365.73	264.48
365.92	264.48
366.12	264.48
366.32	133.41
366.52	126.39
366.72	231.71
366.91	86.60
367.11	182.56
367.31	149.79
367.51	166.18
367.70	126.39
367.90	145.11
368.10	196.60
368.30	81.92
368.49	117.03
368.69	140.43
368.89	173.20
369.09	119.37
369.28	145.11
369.48	159.16
369.68	189.58
369.87	238.73
370.07	180.22
370.27	262.14
370.47	283.20
370.66	596.84
370.86	631.94
371.06	711.52
371.25	718.54
371.45	629.60
371.65	667.05
371.84	634.29
372.04	718.54
372.24	779.40
372.44	699.82
372.63	741.95
372.83	767.70
373.03	767.70
373.22	779.40
373.42	730.25
373.62	812.17
373.81	866.00
374.01	753.65
374.21	793.44
374.40	889.40
374.60	917.49
374.79	765.36
374.99	779.40
375.19	809.83
375.38	840.25
375.58	835.57
375.78	844.93
375.97	894.08
376.17	908.13
376.37	915.15
376.56	884.72
376.76	880.04
376.95	814.51
377.15	877.70
377.35	903.45
377.54	849.61
377.74	880.04
377.93	926.85
378.13	901.11
378.33	940.90
378.52	858.98
378.72	889.40
378.91	814.51
379.11	933.87
379.31	912.81
379.50	926.85
379.70	929.19
379.89	936.21
380.09	908.13
380.28	1006.43
380.48	985.37
380.68	1057.92
380.87	997.07
381.07	1128.14
381.26	1069.62
381.46	961.96
381.65	994.73
381.85	1050.90
382.04	1032.18
382.24	1055.58
382.43	1093.03
382.63	1041.54
382.83	1116.44
383.02	1121.12
383.22	1149.20
383.41	1128.14
383.61	1200.69
383.80	1142.18
384.00	1238.14
384.19	1050.90
384.39	1139.84
384.58	1207.72
384.78	1217.08
384.97	1142.18
385.17	1160.91
385.36	1149.20
385.56	1114.10
385.75	1109.41
385.95	1238.14
386.14	1186.65
386.34	1221.76
386.53	1123.46
386.72	1191.33
386.92	1219.42
387.11	1320.06
387.31	1177.29
387.50	1212.40
387.70	1266.23
387.89	1320.06
388.09	1266.23
388.28	1320.06
388.48	1303.68
388.67	1301.34
388.86	1233.46
389.06	1310.70
389.25	1352.83
389.45	1378.58
389.64	1462.83
389.84	1217.08
390.03	1303.68
390.22	1458.15
390.42	1277.93
390.61	1324.74
390.81	1409.00
391.00	1387.94
391.19	1451.13
391.39	1355.17
391.58	1380.92
391.78	1490.92
391.97	1488.58
392.16	1430.07
392.36	1547.09
392.55	1514.33
392.75	1472.20
392.94	1495.60
393.13	1617.31
393.33	1544.75
393.52	1528.37
393.71	1577.52
393.91	1619.65
394.10	1521.35
394.29	1645.40
394.49	1561.14
394.68	1598.59
394.88	1582.20
395.07	1657.10
395.26	1666.46
395.46	1715.61
395.65	1774.13
395.84	1757.74
396.04	1767.10
396.23	1652.42
396.42	1816.26
396.62	1722.63
396.81	1717.95
397.00	1849.02
397.19	1827.96
397.39	1839.66
397.58	1944.99
397.77	1802.21
397.97	1825.62
398.16	1912.22
398.35	1823.28
398.55	1839.66
398.74	1872.43
398.93	1930.94
399.12	1996.48
399.32	1977.75
399.51	1907.54
399.70	2008.18
399.90	2015.20
400.09	2017.54
400.28	2069.03
400.47	2010.52
400.67	2040.95
400.86	2069.03
401.05	2033.93
401.24	2024.56
401.44	2064.35
401.63	2143.93
401.82	2157.97
402.01	2017.54
402.21	2174.36
402.40	2284.36
402.59	2143.93
402.78	2207.13
402.97	2200.10
403.17	2349.90
403.36	2265.64
403.55	2296.07
403.74	2328.83
403.93	2317.13
404.13	2230.53
404.32	2291.38
404.51	2392.03
404.70	2415.43
404.89	2321.81
405.09	2413.09
405.28	2310.11
405.47	2499.69
405.66	2551.18
405.85	2401.39
406.05	2368.62
406.24	2450.54
406.43	2560.55
406.62	2719.70
406.81	2682.25
407.00	2544.16
407.20	2518.42
407.39	2663.53
407.58	2684.59
407.77	2747.79
407.96	2661.19
408.15	2820.35
408.34	2719.70
408.54	2815.66
408.73	2712.68
408.92	2857.79
409.11	2768.85
409.30	2920.99
409.49	2836.73
409.68	2928.01
409.87	2881.20
410.07	3030.99
410.26	3009.93
410.45	3066.10
410.64	3016.95
410.83	3098.87
411.02	3087.17
411.21	3110.57
411.40	3150.36
411.59	3171.43
411.78	3243.98
411.98	3157.38
412.17	3286.11
412.36	3307.18
412.55	3225.26
412.74	3417.18
412.93	3368.03
413.12	3330.58
413.31	3599.74
413.50	3384.41
413.69	3536.55
413.88	3630.17
414.07	3515.48
414.26	3520.17
414.45	3758.90
414.64	3606.77
414.83	3637.19
415.02	3864.22
415.22	3777.62
415.41	3791.67
415.60	3836.14
415.79	3908.69
415.98	3997.64
416.17	3929.76
416.36	3882.95
416.55	3918.06
416.74	4095.94
416.93	3971.89
417.12	4126.36
417.31	4149.77
417.50	4173.18
417.69	4339.35
417.88	4283.18
418.07	4339.35
418.26	4306.59
418.45	4278.50
418.64	4479.79
418.83	4379.14
419.02	4458.72
419.21	4547.66
419.39	4365.10
419.58	4351.06
419.77	4252.75
419.96	4348.72
420.15	4571.07
420.34	4620.22
420.53	4634.26
420.72	4624.90
420.91	4685.75
421.10	4676.39
421.29	4805.12
421.48	4730.22
421.67	4767.67
421.86	4723.20
422.05	4725.54
422.24	4800.44
422.43	4781.71
422.61	4851.93
422.80	5076.62
422.99	4784.06
423.18	4919.81
423.37	5022.79
423.56	4990.02
423.75	4875.34
423.94	4894.06
424.13	4648.30
424.32	4702.14
424.50	4990.02
424.69	5060.24
424.88	5174.92
425.07	4964.28
425.26	4851.93
425.45	4868.31
425.64	4945.55
425.83	4957.25
426.01	5060.24
426.20	5081.30
426.39	4917.47
426.58	5057.90
426.77	5153.86
426.96	5055.56
427.15	5170.24
427.33	5249.82
427.52	5102.37
427.71	5172.58
427.90	5369.19
428.09	5296.63
428.28	5303.65
428.46	5327.06
428.65	5315.36
428.84	5404.30
429.03	5460.47
429.22	5397.28
429.40	5425.36
429.59	5404.30
429.78	5338.76
429.97	5275.57
430.16	5373.87
430.34	5420.68
430.53	5530.69
430.72	5603.24
430.91	5687.50
431.10	5657.07
431.28	5467.49
431.47	5540.05
431.66	5827.93
431.85	5746.02
432.03	5951.98
432.22	5872.40
432.41	5879.43
432.60	5874.74
432.79	5893.47
432.97	6064.33
433.16	5970.71
433.35	5888.79
433.54	6080.71
433.72	6017.52
433.91	6031.56
434.10	6134.54
434.28	6090.07
434.47	6031.56
434.66	6366.26
434.85	6235.19
435.03	6408.39
435.22	6197.74
435.41	6548.82
435.59	6279.66
435.78	6420.09
435.97	6506.69
436.16	6401.37
436.34	6375.62
436.53	6555.84
436.72	6703.29
436.90	6443.49
437.09	6530.09
437.28	6347.53
437.46	6544.14
437.65	6555.84
437.84	6806.28
438.02	6614.35
438.21	6626.06
438.40	6649.46
438.58	6984.16
438.77	7082.46
438.96	6675.21
439.14	7145.66
439.33	7096.50
439.52	7236.94
439.70	7239.28
439.89	7335.24
440.08	7468.65
440.26	7220.55
440.45	7201.83
440.63	7391.41
440.82	7630.15
441.01	7632.49
441.19	7667.60
441.38	7573.97
441.57	7562.27
441.75	7742.49
441.94	7838.45
442.12	7672.28
442.31	8084.21
442.50	7969.52
442.68	7915.69
442.87	8009.31
443.05	7892.29
443.24	8308.90
443.43	8084.21
443.61	8037.40
443.80	8313.58
443.98	7992.93
444.17	7843.14
444.35	8383.80
444.54	8411.89
444.73	8224.64
444.91	8252.73
445.10	8381.46
445.28	8283.16
445.47	8187.19
445.65	8477.42
445.84	8332.31
446.02	8503.17
446.21	8425.93
446.39	8299.54
446.58	8379.12
446.77	8423.59
446.95	8269.11
447.14	8458.70
447.32	8454.02
447.51	8592.11
447.69	8528.91
447.88	8374.44
448.06	8528.91
448.25	8297.20
448.43	8622.53
448.62	8648.28
448.80	8578.06
448.99	8683.39
449.17	8758.28
449.36	8603.81
449.54	8774.67
449.73	8683.39
449.91	8917.44
450.10	8924.46
450.28	9125.75
450.46	8856.59
450.65	8872.97
450.83	8926.80
451.02	9008.72
451.20	9013.40
451.39	9095.32
451.57	9202.99
451.76	9039.15
451.94	9022.77
452.13	9202.99
452.31	9238.09
452.49	9055.53
452.68	9476.83
452.86	9245.12
453.05	9472.15
453.23	9509.60
453.42	9324.69
453.60	9322.35
453.78	9366.82
453.97	9441.72
454.15	9460.45
454.34	9809.19
454.52	9579.81
454.70	9614.92
454.89	9423.00
455.07	9799.82
455.26	9797.48
455.44	9940.26
455.62	9713.22
455.81	10036.22
455.99	10083.03
456.17	9912.17
456.36	9898.13
456.54	10129.84
456.73	10216.44
456.91	10354.53
457.09	10338.15
457.28	10427.09
457.46	10300.70
457.64	10452.83
457.83	10291.34
458.01	10359.21
458.19	10600.29
458.38	10345.17
458.56	10445.81
458.74	10506.66
458.93	10558.16
459.11	10761.78
459.29	10703.27
459.48	10684.55
459.66	10534.75
459.84	10988.82
460.03	11187.76
460.21	10885.83
460.39	10892.85
460.57	10803.91
460.76	11136.27
460.94	11012.22
461.12	11138.61
461.31	11143.29
461.49	11105.84
461.67	11157.33
461.85	11463.94
462.04	11199.46
462.22	11768.21
462.40	11524.80
462.59	11477.99
462.77	11620.76
462.95	11688.64
463.13	11499.05
463.32	11571.61
463.50	11758.85
463.68	11740.13
463.86	11749.49
464.05	11695.66
464.23	11910.99
464.41	11815.02
464.59	11585.65
464.78	12177.81
464.96	12074.82
465.14	11676.93
465.32	12095.89
465.50	12114.61
465.69	11903.96
465.87	12030.35
466.05	12131.00
466.23	12088.87
466.41	12219.94
466.60	12491.44
466.78	11988.22
466.96	12116.95
467.14	12255.04
467.32	12561.66
467.51	12395.48
467.69	12304.20
467.87	12365.05
468.05	12465.69
468.23	12180.15
468.41	12580.38
468.60	12631.87
468.78	12828.48
468.96	12627.19
469.14	12430.59
469.32	12746.56
469.50	12533.57
469.69	13011.04
469.87	13102.32
470.05	13085.94
470.23	13029.76
470.41	13092.96
470.59	13469.78
470.77	13039.12
470.95	12922.10
471.14	13378.50
471.32	13022.74
471.50	13561.06
471.68	13425.31
471.86	13497.87
472.04	13603.19
472.22	13942.57
472.40	13900.44
472.58	13881.72
472.77	13888.74
472.95	14005.77
473.13	14326.42
473.31	14003.43
473.49	14087.68
473.67	14068.96
473.85	14483.24
474.03	14516.00
474.21	14611.96
474.39	14628.35
474.57	14558.13
474.75	15201.78
474.93	14836.66
475.12	14904.53
475.30	15091.77
475.48	14771.12
475.66	15243.91
475.84	15014.54
476.02	15101.14
476.20	15150.29
476.38	15721.38
476.56	16013.95
476.74	15793.94
476.92	15700.31
477.10	15798.62
477.28	15807.98
477.46	15997.56
477.64	16362.69
477.82	16444.60
478.00	16957.18
478.18	16470.35
478.36	16776.96
478.54	17158.47
478.72	17118.68
478.90	17242.73
479.08	17788.07
479.26	17535.29
479.44	17469.76
479.62	17673.39
479.80	17921.48
479.98	17724.88
480.16	18298.31
480.34	18265.54
480.52	18523.00
480.70	18380.23
480.88	18391.93
481.06	18689.18
481.24	18731.31
481.41	18595.56
481.59	19208.78
481.77	19262.61
481.95	19852.42
482.13	19531.77
482.31	19318.78
482.49	20243.29
482.67	19962.43
482.85	20390.75
483.03	20219.89
483.21	20608.42
483.39	20950.14
483.57	20599.05
483.74	20973.54
483.92	21439.31
484.10	21233.34
484.28	21387.82
484.46	22047.85
484.64	22415.31
484.82	21832.52
485.00	22436.38
485.18	22405.95
485.35	22719.58
485.53	22916.19
485.71	23197.05
485.89	23285.99
486.07	23094.07
486.25	23309.40
486.43	23438.12
486.61	23796.23
486.78	23924.96
486.96	24528.81
487.14	24364.98
487.32	24624.78
487.50	24889.26
487.68	24865.85
487.85	24802.66
488.03	25542.27
488.21	25649.93
488.39	25565.67
488.57	25764.62
488.75	25773.98
488.92	26199.96
489.10	26548.70
489.28	26422.31
489.46	26766.37
489.64	27063.61
489.81	27611.30
489.99	27728.33
490.17	27653.43
490.35	28353.25
490.53	28046.64
490.70	28168.35
490.88	28084.09
491.06	28919.66
491.24	28730.08
491.41	28849.44
491.59	29188.82
491.77	28725.39
491.95	29598.41
492.13	29699.06
492.30	29752.89
492.48	29846.51
492.66	30162.48
492.84	30251.42
493.01	30466.75
493.19	30286.53
493.37	31211.04
493.54	31070.61
493.72	30902.09
493.90	31442.76
494.08	31845.33
494.25	31744.69
494.43	31974.06
494.61	31917.89
494.79	32402.38
494.96	32252.58
495.14	32772.18
495.32	32861.12
495.49	32840.06
495.67	33315.19
495.85	33109.22
496.02	33769.25
496.20	34164.80
496.38	33876.91
496.55	33797.34
496.73	34747.59
496.91	34363.75
497.09	34338.00
497.26	34939.52
497.44	34864.62
497.62	34965.26
497.79	35676.79
497.97	35316.34
498.14	35431.03
498.32	35803.17
498.50	35913.18
498.67	36341.50
498.85	36067.66
499.03	36371.92
499.20	36444.48
499.38	36795.56
499.56	37109.19
499.73	37102.17
499.91	36987.49
500.08	37172.39
500.26	37310.48
500.44	37471.98
500.61	37617.09
500.79	37844.12
500.97	37589.00
501.14	38686.71
501.32	38227.97
501.49	38153.07
501.67	38525.22
501.84	38749.91
502.02	38546.28
502.20	38995.67
502.37	38539.26
502.55	38775.66
502.72	39503.56
502.90	39213.34
503.07	39321.00
503.25	39756.34
503.43	39533.99
503.60	39517.60
503.78	39981.03
503.95	39782.09
504.13	40456.16
504.30	40435.10
504.48	40554.46
504.65	40987.46
504.83	40830.65
505.01	41003.85
505.18	41008.53
505.36	41509.40
505.53	40942.99
505.71	40996.82
505.88	41542.17
506.06	41371.31
506.23	41865.16
506.41	41808.99
506.58	42021.98
506.76	42007.94
506.93	42209.22
507.11	42279.44
507.28	42220.92
507.46	42646.90
507.63	42810.74
507.81	42885.64
507.98	42487.74
508.16	42707.76
508.33	42941.81
508.50	43573.75
508.68	43253.10
508.85	43983.35
509.03	43681.42
509.20	44381.24
509.38	44126.12
509.55	43786.74
509.73	44201.02
509.90	44374.22
510.08	44528.69
510.25	44680.83
510.42	45010.84
510.60	44921.90
510.77	44896.16
510.95	45483.63
511.12	45069.36
511.30	44938.29
511.47	45184.04
511.64	45500.01
511.82	45406.39
511.99	45359.58
512.17	45415.76
512.34	45883.86
512.51	46321.54
512.69	46368.35
512.86	46101.53
513.04	46178.77
513.21	46040.68
513.38	46342.61
513.56	46756.88
513.73	46469.00
513.90	46937.10
514.08	46433.89
514.25	46831.78
514.43	46911.36
514.60	47206.26
514.77	47543.30
514.95	47187.54
515.12	47526.92
515.29	47365.42
515.47	48055.88
515.64	48013.75
515.81	47524.58
515.99	47665.01
516.16	48311.00
516.33	48306.32
516.51	48399.94
516.68	48189.29
516.85	48076.94
517.03	48523.99
517.20	48603.56
517.37	48549.73
517.54	48694.85
517.72	48655.06
517.89	49083.37
518.06	49118.48
518.24	48914.86
518.41	49420.41
518.58	49020.18
518.75	49008.48
518.93	49556.16
519.10	49200.40
519.27	49504.67
519.45	49537.44
519.62	49769.15
519.79	49647.44
519.96	50054.70
520.14	49949.37
520.31	49975.12
520.48	50363.65
520.65	50216.19
520.83	50478.33
521.00	50679.62
521.17	50169.38
521.34	50581.32
521.52	50611.74
521.69	50475.99
521.86	50670.26
522.03	50855.16
522.20	50918.35
522.38	51264.75
522.55	51119.64
522.72	51199.22
522.89	51077.51
523.07	51510.51
523.24	51452.00
523.41	51686.05
523.58	51093.89
523.75	51447.32
523.92	51585.41
524.10	51966.91
524.27	51901.38
524.44	51749.24
524.61	52013.73
524.78	51866.27
524.96	51847.55
525.13	52196.29
525.30	52140.11
525.47	52121.39
525.64	52479.49
525.81	52484.17
525.98	52692.48
526.16	52350.76
526.33	52303.95
526.50	52753.33
526.67	52640.99
526.84	52570.77
527.01	52711.20
527.18	53165.27
527.36	52753.33
527.53	53022.50
527.70	53198.04
527.87	53029.52
528.04	52999.09
528.21	53258.89
528.38	53333.79
528.55	53324.43
528.72	53336.13
528.89	52971.00
529.07	53357.19
529.24	53062.29
529.41	53584.22
529.58	53586.57
529.75	53621.67
529.92	53687.21
530.09	53703.59
530.26	53808.92
530.43	53844.02
530.60	53698.91
530.77	53935.30
530.94	53879.13
531.11	53757.42
531.28	53790.19
531.46	53932.96
531.63	54380.01
531.80	54202.13
531.97	54305.11
532.14	53984.46
532.31	54066.38
532.48	54197.44
532.65	54506.40
532.82	54375.33
532.99	54475.97
533.16	54443.20
533.33	54946.42
533.50	54813.01
533.67	54677.25
533.84	54298.09
534.01	54693.64
534.18	54667.89
534.35	55016.63
534.52	55030.68
534.69	55110.25
534.86	54960.46
535.03	55049.40
535.20	54932.37
535.37	54958.12
535.54	55110.25
535.71	55147.70
535.88	55246.00
536.05	55480.06
536.22	55346.65
536.38	55241.32
536.55	55529.21
536.72	55138.34
536.89	55356.01
537.06	55288.13
537.23	55540.91
537.40	55463.67
537.57	55444.95
537.74	55664.96
537.91	55875.61
538.08	55789.01
538.25	55510.49
538.42	55550.27
538.59	56048.81
538.75	55791.35
538.92	55760.92
539.09	55948.17
539.26	56158.81
539.43	55669.64
539.60	56151.79
539.77	56165.84
539.94	56430.32
540.11	56126.05
540.28	56346.06
540.44	56229.03
540.61	56444.36
540.78	56203.28
540.95	56299.25
541.12	56189.24
541.29	56144.77
541.46	56545.00
541.62	56647.99
541.79	56573.09
541.96	56348.40
542.13	56591.81
542.30	56537.98
542.47	56793.10
542.63	56612.88
542.80	56552.02
542.97	56931.19
543.14	57120.77
543.31	57139.50
543.48	57022.47
543.64	57310.36
543.81	57303.34
543.98	57284.61
544.15	57226.10
544.32	57366.53
544.48	57436.75
544.65	57181.63
544.82	57305.68
544.99	57258.87
545.16	57371.21
545.32	57251.84
545.49	57464.83
545.66	57513.98
545.83	57602.92
546.00	57750.38
546.16	57485.90
546.33	57506.96
546.50	57167.58
546.67	57471.85
546.83	57439.09
547.00	57528.03
547.17	57513.98
547.34	57375.89
547.50	57879.11
547.67	57986.77
547.84	57750.38
548.00	57949.32
548.17	58017.20
548.34	57794.85
548.51	58073.37
548.67	57876.77
548.84	57937.62
549.01	57989.11
549.18	58150.61
549.34	57900.17
549.51	58166.99
549.68	58089.76
549.84	58333.17
550.01	58394.03
550.18	58064.01
550.34	58337.85
550.51	58241.89
550.68	58384.66
550.84	57970.39
551.01	58426.79
551.18	58389.34
551.34	58176.36
551.51	58431.47
551.68	58618.72
551.84	58513.39
552.01	58255.93
552.18	58501.69
552.34	58532.12
552.51	58656.17
552.68	58277.00
552.84	58375.30
553.01	58990.86
553.18	58646.80
553.34	58831.71
553.51	58628.08
553.67	58679.57
553.84	58808.30
554.01	58937.03
554.17	58838.73
554.34	58871.49
554.51	58913.62
554.67	58944.05
554.84	58941.71
555.00	59054.06
555.17	59030.65
555.33	59063.42
555.50	58995.54
555.67	58815.32
555.83	58812.98
556.00	59100.87
556.16	59269.39
556.33	59070.44
556.50	59227.26
556.66	59215.55
556.83	59133.63
556.99	59227.26
557.16	59465.99
557.32	59608.76
557.49	59327.90
557.65	59402.80
557.82	59210.87
557.98	59203.85
558.15	59437.90
558.32	59451.95
558.48	59185.13
558.65	59433.22
558.81	59295.13
558.98	59264.70
559.14	59341.94
559.31	59744.51
559.47	59475.35
559.64	59566.63
559.80	59594.72
559.97	59606.42
560.13	59444.93
560.30	59538.55
560.46	59660.26
560.63	59641.53
560.79	59564.29
560.96	59709.41
561.12	59662.60
561.29	59730.47
561.45	59880.27
561.61	59765.58
561.78	59674.30
561.94	59686.00
562.11	59613.44
562.27	59629.83
562.44	59985.59
562.60	59779.62
562.77	59957.50
562.93	59765.58
563.10	60067.51
563.26	59898.99
563.42	60083.89
563.59	59990.27
563.75	59915.37
563.92	59906.01
564.08	60004.31
564.24	59976.23
564.41	60013.68
564.57	60069.85
564.74	59987.93
564.90	59929.42
565.07	60088.57
565.23	60037.08
565.39	59913.03
565.56	60268.79
565.72	60161.13
565.88	59999.63
566.05	60123.68
566.21	60126.02
566.38	60058.15
566.54	60144.75
566.70	60219.64
566.87	60355.39
567.03	59941.12
567.19	60479.44
567.36	60317.95
567.52	60158.79
567.68	60399.86
567.85	60165.81
568.01	60418.59
568.17	60289.86
568.34	60549.66
568.50	60357.74
568.66	60327.31
568.83	60179.85
568.99	60390.50
569.15	60411.57
569.32	60243.05
569.48	60175.17
569.64	60364.76
569.81	60303.90
569.97	60350.71
570.13	60479.44
570.30	60285.18
570.46	60362.42
570.62	60186.88
570.78	60446.68
570.95	60390.50
571.11	60591.79
571.27	60212.62
571.43	60432.63
571.60	60509.87
571.76	60392.84
571.92	60509.87
572.09	60488.80
572.25	60299.22
572.41	60399.86
572.57	60491.15
572.74	60652.64
572.90	60509.87
573.06	60404.55
573.22	60460.72
573.38	60610.51
573.55	60374.12
573.71	60678.39
573.87	60753.29
574.03	60357.74
574.20	60559.02
574.36	60287.52
574.52	60683.07
574.68	60746.26
574.84	60671.37
575.01	60823.50
575.17	60500.51
575.33	60425.61
575.49	60467.74
575.65	60676.05
575.82	60715.84
575.98	60612.85
576.14	60807.12
576.30	60720.52
576.46	60502.85
576.62	60547.32
576.79	60776.69
576.95	60577.75
577.11	60708.82
577.27	60790.73
577.43	60605.83
577.59	60683.07
577.75	60860.95
577.92	60626.90
578.08	60711.16
578.24	60736.90
578.40	60830.52
578.56	60872.65
578.72	60968.61
578.88	60832.86
579.04	60905.42
579.21	60704.13
579.37	60828.18
579.53	60926.49
579.69	60748.60
579.85	60683.07
580.01	60437.31
580.17	60683.07
580.33	60743.92
580.49	60725.20
580.65	60767.33
580.82	60781.37
580.98	60640.94
581.14	60708.82
581.30	60846.91
581.46	60690.09
581.62	60889.04
581.78	60589.45
581.94	60711.16
582.10	60699.45
582.26	60697.11
582.42	60746.26
582.58	60746.26
582.74	60743.92
582.90	60928.83
583.06	60839.89
583.22	60694.77
583.38	60968.61
583.54	60818.82
583.70	60776.69
583.86	60982.66
584.02	60662.00
584.18	60858.61
584.34	60910.10
584.50	60842.23
584.66	60858.61
584.82	60664.35
584.98	60970.96
585.14	60945.21
585.30	60760.31
585.46	60846.91
585.62	60912.44
585.78	61010.74
585.94	60626.90
586.10	60736.90
586.26	61006.06
586.42	60741.58
586.58	61015.43
586.74	61010.74
586.90	60680.73
587.06	60757.97
587.22	60963.93
587.38	60891.38
587.54	61226.07
587.70	61148.84
587.86	60956.91
588.02	60973.30
588.18	60994.36
588.34	61001.38
588.49	61111.39
