SpectraSuite Data File
++++++++++++++++++++++++++++++++++++
Date: Fri Oct 25 10:43:29 EDT 2013
User: price-jones
Dark Spectrum Present: No
Reference Spectrum Present: No
Number of Sampled Component Spectra: 1
Spectrometers: USB2+H05261
Integration Time (usec): 100000 (USB2+H05261)
Spectra Averaged: 1 (USB2+H05261)
Boxcar Smoothing: 0 (USB2+H05261)
Correct for Electrical Dark: No (USB2+H05261)
Strobe/Lamp Enabled: No (USB2+H05261)
Correct for Detector Non-linearity: No (USB2+H05261)
Correct for Stray Light: No (USB2+H05261)
Number of Pixels in Processed Spectrum: 2048
>>>>>Begin Processed Spectral Data<<<<<
365.73	184.90
365.92	184.90
366.12	184.90
366.32	16.38
366.52	21.06
366.72	58.51
366.91	60.85
367.11	23.41
367.31	37.45
367.51	46.81
367.70	53.83
367.90	77.24
368.10	21.06
368.30	0.00
368.49	0.00
368.69	30.43
368.89	39.79
369.09	14.04
369.28	81.92
369.48	81.92
369.68	16.38
369.87	138.09
370.07	114.69
370.27	81.92
370.47	168.52
370.66	409.59
370.86	397.89
371.06	477.47
371.25	468.11
371.45	411.93
371.65	454.06
371.84	437.68
372.04	461.09
372.24	416.62
372.44	524.28
372.63	540.66
372.83	535.98
373.03	545.34
373.22	477.47
373.42	507.90
373.62	552.37
373.81	531.30
374.01	479.81
374.21	507.90
374.40	510.24
374.60	592.16
374.79	505.56
374.99	578.11
375.19	617.90
375.38	585.13
375.58	566.41
375.78	557.05
375.97	582.79
376.17	653.01
376.37	564.07
376.56	622.58
376.76	662.37
376.95	566.41
377.15	599.18
377.35	681.10
377.54	699.82
377.74	690.46
377.93	676.41
378.13	594.50
378.33	690.46
378.52	650.67
378.72	683.44
378.91	634.29
379.11	725.57
379.31	655.35
379.50	636.63
379.70	697.48
379.89	690.46
380.09	676.41
380.28	725.57
380.48	657.69
380.68	692.80
380.87	709.18
381.07	739.61
381.26	732.59
381.46	725.57
381.65	716.20
381.85	615.56
382.04	660.03
382.24	645.99
382.43	774.72
382.63	669.39
382.83	781.74
383.02	699.82
383.22	748.97
383.41	662.37
383.61	662.37
383.80	758.33
384.00	814.51
384.19	746.63
384.39	835.57
384.58	807.48
384.78	798.12
384.97	830.89
385.17	781.74
385.36	880.04
385.56	840.25
385.75	823.87
385.95	734.93
386.14	819.19
386.34	851.96
386.53	861.32
386.72	837.91
386.92	858.98
387.11	823.87
387.31	828.55
387.50	849.61
387.70	842.59
387.89	866.00
388.09	891.74
388.28	936.21
388.48	863.66
388.67	896.43
388.86	917.49
389.06	968.98
389.25	978.34
389.45	905.79
389.64	976.00
389.84	1020.47
390.03	980.68
390.22	1006.43
390.42	983.02
390.61	966.64
390.81	976.00
391.00	985.37
391.19	1055.58
391.39	1008.77
391.58	1043.88
391.78	1055.58
391.97	1018.13
392.16	1015.79
392.36	1036.86
392.55	1025.15
392.75	983.02
392.94	990.05
393.13	926.85
393.33	929.19
393.52	1076.65
393.71	1102.39
393.91	1095.37
394.10	1076.65
394.29	1034.52
394.49	1198.35
394.68	1181.97
394.88	1207.72
395.07	1200.69
395.26	1174.95
395.46	1331.76
395.65	1266.23
395.84	1219.42
396.04	1254.53
396.23	1163.25
396.42	1172.61
396.62	1179.63
396.81	1174.95
397.00	1245.16
397.19	1291.98
397.39	1313.04
397.58	1455.81
397.77	1310.70
397.97	1275.59
398.16	1369.21
398.35	1528.37
398.55	1488.58
398.74	1507.30
398.93	1526.03
399.12	1486.24
399.32	1465.18
399.51	1521.35
399.70	1497.94
399.90	1614.97
400.09	1589.22
400.28	1612.63
400.47	1516.67
400.67	1598.59
400.86	1577.52
401.05	1607.95
401.24	1666.46
401.44	1767.10
401.63	1741.36
401.82	1678.16
402.01	1671.14
402.21	1678.16
402.40	1612.63
402.59	1739.02
402.78	1715.61
402.97	1760.08
403.17	1778.81
403.36	1860.73
403.55	1825.62
403.74	1863.07
403.93	1830.30
404.13	1736.68
404.32	1844.34
404.51	1797.53
404.70	1928.60
404.89	1863.07
405.09	1865.41
405.28	1919.24
405.47	2050.31
405.66	1926.26
405.85	1956.69
406.05	2029.24
406.24	2012.86
406.43	2010.52
406.62	2015.20
406.81	2136.91
407.00	2118.18
407.20	2085.42
407.39	2078.40
407.58	2204.78
407.77	2169.68
407.96	2183.72
408.15	2211.81
408.34	2258.62
408.54	2305.43
408.73	2239.89
408.92	2258.62
409.11	2267.98
409.30	2347.56
409.49	2244.57
409.68	2125.21
409.87	2169.68
410.07	2354.58
410.26	2382.67
410.45	2363.94
410.64	2487.99
410.83	2506.71
411.02	2513.74
411.21	2516.08
411.40	2600.34
411.59	2649.49
411.78	2583.95
411.98	2614.38
412.17	2654.17
412.36	2644.81
412.55	2651.83
412.74	2698.64
412.93	2752.47
413.12	2825.03
413.31	2970.14
413.50	2862.48
413.69	2932.69
413.88	2916.31
414.07	3005.25
414.26	2953.76
414.45	2920.99
414.64	2904.60
414.83	3084.83
415.02	3049.72
415.22	3155.04
415.41	3124.62
415.60	3148.02
415.79	3124.62
415.98	3239.30
416.17	3258.03
416.36	3258.03
416.55	3141.00
416.74	3283.77
416.93	3220.58
417.12	3281.43
417.31	3442.93
417.50	3269.73
417.69	3410.16
417.88	3400.80
418.07	3344.63
418.26	3475.70
418.45	3510.80
418.64	3496.76
418.83	3590.38
419.02	3569.32
419.21	3588.04
419.39	3641.87
419.58	3452.29
419.77	3534.21
419.96	3702.73
420.15	3719.11
420.34	3662.94
420.53	3644.21
420.72	3726.13
420.91	3817.41
421.10	3805.71
421.29	3913.38
421.48	3747.20
421.67	3754.22
421.86	3920.40
422.05	3847.84
422.24	3772.94
422.43	3866.56
422.61	3899.33
422.80	3889.97
422.99	3885.29
423.18	3936.78
423.37	3915.72
423.56	3932.10
423.75	3927.42
423.94	3784.65
424.13	3576.34
424.32	3868.91
424.50	4091.26
424.69	3918.06
424.88	4093.60
425.07	3885.29
425.26	3901.67
425.45	3948.48
425.64	3845.50
425.83	4128.70
426.01	3948.48
426.20	3995.29
426.39	3899.33
426.58	4093.60
426.77	3927.42
426.96	3950.82
427.15	3904.01
427.33	4138.07
427.52	4142.75
427.71	3995.29
427.90	4084.23
428.09	4140.41
428.28	4133.39
428.46	4198.92
428.65	4037.42
428.84	4133.39
429.03	4180.20
429.22	3927.42
429.40	4124.02
429.59	4194.24
429.78	3936.78
429.97	3995.29
430.16	4079.55
430.34	4109.98
430.53	4119.34
430.72	4227.01
430.91	4072.53
431.10	4294.88
431.28	4414.25
431.47	4397.87
431.66	4664.69
431.85	4503.19
432.03	4564.04
432.22	4617.88
432.41	4447.02
432.60	4643.62
432.79	4528.94
432.97	4617.88
433.16	4589.79
433.35	4606.17
433.54	4550.00
433.72	4711.50
433.91	4482.13
434.10	4842.57
434.28	4856.61
434.47	4877.68
434.66	4868.31
434.85	4849.59
435.03	4887.04
435.22	4908.10
435.41	5219.39
435.59	4905.76
435.78	5156.20
435.97	5043.85
436.16	5188.97
436.34	5137.48
436.53	5275.57
436.72	4978.32
436.90	5170.24
437.09	5224.08
437.28	5032.15
437.46	5184.29
437.65	5179.61
437.84	5130.45
438.02	5069.60
438.21	5191.31
438.40	5060.24
438.58	5146.84
438.77	5341.10
438.96	5343.44
439.14	5568.13
439.33	5734.31
439.52	5694.52
439.70	5687.50
439.89	5682.82
440.08	5671.12
440.26	5544.73
440.45	5621.97
440.63	5816.23
440.82	5891.13
441.01	5727.29
441.19	6015.18
441.38	5930.92
441.57	6200.08
441.75	6289.02
441.94	6188.38
442.12	6253.91
442.31	6237.53
442.50	6307.74
442.68	6242.21
442.87	6274.98
443.05	6296.04
443.24	6455.20
443.43	6359.24
443.61	6616.69
443.80	6614.35
443.98	6207.10
444.17	6368.60
444.35	6504.35
444.54	6740.74
444.73	6464.56
444.91	6537.12
445.10	6328.81
445.28	6417.75
445.47	6263.27
445.65	6462.22
445.84	6537.12
446.02	6579.25
446.21	6588.61
446.39	6628.40
446.58	6612.01
446.77	6579.25
446.95	6483.28
447.14	6677.55
447.32	6787.55
447.51	6569.88
447.69	6623.72
447.88	6726.70
448.06	6719.68
448.25	6768.83
448.43	6782.87
448.62	6707.98
448.80	6808.62
448.99	6747.76
449.17	6789.89
449.36	6729.04
449.54	6820.32
449.73	7061.40
449.91	7180.76
450.10	7019.27
450.28	7225.23
450.46	7068.42
450.65	7220.55
450.83	7108.21
451.02	7030.97
451.20	7094.16
451.39	7145.66
451.57	7201.83
451.76	7002.88
451.94	7307.15
452.13	7190.13
452.31	7204.17
452.49	7265.02
452.68	7314.17
452.86	6927.99
453.05	7136.29
453.23	7375.03
453.42	7386.73
453.60	7190.13
453.78	7414.82
453.97	7300.13
454.15	7250.98
454.34	7454.61
454.52	7485.03
454.70	7360.98
454.89	7585.68
455.07	7463.97
455.26	7571.63
455.44	7822.07
455.62	7658.23
455.81	7655.89
455.99	7618.44
456.17	7707.38
456.36	7908.67
456.54	8053.78
456.73	7817.39
456.91	8135.70
457.09	8093.57
457.28	8159.11
457.46	7911.01
457.64	8016.33
457.83	7852.50
458.01	7798.66
458.19	8255.07
458.38	8124.00
458.56	8322.94
458.74	8189.53
458.93	8238.69
459.11	8334.65
459.29	8287.84
459.48	8238.69
459.66	8507.85
459.84	8292.52
460.03	8491.46
460.21	8465.72
460.39	8498.49
460.57	8365.07
460.76	8470.40
460.94	8411.89
461.12	8493.80
461.31	8505.51
461.49	8535.93
461.67	8641.26
461.85	8692.75
462.04	8456.36
462.22	9144.47
462.40	8837.86
462.59	8884.67
462.77	8940.85
462.95	8922.12
463.13	9053.19
463.32	8922.12
463.50	8901.06
463.68	8837.86
463.86	8870.63
464.05	8795.73
464.23	8919.78
464.41	8954.89
464.59	8844.88
464.78	9142.13
464.96	9064.89
465.14	9151.49
465.32	9352.78
465.50	9231.07
465.69	9240.44
465.87	9331.72
466.05	9125.75
466.23	9121.07
466.41	9305.97
466.60	9289.59
466.78	9095.32
466.96	9275.54
467.14	9142.13
467.32	9226.39
467.51	9376.19
467.69	9095.32
467.87	9521.30
468.05	9568.11
468.23	9399.59
468.41	9345.76
468.60	9352.78
468.78	9547.05
468.96	9404.27
469.14	9528.32
469.32	9748.33
469.50	9495.55
469.69	9500.23
469.87	9731.95
470.05	9881.74
470.23	9771.74
470.41	9811.53
470.59	10003.45
470.77	9701.52
470.95	10064.30
471.14	10059.62
471.32	9947.28
471.50	10256.23
471.68	10258.57
471.86	10251.55
472.04	10384.96
472.22	10387.30
472.40	10160.27
472.58	10118.14
472.77	10307.72
472.95	10420.06
473.13	10792.21
473.31	10326.44
473.49	10492.62
473.67	10602.63
473.85	10595.61
474.03	10916.26
474.21	10693.91
474.39	11012.22
474.57	10883.49
474.75	11094.14
474.93	11056.69
475.12	11096.48
475.30	11234.57
475.48	11124.57
475.66	11260.32
475.84	11276.70
476.02	11262.66
476.20	11410.11
476.38	11552.88
476.56	11800.98
476.74	11829.07
476.92	11688.64
477.10	11555.22
477.28	12091.21
477.46	11859.49
477.64	12116.95
477.82	12343.99
478.00	12472.71
478.18	12348.67
478.36	12470.37
478.54	12528.89
478.72	12685.70
478.90	12898.69
479.08	12989.97
479.26	13032.10
479.44	13050.83
479.62	12947.84
479.80	12875.29
479.98	13146.79
480.16	13540.00
480.34	13284.88
480.52	13692.13
480.70	13635.96
480.88	13621.92
481.06	13743.63
481.24	13879.38
481.41	14153.22
481.59	14384.93
481.77	14438.76
481.95	14644.73
482.13	14331.10
482.31	14574.52
482.49	14782.82
482.67	14839.00
482.85	14953.68
483.03	14909.21
483.21	15147.95
483.39	15346.89
483.57	15145.61
483.74	15349.23
483.92	15419.45
484.10	15293.06
484.28	15829.04
484.46	15981.18
484.64	16262.04
484.82	15726.06
485.00	16039.69
485.18	16423.54
485.35	16446.94
485.53	16290.13
485.71	16166.08
485.89	16322.90
486.07	16168.42
486.25	16517.16
486.43	16613.12
486.61	16915.05
486.78	17144.42
486.96	17109.32
487.14	17460.40
487.32	17415.93
487.50	18005.74
487.68	17977.65
487.85	18127.45
488.03	18595.56
488.21	18689.18
488.39	18539.38
488.57	18604.92
488.75	18752.37
488.92	18721.95
489.10	19150.26
489.28	19468.58
489.46	19749.44
489.64	19456.87
489.81	19796.25
489.99	19892.21
490.17	20116.90
490.35	20374.36
490.53	20037.33
490.70	20444.58
490.88	20402.45
491.06	20793.32
491.24	21097.59
491.41	20592.03
491.59	20341.60
491.77	20589.69
491.95	20751.19
492.13	21392.50
492.30	21429.94
492.48	21165.46
492.66	21490.80
492.84	21624.21
493.01	21820.81
493.19	21867.63
493.37	22064.23
493.54	22387.22
493.72	22249.13
493.90	22422.33
494.08	22750.01
494.25	23075.34
494.43	23253.22
494.61	23215.77
494.79	23412.38
494.96	23454.51
495.14	23040.23
495.32	23330.46
495.49	23644.09
495.67	23477.91
495.85	23782.18
496.02	24498.39
496.20	24168.37
496.38	24449.24
496.55	24367.32
496.73	24676.27
496.91	24680.95
497.09	24793.29
497.26	25109.27
497.44	24718.40
497.62	24795.64
497.79	25298.85
497.97	24795.64
498.14	24966.49
498.32	25411.20
498.50	25509.50
498.67	25844.20
498.85	25750.57
499.03	25951.86
499.20	25991.65
499.38	26176.55
499.56	26143.78
499.73	26455.08
499.91	26324.01
500.08	26382.52
500.26	25979.95
500.44	26637.64
500.61	26677.43
500.79	26443.37
500.97	26759.34
501.14	27105.74
501.32	26661.04
501.49	26658.70
501.67	27026.17
501.84	27281.28
502.02	27271.92
502.20	27463.85
502.37	27641.73
502.55	27566.83
502.72	27927.27
502.90	27690.88
503.07	27541.08
503.25	27847.69
503.43	27660.45
503.60	28173.03
503.78	27964.72
503.95	27999.83
504.13	28163.67
504.30	28215.16
504.48	28521.77
504.65	28334.53
504.83	28936.04
505.01	28823.70
505.18	28914.98
505.36	28957.11
505.53	29298.83
505.71	29340.96
505.88	29539.90
506.06	29296.49
506.23	29593.73
506.41	29420.53
506.58	29345.64
506.76	29687.36
506.93	29553.94
507.11	29656.93
507.28	29223.93
507.46	29724.80
507.63	29467.34
507.81	30050.14
507.98	30099.29
508.16	29912.05
508.33	30309.94
508.50	30588.46
508.68	30146.10
508.85	30941.88
509.03	30827.20
509.20	30883.37
509.38	31175.94
509.55	31182.96
509.73	31103.38
509.90	31571.49
510.08	31098.70
510.25	30923.16
510.42	31208.70
510.60	31356.16
510.77	31433.39
510.95	31948.31
511.12	31648.72
511.30	31885.12
511.47	32226.84
511.64	32018.53
511.82	32147.26
511.99	32009.17
512.17	32355.57
512.34	31969.38
512.51	32245.56
512.69	32294.71
512.86	32797.93
513.04	32500.68
513.21	32465.57
513.38	32339.18
513.56	32474.93
513.73	32507.70
513.90	32776.86
514.08	32856.44
514.25	32978.15
514.43	32924.32
514.60	32704.31
514.77	33235.61
514.95	33120.92
515.12	33394.76
515.29	33453.28
515.47	34005.64
515.64	34190.55
515.81	33617.11
515.99	33699.03
516.16	33626.48
516.33	33486.04
516.51	33780.95
516.68	33205.18
516.85	32783.88
517.03	33308.16
517.20	33577.33
517.37	33991.60
517.54	34218.63
517.72	34045.43
517.89	33642.86
518.06	33989.26
518.24	33802.02
518.41	34293.53
518.58	33926.07
518.75	34068.84
518.93	34370.77
519.10	34639.93
519.27	34815.47
519.45	34679.72
519.62	34824.83
519.79	35442.73
519.96	34962.92
520.14	35405.28
520.31	35138.46
520.48	35363.15
520.65	34670.36
520.83	35402.94
521.00	35321.02
521.17	35393.58
521.34	36009.14
521.52	35784.45
521.69	35899.14
521.86	36013.82
522.03	36032.55
522.20	36128.51
522.38	36350.86
522.55	36165.96
522.72	36065.31
522.89	35974.03
523.07	36463.21
523.24	36165.96
523.41	37097.49
523.58	36629.38
523.75	37191.11
523.92	37015.57
524.10	36769.82
524.27	36683.22
524.44	36968.76
524.61	36708.96
524.78	37041.32
524.96	37078.77
525.13	37418.14
525.30	37371.33
525.47	37172.39
525.64	37331.54
525.81	37366.65
525.98	37198.13
526.16	37071.75
526.33	37078.77
526.50	37003.87
526.67	36821.31
526.84	37237.92
527.01	37041.32
527.18	37338.57
527.36	37804.33
527.53	38113.28
527.70	38265.42
527.87	38237.33
528.04	37858.17
528.21	38080.52
528.38	38150.73
528.55	38380.10
528.72	38450.32
528.89	38855.23
529.07	38880.98
529.24	38370.74
529.41	38499.47
529.58	38419.89
529.75	39098.65
529.92	38642.24
530.09	38810.76
530.26	39077.58
530.43	38815.44
530.60	38759.27
530.77	38569.69
530.94	39665.06
531.11	39253.12
531.28	39475.48
531.46	39414.62
531.63	39557.39
531.80	39051.84
531.97	39269.51
532.14	39056.52
532.31	38808.42
532.48	39194.61
532.65	39454.41
532.82	39103.33
532.99	39409.94
533.16	39559.73
533.33	39749.32
533.50	39723.57
533.67	39849.96
533.84	39480.16
534.01	39796.13
534.18	40254.87
534.35	40240.83
534.52	40055.93
534.69	40067.63
534.86	39997.41
535.03	39903.79
535.20	40603.61
535.37	40442.12
535.54	40802.56
535.71	40219.77
535.88	40907.88
536.05	40360.20
536.22	40407.01
536.38	40692.55
536.55	40715.96
536.72	40357.86
536.89	40306.37
537.06	40112.10
537.23	40615.32
537.40	40999.16
537.57	41331.52
537.74	41118.53
537.91	41247.26
538.08	40966.40
538.25	40877.46
538.42	40924.27
538.59	41001.50
538.75	40701.92
538.92	41448.55
539.09	41268.33
539.26	41312.80
539.43	40809.58
539.60	41287.05
539.77	41137.26
539.94	40720.64
540.11	41116.19
540.28	41027.25
540.44	40959.38
540.61	41448.55
540.78	41284.71
540.95	41085.76
541.12	41523.44
541.29	41326.84
541.46	41198.11
541.62	41605.36
541.79	41965.81
541.96	40959.38
542.13	41645.15
542.30	41996.23
542.47	41820.69
542.63	41970.49
542.80	41970.49
542.97	42316.89
543.14	42096.88
543.31	41998.57
543.48	42033.68
543.64	42768.61
543.81	42342.63
543.98	42078.15
544.15	42190.50
544.32	42361.36
544.48	43131.39
544.65	42787.33
544.82	42880.95
544.99	42323.91
545.16	42768.61
545.32	42857.55
545.49	42892.66
545.66	43084.58
545.83	42862.23
546.00	42897.34
546.16	42995.64
546.33	42717.12
546.50	42663.28
546.67	42569.66
546.83	42705.41
547.00	43206.29
547.17	43173.52
547.34	42810.74
547.50	43000.32
547.67	43618.22
547.84	42965.21
548.00	43098.62
548.17	43487.15
548.34	43531.62
548.51	43871.00
548.67	43597.16
548.84	43353.74
549.01	43150.12
549.18	43447.36
549.34	43192.25
549.51	43564.39
549.68	43849.94
549.84	43765.68
550.01	43536.30
550.18	43622.90
550.34	43461.41
550.51	43796.10
550.68	43459.07
550.84	43320.98
551.01	43873.34
551.18	43447.36
551.34	43473.11
551.51	44362.51
551.68	43992.71
551.84	43592.48
552.01	43669.72
552.18	43725.89
552.34	43901.43
552.51	43730.57
552.68	43943.56
552.84	43903.77
553.01	44414.01
553.18	44130.80
553.34	44053.56
553.51	44236.12
553.67	44493.58
553.84	44694.87
554.01	44549.76
554.17	45003.82
554.34	44765.09
554.51	44414.01
554.67	44617.63
554.84	44306.34
555.00	44109.74
555.17	44243.15
555.33	44201.02
555.50	44383.58
555.67	44596.57
555.83	44781.47
556.00	44685.51
556.16	44767.43
556.33	44765.09
556.50	44514.65
556.66	44835.30
556.83	44264.21
556.99	44502.95
557.16	44781.47
557.32	44390.60
557.49	44856.37
557.65	44460.82
557.82	44807.22
557.98	45097.44
558.15	44708.91
558.32	45062.33
558.48	44605.93
558.65	44762.75
558.81	44194.00
558.98	44924.24
559.14	44996.80
559.31	44671.46
559.47	44978.07
559.64	44268.89
559.80	44994.46
559.97	45207.45
560.13	44491.24
560.30	45200.43
560.46	45270.64
560.63	45315.11
560.79	45265.96
560.96	45420.44
561.12	45301.07
561.29	44823.60
561.45	44973.39
561.61	44741.68
561.78	45017.86
561.94	45294.05
562.11	45006.16
562.27	44835.30
562.44	45448.52
562.60	45282.34
562.77	45521.08
562.93	45242.56
563.10	45656.83
563.26	45523.42
563.42	45240.21
563.59	44914.88
563.75	45219.15
563.92	45474.27
564.08	45357.24
564.24	45558.53
564.41	45563.21
564.57	45193.40
564.74	45048.29
564.90	45607.68
565.07	45558.53
565.23	45237.87
565.39	45036.59
565.56	45715.34
565.72	44591.89
565.88	45120.85
566.05	45141.91
566.21	45212.13
566.38	45024.89
566.54	45357.24
566.70	46131.96
566.87	45904.93
567.03	45638.11
567.19	45972.80
567.36	45717.68
567.52	45460.23
567.68	45390.01
567.85	45235.53
568.01	45977.48
568.17	45174.68
568.34	45787.90
568.50	45549.17
568.66	45654.49
568.83	45598.32
568.99	45715.34
569.15	45280.00
569.32	45287.03
569.48	45404.05
569.64	45668.53
569.81	45937.69
569.97	45296.39
570.13	45270.64
570.30	44699.55
570.46	45411.07
570.62	45483.63
570.78	45064.67
570.95	45249.58
571.11	45301.07
571.27	45605.34
571.43	45357.24
571.60	45617.04
571.76	44863.39
571.92	45500.01
572.09	45549.17
572.25	46082.81
572.41	45523.42
572.57	45724.71
572.74	46260.69
572.90	45787.90
573.06	46007.91
573.22	45696.62
573.38	45530.44
573.55	45359.58
573.71	45731.73
573.87	46164.73
574.03	45275.32
574.20	45783.22
574.36	45621.72
574.52	45720.02
574.68	45855.78
574.84	45588.95
575.01	45549.17
575.17	45972.80
575.33	45591.30
575.49	45352.56
575.65	45504.70
575.82	45925.99
575.98	45951.74
576.14	45970.46
576.30	45790.24
576.46	45815.99
576.62	45902.59
576.79	46012.59
576.95	45565.55
577.11	45834.71
577.27	45766.84
577.43	45272.98
577.59	45567.89
577.75	45595.98
577.92	45261.28
578.08	45345.54
578.24	45200.43
578.40	45614.70
578.56	45757.47
578.72	45886.20
578.88	45970.46
579.04	46099.19
579.21	45642.79
579.37	45785.56
579.53	45839.39
579.69	45593.64
579.85	46080.47
580.01	45823.01
580.17	45495.33
580.33	45750.45
580.49	46157.70
580.65	45996.21
580.82	45811.31
580.98	45947.06
581.14	45120.85
581.30	46010.25
581.46	46071.10
581.62	46389.42
581.78	45860.46
581.94	46122.60
582.10	45705.98
582.26	46213.88
582.42	45881.52
582.58	45631.08
582.74	45642.79
582.90	46162.39
583.06	46291.12
583.22	45949.40
583.38	46253.67
583.54	45708.32
583.70	45724.71
583.86	45677.90
584.02	45975.14
584.18	46258.35
584.34	46237.28
584.50	46134.30
584.66	45539.80
584.82	45588.95
584.98	46461.97
585.14	45996.21
585.30	45989.19
585.46	45998.55
585.62	45659.17
585.78	45900.25
585.94	45375.97
586.10	45668.53
586.26	45600.66
586.42	45940.04
586.58	45808.96
586.74	45865.14
586.90	46036.00
587.06	45984.51
587.22	46096.85
587.38	45691.94
587.54	45743.43
587.70	45698.96
587.86	45588.95
588.02	46099.19
588.18	46115.58
588.34	45715.34
588.49	45354.90
588.65	45268.30
588.81	45268.30
588.97	45059.99
589.13	45638.11
589.29	45603.00
589.45	45621.72
589.61	45635.77
589.77	45893.22
589.93	45977.48
