SpectraSuite Data File
++++++++++++++++++++++++++++++++++++
Date: Fri Oct 25 11:22:52 EDT 2013
User: price-jones
Dark Spectrum Present: No
Reference Spectrum Present: No
Number of Sampled Component Spectra: 1
Spectrometers: USB2+H05261
Integration Time (usec): 100000 (USB2+H05261)
Spectra Averaged: 1 (USB2+H05261)
Boxcar Smoothing: 0 (USB2+H05261)
Correct for Electrical Dark: No (USB2+H05261)
Strobe/Lamp Enabled: No (USB2+H05261)
Correct for Detector Non-linearity: No (USB2+H05261)
Correct for Stray Light: No (USB2+H05261)
Number of Pixels in Processed Spectrum: 2048
>>>>>Begin Processed Spectral Data<<<<<
365.73	198.95
365.92	198.95
366.12	198.95
366.32	112.35
366.52	53.83
366.72	227.03
366.91	173.20
367.11	175.54
367.31	100.64
367.51	163.84
367.70	110.01
367.90	159.16
368.10	105.32
368.30	81.92
368.49	65.54
368.69	173.20
368.89	140.43
369.09	98.30
369.28	145.11
369.48	166.18
369.68	205.97
369.87	182.56
370.07	159.16
370.27	168.52
370.47	353.42
370.66	631.94
370.86	645.99
371.06	620.24
371.25	685.78
371.45	643.65
371.65	695.14
371.84	638.97
372.04	599.18
372.24	751.31
372.44	777.06
372.63	660.03
372.83	725.57
373.03	770.04
373.22	718.54
373.42	751.31
373.62	746.63
373.81	805.14
374.01	835.57
374.21	870.68
374.40	744.29
374.60	798.12
374.79	809.83
374.99	870.68
375.19	858.98
375.38	851.96
375.58	807.48
375.78	856.64
375.97	763.01
376.17	915.15
376.37	763.01
376.56	877.70
376.76	807.48
376.95	868.34
377.15	896.43
377.35	880.04
377.54	889.40
377.74	823.87
377.93	903.45
378.13	877.70
378.33	933.87
378.52	936.21
378.72	945.58
378.91	905.79
379.11	896.43
379.31	922.17
379.50	1006.43
379.70	973.66
379.89	922.17
380.09	943.24
380.28	1001.75
380.48	915.15
380.68	987.71
380.87	940.90
381.07	1069.62
381.26	1081.33
381.46	1090.69
381.65	1050.90
381.85	980.68
382.04	968.98
382.24	1022.81
382.43	1039.20
382.63	990.05
382.83	1198.35
383.02	1139.84
383.22	1125.80
383.41	1095.37
383.61	1179.63
383.80	1125.80
384.00	1163.25
384.19	1097.71
384.39	1125.80
384.58	1078.99
384.78	1097.71
384.97	1207.72
385.17	1235.80
385.36	1193.67
385.56	1172.61
385.75	1165.59
385.95	1156.22
386.14	1207.72
386.34	1146.86
386.53	1188.99
386.72	1153.88
386.92	1149.20
387.11	1409.00
387.31	1301.34
387.50	1228.78
387.70	1221.76
387.89	1256.87
388.09	1317.72
388.28	1256.87
388.48	1266.23
388.67	1289.64
388.86	1306.02
389.06	1369.21
389.25	1420.71
389.45	1364.53
389.64	1341.13
389.84	1437.09
390.03	1406.66
390.22	1359.85
390.42	1392.62
390.61	1343.47
390.81	1460.49
391.00	1467.52
391.19	1537.73
391.39	1420.71
391.58	1521.35
391.78	1558.80
391.97	1476.88
392.16	1511.99
392.36	1530.71
392.55	1568.16
392.75	1568.16
392.94	1504.96
393.13	1509.65
393.33	1565.82
393.52	1565.82
393.71	1598.59
393.91	1561.14
394.10	1572.84
394.29	1565.82
394.49	1575.18
394.68	1542.41
394.88	1713.27
395.07	1575.18
395.26	1645.40
395.46	1699.23
395.65	1750.72
395.84	1767.10
396.04	1790.51
396.23	1816.26
396.42	1732.00
396.62	1755.40
396.81	1818.60
397.00	1746.04
397.19	1804.55
397.39	1680.50
397.58	1692.21
397.77	1757.74
397.97	1834.98
398.16	1769.44
398.35	1914.56
398.55	1856.04
398.74	1898.17
398.93	2010.52
399.12	1963.71
399.32	1902.86
399.51	1977.75
399.70	2008.18
399.90	1968.39
400.09	1905.20
400.28	2092.44
400.47	2036.27
400.67	2087.76
400.86	2104.14
401.05	2003.50
401.24	2092.44
401.44	2008.18
401.63	2120.53
401.82	2188.40
402.01	2106.48
402.21	2104.14
402.40	2258.62
402.59	2239.89
402.78	2223.51
402.97	2242.23
403.17	2265.64
403.36	2380.32
403.55	2347.56
403.74	2354.58
403.93	2347.56
404.13	2340.54
404.32	2314.79
404.51	2310.11
404.70	2394.37
404.89	2328.83
405.09	2385.01
405.28	2455.22
405.47	2546.50
405.66	2483.31
405.85	2569.91
406.05	2443.52
406.24	2551.18
406.43	2562.89
406.62	2689.28
406.81	2733.75
407.00	2651.83
407.20	2640.12
407.39	2743.11
407.58	2597.99
407.77	2792.26
407.96	2771.19
408.15	2771.19
408.34	2815.66
408.54	2778.22
408.73	2841.41
408.92	2759.49
409.11	2918.65
409.30	2942.05
409.49	2855.45
409.68	2956.10
409.87	2782.90
410.07	3089.51
410.26	3014.61
410.45	2890.56
410.64	3068.44
410.83	3117.59
411.02	3089.51
411.21	3180.79
411.40	3239.30
411.59	3274.41
411.78	3227.60
411.98	3213.56
412.17	3288.45
412.36	3344.63
412.55	3447.61
412.74	3440.59
412.93	3529.53
413.12	3461.65
413.31	3574.00
413.50	3515.48
413.69	3620.81
413.88	3571.66
414.07	3646.55
414.26	3681.66
414.45	3695.71
414.64	3588.04
414.83	3707.41
415.02	3618.47
415.22	3918.06
415.41	3878.27
415.60	3913.38
415.79	3882.95
415.98	3999.98
416.17	3967.21
416.36	4098.28
416.55	4051.47
416.74	4133.39
416.93	4028.06
417.12	4107.64
417.31	4119.34
417.50	4058.49
417.69	4182.54
417.88	4318.29
418.07	4418.93
418.26	4159.13
418.45	4257.43
418.64	4447.02
418.83	4493.83
419.02	4451.70
419.21	4484.47
419.39	4608.51
419.58	4503.19
419.77	4388.50
419.96	4526.60
420.15	4599.15
420.34	4631.92
420.53	4582.77
420.72	4835.55
420.91	4681.07
421.10	4606.17
421.29	4809.80
421.48	4770.01
421.67	4833.21
421.86	4730.22
422.05	4858.95
422.24	4896.40
422.43	4901.08
422.61	4903.42
422.80	4968.96
422.99	4908.10
423.18	4987.68
423.37	5022.79
423.56	5074.28
423.75	4931.51
423.94	5029.81
424.13	4613.20
424.32	4805.12
424.50	4975.98
424.69	5179.61
424.88	5100.03
425.07	4954.91
425.26	5132.79
425.45	4887.04
425.64	5083.64
425.83	4952.57
426.01	5029.81
426.20	5212.37
426.39	5076.62
426.58	5022.79
426.77	5177.26
426.96	5001.72
427.15	5095.35
427.33	5132.79
427.52	5217.05
427.71	5399.62
427.90	5320.04
428.09	5273.23
428.28	5383.23
428.46	5432.38
428.65	5446.43
428.84	5486.22
429.03	5743.67
429.22	5322.38
429.40	5497.92
429.59	5596.22
429.78	5355.15
429.97	5411.32
430.16	5535.37
430.34	5696.86
430.53	5694.52
430.72	5818.57
430.91	5881.77
431.10	5771.76
431.28	5755.38
431.47	5799.85
431.66	5844.32
431.85	5795.17
432.03	5944.96
432.22	5940.28
432.41	5991.77
432.60	5956.66
432.79	6003.47
432.97	6122.84
433.16	6036.24
433.35	6160.29
433.54	6099.44
433.72	6235.19
433.91	6181.35
434.10	6097.10
434.28	6050.28
434.47	6270.30
434.66	6228.17
434.85	6239.87
435.03	6324.13
435.22	6361.58
435.41	6436.47
435.59	6588.61
435.78	6478.60
435.97	6541.80
436.16	6445.84
436.34	6342.85
436.53	6548.82
436.72	6768.83
436.90	6633.08
437.09	6661.16
437.28	6523.07
437.46	6628.40
437.65	6473.92
437.84	6848.41
438.02	6621.38
438.21	6904.58
438.40	6864.79
438.58	7045.01
438.77	6981.82
438.96	6913.94
439.14	7288.43
439.33	7276.73
439.52	7276.73
439.70	7197.15
439.89	7236.94
440.08	7370.35
440.26	7403.11
440.45	7323.54
440.63	7529.50
440.82	7691.00
441.01	7513.12
441.19	7463.97
441.38	7728.45
441.57	7843.14
441.75	7756.54
441.94	7906.33
442.12	7892.29
442.31	7971.86
442.50	8030.38
442.68	8056.12
442.87	7857.18
443.05	8107.62
443.24	8187.19
443.43	8231.66
443.61	8318.26
443.80	8589.77
443.98	7925.05
444.17	7885.26
444.35	8346.35
444.54	8437.63
444.73	8353.37
444.91	8329.97
445.10	8390.82
445.28	8332.31
445.47	8629.56
445.65	8292.52
445.84	8587.43
446.02	8688.07
446.21	8444.65
446.39	8362.73
446.58	8610.83
446.77	8507.85
446.95	8297.20
447.14	8439.97
447.32	8435.29
447.51	8374.44
447.69	8599.13
447.88	8692.75
448.06	8479.76
448.25	8594.45
448.43	8692.75
448.62	8657.64
448.80	8571.04
448.99	8641.26
449.17	8751.26
449.36	8615.51
449.54	8730.20
449.73	8755.94
449.91	9139.79
450.10	9085.96
450.28	9226.39
450.46	9235.75
450.65	9163.20
450.83	8980.64
451.02	9249.80
451.20	9294.27
451.39	9200.65
451.57	9315.33
451.76	9158.52
451.94	9214.69
452.13	9348.10
452.31	9317.67
452.49	9057.87
452.68	9240.44
452.86	9240.44
453.05	9474.49
453.23	9490.87
453.42	9490.87
453.60	9502.58
453.78	9628.96
453.97	9369.16
454.15	9324.69
454.34	9352.78
454.52	9652.37
454.70	9792.80
454.89	9659.39
455.07	9921.53
455.26	9991.75
455.44	10054.94
455.62	10024.51
455.81	9902.81
455.99	9867.70
456.17	9839.61
456.36	10143.88
456.54	10249.21
456.73	10375.59
456.91	10551.14
457.09	10277.29
457.28	10558.16
457.46	10415.38
457.64	10743.06
457.83	10523.05
458.01	10520.71
458.19	10923.28
458.38	10562.84
458.56	10810.93
458.74	10726.68
458.93	10923.28
459.11	10829.66
459.29	10663.48
459.48	10670.50
459.66	10799.23
459.84	10934.98
460.03	10913.92
460.21	10970.09
460.39	11262.66
460.57	11084.78
460.76	11122.23
460.94	11075.42
461.12	11377.34
461.31	11288.40
461.49	11250.96
461.67	11234.57
461.85	11342.24
462.04	11316.49
462.22	11637.14
462.40	11763.53
462.59	11613.74
462.77	11527.14
462.95	11833.75
463.13	11733.11
463.32	11562.25
463.50	11613.74
463.68	11861.84
463.86	12233.98
464.05	11662.89
464.23	11922.69
464.41	11946.09
464.59	11770.55
464.78	12402.50
464.96	12112.27
465.14	11850.13
465.32	12133.34
465.50	12360.37
465.69	12442.29
465.87	12140.36
466.05	11932.05
466.23	12037.38
466.41	12336.96
466.60	12500.80
466.78	12278.45
466.96	12290.15
467.14	12131.00
467.32	12252.70
467.51	12734.85
467.69	12266.75
467.87	12505.48
468.05	12634.21
468.23	12444.63
468.41	12451.65
468.60	12540.59
468.78	12898.69
468.96	12589.74
469.14	12870.61
469.32	12901.03
469.50	12589.74
469.69	13076.57
469.87	13235.73
470.05	13287.22
470.23	13343.39
470.41	13088.28
470.59	13327.01
470.77	13364.46
470.95	13607.87
471.14	13607.87
471.32	13156.15
471.50	13675.75
471.68	13589.15
471.86	13675.75
472.04	13944.91
472.22	14359.19
472.40	13687.45
472.58	13954.27
472.77	14059.60
472.95	14462.17
473.13	14600.26
473.31	14523.02
473.49	14246.84
473.67	14228.12
473.85	14331.10
474.03	14647.07
474.21	14581.54
474.39	14736.01
474.57	14918.57
474.75	15108.16
474.93	15169.01
475.12	15009.86
475.30	15131.56
475.48	15117.52
475.66	15316.47
475.84	15173.69
476.02	15510.73
476.20	15403.07
476.38	15726.06
476.56	16233.96
476.74	16123.95
476.92	16072.46
477.10	16170.76
477.28	16100.55
477.46	16294.81
477.64	16287.79
477.82	16975.91
478.00	17003.99
478.18	16910.37
478.36	17050.80
478.54	17214.64
478.72	17296.56
478.90	17621.89
479.08	17577.42
479.26	17902.76
479.44	17844.24
479.62	18012.76
479.80	18328.74
479.98	18317.03
480.16	18618.96
480.34	18302.99
480.52	18593.22
480.70	18977.06
480.88	18633.00
481.06	19112.81
481.24	18820.25
481.41	19044.94
481.59	19513.05
481.77	19733.06
481.95	19772.85
482.13	19807.95
482.31	19873.49
482.49	20556.93
482.67	20100.52
482.85	20561.61
483.03	20662.25
483.21	20634.16
483.39	20999.29
483.57	21221.64
483.74	21429.94
483.92	21317.60
484.10	21383.13
484.28	21811.45
484.46	22054.87
484.64	22679.79
484.82	22115.72
485.00	22317.01
485.18	22883.42
485.35	23131.51
485.53	22951.29
485.71	22946.61
485.89	23482.59
486.07	23433.44
486.25	23707.29
486.43	23716.65
486.61	24079.43
486.78	24058.37
486.96	24332.21
487.14	24802.66
487.32	25001.60
487.50	24863.51
487.68	25163.10
487.85	25523.54
488.03	25867.60
488.21	26169.53
488.39	25778.66
488.57	26644.66
488.75	26597.85
488.92	26630.62
489.10	26801.47
489.28	27065.96
489.46	27417.04
489.64	27262.56
489.81	27728.33
489.99	27559.81
490.17	27796.20
490.35	28416.44
490.53	28453.89
490.70	28570.92
490.88	28629.43
491.06	29289.46
491.24	28912.64
491.41	28893.91
491.59	29460.32
491.77	28996.90
491.95	29860.55
492.13	29839.49
492.30	30443.35
492.48	30323.98
492.66	30274.83
492.84	30490.16
493.01	31014.44
493.19	31173.60
493.37	31103.38
493.54	31283.60
493.72	31346.79
493.90	31269.56
494.08	31910.86
494.25	32254.92
494.43	32135.56
494.61	32400.04
494.79	32559.19
494.96	32811.97
495.14	33069.43
495.32	33560.94
495.49	33280.08
495.67	33017.94
495.85	34314.59
496.02	33832.44
496.20	34319.28
496.38	34239.70
496.55	34539.29
496.73	35196.98
496.91	34525.24
497.09	34923.13
497.26	35098.67
497.44	35194.64
497.62	35632.32
497.79	36112.13
497.97	36079.36
498.14	36442.14
498.32	36540.44
498.50	36458.52
498.67	36809.61
498.85	36779.18
499.03	37336.23
499.20	37364.31
499.38	37200.47
499.56	37535.17
499.73	37076.43
499.91	37677.94
500.08	37713.05
500.26	37186.43
500.44	38197.54
500.61	37862.85
500.79	37581.98
500.97	38300.53
501.14	38527.56
501.32	38941.83
501.49	38939.49
501.67	38768.63
501.84	39215.68
502.02	38948.85
502.20	39236.74
502.37	39613.57
502.55	39573.78
502.72	39566.76
502.90	39945.92
503.07	39878.05
503.25	39817.19
503.43	40046.57
503.60	40264.24
503.78	40470.20
503.95	40559.14
504.13	40346.15
504.30	40751.07
504.48	40924.27
504.65	40905.54
504.83	41378.33
505.01	41607.70
505.18	41628.77
505.36	41736.43
505.53	41563.23
505.71	41684.94
505.88	42195.18
506.06	41703.67
506.23	42429.23
506.41	42155.39
506.58	42225.60
506.76	42401.14
506.93	42660.94
507.11	42312.20
507.28	43044.79
507.46	42763.93
507.63	42953.51
507.81	43260.12
507.98	43648.65
508.16	43468.43
508.33	43704.82
508.50	44184.63
508.68	43819.51
508.85	43981.01
509.03	44203.36
509.20	44109.74
509.38	44446.77
509.55	45045.95
509.73	45364.26
509.90	44737.00
510.08	45015.52
510.25	44987.44
510.42	45146.59
510.60	45406.39
510.77	44952.33
510.95	45888.54
511.12	45258.94
511.30	45448.52
511.47	45886.20
511.64	45696.62
511.82	46136.64
511.99	45603.00
512.17	46012.59
512.34	46103.87
512.51	46492.40
512.69	46918.38
512.86	46756.88
513.04	47065.83
513.21	46686.67
513.38	46885.61
513.56	47267.12
513.73	47147.75
513.90	47070.51
514.08	47152.43
514.25	47639.26
514.43	47381.80
514.60	47826.51
514.77	47686.07
514.95	48053.54
515.12	47655.65
515.29	47807.78
515.47	47943.53
515.64	48591.86
515.81	48292.27
515.99	48371.85
516.16	48928.90
516.33	48846.98
516.51	48959.33
516.68	48821.23
516.85	48809.53
517.03	49078.69
517.20	49139.55
517.37	49717.66
517.54	49518.71
517.72	49378.28
517.89	49495.31
518.06	49272.96
518.24	49279.98
518.41	49722.34
518.58	49364.24
518.75	50094.49
518.93	49656.81
519.10	49778.51
519.27	50010.23
519.45	50000.86
519.62	50052.36
519.79	50171.72
519.96	50382.37
520.14	50410.46
520.31	50059.38
520.48	50354.29
520.65	50639.83
520.83	50447.91
521.00	50995.59
521.17	50829.41
521.34	50761.54
521.52	50967.51
521.69	51292.84
521.86	51341.99
522.03	51529.23
522.20	51370.08
522.38	51796.06
522.55	51686.05
522.72	51744.56
522.89	51690.73
523.07	52088.62
523.24	51573.70
523.41	51992.66
523.58	51763.29
523.75	52189.27
523.92	52219.69
524.10	51976.28
524.27	52226.71
524.44	52591.84
524.61	52519.28
524.78	52444.38
524.96	52264.16
525.13	52739.29
525.30	52570.77
525.47	52767.38
525.64	52727.59
525.81	52825.89
525.98	52956.96
526.16	52849.30
526.33	52790.78
526.50	53450.81
526.67	53081.01
526.84	53221.44
527.01	53289.32
527.18	53223.78
527.36	53230.80
527.53	53368.90
527.70	53731.68
527.87	53715.29
528.04	53169.95
528.21	53277.61
528.38	53546.78
528.55	53689.55
528.72	53490.60
528.89	53717.64
529.07	53682.53
529.24	53579.54
529.41	53766.79
529.58	53687.21
529.75	53851.05
529.92	54143.61
530.09	53907.22
530.26	54232.55
530.43	54171.70
530.60	54171.70
530.77	54108.50
530.94	54405.75
531.11	54155.32
531.28	54375.33
531.46	54443.20
531.63	54515.76
531.80	54597.68
531.97	54719.38
532.14	54822.37
532.31	54670.23
532.48	54705.34
532.65	54918.33
532.82	54756.83
532.99	54948.76
533.16	54841.09
533.33	55121.96
533.50	55018.97
533.67	54976.84
533.84	54798.96
534.01	54981.52
534.18	55070.46
534.35	55496.44
534.52	55196.85
534.69	55428.57
534.86	55372.39
535.03	55100.89
535.20	55461.33
535.37	55594.74
535.54	55585.38
535.71	55440.27
535.88	55683.69
536.05	55746.88
536.22	55760.92
536.38	55985.61
536.55	55695.39
536.72	55903.70
536.89	55714.11
537.06	55899.01
537.23	56060.51
537.40	55875.61
537.57	55873.27
537.74	56217.33
537.91	56016.04
538.08	56198.60
538.25	56037.11
538.42	56041.79
538.59	56154.13
538.75	56095.62
538.92	56137.75
539.09	56655.01
539.26	56357.76
539.43	56360.10
539.60	56474.79
539.77	56488.83
539.94	56495.85
540.11	56507.55
540.28	56449.04
540.44	56741.61
540.61	56727.56
540.78	56479.47
540.95	56580.11
541.12	56622.24
541.29	56545.00
541.46	56463.08
541.62	56657.35
541.79	56853.95
541.96	56839.91
542.13	56533.30
542.30	56940.55
542.47	57141.84
542.63	56940.55
542.80	57265.89
542.97	57347.81
543.14	57446.11
543.31	57427.38
543.48	57162.90
543.64	57659.10
543.81	57614.63
543.98	57544.41
544.15	57654.42
544.32	57806.55
544.48	57649.74
544.65	57537.39
544.82	57591.22
544.99	57612.29
545.16	57542.07
545.32	57471.85
545.49	57741.02
545.66	57825.28
545.83	57937.62
546.00	58094.44
546.16	57710.59
546.33	57827.62
546.50	57804.21
546.67	57776.12
546.83	57640.37
547.00	57813.57
547.17	57832.30
547.34	57937.62
547.50	57907.19
547.67	58199.76
547.84	58131.89
548.00	58218.49
548.17	58532.12
548.34	58138.91
548.51	58492.33
548.67	58529.78
548.84	58485.31
549.01	58248.91
549.18	58426.79
549.34	58639.78
549.51	58487.65
549.68	58623.40
549.84	58660.85
550.01	58733.40
550.18	58485.31
550.34	58653.82
550.51	58679.57
550.68	58672.55
550.84	58333.17
551.01	58733.40
551.18	58567.23
551.34	58827.02
551.51	58862.13
551.68	58752.13
551.84	58843.41
552.01	58838.73
552.18	58845.75
552.34	58798.94
552.51	58930.01
552.68	58782.55
552.84	58733.40
553.01	59255.34
553.18	59192.15
553.34	58866.81
553.51	59140.66
553.67	59103.21
553.84	59061.08
554.01	59164.06
554.17	59084.48
554.34	59147.68
554.51	59110.23
554.67	59227.26
554.84	59264.70
555.00	59241.30
555.17	59096.19
555.33	59140.66
555.50	58927.67
555.67	58915.96
555.83	59320.88
556.00	59423.86
556.16	59498.76
556.33	59409.82
556.50	59508.12
556.66	59576.00
556.83	59339.60
556.99	59515.14
557.16	59618.13
557.32	59414.50
557.49	59833.46
557.65	59611.10
557.82	59444.93
557.98	59306.83
558.15	59746.86
558.32	59540.89
558.48	59487.06
558.65	59517.48
558.81	59676.64
558.98	59627.49
559.14	59866.22
559.31	60051.12
559.47	60030.06
559.64	60030.06
559.80	59784.30
559.97	59835.80
560.13	59742.17
560.30	59772.60
560.46	59896.65
560.63	59917.71
560.79	59842.82
560.96	59945.80
561.12	60004.31
561.29	60001.97
561.45	59948.14
561.61	59746.86
561.78	59959.84
561.94	60114.32
562.11	59976.23
562.27	60090.91
562.44	60205.60
562.60	60198.58
562.77	60287.52
562.93	60011.34
563.10	59938.78
563.26	60053.47
563.42	60193.90
563.59	60221.98
563.75	60191.56
563.92	60121.34
564.08	60179.85
564.24	60453.70
564.41	60381.14
564.57	60296.88
564.74	60271.14
564.90	60441.99
565.07	60409.23
565.23	60203.26
565.39	60168.15
565.56	60282.84
565.72	60280.50
565.88	60420.93
566.05	60491.15
566.21	60544.98
566.38	60376.46
566.54	60111.98
566.70	60432.63
566.87	60420.93
567.03	60500.51
567.19	60603.49
567.36	60554.34
567.52	60533.28
567.68	60587.11
567.85	60481.78
568.01	60542.64
568.17	60678.39
568.34	60573.06
568.50	60369.44
568.66	60430.29
568.83	60486.46
568.99	60526.25
569.15	60502.85
569.32	60580.09
569.48	60851.59
569.64	60732.22
569.81	60729.88
569.97	60577.75
570.13	60722.86
570.30	60580.09
570.46	60598.81
570.62	60685.41
570.78	60692.43
570.95	60760.31
571.11	60795.42
571.27	60573.06
571.43	60748.60
571.60	60814.14
571.76	60914.78
571.92	60746.26
572.09	60926.49
572.25	60580.09
572.41	60769.67
572.57	60732.22
572.74	60973.30
572.90	60917.12
573.06	60942.87
573.22	60706.47
573.38	60856.27
573.55	60722.86
573.71	61057.56
573.87	60769.67
574.03	60537.96
574.20	60860.95
574.36	60662.00
574.52	61066.92
574.68	60907.76
574.84	61095.00
575.01	60746.26
575.17	61048.19
575.33	60809.46
575.49	60781.37
575.65	60996.70
575.82	61071.60
575.98	60849.25
576.14	61125.43
576.30	61034.15
576.46	60954.57
576.62	60830.52
576.79	60853.93
576.95	60781.37
577.11	60807.12
577.27	60835.20
577.43	61090.32
577.59	61059.90
577.75	60970.96
577.92	60722.86
578.08	60896.06
578.24	60919.46
578.40	60985.00
578.56	61057.56
578.72	60882.02
578.88	61095.00
579.04	61090.32
579.21	61059.90
579.37	61076.28
579.53	61073.94
579.69	60870.31
579.85	61172.24
580.01	61071.60
580.17	60898.40
580.33	61324.38
580.49	61160.54
580.65	61080.96
580.82	61029.47
580.98	61123.09
581.14	60942.87
581.30	61134.79
581.46	61071.60
581.62	61153.52
581.78	60947.55
581.94	60973.30
582.10	61144.16
582.26	61083.30
582.42	60816.48
582.58	61109.05
582.74	61022.45
582.90	61261.18
583.06	61057.56
583.22	61186.28
583.38	61076.28
583.54	61080.96
583.70	61076.28
583.86	61123.09
584.02	60966.27
584.18	61298.63
584.34	61038.83
584.50	61291.61
584.66	61113.73
584.82	61038.83
584.98	61429.70
585.14	61418.00
585.30	61085.64
585.46	61277.57
585.62	61172.24
585.78	61251.82
585.94	61087.98
586.10	61106.71
586.26	61427.36
586.42	61338.42
586.58	61256.50
586.74	61113.73
586.90	61331.40
587.06	61038.83
587.22	61226.07
587.38	61272.88
587.54	61364.17
587.70	61471.83
587.86	61095.00
588.02	61329.06
588.18	61415.66
588.34	61181.60
588.49	61408.64
