SpectraSuite Data File
++++++++++++++++++++++++++++++++++++
Date: Fri Oct 25 11:22:39 EDT 2013
User: price-jones
Dark Spectrum Present: No
Reference Spectrum Present: No
Number of Sampled Component Spectra: 1
Spectrometers: USB2+H05261
Integration Time (usec): 100000 (USB2+H05261)
Spectra Averaged: 1 (USB2+H05261)
Boxcar Smoothing: 0 (USB2+H05261)
Correct for Electrical Dark: No (USB2+H05261)
Strobe/Lamp Enabled: No (USB2+H05261)
Correct for Detector Non-linearity: No (USB2+H05261)
Correct for Stray Light: No (USB2+H05261)
Number of Pixels in Processed Spectrum: 2048
>>>>>Begin Processed Spectral Data<<<<<
365.73	189.58
365.92	189.58
366.12	189.58
366.32	124.05
366.52	74.90
366.72	140.43
366.91	107.66
367.11	88.94
367.31	121.71
367.51	117.03
367.70	189.58
367.90	152.13
368.10	166.18
368.30	126.39
368.49	81.92
368.69	119.37
368.89	135.75
369.09	70.22
369.28	166.18
369.48	147.45
369.68	210.65
369.87	152.13
370.07	173.20
370.27	208.31
370.47	318.31
370.66	571.09
370.86	610.88
371.06	688.12
371.25	688.12
371.45	615.56
371.65	667.05
371.84	645.99
372.04	655.35
372.24	730.25
372.44	657.69
372.63	704.50
372.83	699.82
373.03	779.40
373.22	725.57
373.42	784.08
373.62	779.40
373.81	765.36
374.01	732.59
374.21	781.74
374.40	821.53
374.60	870.68
374.79	882.38
374.99	800.46
375.19	880.04
375.38	882.38
375.58	880.04
375.78	887.06
375.97	835.57
376.17	891.74
376.37	908.13
376.56	849.61
376.76	840.25
376.95	793.44
377.15	835.57
377.35	910.47
377.54	894.08
377.74	894.08
377.93	903.45
378.13	968.98
378.33	884.72
378.52	912.81
378.72	908.13
378.91	919.83
379.11	999.41
379.31	959.62
379.50	933.87
379.70	1041.54
379.89	978.34
380.09	1076.65
380.28	947.92
380.48	1022.81
380.68	985.37
380.87	896.43
381.07	940.90
381.26	1067.28
381.46	945.58
381.65	929.19
381.85	987.71
382.04	1004.09
382.24	1046.22
382.43	1069.62
382.63	1057.92
382.83	1086.01
383.02	1118.78
383.22	1125.80
383.41	1116.44
383.61	1090.69
383.80	1188.99
384.00	1086.01
384.19	1130.48
384.39	1053.24
384.58	1076.65
384.78	1170.27
384.97	1184.31
385.17	1177.29
385.36	1132.82
385.56	1198.35
385.75	1170.27
385.95	1275.59
386.14	1224.10
386.34	1121.12
386.53	1228.78
386.72	1177.29
386.92	1238.14
387.11	1268.57
387.31	1231.12
387.50	1231.12
387.70	1301.34
387.89	1226.44
388.09	1238.14
388.28	1289.64
388.48	1226.44
388.67	1228.78
388.86	1376.24
389.06	1341.13
389.25	1420.71
389.45	1296.66
389.64	1348.15
389.84	1320.06
390.03	1427.73
390.22	1348.15
390.42	1394.96
390.61	1362.19
390.81	1366.87
391.00	1507.30
391.19	1490.92
391.39	1437.09
391.58	1519.01
391.78	1521.35
391.97	1437.09
392.16	1465.18
392.36	1523.69
392.55	1495.60
392.75	1504.96
392.94	1521.35
393.13	1439.43
393.33	1540.07
393.52	1556.46
393.71	1544.75
393.91	1584.54
394.10	1645.40
394.29	1582.20
394.49	1549.43
394.68	1598.59
394.88	1577.52
395.07	1659.44
395.26	1647.74
395.46	1645.40
395.65	1757.74
395.84	1750.72
396.04	1764.76
396.23	1818.60
396.42	1776.47
396.62	1736.68
396.81	1755.40
397.00	1692.21
397.19	1811.57
397.39	1858.39
397.58	1755.40
397.77	1806.89
397.97	1858.39
398.16	1851.36
398.35	1893.49
398.55	1827.96
398.74	1998.82
398.93	2005.84
399.12	1973.07
399.32	1947.33
399.51	1956.69
399.70	2045.63
399.90	1982.43
400.09	2015.20
400.28	2038.61
400.47	2012.86
400.67	2040.95
400.86	1973.07
401.05	2097.12
401.24	2127.55
401.44	2150.95
401.63	2052.65
401.82	2127.55
402.01	2179.04
402.21	2235.21
402.40	2242.23
402.59	2186.06
402.78	2293.72
402.97	2253.94
403.17	2246.91
403.36	2204.78
403.55	2368.62
403.74	2389.69
403.93	2420.11
404.13	2352.24
404.32	2352.24
404.51	2328.83
404.70	2569.91
404.89	2478.63
405.09	2389.69
405.28	2490.33
405.47	2576.93
405.66	2572.25
405.85	2504.37
406.05	2518.42
406.24	2562.89
406.43	2495.01
406.62	2623.74
406.81	2656.51
407.00	2513.74
407.20	2567.57
407.39	2583.95
407.58	2703.32
407.77	2715.02
407.96	2637.78
408.15	2705.66
408.34	2801.62
408.54	2722.04
408.73	2850.77
408.92	2754.81
409.11	2799.28
409.30	2965.46
409.49	2846.09
409.68	2808.64
409.87	2993.55
410.07	3054.40
410.26	3112.91
410.45	2974.82
410.64	2984.18
410.83	3063.76
411.02	3138.66
411.21	3389.10
411.40	3201.85
411.59	3159.72
411.78	3260.37
411.98	3187.81
412.17	3201.85
412.36	3194.83
412.55	3365.69
412.74	3438.25
412.93	3321.22
413.12	3372.71
413.31	3543.57
413.50	3529.53
413.69	3449.95
413.88	3658.26
414.07	3660.60
414.26	3691.02
414.45	3564.64
414.64	3730.81
414.83	3967.21
415.02	3885.29
415.22	3812.73
415.41	3908.69
415.60	3810.39
415.79	3927.42
415.98	4102.96
416.17	4035.08
416.36	4030.40
416.55	3918.06
416.74	4215.30
416.93	4133.39
417.12	4194.24
417.31	4072.53
417.50	4238.71
417.69	4381.48
417.88	4386.16
418.07	4252.75
418.26	4273.82
418.45	4397.87
418.64	4463.40
418.83	4472.76
419.02	4390.84
419.21	4458.72
419.39	4580.43
419.58	4440.00
419.77	4461.06
419.96	4631.92
420.15	4643.62
420.34	4856.61
420.53	4564.04
420.72	4690.43
420.91	4770.01
421.10	4758.31
421.29	4835.55
421.48	4772.35
421.67	4636.60
421.86	4739.58
422.05	4919.81
422.24	4826.18
422.43	4884.70
422.61	4994.70
422.80	4901.08
422.99	4933.85
423.18	4985.34
423.37	5022.79
423.56	4959.60
423.75	4950.23
423.94	4957.25
424.13	4727.88
424.32	4744.27
424.50	5022.79
424.69	5167.90
424.88	5062.58
425.07	5055.56
425.26	4952.57
425.45	5034.49
425.64	4926.83
425.83	4926.83
426.01	5102.37
426.20	5069.60
426.39	5104.71
426.58	5015.77
426.77	5212.37
426.96	5142.16
427.15	5139.82
427.33	5153.86
427.52	5235.78
427.71	5263.86
427.90	5320.04
428.09	5366.85
428.28	5291.95
428.46	5392.59
428.65	5469.83
428.84	5710.91
429.03	5572.82
429.22	5427.70
429.40	5530.69
429.59	5523.66
429.78	5224.08
429.97	5373.87
430.16	5357.49
430.34	5607.92
430.53	5638.35
430.72	5610.26
430.91	5750.70
431.10	5558.77
431.28	5804.53
431.47	5818.57
431.66	5907.51
431.85	5799.85
432.03	6003.47
432.22	5970.71
432.41	5879.43
432.60	6045.60
432.79	6284.34
432.97	6019.86
433.16	5994.11
433.35	6132.20
433.54	6211.78
433.72	6127.52
433.91	6258.59
434.10	6141.57
434.28	6111.14
434.47	6134.54
434.66	6403.71
434.85	6345.19
435.03	6413.07
435.22	6328.81
435.41	6445.84
435.59	6382.64
435.78	6480.94
435.97	6487.96
436.16	6382.64
436.34	6562.86
436.53	6607.33
436.72	6644.78
436.90	6448.18
437.09	6899.90
437.28	6609.67
437.46	6764.15
437.65	6752.45
437.84	6881.18
438.02	6733.72
438.21	6864.79
438.40	6759.47
438.58	7185.44
438.77	7042.67
438.96	7042.67
439.14	7300.13
439.33	7222.89
439.52	7187.79
439.70	7318.86
439.89	7410.14
440.08	7323.54
440.26	7417.16
440.45	7386.73
440.63	7470.99
440.82	7618.44
441.01	7653.55
441.19	7602.06
441.38	7749.51
441.57	7812.71
441.75	7878.24
441.94	8037.40
442.12	8058.46
442.31	8091.23
442.50	8210.60
442.68	8018.68
442.87	8116.98
443.05	8336.99
443.24	8332.31
443.43	8191.88
443.61	8308.90
443.80	8475.08
443.98	7943.78
444.17	7784.62
444.35	8147.40
444.54	8524.23
444.73	8325.29
444.91	8486.78
445.10	8278.47
445.28	8458.70
445.47	8266.77
445.65	8608.49
445.84	8514.87
446.02	8503.17
446.21	8552.32
446.39	8437.63
446.58	8573.38
446.77	8475.08
446.95	8432.95
447.14	8470.40
447.32	8531.25
447.51	8472.74
447.69	8533.59
447.88	8458.70
448.06	8414.23
448.25	8688.07
448.43	8610.83
448.62	8671.68
448.80	8514.87
448.99	8802.75
449.17	8784.03
449.36	8606.15
449.54	8917.44
449.73	8931.48
449.91	9071.92
450.10	9029.79
450.28	9132.77
450.46	9139.79
450.65	9191.28
450.83	9104.68
451.02	8966.59
451.20	9341.08
451.39	9284.91
451.57	9270.86
451.76	9081.28
451.94	9121.07
452.13	9270.86
452.31	9479.17
452.49	9401.93
452.68	9523.64
452.86	9287.25
453.05	9479.17
453.23	9378.53
453.42	9317.67
453.60	9369.16
453.78	9755.35
453.97	9343.42
454.15	9607.90
454.34	9598.54
454.52	9767.06
454.70	9802.16
454.89	9738.97
455.07	9717.90
455.26	9966.00
455.44	9907.49
455.62	10061.96
455.81	10087.71
455.99	10047.92
456.17	9907.49
456.36	10150.90
456.54	10356.87
456.73	10429.43
456.91	10586.24
457.09	10616.67
457.28	10644.76
457.46	10314.74
457.64	10459.85
457.83	10375.59
458.01	10661.14
458.19	10721.99
458.38	10593.26
458.56	10857.75
458.74	10937.32
458.93	10759.44
459.11	10630.71
459.29	10740.72
459.48	10930.30
459.66	10710.29
459.84	11007.54
460.03	11049.67
460.21	11342.24
460.39	10864.77
460.57	11145.63
460.76	11325.85
460.94	11119.89
461.12	11084.78
461.31	11356.28
461.49	11059.03
461.67	11082.44
461.85	11548.20
462.04	11641.82
462.22	11941.41
462.40	11693.32
462.59	11765.87
462.77	11721.40
462.95	11557.57
463.13	11709.70
463.32	11777.58
463.50	11920.35
463.68	11936.73
463.86	11943.75
464.05	11847.79
464.23	11695.66
464.41	11918.01
464.59	11679.27
464.78	12238.66
464.96	11974.18
465.14	11946.09
465.32	12367.39
465.50	12098.23
465.69	12229.30
465.87	12161.42
466.05	11999.93
466.23	12208.23
466.41	12175.47
466.60	12549.95
466.78	12255.04
466.96	12475.06
467.14	12135.68
467.32	12395.48
467.51	12652.94
467.69	12430.59
467.87	12362.71
468.05	12863.58
468.23	12468.03
468.41	12320.58
468.60	12784.01
468.78	12781.67
468.96	12648.26
469.14	12926.78
469.32	13095.30
469.50	12856.56
469.69	12971.25
469.87	13167.85
470.05	13076.57
470.23	13249.77
470.41	13060.19
470.59	13460.42
470.77	13439.36
470.95	13132.75
471.14	13781.07
471.32	13418.29
471.50	13638.30
471.68	13628.94
471.86	13769.37
472.04	13781.07
472.22	14031.51
472.40	13734.26
472.58	13884.06
472.77	14017.47
472.95	14558.13
473.13	14558.13
473.31	14258.54
473.49	14324.08
473.67	14256.20
473.85	14530.05
474.03	14487.92
474.21	14537.07
474.39	14787.50
474.57	14799.21
474.75	15145.61
474.93	15246.25
475.12	15243.91
475.30	15316.47
475.48	15302.42
475.66	15623.08
475.84	15276.68
476.02	15494.35
476.20	15665.21
476.38	15674.57
476.56	16067.78
476.74	16025.65
476.92	15983.52
477.10	16013.95
477.28	16301.83
477.46	16318.22
477.64	16343.96
477.82	16624.83
478.00	17060.16
478.18	16865.90
478.36	17043.78
478.54	17336.35
478.72	17245.07
478.90	17474.44
479.08	17759.98
479.26	17816.16
479.44	18288.95
479.62	18132.13
479.80	18001.06
479.98	18417.68
480.16	18721.95
480.34	18473.85
480.52	19082.39
480.70	18712.58
480.88	18625.98
481.06	18986.43
481.24	19016.85
481.41	19325.80
481.59	19550.49
481.77	19419.42
481.95	19648.80
482.13	19957.75
482.31	19777.53
482.49	20430.54
482.67	20276.06
482.85	20599.05
483.03	20685.65
483.21	21006.31
483.39	21088.23
483.57	21053.12
483.74	21383.13
483.92	21664.00
484.10	21656.98
484.28	21511.86
484.46	22265.52
484.64	22317.01
484.82	22256.15
485.00	22628.30
485.18	23131.51
485.35	23311.74
485.53	23112.79
485.71	23435.78
485.89	23522.38
486.07	23667.50
486.25	23517.70
486.43	23723.67
486.61	24084.11
486.78	24308.80
486.96	24491.37
487.14	25060.12
487.32	24903.30
487.50	24844.79
487.68	25158.42
487.85	25465.03
488.03	25869.94
488.21	26094.63
488.39	25893.35
488.57	26494.86
488.75	26211.66
488.92	26548.70
489.10	27126.81
489.28	26838.92
489.46	27253.20
489.64	27087.02
489.81	28063.02
489.99	27763.43
490.17	28283.03
490.35	28137.92
490.53	28311.12
490.70	28435.17
490.88	28374.31
491.06	28929.02
491.24	28980.51
491.41	29259.04
491.59	29179.46
491.77	29584.37
491.95	29766.93
492.13	29724.80
492.30	30366.11
492.48	30553.35
492.66	30471.43
492.84	30469.09
493.01	31112.74
493.19	30752.30
493.37	31248.49
493.54	31632.34
493.72	31789.16
493.90	32161.30
494.08	31901.50
494.25	32458.55
494.43	32238.54
494.61	32547.49
494.79	32357.91
494.96	32765.16
495.14	33097.52
495.32	33244.97
495.49	33242.63
495.67	33879.25
495.85	33743.50
496.02	33998.62
496.20	34539.29
496.38	34937.18
496.55	34225.65
496.73	35452.09
496.91	34417.58
497.09	34955.90
497.26	35314.00
497.44	35152.51
497.62	35365.49
497.79	35880.41
497.97	35700.19
498.14	36198.73
498.32	36341.50
498.50	36458.52
498.67	36912.59
498.85	36577.89
499.03	36863.44
499.20	36900.89
499.38	37434.53
499.56	37563.26
499.73	37181.75
499.91	37390.06
500.08	38361.38
500.26	37921.36
500.44	37937.74
500.61	38457.34
500.79	38242.01
500.97	38565.01
501.14	38871.62
501.32	38667.99
501.49	38707.78
501.67	39093.97
501.84	39807.83
502.02	39133.76
502.20	39093.97
502.37	39498.88
502.55	39409.94
502.72	39735.27
502.90	39611.23
503.07	39768.04
503.25	40320.41
503.43	40289.98
503.60	40444.46
503.78	40332.11
503.95	40596.59
504.13	40713.62
504.30	41010.87
504.48	40786.18
504.65	41053.00
504.83	41315.14
505.01	41979.85
505.18	41483.66
505.36	42232.63
505.53	41305.77
505.71	41865.16
505.88	42164.75
506.06	41670.90
506.23	42354.33
506.41	42337.95
506.58	42431.57
506.76	42532.22
506.93	42827.12
507.11	42756.91
507.28	42784.99
507.46	43061.18
507.63	43093.94
507.81	43430.98
507.98	42967.55
508.16	43674.40
508.33	43702.48
508.50	43943.56
508.68	43922.49
508.85	44383.58
509.03	43723.55
509.20	44203.36
509.38	44514.65
509.55	44835.30
509.73	45097.44
509.90	44699.55
510.08	44959.35
510.25	45045.95
510.42	45127.87
510.60	45502.35
510.77	45390.01
510.95	45579.59
511.12	45448.52
511.30	45462.57
511.47	45738.75
511.64	45935.35
511.82	46396.44
511.99	46209.20
512.17	46405.80
512.34	46120.26
512.51	47065.83
512.69	46740.50
512.86	46763.90
513.04	46850.50
513.21	47009.66
513.38	46712.41
513.56	47037.75
513.73	46806.03
513.90	47061.15
514.08	47789.06
514.25	47760.97
514.43	47414.57
514.60	47784.38
514.77	47725.86
514.95	48170.57
515.12	47880.34
515.29	47379.46
515.47	48217.38
515.64	48556.75
515.81	47796.08
515.99	48505.26
516.16	48975.71
516.33	48734.63
516.51	49066.99
516.68	48746.34
516.85	49027.20
517.03	49221.47
517.20	49146.57
517.37	48774.42
517.54	49385.30
517.72	49389.98
517.89	49095.08
518.06	49570.21
518.24	49600.63
518.41	50012.57
518.58	49837.03
518.75	49668.51
518.93	49916.61
519.10	49497.65
519.27	49839.37
519.45	50162.36
519.62	50199.81
519.79	50258.32
519.96	50520.46
520.14	50433.86
520.31	50351.94
520.48	50621.11
520.65	50417.48
520.83	50831.75
521.00	51157.09
521.17	50939.42
521.34	50939.42
521.52	51217.94
521.69	51058.79
521.86	51264.75
522.03	51423.91
522.20	51618.17
522.38	51906.06
522.55	51826.48
522.72	51714.14
522.89	51613.49
523.07	51861.59
523.24	51655.62
523.41	51842.87
523.58	51625.20
523.75	52222.03
523.92	51840.53
524.10	52231.40
524.27	52163.52
524.44	52381.19
524.61	52257.14
524.78	52781.42
524.96	52821.21
525.13	52617.58
525.30	52919.51
525.47	52708.86
525.64	52891.43
525.81	52987.39
525.98	53024.84
526.16	53034.20
526.33	53120.80
526.50	52959.30
526.67	53020.16
526.84	53052.92
527.01	53001.43
527.18	53221.44
527.36	53212.08
527.53	53488.26
527.70	53588.91
527.87	53598.27
528.04	53066.97
528.21	53837.00
528.38	53490.60
528.55	53743.38
528.72	53844.02
528.89	53509.33
529.07	53659.12
529.24	53727.00
529.41	54150.63
529.58	53811.26
529.75	53813.60
529.92	54164.68
530.09	54040.63
530.26	54028.93
530.43	54232.55
530.60	54323.83
530.77	54216.17
530.94	54190.42
531.11	54183.40
531.28	54518.10
531.46	54487.67
531.63	54487.67
531.80	54588.31
531.97	54714.70
532.14	54831.73
532.31	54707.68
532.48	54789.60
532.65	55058.76
532.82	54869.18
532.99	55056.42
533.16	54892.58
533.33	55185.15
533.50	55320.90
533.67	55147.70
533.84	54981.52
534.01	54920.67
534.18	55360.69
534.35	55458.99
534.52	55128.98
534.69	55491.76
534.86	55531.55
535.03	55173.45
535.20	55416.86
535.37	55512.83
535.54	55569.00
535.71	55330.26
535.88	55657.94
536.05	55632.19
536.22	55683.69
536.38	55683.69
536.55	55756.24
536.72	55791.35
536.89	55796.03
537.06	55955.19
537.23	55913.06
537.40	55798.37
537.57	55833.48
537.74	55901.36
537.91	56179.88
538.08	55978.59
538.25	56055.83
538.42	55899.01
538.59	56406.91
538.75	56196.26
538.92	56088.60
539.09	56383.51
539.26	56425.64
539.43	56348.40
539.60	56631.60
539.77	56495.85
539.94	56788.42
540.11	56519.26
540.28	56587.13
540.44	56566.07
540.61	56376.48
540.78	56704.16
540.95	56402.23
541.12	56727.56
541.29	56853.95
541.46	56816.50
541.62	56809.48
541.79	56882.04
541.96	56566.07
542.13	56713.52
542.30	57095.03
542.47	57073.96
542.63	57006.09
542.80	57324.40
542.97	57261.21
543.14	57394.62
543.31	57240.14
543.48	57441.43
543.64	57710.59
543.81	57460.15
543.98	57542.07
544.15	57621.65
544.32	57724.63
544.48	57844.00
544.65	57682.50
544.82	57521.01
544.99	57476.54
545.16	57925.92
545.32	57467.17
545.49	57715.27
545.66	58031.24
545.83	57975.07
546.00	57869.75
546.16	57696.55
546.33	57717.61
546.50	57708.25
546.67	57916.56
546.83	57623.99
547.00	57965.71
547.17	57846.34
547.34	57886.13
547.50	58150.61
547.67	58183.38
547.84	58028.90
548.00	58403.39
548.17	58494.67
548.34	58239.55
548.51	58363.60
548.67	58382.32
548.84	58539.14
549.01	58286.36
549.18	58550.84
549.34	58497.01
549.51	58574.25
549.68	58632.76
549.84	58618.72
550.01	58468.92
550.18	58302.74
550.34	58880.86
550.51	58625.74
550.68	58578.93
550.84	58546.16
551.01	58805.96
551.18	58726.38
551.34	58670.21
551.51	58827.02
551.68	58595.31
551.84	58618.72
552.01	58789.58
552.18	58897.24
552.34	58686.59
552.51	58866.81
552.68	58656.17
552.84	58911.28
553.01	59194.49
553.18	59049.38
553.34	59002.56
553.51	58808.30
553.67	58960.44
553.84	59171.08
554.01	59166.40
554.17	59203.85
554.34	58920.65
554.51	59370.03
554.67	59370.03
554.84	59180.45
555.00	59341.94
555.17	59114.91
555.33	59290.45
555.50	59128.95
555.67	59168.74
555.83	59199.17
556.00	59283.43
556.16	59664.94
556.33	59473.01
556.50	59519.82
556.66	59498.76
556.83	59423.86
556.99	59639.19
557.16	59653.23
557.32	59678.98
557.49	59709.41
557.65	59559.61
557.82	59629.83
557.98	59517.48
558.15	59545.57
558.32	59777.28
558.48	59503.44
558.65	59744.51
558.81	59646.21
558.98	59786.64
559.14	59938.78
559.31	59849.84
559.47	60046.44
559.64	59889.63
559.80	59917.71
559.97	60133.04
560.13	59721.11
560.30	59863.88
560.46	59948.14
560.63	59877.93
560.79	59807.71
560.96	60053.47
561.12	60060.49
561.29	60044.10
561.45	60093.25
561.61	59966.87
561.78	60032.40
561.94	60149.43
562.11	60058.15
562.27	60296.88
562.44	60226.66
562.60	60158.79
562.77	60027.72
562.93	59955.16
563.10	60165.81
563.26	60060.49
563.42	60470.08
563.59	60016.02
563.75	60383.48
563.92	60247.73
564.08	60212.62
564.24	60369.44
564.41	60289.86
564.57	60374.12
564.74	60573.06
564.90	60273.48
565.07	60331.99
565.23	60430.29
565.39	60301.56
565.56	60308.58
565.72	60427.95
565.88	60472.42
566.05	60236.03
566.21	60371.78
566.38	60528.59
566.54	60495.83
566.70	60577.75
566.87	60458.38
567.03	60247.73
567.19	60472.42
567.36	60402.21
567.52	60413.91
567.68	60882.02
567.85	60491.15
568.01	60718.18
568.17	60308.58
568.34	60636.26
568.50	60329.65
568.66	60678.39
568.83	60807.12
568.99	60626.90
569.15	60580.09
569.32	60587.11
569.48	60720.52
569.64	60708.82
569.81	60566.04
569.97	60715.84
570.13	60729.88
570.30	60746.26
570.46	60851.59
570.62	60746.26
570.78	60832.86
570.95	60631.58
571.11	60853.93
571.27	60685.41
571.43	60622.22
571.60	60867.97
571.76	60790.73
571.92	60926.49
572.09	60919.46
572.25	60856.27
572.41	60685.41
572.57	60673.71
572.74	60886.70
572.90	60858.61
573.06	60992.02
573.22	60839.89
573.38	60874.99
573.55	60940.53
573.71	61050.53
573.87	60711.16
574.03	60977.98
574.20	61024.79
574.36	60917.12
574.52	60851.59
574.68	61015.43
574.84	61003.72
575.01	60907.76
575.17	60935.85
575.33	60823.50
575.49	60830.52
575.65	61041.17
575.82	60874.99
575.98	60914.78
576.14	61277.57
576.30	61045.85
576.46	60757.97
576.62	60823.50
576.79	61118.41
576.95	60994.36
577.11	60949.89
577.27	61050.53
577.43	61080.96
577.59	60774.35
577.75	60783.71
577.92	60945.21
578.08	60977.98
578.24	60996.70
578.40	61153.52
578.56	61080.96
578.72	61139.47
578.88	61305.65
579.04	61230.75
579.21	61073.94
579.37	61132.45
579.53	61291.61
579.69	60938.19
579.85	60954.57
580.01	61087.98
580.17	60947.55
580.33	61003.72
580.49	61296.29
580.65	61226.07
580.82	60858.61
580.98	61010.74
581.14	61130.11
581.30	61221.39
581.46	60746.26
581.62	61043.51
581.78	61090.32
581.94	61139.47
582.10	61057.56
582.26	60977.98
582.42	60982.66
582.58	61130.11
582.74	61055.21
582.90	61083.30
583.06	60982.66
583.22	61059.90
583.38	61247.14
583.54	61169.90
583.70	61244.80
583.86	61186.28
584.02	60849.25
584.18	61254.16
584.34	61127.77
584.50	61207.35
584.66	61226.07
584.82	61045.85
584.98	61223.73
585.14	61247.14
585.30	61144.16
585.46	61193.31
585.62	60980.32
585.78	61361.82
585.94	60825.84
586.10	61305.65
586.26	61116.07
586.42	61240.12
586.58	61272.88
586.74	61118.41
586.90	61071.60
587.06	61223.73
587.22	61490.55
587.38	61305.65
587.54	61300.97
587.70	61371.19
587.86	61310.33
588.02	61251.82
588.18	61497.58
588.34	61134.79
588.49	61240.12
