SpectraSuite Data File
++++++++++++++++++++++++++++++++++++
Date: Fri Oct 25 11:25:31 EDT 2013
User: price-jones
Dark Spectrum Present: No
Reference Spectrum Present: No
Number of Sampled Component Spectra: 1
Spectrometers: USB2+H05261
Integration Time (usec): 100000 (USB2+H05261)
Spectra Averaged: 1 (USB2+H05261)
Boxcar Smoothing: 0 (USB2+H05261)
Correct for Electrical Dark: No (USB2+H05261)
Strobe/Lamp Enabled: No (USB2+H05261)
Correct for Detector Non-linearity: No (USB2+H05261)
Correct for Stray Light: No (USB2+H05261)
Number of Pixels in Processed Spectrum: 2048
>>>>>Begin Processed Spectral Data<<<<<
365.73	220.01
365.92	220.01
366.12	220.01
366.32	170.86
366.52	114.69
366.72	147.45
366.91	128.73
367.11	149.79
367.31	166.18
367.51	138.09
367.70	79.58
367.90	86.60
368.10	203.63
368.30	100.64
368.49	98.30
368.69	177.88
368.89	119.37
369.09	126.39
369.28	149.79
369.48	217.67
369.68	271.50
369.87	182.56
370.07	166.18
370.27	313.63
370.47	327.68
370.66	622.58
370.86	683.44
371.06	653.01
371.25	655.35
371.45	657.69
371.65	723.23
371.84	690.46
372.04	657.69
372.24	653.01
372.44	709.18
372.63	812.17
372.83	777.06
373.03	690.46
373.22	758.33
373.42	777.06
373.62	751.31
373.81	844.93
374.01	770.04
374.21	840.25
374.40	800.46
374.60	870.68
374.79	767.70
374.99	800.46
375.19	699.82
375.38	823.87
375.58	880.04
375.78	826.21
375.97	924.51
376.17	844.93
376.37	896.43
376.56	805.14
376.76	863.66
376.95	875.36
377.15	910.47
377.35	875.36
377.54	924.51
377.74	931.53
377.93	779.40
378.13	868.34
378.33	917.49
378.52	837.91
378.72	919.83
378.91	912.81
379.11	910.47
379.31	952.60
379.50	1020.47
379.70	1013.45
379.89	973.66
380.09	961.96
380.28	922.17
380.48	933.87
380.68	954.94
380.87	1050.90
381.07	1041.54
381.26	985.37
381.46	1036.86
381.65	1034.52
381.85	1025.15
382.04	1071.97
382.24	1090.69
382.43	1064.94
382.63	997.07
382.83	1036.86
383.02	1095.37
383.22	1095.37
383.41	1025.15
383.61	1090.69
383.80	1160.91
384.00	1111.75
384.19	1116.44
384.39	1086.01
384.58	1109.41
384.78	1174.95
384.97	1076.65
385.17	1128.14
385.36	1130.48
385.56	1294.32
385.75	1135.16
385.95	1086.01
386.14	1181.97
386.34	1172.61
386.53	1240.48
386.72	1167.93
386.92	1240.48
387.11	1186.65
387.31	1266.23
387.50	1235.80
387.70	1188.99
387.89	1226.44
388.09	1273.25
388.28	1217.08
388.48	1329.42
388.67	1357.51
388.86	1369.21
389.06	1303.68
389.25	1362.19
389.45	1299.00
389.64	1469.86
389.84	1394.96
390.03	1362.19
390.22	1401.98
390.42	1432.41
390.61	1406.66
390.81	1364.53
391.00	1383.26
391.19	1418.36
391.39	1483.90
391.58	1399.64
391.78	1467.52
391.97	1427.73
392.16	1465.18
392.36	1533.05
392.55	1521.35
392.75	1584.54
392.94	1540.07
393.13	1544.75
393.33	1474.54
393.52	1493.26
393.71	1650.08
393.91	1636.03
394.10	1598.59
394.29	1689.87
394.49	1570.50
394.68	1607.95
394.88	1593.90
395.07	1671.14
395.26	1689.87
395.46	1748.38
395.65	1755.40
395.84	1741.36
396.04	1732.00
396.23	1743.70
396.42	1732.00
396.62	1736.68
396.81	1851.36
397.00	1830.30
397.19	1689.87
397.39	1771.79
397.58	1713.27
397.77	1816.26
397.97	1792.85
398.16	1806.89
398.35	1886.47
398.55	1933.28
398.74	1937.96
398.93	1858.39
399.12	1856.04
399.32	1886.47
399.51	1956.69
399.70	1963.71
399.90	1968.39
400.09	2033.93
400.28	2066.69
400.47	1989.46
400.67	2054.99
400.86	1926.26
401.05	2022.22
401.24	2143.93
401.44	2181.38
401.63	2188.40
401.82	2101.80
402.01	2122.87
402.21	2094.78
402.40	2174.36
402.59	2104.14
402.78	2183.72
402.97	2289.04
403.17	2172.02
403.36	2263.30
403.55	2289.04
403.74	2267.98
403.93	2279.68
404.13	2455.22
404.32	2328.83
404.51	2267.98
404.70	2399.05
404.89	2480.97
405.09	2452.88
405.28	2485.65
405.47	2452.88
405.66	2368.62
405.85	2532.46
406.05	2523.10
406.24	2612.04
406.43	2651.83
406.62	2502.03
406.81	2532.46
407.00	2523.10
407.20	2499.69
407.39	2649.49
407.58	2719.70
407.77	2708.00
407.96	2675.23
408.15	2729.06
408.34	2703.32
408.54	2827.37
408.73	2785.24
408.92	2850.77
409.11	2892.90
409.30	2874.18
409.49	2843.75
409.68	2841.41
409.87	2878.86
410.07	3035.67
410.26	2953.76
410.45	2956.10
410.64	3075.46
410.83	3159.72
411.02	3089.51
411.21	3126.96
411.40	3119.93
411.59	3176.11
411.78	3169.09
411.98	3105.89
412.17	3346.97
412.36	3218.24
412.55	3363.35
412.74	3337.60
412.93	3403.14
413.12	3391.44
413.31	3346.97
413.50	3492.08
413.69	3506.12
413.88	3644.21
414.07	3419.52
414.26	3606.77
414.45	3613.79
414.64	3653.58
414.83	3698.05
415.02	3693.37
415.22	3686.34
415.41	3822.09
415.60	3859.54
415.79	3904.01
415.98	3950.82
416.17	3920.40
416.36	3964.87
416.55	3889.97
416.74	4133.39
416.93	4077.21
417.12	4126.36
417.31	4145.09
417.50	4187.22
417.69	4313.61
417.88	4325.31
418.07	4271.48
418.26	4348.72
418.45	4280.84
418.64	4496.17
418.83	4386.16
419.02	4358.08
419.21	4395.53
419.39	4400.21
419.58	4489.15
419.77	4526.60
419.96	4566.39
420.15	4479.79
420.34	4580.43
420.53	4545.32
420.72	4627.24
420.91	4617.88
421.10	4727.88
421.29	4770.01
421.48	4601.49
421.67	4709.16
421.86	4793.42
422.05	4739.58
422.24	4823.84
422.43	4713.84
422.61	4858.95
422.80	5004.07
422.99	4868.31
423.18	4985.34
423.37	4889.38
423.56	4828.53
423.75	4854.27
423.94	4865.97
424.13	4557.02
424.32	4753.63
424.50	5137.48
424.69	4985.34
424.88	5144.50
425.07	4980.66
425.26	4861.29
425.45	4994.70
425.64	4983.00
425.83	4971.30
426.01	4994.70
426.20	5081.30
426.39	5097.69
426.58	4910.44
426.77	5266.21
426.96	5146.84
427.15	5102.37
427.33	5203.01
427.52	5261.52
427.71	5121.09
427.90	5118.75
428.09	5198.33
428.28	5263.86
428.46	5224.08
428.65	5460.47
428.84	5582.18
429.03	5460.47
429.22	5397.28
429.40	5397.28
429.59	5472.17
429.78	5249.82
429.97	5217.05
430.16	5432.38
430.34	5490.90
430.53	5554.09
430.72	5612.60
430.91	5607.92
431.10	5722.61
431.28	5778.78
431.47	5741.33
431.66	5720.27
431.85	5715.59
432.03	5907.51
432.22	5839.64
432.41	5923.90
432.60	5863.04
432.79	5867.72
432.97	5982.41
433.16	6047.94
433.35	6047.94
433.54	5984.75
433.72	5970.71
433.91	6148.59
434.10	6045.60
434.28	6022.20
434.47	6282.00
434.66	6300.72
434.85	6160.29
435.03	6291.36
435.22	6321.79
435.41	6354.55
435.59	6394.34
435.78	6490.31
435.97	6321.79
436.16	6473.92
436.34	6289.02
436.53	6406.05
436.72	6705.63
436.90	6478.60
437.09	6607.33
437.28	6476.26
437.46	6637.76
437.65	6635.42
437.84	6787.55
438.02	6846.07
438.21	6675.21
438.40	6581.59
438.58	6913.94
438.77	7140.97
438.96	7014.59
439.14	7035.65
439.33	7241.62
439.52	7171.40
439.70	7293.11
439.89	7234.60
440.08	7382.05
440.26	7241.62
440.45	7225.23
440.63	7470.99
440.82	7510.78
441.01	7456.95
441.19	7595.04
441.38	7698.02
441.57	7585.68
441.75	7712.07
441.94	7978.89
442.12	7929.74
442.31	7936.76
442.50	7840.79
442.68	7758.88
442.87	7946.12
443.05	8248.05
443.24	8201.24
443.43	8063.15
443.61	8191.88
443.80	8517.21
443.98	8042.08
444.17	7754.19
444.35	8079.53
444.54	8320.60
444.73	8196.56
444.91	8294.86
445.10	8360.39
445.28	8152.09
445.47	8210.60
445.65	8236.35
445.84	8339.33
446.02	8409.54
446.21	8217.62
446.39	8393.16
446.58	8451.67
446.77	8528.91
446.95	8446.99
447.14	8538.27
447.32	8645.94
447.51	8395.50
447.69	8170.81
447.88	8397.84
448.06	8388.48
448.25	8601.47
448.43	8491.46
448.62	8662.32
448.80	8545.30
448.99	8627.21
449.17	8538.27
449.36	8648.28
449.54	8828.50
449.73	8879.99
449.91	8966.59
450.10	9043.83
450.28	8889.35
450.46	8931.48
450.65	8964.25
450.83	8919.78
451.02	8982.98
451.20	9303.63
451.39	9046.17
451.57	9305.97
451.76	9114.05
451.94	9212.35
452.13	9231.07
452.31	9160.86
452.49	9022.77
452.68	9362.14
452.86	9130.43
453.05	9451.08
453.23	9376.19
453.42	9284.91
453.60	9245.12
453.78	9394.91
453.97	9401.93
454.15	9589.17
454.34	9518.96
454.52	9816.21
454.70	9678.12
454.89	9509.60
455.07	9652.37
455.26	9799.82
455.44	9762.37
455.62	9809.19
455.81	9863.02
455.99	10094.73
456.17	9774.08
456.36	9909.83
456.54	9926.21
456.73	10118.14
456.91	10235.16
457.09	10300.70
457.28	10651.78
457.46	10216.44
457.64	10497.30
457.83	10403.68
458.01	10310.06
458.19	10523.05
458.38	10590.92
458.56	10602.63
458.74	10356.87
458.93	10626.03
459.11	10693.91
459.29	10626.03
459.48	10663.48
459.66	10731.36
459.84	10820.30
460.03	11000.52
460.21	10923.28
460.39	11136.27
460.57	11037.97
460.76	11227.55
460.94	11094.14
461.12	11089.46
461.31	11501.39
461.49	11073.07
461.67	11255.64
461.85	11506.07
462.04	11164.36
462.22	11838.43
462.40	11548.20
462.59	11297.77
462.77	11260.32
462.95	11730.76
463.13	11520.12
463.32	11651.19
463.50	11602.04
463.68	11592.67
463.86	11700.34
464.05	11639.48
464.23	11660.55
464.41	11735.45
464.59	11489.69
464.78	12147.38
464.96	11819.71
465.14	11808.00
465.32	12063.12
465.50	11960.14
465.69	12004.61
465.87	12035.03
466.05	12196.53
466.23	12018.65
466.41	12152.06
466.60	12521.87
466.78	12123.98
466.96	12245.68
467.14	12154.40
467.32	12084.19
467.51	12587.40
467.69	11967.16
467.87	12472.71
468.05	12507.82
468.23	12599.10
468.41	12318.24
468.60	12479.74
468.78	12737.20
468.96	12585.06
469.14	12746.56
469.32	13114.02
469.50	12479.74
469.69	12847.20
469.87	12922.10
470.05	13015.72
470.23	13111.68
470.41	13144.45
470.59	13324.67
470.77	13226.37
470.95	13167.85
471.14	13242.75
471.32	13406.59
471.50	13355.10
471.68	13701.50
471.86	13488.51
472.04	13741.29
472.22	14078.32
472.40	13448.72
472.58	13666.39
472.77	13982.36
472.95	14071.30
473.13	14185.99
473.31	14052.58
473.49	14012.79
473.67	14120.45
473.85	14277.27
474.03	14356.85
474.21	14604.94
474.39	14560.47
474.57	14595.58
474.75	14794.53
474.93	15077.73
475.12	14920.92
475.30	15126.88
475.48	14824.95
475.66	15169.01
475.84	15028.58
476.02	15204.12
476.20	15129.22
476.38	15431.15
476.56	15915.64
476.74	15953.09
476.92	15939.05
477.10	15529.45
477.28	15978.84
477.46	15873.51
477.64	16409.50
477.82	16500.78
478.00	16856.54
478.18	16657.59
478.36	16870.58
478.54	16847.18
478.72	17048.46
478.90	17432.31
479.08	17221.66
479.26	17600.83
479.44	17795.09
479.62	18012.76
479.80	17783.39
479.98	17954.25
480.16	18359.16
480.34	18017.44
480.52	18347.46
480.70	18579.17
480.88	18113.41
481.06	18513.64
481.24	18796.84
481.41	18787.48
481.59	19131.54
481.77	19410.06
481.95	19452.19
482.13	19616.03
482.31	19330.48
482.49	20044.35
482.67	19955.41
482.85	20353.30
483.03	20170.74
483.21	20783.96
483.39	21041.42
483.57	20659.91
483.74	21123.33
483.92	21310.58
484.10	21228.66
484.28	21900.39
484.46	21839.54
484.64	22197.64
484.82	21762.30
485.00	22101.68
485.18	23103.43
485.35	22780.43
485.53	22600.21
485.71	22745.33
485.89	23337.48
486.07	23318.76
486.25	23297.69
486.43	23585.58
486.61	23826.65
486.78	23971.77
486.96	24224.54
487.14	24229.23
487.32	24741.80
487.50	24680.95
487.68	24828.40
487.85	25401.83
488.03	24961.81
488.21	25706.10
488.39	25549.29
488.57	25586.74
488.75	26024.42
488.92	26424.65
489.10	26799.13
489.28	26422.31
489.46	27292.99
489.64	26967.65
489.81	27414.69
489.99	27763.43
490.17	27442.78
490.35	28224.52
490.53	27768.12
490.70	28362.61
490.88	27791.52
491.06	28638.80
491.24	28397.72
491.41	28760.50
491.59	29305.85
491.77	28957.11
491.95	29502.45
492.13	29958.86
492.30	29759.91
492.48	29916.73
492.66	29998.65
492.84	29979.92
493.01	30410.58
493.19	30480.80
493.37	30976.99
493.54	31295.30
493.72	31159.55
493.90	31192.32
494.08	31592.55
494.25	32116.83
494.43	31749.37
494.61	32119.17
494.79	32430.46
494.96	32219.81
495.14	32711.33
495.32	33350.29
495.49	32765.16
495.67	32952.40
495.85	33303.48
496.02	33762.23
496.20	33640.52
496.38	33933.09
496.55	34024.37
496.73	34616.52
496.91	34637.59
497.09	34668.02
497.26	34651.63
497.44	34799.08
497.62	34855.26
497.79	35391.24
497.97	35330.39
498.14	35541.03
498.32	35929.56
498.50	36030.21
498.67	36266.60
498.85	36121.49
499.03	36252.56
499.20	36301.71
499.38	36954.72
499.56	36961.74
499.73	36994.51
499.91	37057.70
500.08	37387.72
500.26	37345.59
500.44	37474.32
500.61	37860.51
500.79	37684.97
500.97	38169.46
501.14	38696.08
501.32	38213.93
501.49	38232.65
501.67	38597.77
501.84	38740.55
502.02	38586.07
502.20	38815.44
502.37	39323.34
502.55	39136.10
502.72	39299.94
502.90	39367.81
503.07	39168.87
503.25	39550.37
503.43	39643.99
503.60	39468.45
503.78	40027.84
503.95	39875.71
504.13	40074.65
504.30	40423.39
504.48	40175.30
504.65	40762.77
504.83	40350.84
505.01	40570.85
505.18	41446.21
505.36	41303.43
505.53	40996.82
505.71	41336.20
505.88	41495.36
506.06	41113.85
506.23	41635.79
506.41	41312.80
506.58	41565.57
506.76	42003.25
506.93	42422.21
507.11	42370.72
507.28	42330.93
507.46	42326.25
507.63	42691.37
507.81	42925.42
507.98	42555.62
508.16	43159.48
508.33	42934.79
508.50	43220.33
508.68	42944.15
508.85	43859.30
509.03	43529.28
509.20	43901.43
509.38	44201.02
509.55	43761.00
509.73	44039.52
509.90	44280.60
510.08	44547.42
510.25	44428.05
510.42	44755.72
510.60	44704.23
510.77	44854.03
510.95	44938.29
511.12	44626.99
511.30	45301.07
511.47	44994.46
511.64	45139.57
511.82	45483.63
511.99	45708.32
512.17	45682.58
512.34	45514.06
512.51	46153.02
512.69	45940.04
512.86	46197.49
513.04	46681.98
513.21	46557.94
513.38	46209.20
513.56	46438.57
513.73	46504.10
513.90	46862.21
514.08	46630.49
514.25	47033.07
514.43	47021.36
514.60	47012.00
514.77	47213.29
514.95	47330.31
515.12	47393.51
515.29	47023.70
515.47	47838.21
515.64	47854.59
515.81	47533.94
515.99	47725.86
516.16	47934.17
516.33	48116.73
516.51	48367.17
516.68	48411.64
516.85	48093.33
517.03	48481.86
517.20	48465.47
517.37	48315.68
517.54	48428.02
517.72	48512.28
517.89	49015.50
518.06	48680.80
518.24	48734.63
518.41	49106.78
518.58	49195.72
518.75	49380.62
518.93	49574.89
519.10	49282.32
519.27	49326.79
519.45	49467.22
519.62	49827.66
519.79	49755.11
519.96	49975.12
520.14	49811.28
520.31	50094.49
520.48	50033.63
520.65	50115.55
520.83	50274.71
521.00	50653.87
521.17	50721.75
521.34	50733.45
521.52	50738.13
521.69	50644.51
521.86	50866.86
522.03	50618.77
522.20	51175.81
522.38	51093.89
522.55	51051.76
522.72	51023.68
522.89	51302.20
523.07	51414.55
523.24	51356.03
523.41	51728.18
523.58	51358.38
523.75	51707.12
523.92	51512.85
524.10	51550.30
524.27	51669.67
524.44	51906.06
524.61	51798.40
524.78	51870.95
524.96	51915.42
525.13	52189.27
525.30	52165.86
525.47	52254.80
525.64	52397.57
525.81	52472.47
525.98	52495.88
526.16	52507.58
526.33	52432.68
526.50	52477.15
526.67	52648.01
526.84	52554.39
527.01	52657.37
527.18	52636.31
527.36	52683.12
527.53	52802.49
527.70	53228.46
527.87	53254.21
528.04	52865.68
528.21	53144.20
528.38	52966.32
528.55	53301.02
528.72	53380.60
528.89	53457.84
529.07	53258.89
529.24	53052.92
529.41	53738.70
529.58	53462.52
529.75	53462.52
529.92	53605.29
530.09	53731.68
530.26	53574.86
530.43	53708.27
530.60	53481.24
530.77	53703.59
530.94	53968.07
531.11	53743.38
531.28	54000.84
531.46	54197.44
531.63	53965.73
531.80	54092.12
531.97	54057.01
532.14	54312.13
532.31	54309.79
532.48	54281.70
532.65	54504.06
532.82	54356.60
532.99	54567.25
533.16	54389.37
533.33	54695.98
533.50	54869.18
533.67	54717.04
533.84	54609.38
534.01	54808.32
534.18	54454.90
534.35	54707.68
534.52	54934.71
534.69	55023.65
534.86	55077.49
535.03	54951.10
535.20	55014.29
535.37	55114.94
535.54	55037.70
535.71	55201.53
535.88	55164.09
536.05	55320.90
536.22	55348.99
536.38	55662.62
536.55	55166.43
536.72	55386.44
536.89	55126.64
537.06	55463.67
537.23	55636.87
537.40	55391.12
537.57	55615.81
537.74	55583.04
537.91	55702.41
538.08	55889.65
538.25	55398.14
538.42	55814.76
538.59	56013.70
538.75	55583.04
538.92	55634.53
539.09	55756.24
539.26	56109.66
539.43	55917.74
539.60	56460.74
539.77	56350.74
539.94	56397.55
540.11	56100.30
540.28	56193.92
540.44	56280.52
540.61	56226.69
540.78	56247.75
540.95	56222.01
541.12	56184.56
541.29	56301.59
541.46	56444.36
541.62	56453.72
541.79	56142.43
541.96	56280.52
542.13	56254.78
542.30	56554.36
542.47	56481.81
542.63	56638.62
542.80	56612.88
542.97	56809.48
543.14	57095.03
543.31	57162.90
543.48	57095.03
543.64	57148.86
543.81	57237.80
543.98	57024.81
544.15	57127.80
544.32	57219.08
544.48	57366.53
544.65	57240.14
544.82	57310.36
544.99	57139.50
545.16	57523.35
545.32	57326.74
545.49	57399.30
545.66	57591.22
545.83	57511.64
546.00	57497.60
546.16	57462.49
546.33	57717.61
546.50	57282.27
546.67	57553.77
546.83	57258.87
547.00	57607.61
547.17	57364.19
547.34	57628.67
547.50	57759.74
547.67	57879.11
547.84	57815.91
548.00	57986.77
548.17	58150.61
548.34	57872.09
548.51	58038.26
548.67	57958.69
548.84	58169.33
549.01	57773.78
549.18	57794.85
549.34	58096.78
549.51	58042.95
549.68	58295.72
549.84	58293.38
550.01	58328.49
550.18	58174.02
550.34	58314.45
550.51	58349.56
550.68	58110.82
550.84	58117.84
551.01	58525.10
551.18	58192.74
551.34	58438.50
551.51	58480.63
551.68	58410.41
551.84	58316.79
552.01	58349.56
552.18	58515.73
552.34	58478.28
552.51	58461.90
552.68	58571.91
552.84	58585.95
553.01	58576.59
553.18	58637.44
553.34	58674.89
553.51	58576.59
553.67	58693.61
553.84	58745.11
554.01	58686.59
554.17	58934.69
554.34	58794.26
554.51	58955.75
554.67	58827.02
554.84	58677.23
555.00	58812.98
555.17	58810.64
555.33	58965.12
555.50	58695.95
555.67	58791.92
555.83	59047.04
556.00	58805.96
556.16	59269.39
556.33	59168.74
556.50	59292.79
556.66	59016.61
556.83	58869.15
556.99	59131.29
557.16	59271.73
557.32	59281.09
557.49	59325.56
557.65	59196.83
557.82	59231.94
557.98	59121.93
558.15	59194.49
558.32	59660.26
558.48	59398.12
558.65	59189.81
558.81	59318.54
558.98	59611.10
559.14	59437.90
559.31	59648.55
559.47	59526.84
559.64	59512.80
559.80	59430.88
559.97	59613.44
560.13	59316.20
560.30	59646.21
560.46	59587.70
560.63	59678.98
560.79	59737.49
560.96	59730.47
561.12	59746.86
561.29	59625.15
561.45	59803.03
561.61	59625.15
561.78	59852.18
561.94	59700.04
562.11	59700.04
562.27	59774.94
562.44	59662.60
562.60	59969.21
562.77	59655.57
562.93	59735.15
563.10	59894.31
563.26	59833.46
563.42	60119.00
563.59	59941.12
563.75	59821.75
563.92	59889.63
564.08	59826.43
564.24	59915.37
564.41	59847.50
564.57	59929.42
564.74	59983.25
564.90	59856.86
565.07	59976.23
565.23	59866.22
565.39	60076.87
565.56	60030.06
565.72	60196.24
565.88	59964.52
566.05	60013.68
566.21	59957.50
566.38	59950.48
566.54	60114.32
566.70	60268.79
566.87	60116.66
567.03	60058.15
567.19	60278.16
567.36	60142.41
567.52	60034.74
567.68	60250.07
567.85	60135.38
568.01	60348.37
568.17	60163.47
568.34	60193.90
568.50	60104.96
568.66	60236.03
568.83	60472.42
568.99	60177.51
569.15	60186.88
569.32	60353.05
569.48	60292.20
569.64	60495.83
569.81	60324.97
569.97	60193.90
570.13	60224.32
570.30	60198.58
570.46	60528.59
570.62	60093.25
570.78	60317.95
570.95	60189.22
571.11	60376.46
571.27	60449.02
571.43	60364.76
571.60	60566.04
571.76	60315.61
571.92	60601.15
572.09	60327.31
572.25	60367.10
572.41	60425.61
572.57	60790.73
572.74	60598.81
572.90	60371.78
573.06	60631.58
573.22	60528.59
573.38	60575.40
573.55	60364.76
573.71	60566.04
573.87	60500.51
574.03	60339.01
574.20	60559.02
574.36	60566.04
574.52	60514.55
574.68	60701.79
574.84	60619.88
575.01	60353.05
575.17	60575.40
575.33	60594.13
575.49	60530.93
575.65	60713.50
575.82	60619.88
575.98	60741.58
576.14	60692.43
576.30	60711.16
576.46	60582.43
576.62	60568.38
576.79	60629.24
576.95	60654.98
577.11	60598.81
577.27	60596.47
577.43	60764.99
577.59	60563.70
577.75	60552.00
577.92	60605.83
578.08	60491.15
578.24	60842.23
578.40	60882.02
578.56	60877.33
578.72	60692.43
578.88	60877.33
579.04	60886.70
579.21	60767.33
579.37	60802.44
579.53	60732.22
579.69	60647.96
579.85	60505.19
580.01	60505.19
580.17	60507.53
580.33	60750.94
580.49	60741.58
580.65	60924.14
580.82	60757.97
580.98	60725.20
581.14	60636.26
581.30	61127.77
581.46	60945.21
581.62	60764.99
581.78	60786.05
581.94	60989.68
582.10	60561.36
582.26	60659.66
582.42	60694.77
582.58	60800.10
582.74	60818.82
582.90	60987.34
583.06	60629.24
583.22	60818.82
583.38	60790.73
583.54	60835.20
583.70	61029.47
583.86	60760.31
584.02	60898.40
584.18	60914.78
584.34	60956.91
584.50	60870.31
584.66	60760.31
584.82	60704.13
584.98	60898.40
585.14	60828.18
585.30	60872.65
585.46	60977.98
585.62	60926.49
585.78	60952.23
585.94	60757.97
586.10	60842.23
586.26	60729.88
586.42	60952.23
586.58	60884.36
586.74	60903.08
586.90	61001.38
587.06	60914.78
587.22	60980.32
587.38	60940.53
587.54	60970.96
587.70	61069.26
587.86	60994.36
588.02	60818.82
588.18	61237.78
588.34	60757.97
588.49	60882.02
