SpectraSuite Data File
++++++++++++++++++++++++++++++++++++
Date: Fri Oct 25 11:25:37 EDT 2013
User: price-jones
Dark Spectrum Present: No
Reference Spectrum Present: No
Number of Sampled Component Spectra: 1
Spectrometers: USB2+H05261
Integration Time (usec): 100000 (USB2+H05261)
Spectra Averaged: 1 (USB2+H05261)
Boxcar Smoothing: 0 (USB2+H05261)
Correct for Electrical Dark: No (USB2+H05261)
Strobe/Lamp Enabled: No (USB2+H05261)
Correct for Detector Non-linearity: No (USB2+H05261)
Correct for Stray Light: No (USB2+H05261)
Number of Pixels in Processed Spectrum: 2048
>>>>>Begin Processed Spectral Data<<<<<
365.73	212.99
365.92	212.99
366.12	212.99
366.32	217.67
366.52	86.60
366.72	210.65
366.91	102.98
367.11	112.35
367.31	131.07
367.51	107.66
367.70	248.10
367.90	182.56
368.10	58.51
368.30	175.54
368.49	135.75
368.69	166.18
368.89	154.48
369.09	166.18
369.28	138.09
369.48	236.39
369.68	198.95
369.87	180.22
370.07	222.35
370.27	280.86
370.47	297.25
370.66	643.65
370.86	636.63
371.06	662.37
371.25	631.94
371.45	711.52
371.65	681.10
371.84	697.48
372.04	706.84
372.24	674.07
372.44	706.84
372.63	741.95
372.83	704.50
373.03	814.51
373.22	795.78
373.42	777.06
373.62	767.70
373.81	791.10
374.01	823.87
374.21	842.59
374.40	858.98
374.60	795.78
374.79	821.53
374.99	896.43
375.19	819.19
375.38	912.81
375.58	741.95
375.78	805.14
375.97	779.40
376.17	858.98
376.37	830.89
376.56	940.90
376.76	833.23
376.95	819.19
377.15	901.11
377.35	912.81
377.54	858.98
377.74	830.89
377.93	898.77
378.13	964.30
378.33	896.43
378.52	873.02
378.72	947.92
378.91	931.53
379.11	873.02
379.31	898.77
379.50	863.66
379.70	938.55
379.89	987.71
380.09	1025.15
380.28	1046.22
380.48	954.94
380.68	950.26
380.87	964.30
381.07	1015.79
381.26	978.34
381.46	1029.84
381.65	1067.28
381.85	987.71
382.04	983.02
382.24	997.07
382.43	1078.99
382.63	1006.43
382.83	1043.88
383.02	1165.59
383.22	1062.60
383.41	1118.78
383.61	1158.57
383.80	1123.46
384.00	1067.28
384.19	1144.52
384.39	1102.39
384.58	1163.25
384.78	1177.29
384.97	1172.61
385.17	1149.20
385.36	1170.27
385.56	1226.44
385.75	1167.93
385.95	1165.59
386.14	1198.35
386.34	1144.52
386.53	1317.72
386.72	1207.72
386.92	1263.89
387.11	1308.36
387.31	1174.95
387.50	1261.55
387.70	1303.68
387.89	1270.91
388.09	1203.04
388.28	1240.48
388.48	1348.15
388.67	1324.74
388.86	1334.11
389.06	1348.15
389.25	1373.89
389.45	1301.34
389.64	1329.42
389.84	1359.85
390.03	1432.41
390.22	1385.60
390.42	1427.73
390.61	1338.79
390.81	1385.60
391.00	1390.28
391.19	1521.35
391.39	1500.28
391.58	1404.32
391.78	1467.52
391.97	1467.52
392.16	1455.81
392.36	1504.96
392.55	1521.35
392.75	1526.03
392.94	1540.07
393.13	1523.69
393.33	1572.84
393.52	1645.40
393.71	1603.27
393.91	1460.49
394.10	1488.58
394.29	1591.56
394.49	1589.22
394.68	1584.54
394.88	1603.27
395.07	1689.87
395.26	1722.63
395.46	1811.57
395.65	1703.91
395.84	1799.87
396.04	1748.38
396.23	1713.27
396.42	1717.95
396.62	1769.44
396.81	1788.17
397.00	1762.42
397.19	1741.36
397.39	1748.38
397.58	1785.83
397.77	1846.68
397.97	1865.41
398.16	1799.87
398.35	1923.92
398.55	1823.28
398.74	1980.09
398.93	1851.36
399.12	1905.20
399.32	1921.58
399.51	1937.96
399.70	1952.01
399.90	1968.39
400.09	2066.69
400.28	1933.28
400.47	2001.16
400.67	2022.22
400.86	2225.85
401.05	2174.36
401.24	2134.57
401.44	2160.31
401.63	2162.66
401.82	2111.16
402.01	2139.25
402.21	2207.13
402.40	2160.31
402.59	2141.59
402.78	2221.17
402.97	2251.60
403.17	2246.91
403.36	2300.75
403.55	2303.09
403.74	2202.44
403.93	2417.77
404.13	2282.02
404.32	2370.96
404.51	2265.64
404.70	2312.45
404.89	2394.37
405.09	2532.46
405.28	2415.43
405.47	2499.69
405.66	2420.11
405.85	2569.91
406.05	2513.74
406.24	2551.18
406.43	2658.85
406.62	2691.62
406.81	2605.02
407.00	2579.27
407.20	2581.61
407.39	2567.57
407.58	2642.46
407.77	2670.55
407.96	2677.57
408.15	2841.41
408.34	2745.45
408.54	2815.66
408.73	2806.30
408.92	2836.73
409.11	2869.50
409.30	2855.45
409.49	2876.52
409.68	2904.60
409.87	3030.99
410.07	2862.48
410.26	2928.01
410.45	2972.48
410.64	2965.46
410.83	2977.16
411.02	3066.10
411.21	3187.81
411.40	3180.79
411.59	3255.69
411.78	3133.98
411.98	3166.74
412.17	3133.98
412.36	3335.26
412.55	3281.43
412.74	3435.91
412.93	3433.57
413.12	3478.04
413.31	3630.17
413.50	3431.23
413.69	3513.14
413.88	3527.19
414.07	3468.67
414.26	3550.59
414.45	3714.43
414.64	3691.02
414.83	3719.11
415.02	3735.50
415.22	3733.15
415.41	3829.12
415.60	3971.89
415.79	3758.90
415.98	4004.66
416.17	3927.42
416.36	3901.67
416.55	3894.65
416.74	3978.91
416.93	3995.29
417.12	4161.47
417.31	4095.94
417.50	4142.75
417.69	4142.75
417.88	4273.82
418.07	4231.69
418.26	4271.48
418.45	4416.59
418.64	4545.32
418.83	4458.72
419.02	4299.56
419.21	4432.97
419.39	4479.79
419.58	4475.10
419.77	4397.87
419.96	4451.70
420.15	4496.17
420.34	4528.94
420.53	4521.92
420.72	4587.45
420.91	4720.86
421.10	4601.49
421.29	4821.50
421.48	4704.48
421.67	4809.80
421.86	4748.95
422.05	4861.29
422.24	4922.15
422.43	4887.04
422.61	4774.69
422.80	4999.38
422.99	5004.07
423.18	4966.62
423.37	4997.04
423.56	4917.47
423.75	4936.19
423.94	4880.02
424.13	4664.69
424.32	4713.84
424.50	5053.22
424.69	5048.54
424.88	5020.45
425.07	4983.00
425.26	4917.47
425.45	4894.06
425.64	4940.87
425.83	4901.08
426.01	4922.15
426.20	5074.28
426.39	5071.94
426.58	4919.81
426.77	5057.90
426.96	5071.94
427.15	5158.54
427.33	5210.03
427.52	5053.22
427.71	5308.34
427.90	5203.01
428.09	5256.84
428.28	5266.21
428.46	5275.57
428.65	5277.91
428.84	5490.90
429.03	5327.06
429.22	5380.89
429.40	5486.22
429.59	5472.17
429.78	5245.14
429.97	5205.35
430.16	5439.40
430.34	5434.72
430.53	5535.37
430.72	5584.52
430.91	5673.46
431.10	5556.43
431.28	5657.07
431.47	5874.74
431.66	5750.70
431.85	5593.88
432.03	6026.88
432.22	6010.50
432.41	5893.47
432.60	5928.58
432.79	5860.70
432.97	5949.64
433.16	6083.05
433.35	5795.17
433.54	5984.75
433.72	6019.86
433.91	5977.73
434.10	6069.01
434.28	6111.14
434.47	6127.52
434.66	6132.20
434.85	6347.53
435.03	6513.71
435.22	6214.12
435.41	6492.65
435.59	6415.41
435.78	6539.46
435.97	6558.18
436.16	6490.31
436.34	6464.56
436.53	6462.22
436.72	6534.78
436.90	6338.17
437.09	6621.38
437.28	6630.74
437.46	6595.63
437.65	6614.35
437.84	6766.49
438.02	6677.55
438.21	6925.65
438.40	6745.42
438.58	6890.54
438.77	6810.96
438.96	6843.73
439.14	7126.93
439.33	7061.40
439.52	7246.30
439.70	7087.14
439.89	7255.66
440.08	7323.54
440.26	7515.46
440.45	7391.41
440.63	7407.80
440.82	7630.15
441.01	7351.62
441.19	7569.29
441.38	7599.72
441.57	7801.01
441.75	7875.90
441.94	7948.46
442.12	7939.10
442.31	8077.19
442.50	7908.67
442.68	7885.26
442.87	7978.89
443.05	8112.30
443.24	8131.02
443.43	7978.89
443.61	8189.53
443.80	8421.25
443.98	7789.30
444.17	7866.54
444.35	8142.72
444.54	8470.40
444.73	8346.35
444.91	8189.53
445.10	8180.17
445.28	8166.13
445.47	8201.24
445.65	8116.98
445.84	8306.56
446.02	8411.89
446.21	8322.94
446.39	8262.09
446.58	8505.51
446.77	8512.53
446.95	8112.30
447.14	8423.59
447.32	8547.64
447.51	8512.53
447.69	8344.01
447.88	8456.36
448.06	8594.45
448.25	8416.57
448.43	8601.47
448.62	8390.82
448.80	8617.85
448.99	8683.39
449.17	8585.08
449.36	8524.23
449.54	8634.24
449.73	8863.61
449.91	8898.72
450.10	8915.10
450.28	9107.02
450.46	9132.77
450.65	8933.82
450.83	8961.91
451.02	9050.85
451.20	9170.22
451.39	9210.01
451.57	8826.16
451.76	9060.21
451.94	9181.92
452.13	9041.49
452.31	9130.43
452.49	9177.24
452.68	9212.35
452.86	9373.85
453.05	9448.74
453.23	9331.72
453.42	9507.26
453.60	9303.63
453.78	9415.98
453.97	9486.19
454.15	9657.05
454.34	9334.06
454.52	9612.58
454.70	9844.29
454.89	9664.07
455.07	9767.06
455.26	9802.16
455.44	9762.37
455.62	9973.02
455.81	9785.78
455.99	9914.51
456.17	10012.81
456.36	9935.57
456.54	10230.48
456.73	10157.92
456.91	10277.29
457.09	10190.69
457.28	10471.56
457.46	10068.98
457.64	10408.36
457.83	10293.68
458.01	10466.88
458.19	10703.27
458.38	10359.21
458.56	10757.10
458.74	10682.20
458.93	10619.01
459.11	10736.04
459.29	10719.65
459.48	10778.17
459.66	10635.39
459.84	10832.00
460.03	10995.84
460.21	10682.20
460.39	10937.32
460.57	10836.68
460.76	11033.29
460.94	11059.03
461.12	11330.53
461.31	11089.46
461.49	10970.09
461.67	11061.37
461.85	11403.09
462.04	11068.39
462.22	11747.15
462.40	11499.05
462.59	11428.84
462.77	11524.80
462.95	11522.46
463.13	11417.13
463.32	11576.29
463.50	11906.31
463.68	11726.08
463.86	11885.24
464.05	11641.82
464.23	11419.47
464.41	11885.24
464.59	11552.88
464.78	12009.29
464.96	11925.03
465.14	11983.54
465.32	11740.13
465.50	12128.66
465.69	12091.21
465.87	11981.20
466.05	12168.45
466.23	12067.80
466.41	12196.53
466.60	12463.35
466.78	12060.78
466.96	12147.38
467.14	12311.22
467.32	12409.52
467.51	12365.05
467.69	12147.38
467.87	12468.03
468.05	12500.80
468.23	12400.16
468.41	12416.54
468.60	12500.80
468.78	12711.45
468.96	12343.99
469.14	12746.56
469.32	12854.22
469.50	12652.94
469.69	13050.83
469.87	13088.28
470.05	12917.42
470.23	13135.09
470.41	12915.08
470.59	13123.38
470.77	13214.66
470.95	13301.26
471.14	13586.81
471.32	12868.27
471.50	13453.40
471.68	13364.46
471.86	13460.42
472.04	13675.75
472.22	13722.56
472.40	13652.34
472.58	13666.39
472.77	13956.61
472.95	14214.07
473.13	14413.02
473.31	13881.72
473.49	13965.98
473.67	14120.45
473.85	14036.19
474.03	14490.26
474.21	14565.15
474.39	14862.40
474.57	14630.69
474.75	14860.06
474.93	14883.47
475.12	14768.78
475.30	15269.66
475.48	14883.47
475.66	15087.09
475.84	14895.17
476.02	15157.31
476.20	15253.27
476.38	15396.04
476.56	16046.71
476.74	15871.17
476.92	15754.15
477.10	15454.56
477.28	16053.73
477.46	15936.71
477.64	16112.25
477.82	16320.56
478.00	16910.37
478.18	16554.61
478.36	16582.70
478.54	17160.81
478.72	17074.21
478.90	17446.35
479.08	17301.24
479.26	17413.59
479.44	17582.10
479.62	17778.71
479.80	17947.23
479.98	17879.35
480.16	18448.10
480.34	17963.61
480.52	18733.65
480.70	18602.58
480.88	18263.20
481.06	18761.73
481.24	18794.50
481.41	19033.24
481.59	19168.99
481.77	19192.39
481.95	19342.19
482.13	19662.84
482.31	19632.41
482.49	20430.54
482.67	20123.93
482.85	20257.34
483.03	20367.34
483.21	20975.88
483.39	20786.30
483.57	20582.67
483.74	21125.68
483.92	21298.88
484.10	20903.32
484.28	21385.47
484.46	21741.24
484.64	22211.68
484.82	22122.74
485.00	22033.80
485.18	22855.33
485.35	22960.66
485.53	22735.96
485.71	22656.39
485.89	23510.68
486.07	23414.72
486.25	22775.75
486.43	23278.97
486.61	23948.36
486.78	23543.45
486.96	23974.11
487.14	24189.44
487.32	24514.77
487.50	24739.46
487.68	24929.05
487.85	25116.29
488.03	25324.60
488.21	25495.46
488.39	25514.18
488.57	26143.78
488.75	26141.44
488.92	26181.23
489.10	26265.49
489.28	26682.11
489.46	27112.77
489.64	26981.70
489.81	27241.50
489.99	27337.46
490.17	27772.80
490.35	28271.33
490.53	28180.05
490.70	28397.72
490.88	27964.72
491.06	28819.02
491.24	28367.29
491.41	29146.69
491.59	29312.87
491.77	29296.49
491.95	29352.66
492.13	29642.88
492.30	29900.34
492.48	29638.20
492.66	30295.89
492.84	29979.92
493.01	30223.34
493.19	30724.21
493.37	30635.27
493.54	30728.89
493.72	31016.78
493.90	30866.98
494.08	31564.46
494.25	31850.01
494.43	32119.17
494.61	32011.51
494.79	32481.95
494.96	31840.65
495.14	32739.41
495.32	32877.51
495.49	32943.04
495.67	32748.78
495.85	33078.79
496.02	33703.71
496.20	33596.05
496.38	33839.47
496.55	34227.99
496.73	34668.02
496.91	34618.86
497.09	34506.52
497.26	34778.02
497.44	34576.73
497.62	35026.12
497.79	35583.16
497.97	35414.65
498.14	35793.81
498.32	36020.84
498.50	36245.54
498.67	36566.19
498.85	36535.76
499.03	36472.57
499.20	36474.91
499.38	36783.86
499.56	36706.62
499.73	36879.82
499.91	36980.46
500.08	37628.79
500.26	37329.20
500.44	37483.68
500.61	37336.23
500.79	37790.29
500.97	37956.47
501.14	37867.53
501.32	38714.80
501.49	38415.21
501.67	38829.49
501.84	38684.37
502.02	38955.88
502.20	38995.67
502.37	38801.40
502.55	38904.38
502.72	39466.11
502.90	39208.65
503.07	39278.87
503.25	39606.55
503.43	39454.41
503.60	39660.38
503.78	40135.51
503.95	39882.73
504.13	40172.96
504.30	40519.35
504.48	40776.81
504.65	40168.27
504.83	40390.62
505.01	41060.02
505.18	41076.40
505.36	41296.41
505.53	41036.61
505.71	41053.00
505.88	41354.93
506.06	40896.18
506.23	41958.78
506.41	41481.31
506.58	41963.46
506.76	41989.21
506.93	42291.14
507.11	42148.37
507.28	42335.61
507.46	42658.60
507.63	42550.94
507.81	42967.55
507.98	43047.13
508.16	42768.61
508.33	43285.87
508.50	43578.43
508.68	43550.35
508.85	43533.96
509.03	43377.15
509.20	43749.29
509.38	43906.11
509.55	44147.18
509.73	44327.41
509.90	44491.24
510.08	44500.61
510.25	44296.98
510.42	44437.41
510.60	44507.63
510.77	44694.87
510.95	45347.88
511.12	45111.49
511.30	45146.59
511.47	45397.03
511.64	44837.64
511.82	45539.80
511.99	45551.51
512.17	45755.13
512.34	45883.86
512.51	46129.62
512.69	46064.08
512.86	46256.01
513.04	46656.24
513.21	46134.30
513.38	46213.88
513.56	46880.93
513.73	46366.01
513.90	47082.22
514.08	46719.43
514.25	47168.82
514.43	47206.26
514.60	47152.43
514.77	47351.38
514.95	47285.84
515.12	47550.32
515.29	47414.57
515.47	47711.82
515.64	48289.93
515.81	47870.98
515.99	47934.17
516.16	48294.61
516.33	47899.06
516.51	48500.58
516.68	48348.45
516.85	48362.49
517.03	48505.26
517.20	48491.22
517.37	48732.29
517.54	48690.16
517.72	48573.14
517.89	48994.43
518.06	49083.37
518.24	49076.35
518.41	49071.67
518.58	49460.20
518.75	49279.98
518.93	49642.76
519.10	49092.74
519.27	49228.49
519.45	49893.20
519.62	49724.68
519.79	49808.94
519.96	49874.48
520.14	50246.62
520.31	49694.25
520.48	50363.65
520.65	49991.50
520.83	50440.89
521.00	50684.30
521.17	50628.13
521.34	50466.63
521.52	50667.92
521.69	50721.75
521.86	50817.71
522.03	50684.30
522.20	51269.43
522.38	51292.84
522.55	51217.94
522.72	51131.34
522.89	50904.31
523.07	51510.51
523.24	51367.74
523.41	51550.30
523.58	51203.90
523.75	51943.51
523.92	51700.09
524.10	51592.43
524.27	51660.30
524.44	51917.76
524.61	51770.31
524.78	52205.65
524.96	52163.52
525.13	52011.38
525.30	52137.77
525.47	52184.58
525.64	52203.31
525.81	52456.09
525.98	52479.49
526.16	52163.52
526.33	52673.76
526.50	52692.48
526.67	52514.60
526.84	52479.49
527.01	52603.54
527.18	52835.25
527.36	52905.47
527.53	52818.87
527.70	53312.72
527.87	53167.61
528.04	53095.05
528.21	53535.07
528.38	53132.50
528.55	53261.23
528.72	53380.60
528.89	53158.25
529.07	52861.00
529.24	53457.84
529.41	53502.31
529.58	53591.25
529.75	53209.74
529.92	53436.77
530.09	53638.06
530.26	53612.31
530.43	53638.06
530.60	53579.54
530.77	53928.28
530.94	53947.01
531.11	53832.32
531.28	54096.80
531.46	53778.49
531.63	54064.03
531.80	54115.53
531.97	54354.26
532.14	54277.02
532.31	54372.99
532.48	54492.35
532.65	54515.76
532.82	54302.77
532.99	54532.14
533.16	54396.39
533.33	54468.95
533.50	54724.07
533.67	54700.66
533.84	54632.78
534.01	54735.77
534.18	54635.13
534.35	55023.65
534.52	54719.38
534.69	54946.42
534.86	55185.15
535.03	55126.64
535.20	55061.10
535.37	55033.02
535.54	55480.06
535.71	55175.79
535.88	55309.20
536.05	55271.75
536.22	55311.54
536.38	55234.30
536.55	55470.70
536.72	55512.83
536.89	55206.22
537.06	55348.99
537.23	55442.61
537.40	55664.96
537.57	55533.89
537.74	55473.04
537.91	55763.26
538.08	55632.19
538.25	55660.28
538.42	55753.90
538.59	56053.49
538.75	55683.69
538.92	55957.53
539.09	56074.55
539.26	55767.94
539.43	56168.18
539.60	56095.62
539.77	56149.45
539.94	56212.65
540.11	56154.13
540.28	56154.13
540.44	56296.91
540.61	56292.22
540.78	56430.32
540.95	56306.27
541.12	56179.88
541.29	56409.25
541.46	56350.74
541.62	56390.53
541.79	56697.14
541.96	56240.73
542.13	56526.28
542.30	56491.17
542.47	56786.08
542.63	56739.27
542.80	56516.92
542.97	56844.59
543.14	56970.98
543.31	57010.77
543.48	56898.42
543.64	57331.42
543.81	57233.12
543.98	57284.61
544.15	57237.80
544.32	56970.98
544.48	57368.87
544.65	57289.29
544.82	57387.60
544.99	57317.38
545.16	57153.54
545.32	57623.99
545.49	57584.20
545.66	57513.98
545.83	57305.68
546.00	57499.94
546.16	57460.15
546.33	57490.58
546.50	57434.41
546.67	57628.67
546.83	57247.16
547.00	57523.35
547.17	57361.85
547.34	57462.49
547.50	57848.68
547.67	57890.81
547.84	57623.99
548.00	58005.50
548.17	58019.54
548.34	57769.10
548.51	58096.78
548.67	57874.43
548.84	57993.79
549.01	57958.69
549.18	58049.97
549.34	58213.80
549.51	58508.71
549.68	58356.58
549.84	58302.74
550.01	58356.58
550.18	58092.10
550.34	58335.51
550.51	58365.94
550.68	58251.25
550.84	58115.50
551.01	58644.46
551.18	58365.94
551.34	58482.97
551.51	58389.34
551.68	58567.23
551.84	58443.18
552.01	58342.53
552.18	58637.44
552.34	58375.30
552.51	58475.94
552.68	58412.75
552.84	58527.44
553.01	58621.06
553.18	58578.93
553.34	58773.19
553.51	58581.27
553.67	58934.69
553.84	58820.00
554.01	58866.81
554.17	58871.49
554.34	59000.22
554.51	58834.05
554.67	58763.83
554.84	58625.74
555.00	58925.33
555.17	58951.07
555.33	58845.75
555.50	58724.04
555.67	58834.05
555.83	58810.64
556.00	59194.49
556.16	59302.15
556.33	59037.67
556.50	58848.09
556.66	59061.08
556.83	59070.44
556.99	59341.94
557.16	59213.21
557.32	59414.50
557.49	59461.31
557.65	59255.34
557.82	59313.86
557.98	59262.36
558.15	59231.94
558.32	59510.46
558.48	59318.54
558.65	59367.69
558.81	59414.50
558.98	59547.91
559.14	59554.93
559.31	59622.81
559.47	59533.87
559.64	59372.37
559.80	59817.07
559.97	59718.77
560.13	59529.19
560.30	59540.89
560.46	59608.76
560.63	59861.54
560.79	59501.10
560.96	59657.91
561.12	59737.49
561.29	59714.09
561.45	59793.67
561.61	59545.57
561.78	59606.42
561.94	59554.93
562.11	59774.94
562.27	59774.94
562.44	59739.83
562.60	59906.01
562.77	59952.82
562.93	59814.73
563.10	59983.25
563.26	59842.82
563.42	60044.10
563.59	59884.95
563.75	59669.62
563.92	59950.48
564.08	59831.11
564.24	60172.83
564.41	59910.69
564.57	59884.95
564.74	59852.18
564.90	59990.27
565.07	59987.93
565.23	59873.24
565.39	59929.42
565.56	60065.17
565.72	60100.28
565.88	60102.62
566.05	60062.83
566.21	59931.76
566.38	60030.06
566.54	60083.89
566.70	60259.43
566.87	60383.48
567.03	60170.49
567.19	60292.20
567.36	60214.96
567.52	60081.55
567.68	60250.07
567.85	60271.14
568.01	60416.25
568.17	60147.09
568.34	60217.30
568.50	60310.92
568.66	60212.62
568.83	60339.01
568.99	60041.76
569.15	60360.08
569.32	60521.57
569.48	60264.11
569.64	60257.09
569.81	60411.57
569.97	60200.92
570.13	60111.98
570.30	60184.54
570.46	60376.46
570.62	60076.87
570.78	60580.09
570.95	60264.11
571.11	60512.21
571.27	60341.35
571.43	60346.03
571.60	60488.80
571.76	60486.46
571.92	60544.98
572.09	60420.93
572.25	60369.44
572.41	60404.55
572.57	60626.90
572.74	60769.67
572.90	60411.57
573.06	60526.25
573.22	60406.89
573.38	60713.50
573.55	60584.77
573.71	60814.14
573.87	60657.32
574.03	60463.06
574.20	60640.94
574.36	60484.12
574.52	60669.03
574.68	60348.37
574.84	60692.43
575.01	60568.38
575.17	60458.38
575.33	60582.43
575.49	60456.04
575.65	60769.67
575.82	60924.14
575.98	60601.15
576.14	60781.37
576.30	60685.41
576.46	60610.51
576.62	60603.49
576.79	60596.47
576.95	60617.53
577.11	60666.69
577.27	60514.55
577.43	60580.09
577.59	60617.53
577.75	60568.38
577.92	60678.39
578.08	60683.07
578.24	60905.42
578.40	60676.05
578.56	60858.61
578.72	60734.56
578.88	60821.16
579.04	60959.25
579.21	60767.33
579.37	60949.89
579.53	60727.54
579.69	60596.47
579.85	60530.93
580.01	60587.11
580.17	60624.56
580.33	60727.54
580.49	60757.97
580.65	60860.95
580.82	60601.15
580.98	60729.88
581.14	60755.63
581.30	60830.52
581.46	60772.01
581.62	60832.86
581.78	60676.05
581.94	60849.25
582.10	60727.54
582.26	60544.98
582.42	60652.64
582.58	60926.49
582.74	60783.71
582.90	60750.94
583.06	60814.14
583.22	60636.26
583.38	60750.94
583.54	60797.76
583.70	60821.16
583.86	60994.36
584.02	60795.42
584.18	60694.77
584.34	60882.02
584.50	60877.33
584.66	60741.58
584.82	60729.88
584.98	61048.19
585.14	60882.02
585.30	60818.82
585.46	61055.21
585.62	60963.93
585.78	61052.87
585.94	60755.63
586.10	60711.16
586.26	60769.67
586.42	61029.47
586.58	61003.72
586.74	61076.28
586.90	60884.36
587.06	60926.49
587.22	61038.83
587.38	60715.84
587.54	61144.16
587.70	61050.53
587.86	60996.70
588.02	60865.63
588.18	61104.37
588.34	60898.40
588.49	60963.93
