SpectraSuite Data File
++++++++++++++++++++++++++++++++++++
Date: Fri Oct 25 11:34:08 EDT 2013
User: price-jones
Dark Spectrum Present: No
Reference Spectrum Present: No
Number of Sampled Component Spectra: 1
Spectrometers: USB2+H05261
Integration Time (usec): 100000 (USB2+H05261)
Spectra Averaged: 1 (USB2+H05261)
Boxcar Smoothing: 0 (USB2+H05261)
Correct for Electrical Dark: No (USB2+H05261)
Strobe/Lamp Enabled: No (USB2+H05261)
Correct for Detector Non-linearity: No (USB2+H05261)
Correct for Stray Light: No (USB2+H05261)
Number of Pixels in Processed Spectrum: 2048
>>>>>Begin Processed Spectral Data<<<<<
365.73	243.42
365.92	243.42
366.12	243.42
366.32	182.56
366.52	173.20
366.72	264.48
366.91	182.56
367.11	194.26
367.31	131.07
367.51	147.45
367.70	184.90
367.90	224.69
368.10	208.31
368.30	236.39
368.49	135.75
368.69	208.31
368.89	166.18
369.09	168.52
369.28	325.33
369.48	208.31
369.68	252.78
369.87	220.01
370.07	252.78
370.27	245.76
370.47	325.33
370.66	360.44
370.86	575.77
371.06	540.66
371.25	510.24
371.45	526.62
371.65	514.92
371.84	547.69
372.04	540.66
372.24	561.73
372.44	606.20
372.63	580.45
372.83	613.22
373.03	545.34
373.22	599.18
373.42	643.65
373.62	608.54
373.81	535.98
374.01	610.88
374.21	648.33
374.40	685.78
374.60	688.12
374.79	580.45
374.99	692.80
375.19	688.12
375.38	676.41
375.58	667.05
375.78	667.05
375.97	709.18
376.17	669.39
376.37	636.63
376.56	643.65
376.76	669.39
376.95	643.65
377.15	734.93
377.35	643.65
377.54	706.84
377.74	681.10
377.93	676.41
378.13	737.27
378.33	681.10
378.52	704.50
378.72	678.76
378.91	744.29
379.11	667.05
379.31	676.41
379.50	704.50
379.70	667.05
379.89	706.84
380.09	718.54
380.28	727.91
380.48	744.29
380.68	690.46
380.87	758.33
381.07	727.91
381.26	753.65
381.46	723.23
381.65	746.63
381.85	786.42
382.04	772.38
382.24	786.42
382.43	706.84
382.63	763.01
382.83	798.12
383.02	866.00
383.22	755.99
383.41	814.51
383.61	828.55
383.80	791.10
384.00	784.08
384.19	819.19
384.39	917.49
384.58	828.55
384.78	763.01
384.97	854.30
385.17	894.08
385.36	823.87
385.56	844.93
385.75	812.17
385.95	821.53
386.14	894.08
386.34	828.55
386.53	844.93
386.72	854.30
386.92	894.08
387.11	861.32
387.31	866.00
387.50	940.90
387.70	891.74
387.89	898.77
388.09	870.68
388.28	849.61
388.48	882.38
388.67	957.28
388.86	912.81
389.06	861.32
389.25	924.51
389.45	926.85
389.64	915.15
389.84	997.07
390.03	968.98
390.22	947.92
390.42	997.07
390.61	983.02
390.81	945.58
391.00	968.98
391.19	992.39
391.39	1006.43
391.58	1090.69
391.78	1036.86
391.97	1027.50
392.16	1004.09
392.36	1020.47
392.55	1041.54
392.75	1011.11
392.94	1050.90
393.13	959.62
393.33	971.32
393.52	1076.65
393.71	1139.84
393.91	1111.75
394.10	1088.35
394.29	1116.44
394.49	1111.75
394.68	1109.41
394.88	1128.14
395.07	1090.69
395.26	1083.67
395.46	1139.84
395.65	1132.82
395.84	1153.88
396.04	1329.42
396.23	1123.46
396.42	1207.72
396.62	1219.42
396.81	1224.10
397.00	1177.29
397.19	1135.16
397.39	1210.06
397.58	1226.44
397.77	1210.06
397.97	1156.22
398.16	1259.21
398.35	1263.89
398.55	1245.16
398.74	1289.64
398.93	1296.66
399.12	1296.66
399.32	1275.59
399.51	1299.00
399.70	1364.53
399.90	1348.15
400.09	1378.58
400.28	1371.55
400.47	1378.58
400.67	1460.49
400.86	1387.94
401.05	1371.55
401.24	1411.34
401.44	1453.47
401.63	1472.20
401.82	1437.09
402.01	1366.87
402.21	1425.39
402.40	1441.77
402.59	1526.03
402.78	1495.60
402.97	1537.73
403.17	1582.20
403.36	1472.20
403.55	1516.67
403.74	1544.75
403.93	1624.33
404.13	1596.25
404.32	1612.63
404.51	1551.78
404.70	1575.18
404.89	1654.76
405.09	1626.67
405.28	1607.95
405.47	1633.69
405.66	1544.75
405.85	1699.23
406.05	1741.36
406.24	1692.21
406.43	1654.76
406.62	1783.49
406.81	1732.00
407.00	1722.63
407.20	1699.23
407.39	1673.48
407.58	1743.70
407.77	1762.42
407.96	1804.55
408.15	1853.70
408.34	1806.89
408.54	1944.99
408.73	1834.98
408.92	1858.39
409.11	2033.93
409.30	1989.46
409.49	1942.64
409.68	1893.49
409.87	1905.20
410.07	1898.17
410.26	2045.63
410.45	1998.82
410.64	2069.03
410.83	2047.97
411.02	2125.21
411.21	2146.27
411.40	2141.59
411.59	2073.71
411.78	2069.03
411.98	2129.89
412.17	2188.40
412.36	2300.75
412.55	2190.74
412.74	2377.98
412.93	2279.68
413.12	2200.10
413.31	2356.92
413.50	2286.70
413.69	2239.89
413.88	2366.28
414.07	2314.79
414.26	2490.33
414.45	2377.98
414.64	2452.88
414.83	2520.76
415.02	2504.37
415.22	2586.29
415.41	2560.55
415.60	2607.36
415.79	2548.84
415.98	2832.05
416.17	2803.96
416.36	2672.89
416.55	2712.68
416.74	2686.94
416.93	2759.49
417.12	2747.79
417.31	2839.07
417.50	2796.94
417.69	2897.58
417.88	2841.41
418.07	2785.24
418.26	2897.58
418.45	2911.63
418.64	2979.50
418.83	3035.67
419.02	2869.50
419.21	2963.12
419.39	3089.51
419.58	3126.96
419.77	3084.83
419.96	3124.62
420.15	3040.36
420.34	3138.66
420.53	3061.42
420.72	3108.23
420.91	3073.12
421.10	3192.49
421.29	3227.60
421.48	3246.32
421.67	3229.94
421.86	3152.70
422.05	3091.85
422.24	3265.05
422.43	3108.23
422.61	3281.43
422.80	3375.05
422.99	3349.31
423.18	3361.01
423.37	3391.44
423.56	3279.09
423.75	3274.41
423.94	3321.22
424.13	3173.77
424.32	3246.32
424.50	3482.72
424.69	3386.76
424.88	3419.52
425.07	3353.99
425.26	3332.92
425.45	3288.45
425.64	3398.46
425.83	3269.73
426.01	3389.10
426.20	3417.18
426.39	3382.07
426.58	3276.75
426.77	3307.18
426.96	3375.05
427.15	3466.33
427.33	3517.83
427.52	3417.18
427.71	3625.49
427.90	3576.34
428.09	3513.14
428.28	3618.47
428.46	3712.09
428.65	3611.45
428.84	3662.94
429.03	3623.15
429.22	3646.55
429.40	3700.39
429.59	3655.92
429.78	3592.72
429.97	3527.19
430.16	3653.58
430.34	3829.12
430.53	3784.65
430.72	3892.31
430.91	3749.54
431.10	3714.43
431.28	3990.61
431.47	3908.69
431.66	3971.89
431.85	3995.29
432.03	3791.67
432.22	3915.72
432.41	3875.93
432.60	3990.61
432.79	3955.51
432.97	3939.12
433.16	4182.54
433.35	3960.19
433.54	3962.53
433.72	4133.39
433.91	4131.05
434.10	4182.54
434.28	4156.79
434.47	4252.75
434.66	4140.41
434.85	4156.79
435.03	4109.98
435.22	4227.01
435.41	4358.08
435.59	4372.12
435.78	4280.84
435.97	4409.57
436.16	4301.90
436.34	4147.43
436.53	4325.31
436.72	4461.06
436.90	4358.08
437.09	4521.92
437.28	4341.69
437.46	4386.16
437.65	4423.61
437.84	4400.21
438.02	4428.29
438.21	4648.30
438.40	4505.53
438.58	4662.35
438.77	4601.49
438.96	4608.51
439.14	4786.40
439.33	4699.80
439.52	4912.78
439.70	4898.74
439.89	4788.74
440.08	4856.61
440.26	4851.93
440.45	4891.72
440.63	4882.36
440.82	5020.45
441.01	5067.26
441.19	5186.63
441.38	5135.14
441.57	5132.79
441.75	5259.18
441.94	5263.86
442.12	5137.48
442.31	5327.06
442.50	5401.96
442.68	5362.17
442.87	5362.17
443.05	5348.12
443.24	5549.41
443.43	5301.31
443.61	5362.17
443.80	5577.50
443.98	5446.43
444.17	5343.44
444.35	5397.28
444.54	5530.69
444.73	5544.73
444.91	5600.90
445.10	5521.32
445.28	5462.81
445.47	5493.24
445.65	5397.28
445.84	5710.91
446.02	5547.07
446.21	5554.09
446.39	5626.65
446.58	5507.28
446.77	5603.24
446.95	5420.68
447.14	5586.86
447.32	5741.33
447.51	5650.05
447.69	5598.56
447.88	5476.85
448.06	5657.07
448.25	5614.95
448.43	5673.46
448.62	5603.24
448.80	5841.98
448.99	5696.86
449.17	5832.62
449.36	5760.06
449.54	5832.62
449.73	5907.51
449.91	5813.89
450.10	5888.79
450.28	5909.85
450.46	6003.47
450.65	5935.60
450.83	5926.24
451.02	5844.32
451.20	6024.54
451.39	5968.37
451.57	6050.28
451.76	5954.32
451.94	6069.01
452.13	6251.57
452.31	6125.18
452.49	6066.67
452.68	6319.45
452.86	6202.42
453.05	6253.91
453.23	6401.37
453.42	6277.32
453.60	6237.53
453.78	6312.42
453.97	6139.23
454.15	6286.68
454.34	6272.64
454.52	6478.60
454.70	6345.19
454.89	6431.79
455.07	6537.12
455.26	6583.93
455.44	6672.87
455.62	6548.82
455.81	6593.29
455.99	6644.78
456.17	6370.94
456.36	6612.01
456.54	6768.83
456.73	6691.59
456.91	6869.47
457.09	6867.13
457.28	6925.65
457.46	6827.34
457.64	6981.82
457.83	6906.92
458.01	6752.45
458.19	7066.08
458.38	6822.66
458.56	7021.61
458.74	7054.37
458.93	6939.69
459.11	6890.54
459.29	6923.30
459.48	7045.01
459.66	7105.87
459.84	7091.82
460.03	7297.79
460.21	7234.60
460.39	7119.91
460.57	7272.04
460.76	7379.71
460.94	7166.72
461.12	7375.03
461.31	7353.96
461.49	7424.18
461.67	7449.93
461.85	7456.95
462.04	7456.95
462.22	7845.48
462.40	7695.68
462.59	7667.60
462.77	7662.91
462.95	7786.96
463.13	7658.23
463.32	7538.87
463.50	7709.72
463.68	7520.14
463.86	7866.54
464.05	7681.64
464.23	7714.41
464.41	7681.64
464.59	7599.72
464.78	7805.69
464.96	7709.72
465.14	7751.85
465.32	8018.68
465.50	7798.66
465.69	7871.22
465.87	8072.51
466.05	7793.98
466.23	8098.25
466.41	7922.71
466.60	8212.94
466.78	7922.71
466.96	8039.74
467.14	8032.72
467.32	8042.08
467.51	8098.25
467.69	8140.38
467.87	8116.98
468.05	8215.28
468.23	8205.92
468.41	8390.82
468.60	8315.92
468.78	8418.91
468.96	8259.75
469.14	8297.20
469.32	8538.27
469.50	8226.98
469.69	8421.25
469.87	8439.97
470.05	8652.96
470.23	8510.19
470.41	8690.41
470.59	8636.58
470.77	8589.77
470.95	8690.41
471.14	8699.77
471.32	8688.07
471.50	9029.79
471.68	8814.46
471.86	8833.18
472.04	8840.20
472.22	9231.07
472.40	8674.03
472.58	9088.30
472.77	9015.74
472.95	9132.77
473.13	9554.07
473.31	8990.00
473.49	9076.60
473.67	9186.60
473.85	9284.91
474.03	9268.52
474.21	9486.19
474.39	9591.52
474.57	9547.05
474.75	9699.18
474.93	9579.81
475.12	9645.35
475.30	9830.25
475.48	9858.34
475.66	9919.19
475.84	9872.38
476.02	10214.10
476.20	10036.22
476.38	10017.49
476.56	10141.54
476.74	10483.26
476.92	10148.56
477.10	10345.17
477.28	10326.44
477.46	10221.12
477.64	10677.52
477.82	10785.19
478.00	10902.22
478.18	10607.31
478.36	11293.08
478.54	11103.50
478.72	10864.77
478.90	11206.48
479.08	11477.99
479.26	11424.15
479.44	11337.56
479.62	11623.10
479.80	11775.24
479.98	11655.87
480.16	11683.95
480.34	12002.27
480.52	11995.25
480.70	12131.00
480.88	11978.86
481.06	11953.12
481.24	12119.29
481.41	12622.51
481.59	12418.88
481.77	12461.01
481.95	12446.97
482.13	12734.85
482.31	12645.91
482.49	13083.59
482.67	12943.16
482.85	13474.46
483.03	13261.48
483.21	13107.00
483.39	13376.16
483.57	13331.69
483.74	13584.47
483.92	13727.24
484.10	13565.74
484.28	13980.02
484.46	14118.11
484.64	14567.49
484.82	14174.28
485.00	14143.86
485.18	14530.05
485.35	14827.29
485.53	14661.12
485.71	14534.73
485.89	15185.40
486.07	14906.87
486.25	15131.56
486.43	15021.56
486.61	15445.20
486.78	15510.73
486.96	15257.95
487.14	15852.45
487.32	15838.41
487.50	16032.67
487.68	15847.77
487.85	15955.43
488.03	16219.91
488.21	16620.14
488.39	16479.71
488.57	16819.09
488.75	16746.53
488.92	17043.78
489.10	17146.76
489.28	16999.31
489.46	17043.78
489.64	17170.17
489.81	17680.41
489.99	17481.46
490.17	17806.80
490.35	17860.63
490.53	18090.00
490.70	18384.91
490.88	18029.15
491.06	18668.11
491.24	18565.13
491.41	18412.99
491.59	18628.32
491.77	18958.34
491.95	19033.24
492.13	18974.72
492.30	19108.13
492.48	19131.54
492.66	19213.46
492.84	19412.40
493.01	19641.78
493.19	19704.97
493.37	19669.86
493.54	19817.32
493.72	19941.36
493.90	20098.18
494.08	20259.68
494.25	20409.47
494.43	20493.73
494.61	20727.78
494.79	20765.23
494.96	20638.84
495.14	20863.54
495.32	21231.00
495.49	21179.51
495.67	21338.66
495.85	21270.79
496.02	21860.60
496.20	21605.49
496.38	22022.10
496.55	21886.35
496.73	22424.67
496.91	22183.60
497.09	22604.89
497.26	22253.81
497.44	22377.86
497.62	22429.35
497.79	23098.75
497.97	22806.18
498.14	23157.26
498.32	23304.71
498.50	23157.26
498.67	23143.22
498.85	23080.02
499.03	23428.76
499.20	23683.88
499.38	23564.51
499.56	23381.95
499.73	23618.35
499.91	24032.62
500.08	24091.13
500.26	23817.29
500.44	24444.56
500.61	23995.17
500.79	24147.31
500.97	24271.36
501.14	24673.93
501.32	24741.80
501.49	24430.51
501.67	24821.38
501.84	24694.99
502.02	24879.89
502.20	24769.89
502.37	25142.03
502.55	24673.93
502.72	25223.95
502.90	25322.26
503.07	25296.51
503.25	25518.86
503.43	25355.02
503.60	25408.86
503.78	25596.10
503.95	25401.83
504.13	25837.17
504.30	26036.12
504.48	25745.89
504.65	26295.92
504.83	26490.18
505.01	26356.77
505.18	26352.09
505.36	26604.87
505.53	26485.50
505.71	26572.10
505.88	26946.59
506.06	26796.79
506.23	26913.82
506.41	26719.56
506.58	26855.31
506.76	27082.34
506.93	27218.09
507.11	27180.64
507.28	27377.25
507.46	27545.76
507.63	27522.36
507.81	27475.55
507.98	27562.15
508.16	27978.76
508.33	27964.72
508.50	27988.13
508.68	27721.30
508.85	28252.61
509.03	28004.51
509.20	28496.02
509.38	28414.10
509.55	28582.62
509.73	28561.56
509.90	28638.80
510.08	28496.02
510.25	29062.43
510.42	28737.10
510.60	28767.52
510.77	29092.86
510.95	29331.59
511.12	29406.49
511.30	29064.77
511.47	29343.30
511.64	29563.31
511.82	29741.19
511.99	29549.26
512.17	29731.83
512.34	29537.56
512.51	30043.12
512.69	30480.80
512.86	30066.52
513.04	30047.80
513.21	30246.74
513.38	30183.55
513.56	30316.96
513.73	30419.94
513.90	30108.65
514.08	30368.45
514.25	30801.45
514.43	30745.28
514.60	30738.26
514.77	30918.48
514.95	30944.22
515.12	30953.58
515.29	30881.03
515.47	30871.67
515.64	31281.26
515.81	30766.34
515.99	32023.21
516.16	31740.00
516.33	31337.43
516.51	31810.22
516.68	31751.71
516.85	31328.07
517.03	31974.06
517.20	32079.38
517.37	31482.55
517.54	31749.37
517.72	31630.00
517.89	32084.06
518.06	32107.47
518.24	32025.55
518.41	31859.37
518.58	32432.80
518.75	32362.59
518.93	32884.53
519.10	32531.11
519.27	32893.89
519.45	32741.75
519.62	32758.14
519.79	33130.28
519.96	33301.14
520.14	32886.87
520.31	32683.24
520.48	32985.17
520.65	33043.68
520.83	33359.66
521.00	33280.08
521.17	33287.10
521.34	33900.32
521.52	33703.71
521.69	33900.32
521.86	34019.69
522.03	33787.97
522.20	34225.65
522.38	34204.59
522.55	34064.16
522.72	34043.09
522.89	34043.09
523.07	34541.63
523.24	34204.59
523.41	34202.25
523.58	34363.75
523.75	34932.50
523.92	34328.64
524.10	34623.54
524.27	34881.00
524.44	34623.54
524.61	34801.43
524.78	34838.87
524.96	35063.57
525.13	34843.56
525.30	35239.11
525.47	35388.90
525.64	34888.03
525.81	35154.85
525.98	35503.59
526.16	35688.49
526.33	35297.62
526.50	35758.70
526.67	35105.70
526.84	35461.46
527.01	35641.68
527.18	35943.61
527.36	35838.28
527.53	36048.93
527.70	36266.60
527.87	36409.37
528.04	36282.98
528.21	36144.89
528.38	36006.80
528.55	36116.81
528.72	36100.42
528.89	36390.65
529.07	36252.56
529.24	36058.29
529.41	36442.14
529.58	36421.08
529.75	36678.54
529.92	36627.04
530.09	36596.62
530.26	36376.61
530.43	37144.30
530.60	36613.00
530.77	36643.43
530.94	37003.87
531.11	36765.14
531.28	36369.58
531.46	36931.31
531.63	37221.54
531.80	37270.69
531.97	37350.27
532.14	37464.96
532.31	37214.52
532.48	37727.10
532.65	37682.62
532.82	37699.01
532.99	37361.97
533.16	37921.36
533.33	37621.77
533.50	37511.77
533.67	37357.29
533.84	37200.47
534.01	37544.53
534.18	38047.75
534.35	38359.04
534.52	38134.35
534.69	38464.36
534.86	38792.04
535.03	38202.22
535.20	38129.67
535.37	38440.96
535.54	38478.41
535.71	38705.44
535.88	38499.47
536.05	38988.64
536.22	38630.54
536.38	38572.03
536.55	38761.61
536.72	38773.31
536.89	38560.33
537.06	38738.21
537.23	39248.44
537.40	38541.60
537.57	38873.96
537.74	39091.63
537.91	38700.76
538.08	39028.43
538.25	39154.82
538.42	39161.84
538.59	39606.55
538.75	38960.56
538.92	39372.49
539.09	39934.22
539.26	39438.03
539.43	39250.78
539.60	39985.71
539.77	39295.25
539.94	39831.24
540.11	39665.06
540.28	39679.10
540.44	39873.37
540.61	39543.35
540.78	39370.15
540.95	40002.10
541.12	40100.40
541.29	40046.57
541.46	40013.80
541.62	39971.67
541.79	40741.71
541.96	39959.97
542.13	39702.51
542.30	40215.08
542.47	40776.81
542.63	40091.04
542.80	40275.94
542.97	40973.42
543.14	40708.94
543.31	40250.19
543.48	41118.53
543.64	41130.23
543.81	41029.59
543.98	41125.55
544.15	40802.56
544.32	41476.63
544.48	41378.33
544.65	41528.13
544.82	41462.59
544.99	41305.77
545.16	41303.43
545.32	41418.12
545.49	41698.98
545.66	41715.37
545.83	41549.19
546.00	41617.07
546.16	41923.68
546.33	41481.31
546.50	41724.73
546.67	41858.14
546.83	41284.71
547.00	41773.88
547.17	41429.82
547.34	41399.40
547.50	41778.56
547.67	41951.76
547.84	41862.82
548.00	41638.13
548.17	42576.69
548.34	41916.65
548.51	42522.85
548.67	42220.92
548.84	42073.47
549.01	42176.45
549.18	42066.45
549.34	42216.24
549.51	42698.39
549.68	42464.34
549.84	42546.26
550.01	42216.24
550.18	42396.46
550.34	42171.77
550.51	42665.63
550.68	42550.94
550.84	42410.51
551.01	43084.58
551.18	42082.83
551.34	42630.52
551.51	43154.80
551.68	42731.16
551.84	42777.97
552.01	42799.04
552.18	42794.36
552.34	42637.54
552.51	42909.04
552.68	42628.18
552.84	43079.90
553.01	43253.10
553.18	43075.22
553.34	43409.92
553.51	42955.85
553.67	43112.67
553.84	43157.14
554.01	43639.29
554.17	43281.19
554.34	43735.25
554.51	43564.39
554.67	43285.87
554.84	43210.97
555.00	43489.49
555.17	43611.20
555.33	43730.57
555.50	43187.56
555.67	43913.13
555.83	44048.88
556.00	43992.71
556.16	44013.77
556.33	43728.23
556.50	43761.00
556.66	43995.05
556.83	43952.92
556.99	44238.47
557.16	44217.40
557.32	44114.42
557.49	43903.77
557.65	43999.73
557.82	44004.41
557.98	43690.78
558.15	44154.21
558.32	44421.03
558.48	43751.63
558.65	44196.34
558.81	44079.31
558.98	43969.30
559.14	44360.17
559.31	44083.99
559.47	43966.96
559.64	44406.98
559.80	44079.31
559.97	44718.28
560.13	44318.04
560.30	44336.77
560.46	44900.84
560.63	44847.00
560.79	44790.83
560.96	45088.08
561.12	44671.46
561.29	44964.03
561.45	44748.70
561.61	44486.56
561.78	44451.45
561.94	44238.47
562.11	44399.96
562.27	44114.42
562.44	44360.17
562.60	44715.93
562.77	45125.53
562.93	44935.95
563.10	44973.39
563.26	44596.57
563.42	45200.43
563.59	45188.72
563.75	44451.45
563.92	44720.62
564.08	44634.02
564.24	45127.87
564.41	45008.50
564.57	45223.83
564.74	45387.67
564.90	44989.78
565.07	44835.30
565.23	44931.26
565.39	45158.30
565.56	45610.02
565.72	45031.91
565.88	44830.62
566.05	44992.12
566.21	45158.30
566.38	45109.14
566.54	45165.32
566.70	44807.22
566.87	45481.29
567.03	44875.09
567.19	45343.20
567.36	44687.85
567.52	45085.74
567.68	45188.72
567.85	45654.49
568.01	45846.41
568.17	45251.92
568.34	45780.88
568.50	45401.71
568.66	44947.65
568.83	45528.10
568.99	45408.73
569.15	45436.82
569.32	45272.98
569.48	45556.19
569.64	45373.63
569.81	46014.93
569.97	45837.05
570.13	45731.73
570.30	45500.01
570.46	45872.16
570.62	45801.94
570.78	45207.45
570.95	45656.83
571.11	45661.51
571.27	44973.39
571.43	45017.86
571.60	45867.48
571.76	45710.66
571.92	45280.00
572.09	45324.47
572.25	45703.64
572.41	45425.12
572.57	45783.22
572.74	45705.98
572.90	45727.05
573.06	45830.03
573.22	45558.53
573.38	46019.61
573.55	45666.19
573.71	46396.44
573.87	45874.50
574.03	45778.54
574.20	46328.56
574.36	45603.00
574.52	46005.57
574.68	45605.34
574.84	45823.01
575.01	45907.27
575.17	46277.07
575.33	46038.34
575.49	45544.48
575.65	46103.87
575.82	45858.12
575.98	45895.56
576.14	46005.57
576.30	45670.87
576.46	45818.33
576.62	45815.99
576.79	46155.36
576.95	45771.52
577.11	45935.35
577.27	45937.69
577.43	46354.31
577.59	45869.82
577.75	46174.09
577.92	45151.27
578.08	46003.23
578.24	46014.93
578.40	46066.42
578.56	45942.38
578.72	45844.07
578.88	46117.92
579.04	46199.83
579.21	46426.87
579.37	46017.27
579.53	45867.48
579.69	45748.11
579.85	45757.47
580.01	46178.77
580.17	45914.29
580.33	46333.24
580.49	45986.85
580.65	46190.47
580.82	46270.05
580.98	45956.42
581.14	45930.67
581.30	46321.54
581.46	45607.68
581.62	46429.21
581.78	46024.29
581.94	45921.31
582.10	45972.80
582.26	46143.66
582.42	45942.38
582.58	46419.84
582.74	46333.24
582.90	46225.58
583.06	46220.90
583.22	46007.91
583.38	46099.19
583.54	46094.51
583.70	46085.15
583.86	46522.83
584.02	45853.44
584.18	46447.93
584.34	46464.32
584.50	46483.04
584.66	46431.55
584.82	46387.08
584.98	47007.32
585.14	46380.06
585.30	46237.28
585.46	46204.52
585.62	46625.81
585.78	46155.36
585.94	45741.09
586.10	46553.26
586.26	45605.34
586.42	45993.87
586.58	46593.04
586.74	46403.46
586.90	46195.15
587.06	46300.48
587.22	46234.94
587.38	46061.74
587.54	46295.80
587.70	46623.47
587.86	46431.55
588.02	46209.20
588.18	46316.86
588.34	46007.91
588.49	46859.87
588.65	46253.67
588.81	46155.36
588.97	45975.14
589.13	46817.74
589.29	46607.09
589.45	46866.89
589.61	46501.76
589.77	46550.91
589.93	46181.11
590.08	46614.11
