SpectraSuite Data File
++++++++++++++++++++++++++++++++++++
Date: Fri Oct 25 11:23:23 EDT 2013
User: price-jones
Dark Spectrum Present: No
Reference Spectrum Present: No
Number of Sampled Component Spectra: 1
Spectrometers: USB2+H05261
Integration Time (usec): 100000 (USB2+H05261)
Spectra Averaged: 1 (USB2+H05261)
Boxcar Smoothing: 0 (USB2+H05261)
Correct for Electrical Dark: No (USB2+H05261)
Strobe/Lamp Enabled: No (USB2+H05261)
Correct for Detector Non-linearity: No (USB2+H05261)
Correct for Stray Light: No (USB2+H05261)
Number of Pixels in Processed Spectrum: 2048
>>>>>Begin Processed Spectral Data<<<<<
365.73	234.05
365.92	234.05
366.12	234.05
366.32	166.18
366.52	154.48
366.72	182.56
366.91	154.48
367.11	105.32
367.31	74.90
367.51	147.45
367.70	124.05
367.90	100.64
368.10	128.73
368.30	205.97
368.49	105.32
368.69	149.79
368.89	142.77
369.09	182.56
369.28	187.24
369.48	168.52
369.68	229.37
369.87	189.58
370.07	135.75
370.27	196.60
370.47	327.68
370.66	608.54
370.86	655.35
371.06	667.05
371.25	697.48
371.45	671.73
371.65	662.37
371.84	709.18
372.04	585.13
372.24	741.95
372.44	709.18
372.63	788.76
372.83	720.88
373.03	755.99
373.22	699.82
373.42	763.01
373.62	695.14
373.81	767.70
374.01	711.52
374.21	800.46
374.40	861.32
374.60	844.93
374.79	842.59
374.99	800.46
375.19	875.36
375.38	798.12
375.58	800.46
375.78	833.23
375.97	812.17
376.17	863.66
376.37	945.58
376.56	877.70
376.76	866.00
376.95	795.78
377.15	915.15
377.35	908.13
377.54	898.77
377.74	922.17
377.93	973.66
378.13	816.85
378.33	926.85
378.52	882.38
378.72	926.85
378.91	961.96
379.11	964.30
379.31	854.30
379.50	919.83
379.70	1027.50
379.89	987.71
380.09	1011.11
380.28	1029.84
380.48	994.73
380.68	1025.15
380.87	964.30
381.07	1036.86
381.26	959.62
381.46	1011.11
381.65	1088.35
381.85	1036.86
382.04	1015.79
382.24	1060.26
382.43	978.34
382.63	1102.39
382.83	1205.38
383.02	1125.80
383.22	1048.56
383.41	1067.28
383.61	1062.60
383.80	1128.14
384.00	1179.63
384.19	1174.95
384.39	1069.62
384.58	1151.54
384.78	1226.44
384.97	1240.48
385.17	1158.57
385.36	1130.48
385.56	1198.35
385.75	1165.59
385.95	1174.95
386.14	1193.67
386.34	1172.61
386.53	1210.06
386.72	1163.25
386.92	1327.08
387.11	1221.76
387.31	1270.91
387.50	1263.89
387.70	1242.82
387.89	1228.78
388.09	1282.61
388.28	1341.13
388.48	1235.80
388.67	1329.42
388.86	1273.25
389.06	1313.04
389.25	1235.80
389.45	1317.72
389.64	1392.62
389.84	1336.45
390.03	1423.05
390.22	1343.47
390.42	1387.94
390.61	1359.85
390.81	1385.60
391.00	1448.79
391.19	1411.34
391.39	1467.52
391.58	1521.35
391.78	1460.49
391.97	1373.89
392.16	1469.86
392.36	1472.20
392.55	1519.01
392.75	1486.24
392.94	1582.20
393.13	1544.75
393.33	1481.56
393.52	1626.67
393.71	1610.29
393.91	1619.65
394.10	1568.16
394.29	1678.16
394.49	1537.73
394.68	1645.40
394.88	1643.06
395.07	1682.85
395.26	1701.57
395.46	1657.10
395.65	1650.08
395.84	1764.76
396.04	1760.08
396.23	1746.04
396.42	1776.47
396.62	1750.72
396.81	1748.38
397.00	1783.49
397.19	1799.87
397.39	1823.28
397.58	1806.89
397.77	1853.70
397.97	1863.07
398.16	1823.28
398.35	1916.90
398.55	1919.24
398.74	1959.03
398.93	1914.56
399.12	1959.03
399.32	1984.77
399.51	2078.40
399.70	2017.54
399.90	2022.22
400.09	1980.09
400.28	2012.86
400.47	1994.14
400.67	2033.93
400.86	2125.21
401.05	2080.74
401.24	2129.89
401.44	2120.53
401.63	2239.89
401.82	2134.57
402.01	2113.50
402.21	2253.94
402.40	2214.15
402.59	2314.79
402.78	2141.59
402.97	2223.51
403.17	2277.34
403.36	2277.34
403.55	2305.43
403.74	2307.77
403.93	2303.09
404.13	2242.23
404.32	2326.49
404.51	2431.82
404.70	2394.37
404.89	2487.99
405.09	2471.61
405.28	2509.05
405.47	2574.59
405.66	2516.08
405.85	2600.34
406.05	2490.33
406.24	2588.63
406.43	2537.14
406.62	2567.57
406.81	2576.93
407.00	2588.63
407.20	2640.12
407.39	2560.55
407.58	2803.96
407.77	2689.28
407.96	2839.07
408.15	2764.17
408.34	2726.72
408.54	2731.41
408.73	2764.17
408.92	2860.13
409.11	2799.28
409.30	2818.00
409.49	2913.97
409.68	3019.29
409.87	2946.73
410.07	2972.48
410.26	3021.63
410.45	2902.26
410.64	3000.57
410.83	3033.33
411.02	3103.55
411.21	3133.98
411.40	3218.24
411.59	3197.17
411.78	3218.24
411.98	3274.41
412.17	3265.05
412.36	3346.97
412.55	3400.80
412.74	3375.05
412.93	3297.81
413.12	3466.33
413.31	3686.34
413.50	3599.74
413.69	3569.32
413.88	3602.08
414.07	3597.40
414.26	3669.96
414.45	3716.77
414.64	3606.77
414.83	3768.26
415.02	3831.46
415.22	3887.63
415.41	3922.74
415.60	4018.70
415.79	3960.19
415.98	4112.32
416.17	4042.11
416.36	4067.85
416.55	4077.21
416.74	4079.55
416.93	3992.95
417.12	4149.77
417.31	4236.37
417.50	4315.95
417.69	4163.81
417.88	4318.29
418.07	4369.78
418.26	4325.31
418.45	4332.33
418.64	4503.19
418.83	4503.19
419.02	4416.59
419.21	4465.74
419.39	4617.88
419.58	4674.05
419.77	4561.70
419.96	4559.36
420.15	4533.62
420.34	4674.05
420.53	4664.69
420.72	4608.51
420.91	4631.92
421.10	4779.37
421.29	4973.64
421.48	4777.03
421.67	4826.18
421.86	4739.58
422.05	4901.08
422.24	4830.87
422.43	5018.11
422.61	4840.23
422.80	4947.89
422.99	5011.09
423.18	4943.21
423.37	4992.36
423.56	5074.28
423.75	4973.64
423.94	4751.29
424.13	4660.01
424.32	4842.57
424.50	5008.75
424.69	4994.70
424.88	4975.98
425.07	4987.68
425.26	5041.51
425.45	4898.74
425.64	4945.55
425.83	4964.28
426.01	5088.32
426.20	5088.32
426.39	4929.17
426.58	4990.02
426.77	5015.77
426.96	5123.43
427.15	5191.31
427.33	5207.69
427.52	5284.93
427.71	5298.97
427.90	5282.59
428.09	5261.52
428.28	5423.02
428.46	5502.60
428.65	5298.97
428.84	5624.31
429.03	5563.45
429.22	5425.36
429.40	5481.53
429.59	5652.39
429.78	5430.04
429.97	5305.99
430.16	5504.94
430.34	5631.33
430.53	5628.99
430.72	5603.24
430.91	5659.42
431.10	5680.48
431.28	5755.38
431.47	5872.40
431.66	5870.06
431.85	5809.21
432.03	5977.73
432.22	5975.39
432.41	6026.88
432.60	5984.75
432.79	5874.74
432.97	6083.05
433.16	6188.38
433.35	5973.05
433.54	6029.22
433.72	6291.36
433.91	6150.93
434.10	6047.94
434.28	6193.06
434.47	6214.12
434.66	6296.04
434.85	6342.85
435.03	6436.47
435.22	6448.18
435.41	6581.59
435.59	6459.88
435.78	6548.82
435.97	6565.20
436.16	6546.48
436.34	6436.47
436.53	6532.44
436.72	6523.07
436.90	6483.28
437.09	6885.86
437.28	6565.20
437.46	6693.93
437.65	6576.91
437.84	6810.96
438.02	6715.00
438.21	6733.72
438.40	6647.12
438.58	7098.84
438.77	6920.96
438.96	7021.61
439.14	7218.21
439.33	7234.60
439.52	7131.61
439.70	7241.62
439.89	7372.69
440.08	7440.56
440.26	7456.95
440.45	7405.46
440.63	7559.93
440.82	7459.29
441.01	7520.14
441.19	7714.41
441.38	7840.79
441.57	7758.88
441.75	8035.06
441.94	8013.99
442.12	8032.72
442.31	8107.62
442.50	8287.84
442.68	8175.49
442.87	8084.21
443.05	8126.34
443.24	8423.59
443.43	8039.74
443.61	8273.79
443.80	8575.72
443.98	8222.30
444.17	7976.55
444.35	8133.36
444.54	8451.67
444.73	8390.82
444.91	8416.57
445.10	8498.49
445.28	8374.44
445.47	8542.96
445.65	8341.67
445.84	8402.52
446.02	8573.38
446.21	8500.83
446.39	8606.15
446.58	8667.00
446.77	8421.25
446.95	8442.31
447.14	8449.33
447.32	8636.58
447.51	8638.92
447.69	8470.40
447.88	8645.94
448.06	8542.96
448.25	8564.02
448.43	8837.86
448.62	8613.17
448.80	8718.50
448.99	8889.35
449.17	8795.73
449.36	8627.21
449.54	9095.32
449.73	8926.80
449.91	9090.64
450.10	9207.67
450.28	9174.90
450.46	9071.92
450.65	9165.54
450.83	9118.73
451.02	9156.18
451.20	9100.00
451.39	9207.67
451.57	9165.54
451.76	9121.07
451.94	9210.01
452.13	9434.70
452.31	9390.23
452.49	9235.75
452.68	9352.78
452.86	9502.58
453.05	9579.81
453.23	9579.81
453.42	9547.05
453.60	9469.81
453.78	9720.24
453.97	9591.52
454.15	9397.25
454.34	9628.96
454.52	9900.47
454.70	9696.84
454.89	9764.72
455.07	9745.99
455.26	9888.76
455.44	10017.49
455.62	10092.39
455.81	10260.91
455.99	10101.75
456.17	10132.18
456.36	10218.78
456.54	10352.19
456.73	10441.13
456.91	10469.22
457.09	10375.59
457.28	10642.42
457.46	10370.91
457.64	10682.20
457.83	10642.42
458.01	10527.73
458.19	10841.36
458.38	10579.22
458.56	10815.62
458.74	10494.96
458.93	10736.04
459.11	10927.96
459.29	10820.30
459.48	10953.71
459.66	10974.77
459.84	10918.60
460.03	11288.40
460.21	11147.97
460.39	11211.17
460.57	11274.36
460.76	11487.35
460.94	11274.36
461.12	11152.65
461.31	11325.85
461.49	11314.15
461.67	11274.36
461.85	11604.38
462.04	11513.10
462.22	11770.55
462.40	11744.81
462.59	11716.72
462.77	11653.53
462.95	11637.14
463.13	11903.96
463.32	11796.30
463.50	11999.93
463.68	11810.34
463.86	11955.46
464.05	11840.77
464.23	11955.46
464.41	12011.63
464.59	11700.34
464.78	12271.43
464.96	12030.35
465.14	12074.82
465.32	11779.92
465.50	11920.35
465.69	12348.67
465.87	12217.60
466.05	12126.32
466.23	12159.08
466.41	12262.07
466.60	12769.96
466.78	12468.03
466.96	12262.07
467.14	12327.60
467.32	12397.82
467.51	12634.21
467.69	12145.04
467.87	12510.16
468.05	12879.97
468.23	12456.33
468.41	12814.43
468.60	12767.62
468.78	12849.54
468.96	12491.44
469.14	12994.65
469.32	13027.42
469.50	12732.51
469.69	13090.62
469.87	13245.09
470.05	13205.30
470.23	13308.29
470.41	13240.41
470.59	13671.07
470.77	13261.48
470.95	13270.84
471.14	13654.69
471.32	13193.60
471.50	13703.84
471.68	13502.55
471.86	13865.33
472.04	13540.00
472.22	14272.59
472.40	13968.32
472.58	13994.06
472.77	14092.37
472.95	14345.14
473.13	14888.15
473.31	14398.98
473.49	14317.06
473.67	14132.15
473.85	14651.75
474.03	14789.85
474.21	14640.05
474.39	14958.36
474.57	15007.52
474.75	15049.64
474.93	15161.99
475.12	15143.27
475.30	15229.87
475.48	15363.28
475.66	15147.95
475.84	14956.02
476.02	15611.37
476.20	15377.32
476.38	15824.36
476.56	16294.81
476.74	15978.84
476.92	16240.98
477.10	16166.08
477.28	16250.34
477.46	16407.16
477.64	16526.52
477.82	16840.15
478.00	17050.80
478.18	16737.17
478.36	16966.54
478.54	17542.32
478.72	17436.99
478.90	17394.86
479.08	17610.19
479.26	18113.41
479.44	17900.42
479.62	17984.68
479.80	18295.97
479.98	18377.89
480.16	18574.49
480.34	18483.21
480.52	18923.23
480.70	18649.39
480.88	18345.12
481.06	18993.45
481.24	18953.66
481.41	19807.95
481.59	19648.80
481.77	19651.14
481.95	19358.57
482.13	19688.59
482.31	19704.97
482.49	20500.75
482.67	20407.13
482.85	20847.15
483.03	20929.07
483.21	20957.16
483.39	21149.08
483.57	21144.40
483.74	21055.46
483.92	21378.45
484.10	21331.64
484.28	21881.67
484.46	22302.96
484.64	22593.19
484.82	21977.63
485.00	22312.33
485.18	22696.17
485.35	23098.75
485.53	22836.61
485.71	23094.07
485.89	23433.44
486.07	23440.47
486.25	23569.19
486.43	23999.85
486.61	24182.42
486.78	24093.47
486.96	24889.26
487.14	24805.00
487.32	24840.11
487.50	25102.25
487.68	25245.02
487.85	25287.15
488.03	25790.36
488.21	25942.50
488.39	26050.16
488.57	26424.65
488.75	26576.78
488.92	26813.18
489.10	26635.30
489.28	27126.81
489.46	27372.57
489.64	27115.11
489.81	27779.82
489.99	27737.69
490.17	28011.53
490.35	28699.65
490.53	28304.10
490.70	28446.87
490.88	28486.66
491.06	29024.98
491.24	29123.29
491.41	29106.90
491.59	29333.93
491.77	29563.31
491.95	30192.91
492.13	29830.13
492.30	30160.14
492.48	30237.38
492.66	30354.41
492.84	30721.87
493.01	31065.93
493.19	30740.60
493.37	31440.42
493.54	31587.87
493.72	31786.82
493.90	31740.00
494.08	31852.35
494.25	31997.46
494.43	32416.42
494.61	32261.94
494.79	32744.09
494.96	32666.86
495.14	33067.09
495.32	33572.64
495.49	33890.96
495.67	33406.47
495.85	33773.93
496.02	34164.80
496.20	34230.33
496.38	34265.44
496.55	34380.13
496.73	35105.70
496.91	35248.47
497.09	35168.89
497.26	35482.52
497.44	35379.54
497.62	35704.87
497.79	36278.30
497.97	35409.96
498.14	36268.94
498.32	36465.55
498.50	37001.53
498.67	37120.90
498.85	36830.67
499.03	36884.50
499.20	37258.99
499.38	37050.68
499.56	37591.34
499.73	37500.06
499.91	37251.97
500.08	38270.10
500.26	37794.97
500.44	37748.16
500.61	38410.53
500.79	38064.13
500.97	38675.01
501.14	39325.68
501.32	38733.53
501.49	38595.43
501.67	38962.90
501.84	39229.72
502.02	39447.39
502.20	39559.73
502.37	39697.83
502.55	39819.53
502.72	39711.87
502.90	40079.33
503.07	39606.55
503.25	40062.95
503.43	40208.06
503.60	40205.72
503.78	40240.83
503.95	40526.38
504.13	41326.84
504.30	41060.02
504.48	41010.87
504.65	41471.95
504.83	41305.77
505.01	42005.59
505.18	41352.58
505.36	42171.77
505.53	41432.16
505.71	42047.72
505.88	42108.58
506.06	42511.15
506.23	42438.59
506.41	42178.79
506.58	42513.49
506.76	42590.73
506.93	42983.94
507.11	43054.15
507.28	42948.83
507.46	43058.84
507.63	43297.57
507.81	43225.01
507.98	43571.41
508.16	43641.63
508.33	43793.76
508.50	44011.43
508.68	43531.62
508.85	43906.11
509.03	44065.27
509.20	44453.79
509.38	44797.85
509.55	44786.15
509.73	44931.26
509.90	45048.29
510.08	44898.50
510.25	45216.81
510.42	45270.64
510.60	45188.72
510.77	45254.26
510.95	46216.22
511.12	45294.05
511.30	45558.53
511.47	45366.60
511.64	45684.92
511.82	46078.13
511.99	45752.79
512.17	46485.38
512.34	46178.77
512.51	47084.56
512.69	46396.44
512.86	46810.71
513.04	46927.74
513.21	46988.60
513.38	47239.03
513.56	47224.99
513.73	47208.61
513.90	47423.93
514.08	47325.63
514.25	47482.45
514.43	47557.35
514.60	48023.11
514.77	47728.20
514.95	48095.67
515.12	47929.49
515.29	47955.24
515.47	48552.07
515.64	48463.13
515.81	48339.08
515.99	48521.65
516.16	48631.65
516.33	48928.90
516.51	49127.84
516.68	48655.06
516.85	48905.49
517.03	49109.12
517.20	48898.47
517.37	48961.67
517.54	49490.63
517.72	49177.00
517.89	49502.33
518.06	49579.57
518.24	49687.23
518.41	49289.34
518.58	49773.83
518.75	49626.38
518.93	50258.32
519.10	49593.61
519.27	50157.68
519.45	50174.06
519.62	50174.06
519.79	50335.56
519.96	50396.42
520.14	50124.91
520.31	50382.37
520.48	50543.87
520.65	50775.58
520.83	50864.52
521.00	50901.97
521.17	51058.79
521.34	50649.19
521.52	51056.45
521.69	50817.71
521.86	51311.56
522.03	51372.42
522.20	51494.13
522.38	51793.71
522.55	51407.53
522.72	51760.95
522.89	51786.69
523.07	51896.70
523.24	51948.19
523.41	52238.42
523.58	51606.47
523.75	52278.21
523.92	51959.89
524.10	52083.94
524.27	52463.11
524.44	52706.52
524.61	52430.34
524.78	52381.19
524.96	52151.82
525.13	52746.31
525.30	52858.66
525.47	52774.40
525.64	52640.99
525.81	52949.94
525.98	53130.16
526.16	52917.17
526.33	52720.57
526.50	53207.40
526.67	53146.54
526.84	53083.35
527.01	53116.12
527.18	53485.92
527.36	53118.46
527.53	53588.91
527.70	53478.90
527.87	53439.11
528.04	53682.53
528.21	53691.89
528.38	53645.08
528.55	53794.87
528.72	53670.82
528.89	53528.05
529.07	53581.88
529.24	53822.96
529.41	53928.28
529.58	53956.37
529.75	54131.91
529.92	54040.63
530.09	54305.11
530.26	54157.66
530.43	54363.62
530.60	54082.76
530.77	54255.96
530.94	54499.37
531.11	54361.28
531.28	54518.10
531.46	54234.89
531.63	54628.10
531.80	54415.11
531.97	54625.76
532.14	54681.94
532.31	54646.83
532.48	54822.37
532.65	54908.97
532.82	54609.38
532.99	54740.45
533.16	54915.99
533.33	55018.97
533.50	55262.39
533.67	55351.33
533.84	54946.42
534.01	55112.59
534.18	55334.95
534.35	55655.60
534.52	55318.56
534.69	55524.53
534.86	55501.12
535.03	55430.91
535.20	55606.45
535.37	55395.80
535.54	55732.84
535.71	55538.57
535.88	55664.96
536.05	55753.90
536.22	55875.61
536.38	55884.97
536.55	55852.20
536.72	56027.74
536.89	55662.62
537.06	55903.70
537.23	55899.01
537.40	55636.87
537.57	56013.70
537.74	56130.73
537.91	56203.28
538.08	55936.46
538.25	55987.95
538.42	55976.25
538.59	56537.98
538.75	56217.33
538.92	56615.22
539.09	56416.27
539.26	56273.50
539.43	56409.25
539.60	56369.46
539.77	56647.99
539.94	56413.93
540.11	56458.40
540.28	56849.27
540.44	56432.66
540.61	56676.07
540.78	56669.05
540.95	56739.27
541.12	56676.07
541.29	56736.93
541.46	56970.98
541.62	56891.40
541.79	56891.40
541.96	56573.09
542.13	56528.62
542.30	57008.43
542.47	56973.32
542.63	57160.56
542.80	57111.41
542.97	57467.17
543.14	57504.62
543.31	57247.16
543.48	57546.75
543.64	57759.74
543.81	57652.08
543.98	57616.97
544.15	57511.64
544.32	57633.35
544.48	57820.59
544.65	57593.56
544.82	57724.63
544.99	57609.95
545.16	57872.09
545.32	57619.31
545.49	57895.49
545.66	57939.96
545.83	57813.57
546.00	57858.04
546.16	58000.82
546.33	57911.88
546.50	57731.65
546.67	58026.56
546.83	57792.51
547.00	58035.92
547.17	57965.71
547.34	57923.58
547.50	58384.66
547.67	58368.28
547.84	58071.03
548.00	58316.79
548.17	58321.47
548.34	58277.00
548.51	58436.16
548.67	58492.33
548.84	58489.99
549.01	58218.49
549.18	58117.84
549.34	58356.58
549.51	58492.33
549.68	58625.74
549.84	58710.00
550.01	58635.10
550.18	58459.56
550.34	58691.27
550.51	58693.61
550.68	58667.87
550.84	58569.57
551.01	58981.50
551.18	58869.15
551.34	58658.51
551.51	58777.87
551.68	58831.71
551.84	58717.02
552.01	58747.45
552.18	59044.69
552.34	58693.61
552.51	58920.65
552.68	58674.89
552.84	58801.28
553.01	59192.15
553.18	58946.39
553.34	59065.76
553.51	59054.06
553.67	59016.61
553.84	59260.02
554.01	59121.93
554.17	59379.39
554.34	59105.55
554.51	59313.86
554.67	59332.58
554.84	59061.08
555.00	59171.08
555.17	59135.98
555.33	59437.90
555.50	59213.21
555.67	59100.87
555.83	59203.85
556.00	59348.96
556.16	59615.79
556.33	59515.14
556.50	59372.37
556.66	59678.98
556.83	59386.41
556.99	59578.34
557.16	59777.28
557.32	59767.92
557.49	59756.22
557.65	59618.13
557.82	59664.94
557.98	59463.65
558.15	59620.47
558.32	59599.40
558.48	59480.03
558.65	59704.73
558.81	59618.13
558.98	59604.08
559.14	59964.52
559.31	59966.87
559.47	60081.55
559.64	59908.35
559.80	59826.43
559.97	59945.80
560.13	59861.54
560.30	60011.34
560.46	60051.12
560.63	60025.38
560.79	60006.65
560.96	59980.91
561.12	60060.49
561.29	59824.09
561.45	60170.49
561.61	60001.97
561.78	59950.48
561.94	60011.34
562.11	60299.22
562.27	60083.89
562.44	60179.85
562.60	60280.50
562.77	60420.93
562.93	60046.44
563.10	60315.61
563.26	60097.94
563.42	60341.35
563.59	60233.69
563.75	60177.51
563.92	60406.89
564.08	60299.22
564.24	60399.86
564.41	60339.01
564.57	60381.14
564.74	60458.38
564.90	60474.76
565.07	60303.90
565.23	60427.95
565.39	60313.26
565.56	60516.89
565.72	60343.69
565.88	60411.57
566.05	60285.18
566.21	60552.00
566.38	60364.76
566.54	60654.98
566.70	60437.31
566.87	60591.79
567.03	60519.23
567.19	60687.75
567.36	60334.33
567.52	60544.98
567.68	60860.95
567.85	60734.56
568.01	60690.09
568.17	60563.70
568.34	60701.79
568.50	60615.19
568.66	60617.53
568.83	60669.03
568.99	60530.93
569.15	60584.77
569.32	60638.60
569.48	60420.93
569.64	60851.59
569.81	60570.72
569.97	60582.43
570.13	60767.33
570.30	60610.51
570.46	60736.90
570.62	60828.18
570.78	60860.95
570.95	60563.70
571.11	60905.42
571.27	60818.82
571.43	60718.18
571.60	60947.55
571.76	60654.98
571.92	60975.64
572.09	61052.87
572.25	60729.88
572.41	60692.43
572.57	60837.54
572.74	61010.74
572.90	60776.69
573.06	60776.69
573.22	60762.65
573.38	60622.22
573.55	60942.87
573.71	60999.04
573.87	60910.10
574.03	60769.67
574.20	61013.08
574.36	60797.76
574.52	60903.08
574.68	60907.76
574.84	61120.75
575.01	60970.96
575.17	61050.53
575.33	60811.80
575.49	60626.90
575.65	60977.98
575.82	60961.59
575.98	60884.36
576.14	61176.92
576.30	61153.52
576.46	61020.11
576.62	60940.53
576.79	61097.34
576.95	60949.89
577.11	61029.47
577.27	61073.94
577.43	61045.85
577.59	60800.10
577.75	60764.99
577.92	60889.04
578.08	61043.51
578.24	61003.72
578.40	61137.13
578.56	61212.03
578.72	61050.53
578.88	61359.48
579.04	61298.63
579.21	61179.26
579.37	61249.48
579.53	61375.87
579.69	61050.53
579.85	61095.00
580.01	61027.13
580.17	60975.64
580.33	61066.92
580.49	61258.84
580.65	61134.79
580.82	61099.68
580.98	60914.78
581.14	60924.14
581.30	61106.71
581.46	61127.77
581.62	61104.37
581.78	60886.70
581.94	61401.61
582.10	61024.79
582.26	61282.25
582.42	61106.71
582.58	61205.01
582.74	61216.71
582.90	61050.53
583.06	61120.75
583.22	61169.90
583.38	60996.70
583.54	61293.95
583.70	61401.61
583.86	61193.31
584.02	61102.03
584.18	61251.82
584.34	61230.75
584.50	61027.13
584.66	61219.05
584.82	60975.64
584.98	61160.54
585.14	61176.92
585.30	61155.86
585.46	61095.00
585.62	61197.99
585.78	61202.67
585.94	61092.66
586.10	61268.20
586.26	61137.13
586.42	61298.63
586.58	61284.59
586.74	61151.18
586.90	61228.41
587.06	61188.63
587.22	61310.33
587.38	61176.92
587.54	61469.49
587.70	61380.55
587.86	61312.67
588.02	61247.14
588.18	61448.42
588.34	61104.37
