SpectraSuite Data File
++++++++++++++++++++++++++++++++++++
Date: Fri Oct 25 10:44:02 EDT 2013
User: price-jones
Dark Spectrum Present: No
Reference Spectrum Present: No
Number of Sampled Component Spectra: 1
Spectrometers: USB2+H05261
Integration Time (usec): 100000 (USB2+H05261)
Spectra Averaged: 1 (USB2+H05261)
Boxcar Smoothing: 0 (USB2+H05261)
Correct for Electrical Dark: No (USB2+H05261)
Strobe/Lamp Enabled: No (USB2+H05261)
Correct for Detector Non-linearity: No (USB2+H05261)
Correct for Stray Light: No (USB2+H05261)
Number of Pixels in Processed Spectrum: 2048
>>>>>Begin Processed Spectral Data<<<<<
365.73	51.49
365.92	51.49
366.12	51.49
366.32	42.13
366.52	16.38
366.72	60.85
366.91	30.43
367.11	7.02
367.31	0.00
367.51	18.72
367.70	0.00
367.90	14.04
368.10	28.09
368.30	9.36
368.49	11.70
368.69	100.64
368.89	21.06
369.09	2.34
369.28	30.43
369.48	0.00
369.68	72.56
369.87	39.79
370.07	112.35
370.27	152.13
370.47	210.65
370.66	372.15
370.86	367.46
371.06	472.79
371.25	440.02
371.45	383.85
371.65	552.37
371.84	468.11
372.04	444.70
372.24	526.62
372.44	475.13
372.63	557.05
372.83	571.09
373.03	514.92
373.22	540.66
373.42	475.13
373.62	493.85
373.81	528.96
374.01	594.50
374.21	557.05
374.40	568.75
374.60	608.54
374.79	594.50
374.99	535.98
375.19	493.85
375.38	594.50
375.58	575.77
375.78	571.09
375.97	608.54
376.17	601.52
376.37	631.94
376.56	622.58
376.76	622.58
376.95	627.26
377.15	732.59
377.35	592.16
377.54	725.57
377.74	615.56
377.93	662.37
378.13	697.48
378.33	660.03
378.52	723.23
378.72	746.63
378.91	744.29
379.11	683.44
379.31	655.35
379.50	653.01
379.70	718.54
379.89	688.12
380.09	826.21
380.28	819.19
380.48	653.01
380.68	657.69
380.87	727.91
381.07	777.06
381.26	702.16
381.46	688.12
381.65	791.10
381.85	741.95
382.04	676.41
382.24	685.78
382.43	730.25
382.63	760.67
382.83	711.52
383.02	706.84
383.22	765.36
383.41	760.67
383.61	770.04
383.80	826.21
384.00	746.63
384.19	816.85
384.39	833.23
384.58	835.57
384.78	812.17
384.97	823.87
385.17	849.61
385.36	917.49
385.56	795.78
385.75	772.38
385.95	819.19
386.14	891.74
386.34	812.17
386.53	840.25
386.72	877.70
386.92	905.79
387.11	910.47
387.31	933.87
387.50	844.93
387.70	880.04
387.89	877.70
388.09	889.40
388.28	898.77
388.48	954.94
388.67	973.66
388.86	875.36
389.06	945.58
389.25	1046.22
389.45	1034.52
389.64	1039.20
389.84	1090.69
390.03	1013.45
390.22	990.05
390.42	959.62
390.61	978.34
390.81	1074.31
391.00	961.96
391.19	1090.69
391.39	1027.50
391.58	1135.16
391.78	1060.26
391.97	1053.24
392.16	1067.28
392.36	1086.01
392.55	964.30
392.75	1020.47
392.94	1055.58
393.13	992.39
393.33	1020.47
393.52	1039.20
393.71	1074.31
393.91	1142.18
394.10	1111.75
394.29	1172.61
394.49	1188.99
394.68	1198.35
394.88	1242.82
395.07	1280.27
395.26	1221.76
395.46	1324.74
395.65	1296.66
395.84	1348.15
396.04	1268.57
396.23	1233.46
396.42	1165.59
396.62	1167.93
396.81	1261.55
397.00	1245.16
397.19	1235.80
397.39	1282.61
397.58	1488.58
397.77	1474.54
397.97	1488.58
398.16	1526.03
398.35	1444.11
398.55	1547.09
398.74	1565.82
398.93	1706.25
399.12	1551.78
399.32	1624.33
399.51	1633.69
399.70	1673.48
399.90	1650.08
400.09	1603.27
400.28	1673.48
400.47	1778.81
400.67	1692.21
400.86	1750.72
401.05	1729.66
401.24	1781.15
401.44	1771.79
401.63	1839.66
401.82	1673.48
402.01	1860.73
402.21	1802.21
402.40	1778.81
402.59	1849.02
402.78	1837.32
402.97	1802.21
403.17	1823.28
403.36	1816.26
403.55	1909.88
403.74	1937.96
403.93	1870.09
404.13	1961.37
404.32	1804.55
404.51	1956.69
404.70	1916.90
404.89	2036.27
405.09	2024.56
405.28	2157.97
405.47	1996.48
405.66	2019.88
405.85	1970.73
406.05	2090.10
406.24	2045.63
406.43	2094.78
406.62	2139.25
406.81	2249.25
407.00	2202.44
407.20	2167.34
407.39	2066.69
407.58	2186.06
407.77	2106.48
407.96	2211.81
408.15	2303.09
408.34	2394.37
408.54	2317.13
408.73	2382.67
408.92	2366.28
409.11	2380.32
409.30	2466.92
409.49	2258.62
409.68	2321.81
409.87	2319.47
410.07	2415.43
410.26	2413.09
410.45	2368.62
410.64	2593.31
410.83	2548.84
411.02	2553.52
411.21	2597.99
411.40	2679.91
411.59	2738.43
411.78	2597.99
411.98	2738.43
412.17	2895.24
412.36	2787.58
412.55	2766.51
412.74	2752.47
412.93	2693.96
413.12	2789.92
413.31	3009.93
413.50	3021.63
413.69	2958.44
413.88	2979.50
414.07	2871.84
414.26	3148.02
414.45	3185.47
414.64	3000.57
414.83	3295.47
415.02	3180.79
415.22	3187.81
415.41	3220.58
415.60	3169.09
415.79	3246.32
415.98	3370.37
416.17	3351.65
416.36	3400.80
416.55	3393.78
416.74	3412.50
416.93	3239.30
417.12	3463.99
417.31	3346.97
417.50	3377.39
417.69	3562.30
417.88	3534.21
418.07	3559.95
418.26	3562.30
418.45	3529.53
418.64	3805.71
418.83	3716.77
419.02	3538.89
419.21	3719.11
419.39	3686.34
419.58	3693.37
419.77	3749.54
419.96	3733.15
420.15	3873.59
420.34	3864.22
420.53	3962.53
420.72	4016.36
420.91	3777.62
421.10	3957.85
421.29	3901.67
421.48	3967.21
421.67	4152.11
421.86	3866.56
422.05	4086.58
422.24	3929.76
422.43	3983.59
422.61	4004.66
422.80	3925.08
422.99	3946.14
423.18	4081.89
423.37	4074.87
423.56	4077.21
423.75	4156.79
423.94	4159.13
424.13	3775.28
424.32	3957.85
424.50	4105.30
424.69	4131.05
424.88	4269.14
425.07	4121.68
425.26	4067.85
425.45	4007.00
425.64	4117.00
425.83	3962.53
426.01	4325.31
426.20	4119.34
426.39	4271.48
426.58	3936.78
426.77	4070.19
426.96	4166.15
427.15	4091.26
427.33	4219.99
427.52	4100.62
427.71	4248.07
427.90	4276.16
428.09	4308.93
428.28	4365.10
428.46	4196.58
428.65	4273.82
428.84	4418.93
429.03	4355.74
429.22	4372.12
429.40	4212.96
429.59	4311.27
429.78	4124.02
429.97	4028.06
430.16	4002.32
430.34	4217.65
430.53	4278.50
430.72	4449.36
430.91	4409.57
431.10	4329.99
431.28	4727.88
431.47	4802.78
431.66	4767.67
431.85	4713.84
432.03	4716.18
432.22	4882.36
432.41	4873.00
432.60	4931.51
432.79	4905.76
432.97	5076.62
433.16	5069.60
433.35	4851.93
433.54	4807.46
433.72	4791.08
433.91	4821.50
434.10	4830.87
434.28	4985.34
434.47	5062.58
434.66	5132.79
434.85	4957.25
435.03	5294.29
435.22	5109.39
435.41	5245.14
435.59	5170.24
435.78	5310.68
435.97	5341.10
436.16	5474.51
436.34	5376.21
436.53	5247.48
436.72	5423.02
436.90	5406.64
437.09	5584.52
437.28	5046.20
437.46	5432.38
437.65	5366.85
437.84	5317.70
438.02	5261.52
438.21	5273.23
438.40	5280.25
438.58	5460.47
438.77	5518.98
438.96	5582.18
439.14	5844.32
439.33	5975.39
439.52	5795.17
439.70	5607.92
439.89	5919.21
440.08	5963.68
440.26	5944.96
440.45	5909.85
440.63	6134.54
440.82	6118.16
441.01	6150.93
441.19	6228.17
441.38	6274.98
441.57	6368.60
441.75	6293.70
441.94	6469.24
442.12	6375.62
442.31	6506.69
442.50	6499.67
442.68	6480.94
442.87	6480.94
443.05	6427.11
443.24	6827.34
443.43	6532.44
443.61	6733.72
443.80	6558.18
443.98	6642.44
444.17	6478.60
444.35	6796.92
444.54	6785.21
444.73	6843.73
444.91	6778.19
445.10	6619.04
445.28	6787.55
445.47	6607.33
445.65	6750.10
445.84	6619.04
446.02	7014.59
446.21	6944.37
446.39	6635.42
446.58	6913.94
446.77	6953.73
446.95	6946.71
447.14	7030.97
447.32	6942.03
447.51	6839.05
447.69	6700.95
447.88	6991.18
448.06	6846.07
448.25	6909.26
448.43	7108.21
448.62	6956.07
448.80	7033.31
448.99	7176.08
449.17	7192.47
449.36	7115.23
449.54	7248.64
449.73	7337.58
449.91	7344.60
450.10	7300.13
450.28	7552.91
450.46	7501.42
450.65	7330.56
450.83	7588.02
451.02	7302.47
451.20	7428.86
451.39	7578.65
451.57	7571.63
451.76	7463.97
451.94	7541.21
452.13	7545.89
452.31	7419.50
452.49	7236.94
452.68	7536.52
452.86	7454.61
453.05	7346.94
453.23	7529.50
453.42	7506.10
453.60	7485.03
453.78	7789.30
453.97	7470.99
454.15	7604.40
454.34	7618.44
454.52	7721.43
454.70	7915.69
454.89	7892.29
455.07	7815.05
455.26	8021.02
455.44	8028.04
455.62	8053.78
455.81	8088.89
455.99	8042.08
456.17	8287.84
456.36	8159.11
456.54	8217.62
456.73	8318.26
456.91	8386.14
457.09	8318.26
457.28	8601.47
457.46	8285.50
457.64	8634.24
457.83	8224.64
458.01	8322.94
458.19	8599.13
458.38	8533.59
458.56	8552.32
458.74	8416.57
458.93	8507.85
459.11	8510.19
459.29	8709.13
459.48	8765.31
459.66	8573.38
459.84	8652.96
460.03	8638.92
460.21	8697.43
460.39	8910.42
460.57	8692.75
460.76	8819.14
460.94	9008.72
461.12	8933.82
461.31	8849.57
461.49	9001.70
461.67	8936.17
461.85	9287.25
462.04	9104.68
462.22	9535.34
462.40	9146.81
462.59	9301.29
462.77	9132.77
462.95	9455.76
463.13	9350.44
463.32	9404.27
463.50	9298.95
463.68	9259.16
463.86	9404.27
464.05	9085.96
464.23	9252.14
464.41	9495.55
464.59	9317.67
464.78	9619.60
464.96	9327.03
465.14	9275.54
465.32	9575.13
465.50	9699.18
465.69	9643.01
465.87	9465.13
466.05	9659.39
466.23	9469.81
466.41	9788.12
466.60	9668.75
466.78	9364.48
466.96	9547.05
467.14	9654.71
467.32	9724.93
467.51	9806.84
467.69	9631.30
467.87	9741.31
468.05	9921.53
468.23	9661.73
468.41	9811.53
468.60	9856.00
468.78	9745.99
468.96	9745.99
469.14	10162.61
469.32	9989.41
469.50	9652.37
469.69	10071.33
469.87	10050.26
470.05	10019.83
470.23	10178.99
470.41	10090.05
470.59	10293.68
470.77	10162.61
470.95	10368.57
471.14	10544.11
471.32	10333.47
471.50	10665.82
471.68	10684.55
471.86	10871.79
472.04	10841.36
472.22	11005.20
472.40	10642.42
472.58	10738.38
472.77	10747.74
472.95	10904.56
473.13	11323.51
473.31	10668.16
473.49	10956.05
473.67	10979.45
473.85	11000.52
474.03	11288.40
474.21	11082.44
474.39	11454.58
474.57	11353.94
474.75	11620.76
474.93	11700.34
475.12	11606.72
475.30	11833.75
475.48	11496.71
475.66	11669.91
475.84	11646.51
476.02	11660.55
476.20	11728.42
476.38	12020.99
476.56	12292.49
476.74	12369.73
476.92	12245.68
477.10	12381.43
477.28	12552.29
477.46	12531.23
477.64	12589.74
477.82	12741.88
478.00	13004.02
478.18	12987.63
478.36	12912.74
478.54	12952.52
478.72	13336.37
478.90	13369.14
479.08	13385.52
479.26	13378.50
479.44	13605.53
479.62	13802.14
479.80	13764.69
479.98	13769.37
480.16	14237.48
480.34	14178.97
480.52	14434.08
480.70	14052.58
480.88	13958.96
481.06	14235.14
481.24	14644.73
481.41	14618.99
481.59	15016.88
481.77	15124.54
481.95	14846.02
482.13	14899.85
482.31	15000.49
482.49	15674.57
482.67	15257.95
482.85	15475.62
483.03	15351.57
483.21	15859.47
483.39	15936.71
483.57	15917.98
483.74	16145.02
483.92	15978.84
484.10	16039.69
484.28	16435.24
484.46	16491.41
484.64	16996.97
484.82	16540.57
485.00	16470.35
485.18	16882.28
485.35	16840.15
485.53	16746.53
485.71	16624.83
485.89	16966.54
486.07	16926.75
486.25	17308.26
486.43	17071.87
486.61	17970.63
486.78	17729.56
486.96	17919.14
487.14	18192.98
487.32	18616.62
487.50	18555.77
487.68	18640.03
487.85	18874.08
488.03	19131.54
488.21	19349.21
488.39	19339.85
488.57	19293.04
488.75	19405.38
488.92	19641.78
489.10	20201.16
489.28	20149.67
489.46	20299.47
489.64	20379.04
489.81	20805.02
489.99	20720.76
490.17	20957.16
490.35	20996.95
490.53	21067.16
490.70	21404.20
490.88	21266.11
491.06	21727.19
491.24	21612.51
491.41	21551.65
491.59	21715.49
491.77	21308.24
491.95	21635.91
492.13	22216.36
492.30	22211.68
492.48	22256.15
492.66	22326.37
492.84	22527.66
493.01	22696.17
493.19	22735.96
493.37	23068.32
493.54	22951.29
493.72	23140.88
493.90	23374.93
494.08	23534.09
494.25	23957.72
494.43	23871.12
494.61	24102.84
494.79	24226.89
494.96	24180.07
495.14	24004.53
495.32	24472.64
495.49	24374.34
495.67	24503.07
495.85	24802.66
496.02	24805.00
496.20	25642.91
496.38	25380.77
496.55	25345.66
496.73	25912.07
496.91	25797.38
497.09	25869.94
497.26	25951.86
497.44	25816.11
497.62	25872.28
497.79	25916.75
497.97	25942.50
498.14	26316.98
498.32	26377.84
498.50	26356.77
498.67	26892.76
498.85	26822.54
499.03	26822.54
499.20	27140.85
499.38	27068.30
499.56	27187.66
499.73	27014.46
499.91	27370.22
500.08	27316.39
500.26	26965.31
500.44	27402.99
500.61	27372.57
500.79	27159.58
500.97	27496.61
501.14	28184.73
501.32	27721.30
501.49	27742.37
501.67	28088.77
501.84	28404.74
502.02	28364.95
502.20	28435.17
502.37	28807.31
502.55	28524.11
502.72	28664.54
502.90	29060.09
503.07	28980.51
503.25	29017.96
503.43	28851.78
503.60	29001.58
503.78	29235.63
503.95	29027.32
504.13	29392.45
504.30	29364.36
504.48	29729.48
504.65	29933.11
504.83	30029.07
505.01	30366.11
505.18	30066.52
505.36	30637.61
505.53	30527.61
505.71	30953.58
505.88	30902.09
506.06	29942.47
506.23	30501.86
506.41	30141.42
506.58	30455.05
506.76	30817.83
506.93	31236.79
507.11	30946.56
507.28	30850.60
507.46	30342.70
507.63	30827.20
507.81	31019.12
507.98	31180.62
508.16	30923.16
508.33	31583.19
508.50	31510.63
508.68	31751.71
508.85	32327.48
509.03	31845.33
509.20	31728.30
509.38	31962.36
509.55	32240.88
509.73	31868.73
509.90	32203.43
510.08	32123.85
510.25	32313.44
510.42	32444.51
510.60	32917.29
510.77	32638.77
510.95	32861.12
511.12	32840.06
511.30	32802.61
511.47	33228.59
511.64	33340.93
511.82	33153.69
511.99	33174.75
512.17	33530.51
512.34	33317.53
512.51	33450.94
512.69	33663.93
512.86	33565.62
513.04	33834.78
513.21	34082.88
513.38	33371.36
513.56	33848.83
513.73	33722.44
513.90	33741.16
514.08	33574.98
514.25	34370.77
514.43	34129.69
514.60	34089.90
514.77	34316.93
514.95	34508.86
515.12	34174.16
515.29	34176.50
515.47	35110.38
515.64	34824.83
515.81	34595.46
515.99	34689.08
516.16	34621.20
516.33	34251.40
516.51	34583.76
516.68	33736.48
516.85	34288.85
517.03	34415.24
517.20	34625.89
517.37	35147.82
517.54	35419.33
517.72	34932.50
517.89	35101.01
518.06	34532.26
518.24	35002.71
518.41	35344.43
518.58	35742.32
518.75	35585.50
518.93	35711.89
519.10	35674.45
519.27	35821.90
519.45	36491.29
519.62	36095.74
519.79	36172.98
519.96	36437.46
520.14	36376.61
520.31	36226.81
520.48	36629.38
520.65	36467.89
520.83	37022.59
521.00	36968.76
521.17	37071.75
521.34	37043.66
521.52	37092.81
521.69	37141.96
521.86	37247.29
522.03	37186.43
522.20	37083.45
522.38	37275.37
522.55	37104.51
522.72	37425.17
522.89	37195.79
523.07	37696.67
523.24	37589.00
523.41	37759.86
523.58	38274.78
523.75	38101.58
523.92	38007.96
524.10	38466.70
524.27	38333.29
524.44	38361.38
524.61	38906.73
524.78	38412.87
524.96	38146.05
525.13	38478.41
525.30	38768.63
525.47	38738.21
525.64	38864.60
525.81	38579.05
525.98	38211.59
526.16	38244.35
526.33	38094.56
526.50	38536.92
526.67	37851.14
526.84	38293.50
527.01	38337.98
527.18	39033.11
527.36	39206.31
527.53	39222.70
527.70	39414.62
527.87	39201.63
528.04	38775.66
528.21	39414.62
528.38	39519.95
528.55	39969.33
528.72	39772.72
528.89	40046.57
529.07	39714.21
529.24	39569.10
529.41	39718.89
529.58	39555.05
529.75	39538.67
529.92	40048.91
530.09	40414.03
530.26	39896.77
530.43	40156.57
530.60	39641.65
530.77	40226.79
530.94	40254.87
531.11	40437.44
531.28	40404.67
531.46	40687.87
531.63	40645.74
531.80	40252.53
531.97	40498.29
532.14	40133.17
532.31	40191.68
532.48	40498.29
532.65	40856.39
532.82	40535.74
532.99	40680.85
533.16	40769.79
533.33	41027.25
533.50	40928.95
533.67	40561.48
533.84	40818.94
534.01	40392.97
534.18	40926.61
534.35	41579.62
534.52	41076.40
534.69	41572.60
534.86	41200.45
535.03	41284.71
535.20	41804.31
535.37	41577.28
535.54	42171.77
535.71	41677.92
535.88	41904.95
536.05	41053.00
536.22	41935.38
536.38	41830.05
536.55	41855.80
536.72	41525.78
536.89	41163.00
537.06	41876.86
537.23	42223.26
537.40	42167.09
537.57	41806.65
537.74	42106.24
537.91	42487.74
538.08	42017.30
538.25	41811.33
538.42	42246.67
538.59	42096.88
538.75	41940.06
538.92	42010.28
539.09	42492.43
539.26	42181.13
539.43	42267.73
539.60	42557.96
539.77	42445.62
539.94	42117.94
540.11	41942.40
540.28	42454.98
540.44	42263.05
540.61	42115.60
540.78	42344.97
540.95	42167.09
541.12	42326.25
541.29	42801.38
541.46	42590.73
541.62	42497.11
541.79	43187.56
541.96	42653.92
542.13	43023.73
542.30	42712.44
542.47	43143.09
542.63	43398.21
542.80	42897.34
542.97	43086.92
543.14	43398.21
543.31	43714.19
543.48	43650.99
543.64	44341.45
543.81	44311.02
543.98	43718.87
544.15	43732.91
544.32	43821.85
544.48	44137.82
544.65	44016.11
544.82	44013.77
544.99	43707.16
545.16	43543.33
545.32	44121.44
545.49	44287.62
545.66	44708.91
545.83	44655.08
546.00	44671.46
546.16	44205.70
546.33	44053.56
546.50	44182.29
546.67	44711.25
546.83	43985.69
547.00	44076.97
547.17	44133.14
547.34	43950.58
547.50	43840.57
547.67	44816.58
547.84	44388.26
548.00	44795.51
548.17	44680.83
548.34	44472.52
548.51	45027.23
548.67	44865.73
548.84	44542.74
549.01	44463.16
549.18	44608.27
549.34	44683.17
549.51	44980.42
549.68	44760.40
549.84	44942.97
550.01	45263.62
550.18	44973.39
550.34	45420.44
550.51	44800.19
550.68	44823.60
550.84	44521.67
551.01	45158.30
551.18	44968.71
551.34	45076.38
551.51	45034.25
551.68	45488.31
551.84	45291.71
552.01	45071.70
552.18	45460.23
552.34	44823.60
552.51	45043.61
552.68	44889.13
552.84	45717.68
553.01	45109.14
553.18	45553.85
553.34	44879.77
553.51	45170.00
553.67	45626.40
553.84	45312.77
554.01	45270.64
554.17	45406.39
554.34	45764.49
554.51	45787.90
554.67	46017.27
554.84	45713.00
555.00	45581.93
555.17	45457.88
555.33	45612.36
555.50	45586.61
555.67	45303.41
555.83	45720.02
556.00	45450.86
556.16	45947.06
556.33	45546.82
556.50	45422.78
556.66	45500.01
556.83	45382.99
556.99	46263.03
557.16	45855.78
557.32	46178.77
557.49	46230.26
557.65	45827.69
557.82	45879.18
557.98	46134.30
558.15	45837.05
558.32	46260.69
558.48	45867.48
558.65	46012.59
558.81	45750.45
558.98	46080.47
559.14	45509.38
559.31	45467.25
559.47	46007.91
559.64	46094.51
559.80	46068.76
559.97	46314.52
560.13	45741.09
560.30	46092.17
560.46	46223.24
560.63	46099.19
560.79	46307.50
560.96	46483.04
561.12	46550.91
561.29	46003.23
561.45	46164.73
561.61	46403.46
561.78	46024.29
561.94	46604.75
562.11	46005.57
562.27	46230.26
562.44	46059.40
562.60	46412.82
562.77	46337.93
562.93	46335.59
563.10	46534.53
563.26	45918.97
563.42	46752.20
563.59	46307.50
563.75	46131.96
563.92	46869.23
564.08	46244.30
564.24	46866.89
564.41	46623.47
564.57	46298.14
564.74	46059.40
564.90	46602.41
565.07	46546.23
565.23	46501.76
565.39	46370.69
565.56	46382.40
565.72	46190.47
565.88	46129.62
566.05	46770.93
566.21	46440.91
566.38	46635.17
566.54	46651.56
566.70	46979.23
566.87	47143.07
567.03	46817.74
567.19	47054.13
567.36	47140.73
567.52	46541.55
567.68	46808.37
567.85	46438.57
568.01	46873.91
568.17	46389.42
568.34	46768.58
568.50	46726.46
568.66	46845.82
568.83	47056.47
568.99	46358.99
569.15	46789.65
569.32	46646.88
569.48	46394.10
569.64	47154.77
569.81	46663.26
569.97	46925.40
570.13	46483.04
570.30	46394.10
570.46	46431.55
570.62	46010.25
570.78	46213.88
570.95	46199.83
571.11	46555.60
571.27	46658.58
571.43	46319.20
571.60	46789.65
571.76	46574.32
571.92	46810.71
572.09	46864.55
572.25	46461.97
572.41	46450.27
572.57	46717.09
572.74	47388.83
572.90	46653.90
573.06	46880.93
573.22	46429.21
573.38	47311.59
573.55	47089.24
573.71	46731.14
573.87	46864.55
574.03	46667.94
574.20	46651.56
574.36	47203.92
574.52	46677.30
574.68	47210.95
574.84	46546.23
575.01	46649.22
575.17	46899.65
575.33	46761.56
575.49	46525.17
575.65	47250.74
575.82	46902.00
575.98	46845.82
576.14	46728.80
576.30	47114.98
576.46	46806.03
576.62	46649.22
576.79	46864.55
576.95	46525.17
577.11	46979.23
577.27	47154.77
577.43	46909.02
577.59	46955.83
577.75	46532.19
577.92	46490.06
578.08	46230.26
578.24	46258.35
578.40	46642.20
578.56	46761.56
578.72	46911.36
578.88	46848.16
579.04	47161.79
579.21	46930.08
579.37	46791.99
579.53	46775.61
579.69	46754.54
579.85	46803.69
580.01	47208.61
580.17	47016.68
580.33	46761.56
580.49	46368.35
580.65	47033.07
580.82	47082.22
580.98	46883.27
581.14	46637.51
581.30	47091.58
581.46	46958.17
581.62	47192.22
581.78	46525.17
581.94	47210.95
582.10	46808.37
582.26	47262.44
582.42	46770.93
582.58	46712.41
582.74	47040.09
582.90	46749.86
583.06	46885.61
583.22	47264.78
583.38	47241.37
583.54	47107.96
583.70	47316.27
583.86	46906.68
584.02	46873.91
584.18	46782.63
584.34	46829.44
584.50	47117.32
584.66	46490.06
584.82	46817.74
584.98	47250.74
585.14	47538.62
585.30	47168.82
585.46	46876.25
585.62	46623.47
585.78	46822.42
585.94	46534.53
586.10	46834.12
586.26	46476.02
586.42	47086.90
586.58	47313.93
586.74	46787.31
586.90	46934.76
587.06	46747.52
587.22	47082.22
587.38	46796.67
587.54	46904.34
587.70	47295.21
587.86	46965.19
588.02	47178.18
588.18	47040.09
588.34	46841.14
588.49	46703.05
588.65	46333.24
588.81	46663.26
588.97	46761.56
589.13	46543.89
589.29	46902.00
589.45	46808.37
589.61	46717.09
589.77	46735.82
589.93	46890.29
