SpectraSuite Data File
++++++++++++++++++++++++++++++++++++
Date: Fri Oct 25 11:23:16 EDT 2013
User: price-jones
Dark Spectrum Present: No
Reference Spectrum Present: No
Number of Sampled Component Spectra: 1
Spectrometers: USB2+H05261
Integration Time (usec): 100000 (USB2+H05261)
Spectra Averaged: 1 (USB2+H05261)
Boxcar Smoothing: 0 (USB2+H05261)
Correct for Electrical Dark: No (USB2+H05261)
Strobe/Lamp Enabled: No (USB2+H05261)
Correct for Detector Non-linearity: No (USB2+H05261)
Correct for Stray Light: No (USB2+H05261)
Number of Pixels in Processed Spectrum: 2048
>>>>>Begin Processed Spectral Data<<<<<
365.73	266.82
365.92	266.82
366.12	266.82
366.32	126.39
366.52	159.16
366.72	81.92
366.91	105.32
367.11	142.77
367.31	121.71
367.51	142.77
367.70	131.07
367.90	95.96
368.10	100.64
368.30	128.73
368.49	70.22
368.69	168.52
368.89	161.50
369.09	149.79
369.28	173.20
369.48	117.03
369.68	156.82
369.87	220.01
370.07	142.77
370.27	245.76
370.47	362.78
370.66	552.37
370.86	634.29
371.06	629.60
371.25	688.12
371.45	753.65
371.65	676.41
371.84	622.58
372.04	681.10
372.24	660.03
372.44	617.90
372.63	683.44
372.83	655.35
373.03	688.12
373.22	671.73
373.42	765.36
373.62	786.42
373.81	802.80
374.01	753.65
374.21	814.51
374.40	795.78
374.60	851.96
374.79	784.08
374.99	772.38
375.19	819.19
375.38	847.27
375.58	781.74
375.78	882.38
375.97	910.47
376.17	933.87
376.37	898.77
376.56	903.45
376.76	812.17
376.95	875.36
377.15	973.66
377.35	863.66
377.54	917.49
377.74	917.49
377.93	880.04
378.13	898.77
378.33	901.11
378.52	917.49
378.72	938.55
378.91	943.24
379.11	936.21
379.31	980.68
379.50	891.74
379.70	938.55
379.89	980.68
380.09	933.87
380.28	976.00
380.48	1034.52
380.68	1001.75
380.87	926.85
381.07	1151.54
381.26	1067.28
381.46	1043.88
381.65	1022.81
381.85	1036.86
382.04	1118.78
382.24	1050.90
382.43	1041.54
382.63	997.07
382.83	1128.14
383.02	1081.33
383.22	1123.46
383.41	1121.12
383.61	1170.27
383.80	1107.07
384.00	1053.24
384.19	1076.65
384.39	1191.33
384.58	1149.20
384.78	1100.05
384.97	1151.54
385.17	1214.74
385.36	1132.82
385.56	1149.20
385.75	1151.54
385.95	1076.65
386.14	1191.33
386.34	1163.25
386.53	1214.74
386.72	1252.19
386.92	1228.78
387.11	1207.72
387.31	1266.23
387.50	1296.66
387.70	1233.46
387.89	1203.04
388.09	1275.59
388.28	1256.87
388.48	1343.47
388.67	1308.36
388.86	1385.60
389.06	1355.17
389.25	1317.72
389.45	1409.00
389.64	1287.29
389.84	1387.94
390.03	1380.92
390.22	1390.28
390.42	1313.04
390.61	1378.58
390.81	1369.21
391.00	1366.87
391.19	1490.92
391.39	1432.41
391.58	1439.43
391.78	1486.24
391.97	1502.62
392.16	1493.26
392.36	1483.90
392.55	1434.75
392.75	1568.16
392.94	1551.78
393.13	1547.09
393.33	1495.60
393.52	1659.44
393.71	1614.97
393.91	1717.95
394.10	1448.79
394.29	1481.56
394.49	1474.54
394.68	1629.01
394.88	1603.27
395.07	1610.29
395.26	1617.31
395.46	1685.19
395.65	1795.19
395.84	1762.42
396.04	1687.53
396.23	1640.72
396.42	1701.57
396.62	1760.08
396.81	1767.10
397.00	1776.47
397.19	1867.75
397.39	1678.16
397.58	1788.17
397.77	1811.57
397.97	1865.41
398.16	1863.07
398.35	1921.58
398.55	1853.70
398.74	1996.48
398.93	2003.50
399.12	1930.94
399.32	1905.20
399.51	1977.75
399.70	1984.77
399.90	1891.15
400.09	1956.69
400.28	1989.46
400.47	1961.37
400.67	2059.67
400.86	2066.69
401.05	2157.97
401.24	2134.57
401.44	2097.12
401.63	2183.72
401.82	2172.02
402.01	2146.27
402.21	2193.08
402.40	2172.02
402.59	2148.61
402.78	2289.04
402.97	2286.70
403.17	2387.35
403.36	2258.62
403.55	2321.81
403.74	2363.94
403.93	2408.41
404.13	2466.92
404.32	2392.03
404.51	2373.30
404.70	2445.86
404.89	2385.01
405.09	2562.89
405.28	2513.74
405.47	2422.45
405.66	2504.37
405.85	2471.61
406.05	2593.31
406.24	2597.99
406.43	2546.50
406.62	2778.22
406.81	2693.96
407.00	2665.87
407.20	2602.68
407.39	2670.55
407.58	2642.46
407.77	2684.59
407.96	2803.96
408.15	2785.24
408.34	2843.75
408.54	2878.86
408.73	2820.35
408.92	2803.96
409.11	2825.03
409.30	2904.60
409.49	2913.97
409.68	2930.35
409.87	2949.08
410.07	3038.02
410.26	3061.42
410.45	3105.89
410.64	3162.06
410.83	3187.81
411.02	3105.89
411.21	3290.79
411.40	3131.64
411.59	3222.92
411.78	3339.94
411.98	3141.00
412.17	3141.00
412.36	3433.57
412.55	3342.28
412.74	3496.76
412.93	3407.82
413.12	3304.84
413.31	3440.59
413.50	3503.78
413.69	3592.72
413.88	3810.39
414.07	3648.90
414.26	3641.87
414.45	3714.43
414.64	3667.62
414.83	3751.88
415.02	3808.05
415.22	3812.73
415.41	3894.65
415.60	3815.07
415.79	3983.59
415.98	4032.74
416.17	4086.58
416.36	3934.44
416.55	3999.98
416.74	4173.18
416.93	3962.53
417.12	4184.88
417.31	4287.86
417.50	4283.18
417.69	4360.42
417.88	4315.95
418.07	4447.02
418.26	4332.33
418.45	4374.46
418.64	4411.91
418.83	4559.36
419.02	4498.51
419.21	4552.34
419.39	4601.49
419.58	4489.15
419.77	4489.15
419.96	4585.11
420.15	4662.35
420.34	4744.27
420.53	4608.51
420.72	4641.28
420.91	4718.52
421.10	4809.80
421.29	4837.89
421.48	4802.78
421.67	4844.91
421.86	4762.99
422.05	4823.84
422.24	4861.29
422.43	4887.04
422.61	4903.42
422.80	4961.94
422.99	4938.53
423.18	4954.91
423.37	5081.30
423.56	5034.49
423.75	4931.51
423.94	4863.63
424.13	4732.56
424.32	4765.33
424.50	4865.97
424.69	5210.03
424.88	5118.75
425.07	5015.77
425.26	5076.62
425.45	5097.69
425.64	4983.00
425.83	4919.81
426.01	5144.50
426.20	5191.31
426.39	5116.41
426.58	5085.98
426.77	5062.58
426.96	5193.65
427.15	5102.37
427.33	5317.70
427.52	5195.99
427.71	5320.04
427.90	5231.10
428.09	5343.44
428.28	5242.80
428.46	5460.47
428.65	5404.30
428.84	5605.58
429.03	5528.35
429.22	5483.88
429.40	5685.16
429.59	5540.05
429.78	5324.72
429.97	5294.29
430.16	5423.02
430.34	5523.66
430.53	5685.16
430.72	5746.02
430.91	5631.33
431.10	5626.65
431.28	5743.67
431.47	5832.62
431.66	5760.06
431.85	5867.72
432.03	5947.30
432.22	6113.48
432.41	5797.51
432.60	5799.85
432.79	5949.64
432.97	6026.88
433.16	6141.57
433.35	6052.63
433.54	6141.57
433.72	6190.72
433.91	6186.04
434.10	6277.32
434.28	6183.70
434.47	6193.06
434.66	6246.89
434.85	6324.13
435.03	6382.64
435.22	6193.06
435.41	6513.71
435.59	6663.51
435.78	6583.93
435.97	6506.69
436.16	6658.82
436.34	6719.68
436.53	6492.65
436.72	6586.27
436.90	6530.09
437.09	6778.19
437.28	6459.88
437.46	6661.16
437.65	6829.68
437.84	6729.04
438.02	6946.71
438.21	6846.07
438.40	6927.99
438.58	7166.72
438.77	7075.44
438.96	7136.29
439.14	7140.97
439.33	7250.98
439.52	7293.11
439.70	7145.66
439.89	7470.99
440.08	7480.35
440.26	7449.93
440.45	7428.86
440.63	7461.63
440.82	7599.72
441.01	7456.95
441.19	7637.17
441.38	7791.64
441.57	7712.07
441.75	7875.90
441.94	8184.85
442.12	8084.21
442.31	8175.49
442.50	8021.02
442.68	8049.10
442.87	8131.02
443.05	8182.51
443.24	8334.65
443.43	8250.39
443.61	8287.84
443.80	8468.06
443.98	8166.13
444.17	8131.02
444.35	8409.54
444.54	8449.33
444.73	8472.74
444.91	8140.38
445.10	8348.69
445.28	8278.47
445.47	8402.52
445.65	8423.59
445.84	8547.64
446.02	8582.74
446.21	8535.93
446.39	8468.06
446.58	8484.44
446.77	8788.71
446.95	8528.91
447.14	8737.22
447.32	8727.86
447.51	8456.36
447.69	8468.06
447.88	8725.52
448.06	8603.81
448.25	8641.26
448.43	8830.84
448.62	8781.69
448.80	8702.11
448.99	8643.60
449.17	8903.40
449.36	8741.90
449.54	8870.63
449.73	8961.91
449.91	9006.38
450.10	9163.20
450.28	9205.33
450.46	9055.53
450.65	9249.80
450.83	9132.77
451.02	9198.31
451.20	9277.88
451.39	9207.67
451.57	9341.08
451.76	9041.49
451.94	9114.05
452.13	9181.92
452.31	9383.21
452.49	9355.12
452.68	9488.53
452.86	9537.68
453.05	9652.37
453.23	9640.67
453.42	9366.82
453.60	9434.70
453.78	9533.00
453.97	9668.75
454.15	9596.20
454.34	9605.56
454.52	9893.44
454.70	9708.54
454.89	10005.79
455.07	10078.35
455.26	9914.51
455.44	10101.75
455.62	9886.42
455.81	9958.98
455.99	10054.94
456.17	10045.58
456.36	10333.47
456.54	10115.80
456.73	10399.00
456.91	10471.56
457.09	10633.05
457.28	10670.50
457.46	10448.15
457.64	10785.19
457.83	10602.63
458.01	10698.59
458.19	10857.75
458.38	10766.46
458.56	11091.80
458.74	10892.85
458.93	10846.04
459.11	10977.11
459.29	10871.79
459.48	10707.95
459.66	10815.62
459.84	10810.93
460.03	11208.83
460.21	10848.38
460.39	11044.99
460.57	11110.52
460.76	11286.06
460.94	11255.64
461.12	11272.02
461.31	11482.67
461.49	11267.34
461.67	11339.90
461.85	11536.50
462.04	11377.34
462.22	11412.45
462.40	11810.34
462.59	11431.18
462.77	11508.41
462.95	11683.95
463.13	11723.74
463.32	11887.58
463.50	11826.73
463.68	11936.73
463.86	11927.37
464.05	11915.67
464.23	11908.65
464.41	12109.93
464.59	11819.71
464.78	12156.74
464.96	12102.91
465.14	11894.60
465.32	12407.18
465.50	12285.47
465.69	12292.49
465.87	12365.05
466.05	12126.32
466.23	12219.94
466.41	12334.62
466.60	12402.50
466.78	12184.83
466.96	12156.74
467.14	12346.33
467.32	12428.24
467.51	12643.57
467.69	12348.67
467.87	12575.70
468.05	12615.49
468.23	12414.20
468.41	12601.44
468.60	12748.90
468.78	12798.05
468.96	12723.15
469.14	13191.26
469.32	13057.85
469.50	12844.86
469.69	13233.39
469.87	13338.71
470.05	13385.52
470.23	13343.39
470.41	13170.19
470.59	13317.65
470.77	13343.39
470.95	13666.39
471.14	13540.00
471.32	13516.59
471.50	13811.50
471.68	13729.58
471.86	13811.50
472.04	13577.45
472.22	14303.01
472.40	13884.06
472.58	13912.14
472.77	14017.47
472.95	14146.20
473.13	14766.44
473.31	13989.38
473.49	14492.60
473.67	14555.79
473.85	14689.20
474.03	14623.67
474.21	15002.83
474.39	14759.42
474.57	15033.26
474.75	14937.30
474.93	15147.95
475.12	15211.14
475.30	15400.72
475.48	15056.67
475.66	15232.21
475.84	15461.58
476.02	15627.76
476.20	15482.64
476.38	15903.94
476.56	16152.04
476.74	16126.29
476.92	15946.07
477.10	15971.82
477.28	16475.03
477.46	16353.32
477.64	16341.62
477.82	16669.30
478.00	16898.67
478.18	16903.35
478.36	17202.94
478.54	17329.33
478.72	17420.61
478.90	17834.88
479.08	17642.96
479.26	17703.81
479.44	17937.87
479.62	18010.42
479.80	18366.18
479.98	18059.57
480.16	18391.93
480.34	18389.59
480.52	18895.14
480.70	19044.94
480.88	18403.63
481.06	18986.43
481.24	18979.40
481.41	19204.10
481.59	19646.46
481.77	19737.74
481.95	19882.85
482.13	19831.36
482.31	20030.30
482.49	20315.85
482.67	20615.44
482.85	20807.36
483.03	20489.05
483.21	20823.75
483.39	21312.92
483.57	21268.45
483.74	21488.46
483.92	21392.50
484.10	21514.20
484.28	21972.95
484.46	22319.35
484.64	22808.52
484.82	22300.62
485.00	22401.27
485.18	23033.21
485.35	23173.64
485.53	22974.70
485.71	23417.06
485.89	23800.91
486.07	23573.88
486.25	23791.55
486.43	23887.51
486.61	24250.29
486.78	24219.86
486.96	24606.05
487.14	24774.57
487.32	25111.61
487.50	25135.01
487.68	25268.42
487.85	25558.65
488.03	25680.36
488.21	26022.08
488.39	25944.84
488.57	26242.09
488.75	26398.90
488.92	26822.54
489.10	26902.12
489.28	27337.46
489.46	27733.01
489.64	27000.42
489.81	28318.14
489.99	27917.91
490.17	27730.67
490.35	28559.22
490.53	28706.67
490.70	28762.84
490.88	28334.53
491.06	29024.98
491.24	29127.97
491.41	29394.79
491.59	29488.41
491.77	29802.04
491.95	30033.75
492.13	30543.99
492.30	30206.95
492.48	30590.80
492.66	30342.70
492.84	30494.84
493.01	30937.20
493.19	30565.06
493.37	31538.72
493.54	31391.26
493.72	31632.34
493.90	32013.85
494.08	31894.48
494.25	32496.00
494.43	32250.24
494.61	32800.27
494.79	32746.44
494.96	32718.35
495.14	33015.60
495.32	33067.09
495.49	33392.42
495.67	33549.24
495.85	33834.78
496.02	34213.95
496.20	34532.26
496.38	34298.21
496.55	34726.53
496.73	35103.35
496.91	34955.90
497.09	34925.47
497.26	35372.52
497.44	35274.21
497.62	35508.27
497.79	36189.36
497.97	35800.83
498.14	36170.64
498.32	36311.07
498.50	36720.66
498.67	36978.12
498.85	36692.58
499.03	37050.68
499.20	37027.28
499.38	37256.65
499.56	37249.63
499.73	37645.18
499.91	37654.54
500.08	37670.92
500.26	38080.52
500.44	38181.16
500.61	38607.14
500.79	37738.80
500.97	38539.26
501.14	38813.10
501.32	39330.36
501.49	39051.84
501.67	38979.28
501.84	39522.29
502.02	39117.37
502.20	39391.22
502.37	39416.96
502.55	39524.63
502.72	39718.89
502.90	40203.38
503.07	40039.54
503.25	40046.57
503.43	40079.33
503.60	40577.87
503.78	40704.26
503.95	40484.25
504.13	41083.42
504.30	41118.53
504.48	40865.75
504.65	41013.21
504.83	41532.81
505.01	41584.30
505.18	41488.34
505.36	42064.11
505.53	41380.67
505.71	41970.49
505.88	42492.43
506.06	41879.21
506.23	42382.42
506.41	41996.23
506.58	42782.65
506.76	42852.87
506.93	42670.31
507.11	43086.92
507.28	43096.28
507.46	43339.70
507.63	43613.54
507.81	43557.37
507.98	43370.13
508.16	43639.29
508.33	44006.75
508.50	43634.61
508.68	44367.20
508.85	44135.48
509.03	43995.05
509.20	44353.15
509.38	44601.25
509.55	45202.77
509.73	44437.41
509.90	44999.14
510.08	44875.09
510.25	44711.25
510.42	45385.33
510.60	45301.07
510.77	45366.60
510.95	45797.26
511.12	45537.46
511.30	45509.38
511.47	45762.15
511.64	46190.47
511.82	46047.70
511.99	46094.51
512.17	46031.32
512.34	46284.09
512.51	46588.36
512.69	46782.63
512.86	46344.95
513.04	46848.16
513.21	47377.12
513.38	47035.41
513.56	47494.15
513.73	47316.27
513.90	47512.88
514.08	47320.95
514.25	47538.62
514.43	47854.59
514.60	47599.47
514.77	47988.00
514.95	48060.56
515.12	47840.55
515.29	48175.25
515.47	48303.98
515.64	48779.10
515.81	48315.68
515.99	48736.98
516.16	49052.95
516.33	48652.72
516.51	49036.56
516.68	48744.00
516.85	48994.43
517.03	49177.00
517.20	49514.03
517.37	49188.70
517.54	49588.93
517.72	49345.51
517.89	49804.26
518.06	49453.18
518.24	49621.70
518.41	49549.14
518.58	49876.82
518.75	49963.42
518.93	50134.28
519.10	49675.53
519.27	50124.91
519.45	50124.91
519.62	50279.39
519.79	50452.59
519.96	50054.70
520.14	50625.79
520.31	50286.41
520.48	50571.96
520.65	50911.33
520.83	51159.43
521.00	51278.80
521.17	50885.59
521.34	51194.54
521.52	51421.57
521.69	51304.54
521.86	51171.13
522.03	51576.04
522.20	51559.66
522.38	51868.61
522.55	51587.75
522.72	51487.10
522.89	51660.30
523.07	51667.33
523.24	51948.19
523.41	52135.43
523.58	51892.02
523.75	52018.41
523.92	52130.75
524.10	52222.03
524.27	52435.02
524.44	52479.49
524.61	52282.89
524.78	52612.90
524.96	52736.95
525.13	52729.93
525.30	52809.51
525.47	52879.72
525.64	52914.83
525.81	52772.06
525.98	53258.89
526.16	52750.99
526.33	53059.94
526.50	53389.96
526.67	53048.24
526.84	53212.08
527.01	53207.40
527.18	53326.77
527.36	53329.11
527.53	53457.84
527.70	53834.66
527.87	53633.38
528.04	53387.62
528.21	53609.97
528.38	53593.59
528.55	53958.71
528.72	53616.99
528.89	53797.21
529.07	53614.65
529.24	53937.65
529.41	54124.89
529.58	54047.65
529.75	54101.48
529.92	54035.95
530.09	54225.53
530.26	54330.86
530.43	54113.19
530.60	54335.54
530.77	54010.20
530.94	54298.09
531.11	54185.74
531.28	54288.73
531.46	54717.04
531.63	54850.45
531.80	54681.94
531.97	55068.12
532.14	55051.74
532.31	54944.08
532.48	54906.63
532.65	54906.63
532.82	54827.05
532.99	55236.64
533.16	54780.24
533.33	55412.18
533.50	54993.23
533.67	54967.48
533.84	54763.85
534.01	54986.21
534.18	55253.03
534.35	55566.66
534.52	55360.69
534.69	55477.72
534.86	55615.81
535.03	55487.08
535.20	55554.96
535.37	55590.06
535.54	55480.06
535.71	55592.40
535.88	55903.70
536.05	55671.98
536.22	55767.94
536.38	55943.48
536.55	55821.78
536.72	55980.93
536.89	56039.45
537.06	55931.78
537.23	56154.13
537.40	55906.04
537.57	55945.83
537.74	56140.09
537.91	56530.96
538.08	56245.41
538.25	56016.04
538.42	56285.20
538.59	56332.01
538.75	56226.69
538.92	56243.07
539.09	56491.17
539.26	56406.91
539.43	56509.89
539.60	56594.15
539.77	56465.42
539.94	56692.46
540.11	56554.36
540.28	56669.05
540.44	56797.78
540.61	56638.62
540.78	56615.22
540.95	56605.86
541.12	56835.23
541.29	56736.93
541.46	56692.46
541.62	57052.90
541.79	56891.40
541.96	56629.26
542.13	56816.50
542.30	57006.09
542.47	57167.58
542.63	57223.76
542.80	57233.12
542.97	57432.07
543.14	57504.62
543.31	57633.35
543.48	57474.20
543.64	57785.49
543.81	57354.83
543.98	57560.79
544.15	57612.29
544.32	57771.44
544.48	57846.34
544.65	57703.57
544.82	57806.55
544.99	57497.60
545.16	57846.34
545.32	57691.86
545.49	57855.70
545.66	57930.60
545.83	57750.38
546.00	58082.73
546.16	57984.43
546.33	58000.82
546.50	57851.02
546.67	57780.81
546.83	57698.89
547.00	57822.93
547.17	58087.42
547.34	58113.16
547.50	58108.48
547.67	58302.74
547.84	58166.99
548.00	58670.21
548.17	58513.39
548.34	58361.26
548.51	58489.99
548.67	58461.90
548.84	58599.99
549.01	58356.58
549.18	58302.74
549.34	58422.11
549.51	58571.91
549.68	58607.01
549.84	58637.44
550.01	58646.80
550.18	58567.23
550.34	58759.15
550.51	58618.72
550.68	58712.34
550.84	58738.08
551.01	58712.34
551.18	58918.31
551.34	58843.41
551.51	58920.65
551.68	58913.62
551.84	58969.80
552.01	58944.05
552.18	58927.67
552.34	58525.10
552.51	58986.18
552.68	58700.64
552.84	58852.77
553.01	59143.00
553.18	58962.78
553.34	58969.80
553.51	58955.75
553.67	59089.16
553.84	59213.21
554.01	59231.94
554.17	59194.49
554.34	59206.19
554.51	59199.17
554.67	59386.41
554.84	59316.20
555.00	59215.55
555.17	59030.65
555.33	59213.21
555.50	59000.22
555.67	59098.53
555.83	59281.09
556.00	59536.21
556.16	59704.73
556.33	59604.08
556.50	59470.67
556.66	59613.44
556.83	59400.46
556.99	59702.38
557.16	59903.67
557.32	59554.93
557.49	59966.87
557.65	59571.32
557.82	59599.40
557.98	59805.37
558.15	59416.84
558.32	59861.54
558.48	59707.07
558.65	59786.64
558.81	59742.17
558.98	59847.50
559.14	60006.65
559.31	59793.67
559.47	59964.52
559.64	59978.57
559.80	59969.21
559.97	59973.89
560.13	59880.27
560.30	59966.87
560.46	59913.03
560.63	59901.33
560.79	59943.46
560.96	60163.47
561.12	60069.85
561.29	60032.40
561.45	60006.65
561.61	59786.64
561.78	60119.00
561.94	60037.08
562.11	60102.62
562.27	60097.94
562.44	60126.02
562.60	60315.61
562.77	60264.11
562.93	60069.85
563.10	60423.27
563.26	60060.49
563.42	60505.19
563.59	60296.88
563.75	60184.54
563.92	60189.22
564.08	60135.38
564.24	60432.63
564.41	60374.12
564.57	60500.51
564.74	60259.43
564.90	60397.52
565.07	60285.18
565.23	60449.02
565.39	60507.53
565.56	60362.42
565.72	60261.77
565.88	60449.02
566.05	60189.22
566.21	60430.29
566.38	60420.93
566.54	60385.82
566.70	60692.43
566.87	60598.81
567.03	60481.78
567.19	60767.33
567.36	60481.78
567.52	60275.82
567.68	60713.50
567.85	60853.93
568.01	60697.11
568.17	60406.89
568.34	60844.57
568.50	60612.85
568.66	60601.15
568.83	60704.13
568.99	60647.96
569.15	60823.50
569.32	60764.99
569.48	60568.38
569.64	60722.86
569.81	60676.05
569.97	60591.79
570.13	60896.06
570.30	60741.58
570.46	60622.22
570.62	60832.86
570.78	60706.47
570.95	60896.06
571.11	60764.99
571.27	61095.00
571.43	60626.90
571.60	60825.84
571.76	60912.44
571.92	60757.97
572.09	61010.74
572.25	60809.46
572.41	60968.61
572.57	60872.65
572.74	61090.32
572.90	61095.00
573.06	60837.54
573.22	60975.64
573.38	60846.91
573.55	60694.77
573.71	61102.03
573.87	60987.34
574.03	60830.52
574.20	60935.85
574.36	60891.38
574.52	61141.81
574.68	61041.17
574.84	61066.92
575.01	61001.38
575.17	60786.05
575.33	60858.61
575.49	60872.65
575.65	61148.84
575.82	61256.50
575.98	61052.87
576.14	61228.41
576.30	61015.43
576.46	60828.18
576.62	60898.40
576.79	61050.53
576.95	60924.14
577.11	60928.83
577.27	61228.41
577.43	61190.97
577.59	60999.04
577.75	60968.61
577.92	61006.06
578.08	61092.66
578.24	60926.49
578.40	61354.80
578.56	61284.59
578.72	61050.53
578.88	61282.25
579.04	61448.42
579.21	61268.20
579.37	61293.95
579.53	61139.47
579.69	61073.94
579.85	61120.75
580.01	61109.05
580.17	61006.06
580.33	61144.16
580.49	61162.88
580.65	61221.39
580.82	61048.19
580.98	60814.14
581.14	60996.70
581.30	61338.42
581.46	61181.60
581.62	61415.66
581.78	61080.96
581.94	61186.28
582.10	61069.26
582.26	61024.79
582.42	61350.12
582.58	61062.24
582.74	61275.22
582.90	61174.58
583.06	61324.38
583.22	60893.72
583.38	61116.07
583.54	61139.47
583.70	61137.13
583.86	61176.92
584.02	61146.50
584.18	61242.46
584.34	61261.18
584.50	61310.33
584.66	61242.46
584.82	60987.34
584.98	61525.66
585.14	61284.59
585.30	61186.28
585.46	61289.27
585.62	61137.13
585.78	61415.66
585.94	61127.77
586.10	61230.75
586.26	61265.86
586.42	61155.86
586.58	61219.05
586.74	61450.77
586.90	61151.18
587.06	61165.22
587.22	61471.83
587.38	61132.45
587.54	61579.49
587.70	61401.61
587.86	61368.85
588.02	61254.16
588.18	61488.21
588.34	61242.46
588.49	61179.26
