SpectraSuite Data File
++++++++++++++++++++++++++++++++++++
Date: Fri Oct 25 10:47:32 EDT 2013
User: price-jones
Dark Spectrum Present: No
Reference Spectrum Present: No
Number of Sampled Component Spectra: 1
Spectrometers: USB2+H05261
Integration Time (usec): 100000 (USB2+H05261)
Spectra Averaged: 1 (USB2+H05261)
Boxcar Smoothing: 0 (USB2+H05261)
Correct for Electrical Dark: No (USB2+H05261)
Strobe/Lamp Enabled: No (USB2+H05261)
Correct for Detector Non-linearity: No (USB2+H05261)
Correct for Stray Light: No (USB2+H05261)
Number of Pixels in Processed Spectrum: 2048
>>>>>Begin Processed Spectral Data<<<<<
365.73	191.92
365.92	191.92
366.12	191.92
366.32	65.54
366.52	63.19
366.72	58.51
366.91	14.04
367.11	65.54
367.31	39.79
367.51	23.41
367.70	135.75
367.90	28.09
368.10	60.85
368.30	14.04
368.49	84.26
368.69	110.01
368.89	86.60
369.09	72.56
369.28	100.64
369.48	74.90
369.68	60.85
369.87	100.64
370.07	53.83
370.27	140.43
370.47	210.65
370.66	325.33
370.86	444.70
371.06	440.02
371.25	447.04
371.45	409.59
371.65	416.62
371.84	367.46
372.04	423.64
372.24	388.53
372.44	470.45
372.63	472.79
372.83	484.49
373.03	524.28
373.22	470.45
373.42	514.92
373.62	468.11
373.81	486.83
374.01	568.75
374.21	547.69
374.40	498.53
374.60	545.34
374.79	547.69
374.99	592.16
375.19	550.03
375.38	599.18
375.58	512.58
375.78	545.34
375.97	622.58
376.17	662.37
376.37	566.41
376.56	580.45
376.76	582.79
376.95	564.07
377.15	638.97
377.35	535.98
377.54	606.20
377.74	620.24
377.93	653.01
378.13	601.52
378.33	613.22
378.52	566.41
378.72	603.86
378.91	645.99
379.11	589.82
379.31	610.88
379.50	587.47
379.70	657.69
379.89	676.41
380.09	592.16
380.28	615.56
380.48	648.33
380.68	657.69
380.87	695.14
381.07	699.82
381.26	641.31
381.46	669.39
381.65	641.31
381.85	594.50
382.04	608.54
382.24	676.41
382.43	592.16
382.63	610.88
382.83	648.33
383.02	727.91
383.22	734.93
383.41	594.50
383.61	753.65
383.80	681.10
384.00	786.42
384.19	760.67
384.39	737.27
384.58	692.80
384.78	734.93
384.97	753.65
385.17	753.65
385.36	805.14
385.56	840.25
385.75	709.18
385.95	704.50
386.14	877.70
386.34	744.29
386.53	826.21
386.72	737.27
386.92	793.44
387.11	800.46
387.31	849.61
387.50	774.72
387.70	819.19
387.89	863.66
388.09	812.17
388.28	821.53
388.48	809.83
388.67	884.72
388.86	844.93
389.06	858.98
389.25	966.64
389.45	875.36
389.64	947.92
389.84	877.70
390.03	793.44
390.22	861.32
390.42	873.02
390.61	971.32
390.81	926.85
391.00	840.25
391.19	898.77
391.39	898.77
391.58	889.40
391.78	922.17
391.97	929.19
392.16	854.30
392.36	1011.11
392.55	997.07
392.75	1015.79
392.94	924.51
393.13	1032.18
393.33	973.66
393.52	882.38
393.71	964.30
393.91	1074.31
394.10	983.02
394.29	1027.50
394.49	994.73
394.68	1076.65
394.88	1015.79
395.07	1144.52
395.26	1071.97
395.46	1015.79
395.65	1137.50
395.84	1137.50
396.04	1109.41
396.23	1118.78
396.42	1069.62
396.62	1078.99
396.81	1221.76
397.00	1174.95
397.19	1167.93
397.39	1198.35
397.58	1179.63
397.77	1158.57
397.97	1156.22
398.16	1228.78
398.35	1231.12
398.55	1306.02
398.74	1313.04
398.93	1310.70
399.12	1254.53
399.32	1203.04
399.51	1322.40
399.70	1366.87
399.90	1289.64
400.09	1453.47
400.28	1369.21
400.47	1324.74
400.67	1373.89
400.86	1446.45
401.05	1385.60
401.24	1458.15
401.44	1399.64
401.63	1348.15
401.82	1500.28
402.01	1432.41
402.21	1390.28
402.40	1376.24
402.59	1483.90
402.78	1509.65
402.97	1516.67
403.17	1509.65
403.36	1472.20
403.55	1556.46
403.74	1629.01
403.93	1643.06
404.13	1645.40
404.32	1603.27
404.51	1647.74
404.70	1650.08
404.89	1549.43
405.09	1710.93
405.28	1631.35
405.47	1706.25
405.66	1687.53
405.85	1682.85
406.05	1661.78
406.24	1755.40
406.43	1687.53
406.62	1888.81
406.81	1846.68
407.00	1834.98
407.20	1792.85
407.39	1755.40
407.58	1827.96
407.77	1743.70
407.96	1813.92
408.15	1989.46
408.34	1788.17
408.54	1879.45
408.73	1867.75
408.92	1980.09
409.11	2085.42
409.30	1898.17
409.49	1984.77
409.68	1959.03
409.87	1963.71
410.07	2005.84
410.26	2094.78
410.45	1980.09
410.64	2054.99
410.83	2209.47
411.02	2043.29
411.21	2132.23
411.40	2085.42
411.59	2174.36
411.78	2181.38
411.98	2244.57
412.17	2305.43
412.36	2385.01
412.55	2232.87
412.74	2359.26
412.93	2267.98
413.12	2204.78
413.31	2473.95
413.50	2452.88
413.69	2427.14
413.88	2551.18
414.07	2417.77
414.26	2595.65
414.45	2473.95
414.64	2504.37
414.83	2555.86
415.02	2626.08
415.22	2675.23
415.41	2696.30
415.60	2729.06
415.79	2698.64
415.98	2773.53
416.17	2689.28
416.36	2722.04
416.55	2740.77
416.74	2789.92
416.93	2789.92
417.12	2888.22
417.31	2850.77
417.50	2972.48
417.69	2918.65
417.88	2981.84
418.07	2916.31
418.26	2984.18
418.45	3026.31
418.64	3052.06
418.83	3152.70
419.02	3077.80
419.21	3045.04
419.39	3096.53
419.58	3087.17
419.77	3080.14
419.96	3129.30
420.15	3110.57
420.34	3227.60
420.53	3248.66
420.72	3290.79
420.91	3363.35
421.10	3260.37
421.29	3349.31
421.48	3236.96
421.67	3365.69
421.86	3148.02
422.05	3361.01
422.24	3255.69
422.43	3382.07
422.61	3377.39
422.80	3215.90
422.99	3337.60
423.18	3473.36
423.37	3555.27
423.56	3309.52
423.75	3419.52
423.94	3300.16
424.13	3272.07
424.32	3255.69
424.50	3473.36
424.69	3609.11
424.88	3566.98
425.07	3606.77
425.26	3445.27
425.45	3487.40
425.64	3419.52
425.83	3435.91
426.01	3510.80
426.20	3485.06
426.39	3449.95
426.58	3389.10
426.77	3543.57
426.96	3536.55
427.15	3543.57
427.33	3705.07
427.52	3604.42
427.71	3691.02
427.90	3574.00
428.09	3714.43
428.28	3681.66
428.46	3658.26
428.65	3716.77
428.84	3735.50
429.03	3772.94
429.22	3510.80
429.40	3595.06
429.59	3817.41
429.78	3513.14
429.97	3676.98
430.16	3630.17
430.34	3721.45
430.53	3836.14
430.72	3707.41
430.91	3772.94
431.10	3913.38
431.28	3819.75
431.47	3927.42
431.66	4133.39
431.85	3932.10
432.03	4030.40
432.22	4077.21
432.41	4044.45
432.60	4154.45
432.79	4032.74
432.97	4168.49
433.16	4334.67
433.35	4079.55
433.54	4140.41
433.72	4093.60
433.91	4102.96
434.10	4255.09
434.28	4224.67
434.47	4329.99
434.66	4229.35
434.85	4248.07
435.03	4334.67
435.22	4337.01
435.41	4411.91
435.59	4435.32
435.78	4278.50
435.97	4381.48
436.16	4550.00
436.34	4421.27
436.53	4449.36
436.72	4505.53
436.90	4440.00
437.09	4554.68
437.28	4388.50
437.46	4484.47
437.65	4601.49
437.84	4552.34
438.02	4645.96
438.21	4554.68
438.40	4655.33
438.58	4585.11
438.77	4868.31
438.96	4830.87
439.14	4943.21
439.33	4837.89
439.52	4961.94
439.70	5013.43
439.89	4912.78
440.08	5018.11
440.26	5088.32
440.45	5221.74
440.63	5036.83
440.82	5221.74
441.01	5043.85
441.19	5420.68
441.38	5338.76
441.57	5125.77
441.75	5273.23
441.94	5568.13
442.12	5439.40
442.31	5526.00
442.50	5664.10
442.68	5589.20
442.87	5526.00
443.05	5586.86
443.24	5731.97
443.43	5535.37
443.61	5542.39
443.80	5671.12
443.98	5617.29
444.17	5369.19
444.35	5647.71
444.54	5710.91
444.73	5741.33
444.91	5645.37
445.10	5547.07
445.28	5659.42
445.47	5493.24
445.65	5540.05
445.84	5596.22
446.02	5743.67
446.21	5528.35
446.39	5706.23
446.58	5823.25
446.77	5797.51
446.95	5497.92
447.14	5809.21
447.32	5905.17
447.51	5816.23
447.69	5762.40
447.88	5675.80
448.06	5788.14
448.25	5863.04
448.43	5715.59
448.62	5881.77
448.80	5816.23
448.99	5891.13
449.17	5982.41
449.36	5905.17
449.54	6155.61
449.73	6047.94
449.91	6080.71
450.10	6253.91
450.28	6326.47
450.46	6029.22
450.65	6202.42
450.83	6305.40
451.02	6314.77
451.20	6260.93
451.39	6258.59
451.57	6312.42
451.76	6115.82
451.94	6155.61
452.13	6155.61
452.31	6347.53
452.49	6246.89
452.68	6314.77
452.86	6401.37
453.05	6476.26
453.23	6305.40
453.42	6413.07
453.60	6413.07
453.78	6551.16
453.97	6413.07
454.15	6427.11
454.34	6296.04
454.52	6588.61
454.70	6679.89
454.89	6586.27
455.07	6586.27
455.26	6661.16
455.44	6668.19
455.62	6733.72
455.81	6724.36
455.99	6801.60
456.17	6829.68
456.36	6782.87
456.54	6806.28
456.73	6846.07
456.91	6977.14
457.09	7171.40
457.28	7138.63
457.46	6848.41
457.64	7073.10
457.83	7037.99
458.01	7215.87
458.19	7239.28
458.38	7265.02
458.56	7232.26
458.74	7337.58
458.93	7066.08
459.11	7382.05
459.29	7330.56
459.48	7475.67
459.66	7211.19
459.84	7499.08
460.03	7592.70
460.21	7445.24
460.39	7449.93
460.57	7241.62
460.76	7438.22
460.94	7564.61
461.12	7613.76
461.31	7707.38
461.49	7456.95
461.67	7543.55
461.85	7634.83
462.04	7538.87
462.22	8152.09
462.40	7749.51
462.59	7714.41
462.77	7789.30
462.95	7915.69
463.13	7906.33
463.32	7885.26
463.50	7955.48
463.68	7908.67
463.86	8053.78
464.05	7705.04
464.23	7833.77
464.41	8013.99
464.59	7796.32
464.78	8018.68
464.96	7948.46
465.14	7845.48
465.32	7908.67
465.50	8131.02
465.69	8243.37
465.87	7831.43
466.05	8039.74
466.23	8175.49
466.41	8346.35
466.60	8318.26
466.78	8166.13
466.96	8037.40
467.14	8100.59
467.32	8271.45
467.51	8273.79
467.69	8032.72
467.87	8271.45
468.05	8484.44
468.23	8353.37
468.41	8320.60
468.60	8301.88
468.78	8507.85
468.96	8163.79
469.14	8517.21
469.32	8524.23
469.50	8297.20
469.69	8587.43
469.87	8704.45
470.05	8816.80
470.23	8676.37
470.41	8706.79
470.59	8671.68
470.77	8657.64
470.95	9104.68
471.14	9025.11
471.32	8835.52
471.50	8997.02
471.68	8924.46
471.86	9100.00
472.04	9081.28
472.22	9413.63
472.40	9097.66
472.58	9181.92
472.77	9338.74
472.95	9177.24
473.13	9635.99
473.31	9418.32
473.49	9441.72
473.67	9437.04
473.85	9275.54
474.03	9605.56
474.21	9589.17
474.39	9633.64
474.57	9631.30
474.75	9851.31
474.93	9926.21
475.12	9745.99
475.30	9949.62
475.48	9956.64
475.66	9949.62
475.84	9788.12
476.02	10218.78
476.20	10080.69
476.38	10310.06
476.56	10689.23
476.74	10399.00
476.92	10286.65
477.10	10452.83
477.28	10801.57
477.46	10579.22
477.64	10775.83
477.82	10934.98
478.00	11325.85
478.18	11112.86
478.36	11112.86
478.54	11470.97
478.72	11346.92
478.90	11346.92
479.08	11707.36
479.26	11737.79
479.44	11779.92
479.62	11859.49
479.80	11868.86
479.98	11885.24
480.16	11899.28
480.34	12056.10
480.52	12056.10
480.70	12236.32
480.88	11854.81
481.06	12236.32
481.24	12379.09
481.41	12400.16
481.59	12664.64
481.77	12793.37
481.95	12716.13
482.13	12896.35
482.31	12861.24
482.49	13158.49
482.67	13107.00
482.85	13500.21
483.03	13603.19
483.21	13397.23
483.39	13617.24
483.57	13528.30
483.74	13858.31
483.92	13891.08
484.10	13762.35
484.28	14108.75
484.46	14246.84
484.64	14487.92
484.82	14293.65
485.00	14410.68
485.18	14801.55
485.35	14817.93
485.53	14738.35
485.71	14728.99
485.89	15033.26
486.07	15044.96
486.25	15105.82
486.43	15309.44
486.61	15321.15
486.78	15714.36
486.96	15807.98
487.14	15941.39
487.32	16067.78
487.50	16365.03
487.68	16025.65
487.85	16100.55
488.03	16547.59
488.21	16776.96
488.39	16779.30
488.57	17039.10
488.75	16795.68
488.92	17114.00
489.10	17245.07
489.28	17296.56
489.46	17483.80
489.64	17341.03
489.81	17942.55
489.99	17998.72
490.17	17998.72
490.35	18338.10
490.53	17980.00
490.70	18525.34
490.88	18338.10
491.06	18628.32
491.24	18576.83
491.41	18597.90
491.59	18808.54
491.77	18633.00
491.95	18904.51
492.13	19227.50
492.30	19396.02
492.48	19433.47
492.66	19143.24
492.84	19412.40
493.01	19688.59
493.19	19723.69
493.37	19981.15
493.54	20102.86
493.72	20519.48
493.90	20217.55
494.08	20357.98
494.25	20554.58
494.43	20659.91
494.61	21032.05
494.79	20645.87
494.96	21062.48
495.14	21060.14
495.32	21443.99
495.49	21284.83
495.67	21635.91
495.85	21619.53
496.02	21867.63
496.20	22019.76
496.38	21715.49
496.55	22181.26
496.73	22436.38
496.91	22209.34
497.09	22387.22
497.26	22476.16
497.44	22618.94
497.62	22518.29
497.79	22775.75
497.97	22452.76
498.14	22937.25
498.32	23140.88
498.50	22787.46
498.67	23360.89
498.85	23185.35
499.03	23534.09
499.20	23590.26
499.38	23768.14
499.56	23552.81
499.73	23840.70
499.91	23847.72
500.08	23974.11
500.26	23796.23
500.44	23999.85
500.61	24175.39
500.79	23981.13
500.97	24627.12
501.14	24531.15
501.32	24734.78
501.49	24552.22
501.67	24746.48
501.84	24723.08
502.02	24624.78
502.20	25294.17
502.37	25263.74
502.55	25158.42
502.72	25317.57
502.90	25418.22
503.07	25123.31
503.25	25703.76
503.43	25535.24
503.60	25671.00
503.78	25605.46
503.95	25893.35
504.13	25654.61
504.30	26066.55
504.48	26024.42
504.65	26279.54
504.83	25928.45
505.01	26291.24
505.18	25893.35
505.36	26405.92
505.53	26394.22
505.71	26658.70
505.88	26986.38
506.06	27002.76
506.23	26911.48
506.41	26696.15
506.58	27129.15
506.76	26906.80
506.93	26930.20
507.11	27044.89
507.28	27428.74
507.46	27220.43
507.63	27791.52
507.81	27751.73
507.98	27611.30
508.16	27321.07
508.33	27866.42
508.50	27934.29
508.68	28268.99
508.85	28271.33
509.03	28123.88
509.20	28238.56
509.38	28149.62
509.55	28774.55
509.73	28491.34
509.90	28540.49
510.08	28194.09
510.25	28538.15
510.42	28938.38
510.60	28765.18
510.77	28538.15
510.95	29525.86
511.12	29078.82
511.30	29553.94
511.47	29333.93
511.64	29078.82
511.82	29675.65
511.99	29275.42
512.17	29591.39
512.34	29752.89
512.51	29575.01
512.69	29841.83
512.86	29965.88
513.04	29963.54
513.21	30244.40
513.38	29827.79
513.56	30059.50
513.73	29818.42
513.90	30611.87
514.08	30553.35
514.25	30380.15
514.43	30443.35
514.60	30267.81
514.77	30361.43
514.95	30398.88
515.12	30590.80
515.29	30944.22
515.47	30932.52
515.64	31014.44
515.81	30672.72
515.99	31061.25
516.16	30995.71
516.33	30888.05
516.51	31253.17
516.68	31271.90
516.85	30724.21
517.03	31225.09
517.20	31606.59
517.37	31372.54
517.54	31732.98
517.72	31658.09
517.89	31344.45
518.06	31704.90
518.24	31583.19
518.41	31662.77
518.58	32517.06
518.75	31847.67
518.93	31943.63
519.10	32187.05
519.27	32449.19
519.45	32418.76
519.62	32463.23
519.79	32388.33
519.96	33125.60
520.14	32304.07
520.31	32584.94
520.48	32416.42
520.65	32818.99
520.83	32783.88
521.00	32692.60
521.17	32797.93
521.34	33151.35
521.52	33352.63
521.69	33268.37
521.86	33078.79
522.03	33558.60
522.20	33411.15
522.38	33422.85
522.55	33729.46
522.72	33743.50
522.89	33170.07
523.07	34206.93
523.24	33556.26
523.41	33909.68
523.58	33897.98
523.75	34314.59
523.92	34277.15
524.10	34433.96
524.27	34295.87
524.44	34099.26
524.61	34536.94
524.78	34707.80
524.96	34768.66
525.13	34937.18
525.30	34782.70
525.47	35047.18
525.64	34691.42
525.81	35103.35
525.98	34923.13
526.16	34693.76
526.33	34895.05
526.50	35196.98
526.67	34625.89
526.84	34543.97
527.01	34932.50
527.18	35384.22
527.36	34923.13
527.53	35262.51
527.70	35576.14
527.87	35665.08
528.04	35407.62
528.21	35519.97
528.38	35433.37
528.55	35997.44
528.72	35683.81
528.89	35824.24
529.07	36105.10
529.24	35351.45
529.41	35725.94
529.58	35566.78
529.75	35981.06
529.92	36126.17
530.09	36430.44
530.26	36126.17
530.43	35943.61
530.60	35931.90
530.77	36156.60
530.94	36624.70
531.11	36133.19
531.28	36552.15
531.46	36458.52
531.63	36545.12
531.80	36776.84
531.97	36580.23
532.14	36577.89
532.31	36495.97
532.48	36966.42
532.65	36802.58
532.82	36828.33
532.99	37387.72
533.16	36900.89
533.33	36940.68
533.50	37174.73
533.67	37123.24
533.84	37020.25
534.01	37273.03
534.18	37200.47
534.35	37479.00
534.52	37567.94
534.69	37888.59
534.86	37551.56
535.03	37270.69
535.20	37558.58
535.37	38014.98
535.54	37977.53
535.71	37572.62
535.88	37769.22
536.05	38120.31
536.22	37818.38
536.38	37724.75
536.55	37684.97
536.72	37708.37
536.89	37581.98
537.06	38085.20
537.23	37823.06
537.40	38316.91
537.57	38122.65
537.74	38457.34
537.91	38981.62
538.08	38277.12
538.25	38492.45
538.42	38403.51
538.59	38562.67
538.75	38204.56
538.92	38220.95
539.09	38593.09
539.26	38487.77
539.43	38682.03
539.60	38375.42
539.77	38396.49
539.94	38436.28
540.11	38752.25
540.28	39278.87
540.44	38721.82
540.61	38820.13
540.78	38534.58
540.95	39173.55
541.12	38937.15
541.29	39014.39
541.46	38974.60
541.62	39292.91
541.79	39124.40
541.96	38850.55
542.13	38948.85
542.30	39470.79
542.47	39220.36
542.63	39150.14
542.80	39613.57
542.97	39735.27
543.14	40093.38
543.31	39901.45
543.48	40006.78
543.64	40315.73
543.81	40254.87
543.98	40196.36
544.15	40088.70
544.32	40184.66
544.48	40549.78
544.65	40304.02
544.82	40355.52
544.99	39938.90
545.16	40285.30
545.32	40044.23
545.49	40135.51
545.66	40245.51
545.83	40760.43
546.00	40577.87
546.16	40638.72
546.33	40371.90
546.50	40126.14
546.67	40641.06
546.83	39803.15
547.00	40392.97
547.17	40634.04
547.34	40554.46
547.50	40748.73
547.67	40905.54
547.84	40687.87
548.00	40807.24
548.17	41060.02
548.34	40414.03
548.51	41319.82
548.67	41280.03
548.84	41003.85
549.01	40814.26
549.18	40840.01
549.34	40952.35
549.51	41298.75
549.68	41184.07
549.84	40907.88
550.01	41045.97
550.18	41310.46
550.34	41469.61
550.51	40964.06
550.68	40811.92
550.84	40760.43
551.01	41434.50
551.18	41509.40
551.34	41361.95
551.51	41825.37
551.68	41514.08
551.84	41628.77
552.01	41593.66
552.18	41745.80
552.34	41521.10
552.51	41911.97
552.68	41930.70
552.84	41661.54
553.01	42000.91
553.18	41673.24
553.34	41689.62
553.51	41734.09
553.67	41755.16
553.84	42375.40
554.01	42174.11
554.17	42162.41
554.34	42574.34
554.51	42366.04
554.67	42059.43
554.84	42199.86
555.00	42237.31
555.17	41914.31
555.33	42113.26
555.50	42153.05
555.67	42073.47
555.83	42536.90
556.00	42492.43
556.16	42742.86
556.33	42363.70
556.50	42363.70
556.66	42541.58
556.83	42895.00
556.99	42843.51
557.16	42529.87
557.32	42611.79
557.49	42593.07
557.65	42487.74
557.82	42698.39
557.98	42724.14
558.15	42377.74
558.32	42621.16
558.48	42499.45
558.65	42342.63
558.81	42660.94
558.98	42572.00
559.14	43012.02
559.31	42562.64
559.47	43012.02
559.64	43138.41
559.80	43335.02
559.97	43463.75
560.13	42314.55
560.30	42679.67
560.46	42974.58
560.63	43030.75
560.79	42838.83
560.96	43318.64
561.12	42759.25
561.29	43117.35
561.45	42820.10
561.61	42951.17
561.78	43136.07
561.94	42480.72
562.11	42944.15
562.27	43356.08
562.44	42787.33
562.60	43189.91
562.77	43033.09
562.93	42841.17
563.10	43026.07
563.26	42969.90
563.42	43360.76
563.59	43044.79
563.75	43262.46
563.92	43288.21
564.08	43578.43
564.24	43185.22
564.41	43639.29
564.57	43529.28
564.74	43016.71
564.90	43517.58
565.07	43271.82
565.23	43625.25
565.39	43618.22
565.56	43723.55
565.72	43363.11
565.88	43576.09
566.05	43440.34
566.21	43288.21
566.38	43412.26
566.54	43379.49
566.70	43374.81
566.87	43606.52
567.03	43545.67
567.19	43768.02
567.36	43805.47
567.52	43290.55
567.68	43831.21
567.85	43597.16
568.01	44058.24
568.17	43632.27
568.34	43908.45
568.50	43386.51
568.66	43463.75
568.83	43517.58
568.99	43459.07
569.15	43576.09
569.32	43573.75
569.48	43360.76
569.64	43906.11
569.81	43810.15
569.97	43470.77
570.13	43533.96
570.30	43669.72
570.46	43765.68
570.62	43391.19
570.78	43629.93
570.95	43672.06
571.11	43880.36
571.27	43510.56
571.43	44039.52
571.60	44058.24
571.76	43871.00
571.92	43854.62
572.09	43768.02
572.25	43173.52
572.41	43051.81
572.57	43894.41
572.74	44439.75
572.90	44261.87
573.06	43728.23
573.22	43873.34
573.38	43906.11
573.55	44053.56
573.71	43885.04
573.87	44154.21
574.03	43199.27
574.20	44006.75
574.36	44053.56
574.52	43793.76
574.68	44006.75
574.84	44182.29
575.01	43669.72
575.17	43863.98
575.33	43922.49
575.49	44219.74
575.65	44034.84
575.82	44062.93
575.98	44109.74
576.14	44484.22
576.30	44264.21
576.46	43945.90
576.62	44236.12
576.79	44154.21
576.95	43723.55
577.11	43718.87
577.27	44472.52
577.43	43995.05
577.59	43997.39
577.75	43880.36
577.92	43569.07
578.08	43683.76
578.24	43618.22
578.40	43791.42
578.56	44086.33
578.72	44065.27
578.88	44222.08
579.04	44062.93
579.21	43732.91
579.37	44020.80
579.53	44308.68
579.69	43576.09
579.85	44037.18
580.01	44538.05
580.17	44011.43
580.33	44292.30
580.49	44177.61
580.65	44217.40
580.82	44114.42
580.98	44091.01
581.14	43899.09
581.30	44273.57
581.46	44397.62
581.62	44215.06
581.78	43817.17
581.94	44208.04
582.10	43852.28
582.26	44095.69
582.42	44360.17
582.58	44030.16
582.74	44175.27
582.90	44016.11
583.06	44046.54
583.22	43992.71
583.38	44311.02
583.54	44165.91
583.70	44296.98
583.86	44559.12
584.02	44037.18
584.18	44254.85
584.34	44570.82
584.50	44360.17
584.66	44278.25
584.82	43983.35
584.98	44666.78
585.14	43906.11
585.30	44009.09
585.46	44053.56
585.62	43948.24
585.78	44198.68
585.94	43814.83
586.10	44002.07
586.26	43962.28
586.42	44369.54
586.58	44065.27
586.74	44046.54
586.90	44095.69
587.06	43753.97
587.22	44449.11
587.38	43758.66
587.54	44664.44
587.70	44313.36
587.86	44325.07
588.02	44542.74
588.18	44201.02
588.34	44416.35
588.49	44151.87
588.65	43899.09
588.81	44392.94
588.97	44114.42
589.13	44091.01
589.29	43922.49
589.45	43995.05
589.61	44339.11
589.77	44587.21
589.93	44549.76
590.08	44531.03
590.24	44495.92
590.40	44903.18
