SpectraSuite Data File
++++++++++++++++++++++++++++++++++++
Date: Fri Oct 25 11:23:53 EDT 2013
User: price-jones
Dark Spectrum Present: No
Reference Spectrum Present: No
Number of Sampled Component Spectra: 1
Spectrometers: USB2+H05261
Integration Time (usec): 100000 (USB2+H05261)
Spectra Averaged: 1 (USB2+H05261)
Boxcar Smoothing: 0 (USB2+H05261)
Correct for Electrical Dark: No (USB2+H05261)
Strobe/Lamp Enabled: No (USB2+H05261)
Correct for Detector Non-linearity: No (USB2+H05261)
Correct for Stray Light: No (USB2+H05261)
Number of Pixels in Processed Spectrum: 2048
>>>>>Begin Processed Spectral Data<<<<<
365.73	215.33
365.92	215.33
366.12	215.33
366.32	147.45
366.52	201.29
366.72	177.88
366.91	107.66
367.11	117.03
367.31	126.39
367.51	110.01
367.70	119.37
367.90	126.39
368.10	112.35
368.30	42.13
368.49	110.01
368.69	107.66
368.89	154.48
369.09	140.43
369.28	119.37
369.48	215.33
369.68	170.86
369.87	222.35
370.07	203.63
370.27	212.99
370.47	299.59
370.66	575.77
370.86	692.80
371.06	643.65
371.25	692.80
371.45	653.01
371.65	660.03
371.84	620.24
372.04	660.03
372.24	655.35
372.44	732.59
372.63	765.36
372.83	763.01
373.03	758.33
373.22	734.93
373.42	779.40
373.62	737.27
373.81	847.27
374.01	863.66
374.21	805.14
374.40	739.61
374.60	744.29
374.79	847.27
374.99	795.78
375.19	784.08
375.38	891.74
375.58	765.36
375.78	940.90
375.97	889.40
376.17	861.32
376.37	819.19
376.56	919.83
376.76	828.55
376.95	781.74
377.15	861.32
377.35	901.11
377.54	875.36
377.74	912.81
377.93	884.72
378.13	877.70
378.33	924.51
378.52	943.24
378.72	908.13
378.91	926.85
379.11	950.26
379.31	924.51
379.50	994.73
379.70	931.53
379.89	1018.13
380.09	992.39
380.28	891.74
380.48	959.62
380.68	1022.81
380.87	994.73
381.07	1039.20
381.26	973.66
381.46	964.30
381.65	1090.69
381.85	1018.13
382.04	1029.84
382.24	983.02
382.43	1043.88
382.63	1004.09
382.83	1053.24
383.02	1081.33
383.22	1093.03
383.41	1046.22
383.61	1027.50
383.80	1163.25
384.00	1123.46
384.19	1097.71
384.39	1102.39
384.58	1146.86
384.78	1153.88
384.97	1111.75
385.17	1219.42
385.36	1149.20
385.56	1107.07
385.75	1107.07
385.95	1170.27
386.14	1158.57
386.34	1196.01
386.53	1228.78
386.72	1284.95
386.92	1207.72
387.11	1263.89
387.31	1210.06
387.50	1259.21
387.70	1291.98
387.89	1240.48
388.09	1219.42
388.28	1270.91
388.48	1277.93
388.67	1193.67
388.86	1341.13
389.06	1280.27
389.25	1341.13
389.45	1348.15
389.64	1362.19
389.84	1348.15
390.03	1406.66
390.22	1411.34
390.42	1401.98
390.61	1331.76
390.81	1425.39
391.00	1376.24
391.19	1366.87
391.39	1483.90
391.58	1376.24
391.78	1397.30
391.97	1439.43
392.16	1359.85
392.36	1507.30
392.55	1460.49
392.75	1528.37
392.94	1521.35
393.13	1416.02
393.33	1603.27
393.52	1516.67
393.71	1519.01
393.91	1530.71
394.10	1582.20
394.29	1600.93
394.49	1614.97
394.68	1689.87
394.88	1643.06
395.07	1689.87
395.26	1640.72
395.46	1603.27
395.65	1692.21
395.84	1760.08
396.04	1650.08
396.23	1652.42
396.42	1783.49
396.62	1755.40
396.81	1640.72
397.00	1837.32
397.19	1739.02
397.39	1823.28
397.58	1746.04
397.77	1774.13
397.97	1895.83
398.16	1783.49
398.35	1928.60
398.55	1790.51
398.74	1900.52
398.93	1942.64
399.12	1921.58
399.32	2010.52
399.51	1907.54
399.70	2033.93
399.90	1907.54
400.09	1968.39
400.28	1970.73
400.47	2010.52
400.67	2012.86
400.86	2090.10
401.05	2160.31
401.24	2062.01
401.44	2207.13
401.63	2125.21
401.82	2216.49
402.01	2155.63
402.21	2118.18
402.40	2235.21
402.59	2204.78
402.78	2237.55
402.97	2275.00
403.17	2162.66
403.36	2310.11
403.55	2296.07
403.74	2340.54
403.93	2284.36
404.13	2333.51
404.32	2326.49
404.51	2225.85
404.70	2476.29
404.89	2375.64
405.09	2516.08
405.28	2303.09
405.47	2511.39
405.66	2534.80
405.85	2541.82
406.05	2417.77
406.24	2483.31
406.43	2562.89
406.62	2626.08
406.81	2705.66
407.00	2595.65
407.20	2654.17
407.39	2626.08
407.58	2686.94
407.77	2686.94
407.96	2693.96
408.15	2682.25
408.34	2780.56
408.54	2717.36
408.73	2897.58
408.92	2918.65
409.11	2803.96
409.30	2832.05
409.49	2916.31
409.68	2949.08
409.87	2925.67
410.07	2988.86
410.26	3077.80
410.45	2888.22
410.64	3082.49
410.83	3112.91
411.02	3105.89
411.21	3112.91
411.40	3112.91
411.59	3276.75
411.78	3213.56
411.98	3103.55
412.17	3325.90
412.36	3234.62
412.55	3335.26
412.74	3452.29
412.93	3496.76
413.12	3199.51
413.31	3463.99
413.50	3566.98
413.69	3520.17
413.88	3637.19
414.07	3693.37
414.26	3583.36
414.45	3674.64
414.64	3782.31
414.83	3726.13
415.02	3679.32
415.22	3840.82
415.41	3826.78
415.60	3861.88
415.79	3866.56
415.98	4021.04
416.17	4070.19
416.36	3978.91
416.55	3985.93
416.74	4156.79
416.93	3896.99
417.12	4107.64
417.31	4184.88
417.50	4194.24
417.69	4250.41
417.88	4227.01
418.07	4269.14
418.26	4238.71
418.45	4231.69
418.64	4449.36
418.83	4280.84
419.02	4528.94
419.21	4390.84
419.39	4381.48
419.58	4489.15
419.77	4566.39
419.96	4566.39
420.15	4716.18
420.34	4578.09
420.53	4699.80
420.72	4751.29
420.91	4575.75
421.10	4664.69
421.29	4793.42
421.48	4760.65
421.67	4807.46
421.86	4898.74
422.05	4748.95
422.24	4716.18
422.43	4840.23
422.61	4889.38
422.80	4870.65
422.99	4987.68
423.18	5064.92
423.37	4966.62
423.56	4926.83
423.75	4917.47
423.94	4786.40
424.13	4695.11
424.32	4723.20
424.50	5020.45
424.69	5090.67
424.88	5078.96
425.07	5064.92
425.26	4901.08
425.45	5027.47
425.64	4957.25
425.83	4929.17
426.01	5142.16
426.20	5111.73
426.39	5139.82
426.58	5090.67
426.77	5198.33
426.96	4983.00
427.15	5074.28
427.33	5137.48
427.52	5116.41
427.71	5336.42
427.90	5219.39
428.09	5268.55
428.28	5343.44
428.46	5404.30
428.65	5399.62
428.84	5455.79
429.03	5341.10
429.22	5434.72
429.40	5486.22
429.59	5458.13
429.78	5268.55
429.97	5207.69
430.16	5420.68
430.34	5596.22
430.53	5671.12
430.72	5500.26
430.91	5631.33
431.10	5544.73
431.28	5767.08
431.47	5710.91
431.66	5881.77
431.85	5734.31
432.03	5767.08
432.22	6033.90
432.41	5900.49
432.60	5841.98
432.79	5884.11
432.97	6040.92
433.16	5956.66
433.35	6043.26
433.54	6174.33
433.72	6197.74
433.91	5987.09
434.10	6265.61
434.28	6113.48
434.47	6303.06
434.66	6200.08
434.85	6300.72
435.03	6221.14
435.22	6176.67
435.41	6509.03
435.59	6340.51
435.78	6436.47
435.97	6401.37
436.16	6541.80
436.34	6307.74
436.53	6502.01
436.72	6829.68
436.90	6464.56
437.09	6588.61
437.28	6459.88
437.46	6401.37
437.65	6539.46
437.84	6700.95
438.02	6703.29
438.21	6726.70
438.40	6857.77
438.58	6825.00
438.77	7136.29
438.96	6970.12
439.14	7108.21
439.33	7218.21
439.52	7150.34
439.70	7199.49
439.89	7274.38
440.08	7316.51
440.26	7463.97
440.45	7417.16
440.63	7485.03
440.82	7669.94
441.01	7566.95
441.19	7772.92
441.38	7936.76
441.57	7756.54
441.75	7939.10
441.94	8116.98
442.12	7777.60
442.31	8215.28
442.50	8093.57
442.68	7971.86
442.87	8058.46
443.05	8028.04
443.24	8306.56
443.43	8301.88
443.61	8086.55
443.80	8603.81
443.98	8226.98
444.17	7903.99
444.35	8203.58
444.54	8306.56
444.73	8367.42
444.91	8313.58
445.10	8149.75
445.28	8250.39
445.47	8259.75
445.65	8229.32
445.84	8461.04
446.02	8444.65
446.21	8571.04
446.39	8444.65
446.58	8409.54
446.77	8507.85
446.95	8463.38
447.14	8477.42
447.32	8514.87
447.51	8662.32
447.69	8500.83
447.88	8503.17
448.06	8683.39
448.25	8386.14
448.43	8603.81
448.62	8582.74
448.80	8463.38
448.99	8669.34
449.17	8585.08
449.36	8716.16
449.54	8781.69
449.73	8964.25
449.91	9135.11
450.10	9153.84
450.28	9069.58
450.46	9064.89
450.65	9135.11
450.83	8985.32
451.02	8833.18
451.20	9214.69
451.39	9322.35
451.57	9123.41
451.76	9137.45
451.94	9165.54
452.13	9362.14
452.31	9423.00
452.49	9153.84
452.68	9432.36
452.86	9362.14
453.05	9652.37
453.23	9525.98
453.42	9437.04
453.60	9263.84
453.78	9338.74
453.97	9273.20
454.15	9441.72
454.34	9692.16
454.52	9638.33
454.70	9502.58
454.89	9848.97
455.07	9841.95
455.26	10047.92
455.44	9958.98
455.62	9956.64
455.81	9856.00
455.99	10129.84
456.17	10181.33
456.36	10057.28
456.54	10200.05
456.73	10274.95
456.91	10452.83
457.09	10391.98
457.28	10516.03
457.46	10328.78
457.64	10736.04
457.83	10501.98
458.01	10328.78
458.19	10752.42
458.38	10558.16
458.56	10731.36
458.74	10663.48
458.93	10640.08
459.11	10796.89
459.29	10738.38
459.48	10803.91
459.66	10827.32
459.84	11028.60
460.03	11154.99
460.21	11103.50
460.39	10885.83
460.57	10899.87
460.76	11225.21
460.94	11136.27
461.12	11316.49
461.31	11328.19
461.49	11124.57
461.67	11190.10
461.85	11543.52
462.04	11307.13
462.22	11520.12
462.40	11522.46
462.59	11576.29
462.77	11445.22
462.95	11789.28
463.13	11644.17
463.32	11604.38
463.50	11866.52
463.68	11714.38
463.86	11988.22
464.05	11800.98
464.23	11578.63
464.41	11719.06
464.59	11765.87
464.78	12018.65
464.96	12016.31
465.14	11922.69
465.32	12079.50
465.50	11939.07
465.69	12400.16
465.87	12425.90
466.05	12210.57
466.23	12063.12
466.41	12273.77
466.60	12388.46
466.78	12358.03
466.96	12217.60
467.14	12402.50
467.32	12376.75
467.51	12662.30
467.69	12138.02
467.87	12475.06
468.05	12674.00
468.23	12535.91
468.41	12287.81
468.60	12786.35
468.78	12704.43
468.96	12681.02
469.14	12774.64
469.32	13118.70
469.50	12566.34
469.69	13057.85
469.87	12987.63
470.05	13085.94
470.23	13092.96
470.41	13111.68
470.59	13383.18
470.77	13020.40
470.95	13334.03
471.14	13448.72
471.32	13207.64
471.50	13509.57
471.68	13666.39
471.86	13738.94
472.04	13799.80
472.22	14083.00
472.40	13980.02
472.58	13680.43
472.77	13947.25
472.95	14059.60
473.13	14761.76
473.31	14190.67
473.49	14169.60
473.67	14106.41
473.85	14455.15
474.03	14611.96
474.21	14626.01
474.39	14848.36
474.57	14558.13
474.75	15101.14
474.93	14827.29
475.12	15016.88
475.30	15112.84
475.48	14953.68
475.66	15307.10
475.84	15047.30
476.02	15421.79
476.20	15363.28
476.38	15447.54
476.56	16049.05
476.74	15957.77
476.92	15962.45
477.10	15892.24
477.28	16463.33
477.46	16194.17
477.64	16435.24
477.82	16343.96
478.00	17268.47
478.18	16615.46
478.36	17167.83
478.54	17132.72
478.72	17343.37
478.90	17277.83
479.08	17757.64
479.26	17844.24
479.44	17603.17
479.62	18054.89
479.80	18244.48
479.98	18288.95
480.16	18670.45
480.34	18375.55
480.52	18445.76
480.70	18792.16
480.88	18398.95
481.06	18857.70
481.24	18867.06
481.41	19220.48
481.59	19534.11
481.77	19599.65
481.95	19480.28
482.13	19578.58
482.31	19784.55
482.49	20357.98
482.67	20081.80
482.85	20563.95
483.03	20680.97
483.21	20931.41
483.39	21123.33
483.57	20905.66
483.74	21088.23
483.92	21467.39
484.10	21465.05
484.28	21853.58
484.46	21734.21
484.64	22448.08
484.82	22075.93
485.00	22326.37
485.18	22885.76
485.35	23042.57
485.53	22838.95
485.71	22948.95
485.89	23190.03
486.07	23248.54
486.25	23250.88
486.43	23396.00
486.61	23957.72
486.78	24191.78
486.96	24102.84
487.14	24334.55
487.32	24739.46
487.50	24610.73
487.68	24854.15
487.85	25322.26
488.03	25350.34
488.21	25748.23
488.39	26017.40
488.57	25968.24
488.75	26396.56
488.92	26497.20
489.10	26696.15
489.28	26984.04
489.46	27197.02
489.64	27426.40
489.81	27960.04
489.99	27552.79
490.17	27821.95
490.35	28428.15
490.53	28212.82
490.70	28121.54
490.88	28079.41
491.06	28627.09
491.24	28950.09
491.41	29092.86
491.59	29249.67
491.77	29317.55
491.95	29706.08
492.13	30003.33
492.30	30029.07
492.48	29841.83
492.66	30483.14
492.84	30321.64
493.01	30878.69
493.19	30775.70
493.37	31030.82
493.54	31159.55
493.72	31594.89
493.90	31501.27
494.08	31967.04
494.25	31725.96
494.43	31971.72
494.61	32598.98
494.79	32835.38
494.96	32491.32
495.14	32807.29
495.32	33064.75
495.49	33158.37
495.67	33397.10
495.85	33689.67
496.02	33689.67
496.20	33874.57
496.38	34412.90
496.55	34272.46
496.73	35131.44
496.91	34548.65
497.09	34979.31
497.26	35339.75
497.44	34834.19
497.62	35309.32
497.79	35669.76
497.97	35548.06
498.14	36018.50
498.32	36376.61
498.50	36594.28
498.67	36793.22
498.85	36444.48
499.03	36678.54
499.20	36484.27
499.38	36690.24
499.56	37256.65
499.73	37818.38
499.91	37565.60
500.08	37673.26
500.26	37846.46
500.44	37785.61
500.61	37731.78
500.79	37724.75
500.97	38202.22
501.14	38352.02
501.32	39002.69
501.49	38885.66
501.67	39218.02
501.84	39220.36
502.02	39494.20
502.20	39229.72
502.37	39349.09
502.55	39318.66
502.72	39435.69
502.90	39707.19
503.07	39849.96
503.25	39718.89
503.43	39768.04
503.60	40374.24
503.78	40121.46
503.95	40540.42
504.13	40942.99
504.30	40840.01
504.48	40495.95
504.65	40889.16
504.83	40687.87
505.01	41429.82
505.18	41221.52
505.36	41717.71
505.53	41329.18
505.71	41710.69
505.88	41783.24
506.06	41656.85
506.23	42052.41
506.41	41818.35
506.58	42153.05
506.76	42464.34
506.93	42450.30
507.11	42569.66
507.28	42792.01
507.46	42777.97
507.63	43192.25
507.81	43009.68
507.98	43342.04
508.16	43365.45
508.33	43416.94
508.50	43594.82
508.68	43763.34
508.85	44053.56
509.03	44083.99
509.20	44261.87
509.38	44570.82
509.55	44793.17
509.73	44554.44
509.90	44418.69
510.08	44390.60
510.25	44540.39
510.42	44975.73
510.60	45352.56
510.77	45153.62
510.95	45319.79
511.12	45092.76
511.30	45368.94
511.47	45612.36
511.64	45542.14
511.82	46007.91
511.99	45972.80
512.17	46361.33
512.34	45823.01
512.51	46529.85
512.69	46738.16
512.86	46518.15
513.04	47009.66
513.21	46546.23
513.38	46705.39
513.56	46916.04
513.73	46770.93
513.90	46899.65
514.08	46733.48
514.25	47384.15
514.43	47416.91
514.60	47367.76
514.77	47337.33
514.95	47810.12
515.12	47566.71
515.29	47758.63
515.47	47702.46
515.64	48692.50
515.81	47927.15
515.99	48439.73
516.16	48453.77
516.33	48893.79
516.51	48811.87
516.68	48402.28
516.85	48535.69
517.03	49359.56
517.20	49090.40
517.37	49331.47
517.54	48966.35
517.72	49120.82
517.89	49310.41
518.06	49455.52
518.24	49404.03
518.41	49315.09
518.58	49544.46
518.75	49441.48
518.93	49221.47
519.10	49471.90
519.27	49872.14
519.45	49839.37
519.62	49975.12
519.79	50059.38
519.96	50087.46
520.14	50026.61
520.31	50066.40
520.48	50356.63
520.65	50567.27
520.83	50632.81
521.00	50763.88
521.17	50890.27
521.34	50752.18
521.52	50892.61
521.69	51222.62
521.86	51178.15
522.03	51201.56
522.20	51489.45
522.38	51306.88
522.55	51461.36
522.72	51583.07
522.89	51398.16
523.07	51622.86
523.24	51643.92
523.41	52004.36
523.58	51501.15
523.75	52076.92
523.92	51718.82
524.10	52100.32
524.27	51938.83
524.44	52088.62
524.61	51943.51
524.78	52364.81
524.96	52355.44
525.13	52540.35
525.30	52479.49
525.47	52444.38
525.64	52479.49
525.81	52671.42
525.98	52669.08
526.16	52692.48
526.33	52692.48
526.50	52931.22
526.67	52626.95
526.84	52961.64
527.01	52999.09
527.18	52900.79
527.36	52893.77
527.53	53404.00
527.70	53284.64
527.87	53668.48
528.04	53244.85
528.21	53572.52
528.38	53352.51
528.55	53549.12
528.72	53523.37
528.89	53542.10
529.07	53755.08
529.24	53432.09
529.41	53879.13
529.58	53895.52
529.75	53708.27
529.92	53780.83
530.09	53928.28
530.26	53925.94
530.43	54178.72
530.60	53886.15
530.77	53921.26
530.94	54227.87
531.11	54152.97
531.28	54127.23
531.46	54401.07
531.63	54464.27
531.80	54438.52
531.97	54454.90
532.14	54623.42
532.31	54426.82
532.48	54578.95
532.65	54775.56
532.82	54372.99
532.99	54892.58
533.16	54710.02
533.33	55011.95
533.50	55103.23
533.67	54768.54
533.84	54918.33
534.01	54965.14
534.18	55042.38
534.35	55271.75
534.52	55084.51
534.69	55189.83
534.86	55407.50
535.03	55208.56
535.20	55327.92
535.37	55271.75
535.54	55283.45
535.71	55334.95
535.88	55578.36
536.05	55545.59
536.22	55547.93
536.38	55566.66
536.55	55653.26
536.72	55569.00
536.89	55903.70
537.06	55828.80
537.23	55721.13
537.40	55739.86
537.57	55789.01
537.74	55700.07
537.91	55990.30
538.08	55760.92
538.25	55767.94
538.42	56114.34
538.59	56137.75
538.75	56100.30
538.92	56044.13
539.09	56388.19
539.26	56095.62
539.43	56104.98
539.60	56095.62
539.77	56294.56
539.94	56725.22
540.11	56528.62
540.28	56603.52
540.44	56624.58
540.61	56449.04
540.78	56636.28
540.95	56308.61
541.12	56664.37
541.29	56378.82
541.46	56748.63
541.62	56692.46
541.79	56900.76
541.96	56596.49
542.13	56397.55
542.30	56919.49
542.47	56615.22
542.63	56985.02
542.80	56713.52
542.97	57263.55
543.14	57303.34
543.31	57284.61
543.48	57296.31
543.64	57619.31
543.81	57378.23
543.98	57293.97
544.15	57460.15
544.32	57462.49
544.48	57560.79
544.65	57528.03
544.82	57408.66
544.99	57263.55
545.16	57544.41
545.32	57450.79
545.49	57764.42
545.66	57820.59
545.83	57834.64
546.00	57972.73
546.16	57736.34
546.33	57645.05
546.50	57626.33
546.67	57860.38
546.83	57439.09
547.00	57776.12
547.17	57839.32
547.34	57743.36
547.50	58017.20
547.67	58246.57
547.84	58183.38
548.00	57989.11
548.17	58101.46
548.34	58136.57
548.51	58073.37
548.67	58251.25
548.84	58286.36
549.01	58166.99
549.18	58232.53
549.34	58323.81
549.51	58328.49
549.68	58525.10
549.84	58403.39
550.01	58344.87
550.18	58272.32
550.34	58590.63
550.51	58529.78
550.68	58440.84
550.84	58251.25
551.01	58812.98
551.18	58618.72
551.34	58576.59
551.51	58752.13
551.68	58763.83
551.84	58698.30
552.01	58403.39
552.18	58801.28
552.34	58756.81
552.51	58885.54
552.68	58688.93
552.84	58557.86
553.01	58880.86
553.18	58920.65
553.34	58965.12
553.51	58812.98
553.67	58808.30
553.84	59072.78
554.01	59061.08
554.17	58995.54
554.34	59035.33
554.51	59091.51
554.67	59196.83
554.84	58983.84
555.00	59135.98
555.17	59152.36
555.33	59075.12
555.50	59135.98
555.67	59089.16
555.83	58981.50
556.00	59199.17
556.16	59480.03
556.33	59248.32
556.50	59269.39
556.66	59423.86
556.83	59217.89
556.99	59454.29
557.16	59683.66
557.32	59709.41
557.49	59573.66
557.65	59477.69
557.82	59248.32
557.98	59505.78
558.15	59437.90
558.32	59590.04
558.48	59363.01
558.65	59449.61
558.81	59484.72
558.98	59573.66
559.14	59700.04
559.31	59779.62
559.47	59760.90
559.64	59704.73
559.80	59870.90
559.97	59772.60
560.13	59849.84
560.30	59550.25
560.46	59873.24
560.63	59835.80
560.79	59889.63
560.96	60076.87
561.12	59845.16
561.29	59943.46
561.45	59934.10
561.61	59826.43
561.78	59824.09
561.94	59906.01
562.11	59826.43
562.27	60032.40
562.44	60013.68
562.60	60079.21
562.77	60030.06
562.93	59915.37
563.10	60055.81
563.26	59976.23
563.42	60336.67
563.59	60079.21
563.75	60006.65
563.92	60133.04
564.08	60020.70
564.24	60149.43
564.41	60233.69
564.57	60116.66
564.74	60238.37
564.90	60111.98
565.07	60090.91
565.23	60100.28
565.39	60327.31
565.56	60250.07
565.72	60198.58
565.88	60219.64
566.05	60261.77
566.21	60229.01
566.38	60126.02
566.54	60261.77
566.70	60315.61
566.87	60418.59
567.03	60343.69
567.19	60657.32
567.36	60474.76
567.52	60549.66
567.68	60573.06
567.85	60523.91
568.01	60488.80
568.17	60329.65
568.34	60430.29
568.50	60350.71
568.66	60631.58
568.83	60495.83
568.99	60512.21
569.15	60402.21
569.32	60493.49
569.48	60334.33
569.64	60631.58
569.81	60629.24
569.97	60472.42
570.13	60458.38
570.30	60390.50
570.46	60484.12
570.62	60516.89
570.78	60441.99
570.95	60430.29
571.11	60472.42
571.27	60444.33
571.43	60708.82
571.60	60697.11
571.76	60484.12
571.92	60739.24
572.09	60666.69
572.25	60669.03
572.41	60580.09
572.57	60673.71
572.74	60793.07
572.90	60804.78
573.06	60568.38
573.22	60610.51
573.38	60640.94
573.55	60720.52
573.71	61104.37
573.87	60753.29
574.03	60552.00
574.20	60795.42
574.36	60542.64
574.52	60814.14
574.68	60839.89
574.84	60851.59
575.01	60790.73
575.17	60961.59
575.33	60701.79
575.49	60486.46
575.65	60928.83
575.82	60762.65
575.98	60750.94
576.14	61038.83
576.30	60938.19
576.46	60772.01
576.62	60722.86
576.79	60741.58
576.95	60678.39
577.11	60907.76
577.27	60867.97
577.43	60797.76
577.59	60701.79
577.75	60860.95
577.92	60935.85
578.08	60818.82
578.24	60924.14
578.40	61172.24
578.56	60996.70
578.72	60877.33
578.88	60839.89
579.04	61109.05
579.21	60891.38
579.37	61043.51
579.53	61193.31
579.69	60772.01
579.85	60980.32
580.01	61027.13
580.17	60800.10
580.33	61102.03
580.49	60980.32
580.65	60999.04
580.82	61036.49
580.98	60835.20
581.14	60921.80
581.30	61258.84
581.46	60870.31
581.62	61020.11
581.78	61029.47
581.94	61106.71
582.10	61017.77
582.26	61020.11
582.42	60828.18
582.58	61275.22
582.74	61080.96
582.90	60898.40
583.06	61106.71
583.22	61048.19
583.38	61106.71
583.54	60940.53
583.70	61008.40
583.86	61123.09
584.02	60926.49
584.18	61183.94
584.34	61062.24
584.50	60886.70
584.66	61022.45
584.82	60837.54
584.98	61141.81
585.14	61151.18
585.30	60917.12
585.46	61057.56
585.62	61029.47
585.78	61160.54
585.94	60867.97
586.10	61071.60
586.26	61254.16
586.42	61322.04
586.58	61326.72
586.74	61017.77
586.90	61066.92
587.06	60982.66
587.22	61212.03
587.38	61209.69
587.54	61298.63
587.70	61432.04
587.86	61209.69
588.02	61193.31
588.18	61118.41
588.34	61169.90
588.49	61052.87
