SpectraSuite Data File
++++++++++++++++++++++++++++++++++++
Date: Fri Oct 25 11:22:53 EDT 2013
User: price-jones
Dark Spectrum Present: No
Reference Spectrum Present: No
Number of Sampled Component Spectra: 1
Spectrometers: USB2+H05261
Integration Time (usec): 100000 (USB2+H05261)
Spectra Averaged: 1 (USB2+H05261)
Boxcar Smoothing: 0 (USB2+H05261)
Correct for Electrical Dark: No (USB2+H05261)
Strobe/Lamp Enabled: No (USB2+H05261)
Correct for Detector Non-linearity: No (USB2+H05261)
Correct for Stray Light: No (USB2+H05261)
Number of Pixels in Processed Spectrum: 2048
>>>>>Begin Processed Spectral Data<<<<<
365.73	238.73
365.92	238.73
366.12	238.73
366.32	95.96
366.52	44.47
366.72	126.39
366.91	145.11
367.11	95.96
367.31	124.05
367.51	159.16
367.70	65.54
367.90	70.22
368.10	187.24
368.30	81.92
368.49	84.26
368.69	121.71
368.89	138.09
369.09	156.82
369.28	124.05
369.48	205.97
369.68	126.39
369.87	304.27
370.07	189.58
370.27	126.39
370.47	362.78
370.66	545.34
370.86	634.29
371.06	655.35
371.25	676.41
371.45	645.99
371.65	664.71
371.84	741.95
372.04	697.48
372.24	716.20
372.44	727.91
372.63	699.82
372.83	697.48
373.03	763.01
373.22	734.93
373.42	851.96
373.62	802.80
373.81	720.88
374.01	868.34
374.21	720.88
374.40	835.57
374.60	809.83
374.79	821.53
374.99	786.42
375.19	826.21
375.38	868.34
375.58	814.51
375.78	844.93
375.97	917.49
376.17	903.45
376.37	882.38
376.56	882.38
376.76	903.45
376.95	816.85
377.15	896.43
377.35	868.34
377.54	854.30
377.74	844.93
377.93	959.62
378.13	858.98
378.33	901.11
378.52	931.53
378.72	938.55
378.91	884.72
379.11	964.30
379.31	940.90
379.50	896.43
379.70	1001.75
379.89	1071.97
380.09	976.00
380.28	1041.54
380.48	987.71
380.68	924.51
380.87	959.62
381.07	1043.88
381.26	1055.58
381.46	1064.94
381.65	1029.84
381.85	1069.62
382.04	954.94
382.24	1064.94
382.43	1022.81
382.63	1102.39
382.83	1121.12
383.02	1132.82
383.22	1109.41
383.41	1137.50
383.61	1111.75
383.80	1093.03
384.00	1193.67
384.19	1123.46
384.39	1146.86
384.58	1139.84
384.78	1097.71
384.97	1151.54
385.17	1200.69
385.36	1135.16
385.56	1242.82
385.75	1196.01
385.95	1210.06
386.14	1270.91
386.34	1142.18
386.53	1179.63
386.72	1205.38
386.92	1165.59
387.11	1203.04
387.31	1198.35
387.50	1294.32
387.70	1238.14
387.89	1364.53
388.09	1291.98
388.28	1266.23
388.48	1334.11
388.67	1336.45
388.86	1329.42
389.06	1336.45
389.25	1409.00
389.45	1394.96
389.64	1390.28
389.84	1420.71
390.03	1369.21
390.22	1460.49
390.42	1320.06
390.61	1350.49
390.81	1343.47
391.00	1437.09
391.19	1451.13
391.39	1373.89
391.58	1465.18
391.78	1537.73
391.97	1551.78
392.16	1490.92
392.36	1579.86
392.55	1568.16
392.75	1549.43
392.94	1465.18
393.13	1596.25
393.33	1563.48
393.52	1605.61
393.71	1530.71
393.91	1621.99
394.10	1607.95
394.29	1647.74
394.49	1603.27
394.68	1614.97
394.88	1586.88
395.07	1657.10
395.26	1652.42
395.46	1696.89
395.65	1710.93
395.84	1760.08
396.04	1746.04
396.23	1739.02
396.42	1837.32
396.62	1795.19
396.81	1806.89
397.00	1823.28
397.19	1879.45
397.39	1846.68
397.58	1792.85
397.77	1820.94
397.97	1886.47
398.16	1830.30
398.35	1851.36
398.55	2008.18
398.74	1991.80
398.93	1923.92
399.12	1888.81
399.32	1942.64
399.51	1961.37
399.70	1839.66
399.90	1900.52
400.09	1984.77
400.28	2157.97
400.47	2040.95
400.67	2066.69
400.86	1998.82
401.05	2141.59
401.24	2113.50
401.44	2090.10
401.63	2111.16
401.82	2202.44
402.01	2127.55
402.21	2260.96
402.40	2157.97
402.59	2197.76
402.78	2225.85
402.97	2235.21
403.17	2186.06
403.36	2260.96
403.55	2296.07
403.74	2356.92
403.93	2387.35
404.13	2382.67
404.32	2296.07
404.51	2363.94
404.70	2457.56
404.89	2436.50
405.09	2511.39
405.28	2401.39
405.47	2497.35
405.66	2438.84
405.85	2485.65
406.05	2574.59
406.24	2525.44
406.43	2647.15
406.62	2551.18
406.81	2724.38
407.00	2562.89
407.20	2574.59
407.39	2630.76
407.58	2743.11
407.77	2738.43
407.96	2715.02
408.15	2801.62
408.34	2782.90
408.54	2850.77
408.73	2738.43
408.92	2839.07
409.11	2918.65
409.30	2956.10
409.49	2789.92
409.68	3012.27
409.87	3005.25
410.07	2986.52
410.26	2970.14
410.45	3016.95
410.64	3021.63
410.83	3094.19
411.02	3143.34
411.21	3218.24
411.40	3126.96
411.59	3253.34
411.78	3342.28
411.98	3234.62
412.17	3321.22
412.36	3328.24
412.55	3447.61
412.74	3447.61
412.93	3440.59
413.12	3463.99
413.31	3569.32
413.50	3396.12
413.69	3555.27
413.88	3639.53
414.07	3616.13
414.26	3574.00
414.45	3592.72
414.64	3740.18
414.83	3861.88
415.02	3857.20
415.22	3873.59
415.41	3927.42
415.60	4007.00
415.79	3957.85
415.98	4121.68
416.17	4009.34
416.36	3887.63
416.55	4159.13
416.74	4009.34
416.93	3955.51
417.12	4227.01
417.31	4074.87
417.50	4079.55
417.69	4156.79
417.88	4355.74
418.07	4386.16
418.26	4306.59
418.45	4472.76
418.64	4589.79
418.83	4561.70
419.02	4521.92
419.21	4592.13
419.39	4596.81
419.58	4374.46
419.77	4521.92
419.96	4571.07
420.15	4468.08
420.34	4748.95
420.53	4774.69
420.72	4744.27
420.91	4688.09
421.10	4819.16
421.29	4716.18
421.48	4706.82
421.67	4971.30
421.86	4830.87
422.05	4849.59
422.24	4896.40
422.43	4847.25
422.61	4990.02
422.80	4952.57
422.99	4990.02
423.18	5083.64
423.37	5055.56
423.56	4884.70
423.75	4856.61
423.94	4987.68
424.13	4603.83
424.32	4793.42
424.50	4887.04
424.69	5142.16
424.88	5015.77
425.07	4887.04
425.26	4936.19
425.45	5071.94
425.64	5214.71
425.83	5041.51
426.01	5081.30
426.20	5062.58
426.39	5088.32
426.58	5156.20
426.77	4971.30
426.96	5146.84
427.15	5228.76
427.33	5118.75
427.52	5151.52
427.71	5205.35
427.90	5177.26
428.09	5298.97
428.28	5397.28
428.46	5453.45
428.65	5350.46
428.84	5591.54
429.03	5614.95
429.22	5474.51
429.40	5706.23
429.59	5465.15
429.78	5179.61
429.97	5228.76
430.16	5495.58
430.34	5783.46
430.53	5685.16
430.72	5668.78
430.91	5738.99
431.10	5645.37
431.28	5771.76
431.47	5652.39
431.66	5951.98
431.85	5858.36
432.03	5959.00
432.22	6045.60
432.41	5970.71
432.60	6169.65
432.79	6036.24
432.97	5893.47
433.16	6148.59
433.35	6047.94
433.54	6015.18
433.72	6061.99
433.91	6061.99
434.10	6216.46
434.28	6258.59
434.47	6253.91
434.66	6537.12
434.85	6338.17
435.03	6284.34
435.22	6310.08
435.41	6480.94
435.59	6396.68
435.78	6401.37
435.97	6593.29
436.16	6555.84
436.34	6490.31
436.53	6480.94
436.72	6747.76
436.90	6424.77
437.09	6722.02
437.28	6473.92
437.46	6637.76
437.65	6846.07
437.84	6967.77
438.02	6869.47
438.21	6820.32
438.40	6710.32
438.58	7063.74
438.77	6970.12
438.96	7035.65
439.14	7260.34
439.33	7304.81
439.52	7272.04
439.70	7096.50
439.89	7407.80
440.08	7637.17
440.26	7522.48
440.45	7349.28
440.63	7623.12
440.82	7665.25
441.01	7592.70
441.19	7644.19
441.38	7810.37
441.57	7892.29
441.75	7824.41
441.94	7976.55
442.12	8013.99
442.31	8121.66
442.50	8170.81
442.68	8107.62
442.87	8138.04
443.05	8121.66
443.24	8322.94
443.43	8292.52
443.61	8177.83
443.80	8421.25
443.98	8049.10
444.17	7864.20
444.35	8271.45
444.54	8376.78
444.73	8339.33
444.91	8278.47
445.10	8498.49
445.28	8386.14
445.47	8297.20
445.65	8500.83
445.84	8659.98
446.02	8437.63
446.21	8435.29
446.39	8655.30
446.58	8587.43
446.77	8643.60
446.95	8344.01
447.14	8564.02
447.32	8898.72
447.51	8575.72
447.69	8587.43
447.88	8496.14
448.06	8540.61
448.25	8652.96
448.43	8561.68
448.62	8615.51
448.80	8755.94
448.99	8791.05
449.17	8879.99
449.36	8844.88
449.54	9114.05
449.73	8999.36
449.91	9025.11
450.10	9057.87
450.28	9156.18
450.46	9083.62
450.65	9111.71
450.83	9256.82
451.02	9011.06
451.20	9224.05
451.39	9238.09
451.57	9144.47
451.76	9413.63
451.94	9357.46
452.13	9369.16
452.31	9334.06
452.49	9198.31
452.68	9493.21
452.86	9296.61
453.05	9455.76
453.23	9621.94
453.42	9373.85
453.60	9596.20
453.78	9617.26
453.97	9589.17
454.15	9776.42
454.34	9617.26
454.52	9991.75
454.70	9753.01
454.89	9694.50
455.07	9933.23
455.26	9942.60
455.44	10141.54
455.62	10083.03
455.81	10108.77
455.99	9963.66
456.17	10125.16
456.36	10038.56
456.54	10303.04
456.73	10333.47
456.91	10389.64
457.09	10511.35
457.28	10850.72
457.46	10469.22
457.64	10726.68
457.83	10738.38
458.01	10251.55
458.19	10714.97
458.38	10736.04
458.56	10775.83
458.74	10494.96
458.93	10642.42
459.11	10712.63
459.29	10677.52
459.48	10803.91
459.66	10792.21
459.84	10855.40
460.03	11236.91
460.21	11159.67
460.39	11087.12
460.57	11112.86
460.76	11243.93
460.94	11410.11
461.12	11218.19
461.31	11337.56
461.49	11197.12
461.67	11094.14
461.85	11477.99
462.04	11566.93
462.22	12065.46
462.40	11485.01
462.59	11569.27
462.77	11662.89
462.95	11763.53
463.13	11857.15
463.32	11871.20
463.50	11815.02
463.68	11971.84
463.86	11740.13
464.05	11850.13
464.23	11829.07
464.41	11962.48
464.59	11793.96
464.78	12521.87
464.96	12002.27
465.14	12065.46
465.32	12121.63
465.50	12109.93
465.69	12020.99
465.87	12451.65
466.05	12269.09
466.23	12238.66
466.41	12552.29
466.60	12449.31
466.78	12531.23
466.96	12283.13
467.14	12393.14
467.32	12624.85
467.51	12601.44
467.69	12297.17
467.87	12594.42
468.05	12533.57
468.23	12594.42
468.41	12554.63
468.60	12493.78
468.78	12685.70
468.96	12566.34
469.14	12968.91
469.32	13025.08
469.50	12734.85
469.69	12947.84
469.87	13317.65
470.05	13050.83
470.23	13224.03
470.41	13301.26
470.59	13362.12
470.77	13238.07
470.95	13392.55
471.14	13547.02
471.32	13429.99
471.50	13802.14
471.68	13867.67
471.86	14017.47
472.04	13928.53
472.22	14178.97
472.40	13860.65
472.58	14010.45
472.77	14218.75
472.95	14298.33
473.13	14611.96
473.31	14382.59
473.49	14408.34
473.67	14207.05
473.85	14368.55
474.03	14562.81
474.21	14541.75
474.39	14583.88
474.57	14857.72
474.75	15215.82
474.93	15059.01
475.12	15147.95
475.30	15384.34
475.48	15309.44
475.66	15323.49
475.84	15246.25
476.02	15510.73
476.20	15667.55
476.38	15704.99
476.56	15936.71
476.74	16130.97
476.92	16070.12
477.10	15763.51
477.28	16350.98
477.46	16255.02
477.64	16716.11
477.82	16861.22
478.00	17139.74
478.18	16940.80
478.36	17156.13
478.54	17383.16
478.72	17451.03
478.90	17446.35
479.08	17731.90
479.26	17591.47
479.44	18249.16
479.62	17989.36
479.80	18314.69
479.98	18181.28
480.16	18810.89
480.34	18288.95
480.52	18789.82
480.70	18705.56
480.88	18490.23
481.06	18843.65
481.24	19131.54
481.41	19374.95
481.59	19627.73
481.77	19697.95
481.95	19599.65
482.13	19798.59
482.31	20023.28
482.49	20662.25
482.67	20184.78
482.85	20409.47
483.03	20762.89
483.21	21113.97
483.39	21088.23
483.57	21247.38
483.74	21680.38
483.92	21401.86
484.10	21383.13
484.28	22019.76
484.46	22401.27
484.64	22497.23
484.82	22541.70
485.00	22759.37
485.18	23028.53
485.35	22974.70
485.53	23197.05
485.71	23075.34
485.89	23293.01
486.07	23697.92
486.25	23758.78
486.43	24217.52
486.61	23962.40
486.78	24044.32
486.96	24194.12
487.14	24645.84
487.32	24875.21
487.50	25029.69
487.68	24996.92
487.85	25891.01
488.03	25748.23
488.21	25930.80
488.39	25951.86
488.57	26581.46
488.75	26401.24
488.92	26733.60
489.10	26771.05
489.28	26740.62
489.46	27527.04
489.64	27105.74
489.81	27618.32
489.99	27871.10
490.17	28201.11
490.35	28315.80
490.53	28535.81
490.70	28395.38
490.88	28790.93
491.06	29256.70
491.24	29397.13
491.41	29343.30
491.59	29298.83
491.77	29528.20
491.95	30003.33
492.13	30015.03
492.30	30115.67
492.48	30654.00
492.66	30738.26
492.84	30787.41
493.01	31248.49
493.19	31119.76
493.37	31417.01
493.54	31274.24
493.72	31812.56
493.90	31840.65
494.08	32250.24
494.25	32416.42
494.43	31995.12
494.61	32467.91
494.79	32751.12
494.96	33113.90
495.14	33076.45
495.32	33457.96
495.49	33549.24
495.67	33397.10
495.85	34019.69
496.02	34015.01
496.20	34340.34
496.38	34160.12
496.55	34171.82
496.73	35232.08
496.91	35182.93
497.09	35178.25
497.26	35187.61
497.44	35400.60
497.62	35847.64
497.79	36180.00
497.97	35679.13
498.14	36112.13
498.32	36666.83
498.50	36304.05
498.67	36992.17
498.85	36737.05
499.03	37256.65
499.20	37167.71
499.38	37387.72
499.56	37525.81
499.73	37514.11
499.91	37844.12
500.08	37605.39
500.26	37642.84
500.44	37708.37
500.61	38403.51
500.79	38412.87
500.97	38621.18
501.14	38794.38
501.32	39215.68
501.49	38803.74
501.67	38899.70
501.84	39185.25
502.02	39168.87
502.20	39091.63
502.37	40074.65
502.55	39871.03
502.72	39662.72
502.90	40011.46
503.07	40158.91
503.25	40205.72
503.43	40301.68
503.60	40524.04
503.78	40460.84
503.95	40591.91
504.13	40788.52
504.30	41263.64
504.48	40961.72
504.65	41216.83
504.83	41240.24
505.01	41586.64
505.18	41200.45
505.36	41888.57
505.53	41521.10
505.71	41909.63
505.88	42497.11
506.06	42230.29
506.23	42450.30
506.41	42230.29
506.58	42522.85
506.76	42265.39
506.93	42822.44
507.11	42969.90
507.28	43105.65
507.46	43360.76
507.63	43049.47
507.81	43573.75
507.98	43393.53
508.16	43721.21
508.33	43519.92
508.50	43599.50
508.68	43962.28
508.85	44179.95
509.03	44388.26
509.20	44493.58
509.38	44830.62
509.55	44748.70
509.73	44411.67
509.90	45162.98
510.08	45146.59
510.25	45485.97
510.42	45308.09
510.60	45380.65
510.77	45462.57
510.95	45670.87
511.12	45071.70
511.30	45713.00
511.47	45689.60
511.64	45710.66
511.82	46199.83
511.99	45764.49
512.17	46078.13
512.34	46272.39
512.51	46766.24
512.69	46822.42
512.86	46752.20
513.04	47192.22
513.21	47185.20
513.38	47463.72
513.56	47409.89
513.73	46887.95
513.90	47320.95
514.08	47334.99
514.25	47767.99
514.43	47840.55
514.60	47892.04
514.77	47910.77
514.95	47910.77
515.12	47892.04
515.29	48060.56
515.47	48191.63
515.64	48388.24
515.81	48385.89
515.99	48854.00
516.16	48704.21
516.33	48587.18
516.51	49120.82
516.68	48856.34
516.85	48839.96
517.03	49591.27
517.20	49404.03
517.37	49322.11
517.54	49205.08
517.72	49085.72
517.89	49279.98
518.06	49415.73
518.24	49392.33
518.41	49485.95
518.58	49490.63
518.75	49670.85
518.93	49731.70
519.10	49961.08
519.27	49830.01
519.45	50216.19
519.62	50426.84
519.79	50197.47
519.96	50553.23
520.14	50639.83
520.31	50703.03
520.48	50759.20
520.65	50941.76
520.83	51168.79
521.00	51365.40
521.17	50878.57
521.34	50782.60
521.52	51171.13
521.69	51007.29
521.86	51447.32
522.03	51423.91
522.20	51510.51
522.38	51826.48
522.55	51789.03
522.72	51597.11
522.89	51875.63
523.07	51807.76
523.24	51990.32
523.41	51899.04
523.58	51494.13
523.75	52154.16
523.92	51983.30
524.10	52191.61
524.27	52310.97
524.44	52432.68
524.61	52327.36
524.78	52610.56
524.96	52329.70
525.13	52912.49
525.30	52917.17
525.47	52912.49
525.64	53219.10
525.81	52898.45
525.98	53003.77
526.16	52807.17
526.33	52956.96
526.50	53015.47
526.67	53008.45
526.84	53329.11
527.01	52978.03
527.18	52961.64
527.36	53113.78
527.53	53474.22
527.70	53635.72
527.87	53853.39
528.04	53591.25
528.21	53588.91
528.38	53488.26
528.55	54160.00
528.72	53773.81
528.89	53862.75
529.07	53818.28
529.24	53986.80
529.41	54017.22
529.58	53867.43
529.75	53853.39
529.92	54204.47
530.09	54185.74
530.26	54206.81
530.43	54319.15
530.60	54162.34
530.77	54197.44
530.94	54691.30
531.11	54129.57
531.28	54412.77
531.46	54342.56
531.63	54433.84
531.80	54885.56
531.97	54735.77
532.14	54663.21
532.31	54780.24
532.48	54967.48
532.65	54841.09
532.82	54798.96
532.99	54927.69
533.16	54749.81
533.33	55168.77
533.50	55201.53
533.67	55330.26
533.84	55091.53
534.01	55210.90
534.18	55257.71
534.35	55674.32
534.52	55243.66
534.69	55379.42
534.86	55538.57
535.03	55578.36
535.20	55426.23
535.37	55866.25
535.54	55625.17
535.71	55599.43
535.88	55856.88
536.05	55791.35
536.22	55884.97
536.38	56072.21
536.55	55723.47
536.72	55936.46
536.89	55751.56
537.06	55838.16
537.23	56067.53
537.40	55739.86
537.57	56048.81
537.74	56250.09
537.91	56287.54
538.08	56303.93
538.25	56121.37
538.42	56207.97
538.59	56528.62
538.75	56191.58
538.92	56404.57
539.09	56453.72
539.26	56458.40
539.43	56346.06
539.60	56561.39
539.77	56528.62
539.94	56725.22
540.11	56690.12
540.28	56774.37
540.44	56666.71
540.61	56568.41
540.78	56570.75
540.95	56793.10
541.12	56580.11
541.29	56856.29
541.46	56947.57
541.62	56816.50
541.79	56933.53
541.96	56772.03
542.13	56858.63
542.30	57008.43
542.47	57279.93
542.63	57144.18
542.80	57340.78
542.97	57219.08
543.14	57607.61
543.31	57329.08
543.48	57483.56
543.64	57556.11
543.81	57670.80
543.98	57656.76
544.15	57570.16
544.32	57715.27
544.48	57829.96
544.65	57614.63
544.82	57764.42
544.99	57645.05
545.16	57904.85
545.32	57654.42
545.49	57923.58
545.66	58042.95
545.83	57968.05
546.00	57815.91
546.16	57799.53
546.33	57792.51
546.50	57729.31
546.67	58054.65
546.83	57518.67
547.00	58042.95
547.17	58174.02
547.34	57928.26
547.50	58480.63
547.67	58433.81
547.84	58260.62
548.00	58251.25
548.17	58447.86
548.34	58319.13
548.51	58506.37
548.67	58599.99
548.84	58438.50
549.01	58520.41
549.18	58255.93
549.34	58543.82
549.51	58702.98
549.68	58656.17
549.84	58646.80
550.01	58546.16
550.18	58431.47
550.34	58604.67
550.51	58740.42
550.68	58775.53
550.84	58377.64
551.01	58927.67
551.18	58876.18
551.34	58674.89
551.51	58908.94
551.68	58733.40
551.84	58756.81
552.01	58820.00
552.18	59000.22
552.34	58763.83
552.51	59164.06
552.68	58777.87
552.84	58883.20
553.01	59201.51
553.18	59220.23
553.34	59030.65
553.51	58873.84
553.67	59173.42
553.84	59091.51
554.01	59283.43
554.17	59215.55
554.34	59313.86
554.51	59121.93
554.67	59229.60
554.84	59302.15
555.00	59201.51
555.17	59007.25
555.33	59327.90
555.50	59271.73
555.67	59126.61
555.83	59274.07
556.00	59281.09
556.16	59765.58
556.33	59477.69
556.50	59503.44
556.66	59849.84
556.83	59503.44
556.99	59531.53
557.16	59643.87
557.32	59721.11
557.49	59913.03
557.65	59554.93
557.82	59566.63
557.98	59597.06
558.15	59681.32
558.32	59587.70
558.48	59765.58
558.65	59716.43
558.81	59716.43
558.98	59863.88
559.14	59917.71
559.31	59861.54
559.47	59760.90
559.64	59917.71
559.80	59931.76
559.97	59980.91
560.13	59983.25
560.30	60147.09
560.46	60037.08
560.63	60018.36
560.79	60086.23
560.96	60147.09
561.12	60151.77
561.29	60135.38
561.45	60016.02
561.61	60214.96
561.78	60119.00
561.94	60009.00
562.11	60219.64
562.27	60217.30
562.44	60032.40
562.60	60191.56
562.77	60081.55
562.93	60055.81
563.10	60303.90
563.26	60123.68
563.42	60444.33
563.59	60247.73
563.75	60399.86
563.92	60250.07
564.08	60182.19
564.24	60221.98
564.41	60282.84
564.57	60369.44
564.74	60315.61
564.90	60404.55
565.07	60444.33
565.23	60392.84
565.39	60385.82
565.56	60523.91
565.72	60264.11
565.88	60399.86
566.05	60343.69
566.21	60357.74
566.38	60406.89
566.54	60498.17
566.70	60722.86
566.87	60699.45
567.03	60308.58
567.19	60832.86
567.36	60427.95
567.52	60486.46
567.68	60715.84
567.85	60643.28
568.01	60596.47
568.17	60498.17
568.34	60713.50
568.50	60711.16
568.66	60570.72
568.83	60472.42
568.99	60610.51
569.15	60512.21
569.32	60690.09
569.48	60720.52
569.64	60748.60
569.81	60554.34
569.97	60647.96
570.13	60549.66
570.30	60776.69
570.46	60622.22
570.62	60851.59
570.78	60645.62
570.95	60874.99
571.11	60982.66
571.27	60825.84
571.43	60790.73
571.60	61020.11
571.76	60968.61
571.92	60825.84
572.09	60654.98
572.25	60935.85
572.41	60633.92
572.57	61006.06
572.74	60980.32
572.90	60816.48
573.06	60940.53
573.22	60673.71
573.38	60762.65
573.55	60725.20
573.71	60835.20
573.87	60963.93
574.03	60783.71
574.20	60893.72
574.36	61001.38
574.52	61024.79
574.68	60856.27
574.84	61130.11
575.01	60963.93
575.17	61064.58
575.33	61027.13
575.49	60828.18
575.65	60940.53
575.82	61073.94
575.98	60776.69
576.14	61144.16
576.30	61146.50
576.46	60921.80
576.62	61006.06
576.79	60956.91
576.95	60992.02
577.11	61125.43
577.27	61071.60
577.43	60985.00
577.59	61048.19
577.75	61158.20
577.92	60858.61
578.08	61048.19
578.24	61006.06
578.40	61155.86
578.56	61036.49
578.72	61003.72
578.88	61059.90
579.04	61385.23
579.21	61221.39
579.37	61087.98
579.53	61268.20
579.69	60893.72
579.85	61057.56
580.01	61048.19
580.17	60940.53
580.33	61083.30
580.49	61160.54
580.65	61055.21
580.82	60977.98
580.98	61031.81
581.14	60900.74
581.30	61144.16
581.46	61087.98
581.62	61102.03
581.78	61146.50
581.94	61190.97
582.10	61010.74
582.26	61202.67
582.42	61087.98
582.58	61095.00
582.74	60973.30
582.90	61134.79
583.06	61202.67
583.22	61104.37
583.38	61141.81
583.54	61087.98
583.70	61272.88
583.86	61336.08
584.02	61059.90
584.18	61436.72
584.34	61373.53
584.50	61113.73
584.66	61036.49
584.82	60884.36
584.98	61333.74
585.14	61312.67
585.30	61160.54
585.46	61188.63
585.62	61230.75
585.78	61490.55
585.94	61137.13
586.10	61347.78
586.26	61289.27
586.42	61249.48
586.58	61441.40
586.74	61244.80
586.90	61190.97
587.06	61188.63
587.22	61399.27
587.38	61160.54
587.54	61504.60
587.70	61415.66
587.86	61324.38
588.02	61303.31
588.18	61389.91
588.34	61209.69
588.49	61179.26
