SpectraSuite Data File
++++++++++++++++++++++++++++++++++++
Date: Fri Oct 25 11:34:00 EDT 2013
User: price-jones
Dark Spectrum Present: No
Reference Spectrum Present: No
Number of Sampled Component Spectra: 1
Spectrometers: USB2+H05261
Integration Time (usec): 100000 (USB2+H05261)
Spectra Averaged: 1 (USB2+H05261)
Boxcar Smoothing: 0 (USB2+H05261)
Correct for Electrical Dark: No (USB2+H05261)
Strobe/Lamp Enabled: No (USB2+H05261)
Correct for Detector Non-linearity: No (USB2+H05261)
Correct for Stray Light: No (USB2+H05261)
Number of Pixels in Processed Spectrum: 2048
>>>>>Begin Processed Spectral Data<<<<<
365.73	220.01
365.92	220.01
366.12	220.01
366.32	234.05
366.52	168.52
366.72	184.90
366.91	175.54
367.11	173.20
367.31	145.11
367.51	220.01
367.70	220.01
367.90	184.90
368.10	191.92
368.30	203.63
368.49	205.97
368.69	236.39
368.89	236.39
369.09	194.26
369.28	126.39
369.48	196.60
369.68	245.76
369.87	201.29
370.07	224.69
370.27	241.08
370.47	381.51
370.66	498.53
370.86	512.58
371.06	430.66
371.25	514.92
371.45	582.79
371.65	624.92
371.84	571.09
372.04	528.96
372.24	543.00
372.44	603.86
372.63	634.29
372.83	645.99
373.03	575.77
373.22	592.16
373.42	547.69
373.62	674.07
373.81	697.48
374.01	739.61
374.21	660.03
374.40	603.86
374.60	653.01
374.79	559.39
374.99	669.39
375.19	643.65
375.38	641.31
375.58	650.67
375.78	671.73
375.97	636.63
376.17	702.16
376.37	669.39
376.56	645.99
376.76	641.31
376.95	774.72
377.15	688.12
377.35	660.03
377.54	667.05
377.74	648.33
377.93	704.50
378.13	676.41
378.33	786.42
378.52	688.12
378.72	727.91
378.91	786.42
379.11	812.17
379.31	695.14
379.50	690.46
379.70	690.46
379.89	800.46
380.09	767.70
380.28	718.54
380.48	711.52
380.68	720.88
380.87	758.33
381.07	704.50
381.26	732.59
381.46	786.42
381.65	716.20
381.85	688.12
382.04	772.38
382.24	702.16
382.43	763.01
382.63	819.19
382.83	760.67
383.02	830.89
383.22	765.36
383.41	767.70
383.61	798.12
383.80	765.36
384.00	758.33
384.19	826.21
384.39	788.76
384.58	767.70
384.78	856.64
384.97	730.25
385.17	765.36
385.36	821.53
385.56	856.64
385.75	784.08
385.95	823.87
386.14	814.51
386.34	931.53
386.53	828.55
386.72	877.70
386.92	917.49
387.11	856.64
387.31	922.17
387.50	891.74
387.70	875.36
387.89	910.47
388.09	931.53
388.28	908.13
388.48	961.96
388.67	1006.43
388.86	947.92
389.06	912.81
389.25	924.51
389.45	952.60
389.64	873.02
389.84	968.98
390.03	1004.09
390.22	945.58
390.42	945.58
390.61	947.92
390.81	987.71
391.00	868.34
391.19	919.83
391.39	1036.86
391.58	915.15
391.78	964.30
391.97	1008.77
392.16	992.39
392.36	1074.31
392.55	1090.69
392.75	1053.24
392.94	1097.71
393.13	1050.90
393.33	1060.26
393.52	1142.18
393.71	1071.97
393.91	1025.15
394.10	1081.33
394.29	1076.65
394.49	1165.59
394.68	1118.78
394.88	1135.16
395.07	1205.38
395.26	1102.39
395.46	1118.78
395.65	1174.95
395.84	1114.10
396.04	1203.04
396.23	1181.97
396.42	1245.16
396.62	1224.10
396.81	1217.08
397.00	1214.74
397.19	1266.23
397.39	1135.16
397.58	1249.85
397.77	1191.33
397.97	1226.44
398.16	1179.63
398.35	1273.25
398.55	1184.31
398.74	1191.33
398.93	1338.79
399.12	1277.93
399.32	1231.12
399.51	1329.42
399.70	1364.53
399.90	1301.34
400.09	1296.66
400.28	1397.30
400.47	1369.21
400.67	1444.11
400.86	1371.55
401.05	1401.98
401.24	1289.64
401.44	1446.45
401.63	1427.73
401.82	1495.60
402.01	1455.81
402.21	1516.67
402.40	1537.73
402.59	1509.65
402.78	1465.18
402.97	1437.09
403.17	1490.92
403.36	1572.84
403.55	1612.63
403.74	1610.29
403.93	1514.33
404.13	1589.22
404.32	1593.90
404.51	1589.22
404.70	1659.44
404.89	1659.44
405.09	1771.79
405.28	1661.78
405.47	1675.82
405.66	1746.04
405.85	1650.08
406.05	1598.59
406.24	1762.42
406.43	1802.21
406.62	1687.53
406.81	1769.44
407.00	1762.42
407.20	1739.02
407.39	1739.02
407.58	1720.29
407.77	1813.92
407.96	1865.41
408.15	1923.92
408.34	1893.49
408.54	1898.17
408.73	1926.26
408.92	1886.47
409.11	1902.86
409.30	1930.94
409.49	2064.35
409.68	1926.26
409.87	2003.50
410.07	2001.16
410.26	2122.87
410.45	2045.63
410.64	2087.76
410.83	2097.12
411.02	2132.23
411.21	2221.17
411.40	2136.91
411.59	2127.55
411.78	2148.61
411.98	2104.14
412.17	2197.76
412.36	2221.17
412.55	2300.75
412.74	2279.68
412.93	2300.75
413.12	2225.85
413.31	2286.70
413.50	2375.64
413.69	2375.64
413.88	2370.96
414.07	2480.97
414.26	2473.95
414.45	2342.88
414.64	2438.84
414.83	2588.63
415.02	2485.65
415.22	2705.66
415.41	2621.40
415.60	2663.53
415.79	2642.46
415.98	2668.21
416.17	2546.50
416.36	2729.06
416.55	2834.39
416.74	2822.69
416.93	2705.66
417.12	2841.41
417.31	2836.73
417.50	2871.84
417.69	2818.00
417.88	2867.16
418.07	2906.95
418.26	2958.44
418.45	2939.71
418.64	2974.82
418.83	3019.29
419.02	3082.49
419.21	3073.12
419.39	3155.04
419.58	3049.72
419.77	3054.40
419.96	3021.63
420.15	3112.91
420.34	3087.17
420.53	3169.09
420.72	3126.96
420.91	3192.49
421.10	3204.19
421.29	3328.24
421.48	3229.94
421.67	3325.90
421.86	3101.21
422.05	3220.58
422.24	3356.33
422.43	3339.94
422.61	3356.33
422.80	3356.33
422.99	3417.18
423.18	3346.97
423.37	3344.63
423.56	3370.37
423.75	3426.54
423.94	3262.71
424.13	3201.85
424.32	3183.13
424.50	3412.50
424.69	3447.61
424.88	3471.01
425.07	3328.24
425.26	3342.28
425.45	3473.36
425.64	3389.10
425.83	3311.86
426.01	3382.07
426.20	3323.56
426.39	3452.29
426.58	3339.94
426.77	3447.61
426.96	3475.70
427.15	3384.41
427.33	3562.30
427.52	3508.46
427.71	3552.93
427.90	3520.17
428.09	3618.47
428.28	3744.86
428.46	3606.77
428.65	3571.66
428.84	3763.58
429.03	3674.64
429.22	3712.09
429.40	3625.49
429.59	3801.03
429.78	3611.45
429.97	3550.59
430.16	3721.45
430.34	3845.50
430.53	3852.52
430.72	3770.60
430.91	3763.58
431.10	3847.84
431.28	3775.28
431.47	3915.72
431.66	4081.89
431.85	3971.89
432.03	3904.01
432.22	4142.75
432.41	3955.51
432.60	3939.12
432.79	3946.14
432.97	3939.12
433.16	4035.08
433.35	4014.02
433.54	4175.52
433.72	4093.60
433.91	4140.41
434.10	4084.23
434.28	4035.08
434.47	4212.96
434.66	4163.81
434.85	4273.82
435.03	4447.02
435.22	4287.86
435.41	4339.35
435.59	4198.92
435.78	4393.19
435.97	4388.50
436.16	4299.56
436.34	4306.59
436.53	4381.48
436.72	4482.13
436.90	4505.53
437.09	4404.89
437.28	4414.25
437.46	4498.51
437.65	4461.06
437.84	4540.64
438.02	4664.69
438.21	4596.81
438.40	4507.87
438.58	4770.01
438.77	4629.58
438.96	4606.17
439.14	4615.54
439.33	4858.95
439.52	4877.68
439.70	4774.69
439.89	4968.96
440.08	5074.28
440.26	4959.60
440.45	4954.91
440.63	4933.85
440.82	5130.45
441.01	5043.85
441.19	5043.85
441.38	5074.28
441.57	5270.89
441.75	5270.89
441.94	5355.15
442.12	5509.62
442.31	5502.60
442.50	5310.68
442.68	5385.57
442.87	5263.86
443.05	5427.70
443.24	5465.15
443.43	5315.36
443.61	5416.00
443.80	5692.18
443.98	5416.00
444.17	5247.48
444.35	5453.45
444.54	5472.17
444.73	5565.79
444.91	5509.62
445.10	5645.37
445.28	5650.05
445.47	5626.65
445.65	5507.28
445.84	5699.20
446.02	5715.59
446.21	5572.82
446.39	5586.86
446.58	5598.56
446.77	5624.31
446.95	5497.92
447.14	5731.97
447.32	5729.63
447.51	5849.00
447.69	5575.16
447.88	5544.73
448.06	5483.88
448.25	5753.04
448.43	5774.10
448.62	5610.26
448.80	5727.29
448.99	5827.93
449.17	5832.62
449.36	5872.40
449.54	5853.68
449.73	5959.00
449.91	6064.33
450.10	6087.73
450.28	6090.07
450.46	6146.25
450.65	5923.90
450.83	6094.76
451.02	6064.33
451.20	6099.44
451.39	6045.60
451.57	6153.27
451.76	6033.90
451.94	6223.48
452.13	6232.85
452.31	6097.10
452.49	6080.71
452.68	6179.01
452.86	6267.95
453.05	6249.23
453.23	6422.43
453.42	6139.23
453.60	6249.23
453.78	6366.26
453.97	6183.70
454.15	6305.40
454.34	6324.13
454.52	6487.96
454.70	6499.67
454.89	6509.03
455.07	6448.18
455.26	6565.20
455.44	6480.94
455.62	6595.63
455.81	6532.44
455.99	6703.29
456.17	6724.36
456.36	6736.06
456.54	6815.64
456.73	6871.81
456.91	6953.73
457.09	6766.49
457.28	6897.56
457.46	6876.49
457.64	7063.74
457.83	7049.69
458.01	6750.10
458.19	7098.84
458.38	6949.05
458.56	7150.34
458.74	7269.70
458.93	6949.05
459.11	7276.73
459.29	6967.77
459.48	7222.89
459.66	7105.87
459.84	7318.86
460.03	7389.07
460.21	7386.73
460.39	7152.68
460.57	7328.22
460.76	7473.33
460.94	7260.34
461.12	7478.01
461.31	7335.24
461.49	7105.87
461.67	7384.39
461.85	7606.74
462.04	7463.97
462.22	7864.20
462.40	7793.98
462.59	7588.02
462.77	7707.38
462.95	7756.54
463.13	7672.28
463.32	7637.17
463.50	7686.32
463.68	7777.60
463.86	7756.54
464.05	7873.56
464.23	7723.77
464.41	7709.72
464.59	7810.37
464.78	8084.21
464.96	8119.32
465.14	7747.17
465.32	7999.95
465.50	8121.66
465.69	8023.36
465.87	7971.86
466.05	7903.99
466.23	7978.89
466.41	7880.58
466.60	8325.29
466.78	8037.40
466.96	8030.38
467.14	8042.08
467.32	8374.44
467.51	8205.92
467.69	8215.28
467.87	8088.89
468.05	8353.37
468.23	8210.60
468.41	8177.83
468.60	8093.57
468.78	8336.99
468.96	8390.82
469.14	8292.52
469.32	8439.97
469.50	8311.24
469.69	8526.57
469.87	8395.50
470.05	8690.41
470.23	8767.65
470.41	8650.62
470.59	8762.97
470.77	8725.52
470.95	8734.88
471.14	8865.95
471.32	8786.37
471.50	8858.93
471.68	8823.82
471.86	8971.27
472.04	9083.62
472.22	9170.22
472.40	8784.03
472.58	9174.90
472.77	9116.39
472.95	9177.24
473.13	9607.90
473.31	9343.42
473.49	9247.46
473.67	9205.33
473.85	9535.34
474.03	9619.60
474.21	9490.87
474.39	9750.67
474.57	9785.78
474.75	9734.29
474.93	9980.04
475.12	9741.31
475.30	9823.23
475.48	9783.44
475.66	9867.70
475.84	9914.51
476.02	10200.05
476.20	10171.97
476.38	10204.74
476.56	10333.47
476.74	10415.38
476.92	10434.11
477.10	10256.23
477.28	10516.03
477.46	10579.22
477.64	10843.70
477.82	10820.30
478.00	10953.71
478.18	10934.98
478.36	11059.03
478.54	11037.97
478.72	11136.27
478.90	11199.46
479.08	11442.88
479.26	11276.70
479.44	11260.32
479.62	11800.98
479.80	11587.99
479.98	12030.35
480.16	11995.25
480.34	12004.61
480.52	12004.61
480.70	12266.75
480.88	11768.21
481.06	12060.78
481.24	12304.20
481.41	12376.75
481.59	12514.84
481.77	12575.70
481.95	12678.68
482.13	12863.58
482.31	12858.90
482.49	13270.84
482.67	13015.72
482.85	13312.97
483.03	13444.04
483.21	13542.34
483.39	13680.43
483.57	13418.29
483.74	13563.40
483.92	13984.70
484.10	13827.88
484.28	14221.10
484.46	14279.61
484.64	14593.24
484.82	14420.04
485.00	14590.90
485.18	14721.97
485.35	15028.58
485.53	14710.27
485.71	14972.41
485.89	15236.89
486.07	15040.28
486.25	15260.29
486.43	15461.58
486.61	15335.19
486.78	15330.51
486.96	15901.60
487.14	15861.81
487.32	16184.80
487.50	16011.60
487.68	16170.76
487.85	16273.74
488.03	16575.67
488.21	16617.80
488.39	16720.79
488.57	16875.26
488.75	16973.56
488.92	17202.94
489.10	17011.01
489.28	17460.40
489.46	17621.89
489.64	17455.72
489.81	17914.46
489.99	17764.67
490.17	17975.31
490.35	18267.88
490.53	18113.41
490.70	18368.52
490.88	18492.57
491.06	18459.81
491.24	18169.58
491.41	18771.10
491.59	19016.85
491.77	18867.06
491.95	19005.15
492.13	19536.45
492.30	19304.74
492.48	19264.95
492.66	19194.73
492.84	19421.77
493.01	20042.01
493.19	19592.62
493.37	19920.30
493.54	19957.75
493.72	20292.44
493.90	20255.00
494.08	20744.17
494.25	20470.33
494.43	20524.16
494.61	20823.75
494.79	21088.23
494.96	21151.42
495.14	20805.02
495.32	21673.36
495.49	21345.69
495.67	21539.95
495.85	21687.40
496.02	21816.13
496.20	21954.22
496.38	21982.31
496.55	21876.99
496.73	22838.95
496.91	21998.70
497.09	22331.05
497.26	22345.09
497.44	22515.95
497.62	22682.13
497.79	23094.07
497.97	23229.82
498.14	22981.72
498.32	23534.09
498.50	23608.98
498.67	23283.65
498.85	23222.80
499.03	23625.37
499.20	23800.91
499.38	23723.67
499.56	24187.10
499.73	24105.18
499.91	24093.47
500.08	24077.09
500.26	24226.89
500.44	24095.82
500.61	24425.83
500.79	24568.60
500.97	24573.28
501.14	25092.88
501.32	24702.01
501.49	24975.86
501.67	24985.22
501.84	25165.44
502.02	25523.54
502.20	25132.67
502.37	25617.16
502.55	25355.02
502.72	25294.17
502.90	25642.91
503.07	25387.79
503.25	25518.86
503.43	25598.44
503.60	25755.26
503.78	25867.60
503.95	25993.99
504.13	26195.28
504.30	25996.33
504.48	26155.49
504.65	26265.49
504.83	26291.24
505.01	26499.55
505.18	26642.32
505.36	26771.05
505.53	26792.11
505.71	27033.19
505.88	27026.17
506.06	26827.22
506.23	27166.60
506.41	27199.37
506.58	27077.66
506.76	27164.26
506.93	27672.15
507.11	27246.18
507.28	27828.97
507.46	27714.28
507.63	27857.06
507.81	28203.46
507.98	27981.10
508.16	27976.42
508.33	28102.81
508.50	28187.07
508.68	28329.84
508.85	28580.28
509.03	28100.47
509.20	28184.73
509.38	28594.32
509.55	28844.76
509.73	29043.71
509.90	28840.08
510.08	28741.78
510.25	29067.11
510.42	28833.06
510.60	29221.59
510.77	29167.76
510.95	29614.80
511.12	29240.31
511.30	29469.69
511.47	29867.58
511.64	29624.16
511.82	29837.15
511.99	29607.78
512.17	29888.64
512.34	29790.34
512.51	30206.95
512.69	30398.88
512.86	30331.00
513.04	30384.83
513.21	30656.34
513.38	30539.31
513.56	31000.40
513.73	30684.42
513.90	30745.28
514.08	30651.66
514.25	30712.51
514.43	30995.71
514.60	30785.07
514.77	31325.73
514.95	31454.46
515.12	31079.97
515.29	31044.87
515.47	31524.68
515.64	31447.44
515.81	31232.11
515.99	31615.96
516.16	31798.52
516.33	31915.54
516.51	31707.24
516.68	31868.73
516.85	31821.92
517.03	31999.80
517.20	32224.50
517.37	32446.85
517.54	32151.94
517.72	31999.80
517.89	32671.54
518.06	32496.00
518.24	32222.16
518.41	32383.65
518.58	32362.59
518.75	32142.58
518.93	32996.87
519.10	32676.22
519.27	33095.18
519.45	33057.73
519.62	33230.93
519.79	32905.59
519.96	32938.36
520.14	33399.44
520.31	33315.19
520.48	33347.95
520.65	33722.44
520.83	33675.63
521.00	34202.25
521.17	33905.00
521.34	34178.84
521.52	33841.81
521.69	34050.11
521.86	33968.19
522.03	34197.57
522.20	34188.21
522.38	34579.07
522.55	34309.91
522.72	34225.65
522.89	34370.77
523.07	35168.89
523.24	34754.61
523.41	34927.81
523.58	34359.06
523.75	35054.20
523.92	34892.71
524.10	34726.53
524.27	35192.30
524.44	35344.43
524.61	35414.65
524.78	34878.66
524.96	35211.02
525.13	35592.53
525.30	35639.34
525.47	35789.13
525.64	35967.01
525.81	35534.01
525.98	35686.15
526.16	36006.80
526.33	35784.45
526.50	36236.17
526.67	36051.27
526.84	36147.23
527.01	35887.43
527.18	36470.23
527.36	36484.27
527.53	35931.90
527.70	36128.51
527.87	36336.82
528.04	36470.23
528.21	36624.70
528.38	36500.65
528.55	37156.00
528.72	36659.81
528.89	36877.48
529.07	36891.52
529.24	36790.88
529.41	36877.48
529.58	36924.29
529.75	36884.50
529.92	36973.44
530.09	37256.65
530.26	37060.04
530.43	37317.50
530.60	36797.90
530.77	37268.35
530.94	37394.74
531.11	37261.33
531.28	37368.99
531.46	37518.79
531.63	37539.85
531.80	37352.61
531.97	37883.91
532.14	38087.54
532.31	37797.31
532.48	37949.45
532.65	37844.12
532.82	37771.57
532.99	37670.92
533.16	37486.02
533.33	37883.91
533.50	38127.33
533.67	38167.12
533.84	38197.54
534.01	38256.06
534.18	37930.72
534.35	38574.37
534.52	38227.97
534.69	38724.16
534.86	38703.10
535.03	38773.31
535.20	38562.67
535.37	38810.76
535.54	38862.26
535.71	38817.78
535.88	39496.54
536.05	39056.52
536.22	39000.35
536.38	39042.48
536.55	38712.46
536.72	39042.48
536.89	39187.59
537.06	39285.89
537.23	39433.35
537.40	39412.28
537.57	39283.55
537.74	39166.52
537.91	39875.71
538.08	39517.60
538.25	39143.12
538.42	39622.93
538.59	39969.33
538.75	39508.24
538.92	40053.59
539.09	39648.68
539.26	39854.64
539.43	39906.13
539.60	40156.57
539.77	40016.14
539.94	39887.41
540.11	40343.81
540.28	40236.15
540.44	40088.70
540.61	40460.84
540.78	40020.82
540.95	40479.57
541.12	40320.41
541.29	40137.85
541.46	40722.98
541.62	40538.08
541.79	40793.20
541.96	40261.90
542.13	40210.40
542.30	40486.59
542.47	40605.95
542.63	40320.41
542.80	40889.16
542.97	40875.12
543.14	41397.06
543.31	41120.87
543.48	41146.62
543.64	41560.89
543.81	41352.58
543.98	41537.49
544.15	41649.83
544.32	41806.65
544.48	41736.43
544.65	41464.93
544.82	42099.22
544.99	41773.88
545.16	41848.78
545.32	41544.51
545.49	41832.39
545.66	42082.83
545.83	41687.28
546.00	41638.13
546.16	41989.21
546.33	41574.94
546.50	41951.76
546.67	42150.71
546.83	42019.64
547.00	41799.63
547.17	42279.44
547.34	41956.44
547.50	42497.11
547.67	42499.45
547.84	42284.12
548.00	42473.70
548.17	43030.75
548.34	42733.50
548.51	42562.64
548.67	42443.27
548.84	42567.32
549.01	42932.45
549.18	42312.20
549.34	42721.80
549.51	42712.44
549.68	42595.41
549.84	42838.83
550.01	43220.33
550.18	42534.56
550.34	43040.11
550.51	43215.65
550.68	43145.44
550.84	42880.95
551.01	43269.48
551.18	42913.72
551.34	43232.04
551.51	42747.54
551.68	43026.07
551.84	43019.05
552.01	43241.40
552.18	42813.08
552.34	43028.41
552.51	43562.05
552.68	43131.39
552.84	43477.79
553.01	43519.92
553.18	43615.88
553.34	43648.65
553.51	43416.94
553.67	43316.29
553.84	43622.90
554.01	43988.03
554.17	43927.17
554.34	43880.36
554.51	43491.83
554.67	44266.55
554.84	43896.75
555.00	43629.93
555.17	43503.54
555.33	44414.01
555.50	44032.50
555.67	44266.55
555.83	44163.57
556.00	44362.51
556.16	44816.58
556.33	43955.26
556.50	44231.44
556.66	44463.16
556.83	44013.77
556.99	44659.76
557.16	44762.75
557.32	44409.32
557.49	44313.36
557.65	44198.68
557.82	44278.25
557.98	44531.03
558.15	44493.58
558.32	44781.47
558.48	44179.95
558.65	44769.77
558.81	44563.80
558.98	44657.42
559.14	44737.00
559.31	44329.75
559.47	44535.71
559.64	44673.81
559.80	44940.63
559.97	44980.42
560.13	44498.26
560.30	44737.00
560.46	44879.77
560.63	44882.11
560.79	45062.33
560.96	45188.72
561.12	45153.62
561.29	44758.06
561.45	45106.80
561.61	45132.55
561.78	45092.76
561.94	45272.98
562.11	45158.30
562.27	44931.26
562.44	44985.10
562.60	45359.58
562.77	44844.66
562.93	44957.01
563.10	45652.15
563.26	45181.70
563.42	45223.83
563.59	45289.37
563.75	45254.26
563.92	44949.99
564.08	45303.41
564.24	45284.68
564.41	45350.22
564.57	45521.08
564.74	45310.43
564.90	45495.33
565.07	45563.21
565.23	45333.84
565.39	45338.52
565.56	45886.20
565.72	45462.57
565.88	45219.15
566.05	45195.74
566.21	45537.46
566.38	45633.42
566.54	45773.86
566.70	45467.25
566.87	45202.77
567.03	45413.41
567.19	45652.15
567.36	45390.01
567.52	45649.81
567.68	46234.94
567.85	45851.09
568.01	45956.42
568.17	45528.10
568.34	45996.21
568.50	45528.10
568.66	45904.93
568.83	45794.92
568.99	45815.99
569.15	46157.70
569.32	45713.00
569.48	45659.17
569.64	45972.80
569.81	45694.28
569.97	45951.74
570.13	45940.04
570.30	45542.14
570.46	45858.12
570.62	45869.82
570.78	45647.47
570.95	45792.58
571.11	45977.48
571.27	46185.79
571.43	45916.63
571.60	45984.51
571.76	45640.45
571.92	45743.43
572.09	45862.80
572.25	45677.90
572.41	45769.18
572.57	46122.60
572.74	46424.53
572.90	46082.81
573.06	46373.03
573.22	46066.42
573.38	46515.81
573.55	46061.74
573.71	46543.89
573.87	46358.99
574.03	46124.94
574.20	46979.23
574.36	46265.37
574.52	46323.88
574.68	46300.48
574.84	46586.02
575.01	46497.08
575.17	46590.70
575.33	46426.87
575.49	46541.55
575.65	46485.38
575.82	46487.72
575.98	46307.50
576.14	46698.37
576.30	46813.05
576.46	46644.54
576.62	46265.37
576.79	46316.86
576.95	46211.54
577.11	46279.41
577.27	46340.27
577.43	46209.20
577.59	46312.18
577.75	46206.86
577.92	45947.06
578.08	46644.54
578.24	46396.44
578.40	46752.20
578.56	46658.58
578.72	46731.14
578.88	46424.53
579.04	46162.39
579.21	46527.51
579.37	46370.69
579.53	46607.09
579.69	46143.66
579.85	46274.73
580.01	46593.04
580.17	46461.97
580.33	46553.26
580.49	46742.84
580.65	46586.02
580.82	46684.33
580.98	46351.97
581.14	46263.03
581.30	46820.08
581.46	46756.88
581.62	46384.74
581.78	46335.59
581.94	46581.34
582.10	46298.14
582.26	46445.59
582.42	46469.00
582.58	46375.37
582.74	46574.32
582.90	46651.56
583.06	46588.36
583.22	46525.17
583.38	46506.44
583.54	47021.36
583.70	46827.10
583.86	46485.38
584.02	46923.06
584.18	47482.45
584.34	46649.22
584.50	46618.79
584.66	46923.06
584.82	46770.93
584.98	46937.10
585.14	46689.01
585.30	46681.98
585.46	46581.34
585.62	46890.29
585.78	46169.41
585.94	46389.42
586.10	47030.72
586.26	46410.48
586.42	46567.30
586.58	47016.68
586.74	46616.45
586.90	46960.51
587.06	46436.23
587.22	46749.86
587.38	46724.11
587.54	47093.92
587.70	47222.65
587.86	46911.36
588.02	46979.23
588.18	46892.63
588.34	46782.63
588.49	47311.59
588.65	46829.44
588.81	47133.71
588.97	46742.84
589.13	46955.83
589.29	46691.35
589.45	46925.40
589.61	46951.15
589.77	46960.51
589.93	46766.24
590.08	47234.35
