SpectraSuite Data File
++++++++++++++++++++++++++++++++++++
Date: Fri Oct 25 11:25:23 EDT 2013
User: price-jones
Dark Spectrum Present: No
Reference Spectrum Present: No
Number of Sampled Component Spectra: 1
Spectrometers: USB2+H05261
Integration Time (usec): 100000 (USB2+H05261)
Spectra Averaged: 1 (USB2+H05261)
Boxcar Smoothing: 0 (USB2+H05261)
Correct for Electrical Dark: No (USB2+H05261)
Strobe/Lamp Enabled: No (USB2+H05261)
Correct for Detector Non-linearity: No (USB2+H05261)
Correct for Stray Light: No (USB2+H05261)
Number of Pixels in Processed Spectrum: 2048
>>>>>Begin Processed Spectral Data<<<<<
365.73	220.01
365.92	220.01
366.12	220.01
366.32	149.79
366.52	227.03
366.72	194.26
366.91	191.92
367.11	177.88
367.31	154.48
367.51	114.69
367.70	124.05
367.90	161.50
368.10	56.17
368.30	140.43
368.49	95.96
368.69	161.50
368.89	198.95
369.09	142.77
369.28	180.22
369.48	166.18
369.68	191.92
369.87	114.69
370.07	161.50
370.27	224.69
370.47	301.93
370.66	636.63
370.86	599.18
371.06	739.61
371.25	653.01
371.45	650.67
371.65	734.93
371.84	697.48
372.04	683.44
372.24	674.07
372.44	737.27
372.63	767.70
372.83	655.35
373.03	713.86
373.22	737.27
373.42	802.80
373.62	772.38
373.81	819.19
374.01	784.08
374.21	823.87
374.40	807.48
374.60	758.33
374.79	802.80
374.99	784.08
375.19	765.36
375.38	880.04
375.58	812.17
375.78	847.27
375.97	868.34
376.17	917.49
376.37	770.04
376.56	880.04
376.76	856.64
376.95	945.58
377.15	964.30
377.35	926.85
377.54	905.79
377.74	835.57
377.93	929.19
378.13	971.32
378.33	940.90
378.52	866.00
378.72	938.55
378.91	1022.81
379.11	938.55
379.31	950.26
379.50	938.55
379.70	983.02
379.89	1034.52
380.09	943.24
380.28	966.64
380.48	978.34
380.68	926.85
380.87	976.00
381.07	1004.09
381.26	1107.07
381.46	976.00
381.65	926.85
381.85	1055.58
382.04	1050.90
382.24	1025.15
382.43	1067.28
382.63	1043.88
382.83	1132.82
383.02	1118.78
383.22	1100.05
383.41	1130.48
383.61	1132.82
383.80	1160.91
384.00	1146.86
384.19	1116.44
384.39	1053.24
384.58	1078.99
384.78	1118.78
384.97	1081.33
385.17	1132.82
385.36	1153.88
385.56	1174.95
385.75	1139.84
385.95	1088.35
386.14	1165.59
386.34	1153.88
386.53	1165.59
386.72	1142.18
386.92	1146.86
387.11	1205.38
387.31	1210.06
387.50	1217.08
387.70	1196.01
387.89	1310.70
388.09	1235.80
388.28	1207.72
388.48	1203.04
388.67	1401.98
388.86	1334.11
389.06	1263.89
389.25	1303.68
389.45	1401.98
389.64	1341.13
389.84	1394.96
390.03	1357.51
390.22	1394.96
390.42	1320.06
390.61	1416.02
390.81	1423.05
391.00	1427.73
391.19	1481.56
391.39	1378.58
391.58	1495.60
391.78	1479.22
391.97	1516.67
392.16	1523.69
392.36	1504.96
392.55	1448.79
392.75	1425.39
392.94	1488.58
393.13	1556.46
393.33	1582.20
393.52	1540.07
393.71	1502.62
393.91	1516.67
394.10	1563.48
394.29	1556.46
394.49	1699.23
394.68	1558.80
394.88	1584.54
395.07	1659.44
395.26	1584.54
395.46	1799.87
395.65	1694.55
395.84	1643.06
396.04	1774.13
396.23	1713.27
396.42	1554.12
396.62	1701.57
396.81	1811.57
397.00	1717.95
397.19	1746.04
397.39	1788.17
397.58	1846.68
397.77	1816.26
397.97	1853.70
398.16	1923.92
398.35	1935.62
398.55	1827.96
398.74	1867.75
398.93	1902.86
399.12	1853.70
399.32	1844.34
399.51	1874.77
399.70	1907.54
399.90	2022.22
400.09	1944.99
400.28	2022.22
400.47	1996.48
400.67	2026.90
400.86	2176.70
401.05	1998.82
401.24	2134.57
401.44	2036.27
401.63	2190.74
401.82	2024.56
402.01	2141.59
402.21	2167.34
402.40	2129.89
402.59	2272.66
402.78	2235.21
402.97	2087.76
403.17	2214.15
403.36	2324.15
403.55	2214.15
403.74	2354.58
403.93	2328.83
404.13	2389.69
404.32	2413.09
404.51	2354.58
404.70	2457.56
404.89	2457.56
405.09	2478.63
405.28	2399.05
405.47	2403.73
405.66	2532.46
405.85	2516.08
406.05	2478.63
406.24	2609.70
406.43	2562.89
406.62	2532.46
406.81	2623.74
407.00	2525.44
407.20	2523.10
407.39	2567.57
407.58	2717.36
407.77	2693.96
407.96	2722.04
408.15	2726.72
408.34	2712.68
408.54	2736.09
408.73	2841.41
408.92	2810.98
409.11	2665.87
409.30	2899.92
409.49	2923.33
409.68	2972.48
409.87	2801.62
410.07	3082.49
410.26	3068.44
410.45	2979.50
410.64	3014.61
410.83	2979.50
411.02	3063.76
411.21	3035.67
411.40	3162.06
411.59	3084.83
411.78	3246.32
411.98	3206.53
412.17	3201.85
412.36	3176.11
412.55	3316.54
412.74	3351.65
412.93	3466.33
413.12	3337.60
413.31	3538.89
413.50	3592.72
413.69	3463.99
413.88	3543.57
414.07	3536.55
414.26	3552.93
414.45	3698.05
414.64	3651.24
414.83	3789.33
415.02	3749.54
415.22	3875.93
415.41	3763.58
415.60	3840.82
415.79	3948.48
415.98	3969.55
416.17	3974.23
416.36	3955.51
416.55	3840.82
416.74	4002.32
416.93	4072.53
417.12	4112.32
417.31	4086.58
417.50	4156.79
417.69	4306.59
417.88	4285.52
418.07	4292.54
418.26	4257.43
418.45	4257.43
418.64	4386.16
418.83	4332.33
419.02	4325.31
419.21	4428.29
419.39	4428.29
419.58	4458.72
419.77	4440.00
419.96	4500.85
420.15	4465.74
420.34	4489.15
420.53	4550.00
420.72	4812.14
420.91	4716.18
421.10	4837.89
421.29	4645.96
421.48	4601.49
421.67	4695.11
421.86	4833.21
422.05	4755.97
422.24	4741.93
422.43	4919.81
422.61	4835.55
422.80	4870.65
422.99	4758.31
423.18	4830.87
423.37	4952.57
423.56	4931.51
423.75	4837.89
423.94	4683.41
424.13	4540.64
424.32	4692.77
424.50	4952.57
424.69	4840.23
424.88	4999.38
425.07	4952.57
425.26	4940.87
425.45	4983.00
425.64	4844.91
425.83	4938.53
426.01	5181.95
426.20	5139.82
426.39	4957.25
426.58	4945.55
426.77	5078.96
426.96	5226.42
427.15	5184.29
427.33	5224.08
427.52	5198.33
427.71	5210.03
427.90	5081.30
428.09	5390.25
428.28	5301.31
428.46	5247.48
428.65	5352.81
428.84	5593.88
429.03	5526.00
429.22	5123.43
429.40	5446.43
429.59	5486.22
429.78	5338.76
429.97	5210.03
430.16	5334.08
430.34	5636.01
430.53	5589.20
430.72	5603.24
430.91	5542.39
431.10	5636.01
431.28	5554.09
431.47	5914.53
431.66	5870.06
431.85	5729.63
432.03	5928.58
432.22	5898.15
432.41	5905.17
432.60	5839.64
432.79	5870.06
432.97	5998.79
433.16	6176.67
433.35	5968.37
433.54	6071.35
433.72	6207.10
433.91	6059.65
434.10	6120.50
434.28	6106.46
434.47	6235.19
434.66	6296.04
434.85	6059.65
435.03	6244.55
435.22	6197.74
435.41	6490.31
435.59	6314.77
435.78	6291.36
435.97	6244.55
436.16	6345.19
436.34	6497.33
436.53	6558.18
436.72	6642.44
436.90	6394.34
437.09	6715.00
437.28	6361.58
437.46	6628.40
437.65	6696.27
437.84	6663.51
438.02	6848.41
438.21	6752.45
438.40	6614.35
438.58	6787.55
438.77	6839.05
438.96	6759.47
439.14	7173.74
439.33	7082.46
439.52	7391.41
439.70	7112.89
439.89	7304.81
440.08	7255.66
440.26	7321.20
440.45	7438.22
440.63	7520.14
440.82	7585.68
441.01	7234.60
441.19	7510.78
441.38	7805.69
441.57	7772.92
441.75	7602.06
441.94	7925.05
442.12	8109.96
442.31	8051.44
442.50	7948.46
442.68	8044.42
442.87	8037.40
443.05	8070.17
443.24	8152.09
443.43	7960.16
443.61	8173.15
443.80	8390.82
443.98	7864.20
444.17	7981.23
444.35	8049.10
444.54	8191.88
444.73	8252.73
444.91	8259.75
445.10	8142.72
445.28	8329.97
445.47	8201.24
445.65	8315.92
445.84	8341.67
446.02	8582.74
446.21	8327.63
446.39	8568.70
446.58	8388.48
446.77	8479.76
446.95	8308.90
447.14	8287.84
447.32	8493.80
447.51	8404.86
447.69	8496.14
447.88	8468.06
448.06	8360.39
448.25	8526.57
448.43	8568.70
448.62	8613.17
448.80	8552.32
448.99	8575.72
449.17	8805.10
449.36	8655.30
449.54	8608.49
449.73	8931.48
449.91	9069.58
450.10	9064.89
450.28	9097.66
450.46	8896.38
450.65	9067.24
450.83	9034.47
451.02	8997.02
451.20	9125.75
451.39	9205.33
451.57	9060.21
451.76	8952.55
451.94	9041.49
452.13	9397.25
452.31	9156.18
452.49	9296.61
452.68	9282.56
452.86	9214.69
453.05	9289.59
453.23	9462.79
453.42	9266.18
453.60	9397.25
453.78	9458.10
453.97	9259.16
454.15	9387.89
454.34	9462.79
454.52	9561.09
454.70	9554.07
454.89	9809.19
455.07	9741.31
455.26	9694.50
455.44	9816.21
455.62	9778.76
455.81	9827.91
455.99	9916.85
456.17	9928.55
456.36	10033.88
456.54	10176.65
456.73	10169.63
456.91	10375.59
457.09	10303.04
457.28	10518.37
457.46	10384.96
457.64	10499.64
457.83	10340.49
458.01	10401.34
458.19	10752.42
458.38	10436.45
458.56	10600.29
458.74	10658.80
458.93	10450.49
459.11	10703.27
459.29	10721.99
459.48	10848.38
459.66	10682.20
459.84	10972.43
460.03	10993.50
460.21	10764.12
460.39	11119.89
460.57	10799.23
460.76	11192.44
460.94	11054.35
461.12	11234.57
461.31	11159.67
461.49	11124.57
461.67	11080.10
461.85	11304.79
462.04	11466.28
462.22	11768.21
462.40	11557.57
462.59	11428.84
462.77	11449.90
462.95	11552.88
463.13	11522.46
463.32	11449.90
463.50	11756.51
463.68	11798.64
463.86	11843.11
464.05	11522.46
464.23	11613.74
464.41	11681.61
464.59	11606.72
464.78	11997.59
464.96	11838.43
465.14	11623.10
465.32	11829.07
465.50	12147.38
465.69	12065.46
465.87	11971.84
466.05	12070.14
466.23	12025.67
466.41	12131.00
466.60	12278.45
466.78	12208.23
466.96	12278.45
467.14	12278.45
467.32	12292.49
467.51	12379.09
467.69	12170.79
467.87	12470.37
468.05	12517.18
468.23	12493.78
468.41	12545.27
468.60	12676.34
468.78	12601.44
468.96	12627.19
469.14	12781.67
469.32	12837.84
469.50	12463.35
469.69	13011.04
469.87	13053.17
470.05	12844.86
470.23	12966.57
470.41	13181.90
470.59	13186.58
470.77	12968.91
470.95	13294.24
471.14	13542.34
471.32	13319.99
471.50	13511.91
471.68	13490.85
471.86	13558.72
472.04	13350.42
472.22	13947.25
472.40	13834.91
472.58	13818.52
472.77	13975.34
472.95	14036.19
473.13	14441.11
473.31	14134.50
473.49	14171.94
473.67	14277.27
473.85	14225.78
474.03	14558.13
474.21	14593.24
474.39	14747.72
474.57	14604.94
474.75	14867.08
474.93	14878.79
475.12	14562.81
475.30	15068.37
475.48	14913.89
475.66	14932.62
475.84	15023.90
476.02	15176.03
476.20	15445.20
476.38	15391.36
476.56	15999.90
476.74	15927.35
476.92	15976.50
477.10	15620.74
477.28	16180.12
477.46	16126.29
477.64	16205.87
477.82	16109.91
478.00	16755.90
478.18	16758.24
478.36	16849.52
478.54	17050.80
478.72	17018.04
478.90	17224.00
479.08	17640.62
479.26	17734.24
479.44	17759.98
479.62	17577.42
479.80	18090.00
479.98	18188.30
480.16	18494.91
480.34	18438.74
480.52	18707.90
480.70	18569.81
480.88	18506.62
481.06	18670.45
481.24	18838.97
481.41	18834.29
481.59	18895.14
481.77	19276.65
481.95	19405.38
482.13	19709.65
482.31	19719.01
482.49	20116.90
482.67	20088.82
482.85	20142.65
483.03	20596.71
483.21	20386.07
483.39	20629.48
483.57	20760.55
483.74	20875.24
483.92	21130.36
484.10	21078.86
484.28	21605.49
484.46	21745.92
484.64	22148.49
484.82	21699.11
485.00	21919.12
485.18	22452.76
485.35	22852.99
485.53	22796.82
485.71	23040.23
485.89	23232.16
486.07	23166.62
486.25	23241.52
486.43	23880.49
486.61	23627.71
486.78	23838.36
486.96	23936.66
487.14	24402.43
487.32	24231.57
487.50	24788.61
487.68	24807.34
487.85	25032.03
488.03	25493.12
488.21	25755.26
488.39	25678.02
488.57	26333.37
488.75	25919.09
488.92	26492.52
489.10	26429.33
489.28	26560.40
489.46	26705.51
489.64	26960.63
489.81	27489.59
489.99	27152.55
490.17	27442.78
490.35	28166.01
490.53	27924.93
490.70	28369.63
490.88	28180.05
491.06	28404.74
491.24	28636.45
491.41	29109.24
491.59	29359.68
491.77	28924.34
491.95	29415.85
492.13	29516.50
492.30	29888.64
492.48	29607.78
492.66	30202.27
492.84	30225.68
493.01	30274.83
493.19	30778.04
493.37	30810.81
493.54	30792.09
493.72	31136.15
493.90	31449.78
494.08	31838.31
494.25	31922.57
494.43	31782.13
494.61	32332.16
494.79	32240.88
494.96	32187.05
495.14	32610.68
495.32	33127.94
495.49	32971.13
495.67	33294.12
495.85	33631.16
496.02	33317.53
496.20	33991.60
496.38	33582.01
496.55	33858.19
496.73	34665.67
496.91	34267.78
497.09	34628.23
497.26	34686.74
497.44	35185.27
497.62	34824.83
497.79	35536.35
497.97	35189.95
498.14	36201.07
498.32	35957.65
498.50	36062.97
498.67	36524.06
498.85	36311.07
499.03	36538.10
499.20	36720.66
499.38	37038.98
499.56	36467.89
499.73	36514.70
499.91	36818.97
500.08	37287.07
500.26	37038.98
500.44	37113.87
500.61	37476.66
500.79	37736.46
500.97	37467.30
501.14	38323.93
501.32	38113.28
501.49	38164.78
501.67	38185.84
501.84	38766.29
502.02	38705.44
502.20	38925.45
502.37	39126.74
502.55	38639.90
502.72	39402.92
502.90	39199.29
503.07	39498.88
503.25	39463.77
503.43	39344.41
503.60	39847.62
503.78	40133.17
503.95	40500.63
504.13	40313.39
504.30	39915.50
504.48	40114.44
504.65	40161.25
504.83	40753.41
505.01	41029.59
505.18	40959.38
505.36	41123.21
505.53	41359.61
505.71	41493.02
505.88	41808.99
506.06	41144.28
506.23	41813.67
506.41	41563.23
506.58	42089.85
506.76	42012.62
506.93	42197.52
507.11	42183.48
507.28	42153.05
507.46	42316.89
507.63	42635.20
507.81	43014.37
507.98	42546.26
508.16	42862.23
508.33	43145.44
508.50	43019.05
508.68	43416.94
508.85	43548.01
509.03	43278.85
509.20	43660.35
509.38	43821.85
509.55	43863.98
509.73	44339.11
509.90	44275.91
510.08	44198.68
510.25	44416.35
510.42	44481.88
510.60	44989.78
510.77	44835.30
510.95	45287.03
511.12	45036.59
511.30	44479.54
511.47	45467.25
511.64	45162.98
511.82	45567.89
511.99	45364.26
512.17	45581.93
512.34	45729.39
512.51	46160.05
512.69	45825.35
512.86	46146.00
513.04	46766.24
513.21	46033.66
513.38	46344.95
513.56	46787.31
513.73	46600.07
513.90	46876.25
514.08	46808.37
514.25	47117.32
514.43	47124.35
514.60	47070.51
514.77	47077.54
514.95	47515.22
515.12	47250.74
515.29	47552.66
515.47	47978.64
515.64	47845.23
515.81	47693.10
515.99	48182.27
516.16	48095.67
516.33	47906.08
516.51	48364.83
516.68	48027.79
516.85	48531.01
517.03	48711.23
517.20	48652.72
517.37	48301.64
517.54	48619.95
517.72	48507.60
517.89	48924.22
518.06	49010.82
518.24	49244.87
518.41	49134.87
518.58	49134.87
518.75	49104.44
518.93	49516.37
519.10	49371.26
519.27	49579.57
519.45	49808.94
519.62	49542.12
519.79	49535.10
519.96	49925.97
520.14	49731.70
520.31	50216.19
520.48	49949.37
520.65	50113.21
520.83	50534.51
521.00	50745.15
521.17	50274.71
521.34	50719.41
521.52	50377.69
521.69	50515.78
521.86	50810.69
522.03	50777.92
522.20	50873.88
522.38	51309.22
522.55	51187.52
522.72	50752.18
522.89	51103.26
523.07	51377.10
523.24	51391.14
523.41	51613.49
523.58	51562.00
523.75	51627.54
523.92	51543.28
524.10	51716.48
524.27	52112.03
524.44	51714.14
524.61	52041.81
524.78	52032.45
524.96	52100.32
525.13	52275.87
525.30	52233.74
525.47	52435.02
525.64	52156.50
525.81	52186.92
525.98	52442.04
526.16	52566.09
526.33	52296.93
526.50	52870.36
526.67	52781.42
526.84	52968.66
527.01	52673.76
527.18	52882.06
527.36	52814.19
527.53	52800.15
527.70	53277.61
527.87	53249.53
528.04	53055.26
528.21	53420.39
528.38	52935.90
528.55	53310.38
528.72	53614.65
528.89	53439.11
529.07	53298.68
529.24	53270.59
529.41	53682.53
529.58	53556.14
529.75	53696.57
529.92	53525.71
530.09	53654.44
530.26	53876.79
530.43	54031.27
530.60	53642.74
530.77	53661.46
530.94	54028.93
531.11	53727.00
531.28	53813.60
531.46	54110.85
531.63	53961.05
531.80	54080.42
531.97	54181.06
532.14	54014.88
532.31	54401.07
532.48	54380.01
532.65	54539.16
532.82	54405.75
532.99	54658.53
533.16	54347.24
533.33	54518.10
533.50	54787.26
533.67	54820.03
533.84	54578.95
534.01	54831.73
534.18	54780.24
534.35	54890.24
534.52	54887.90
534.69	55023.65
534.86	55147.70
535.03	54656.19
535.20	55054.08
535.37	54995.57
535.54	55243.66
535.71	55000.25
535.88	55281.11
536.05	55084.51
536.22	55451.97
536.38	55473.04
536.55	55505.80
536.72	55227.28
536.89	55356.01
537.06	55482.40
537.23	55547.93
537.40	55325.58
537.57	55566.66
537.74	55487.08
537.91	55917.74
538.08	55730.50
538.25	55402.82
538.42	55641.56
538.59	56240.73
538.75	55709.43
538.92	56006.68
539.09	56006.68
539.26	55987.95
539.43	56004.34
539.60	56004.34
539.77	56053.49
539.94	56191.58
540.11	56271.16
540.28	56390.53
540.44	56247.75
540.61	56465.42
540.78	56329.67
540.95	56385.85
541.12	56032.42
541.29	56589.47
541.46	56327.33
541.62	56383.51
541.79	56406.91
541.96	56416.27
542.13	56219.67
542.30	56439.68
542.47	56762.67
542.63	56584.79
542.80	56844.59
542.97	56783.74
543.14	56968.64
543.31	57031.83
543.48	57155.88
543.64	57076.30
543.81	57109.07
543.98	57242.48
544.15	56942.89
544.32	57099.71
544.48	57326.74
544.65	57221.42
544.82	57261.21
544.99	57228.44
545.16	57375.89
545.32	57666.12
545.49	57567.82
545.66	57336.10
545.83	57315.04
546.00	57469.51
546.16	57354.83
546.33	57506.96
546.50	57219.08
546.67	57598.24
546.83	57296.31
547.00	57642.71
547.17	57558.45
547.34	57675.48
547.50	57848.68
547.67	58099.12
547.84	57946.98
548.00	57904.85
548.17	58019.54
548.34	57902.51
548.51	58014.86
548.67	57921.24
548.84	57914.22
549.01	57897.83
549.18	58033.58
549.34	58164.65
549.51	58056.99
549.68	58178.70
549.84	58262.96
550.01	58141.25
550.18	57951.66
550.34	58232.53
550.51	58258.27
550.68	58302.74
550.84	58007.84
551.01	58426.79
551.18	58305.09
551.34	58262.96
551.51	58548.50
551.68	58354.24
551.84	58525.10
552.01	58326.15
552.18	58569.57
552.34	58501.69
552.51	58440.84
552.68	58241.89
552.84	58438.50
553.01	58934.69
553.18	58607.01
553.34	58906.60
553.51	58450.20
553.67	58803.62
553.84	58688.93
554.01	58829.37
554.17	58752.13
554.34	58904.26
554.51	58827.02
554.67	58873.84
554.84	58841.07
555.00	58775.53
555.17	58775.53
555.33	58960.44
555.50	58845.75
555.67	58756.81
555.83	58920.65
556.00	58969.80
556.16	59238.96
556.33	59084.48
556.50	58948.73
556.66	59042.35
556.83	59077.46
556.99	59302.15
557.16	59358.33
557.32	59306.83
557.49	59639.19
557.65	59201.51
557.82	59391.09
557.98	59185.13
558.15	59426.20
558.32	59292.79
558.48	59297.47
558.65	59304.49
558.81	59379.39
558.98	59302.15
559.14	59353.65
559.31	59430.88
559.47	59388.75
559.64	59384.07
559.80	59458.97
559.97	59643.87
560.13	59416.84
560.30	59508.12
560.46	59512.80
560.63	59728.13
560.79	59613.44
560.96	59674.30
561.12	59664.94
561.29	59842.82
561.45	59604.08
561.61	59840.48
561.78	59641.53
561.94	59807.71
562.11	59725.79
562.27	59707.07
562.44	60006.65
562.60	59718.77
562.77	59913.03
562.93	59756.22
563.10	59931.76
563.26	59681.32
563.42	59992.61
563.59	59774.94
563.75	59831.11
563.92	59903.67
564.08	59735.15
564.24	59983.25
564.41	60170.49
564.57	59948.14
564.74	60023.04
564.90	60041.76
565.07	59973.89
565.23	60093.25
565.39	59983.25
565.56	60104.96
565.72	59934.10
565.88	60060.49
566.05	59889.63
566.21	59927.08
566.38	59966.87
566.54	60081.55
566.70	60229.01
566.87	60240.71
567.03	59985.59
567.19	60315.61
567.36	60243.05
567.52	60168.15
567.68	60484.12
567.85	60175.17
568.01	60294.54
568.17	60240.71
568.34	60420.93
568.50	60109.64
568.66	60170.49
568.83	60268.79
568.99	60123.68
569.15	60245.39
569.32	60329.65
569.48	60336.67
569.64	60339.01
569.81	60371.78
569.97	60196.24
570.13	60423.27
570.30	60259.43
570.46	60238.37
570.62	60495.83
570.78	60062.83
570.95	60322.63
571.11	60507.53
571.27	60357.74
571.43	60378.80
571.60	60446.68
571.76	60271.14
571.92	60299.22
572.09	60495.83
572.25	60479.44
572.41	60273.48
572.57	60336.67
572.74	60750.94
572.90	60547.32
573.06	60285.18
573.22	60488.80
573.38	60603.49
573.55	60523.91
573.71	60671.37
573.87	60617.53
574.03	60495.83
574.20	60626.90
574.36	60575.40
574.52	60608.17
574.68	60711.16
574.84	60570.72
575.01	60554.34
575.17	60542.64
575.33	60568.38
575.49	60491.15
575.65	60725.20
575.82	60577.75
575.98	60659.66
576.14	60769.67
576.30	60451.36
576.46	60650.30
576.62	60629.24
576.79	60500.51
576.95	60491.15
577.11	60739.24
577.27	60685.41
577.43	60697.11
577.59	60624.56
577.75	60523.91
577.92	60804.78
578.08	60617.53
578.24	60601.15
578.40	60860.95
578.56	60640.94
578.72	60659.66
578.88	60849.25
579.04	60687.75
579.21	60872.65
579.37	60746.26
579.53	60690.09
579.69	60741.58
579.85	60722.86
580.01	60629.24
580.17	60619.88
580.33	60823.50
580.49	60896.06
580.65	60793.07
580.82	60680.73
580.98	60575.40
581.14	60467.74
581.30	60889.04
581.46	60699.45
581.62	60905.42
581.78	60753.29
581.94	60816.48
582.10	60795.42
582.26	60844.57
582.42	60645.62
582.58	60683.07
582.74	60678.39
582.90	60933.51
583.06	60942.87
583.22	60692.43
583.38	60795.42
583.54	60842.23
583.70	60935.85
583.86	60872.65
584.02	60729.88
584.18	60802.44
584.34	60844.57
584.50	60722.86
584.66	60741.58
584.82	60535.62
584.98	61085.64
585.14	60865.63
585.30	60865.63
585.46	60970.96
585.62	60992.02
585.78	60800.10
585.94	60699.45
586.10	60837.54
586.26	60870.31
586.42	60910.10
586.58	61031.81
586.74	61003.72
586.90	60816.48
587.06	60750.94
587.22	61186.28
587.38	60839.89
587.54	60999.04
587.70	61214.37
587.86	60835.20
588.02	60676.05
588.18	61174.58
588.34	60985.00
588.49	60900.74
