SpectraSuite Data File
++++++++++++++++++++++++++++++++++++
Date: Fri Oct 25 11:22:56 EDT 2013
User: price-jones
Dark Spectrum Present: No
Reference Spectrum Present: No
Number of Sampled Component Spectra: 1
Spectrometers: USB2+H05261
Integration Time (usec): 100000 (USB2+H05261)
Spectra Averaged: 1 (USB2+H05261)
Boxcar Smoothing: 0 (USB2+H05261)
Correct for Electrical Dark: No (USB2+H05261)
Strobe/Lamp Enabled: No (USB2+H05261)
Correct for Detector Non-linearity: No (USB2+H05261)
Correct for Stray Light: No (USB2+H05261)
Number of Pixels in Processed Spectrum: 2048
>>>>>Begin Processed Spectral Data<<<<<
365.73	215.33
365.92	215.33
366.12	215.33
366.32	154.48
366.52	138.09
366.72	133.41
366.91	166.18
367.11	98.30
367.31	98.30
367.51	142.77
367.70	39.79
367.90	173.20
368.10	161.50
368.30	156.82
368.49	184.90
368.69	100.64
368.89	65.54
369.09	133.41
369.28	126.39
369.48	170.86
369.68	154.48
369.87	119.37
370.07	177.88
370.27	257.46
370.47	304.27
370.66	531.30
370.86	669.39
371.06	688.12
371.25	704.50
371.45	662.37
371.65	660.03
371.84	653.01
372.04	648.33
372.24	692.80
372.44	669.39
372.63	760.67
372.83	755.99
373.03	725.57
373.22	718.54
373.42	744.29
373.62	723.23
373.81	798.12
374.01	753.65
374.21	826.21
374.40	802.80
374.60	791.10
374.79	830.89
374.99	798.12
375.19	819.19
375.38	842.59
375.58	915.15
375.78	896.43
375.97	884.72
376.17	784.08
376.37	823.87
376.56	840.25
376.76	837.91
376.95	915.15
377.15	929.19
377.35	870.68
377.54	887.06
377.74	919.83
377.93	896.43
378.13	997.07
378.33	952.60
378.52	842.59
378.72	931.53
378.91	1029.84
379.11	926.85
379.31	938.55
379.50	992.39
379.70	1036.86
379.89	950.26
380.09	919.83
380.28	931.53
380.48	954.94
380.68	1022.81
380.87	994.73
381.07	978.34
381.26	1083.67
381.46	1006.43
381.65	1004.09
381.85	1053.24
382.04	1118.78
382.24	1093.03
382.43	1015.79
382.63	1109.41
382.83	1086.01
383.02	990.05
383.22	1076.65
383.41	1020.47
383.61	1156.22
383.80	1088.35
384.00	1125.80
384.19	1125.80
384.39	1165.59
384.58	1139.84
384.78	1086.01
384.97	1233.46
385.17	1097.71
385.36	1121.12
385.56	1238.14
385.75	1132.82
385.95	1156.22
386.14	1165.59
386.34	1104.73
386.53	1074.31
386.72	1322.40
386.92	1139.84
387.11	1273.25
387.31	1205.38
387.50	1156.22
387.70	1249.85
387.89	1341.13
388.09	1275.59
388.28	1308.36
388.48	1376.24
388.67	1355.17
388.86	1366.87
389.06	1383.26
389.25	1416.02
389.45	1327.08
389.64	1376.24
389.84	1378.58
390.03	1406.66
390.22	1455.81
390.42	1371.55
390.61	1385.60
390.81	1348.15
391.00	1397.30
391.19	1401.98
391.39	1446.45
391.58	1387.94
391.78	1507.30
391.97	1493.26
392.16	1568.16
392.36	1469.86
392.55	1589.22
392.75	1610.29
392.94	1404.32
393.13	1563.48
393.33	1444.11
393.52	1551.78
393.71	1600.93
393.91	1507.30
394.10	1542.41
394.29	1537.73
394.49	1612.63
394.68	1753.06
394.88	1647.74
395.07	1715.61
395.26	1661.78
395.46	1584.54
395.65	1692.21
395.84	1668.80
396.04	1790.51
396.23	1750.72
396.42	1816.26
396.62	1827.96
396.81	1837.32
397.00	1689.87
397.19	1823.28
397.39	1858.39
397.58	1788.17
397.77	1764.76
397.97	1825.62
398.16	1846.68
398.35	1877.11
398.55	1902.86
398.74	1870.09
398.93	1921.58
399.12	1907.54
399.32	1998.82
399.51	2052.65
399.70	1912.22
399.90	2036.27
400.09	2045.63
400.28	1944.99
400.47	2001.16
400.67	2017.54
400.86	2066.69
401.05	2057.33
401.24	2029.24
401.44	2169.68
401.63	2118.18
401.82	2244.57
402.01	2181.38
402.21	2132.23
402.40	2230.53
402.59	2174.36
402.78	2186.06
402.97	2347.56
403.17	2174.36
403.36	2272.66
403.55	2305.43
403.74	2459.90
403.93	2359.26
404.13	2413.09
404.32	2382.67
404.51	2401.39
404.70	2359.26
404.89	2356.92
405.09	2495.01
405.28	2490.33
405.47	2462.24
405.66	2502.03
405.85	2445.86
406.05	2548.84
406.24	2516.08
406.43	2649.49
406.62	2644.81
406.81	2607.36
407.00	2689.28
407.20	2626.08
407.39	2448.20
407.58	2764.17
407.77	2747.79
407.96	2705.66
408.15	2818.00
408.34	2757.15
408.54	2733.75
408.73	2867.16
408.92	2780.56
409.11	2930.35
409.30	2918.65
409.49	2967.80
409.68	2853.11
409.87	2946.73
410.07	2874.18
410.26	3075.46
410.45	3047.38
410.64	2932.69
410.83	3098.87
411.02	3026.31
411.21	3239.30
411.40	3162.06
411.59	3405.48
411.78	3241.64
411.98	3279.09
412.17	3199.51
412.36	3335.26
412.55	3454.63
412.74	3480.38
412.93	3531.87
413.12	3435.91
413.31	3627.83
413.50	3513.14
413.69	3588.04
413.88	3590.38
414.07	3609.11
414.26	3719.11
414.45	3688.68
414.64	3705.07
414.83	3658.26
415.02	3641.87
415.22	3871.25
415.41	3873.59
415.60	3918.06
415.79	3929.76
415.98	3943.80
416.17	3911.04
416.36	4077.21
416.55	3920.40
416.74	4124.02
416.93	3976.57
417.12	4049.13
417.31	4168.49
417.50	4315.95
417.69	4348.72
417.88	4238.71
418.07	4205.94
418.26	4376.80
418.45	4339.35
418.64	4344.03
418.83	4432.97
419.02	4538.30
419.21	4610.86
419.39	4601.49
419.58	4510.21
419.77	4404.89
419.96	4638.94
420.15	4652.98
420.34	4554.68
420.53	4746.61
420.72	4652.98
420.91	4709.16
421.10	4746.61
421.29	4802.78
421.48	4636.60
421.67	4786.40
421.86	4823.84
422.05	4858.95
422.24	4770.01
422.43	4898.74
422.61	4800.44
422.80	5053.22
422.99	4837.89
423.18	4903.42
423.37	5057.90
423.56	4912.78
423.75	4985.34
423.94	4915.12
424.13	4582.77
424.32	4669.37
424.50	4994.70
424.69	5207.69
424.88	5268.55
425.07	4952.57
425.26	5043.85
425.45	4975.98
425.64	5006.41
425.83	5022.79
426.01	5130.45
426.20	4915.12
426.39	5111.73
426.58	5214.71
426.77	5137.48
426.96	5153.86
427.15	5270.89
427.33	5217.05
427.52	5170.24
427.71	5348.12
427.90	5345.78
428.09	5254.50
428.28	5444.09
428.46	5467.49
428.65	5324.72
428.84	5596.22
429.03	5607.92
429.22	5418.34
429.40	5647.71
429.59	5586.86
429.78	5387.91
429.97	5357.49
430.16	5460.47
430.34	5633.67
430.53	5657.07
430.72	5554.09
430.91	5776.44
431.10	5537.71
431.28	5671.12
431.47	5797.51
431.66	6005.81
431.85	5987.09
432.03	5877.09
432.22	6005.81
432.41	5874.74
432.60	5933.26
432.79	6040.92
432.97	5937.94
433.16	5963.68
433.35	6010.50
433.54	6251.57
433.72	6232.85
433.91	6127.52
434.10	6167.31
434.28	6143.91
434.47	6303.06
434.66	6413.07
434.85	6200.08
435.03	6289.02
435.22	6504.35
435.41	6471.58
435.59	6530.09
435.78	6494.99
435.97	6581.59
436.16	6459.88
436.34	6569.88
436.53	6677.55
436.72	6710.32
436.90	6384.98
437.09	6663.51
437.28	6471.58
437.46	6691.59
437.65	6754.79
437.84	6813.30
438.02	6895.22
438.21	6843.73
438.40	6626.06
438.58	7035.65
438.77	7133.95
438.96	6988.84
439.14	7321.20
439.33	7283.75
439.52	7180.76
439.70	7267.36
439.89	7566.95
440.08	7307.15
440.26	7391.41
440.45	7578.65
440.63	7595.04
440.82	7590.36
441.01	7590.36
441.19	7665.25
441.38	7840.79
441.57	7765.90
441.75	7859.52
441.94	8084.21
442.12	7915.69
442.31	8121.66
442.50	8037.40
442.68	7953.14
442.87	8166.13
443.05	8121.66
443.24	8238.69
443.43	8116.98
443.61	8161.45
443.80	8540.61
443.98	8116.98
444.17	7997.61
444.35	8479.76
444.54	8428.27
444.73	8482.10
444.91	8208.26
445.10	8446.99
445.28	8613.17
445.47	8358.05
445.65	8545.30
445.84	8468.06
446.02	8421.25
446.21	8573.38
446.39	8407.20
446.58	8652.96
446.77	8582.74
446.95	8432.95
447.14	8461.04
447.32	8589.77
447.51	8538.27
447.69	8730.20
447.88	8732.54
448.06	8645.94
448.25	8524.23
448.43	8769.99
448.62	8667.00
448.80	8613.17
448.99	8753.60
449.17	8819.14
449.36	8622.53
449.54	8814.46
449.73	9034.47
449.91	8917.44
450.10	9085.96
450.28	9090.64
450.46	8990.00
450.65	9198.31
450.83	9137.45
451.02	9179.58
451.20	9425.34
451.39	9287.25
451.57	9172.56
451.76	9298.95
451.94	9446.40
452.13	9408.95
452.31	9334.06
452.49	9137.45
452.68	9488.53
452.86	9469.81
453.05	9338.74
453.23	9453.42
453.42	9668.75
453.60	9437.04
453.78	9570.45
453.97	9469.81
454.15	9542.36
454.34	9577.47
454.52	9540.02
454.70	9774.08
454.89	9790.46
455.07	9748.33
455.26	9863.02
455.44	10099.41
455.62	9944.94
455.81	10078.35
455.99	10061.96
456.17	10003.45
456.36	9895.78
456.54	10181.33
456.73	10368.57
456.91	10560.50
457.09	10665.82
457.28	10689.23
457.46	10296.02
457.64	10675.18
457.83	10567.52
458.01	10361.55
458.19	10925.62
458.38	10719.65
458.56	10768.80
458.74	10810.93
458.93	10740.72
459.11	10860.09
459.29	10705.61
459.48	10785.19
459.66	10890.51
459.84	10930.30
460.03	11236.91
460.21	11187.76
460.39	10995.84
460.57	10981.79
460.76	11091.80
460.94	11438.20
461.12	11323.51
461.31	11349.26
461.49	11194.78
461.67	11265.00
461.85	11552.88
462.04	11536.50
462.22	12156.74
462.40	11517.78
462.59	11477.99
462.77	11571.61
462.95	11836.09
463.13	11922.69
463.32	11726.08
463.50	11873.54
463.68	11918.01
463.86	11925.03
464.05	11903.96
464.23	11831.41
464.41	12042.06
464.59	11822.05
464.78	12301.86
464.96	11829.07
465.14	11861.84
465.32	12161.42
465.50	12133.34
465.69	12395.48
465.87	12198.87
466.05	12276.11
466.23	12571.02
466.41	12383.77
466.60	12786.35
466.78	12313.56
466.96	12468.03
467.14	12351.01
467.32	12315.90
467.51	12559.31
467.69	12351.01
467.87	12521.87
468.05	12685.70
468.23	12538.25
468.41	12613.15
468.60	12842.52
468.78	12732.51
468.96	12805.07
469.14	12966.57
469.32	13071.89
469.50	12910.40
469.69	13289.56
469.87	13240.41
470.05	13432.33
470.23	13338.71
470.41	13158.49
470.59	13366.80
470.77	13310.63
470.95	13521.27
471.14	13661.71
471.32	13277.86
471.50	13699.16
471.68	13652.34
471.86	13980.02
472.04	13958.96
472.22	14225.78
472.40	13851.29
472.58	14019.81
472.77	14045.55
472.95	14064.28
473.13	14836.66
473.31	14188.33
473.49	14317.06
473.67	13912.14
473.85	14274.93
474.03	14967.73
474.21	14719.63
474.39	14864.74
474.57	15115.18
474.75	15035.60
474.93	15164.33
475.12	15377.32
475.30	15096.46
475.48	15026.24
475.66	15489.67
475.84	15323.49
476.02	15475.62
476.20	15470.94
476.38	15829.04
476.56	16355.66
476.74	16170.76
476.92	15953.09
477.10	16088.84
477.28	16098.20
477.46	16334.60
477.64	16594.40
477.82	16762.92
478.00	17153.79
478.18	16886.97
478.36	17153.79
478.54	17472.10
478.72	17399.54
478.90	17458.06
479.08	17551.68
479.26	17788.07
479.44	17638.28
479.62	18132.13
479.80	17963.61
479.98	18417.68
480.16	18684.50
480.34	18581.51
480.52	18785.14
480.70	18656.41
480.88	18560.45
481.06	18981.74
481.24	18977.06
481.41	19318.78
481.59	19569.22
481.77	19730.72
481.95	19744.76
482.13	19822.00
482.31	20182.44
482.49	20493.73
482.67	20350.96
482.85	20517.14
483.03	20908.01
483.21	21120.99
483.39	21226.32
483.57	21153.76
483.74	21287.17
483.92	21380.79
484.10	21579.74
484.28	21839.54
484.46	22335.73
484.64	22665.75
484.82	22008.06
485.00	22464.46
485.18	22892.78
485.35	23269.61
485.53	22665.75
485.71	23370.25
485.89	24009.22
486.07	23611.32
486.25	23592.60
486.43	24018.58
486.61	23833.68
486.78	24098.16
486.96	24395.40
487.14	24521.79
487.32	24830.74
487.50	25153.74
487.68	25123.31
487.85	25514.18
488.03	25923.77
488.21	26384.86
488.39	25926.11
488.57	26008.03
488.75	26349.75
488.92	26558.06
489.10	26904.46
489.28	26991.06
489.46	27480.23
489.64	27208.73
489.81	27599.60
489.99	28046.64
490.17	28123.88
490.35	28346.23
490.53	28114.52
490.70	28886.89
490.88	28643.48
491.06	29188.82
491.24	28931.36
491.41	29479.05
491.59	29591.39
491.77	29418.19
491.95	29860.55
492.13	29811.40
492.30	30235.04
492.48	30335.68
492.66	30649.32
492.84	30787.41
493.01	31168.91
493.19	31206.36
493.37	31379.56
493.54	31700.22
493.72	31854.69
493.90	31784.48
494.08	32336.84
494.25	32484.30
494.43	32760.48
494.61	32863.46
494.79	33055.39
494.96	32954.74
495.14	33481.36
495.32	32952.40
495.49	33876.91
495.67	33572.64
495.85	34096.92
496.02	34312.25
496.20	34160.12
496.38	34206.93
496.55	34611.84
496.73	35468.48
496.91	34897.39
497.09	34983.99
497.26	35274.21
497.44	35407.62
497.62	35732.96
497.79	35971.69
497.97	35761.05
498.14	36577.89
498.32	36414.05
498.50	36507.68
498.67	37001.53
498.85	36741.73
499.03	37397.08
499.20	37125.58
499.38	37153.66
499.56	37649.86
499.73	37670.92
499.91	37886.25
500.08	38005.62
500.26	37947.11
500.44	37874.55
500.61	38443.30
500.79	38029.02
500.97	38483.09
501.14	38932.47
501.32	38534.58
501.49	39124.40
501.67	39426.32
501.84	39187.59
502.02	39772.72
502.20	39276.53
502.37	39569.10
502.55	39634.63
502.72	39882.73
502.90	39889.75
503.07	40397.65
503.25	40289.98
503.43	40271.26
503.60	39943.58
503.78	40655.11
503.95	40577.87
504.13	40713.62
504.30	40596.59
504.48	41057.68
504.65	41148.96
504.83	41069.38
505.01	41757.50
505.18	41890.91
505.36	41977.51
505.53	41579.62
505.71	42082.83
505.88	42368.38
506.06	41954.10
506.23	42349.65
506.41	42363.70
506.58	42698.39
506.76	42246.67
506.93	43058.84
507.11	43166.50
507.28	42817.76
507.46	43136.07
507.63	43536.30
507.81	43597.16
507.98	43601.84
508.16	43543.33
508.33	44079.31
508.50	44257.19
508.68	44301.66
508.85	44598.91
509.03	43945.90
509.20	44486.56
509.38	44587.21
509.55	44982.76
509.73	44603.59
509.90	45165.32
510.08	45193.40
510.25	45017.86
510.42	45031.91
510.60	45240.21
510.77	45382.99
510.95	46241.96
511.12	45621.72
511.30	45867.48
511.47	46237.28
511.64	45851.09
511.82	46490.06
511.99	45883.86
512.17	46225.58
512.34	46471.34
512.51	46909.02
512.69	46831.78
512.86	46469.00
513.04	47257.76
513.21	46789.65
513.38	47009.66
513.56	47501.17
513.73	47257.76
513.90	47571.39
514.08	46920.72
514.25	47985.66
514.43	48030.13
514.60	48236.10
514.77	47622.88
514.95	48486.54
515.12	47587.77
515.29	48334.40
515.47	48411.64
515.64	48666.76
515.81	48210.35
515.99	48636.33
516.16	49186.36
516.33	49272.96
516.51	49088.06
516.68	49008.48
516.85	48823.58
517.03	49034.22
517.20	49352.54
517.37	49062.31
517.54	49478.92
517.72	49511.69
517.89	49614.68
518.06	49645.10
518.24	49331.47
518.41	49799.58
518.58	49720.00
518.75	49258.91
518.93	50045.33
519.10	49907.24
519.27	50234.92
519.45	50124.91
519.62	50255.98
519.79	50220.87
519.96	50300.45
520.14	50506.42
520.31	50248.96
520.48	50953.46
520.65	50880.91
520.83	50777.92
521.00	51133.68
521.17	51000.27
521.34	50660.90
521.52	51063.47
521.69	51334.97
521.86	51578.39
522.03	51405.19
522.20	51494.13
522.38	51957.55
522.55	51627.54
522.72	51756.27
522.89	51826.48
523.07	51927.13
523.24	51634.56
523.41	52123.73
523.58	51613.49
523.75	52418.64
523.92	52109.69
524.10	52451.41
524.27	52140.11
524.44	52196.29
524.61	52676.10
524.78	52521.62
524.96	52575.45
525.13	52790.78
525.30	52708.86
525.47	53083.35
525.64	52870.36
525.81	52772.06
525.98	52896.11
526.16	52659.71
526.33	53221.44
526.50	53301.02
526.67	53118.46
526.84	53462.52
527.01	53521.03
527.18	53186.33
527.36	53179.31
527.53	53455.50
527.70	53509.33
527.87	53598.27
528.04	53591.25
528.21	53776.15
528.38	53874.45
528.55	54028.93
528.72	53553.80
528.89	53705.93
529.07	53694.23
529.24	53869.77
529.41	53968.07
529.58	54035.95
529.75	54089.78
529.92	54167.02
530.09	54005.52
530.26	54239.57
530.43	54181.06
530.60	54293.41
530.77	54457.24
530.94	54160.00
531.11	54342.56
531.28	54482.99
531.46	54784.92
531.63	54548.53
531.80	54447.88
531.97	54841.09
532.14	54707.68
532.31	55121.96
532.48	54988.55
532.65	55075.15
532.82	54866.84
532.99	55150.04
533.16	54761.51
533.33	55276.43
533.50	55016.63
533.67	55274.09
533.84	55213.24
534.01	55210.90
534.18	55234.30
534.35	55526.87
534.52	55346.65
534.69	55608.79
534.86	55730.50
535.03	55267.07
535.20	55360.69
535.37	55550.27
535.54	55700.07
535.71	55522.19
535.88	55620.49
536.05	55821.78
536.22	55819.44
536.38	55899.01
536.55	55994.98
536.72	55861.57
536.89	55667.30
537.06	55723.47
537.23	56144.77
537.40	55868.59
537.57	56210.31
537.74	55922.42
537.91	56395.21
538.08	56329.67
538.25	55934.12
538.42	56233.71
538.59	56828.21
538.75	56055.83
538.92	56472.45
539.09	56608.20
539.26	56563.73
539.43	56357.76
539.60	56479.47
539.77	56594.15
539.94	56772.03
540.11	56587.13
540.28	56753.31
540.44	56933.53
540.61	56837.57
540.78	56690.12
540.95	56928.85
541.12	56713.52
541.29	56816.50
541.46	56750.97
541.62	56842.25
541.79	56980.34
541.96	56645.65
542.13	56711.18
542.30	57155.88
542.47	57219.08
542.63	57158.22
542.80	57392.28
542.97	57258.87
543.14	57511.64
543.31	57488.24
543.48	57432.07
543.64	57675.48
543.81	57544.41
543.98	57698.89
544.15	57649.74
544.32	57858.04
544.48	58000.82
544.65	57675.48
544.82	57656.76
544.99	57490.58
545.16	57839.32
545.32	57619.31
545.49	58056.99
545.66	57874.43
545.83	57991.45
546.00	58110.82
546.16	57932.94
546.33	57836.98
546.50	57696.55
546.67	57907.19
546.83	57640.37
547.00	57946.98
547.17	58005.50
547.34	58075.71
547.50	58174.02
547.67	58225.51
547.84	58377.64
548.00	58253.59
548.17	58536.80
548.34	58405.73
548.51	58623.40
548.67	58494.67
548.84	58511.05
549.01	58267.64
549.18	58588.29
549.34	58389.34
549.51	58520.41
549.68	58571.91
549.84	58621.06
550.01	58749.79
550.18	58370.62
550.34	58599.99
550.51	58852.77
550.68	58859.79
550.84	58543.82
551.01	58965.12
551.18	58883.20
551.34	58599.99
551.51	58834.05
551.68	58817.66
551.84	58958.09
552.01	58707.66
552.18	58836.39
552.34	58906.60
552.51	59180.45
552.68	58972.14
552.84	59096.19
553.01	59248.32
553.18	59117.25
553.34	59187.47
553.51	58845.75
553.67	58859.79
553.84	59119.59
554.01	59224.92
554.17	59339.60
554.34	59274.07
554.51	59348.96
554.67	59316.20
554.84	59393.43
555.00	59353.65
555.17	59152.36
555.33	59454.29
555.50	59133.63
555.67	59290.45
555.83	59451.95
556.00	59529.19
556.16	59487.06
556.33	59463.65
556.50	59360.67
556.66	59370.03
556.83	59304.49
556.99	59601.74
557.16	59765.58
557.32	59599.40
557.49	59943.46
557.65	59613.44
557.82	59779.62
557.98	59632.17
558.15	59791.33
558.32	59948.14
558.48	59503.44
558.65	59812.39
558.81	59917.71
558.98	59777.28
559.14	59835.80
559.31	59859.20
559.47	59978.57
559.64	60001.97
559.80	59812.39
559.97	60013.68
560.13	59934.10
560.30	59994.95
560.46	60219.64
560.63	59948.14
560.79	59917.71
560.96	60217.30
561.12	60203.26
561.29	60074.53
561.45	60102.62
561.61	60013.68
561.78	59803.03
561.94	59983.25
562.11	59997.29
562.27	60114.32
562.44	60367.10
562.60	60437.31
562.77	60240.71
562.93	60130.70
563.10	60273.48
563.26	60140.07
563.42	60598.81
563.59	60233.69
563.75	60205.60
563.92	60320.29
564.08	60378.80
564.24	60516.89
564.41	60324.97
564.57	60236.03
564.74	60193.90
564.90	60214.96
565.07	60341.35
565.23	60390.50
565.39	60224.32
565.56	60509.87
565.72	60432.63
565.88	60383.48
566.05	60383.48
566.21	60647.96
566.38	60434.97
566.54	60556.68
566.70	60704.13
566.87	60676.05
567.03	60418.59
567.19	60659.66
567.36	60692.43
567.52	60484.12
567.68	60772.01
567.85	60608.17
568.01	60666.69
568.17	60505.19
568.34	60823.50
568.50	60608.17
568.66	60453.70
568.83	60610.51
568.99	60406.89
569.15	60659.66
569.32	60638.60
569.48	60701.79
569.64	60924.14
569.81	60793.07
569.97	60617.53
570.13	60633.92
570.30	60713.50
570.46	60800.10
570.62	60722.86
570.78	60828.18
570.95	60851.59
571.11	61003.72
571.27	60549.66
571.43	60746.26
571.60	60865.63
571.76	60898.40
571.92	60804.78
572.09	60837.54
572.25	60947.55
572.41	60779.03
572.57	60992.02
572.74	61057.56
572.90	61024.79
573.06	60718.18
573.22	60877.33
573.38	60867.97
573.55	60952.23
573.71	60945.21
573.87	60687.75
574.03	60867.97
574.20	60886.70
574.36	60996.70
574.52	60919.46
574.68	61031.81
574.84	61013.08
575.01	61062.24
575.17	60945.21
575.33	60886.70
575.49	61029.47
575.65	61212.03
575.82	60996.70
575.98	60970.96
576.14	61261.18
576.30	61116.07
576.46	60891.38
576.62	60800.10
576.79	61127.77
576.95	60790.73
577.11	61102.03
577.27	61153.52
577.43	61118.41
577.59	61120.75
577.75	60947.55
577.92	61069.26
578.08	61090.32
578.24	61158.20
578.40	61221.39
578.56	60994.36
578.72	61223.73
578.88	61102.03
579.04	61364.17
579.21	61017.77
579.37	61235.44
579.53	61324.38
579.69	60959.25
579.85	61137.13
580.01	61123.09
580.17	61116.07
580.33	61197.99
580.49	61307.99
580.65	61265.86
580.82	61181.60
580.98	61066.92
581.14	61078.62
581.30	61146.50
581.46	61106.71
581.62	61141.81
581.78	61120.75
581.94	61235.44
582.10	61305.65
582.26	61279.91
582.42	61188.63
582.58	61153.52
582.74	61080.96
582.90	61200.33
583.06	61270.54
583.22	60996.70
583.38	61338.42
583.54	61125.43
583.70	61233.10
583.86	61389.91
584.02	61167.56
584.18	61235.44
584.34	61212.03
584.50	61113.73
584.66	61219.05
584.82	61167.56
584.98	61254.16
585.14	61410.98
585.30	61036.49
585.46	61223.73
585.62	61361.82
585.78	61420.34
585.94	61097.34
586.10	61240.12
586.26	61371.19
586.42	61293.95
586.58	61427.36
586.74	61315.01
586.90	61242.46
587.06	61293.95
587.22	61380.55
587.38	61195.65
587.54	61556.09
587.70	61469.49
587.86	61261.18
588.02	61422.68
588.18	61275.22
588.34	61291.61
588.49	61258.84
