SpectraSuite Data File
++++++++++++++++++++++++++++++++++++
Date: Fri Oct 25 11:25:13 EDT 2013
User: price-jones
Dark Spectrum Present: No
Reference Spectrum Present: No
Number of Sampled Component Spectra: 1
Spectrometers: USB2+H05261
Integration Time (usec): 100000 (USB2+H05261)
Spectra Averaged: 1 (USB2+H05261)
Boxcar Smoothing: 0 (USB2+H05261)
Correct for Electrical Dark: No (USB2+H05261)
Strobe/Lamp Enabled: No (USB2+H05261)
Correct for Detector Non-linearity: No (USB2+H05261)
Correct for Stray Light: No (USB2+H05261)
Number of Pixels in Processed Spectrum: 2048
>>>>>Begin Processed Spectral Data<<<<<
365.73	259.80
365.92	259.80
366.12	259.80
366.32	191.92
366.52	133.41
366.72	135.75
366.91	107.66
367.11	121.71
367.31	135.75
367.51	84.26
367.70	198.95
367.90	194.26
368.10	119.37
368.30	112.35
368.49	170.86
368.69	128.73
368.89	142.77
369.09	135.75
369.28	88.94
369.48	189.58
369.68	168.52
369.87	170.86
370.07	166.18
370.27	276.18
370.47	308.95
370.66	592.16
370.86	629.60
371.06	629.60
371.25	688.12
371.45	650.67
371.65	676.41
371.84	667.05
372.04	643.65
372.24	805.14
372.44	774.72
372.63	727.91
372.83	739.61
373.03	697.48
373.22	683.44
373.42	699.82
373.62	842.59
373.81	746.63
374.01	805.14
374.21	781.74
374.40	760.67
374.60	821.53
374.79	875.36
374.99	861.32
375.19	784.08
375.38	898.77
375.58	870.68
375.78	891.74
375.97	828.55
376.17	849.61
376.37	774.72
376.56	924.51
376.76	851.96
376.95	835.57
377.15	856.64
377.35	791.10
377.54	830.89
377.74	973.66
377.93	947.92
378.13	828.55
378.33	952.60
378.52	961.96
378.72	1032.18
378.91	1060.26
379.11	926.85
379.31	917.49
379.50	971.32
379.70	933.87
379.89	994.73
380.09	966.64
380.28	957.28
380.48	1004.09
380.68	966.64
380.87	1055.58
381.07	1006.43
381.26	1064.94
381.46	983.02
381.65	1046.22
381.85	983.02
382.04	1081.33
382.24	1090.69
382.43	1067.28
382.63	1043.88
382.83	1025.15
383.02	1200.69
383.22	1224.10
383.41	1151.54
383.61	1188.99
383.80	1184.31
384.00	1100.05
384.19	1013.45
384.39	1142.18
384.58	1177.29
384.78	1034.52
384.97	1146.86
385.17	1090.69
385.36	1191.33
385.56	1139.84
385.75	1177.29
385.95	1151.54
386.14	1188.99
386.34	1198.35
386.53	1210.06
386.72	1128.14
386.92	1214.74
387.11	1139.84
387.31	1259.21
387.50	1249.85
387.70	1233.46
387.89	1296.66
388.09	1212.40
388.28	1228.78
388.48	1228.78
388.67	1329.42
388.86	1331.76
389.06	1308.36
389.25	1275.59
389.45	1315.38
389.64	1329.42
389.84	1380.92
390.03	1369.21
390.22	1418.36
390.42	1362.19
390.61	1287.29
390.81	1331.76
391.00	1380.92
391.19	1486.24
391.39	1416.02
391.58	1460.49
391.78	1472.20
391.97	1502.62
392.16	1387.94
392.36	1460.49
392.55	1523.69
392.75	1432.41
392.94	1423.05
393.13	1526.03
393.33	1413.68
393.52	1497.94
393.71	1596.25
393.91	1605.61
394.10	1556.46
394.29	1551.78
394.49	1490.92
394.68	1596.25
394.88	1563.48
395.07	1624.33
395.26	1680.50
395.46	1741.36
395.65	1694.55
395.84	1668.80
396.04	1825.62
396.23	1746.04
396.42	1739.02
396.62	1760.08
396.81	1748.38
397.00	1706.25
397.19	1720.29
397.39	1739.02
397.58	1851.36
397.77	1849.02
397.97	1858.39
398.16	1792.85
398.35	1860.73
398.55	1867.75
398.74	1867.75
398.93	1982.43
399.12	1893.49
399.32	2010.52
399.51	1881.79
399.70	1975.41
399.90	1930.94
400.09	1888.81
400.28	2015.20
400.47	2024.56
400.67	1991.80
400.86	1991.80
401.05	2052.65
401.24	2076.06
401.44	2165.00
401.63	2047.97
401.82	2162.66
402.01	2078.40
402.21	2122.87
402.40	2108.82
402.59	2136.91
402.78	2265.64
402.97	2197.76
403.17	2244.57
403.36	2277.34
403.55	2338.20
403.74	2305.43
403.93	2385.01
404.13	2429.48
404.32	2392.03
404.51	2356.92
404.70	2438.84
404.89	2429.48
405.09	2396.71
405.28	2401.39
405.47	2450.54
405.66	2363.94
405.85	2438.84
406.05	2551.18
406.24	2555.86
406.43	2420.11
406.62	2644.81
406.81	2635.44
407.00	2527.78
407.20	2469.27
407.39	2485.65
407.58	2654.17
407.77	2747.79
407.96	2715.02
408.15	2703.32
408.34	2640.12
408.54	2738.43
408.73	2724.38
408.92	2759.49
409.11	2892.90
409.30	2775.88
409.49	2860.13
409.68	2925.67
409.87	2892.90
410.07	2836.73
410.26	2864.82
410.45	3047.38
410.64	2942.05
410.83	2909.29
411.02	3155.04
411.21	3096.53
411.40	3059.08
411.59	3171.43
411.78	3243.98
411.98	3115.25
412.17	3328.24
412.36	3442.93
412.55	3400.80
412.74	3412.50
412.93	3286.11
413.12	3379.73
413.31	3468.67
413.50	3485.06
413.69	3363.35
413.88	3566.98
414.07	3524.85
414.26	3637.19
414.45	3583.36
414.64	3653.58
414.83	3775.28
415.02	3747.20
415.22	3796.35
415.41	3705.07
415.60	3812.73
415.79	4018.70
415.98	3885.29
416.17	3939.12
416.36	3887.63
416.55	4222.33
416.74	4051.47
416.93	3988.27
417.12	4191.90
417.31	3997.64
417.50	4159.13
417.69	4177.86
417.88	4184.88
418.07	4238.71
418.26	4348.72
418.45	4266.80
418.64	4376.80
418.83	4512.55
419.02	4320.63
419.21	4329.99
419.39	4393.19
419.58	4580.43
419.77	4486.81
419.96	4568.73
420.15	4463.40
420.34	4514.89
420.53	4566.39
420.72	4566.39
420.91	4552.34
421.10	4711.50
421.29	4753.63
421.48	4727.88
421.67	4732.56
421.86	4725.54
422.05	4854.27
422.24	4732.56
422.43	4802.78
422.61	4788.74
422.80	4840.23
422.99	4908.10
423.18	4908.10
423.37	4983.00
423.56	4912.78
423.75	4777.03
423.94	4849.59
424.13	4585.11
424.32	4809.80
424.50	4945.55
424.69	5146.84
424.88	5142.16
425.07	4877.68
425.26	4835.55
425.45	4983.00
425.64	4950.23
425.83	4947.89
426.01	4938.53
426.20	5041.51
426.39	4919.81
426.58	4975.98
426.77	5006.41
426.96	5121.09
427.15	4999.38
427.33	5083.64
427.52	5046.20
427.71	5233.44
427.90	5137.48
428.09	5310.68
428.28	5305.99
428.46	5181.95
428.65	5228.76
428.84	5376.21
429.03	5469.83
429.22	5495.58
429.40	5535.37
429.59	5387.91
429.78	5294.29
429.97	5301.31
430.16	5437.06
430.34	5518.98
430.53	5516.64
430.72	5682.82
430.91	5638.35
431.10	5600.90
431.28	5650.05
431.47	5692.18
431.66	5788.14
431.85	5666.44
432.03	5870.06
432.22	5942.62
432.41	5755.38
432.60	5767.08
432.79	5841.98
432.97	5951.98
433.16	6040.92
433.35	5959.00
433.54	5870.06
433.72	6303.06
433.91	6033.90
434.10	6101.78
434.28	6125.18
434.47	6033.90
434.66	6204.76
434.85	6260.93
435.03	6239.87
435.22	6328.81
435.41	6555.84
435.59	6333.49
435.78	6272.64
435.97	6340.51
436.16	6249.23
436.34	6314.77
436.53	6431.79
436.72	6682.23
436.90	6471.58
437.09	6471.58
437.28	6235.19
437.46	6499.67
437.65	6537.12
437.84	6679.89
438.02	6663.51
438.21	6768.83
438.40	6738.40
438.58	6902.24
438.77	7077.78
438.96	6967.77
439.14	6991.18
439.33	7068.42
439.52	6937.35
439.70	7042.67
439.89	7162.04
440.08	7166.72
440.26	7201.83
440.45	7321.20
440.63	7410.14
440.82	7508.44
441.01	7531.84
441.19	7564.61
441.38	7730.79
441.57	7632.49
441.75	7669.94
441.94	7763.56
442.12	7791.64
442.31	7985.91
442.50	7768.24
442.68	7892.29
442.87	7960.16
443.05	7873.56
443.24	8023.36
443.43	8037.40
443.61	8128.68
443.80	8269.11
443.98	8116.98
444.17	7798.66
444.35	8116.98
444.54	8344.01
444.73	8320.60
444.91	8201.24
445.10	8114.64
445.28	8266.77
445.47	8187.19
445.65	8393.16
445.84	8297.20
446.02	8439.97
446.21	8311.24
446.39	8341.67
446.58	8568.70
446.77	8568.70
446.95	8418.91
447.14	8299.54
447.32	8365.07
447.51	8367.42
447.69	8414.23
447.88	8510.19
448.06	8549.98
448.25	8454.02
448.43	8360.39
448.62	8510.19
448.80	8407.20
448.99	8472.74
449.17	8697.43
449.36	8573.38
449.54	8730.20
449.73	8898.72
449.91	8882.33
450.10	8964.25
450.28	8994.68
450.46	8936.17
450.65	8952.55
450.83	8882.33
451.02	9029.79
451.20	9167.88
451.39	9013.40
451.57	8975.95
451.76	8812.12
451.94	9156.18
452.13	9125.75
452.31	9158.52
452.49	9011.06
452.68	9430.02
452.86	9441.72
453.05	9322.35
453.23	9364.48
453.42	9235.75
453.60	9364.48
453.78	9530.66
453.97	9338.74
454.15	9317.67
454.34	9268.52
454.52	9860.68
454.70	9511.94
454.89	9537.68
455.07	9799.82
455.26	9809.19
455.44	9825.57
455.62	9863.02
455.81	9638.33
455.99	9872.38
456.17	9886.42
456.36	9963.66
456.54	10083.03
456.73	10155.58
456.91	10380.28
457.09	10338.15
457.28	10672.84
457.46	10171.97
457.64	10586.24
457.83	10214.10
458.01	10349.85
458.19	10583.90
458.38	10565.18
458.56	10551.14
458.74	10424.75
458.93	10602.63
459.11	10813.28
459.29	10780.51
459.48	10839.02
459.66	10855.40
459.84	10672.84
460.03	10890.51
460.21	10867.11
460.39	10691.57
460.57	10913.92
460.76	10923.28
460.94	11166.70
461.12	11211.17
461.31	10871.79
461.49	11112.86
461.67	11103.50
461.85	11370.32
462.04	11061.37
462.22	11735.45
462.40	11503.73
462.59	11351.60
462.77	11288.40
462.95	11449.90
463.13	11576.29
463.32	11304.79
463.50	11585.65
463.68	11702.68
463.86	11627.78
464.05	11517.78
464.23	11613.74
464.41	11967.16
464.59	11845.45
464.78	12088.87
464.96	11901.62
465.14	11829.07
465.32	11836.09
465.50	12248.02
465.69	12278.45
465.87	12107.59
466.05	12023.33
466.23	12236.32
466.41	12229.30
466.60	12374.41
466.78	12156.74
466.96	12217.60
467.14	12142.70
467.32	12226.96
467.51	12189.51
467.69	12203.55
467.87	12351.01
468.05	12571.02
468.23	12390.80
468.41	12379.09
468.60	12355.69
468.78	12695.07
468.96	12533.57
469.14	12762.94
469.32	12755.92
469.50	12606.13
469.69	12851.88
469.87	12800.39
470.05	12795.71
470.23	13191.26
470.41	13090.62
470.59	12872.95
470.77	13207.64
470.95	13287.22
471.14	13284.88
471.32	13259.13
471.50	13462.76
471.68	13256.79
471.86	13284.88
472.04	13650.00
472.22	13734.26
472.40	13855.97
472.58	13752.99
472.77	13675.75
472.95	13830.23
473.13	14389.61
473.31	13865.33
473.49	14003.43
473.67	14146.20
473.85	14108.75
474.03	14604.94
474.21	14567.49
474.39	14506.64
474.57	14637.71
474.75	14960.70
474.93	14939.64
475.12	15112.84
475.30	14932.62
475.48	15112.84
475.66	14775.80
475.84	14881.13
476.02	15211.14
476.20	15215.82
476.38	15527.11
476.56	15805.64
476.74	15726.06
476.92	15609.03
477.10	15625.42
477.28	16091.18
477.46	16198.85
477.64	16081.82
477.82	16465.67
478.00	16643.55
478.18	16521.84
478.36	16439.92
478.54	17036.76
478.72	16879.94
478.90	17439.33
479.08	17495.50
479.26	17530.61
479.44	17504.87
479.62	17617.21
479.80	17781.05
479.98	18113.41
480.16	18274.90
480.34	17909.78
480.52	18616.62
480.70	18473.85
480.88	18253.84
481.06	18539.38
481.24	18515.98
481.41	19112.81
481.59	18881.10
481.77	19260.27
481.95	19426.45
482.13	19641.78
482.31	19515.39
482.49	19946.05
482.67	20058.39
482.85	20128.61
483.03	20360.32
483.21	20692.68
483.39	20830.77
483.57	20826.09
483.74	20840.13
483.92	21263.77
484.10	21163.12
484.28	21628.89
484.46	21774.00
484.64	22356.80
484.82	21954.22
485.00	22141.47
485.18	22499.57
485.35	22689.15
485.53	22595.53
485.71	22628.30
485.89	23477.91
486.07	22799.16
486.25	23161.94
486.43	23274.29
486.61	23571.54
486.78	23927.30
486.96	23800.91
487.14	24411.79
487.32	24257.31
487.50	24957.13
487.68	24996.92
487.85	24898.62
488.03	25212.25
488.21	25518.86
488.39	25493.12
488.57	25785.68
488.75	26129.74
488.92	26082.93
489.10	26356.77
489.28	26649.34
489.46	26810.84
489.64	26871.69
489.81	27557.47
489.99	27491.93
490.17	27653.43
490.35	27938.97
490.53	28002.17
490.70	28170.69
490.88	28084.09
491.06	28641.14
491.24	28467.94
491.41	28809.65
491.59	29024.98
491.77	28685.61
491.95	29254.36
492.13	29635.86
492.30	29633.52
492.48	29780.98
492.66	30045.46
492.84	30085.25
493.01	30883.37
493.19	30064.18
493.37	30759.32
493.54	30614.21
493.72	31187.64
493.90	31192.32
494.08	31384.24
494.25	32100.45
494.43	32184.71
494.61	31812.56
494.79	32175.34
494.96	32320.46
495.14	32077.04
495.32	32861.12
495.49	32552.17
495.67	33057.73
495.85	33184.12
496.02	33118.58
496.20	33757.55
496.38	33907.34
496.55	33919.04
496.73	34291.19
496.91	34256.08
497.09	34401.19
497.26	34689.08
497.44	34672.70
497.62	35143.14
497.79	35314.00
497.97	35405.28
498.14	35409.96
498.32	35747.00
498.50	35749.34
498.67	36217.45
498.85	35976.37
499.03	36357.88
499.20	36357.88
499.38	36566.19
499.56	36727.69
499.73	37017.91
499.91	36954.72
500.08	37350.27
500.26	36629.38
500.44	36975.78
500.61	37394.74
500.79	37600.71
500.97	37848.80
501.14	38139.03
501.32	38326.27
501.49	38298.19
501.67	38485.43
501.84	38497.13
502.02	38501.81
502.20	38930.13
502.37	38492.45
502.55	38724.16
502.72	39374.83
502.90	39374.83
503.07	39164.18
503.25	39208.65
503.43	39358.45
503.60	40100.40
503.78	39866.34
503.95	39985.71
504.13	40608.29
504.30	40203.38
504.48	40217.43
504.65	40229.13
504.83	40627.02
505.01	40673.83
505.18	40767.45
505.36	41401.74
505.53	40884.48
505.71	41406.42
505.88	41305.77
506.06	41352.58
506.23	41584.30
506.41	41544.51
506.58	41977.51
506.76	41488.34
506.93	42047.72
507.11	41958.78
507.28	42351.99
507.46	42284.12
507.63	42382.42
507.81	42693.71
507.98	42597.75
508.16	42920.74
508.33	43199.27
508.50	42644.56
508.68	43620.56
508.85	43910.79
509.03	43442.68
509.20	43562.05
509.38	44325.07
509.55	43835.89
509.73	43838.23
509.90	43957.60
510.08	44238.47
510.25	44271.23
510.42	44528.69
510.60	44947.65
510.77	44821.26
510.95	44975.73
511.12	44961.69
511.30	44615.29
511.47	44835.30
511.64	45209.79
511.82	45448.52
511.99	45518.74
512.17	45638.11
512.34	45357.24
512.51	46073.45
512.69	46061.74
512.86	45752.79
513.04	46344.95
513.21	46225.58
513.38	46246.65
513.56	46670.28
513.73	46834.12
513.90	46618.79
514.08	46609.43
514.25	47124.35
514.43	46920.72
514.60	46932.42
514.77	47217.97
514.95	46965.19
515.12	47110.30
515.29	47124.35
515.47	47576.07
515.64	47615.86
515.81	47250.74
515.99	47503.51
516.16	47885.02
516.33	47798.42
516.51	48474.84
516.68	47873.32
516.85	48357.81
517.03	48708.89
517.20	48406.96
517.37	48622.29
517.54	48650.38
517.72	48472.49
517.89	48498.24
518.06	49038.90
518.24	49069.33
518.41	48549.73
518.58	48952.30
518.75	49382.96
518.93	49317.43
519.10	49303.38
519.27	49525.74
519.45	49074.01
519.62	49642.76
519.79	49794.90
519.96	49830.01
520.14	49846.39
520.31	49790.22
520.48	50052.36
520.65	49979.80
520.83	50122.57
521.00	50593.02
521.17	50344.92
521.34	50213.85
521.52	50506.42
521.69	50365.99
521.86	50218.53
522.03	50611.74
522.20	50897.29
522.38	51215.60
522.55	50911.33
522.72	50464.29
522.89	51136.02
523.07	51550.30
523.24	51054.11
523.41	51552.64
523.58	51203.90
523.75	51622.86
523.92	51531.57
524.10	51756.27
524.27	51978.62
524.44	51936.49
524.61	51774.99
524.78	52163.52
524.96	51938.83
525.13	52135.43
525.30	52074.58
525.47	51945.85
525.64	52065.22
525.81	52114.37
525.98	52332.04
526.16	52336.72
526.33	52126.07
526.50	52488.85
526.67	52399.91
526.84	52566.09
527.01	52554.39
527.18	52631.63
527.36	52907.81
527.53	52617.58
527.70	52853.98
527.87	53139.52
528.04	52755.68
528.21	53237.83
528.38	52928.87
528.55	53263.57
528.72	53064.63
528.89	53095.05
529.07	53216.76
529.24	53092.71
529.41	53612.31
529.58	53394.64
529.75	53017.82
529.92	53523.37
530.09	53626.35
530.26	53771.47
530.43	53734.02
530.60	53511.67
530.77	53584.22
530.94	53766.79
531.11	53588.91
531.28	53687.21
531.46	54049.99
531.63	53998.50
531.80	53996.16
531.97	54248.94
532.14	54141.27
532.31	54138.93
532.48	54300.43
532.65	54401.07
532.82	54347.24
532.99	54536.82
533.16	54389.37
533.33	54450.22
533.50	54777.90
533.67	54614.06
533.84	54574.27
534.01	54492.35
534.18	54857.48
534.35	55044.72
534.52	54585.97
534.69	55110.25
534.86	54920.67
535.03	54607.04
535.20	55117.28
535.37	55121.96
535.54	54901.95
535.71	55105.57
535.88	55255.37
536.05	55271.75
536.22	55238.98
536.38	55395.80
536.55	55224.94
536.72	55302.18
536.89	55238.98
537.06	55367.71
537.23	55407.50
537.40	55576.02
537.57	55512.83
537.74	55674.32
537.91	56081.58
538.08	55723.47
538.25	55437.93
538.42	55854.54
538.59	55894.33
538.75	55466.02
538.92	55999.66
539.09	55976.25
539.26	55999.66
539.43	55693.05
539.60	55845.18
539.77	55835.82
539.94	56247.75
540.11	56133.07
540.28	56399.89
540.44	56100.30
540.61	56442.02
540.78	56095.62
540.95	56104.98
541.12	56104.98
541.29	56404.57
541.46	56133.07
541.62	56472.45
541.79	56514.58
541.96	56172.86
542.13	56427.98
542.30	56413.93
542.47	56678.41
542.63	56477.13
542.80	56423.29
542.97	56963.96
543.14	56928.85
543.31	57029.49
543.48	56942.89
543.64	57111.41
543.81	57116.09
543.98	57176.95
544.15	57073.96
544.32	57235.46
544.48	57268.23
544.65	57207.37
544.82	57174.61
544.99	57003.75
545.16	57134.82
545.32	57027.15
545.49	57481.22
545.66	57677.82
545.83	57361.85
546.00	57392.28
546.16	57315.04
546.33	57095.03
546.50	57244.82
546.67	57291.63
546.83	57272.91
547.00	57668.46
547.17	57380.57
547.34	57462.49
547.50	57705.91
547.67	58021.88
547.84	57705.91
548.00	58019.54
548.17	58059.33
548.34	57752.72
548.51	58012.52
548.67	58071.03
548.84	58192.74
549.01	57701.23
549.18	57902.51
549.34	58134.23
549.51	58042.95
549.68	58169.33
549.84	58185.72
550.01	58209.12
550.18	58042.95
550.34	58138.91
550.51	58178.70
550.68	58202.10
550.84	58155.29
551.01	58328.49
551.18	58047.63
551.34	58365.94
551.51	58368.28
551.68	58321.47
551.84	58291.04
552.01	58199.76
552.18	58204.44
552.34	58185.72
552.51	58520.41
552.68	58253.59
552.84	58450.20
553.01	58665.53
553.18	58705.32
553.34	58588.29
553.51	58555.52
553.67	58560.20
553.84	58988.52
554.01	58920.65
554.17	58843.41
554.34	58852.77
554.51	58791.92
554.67	58890.22
554.84	58873.84
555.00	58866.81
555.17	58798.94
555.33	58920.65
555.50	58773.19
555.67	58805.96
555.83	58602.33
556.00	58644.46
556.16	59077.46
556.33	59220.23
556.50	58958.09
556.66	59110.23
556.83	58759.15
556.99	59276.41
557.16	59227.26
557.32	59269.39
557.49	59363.01
557.65	59271.73
557.82	59391.09
557.98	59168.74
558.15	59105.55
558.32	59337.26
558.48	59086.82
558.65	59487.06
558.81	59311.52
558.98	59243.64
559.14	59262.36
559.31	59374.71
559.47	59583.02
559.64	59664.94
559.80	59470.67
559.97	59512.80
560.13	59484.72
560.30	59276.41
560.46	59643.87
560.63	59653.23
560.79	59297.47
560.96	59732.81
561.12	59480.03
561.29	59646.21
561.45	59793.67
561.61	59470.67
561.78	59594.72
561.94	59545.57
562.11	59891.97
562.27	59695.36
562.44	59784.30
562.60	59913.03
562.77	59746.86
562.93	59819.41
563.10	59781.96
563.26	59688.34
563.42	60016.02
563.59	59786.64
563.75	59852.18
563.92	59753.88
564.08	59742.17
564.24	60030.06
564.41	59863.88
564.57	59962.18
564.74	59702.38
564.90	60076.87
565.07	59849.84
565.23	59880.27
565.39	59945.80
565.56	59952.82
565.72	59917.71
565.88	60081.55
566.05	59798.35
566.21	59957.50
566.38	59983.25
566.54	59969.21
566.70	60161.13
566.87	60081.55
567.03	60044.10
567.19	60140.07
567.36	59955.16
567.52	60107.30
567.68	60509.87
567.85	59969.21
568.01	60266.45
568.17	60142.41
568.34	60226.66
568.50	60093.25
568.66	60058.15
568.83	60336.67
568.99	60238.37
569.15	60088.57
569.32	60275.82
569.48	60030.06
569.64	60336.67
569.81	60285.18
569.97	60250.07
570.13	60182.19
570.30	60168.15
570.46	60388.16
570.62	60186.88
570.78	60364.76
570.95	60261.77
571.11	60392.84
571.27	60247.73
571.43	60266.45
571.60	60582.43
571.76	60189.22
571.92	60481.78
572.09	60327.31
572.25	60456.04
572.41	60453.70
572.57	60439.65
572.74	60671.37
572.90	60488.80
573.06	60308.58
573.22	60561.36
573.38	60413.91
573.55	60322.63
573.71	60647.96
573.87	60603.49
574.03	60582.43
574.20	60498.17
574.36	60299.22
574.52	60500.51
574.68	60383.48
574.84	60570.72
575.01	60676.05
575.17	60465.40
575.33	60580.09
575.49	60451.36
575.65	60411.57
575.82	60453.70
575.98	60638.60
576.14	60697.11
576.30	60767.33
576.46	60470.08
576.62	60519.23
576.79	60608.17
576.95	60533.28
577.11	60509.87
577.27	60554.34
577.43	60540.30
577.59	60392.84
577.75	60458.38
577.92	60399.86
578.08	60563.70
578.24	60676.05
578.40	60781.37
578.56	60743.92
578.72	60687.75
578.88	60832.86
579.04	60706.47
579.21	60713.50
579.37	60898.40
579.53	60872.65
579.69	60437.31
579.85	60409.23
580.01	60559.02
580.17	60741.58
580.33	60755.63
580.49	60729.88
580.65	60617.53
580.82	60802.44
580.98	60800.10
581.14	60605.83
581.30	60802.44
581.46	60690.09
581.62	60596.47
581.78	60559.02
581.94	60669.03
582.10	60594.13
582.26	60582.43
582.42	60718.18
582.58	60657.32
582.74	60800.10
582.90	60802.44
583.06	60678.39
583.22	60596.47
583.38	60720.52
583.54	60704.13
583.70	60891.38
583.86	60772.01
584.02	60711.16
584.18	60921.80
584.34	60952.23
584.50	60811.80
584.66	60683.07
584.82	60694.77
584.98	60985.00
585.14	60912.44
585.30	60673.71
585.46	61015.43
585.62	60837.54
585.78	60828.18
585.94	60530.93
586.10	60753.29
586.26	60793.07
586.42	60739.24
586.58	61123.09
586.74	60804.78
586.90	60708.82
587.06	60882.02
587.22	60942.87
587.38	60912.44
587.54	60910.10
587.70	61076.28
587.86	61148.84
588.02	60821.16
588.18	60877.33
588.34	60708.82
588.49	60874.99
