SpectraSuite Data File
++++++++++++++++++++++++++++++++++++
Date: Fri Oct 25 11:25:18 EDT 2013
User: price-jones
Dark Spectrum Present: No
Reference Spectrum Present: No
Number of Sampled Component Spectra: 1
Spectrometers: USB2+H05261
Integration Time (usec): 100000 (USB2+H05261)
Spectra Averaged: 1 (USB2+H05261)
Boxcar Smoothing: 0 (USB2+H05261)
Correct for Electrical Dark: No (USB2+H05261)
Strobe/Lamp Enabled: No (USB2+H05261)
Correct for Detector Non-linearity: No (USB2+H05261)
Correct for Stray Light: No (USB2+H05261)
Number of Pixels in Processed Spectrum: 2048
>>>>>Begin Processed Spectral Data<<<<<
365.73	152.13
365.92	152.13
366.12	152.13
366.32	128.73
366.52	138.09
366.72	107.66
366.91	119.37
367.11	147.45
367.31	121.71
367.51	173.20
367.70	168.52
367.90	135.75
368.10	131.07
368.30	159.16
368.49	166.18
368.69	184.90
368.89	159.16
369.09	114.69
369.28	145.11
369.48	145.11
369.68	191.92
369.87	238.73
370.07	250.44
370.27	224.69
370.47	332.36
370.66	650.67
370.86	535.98
371.06	613.22
371.25	795.78
371.45	678.76
371.65	608.54
371.84	660.03
372.04	671.73
372.24	788.76
372.44	713.86
372.63	809.83
372.83	739.61
373.03	798.12
373.22	725.57
373.42	772.38
373.62	772.38
373.81	791.10
374.01	842.59
374.21	863.66
374.40	781.74
374.60	798.12
374.79	798.12
374.99	788.76
375.19	877.70
375.38	814.51
375.58	828.55
375.78	835.57
375.97	880.04
376.17	903.45
376.37	861.32
376.56	889.40
376.76	936.21
376.95	814.51
377.15	840.25
377.35	870.68
377.54	858.98
377.74	842.59
377.93	795.78
378.13	840.25
378.33	950.26
378.52	945.58
378.72	910.47
378.91	952.60
379.11	891.74
379.31	1008.77
379.50	936.21
379.70	1050.90
379.89	964.30
380.09	1027.50
380.28	884.72
380.48	947.92
380.68	917.49
380.87	1013.45
381.07	1114.10
381.26	1004.09
381.46	992.39
381.65	1050.90
381.85	1034.52
382.04	1055.58
382.24	1062.60
382.43	1093.03
382.63	1123.46
382.83	1097.71
383.02	1078.99
383.22	1013.45
383.41	1146.86
383.61	1053.24
383.80	1116.44
384.00	1078.99
384.19	1069.62
384.39	1125.80
384.58	1186.65
384.78	1137.50
384.97	1221.76
385.17	1181.97
385.36	1149.20
385.56	1151.54
385.75	1151.54
385.95	1210.06
386.14	1205.38
386.34	1153.88
386.53	1235.80
386.72	1235.80
386.92	1259.21
387.11	1275.59
387.31	1228.78
387.50	1270.91
387.70	1172.61
387.89	1259.21
388.09	1270.91
388.28	1296.66
388.48	1249.85
388.67	1338.79
388.86	1233.46
389.06	1310.70
389.25	1329.42
389.45	1289.64
389.64	1320.06
389.84	1320.06
390.03	1268.57
390.22	1376.24
390.42	1432.41
390.61	1310.70
390.81	1483.90
391.00	1362.19
391.19	1441.77
391.39	1458.15
391.58	1448.79
391.78	1432.41
391.97	1469.86
392.16	1511.99
392.36	1537.73
392.55	1521.35
392.75	1514.33
392.94	1455.81
393.13	1519.01
393.33	1556.46
393.52	1607.95
393.71	1523.69
393.91	1521.35
394.10	1537.73
394.29	1540.07
394.49	1603.27
394.68	1572.84
394.88	1603.27
395.07	1720.29
395.26	1689.87
395.46	1643.06
395.65	1710.93
395.84	1657.10
396.04	1795.19
396.23	1706.25
396.42	1757.74
396.62	1771.79
396.81	1797.53
397.00	1919.24
397.19	1764.76
397.39	1762.42
397.58	1778.81
397.77	1760.08
397.97	1872.43
398.16	1926.26
398.35	1928.60
398.55	1879.45
398.74	1804.55
398.93	1930.94
399.12	1926.26
399.32	1865.41
399.51	1914.56
399.70	1952.01
399.90	1930.94
400.09	2069.03
400.28	2069.03
400.47	2026.90
400.67	2008.18
400.86	2101.80
401.05	2099.46
401.24	2047.97
401.44	2132.23
401.63	2172.02
401.82	2174.36
402.01	2083.08
402.21	2111.16
402.40	2232.87
402.59	2120.53
402.78	2356.92
402.97	2251.60
403.17	2200.10
403.36	2246.91
403.55	2291.38
403.74	2438.84
403.93	2375.64
404.13	2300.75
404.32	2272.66
404.51	2422.45
404.70	2377.98
404.89	2417.77
405.09	2469.27
405.28	2485.65
405.47	2469.27
405.66	2382.67
405.85	2502.03
406.05	2382.67
406.24	2600.34
406.43	2492.67
406.62	2553.52
406.81	2679.91
407.00	2480.97
407.20	2464.58
407.39	2607.36
407.58	2656.51
407.77	2724.38
407.96	2679.91
408.15	2773.53
408.34	2682.25
408.54	2796.94
408.73	2757.15
408.92	2785.24
409.11	2935.03
409.30	2932.69
409.49	2810.98
409.68	2984.18
409.87	2848.43
410.07	3028.65
410.26	2984.18
410.45	3033.33
410.64	2949.08
410.83	3028.65
411.02	3077.80
411.21	3133.98
411.40	2993.55
411.59	3187.81
411.78	3028.65
411.98	3023.97
412.17	3208.87
412.36	3234.62
412.55	3241.64
412.74	3372.71
412.93	3405.48
413.12	3370.37
413.31	3545.91
413.50	3564.64
413.69	3398.46
413.88	3548.25
414.07	3529.53
414.26	3658.26
414.45	3634.85
414.64	3747.20
414.83	3698.05
415.02	3749.54
415.22	3798.69
415.41	3756.56
415.60	3850.18
415.79	3885.29
415.98	3922.74
416.17	3889.97
416.36	3981.25
416.55	3885.29
416.74	3932.10
416.93	4170.83
417.12	4051.47
417.31	4112.32
417.50	4346.37
417.69	4297.22
417.88	4175.52
418.07	4187.22
418.26	4231.69
418.45	4318.29
418.64	4568.73
418.83	4493.83
419.02	4283.18
419.21	4596.81
419.39	4578.09
419.58	4393.19
419.77	4482.13
419.96	4498.51
420.15	4461.06
420.34	4440.00
420.53	4531.28
420.72	4643.62
420.91	4547.66
421.10	4622.56
421.29	4739.58
421.48	4545.32
421.67	4805.12
421.86	4744.27
422.05	4744.27
422.24	4758.31
422.43	4828.53
422.61	4594.47
422.80	4915.12
422.99	4896.40
423.18	4954.91
423.37	4830.87
423.56	4896.40
423.75	4901.08
423.94	4795.76
424.13	4482.13
424.32	4830.87
424.50	4884.70
424.69	4896.40
424.88	5069.60
425.07	4856.61
425.26	4987.68
425.45	4823.84
425.64	4919.81
425.83	4830.87
426.01	5050.88
426.20	4922.15
426.39	4943.21
426.58	5060.24
426.77	5001.72
426.96	5109.39
427.15	4997.04
427.33	5205.35
427.52	4980.66
427.71	5193.65
427.90	5188.97
428.09	5284.93
428.28	5338.76
428.46	5383.23
428.65	5270.89
428.84	5357.49
429.03	5303.65
429.22	5451.11
429.40	5453.45
429.59	5537.71
429.78	5217.05
429.97	5275.57
430.16	5390.25
430.34	5633.67
430.53	5600.90
430.72	5614.95
430.91	5633.67
431.10	5556.43
431.28	5650.05
431.47	5797.51
431.66	5923.90
431.85	5652.39
432.03	5928.58
432.22	5916.87
432.41	6033.90
432.60	5884.11
432.79	5825.59
432.97	6019.86
433.16	6066.67
433.35	5891.13
433.54	5998.79
433.72	6066.67
433.91	5916.87
434.10	5963.68
434.28	6054.97
434.47	6150.93
434.66	6204.76
434.85	6211.78
435.03	6176.67
435.22	6267.95
435.41	6534.78
435.59	6375.62
435.78	6644.78
435.97	6527.75
436.16	6408.39
436.34	6293.70
436.53	6597.97
436.72	6537.12
436.90	6490.31
437.09	6579.25
437.28	6284.34
437.46	6523.07
437.65	6546.48
437.84	6630.74
438.02	6747.76
438.21	6693.93
438.40	6738.40
438.58	7098.84
438.77	6956.07
438.96	6944.37
439.14	7007.56
439.33	7145.66
439.52	7269.70
439.70	7150.34
439.89	7407.80
440.08	7391.41
440.26	7290.77
440.45	7318.86
440.63	7410.14
440.82	7599.72
441.01	7555.25
441.19	7499.08
441.38	7665.25
441.57	7756.54
441.75	7632.49
441.94	7922.71
442.12	7915.69
442.31	7960.16
442.50	7971.86
442.68	7770.58
442.87	7861.86
443.05	8035.06
443.24	8046.76
443.43	8051.44
443.61	8011.65
443.80	8372.10
443.98	7885.26
444.17	7698.02
444.35	7925.05
444.54	8194.22
444.73	8215.28
444.91	8203.58
445.10	8184.85
445.28	8332.31
445.47	8238.69
445.65	8262.09
445.84	8287.84
446.02	8329.97
446.21	8266.77
446.39	8262.09
446.58	8477.42
446.77	8168.47
446.95	8435.29
447.14	8217.62
447.32	8638.92
447.51	8517.21
447.69	8388.48
447.88	8463.38
448.06	8386.14
448.25	8549.98
448.43	8526.57
448.62	8617.85
448.80	8446.99
448.99	8758.28
449.17	8655.30
449.36	8521.89
449.54	8849.57
449.73	8978.30
449.91	9020.42
450.10	9053.19
450.28	8828.50
450.46	8966.59
450.65	9074.26
450.83	8952.55
451.02	9039.15
451.20	9104.68
451.39	8975.95
451.57	8978.30
451.76	8957.23
451.94	9226.39
452.13	9343.42
452.31	9205.33
452.49	9137.45
452.68	9163.20
452.86	9392.57
453.05	9495.55
453.23	9324.69
453.42	9338.74
453.60	9107.02
453.78	9439.38
453.97	9289.59
454.15	9298.95
454.34	9671.09
454.52	9408.95
454.70	9430.02
454.89	9755.35
455.07	9858.34
455.26	9451.08
455.44	10017.49
455.62	9729.61
455.81	9940.26
455.99	10150.90
456.17	10120.48
456.36	10068.98
456.54	9900.47
456.73	10118.14
456.91	10375.59
457.09	10401.34
457.28	10340.49
457.46	10190.69
457.64	10438.79
457.83	10253.89
458.01	10197.71
458.19	10817.96
458.38	10513.69
458.56	10324.10
458.74	10513.69
458.93	10544.11
459.11	10682.20
459.29	10714.97
459.48	10677.52
459.66	10721.99
459.84	11066.05
460.03	10967.75
460.21	10944.34
460.39	10881.15
460.57	10600.29
460.76	10808.59
460.94	11204.14
461.12	10918.60
461.31	10925.62
461.49	11047.33
461.67	11119.89
461.85	11389.05
462.04	11358.62
462.22	11618.42
462.40	11543.52
462.59	11674.59
462.77	11447.56
462.95	11548.20
463.13	11552.88
463.32	11309.47
463.50	11583.31
463.68	11613.74
463.86	11796.30
464.05	11620.76
464.23	11630.12
464.41	11999.93
464.59	11742.47
464.78	12009.29
464.96	12229.30
465.14	11805.66
465.32	11969.50
465.50	12004.61
465.69	11915.67
465.87	12030.35
466.05	12039.72
466.23	11943.75
466.41	12053.76
466.60	12343.99
466.78	12105.25
466.96	12138.02
467.14	12226.96
467.32	12269.09
467.51	12482.08
467.69	12072.48
467.87	12517.18
468.05	12531.23
468.23	11969.50
468.41	12552.29
468.60	12652.94
468.78	12566.34
468.96	12491.44
469.14	12765.28
469.32	12821.45
469.50	12814.43
469.69	12894.01
469.87	13109.34
470.05	13041.46
470.23	13160.83
470.41	13097.64
470.59	13319.99
470.77	12973.59
470.95	13334.03
471.14	13411.27
471.32	13025.08
471.50	13495.53
471.68	13378.50
471.86	13612.56
472.04	13767.03
472.22	13895.76
472.40	13699.16
472.58	13605.53
472.77	13776.39
472.95	13837.25
473.13	14380.25
473.31	13914.48
473.49	13844.27
473.67	14204.71
473.85	14193.01
474.03	14518.34
474.21	14401.32
474.39	14511.32
474.57	14588.56
474.75	14714.95
474.93	14888.15
475.12	14890.49
475.30	14843.68
475.48	14892.83
475.66	15066.03
475.84	14892.83
476.02	15260.29
476.20	15211.14
476.38	15529.45
476.56	15999.90
476.74	15861.81
476.92	15583.29
477.10	15644.14
477.28	15896.92
477.46	15964.79
477.64	16379.07
477.82	16381.41
478.00	16772.28
478.18	16596.74
478.36	16720.79
478.54	17078.89
478.72	16758.24
478.90	17273.15
479.08	17301.24
479.26	17818.50
479.44	17511.89
479.62	17614.87
479.80	17848.93
479.98	17816.16
480.16	18155.54
480.34	18230.43
480.52	18593.22
480.70	18654.07
480.88	18480.87
481.06	18752.37
481.24	18754.71
481.41	18817.91
481.59	19019.19
481.77	19063.66
481.95	19325.80
482.13	19573.90
482.31	19435.81
482.49	19955.41
482.67	19936.68
482.85	20140.31
483.03	20709.06
483.21	20664.59
483.39	20790.98
483.57	20613.10
483.74	20896.30
483.92	21205.25
484.10	20849.49
484.28	21626.55
484.46	22010.40
484.64	22284.24
484.82	21685.06
485.00	22274.88
485.18	22684.47
485.35	22661.07
485.53	22745.33
485.71	22878.74
485.89	23243.86
486.07	22876.40
486.25	23171.30
486.43	23557.49
486.61	23538.77
486.78	23836.02
486.96	23939.00
487.14	24290.08
487.32	24432.85
487.50	24451.58
487.68	24842.45
487.85	25085.86
488.03	25167.78
488.21	25528.22
488.39	25582.06
488.57	25645.25
488.75	25788.02
488.92	26143.78
489.10	26642.32
489.28	26768.71
489.46	26764.03
489.64	26651.68
489.81	27463.85
489.99	27693.22
490.17	27534.06
490.35	27950.68
490.53	28025.57
490.70	28177.71
490.88	28496.02
491.06	28484.32
491.24	28280.69
491.41	28875.19
491.59	28982.85
491.77	29050.73
491.95	29198.18
492.13	29631.18
492.30	29666.29
492.48	29553.94
492.66	30026.73
492.84	29614.80
493.01	30075.88
493.19	30562.72
493.37	30630.59
493.54	30721.87
493.72	31178.28
493.90	31122.10
494.08	31527.02
494.25	31576.17
494.43	31892.14
494.61	31931.93
494.79	32161.30
494.96	32198.75
495.14	32811.97
495.32	32982.83
495.49	32786.22
495.67	33174.75
495.85	33626.48
496.02	33802.02
496.20	33834.78
496.38	33818.40
496.55	33745.84
496.73	34586.10
496.91	34361.40
497.09	34714.83
497.26	34583.76
497.44	34782.70
497.62	34792.06
497.79	35721.26
497.97	34897.39
498.14	35990.42
498.32	35924.88
498.50	35852.33
498.67	36788.54
498.85	35889.77
499.03	36498.31
499.20	36102.76
499.38	36488.95
499.56	36842.37
499.73	36760.45
499.91	36851.73
500.08	37277.71
500.26	37230.90
500.44	37134.94
500.61	37904.98
500.79	37549.21
500.97	37998.60
501.14	38302.87
501.32	38483.09
501.49	38134.35
501.67	38225.63
501.84	38763.95
502.02	38464.36
502.20	38415.21
502.37	38951.20
502.55	38773.31
502.72	39374.83
502.90	39115.03
503.07	39356.11
503.25	39360.79
503.43	39044.82
503.60	39477.82
503.78	39908.47
503.95	40023.16
504.13	39929.54
504.30	40301.68
504.48	40297.00
504.65	39943.58
504.83	40718.30
505.01	41099.81
505.18	40694.89
505.36	41345.56
505.53	41134.92
505.71	41228.54
505.88	41544.51
506.06	40823.62
506.23	41500.04
506.41	41682.60
506.58	41813.67
506.76	42087.51
506.93	42340.29
507.11	41993.89
507.28	42136.66
507.46	42368.38
507.63	42398.80
507.81	43075.22
507.98	41886.23
508.16	42625.84
508.33	43112.67
508.50	43002.66
508.68	43456.73
508.85	43878.02
509.03	43285.87
509.20	43723.55
509.38	43915.47
509.55	44374.22
509.73	44383.58
509.90	44177.61
510.08	44463.16
510.25	44449.11
510.42	44472.52
510.60	44636.36
510.77	44378.90
510.95	44832.96
511.12	45120.85
511.30	44891.48
511.47	45432.14
511.64	45312.77
511.82	45949.40
511.99	45195.74
512.17	45764.49
512.34	45581.93
512.51	46417.50
512.69	45659.17
512.86	45844.07
513.04	46115.58
513.21	46099.19
513.38	46625.81
513.56	46703.05
513.73	46911.36
513.90	46897.31
514.08	46476.02
514.25	46738.16
514.43	47342.02
514.60	46848.16
514.77	46684.33
514.95	47365.42
515.12	47255.42
515.29	46962.85
515.47	47835.87
515.64	47672.03
515.81	47255.42
515.99	48044.18
516.16	48451.43
516.33	48025.45
516.51	48362.49
516.68	48081.63
516.85	48538.03
517.03	48540.37
517.20	48900.81
517.37	48697.19
517.54	48336.74
517.72	48889.11
517.89	48956.99
518.06	49420.41
518.24	49071.67
518.41	48844.64
518.58	49078.69
518.75	48556.75
518.93	49085.72
519.10	49041.24
519.27	49485.95
519.45	49244.87
519.62	49305.73
519.79	49855.75
519.96	49617.02
520.14	50094.49
520.31	49914.26
520.48	50513.44
520.65	50082.78
520.83	50141.30
521.00	50347.26
521.17	49921.29
521.34	50253.64
521.52	50494.72
521.69	50775.58
521.86	50831.75
522.03	51171.13
522.20	50815.37
522.38	51302.20
522.55	51011.98
522.72	50997.93
522.89	50983.89
523.07	51452.00
523.24	51393.48
523.41	51278.80
523.58	50958.14
523.75	51751.59
523.92	51325.61
524.10	51503.49
524.27	51503.49
524.44	51646.26
524.61	52114.37
524.78	52245.44
524.96	51861.59
525.13	51894.36
525.30	51969.26
525.47	52126.07
525.64	52142.45
525.81	52444.38
525.98	52697.16
526.16	52280.55
526.33	52568.43
526.50	52802.49
526.67	52271.18
526.84	52446.72
527.01	52528.64
527.18	52596.52
527.36	52889.09
527.53	52715.89
527.70	52858.66
527.87	52956.96
528.04	53111.44
528.21	53024.84
528.38	53263.57
528.55	52996.75
528.72	53223.78
528.89	53146.54
529.07	53303.36
529.24	53118.46
529.41	53389.96
529.58	53481.24
529.75	53404.00
529.92	53551.46
530.09	53462.52
530.26	53546.78
530.43	53385.28
530.60	53528.05
530.77	53738.70
530.94	53598.27
531.11	53829.98
531.28	53907.22
531.46	54040.63
531.63	53928.28
531.80	54155.32
531.97	54167.02
532.14	54010.20
532.31	54092.12
532.48	54391.71
532.65	54454.90
532.82	54246.60
532.99	54351.92
533.16	54518.10
533.33	54429.16
533.50	54604.70
533.67	54754.49
533.84	54471.29
534.01	54749.81
534.18	54787.26
534.35	54845.77
534.52	55051.74
534.69	54899.61
534.86	54951.10
535.03	54934.71
535.20	55370.05
535.37	55068.12
535.54	55234.30
535.71	55178.13
535.88	55267.07
536.05	55473.04
536.22	55269.41
536.38	55384.10
536.55	55489.42
536.72	55295.16
536.89	55136.00
537.06	55330.26
537.23	55545.59
537.40	55234.30
537.57	55660.28
537.74	55718.79
537.91	55758.58
538.08	55899.01
538.25	55295.16
538.42	55756.24
538.59	55931.78
538.75	55629.85
538.92	55955.19
539.09	55896.67
539.26	55959.87
539.43	55945.83
539.60	56011.36
539.77	56004.34
539.94	56371.80
540.11	56245.41
540.28	56207.97
540.44	56329.67
540.61	56151.79
540.78	56217.33
540.95	56245.41
541.12	56273.50
541.29	56285.20
541.46	56491.17
541.62	56381.16
541.79	56509.89
541.96	56151.79
542.13	56179.88
542.30	56404.57
542.47	56624.58
542.63	56706.50
542.80	56720.54
542.97	56961.62
543.14	56879.70
543.31	56926.51
543.48	56921.83
543.64	57411.00
543.81	57195.67
543.98	57167.58
544.15	56942.89
544.32	57233.12
544.48	57275.25
544.65	57303.34
544.82	57041.20
544.99	57055.24
545.16	57303.34
545.32	57153.54
545.49	57528.03
545.66	57614.63
545.83	57558.45
546.00	57726.97
546.16	57366.53
546.33	57513.98
546.50	57446.11
546.67	57408.66
546.83	57193.33
547.00	57586.54
547.17	57628.67
547.34	57329.08
547.50	57822.93
547.67	57874.43
547.84	57923.58
548.00	58078.05
548.17	57865.06
548.34	57949.32
548.51	58113.16
548.67	57909.53
548.84	57982.09
549.01	57900.17
549.18	58007.84
549.34	58108.48
549.51	58148.27
549.68	58258.27
549.84	58127.20
550.01	58260.62
550.18	58061.67
550.34	58206.78
550.51	58316.79
550.68	58141.25
550.84	57972.73
551.01	58375.30
551.18	58487.65
551.34	58176.36
551.51	58225.51
551.68	58387.00
551.84	58127.20
552.01	58075.71
552.18	58466.58
552.34	58431.47
552.51	58419.77
552.68	58258.27
552.84	58394.03
553.01	58728.72
553.18	58515.73
553.34	58628.08
553.51	58578.93
553.67	58681.91
553.84	58794.26
554.01	58922.99
554.17	58597.65
554.34	58803.62
554.51	58616.38
554.67	58738.08
554.84	58859.79
555.00	58780.21
555.17	58801.28
555.33	58805.96
555.50	58843.41
555.67	58805.96
555.83	58681.91
556.00	58864.47
556.16	59271.73
556.33	59135.98
556.50	59114.91
556.66	59234.28
556.83	58908.94
556.99	59281.09
557.16	59334.92
557.32	59264.70
557.49	59374.71
557.65	58927.67
557.82	59281.09
557.98	59241.30
558.15	59264.70
558.32	59264.70
558.48	59271.73
558.65	59344.28
558.81	59250.66
558.98	59337.26
559.14	59173.42
559.31	59503.44
559.47	59426.20
559.64	59440.24
559.80	59494.08
559.97	59601.74
560.13	59522.16
560.30	59470.67
560.46	59798.35
560.63	59561.95
560.79	59590.04
560.96	59578.34
561.12	59437.90
561.29	59739.83
561.45	59678.98
561.61	59484.72
561.78	59884.95
561.94	59573.66
562.11	59583.02
562.27	59690.68
562.44	59669.62
562.60	59999.63
562.77	59805.37
562.93	59599.40
563.10	59817.07
563.26	59714.09
563.42	59920.05
563.59	59943.46
563.75	59765.58
563.92	59910.69
564.08	59934.10
564.24	59760.90
564.41	60023.04
564.57	59913.03
564.74	59831.11
564.90	59814.73
565.07	59826.43
565.23	59863.88
565.39	59781.96
565.56	59798.35
565.72	59922.40
565.88	59887.29
566.05	59938.78
566.21	60046.44
566.38	60123.68
566.54	60055.81
566.70	60233.69
566.87	60236.03
567.03	59828.77
567.19	60093.25
567.36	60067.51
567.52	60247.73
567.68	60378.80
567.85	60156.45
568.01	60313.26
568.17	60093.25
568.34	60086.23
568.50	60196.24
568.66	60083.89
568.83	60231.35
568.99	60198.58
569.15	60163.47
569.32	60264.11
569.48	60402.21
569.64	60444.33
569.81	60200.92
569.97	59917.71
570.13	60427.95
570.30	60418.59
570.46	60236.03
570.62	60095.60
570.78	60207.94
570.95	60107.30
571.11	60413.91
571.27	60196.24
571.43	60245.39
571.60	60418.59
571.76	60341.35
571.92	60423.27
572.09	60341.35
572.25	60123.68
572.41	60420.93
572.57	60388.16
572.74	60472.42
572.90	60331.99
573.06	60472.42
573.22	60434.97
573.38	60444.33
573.55	60418.59
573.71	60671.37
573.87	60484.12
574.03	60355.39
574.20	60570.72
574.36	60395.18
574.52	60566.04
574.68	60582.43
574.84	60594.13
575.01	60463.06
575.17	60736.90
575.33	60537.96
575.49	60465.40
575.65	60453.70
575.82	60563.70
575.98	60573.06
576.14	60893.72
576.30	60687.75
576.46	60638.60
576.62	60701.79
576.79	60498.17
576.95	60512.21
577.11	60748.60
577.27	60767.33
577.43	60654.98
577.59	60573.06
577.75	60683.07
577.92	60643.28
578.08	60610.51
578.24	60678.39
578.40	60940.53
578.56	60692.43
578.72	60727.54
578.88	60701.79
579.04	60910.10
579.21	60594.13
579.37	60762.65
579.53	60748.60
579.69	60526.25
579.85	60657.32
580.01	60645.62
580.17	60636.26
580.33	60928.83
580.49	60608.17
580.65	60832.86
580.82	60622.22
580.98	60530.93
581.14	60594.13
581.30	60870.31
581.46	60683.07
581.62	60722.86
581.78	60678.39
581.94	60542.64
582.10	60807.12
582.26	60727.54
582.42	60811.80
582.58	60767.33
582.74	60736.90
582.90	60900.74
583.06	60727.54
583.22	60647.96
583.38	60753.29
583.54	60867.97
583.70	60662.00
583.86	60846.91
584.02	60743.92
584.18	60797.76
584.34	60832.86
584.50	60828.18
584.66	60793.07
584.82	60561.36
584.98	61022.45
585.14	60750.94
585.30	60814.14
585.46	60919.46
585.62	61008.40
585.78	60947.55
585.94	60470.08
586.10	60989.68
586.26	60842.23
586.42	61123.09
586.58	61022.45
586.74	60853.93
586.90	60858.61
587.06	60797.76
587.22	60954.57
587.38	60891.38
587.54	60919.46
587.70	61057.56
587.86	61017.77
588.02	60931.17
588.18	61181.60
588.34	60830.52
