SpectraSuite Data File
++++++++++++++++++++++++++++++++++++
Date: Fri Oct 25 11:34:48 EDT 2013
User: price-jones
Dark Spectrum Present: No
Reference Spectrum Present: No
Number of Sampled Component Spectra: 1
Spectrometers: USB2+H05261
Integration Time (usec): 100000 (USB2+H05261)
Spectra Averaged: 1 (USB2+H05261)
Boxcar Smoothing: 0 (USB2+H05261)
Correct for Electrical Dark: No (USB2+H05261)
Strobe/Lamp Enabled: No (USB2+H05261)
Correct for Detector Non-linearity: No (USB2+H05261)
Correct for Stray Light: No (USB2+H05261)
Number of Pixels in Processed Spectrum: 2048
>>>>>Begin Processed Spectral Data<<<<<
365.73	280.86
365.92	280.86
366.12	280.86
366.32	184.90
366.52	215.33
366.72	170.86
366.91	102.98
367.11	177.88
367.31	205.97
367.51	210.65
367.70	191.92
367.90	156.82
368.10	217.67
368.30	128.73
368.49	187.24
368.69	222.35
368.89	210.65
369.09	189.58
369.28	224.69
369.48	255.12
369.68	255.12
369.87	337.04
370.07	250.44
370.27	278.52
370.47	320.65
370.66	458.74
370.86	479.81
371.06	512.58
371.25	582.79
371.45	535.98
371.65	589.82
371.84	491.51
372.04	521.94
372.24	603.86
372.44	571.09
372.63	629.60
372.83	575.77
373.03	545.34
373.22	622.58
373.42	653.01
373.62	599.18
373.81	624.92
374.01	650.67
374.21	641.31
374.40	627.26
374.60	650.67
374.79	671.73
374.99	615.56
375.19	664.71
375.38	662.37
375.58	725.57
375.78	678.76
375.97	636.63
376.17	660.03
376.37	645.99
376.56	631.94
376.76	681.10
376.95	603.86
377.15	662.37
377.35	727.91
377.54	720.88
377.74	620.24
377.93	695.14
378.13	711.52
378.33	725.57
378.52	706.84
378.72	674.07
378.91	737.27
379.11	690.46
379.31	613.22
379.50	774.72
379.70	781.74
379.89	772.38
380.09	676.41
380.28	713.86
380.48	732.59
380.68	690.46
380.87	676.41
381.07	741.95
381.26	734.93
381.46	767.70
381.65	662.37
381.85	655.35
382.04	744.29
382.24	704.50
382.43	723.23
382.63	795.78
382.83	737.27
383.02	851.96
383.22	922.17
383.41	767.70
383.61	772.38
383.80	863.66
384.00	821.53
384.19	779.40
384.39	887.06
384.58	791.10
384.78	772.38
384.97	816.85
385.17	807.48
385.36	793.44
385.56	781.74
385.75	805.14
385.95	856.64
386.14	877.70
386.34	760.67
386.53	828.55
386.72	784.08
386.92	910.47
387.11	905.79
387.31	858.98
387.50	826.21
387.70	784.08
387.89	851.96
388.09	760.67
388.28	800.46
388.48	891.74
388.67	968.98
388.86	882.38
389.06	926.85
389.25	889.40
389.45	856.64
389.64	882.38
389.84	999.41
390.03	968.98
390.22	964.30
390.42	912.81
390.61	926.85
390.81	943.24
391.00	926.85
391.19	983.02
391.39	1022.81
391.58	990.05
391.78	968.98
391.97	1039.20
392.16	1020.47
392.36	997.07
392.55	1004.09
392.75	1034.52
392.94	994.73
393.13	983.02
393.33	1039.20
393.52	1078.99
393.71	1071.97
393.91	1060.26
394.10	985.37
394.29	1071.97
394.49	1055.58
394.68	1013.45
394.88	1090.69
395.07	1114.10
395.26	1083.67
395.46	1210.06
395.65	1287.29
395.84	1118.78
396.04	1074.31
396.23	1196.01
396.42	1074.31
396.62	1196.01
396.81	1212.40
397.00	1109.41
397.19	1167.93
397.39	1128.14
397.58	1142.18
397.77	1226.44
397.97	1254.53
398.16	1289.64
398.35	1219.42
398.55	1193.67
398.74	1207.72
398.93	1306.02
399.12	1228.78
399.32	1188.99
399.51	1217.08
399.70	1256.87
399.90	1296.66
400.09	1383.26
400.28	1378.58
400.47	1324.74
400.67	1291.98
400.86	1233.46
401.05	1334.11
401.24	1392.62
401.44	1357.51
401.63	1362.19
401.82	1362.19
402.01	1383.26
402.21	1418.36
402.40	1427.73
402.59	1392.62
402.78	1439.43
402.97	1439.43
403.17	1486.24
403.36	1465.18
403.55	1411.34
403.74	1509.65
403.93	1511.99
404.13	1537.73
404.32	1519.01
404.51	1561.14
404.70	1549.43
404.89	1577.52
405.09	1633.69
405.28	1542.41
405.47	1533.05
405.66	1633.69
405.85	1502.62
406.05	1671.14
406.24	1621.99
406.43	1614.97
406.62	1708.59
406.81	1717.95
407.00	1619.65
407.20	1661.78
407.39	1727.32
407.58	1724.97
407.77	1734.34
407.96	1746.04
408.15	1774.13
408.34	1839.66
408.54	1930.94
408.73	1823.28
408.92	1757.74
409.11	1928.60
409.30	1891.15
409.49	1952.01
409.68	1865.41
409.87	1900.52
410.07	1865.41
410.26	1902.86
410.45	2052.65
410.64	1989.46
410.83	2010.52
411.02	2099.46
411.21	2050.31
411.40	2094.78
411.59	2186.06
411.78	2022.22
411.98	2111.16
412.17	2118.18
412.36	2064.35
412.55	2195.42
412.74	2228.19
412.93	2289.04
413.12	2258.62
413.31	2300.75
413.50	2284.36
413.69	2293.72
413.88	2382.67
414.07	2399.05
414.26	2459.90
414.45	2403.73
414.64	2368.62
414.83	2448.20
415.02	2539.48
415.22	2527.78
415.41	2513.74
415.60	2544.16
415.79	2492.67
415.98	2457.56
416.17	2544.16
416.36	2658.85
416.55	2623.74
416.74	2684.59
416.93	2635.44
417.12	2595.65
417.31	2663.53
417.50	2724.38
417.69	2768.85
417.88	2724.38
418.07	2689.28
418.26	2782.90
418.45	2815.66
418.64	2855.45
418.83	2799.28
419.02	2752.47
419.21	3021.63
419.39	2965.46
419.58	3023.97
419.77	2869.50
419.96	2984.18
420.15	3000.57
420.34	3042.70
420.53	3066.10
420.72	2970.14
420.91	3056.74
421.10	3131.64
421.29	3183.13
421.48	3091.85
421.67	3075.46
421.86	3073.12
422.05	3150.36
422.24	3014.61
422.43	3178.45
422.61	3279.09
422.80	3325.90
422.99	3148.02
423.18	3300.16
423.37	3194.83
423.56	3213.56
423.75	3089.51
423.94	3148.02
424.13	3098.87
424.32	3126.96
424.50	3344.63
424.69	3375.05
424.88	3304.84
425.07	3152.70
425.26	3272.07
425.45	3199.51
425.64	3229.94
425.83	3346.97
426.01	3386.76
426.20	3433.57
426.39	3370.37
426.58	3321.22
426.77	3265.05
426.96	3290.79
427.15	3318.88
427.33	3412.50
427.52	3412.50
427.71	3463.99
427.90	3475.70
428.09	3520.17
428.28	3454.63
428.46	3534.21
428.65	3564.64
428.84	3576.34
429.03	3588.04
429.22	3492.08
429.40	3604.42
429.59	3592.72
429.78	3456.97
429.97	3412.50
430.16	3588.04
430.34	3569.32
430.53	3599.74
430.72	3791.67
430.91	3667.62
431.10	3604.42
431.28	3669.96
431.47	3761.24
431.66	3702.73
431.85	3658.26
432.03	3831.46
432.22	3894.65
432.41	3822.09
432.60	3850.18
432.79	3950.82
432.97	3946.14
433.16	3992.95
433.35	3927.42
433.54	3889.97
433.72	3878.27
433.91	3985.93
434.10	4030.40
434.28	3899.33
434.47	3875.93
434.66	4051.47
434.85	4077.21
435.03	4074.87
435.22	4119.34
435.41	4262.12
435.59	4236.37
435.78	4189.56
435.97	4273.82
436.16	4269.14
436.34	4248.07
436.53	4152.11
436.72	4301.90
436.90	4177.86
437.09	4212.96
437.28	4201.26
437.46	4163.81
437.65	4236.37
437.84	4390.84
438.02	4435.32
438.21	4332.33
438.40	4348.72
438.58	4461.06
438.77	4601.49
438.96	4545.32
439.14	4711.50
439.33	4585.11
439.52	4641.28
439.70	4802.78
439.89	4854.27
440.08	4753.63
440.26	4795.76
440.45	4826.18
440.63	4798.10
440.82	4851.93
441.01	4809.80
441.19	4987.68
441.38	4987.68
441.57	5078.96
441.75	5071.94
441.94	5123.43
442.12	5095.35
442.31	5128.11
442.50	5245.14
442.68	5116.41
442.87	5083.64
443.05	5074.28
443.24	5160.88
443.43	5217.05
443.61	5308.34
443.80	5355.15
443.98	5167.90
444.17	4954.91
444.35	5238.12
444.54	5385.57
444.73	5280.25
444.91	5268.55
445.10	5350.46
445.28	5317.70
445.47	5301.31
445.65	5277.91
445.84	5455.79
446.02	5514.30
446.21	5509.62
446.39	5425.36
446.58	5416.00
446.77	5430.04
446.95	5373.87
447.14	5385.57
447.32	5476.85
447.51	5446.43
447.69	5413.66
447.88	5533.03
448.06	5603.24
448.25	5476.85
448.43	5455.79
448.62	5516.64
448.80	5514.30
448.99	5401.96
449.17	5621.97
449.36	5462.81
449.54	5570.48
449.73	5738.99
449.91	5802.19
450.10	5795.17
450.28	5788.14
450.46	5830.27
450.65	5738.99
450.83	5769.42
451.02	5771.76
451.20	5788.14
451.39	5685.16
451.57	5877.09
451.76	5944.96
451.94	5795.17
452.13	5935.60
452.31	5942.62
452.49	5902.83
452.68	5937.94
452.86	6008.16
453.05	5959.00
453.23	6129.86
453.42	5991.77
453.60	5870.06
453.78	6001.13
453.97	6010.50
454.15	6069.01
454.34	6179.01
454.52	6160.29
454.70	5982.41
454.89	6169.65
455.07	6237.53
455.26	6150.93
455.44	6284.34
455.62	6317.11
455.81	6300.72
455.99	6354.55
456.17	6235.19
456.36	6249.23
456.54	6310.08
456.73	6384.98
456.91	6691.59
457.09	6586.27
457.28	6693.93
457.46	6752.45
457.64	6441.15
457.83	6562.86
458.01	6642.44
458.19	6738.40
458.38	6815.64
458.56	6906.92
458.74	6803.94
458.93	6942.03
459.11	6869.47
459.29	6698.61
459.48	6841.39
459.66	6813.30
459.84	6932.67
460.03	7197.15
460.21	6956.07
460.39	7035.65
460.57	7009.90
460.76	6960.75
460.94	7066.08
461.12	7049.69
461.31	7136.29
461.49	6991.18
461.67	7108.21
461.85	7204.17
462.04	7199.49
462.22	7346.94
462.40	7281.41
462.59	7349.28
462.77	7246.30
462.95	7124.59
463.13	7201.83
463.32	7183.10
463.50	7370.35
463.68	7536.52
463.86	7510.78
464.05	7461.63
464.23	7255.66
464.41	7480.35
464.59	7250.98
464.78	7545.89
464.96	7513.12
465.14	7489.71
465.32	7688.66
465.50	7576.31
465.69	7817.39
465.87	7578.65
466.05	7606.74
466.23	7721.43
466.41	7667.60
466.60	7885.26
466.78	7578.65
466.96	7695.68
467.14	7850.16
467.32	7829.09
467.51	7901.65
467.69	7861.86
467.87	7784.62
468.05	8016.33
468.23	7695.68
468.41	7943.78
468.60	8037.40
468.78	8159.11
468.96	8004.63
469.14	8205.92
469.32	8121.66
469.50	8011.65
469.69	8058.46
469.87	8198.90
470.05	8269.11
470.23	8290.18
470.41	8290.18
470.59	8304.22
470.77	8393.16
470.95	8273.79
471.14	8379.12
471.32	8145.06
471.50	8662.32
471.68	8454.02
471.86	8578.06
472.04	8606.15
472.22	8891.70
472.40	8489.12
472.58	8681.05
472.77	8828.50
472.95	8966.59
473.13	9186.60
473.31	8800.41
473.49	9048.51
473.67	8992.34
473.85	9029.79
474.03	9191.28
474.21	9240.44
474.39	9177.24
474.57	9312.99
474.75	9287.25
474.93	9406.61
475.12	9364.48
475.30	9528.32
475.48	9399.59
475.66	9533.00
475.84	9533.00
476.02	9818.55
476.20	9678.12
476.38	9675.77
476.56	9944.94
476.74	10017.49
476.92	9750.67
477.10	9909.83
477.28	10127.50
477.46	9970.68
477.64	10092.39
477.82	10300.70
478.00	10406.02
478.18	10415.38
478.36	10401.34
478.54	10817.96
478.72	10675.18
478.90	10642.42
479.08	10923.28
479.26	10834.34
479.44	10874.13
479.62	11115.20
479.80	11005.20
479.98	11162.01
480.16	11583.31
480.34	11309.47
480.52	11845.45
480.70	11632.46
480.88	11580.97
481.06	11545.86
481.24	11611.40
481.41	12023.33
481.59	12006.95
481.77	11988.22
481.95	12105.25
482.13	12074.82
482.31	12116.95
482.49	12437.61
482.67	12671.66
482.85	12886.99
483.03	12652.94
483.21	13111.68
483.39	12961.89
483.57	12879.97
483.74	13015.72
483.92	13238.07
484.10	13359.78
484.28	13469.78
484.46	13701.50
484.64	13867.67
484.82	13619.58
485.00	13614.90
485.18	13902.78
485.35	14183.65
485.53	14101.73
485.71	14279.61
485.89	14614.30
486.07	14485.58
486.25	14417.70
486.43	14349.82
486.61	14871.76
486.78	14871.76
486.96	14965.39
487.14	15222.84
487.32	15302.42
487.50	15363.28
487.68	15463.92
487.85	15672.23
488.03	15796.28
488.21	15857.13
488.39	16065.44
488.57	16056.08
488.75	16212.89
488.92	16210.55
489.10	16599.08
489.28	16641.21
489.46	16468.01
489.64	16498.44
489.81	16833.13
489.99	17205.28
490.17	17235.70
490.35	17146.76
490.53	17422.95
490.70	17727.22
490.88	17434.65
491.06	17987.02
491.24	17724.88
491.41	17893.40
491.59	18094.68
491.77	18190.64
491.95	18153.20
492.13	18431.72
492.30	18499.59
492.48	18600.24
492.66	18661.09
492.84	18735.99
493.01	19005.15
493.19	18855.36
493.37	19293.04
493.54	19066.00
493.72	19201.76
493.90	19344.53
494.08	19014.51
494.25	19829.02
494.43	19704.97
494.61	19662.84
494.79	19932.00
494.96	20004.56
495.14	20458.62
495.32	20149.67
495.49	20577.99
495.67	20325.21
495.85	20411.81
496.02	20807.36
496.20	20987.58
496.38	20842.47
496.55	21078.86
496.73	21436.97
496.91	20980.56
497.09	21228.66
497.26	21443.99
497.44	21745.92
497.62	21654.64
497.79	22043.17
497.97	21736.56
498.14	22015.08
498.32	22307.65
498.50	22019.76
498.67	22548.72
498.85	22326.37
499.03	22607.23
499.20	22274.88
499.38	22656.39
499.56	22698.52
499.73	22948.95
499.91	22867.03
500.08	23276.63
500.26	23140.88
500.44	23016.83
500.61	23360.89
500.79	23374.93
500.97	23627.71
501.14	23796.23
501.32	23695.58
501.49	23976.45
501.67	23742.39
501.84	24231.57
502.02	23936.66
502.20	24219.86
502.37	23985.81
502.55	24210.50
502.72	24203.48
502.90	24269.01
503.07	24463.28
503.25	24294.76
503.43	24315.83
503.60	24655.20
503.78	25043.73
503.95	24732.44
504.13	24973.52
504.30	25195.87
504.48	24697.33
504.65	24922.02
504.83	25036.71
505.01	25727.17
505.18	25167.78
505.36	25766.96
505.53	25230.98
505.71	25860.58
505.88	25773.98
506.06	25607.80
506.23	25893.35
506.41	25544.61
506.58	25879.30
506.76	26272.51
506.93	26045.48
507.11	26185.91
507.28	26324.01
507.46	26368.48
507.63	26473.80
507.81	26405.92
507.98	26639.98
508.16	26892.76
508.33	26834.24
508.50	27136.17
508.68	27180.64
508.85	27157.24
509.03	26670.40
509.20	26974.67
509.38	27182.98
509.55	27384.27
509.73	27494.27
509.90	27630.02
510.08	27522.36
510.25	27634.71
510.42	27618.32
510.60	27704.92
510.77	27515.34
510.95	28133.24
511.12	28109.83
511.30	28393.04
511.47	28182.39
511.64	28414.10
511.82	29006.26
511.99	28283.03
512.17	29032.00
512.34	28540.49
512.51	29142.01
512.69	28790.93
512.86	28694.97
513.04	28940.72
513.21	29102.22
513.38	29294.14
513.56	29104.56
513.73	29221.59
513.90	29205.20
514.08	29249.67
514.25	29539.90
514.43	29383.09
514.60	29907.37
514.77	29502.45
514.95	29502.45
515.12	29703.74
515.29	29755.23
515.47	29860.55
515.64	30127.38
515.81	29755.23
515.99	30169.51
516.16	30122.69
516.33	30209.29
516.51	30471.43
516.68	30218.66
516.85	30665.70
517.03	30984.01
517.20	30532.29
517.37	30452.71
517.54	30574.42
517.72	30862.30
517.89	31070.61
518.06	30998.06
518.24	31105.72
518.41	31065.93
518.58	31309.35
518.75	30979.33
518.93	31367.86
519.10	31363.18
519.27	31314.03
519.45	31608.93
519.62	31393.61
519.79	31524.68
519.96	31662.77
520.14	31641.70
520.31	31885.12
520.48	31842.99
520.65	31880.44
520.83	32187.05
521.00	32418.76
521.17	32116.83
521.34	32177.68
521.52	31934.27
521.69	32444.51
521.86	32409.40
522.03	32889.21
522.20	32755.80
522.38	32893.89
522.55	32655.15
522.72	32500.68
522.89	32769.84
523.07	33153.69
523.24	32772.18
523.41	32996.87
523.58	32561.53
523.75	33326.89
523.92	33188.80
524.10	33689.67
524.27	33511.79
524.44	33544.56
524.61	33818.40
524.78	33479.02
524.96	33818.40
525.13	33504.77
525.30	34150.76
525.47	34150.76
525.64	33675.63
525.81	34052.45
525.98	34340.34
526.16	34190.55
526.33	33839.47
526.50	34387.15
526.67	34036.07
526.84	34703.12
527.01	34298.21
527.18	34485.45
527.36	34501.84
527.53	34560.35
527.70	35049.52
527.87	35173.57
528.04	34946.54
528.21	34803.77
528.38	34712.49
528.55	34965.26
528.72	34780.36
528.89	35290.60
529.07	34829.51
529.24	34649.29
529.41	35299.96
529.58	35192.30
529.75	35007.39
529.92	35234.42
530.09	35079.95
530.26	35283.58
530.43	35314.00
530.60	35068.25
530.77	35225.06
530.94	35353.79
531.11	35449.75
531.28	35775.09
531.46	35714.23
531.63	35552.74
531.80	35777.43
531.97	35784.45
532.14	35828.92
532.31	35955.31
532.48	36226.81
532.65	36491.29
532.82	35985.74
532.99	35957.65
533.16	36172.98
533.33	36013.82
533.50	36486.61
533.67	36430.44
533.84	36252.56
534.01	36636.41
534.18	36327.45
534.35	37158.34
534.52	36549.81
534.69	37181.75
534.86	37113.87
535.03	36587.25
535.20	37106.85
535.37	36748.75
535.54	36940.68
535.71	36973.44
535.88	37017.91
536.05	36907.91
536.22	37282.39
536.38	36943.02
536.55	37266.01
536.72	37120.90
536.89	37420.48
537.06	37668.58
537.23	37734.12
537.40	37067.06
537.57	37338.57
537.74	37418.14
537.91	37853.48
538.08	37823.06
538.25	37439.21
538.42	37511.77
538.59	38124.99
538.75	37832.42
538.92	38007.96
539.09	37916.68
539.26	38253.72
539.43	38127.33
539.60	37876.89
539.77	37881.57
539.94	38246.69
540.11	38375.42
540.28	38675.01
540.44	38323.93
540.61	37954.13
540.78	38363.72
540.95	38380.10
541.12	38162.43
541.29	38455.00
541.46	38492.45
541.62	38724.16
541.79	38319.25
541.96	38316.91
542.13	38185.84
542.30	38576.71
542.47	38909.07
542.63	39122.05
542.80	39203.97
542.97	39143.12
543.14	39480.16
543.31	39566.76
543.48	39416.96
543.64	39578.46
543.81	39615.91
543.98	39599.52
544.15	39735.27
544.32	39754.00
544.48	39482.50
544.65	39459.09
544.82	39641.65
544.99	39445.05
545.16	39847.62
545.32	39342.06
545.49	40280.62
545.66	40041.88
545.83	40210.40
546.00	40297.00
546.16	39859.32
546.33	40123.80
546.50	39683.78
546.67	40196.36
546.83	39529.31
547.00	39896.77
547.17	40095.72
547.34	40196.36
547.50	40266.58
547.67	40500.63
547.84	40123.80
548.00	40491.27
548.17	41053.00
548.34	40699.58
548.51	41146.62
548.67	40652.76
548.84	40596.59
549.01	40741.71
549.18	40601.27
549.34	41111.51
549.51	40781.49
549.68	40830.65
549.84	40491.27
550.01	41064.70
550.18	40636.38
550.34	40882.14
550.51	40844.69
550.68	41244.92
550.84	40566.16
551.01	41277.69
551.18	41064.70
551.34	41226.20
551.51	40954.69
551.68	40996.82
551.84	41146.62
552.01	40734.68
552.18	41471.95
552.34	41118.53
552.51	41422.80
552.68	41345.56
552.84	41076.40
553.01	41799.63
553.18	41715.37
553.34	41553.87
553.51	41469.61
553.67	42071.13
553.84	41911.97
554.01	42068.79
554.17	41717.71
554.34	42082.83
554.51	41633.45
554.67	41825.37
554.84	41904.95
555.00	41956.44
555.17	41202.79
555.33	41911.97
555.50	41769.20
555.67	41806.65
555.83	42202.20
556.00	41916.65
556.16	42550.94
556.33	42340.29
556.50	41954.10
556.66	42036.02
556.83	42087.51
556.99	42319.23
557.16	42473.70
557.32	42515.83
557.49	42653.92
557.65	41930.70
557.82	42204.54
557.98	42501.79
558.15	42396.46
558.32	42459.66
558.48	42319.23
558.65	42906.70
558.81	42457.32
558.98	42312.20
559.14	42632.86
559.31	42857.55
559.47	43477.79
559.64	42958.19
559.80	42466.68
559.97	42682.01
560.13	42735.84
560.30	42515.83
560.46	42777.97
560.63	42986.28
560.79	43117.35
560.96	43056.50
561.12	43260.12
561.29	42944.15
561.45	43246.08
561.61	43007.34
561.78	43075.22
561.94	43152.46
562.11	42890.32
562.27	43054.15
562.44	43171.18
562.60	43423.96
562.77	43377.15
562.93	42887.98
563.10	43339.70
563.26	42962.87
563.42	43601.84
563.59	43423.96
563.75	42745.20
563.92	43203.95
564.08	43269.48
564.24	43566.73
564.41	43330.34
564.57	43526.94
564.74	43777.38
564.90	42911.38
565.07	43299.91
565.23	42777.97
565.39	43379.49
565.56	43618.22
565.72	43096.28
565.88	43234.38
566.05	43763.34
566.21	43496.52
566.38	43702.48
566.54	43496.52
566.70	43894.41
566.87	43215.65
567.03	43501.20
567.19	43643.97
567.36	43508.22
567.52	43456.73
567.68	43988.03
567.85	43543.33
568.01	44198.68
568.17	43449.70
568.34	43908.45
568.50	43871.00
568.66	43140.75
568.83	43512.90
568.99	44034.84
569.15	43887.39
569.32	43594.82
569.48	43412.26
569.64	43948.24
569.81	43800.79
569.97	43945.90
570.13	44151.87
570.30	43512.90
570.46	43948.24
570.62	44121.44
570.78	43889.73
570.95	44360.17
571.11	43805.47
571.27	43646.31
571.43	43622.90
571.60	43639.29
571.76	43695.46
571.92	44058.24
572.09	43442.68
572.25	43889.73
572.41	43693.12
572.57	43924.83
572.74	44360.17
572.90	44142.50
573.06	44002.07
573.22	44339.11
573.38	44404.64
573.55	44519.33
573.71	44839.98
573.87	44222.08
574.03	44027.82
574.20	44481.88
574.36	44243.15
574.52	44573.16
574.68	44486.56
574.84	44292.30
575.01	44528.69
575.17	44425.71
575.33	44371.88
575.49	44350.81
575.65	44617.63
575.82	44561.46
575.98	43995.05
576.14	44584.86
576.30	44669.12
576.46	44669.12
576.62	44240.81
576.79	44212.72
576.95	43948.24
577.11	43655.67
577.27	44327.41
577.43	44580.18
577.59	44060.58
577.75	44273.57
577.92	44140.16
578.08	44151.87
578.24	44657.42
578.40	44399.96
578.56	44488.90
578.72	44491.24
578.88	44421.03
579.04	44168.25
579.21	44140.16
579.37	44737.00
579.53	44287.62
579.69	44086.33
579.85	44451.45
580.01	44491.24
580.17	44261.87
580.33	44552.10
580.49	44402.30
580.65	44346.13
580.82	44533.37
580.98	44282.94
581.14	43999.73
581.30	44617.63
581.46	44079.31
581.62	44535.71
581.78	44285.28
581.94	44580.18
582.10	44596.57
582.26	45034.25
582.42	44594.23
582.58	44786.15
582.74	44016.11
582.90	44685.51
583.06	44776.79
583.22	44481.88
583.38	44292.30
583.54	44795.51
583.70	44416.35
583.86	45022.54
584.02	44795.51
584.18	45177.02
584.34	44641.04
584.50	44521.67
584.66	44830.62
584.82	44631.68
584.98	44814.24
585.14	44676.15
585.30	44289.96
585.46	44683.17
585.62	44498.26
585.78	44570.82
585.94	44182.29
586.10	44481.88
586.26	44500.61
586.42	44671.46
586.58	44610.61
586.74	44374.22
586.90	44655.08
587.06	44439.75
587.22	44545.08
587.38	44519.33
587.54	44982.76
587.70	45104.46
587.86	45095.10
588.02	44472.52
588.18	44025.48
588.34	44453.79
588.49	44617.63
588.65	44641.04
588.81	44800.19
588.97	44861.05
589.13	44748.70
589.29	44367.20
589.45	45010.84
589.61	44989.78
589.77	44856.37
589.93	44786.15
590.08	45261.28
590.24	45560.87
