SpectraSuite Data File
++++++++++++++++++++++++++++++++++++
Date: Fri Oct 25 11:26:32 EDT 2013
User: price-jones
Dark Spectrum Present: No
Reference Spectrum Present: No
Number of Sampled Component Spectra: 1
Spectrometers: USB2+H05261
Integration Time (usec): 100000 (USB2+H05261)
Spectra Averaged: 1 (USB2+H05261)
Boxcar Smoothing: 0 (USB2+H05261)
Correct for Electrical Dark: No (USB2+H05261)
Strobe/Lamp Enabled: No (USB2+H05261)
Correct for Detector Non-linearity: No (USB2+H05261)
Correct for Stray Light: No (USB2+H05261)
Number of Pixels in Processed Spectrum: 2048
>>>>>Begin Processed Spectral Data<<<<<
365.73	266.82
365.92	266.82
366.12	266.82
366.32	156.82
366.52	152.13
366.72	107.66
366.91	102.98
367.11	208.31
367.31	119.37
367.51	107.66
367.70	67.88
367.90	152.13
368.10	117.03
368.30	154.48
368.49	88.94
368.69	203.63
368.89	175.54
369.09	198.95
369.28	138.09
369.48	175.54
369.68	159.16
369.87	203.63
370.07	217.67
370.27	273.84
370.47	271.50
370.66	566.41
370.86	617.90
371.06	648.33
371.25	713.86
371.45	667.05
371.65	765.36
371.84	692.80
372.04	725.57
372.24	748.97
372.44	683.44
372.63	671.73
372.83	727.91
373.03	805.14
373.22	727.91
373.42	793.44
373.62	727.91
373.81	807.48
374.01	781.74
374.21	800.46
374.40	786.42
374.60	903.45
374.79	830.89
374.99	830.89
375.19	896.43
375.38	835.57
375.58	866.00
375.78	929.19
375.97	938.55
376.17	954.94
376.37	915.15
376.56	873.02
376.76	863.66
376.95	891.74
377.15	877.70
377.35	856.64
377.54	936.21
377.74	936.21
377.93	917.49
378.13	875.36
378.33	908.13
378.52	933.87
378.72	966.64
378.91	954.94
379.11	896.43
379.31	1006.43
379.50	861.32
379.70	994.73
379.89	987.71
380.09	997.07
380.28	950.26
380.48	910.47
380.68	966.64
380.87	1048.56
381.07	987.71
381.26	1083.67
381.46	1015.79
381.65	994.73
381.85	1086.01
382.04	1025.15
382.24	1160.91
382.43	1069.62
382.63	1095.37
382.83	1069.62
383.02	1032.18
383.22	1163.25
383.41	1102.39
383.61	1123.46
383.80	1093.03
384.00	1095.37
384.19	1172.61
384.39	1137.50
384.58	1193.67
384.78	1132.82
384.97	1090.69
385.17	1149.20
385.36	1165.59
385.56	1200.69
385.75	1132.82
385.95	1156.22
386.14	1158.57
386.34	1289.64
386.53	1167.93
386.72	1252.19
386.92	1268.57
387.11	1282.61
387.31	1296.66
387.50	1210.06
387.70	1219.42
387.89	1401.98
388.09	1299.00
388.28	1334.11
388.48	1268.57
388.67	1273.25
388.86	1355.17
389.06	1289.64
389.25	1385.60
389.45	1315.38
389.64	1373.89
389.84	1348.15
390.03	1390.28
390.22	1420.71
390.42	1399.64
390.61	1350.49
390.81	1401.98
391.00	1376.24
391.19	1420.71
391.39	1481.56
391.58	1462.83
391.78	1460.49
391.97	1542.41
392.16	1504.96
392.36	1469.86
392.55	1523.69
392.75	1537.73
392.94	1626.67
393.13	1540.07
393.33	1638.38
393.52	1549.43
393.71	1600.93
393.91	1650.08
394.10	1481.56
394.29	1600.93
394.49	1561.14
394.68	1675.82
394.88	1675.82
395.07	1708.59
395.26	1661.78
395.46	1643.06
395.65	1729.66
395.84	1762.42
396.04	1799.87
396.23	1769.44
396.42	1708.59
396.62	1687.53
396.81	1804.55
397.00	1743.70
397.19	1771.79
397.39	1839.66
397.58	1909.88
397.77	1823.28
397.97	1907.54
398.16	1935.62
398.35	1907.54
398.55	1933.28
398.74	1905.20
398.93	2071.37
399.12	1930.94
399.32	1886.47
399.51	1905.20
399.70	1975.41
399.90	1956.69
400.09	1970.73
400.28	2038.61
400.47	2005.84
400.67	2094.78
400.86	2176.70
401.05	2057.33
401.24	2083.08
401.44	2230.53
401.63	2136.91
401.82	2062.01
402.01	2134.57
402.21	2214.15
402.40	2204.78
402.59	2235.21
402.78	2225.85
402.97	2239.89
403.17	2195.42
403.36	2375.64
403.55	2256.28
403.74	2438.84
403.93	2373.30
404.13	2253.94
404.32	2392.03
404.51	2349.90
404.70	2417.77
404.89	2366.28
405.09	2492.67
405.28	2401.39
405.47	2504.37
405.66	2537.14
405.85	2448.20
406.05	2485.65
406.24	2635.44
406.43	2499.69
406.62	2621.40
406.81	2607.36
407.00	2647.15
407.20	2647.15
407.39	2663.53
407.58	2626.08
407.77	2726.72
407.96	2794.60
408.15	2738.43
408.34	2698.64
408.54	2745.45
408.73	2801.62
408.92	2789.92
409.11	2951.42
409.30	2878.86
409.49	2963.12
409.68	2981.84
409.87	3096.53
410.07	2979.50
410.26	3028.65
410.45	2935.03
410.64	3054.40
410.83	3098.87
411.02	3007.59
411.21	3110.57
411.40	3098.87
411.59	3309.52
411.78	3283.77
411.98	3131.64
412.17	3337.60
412.36	3272.07
412.55	3304.84
412.74	3314.20
412.93	3424.20
413.12	3405.48
413.31	3541.23
413.50	3344.63
413.69	3478.04
413.88	3637.19
414.07	3566.98
414.26	3597.40
414.45	3688.68
414.64	3686.34
414.83	3726.13
415.02	3882.95
415.22	3726.13
415.41	3824.44
415.60	3836.14
415.79	3946.14
415.98	3955.51
416.17	3960.19
416.36	3925.08
416.55	4007.00
416.74	3943.80
416.93	4032.74
417.12	4208.28
417.31	4224.67
417.50	4229.35
417.69	4358.08
417.88	4479.79
418.07	4252.75
418.26	4234.03
418.45	4344.03
418.64	4344.03
418.83	4521.92
419.02	4416.59
419.21	4587.45
419.39	4533.62
419.58	4386.16
419.77	4451.70
419.96	4779.37
420.15	4624.90
420.34	4685.75
420.53	4713.84
420.72	4725.54
420.91	4739.58
421.10	4793.42
421.29	4809.80
421.48	4660.01
421.67	4732.56
421.86	4660.01
422.05	4903.42
422.24	4978.32
422.43	4727.88
422.61	4889.38
422.80	4980.66
422.99	4861.29
423.18	4903.42
423.37	4968.96
423.56	4990.02
423.75	5032.15
423.94	4856.61
424.13	4454.04
424.32	4751.29
424.50	4957.25
424.69	5067.26
424.88	5142.16
425.07	4784.06
425.26	4952.57
425.45	4833.21
425.64	4873.00
425.83	5085.98
426.01	5046.20
426.20	4999.38
426.39	5163.22
426.58	4992.36
426.77	5132.79
426.96	5078.96
427.15	5167.90
427.33	5195.99
427.52	5153.86
427.71	5315.36
427.90	5394.93
428.09	5315.36
428.28	5315.36
428.46	5282.59
428.65	5252.16
428.84	5490.90
429.03	5434.72
429.22	5446.43
429.40	5401.96
429.59	5490.90
429.78	5238.12
429.97	5280.25
430.16	5336.42
430.34	5678.14
430.53	5722.61
430.72	5865.38
430.91	5806.87
431.10	5570.48
431.28	5626.65
431.47	5750.70
431.66	5977.73
431.85	5755.38
432.03	5994.11
432.22	6012.84
432.41	5886.45
432.60	5902.83
432.79	6125.18
432.97	5977.73
433.16	5851.34
433.35	5989.43
433.54	5968.37
433.72	6171.99
433.91	6118.16
434.10	6279.66
434.28	6122.84
434.47	6066.67
434.66	6286.68
434.85	6282.00
435.03	6354.55
435.22	6279.66
435.41	6628.40
435.59	6251.57
435.78	6415.41
435.97	6600.31
436.16	6141.57
436.34	6403.71
436.53	6462.22
436.72	6703.29
436.90	6452.86
437.09	6715.00
437.28	6551.16
437.46	6548.82
437.65	6569.88
437.84	6689.25
438.02	6883.52
438.21	6820.32
438.40	6923.30
438.58	7096.50
438.77	7059.06
438.96	7068.42
439.14	7173.74
439.33	7080.12
439.52	7159.70
439.70	7131.61
439.89	7269.70
440.08	7339.92
440.26	7452.27
440.45	7274.38
440.63	7559.93
440.82	7653.55
441.01	7475.67
441.19	7557.59
441.38	7737.81
441.57	7672.28
441.75	7791.64
441.94	7852.50
442.12	7866.54
442.31	8084.21
442.50	8119.32
442.68	7838.45
442.87	8119.32
443.05	7995.27
443.24	7985.91
443.43	8269.11
443.61	8269.11
443.80	8442.31
443.98	8236.35
444.17	7936.76
444.35	8100.59
444.54	8365.07
444.73	8344.01
444.91	8418.91
445.10	8416.57
445.28	8444.65
445.47	8161.45
445.65	8381.46
445.84	8479.76
446.02	8503.17
446.21	8369.76
446.39	8463.38
446.58	8603.81
446.77	8442.31
446.95	8311.24
447.14	8437.63
447.32	8744.24
447.51	8685.73
447.69	8341.67
447.88	8461.04
448.06	8631.90
448.25	8655.30
448.43	8671.68
448.62	8631.90
448.80	8498.49
448.99	8589.77
449.17	8755.94
449.36	8643.60
449.54	8896.38
449.73	8990.00
449.91	9055.53
450.10	9018.08
450.28	9097.66
450.46	8957.23
450.65	9081.28
450.83	8978.30
451.02	9006.38
451.20	9458.10
451.39	9273.20
451.57	8940.85
451.76	9057.87
451.94	9158.52
452.13	9469.81
452.31	9355.12
452.49	9303.63
452.68	9214.69
452.86	9467.47
453.05	9432.36
453.23	9617.26
453.42	9415.98
453.60	9305.97
453.78	9579.81
453.97	9511.94
454.15	9474.49
454.34	9490.87
454.52	9837.27
454.70	9537.68
454.89	9647.69
455.07	10111.11
455.26	9867.70
455.44	9987.07
455.62	9933.23
455.81	10031.54
455.99	10078.35
456.17	10284.31
456.36	10249.21
456.54	10324.10
456.73	10167.29
456.91	10352.19
457.09	10459.85
457.28	10434.11
457.46	10424.75
457.64	10583.90
457.83	10829.66
458.01	10347.51
458.19	10698.59
458.38	10476.24
458.56	10768.80
458.74	10707.95
458.93	10616.67
459.11	10721.99
459.29	10937.32
459.48	10918.60
459.66	10885.83
459.84	10853.06
460.03	10839.02
460.21	11009.88
460.39	11225.21
460.57	11087.12
460.76	11316.49
460.94	11229.89
461.12	11140.95
461.31	11124.57
461.49	11318.83
461.67	11239.25
461.85	11655.87
462.04	11208.83
462.22	11501.39
462.40	11538.84
462.59	11576.29
462.77	11304.79
462.95	11590.33
463.13	11829.07
463.32	11445.22
463.50	11927.37
463.68	11829.07
463.86	12074.82
464.05	11901.62
464.23	11587.99
464.41	11866.52
464.59	11651.19
464.78	12116.95
464.96	11913.33
465.14	12086.53
465.32	12140.36
465.50	12056.10
465.69	12334.62
465.87	12280.79
466.05	12138.02
466.23	12107.59
466.41	12215.26
466.60	12456.33
466.78	12156.74
466.96	12229.30
467.14	12177.81
467.32	12559.31
467.51	12580.38
467.69	11981.20
467.87	12318.24
468.05	12573.36
468.23	12346.33
468.41	12489.10
468.60	12554.63
468.78	12961.89
468.96	12666.98
469.14	12608.47
469.32	12798.05
469.50	12849.54
469.69	12924.44
469.87	13085.94
470.05	13217.01
470.23	13364.46
470.41	13181.90
470.59	13322.33
470.77	13322.33
470.95	13212.32
471.14	13706.18
471.32	13516.59
471.50	13596.17
471.68	13809.16
471.86	13598.51
472.04	13851.29
472.22	14352.16
472.40	13715.54
472.58	14111.09
472.77	14005.77
472.95	14434.08
473.13	14558.13
473.31	14001.08
473.49	14263.22
473.67	14303.01
473.85	14408.34
474.03	14380.25
474.21	14892.83
474.39	14764.10
474.57	14750.06
474.75	14778.14
474.93	14972.41
475.12	14932.62
475.30	14848.36
475.48	15154.97
475.66	15410.09
475.84	15035.60
476.02	15384.34
476.20	15243.91
476.38	15712.02
476.56	15967.13
476.74	16133.31
476.92	15704.99
477.10	15793.94
477.28	16093.52
477.46	16119.27
477.64	16325.24
477.82	16496.10
478.00	17123.36
478.18	16809.73
478.36	17085.91
478.54	17209.96
478.72	17235.70
478.90	17451.03
479.08	17626.57
479.26	18010.42
479.44	17891.06
479.62	18019.78
479.80	18310.01
479.98	18263.20
480.16	18899.83
480.34	18176.60
480.52	18745.35
480.70	18349.80
480.88	18345.12
481.06	18806.20
481.24	18845.99
481.41	19190.05
481.59	19491.98
481.77	19470.92
481.95	19847.74
482.13	19747.10
482.31	19693.27
482.49	20189.46
482.67	20182.44
482.85	20486.71
483.03	20816.72
483.21	20760.55
483.39	21010.99
483.57	20744.17
483.74	21102.27
483.92	21465.05
484.10	21516.54
484.28	21884.01
484.46	22181.26
484.64	22321.69
484.82	22134.45
485.00	22417.65
485.18	22771.07
485.35	22951.29
485.53	22888.10
485.71	22955.97
485.89	23290.67
486.07	23438.12
486.25	23194.71
486.43	23639.41
486.61	23978.79
486.78	24299.44
486.96	23988.15
487.14	24540.52
487.32	24648.18
487.50	25088.20
487.68	24903.30
487.85	25273.10
488.03	25572.69
488.21	25790.36
488.39	25991.65
488.57	26204.64
488.75	26183.57
488.92	26696.15
489.10	26810.84
489.28	26927.86
489.46	27379.59
489.64	26745.30
489.81	27569.17
489.99	27697.90
490.17	27623.00
490.35	28133.24
490.53	28694.97
490.70	28250.27
490.88	28659.86
491.06	28751.14
491.24	28580.28
491.41	29163.08
491.59	29282.44
491.77	29186.48
491.95	29598.41
492.13	29961.20
492.30	30213.98
492.48	30246.74
492.66	30298.23
492.84	30410.58
493.01	30902.09
493.19	30616.55
493.37	31374.88
493.54	31082.31
493.72	31857.03
493.90	31449.78
494.08	31880.44
494.25	32055.98
494.43	32201.09
494.61	32348.54
494.79	32739.41
494.96	32835.38
495.14	33268.37
495.32	32924.32
495.49	32865.80
495.67	33443.91
495.85	33696.69
496.02	33902.66
496.20	34024.37
496.38	34452.69
496.55	34174.16
496.73	34787.38
496.91	34459.71
497.09	34480.77
497.26	34831.85
497.44	34981.65
497.62	35356.13
497.79	35770.41
497.97	35407.62
498.14	35938.93
498.32	35871.05
498.50	36046.59
498.67	36495.97
498.85	36444.48
499.03	36491.29
499.20	36966.42
499.38	37429.85
499.56	37383.04
499.73	37074.09
499.91	37422.83
500.08	37865.19
500.26	37212.18
500.44	37921.36
500.61	38087.54
500.79	37708.37
500.97	37963.49
501.14	38792.04
501.32	38698.42
501.49	38855.23
501.67	38557.99
501.84	38902.04
502.02	38831.83
502.20	38749.91
502.37	39388.88
502.55	39456.75
502.72	39948.26
502.90	39927.20
503.07	39426.32
503.25	39728.25
503.43	39737.62
503.60	40294.66
503.78	40222.11
503.95	40172.96
504.13	40720.64
504.30	40989.80
504.48	40783.83
504.65	41102.15
504.83	41001.50
505.01	41530.47
505.18	41509.40
505.36	41649.83
505.53	41429.82
505.71	41895.59
505.88	41734.09
506.06	41654.51
506.23	42153.05
506.41	41902.61
506.58	42462.00
506.76	42426.89
506.93	42859.89
507.11	42382.42
507.28	42621.16
507.46	42438.59
507.63	43098.62
507.81	43508.22
507.98	42852.87
508.16	43374.81
508.33	43426.30
508.50	43529.28
508.68	43875.68
508.85	44098.03
509.03	43819.51
509.20	44299.32
509.38	44414.01
509.55	44498.26
509.73	44676.15
509.90	44519.33
510.08	44514.65
510.25	44751.04
510.42	45181.70
510.60	44802.53
510.77	45207.45
510.95	45935.35
511.12	45736.41
511.30	45385.33
511.47	45811.31
511.64	45635.77
511.82	45574.91
511.99	45532.78
512.17	45907.27
512.34	45710.66
512.51	46543.89
512.69	46326.22
512.86	46642.20
513.04	46784.97
513.21	46691.35
513.38	46850.50
513.56	46775.61
513.73	46614.11
513.90	47302.23
514.08	46454.95
514.25	47501.17
514.43	47292.86
514.60	47800.76
514.77	47510.53
514.95	47927.15
515.12	47585.43
515.29	47648.63
515.47	47800.76
515.64	48238.44
515.81	47859.27
515.99	48247.80
516.16	48619.95
516.33	48271.21
516.51	48559.09
516.68	48605.91
516.85	48865.70
517.03	48823.58
517.20	49050.61
517.37	48561.44
517.54	49062.31
517.72	49200.40
517.89	49076.35
518.06	49272.96
518.24	49249.55
518.41	49612.34
518.58	49495.31
518.75	49420.41
518.93	49581.91
519.10	49544.46
519.27	50244.28
519.45	49710.64
519.62	50181.09
519.79	50232.58
519.96	49689.57
520.14	50375.35
520.31	50288.75
520.48	50253.64
520.65	50209.17
520.83	50794.31
521.00	50939.42
521.17	50616.43
521.34	50766.22
521.52	50742.81
521.69	51089.21
521.86	51131.34
522.03	51004.95
522.20	51622.86
522.38	51377.10
522.55	51533.92
522.72	51489.45
522.89	51349.01
523.07	51723.50
523.24	51753.93
523.41	51508.17
523.58	51512.85
523.75	51985.64
523.92	51962.23
524.10	52126.07
524.27	52428.00
524.44	52346.08
524.61	52128.41
524.78	52133.09
524.96	52238.42
525.13	52535.66
525.30	52481.83
525.47	52753.33
525.64	52257.14
525.81	52608.22
525.98	52889.09
526.16	52587.16
526.33	52858.66
526.50	53155.91
526.67	52793.12
526.84	53106.76
527.01	52921.85
527.18	53015.47
527.36	52992.07
527.53	52725.25
527.70	53404.00
527.87	53399.32
528.04	53411.02
528.21	53521.03
528.38	53364.21
528.55	53780.83
528.72	53181.65
528.89	53434.43
529.07	53851.05
529.24	53539.75
529.41	53883.81
529.58	53829.98
529.75	53820.62
529.92	53993.82
530.09	53825.30
530.26	54227.87
530.43	54192.76
530.60	53937.65
530.77	54049.99
530.94	53975.09
531.11	54071.06
531.28	54160.00
531.46	54394.05
531.63	54239.57
531.80	54548.53
531.97	54520.44
532.14	54670.23
532.31	54354.26
532.48	54805.98
532.65	54777.90
532.82	54576.61
532.99	54693.64
533.16	54782.58
533.33	55063.44
533.50	54672.57
533.67	55072.81
533.84	54817.69
534.01	54857.48
534.18	55025.99
534.35	55112.59
534.52	54986.21
534.69	55341.97
534.86	55210.90
535.03	55271.75
535.20	55210.90
535.37	55412.18
535.54	55468.36
535.71	55363.03
535.88	55264.73
536.05	55470.70
536.22	55405.16
536.38	55489.42
536.55	55557.30
536.72	55552.62
536.89	55641.56
537.06	55697.73
537.23	55767.94
537.40	55711.77
537.57	55824.12
537.74	55891.99
537.91	56023.06
538.08	55990.30
538.25	55896.67
538.42	55833.48
538.59	56214.99
538.75	56009.02
538.92	56032.42
539.09	56140.09
539.26	56343.72
539.43	56193.92
539.60	56413.93
539.77	56238.39
539.94	56624.58
540.11	56378.82
540.28	56594.15
540.44	56603.52
540.61	56596.49
540.78	56399.89
540.95	56320.31
541.12	56505.21
541.29	56573.09
541.46	56512.23
541.62	56610.54
541.79	56526.28
541.96	56594.15
542.13	56470.11
542.30	56750.97
542.47	57144.18
542.63	56966.30
542.80	56858.63
542.97	57038.86
543.14	57158.22
543.31	57261.21
543.48	57198.01
543.64	57324.40
543.81	57521.01
543.98	57268.23
544.15	57551.43
544.32	57357.17
544.48	57762.08
544.65	57546.75
544.82	57673.14
544.99	57600.58
545.16	57574.84
545.32	57598.24
545.49	57794.85
545.66	57787.83
545.83	57635.69
546.00	57750.38
546.16	57799.53
546.33	57869.75
546.50	57532.71
546.67	57928.26
546.83	57647.39
547.00	57715.27
547.17	57710.59
547.34	57883.79
547.50	58061.67
547.67	58122.52
547.84	58284.02
548.00	58244.23
548.17	58129.54
548.34	58241.89
548.51	58363.60
548.67	58319.13
548.84	58131.89
549.01	57944.64
549.18	58279.34
549.34	58424.45
549.51	58499.35
549.68	58424.45
549.84	58555.52
550.01	58459.56
550.18	58351.90
550.34	58454.88
550.51	58534.46
550.68	58351.90
550.84	58199.76
551.01	58649.14
551.18	58590.63
551.34	58639.78
551.51	58733.40
551.68	58628.08
551.84	58700.64
552.01	58312.11
552.18	58564.88
552.34	58401.05
552.51	58710.00
552.68	58726.38
552.84	58702.98
553.01	59044.69
553.18	58890.22
553.34	59075.12
553.51	58864.47
553.67	58969.80
553.84	59229.60
554.01	59025.97
554.17	58824.68
554.34	59065.76
554.51	58908.94
554.67	59388.75
554.84	58986.18
555.00	58913.62
555.17	59014.27
555.33	58993.20
555.50	58951.07
555.67	58974.48
555.83	59049.38
556.00	59414.50
556.16	59344.28
556.33	59288.11
556.50	59370.03
556.66	59465.99
556.83	59206.19
556.99	59224.92
557.16	59669.62
557.32	59489.40
557.49	59678.98
557.65	59187.47
557.82	59400.46
557.98	59597.06
558.15	59571.32
558.32	59657.91
558.48	59451.95
558.65	59632.17
558.81	59473.01
558.98	59355.99
559.14	59676.64
559.31	59681.32
559.47	59779.62
559.64	59791.33
559.80	59671.96
559.97	59856.86
560.13	59454.29
560.30	59831.11
560.46	59760.90
560.63	59849.84
560.79	59962.18
560.96	60065.17
561.12	59887.29
561.29	59798.35
561.45	59861.54
561.61	59898.99
561.78	59945.80
561.94	59700.04
562.11	59978.57
562.27	59924.74
562.44	60039.42
562.60	60060.49
562.77	60100.28
562.93	59877.93
563.10	60212.62
563.26	60027.72
563.42	60111.98
563.59	60261.77
563.75	60046.44
563.92	60203.26
564.08	60226.66
564.24	60046.44
564.41	60074.53
564.57	60285.18
564.74	60046.44
564.90	60135.38
565.07	60224.32
565.23	60200.92
565.39	60308.58
565.56	60238.37
565.72	60217.30
565.88	60264.11
566.05	60292.20
566.21	60198.58
566.38	60299.22
566.54	60210.28
566.70	60439.65
566.87	60271.14
567.03	60292.20
567.19	60303.90
567.36	60285.18
567.52	60378.80
567.68	60570.72
567.85	60446.68
568.01	60294.54
568.17	60294.54
568.34	60467.74
568.50	60434.97
568.66	60357.74
568.83	60488.80
568.99	60324.97
569.15	60444.33
569.32	60486.46
569.48	60540.30
569.64	60563.70
569.81	60683.07
569.97	60254.75
570.13	60481.78
570.30	60603.49
570.46	60385.82
570.62	60460.72
570.78	60362.42
570.95	60423.27
571.11	60542.64
571.27	60556.68
571.43	60566.04
571.60	60554.34
571.76	60542.64
571.92	60486.46
572.09	60547.32
572.25	60605.83
572.41	60685.41
572.57	60409.23
572.74	60816.48
572.90	60507.53
573.06	60605.83
573.22	60807.12
573.38	60631.58
573.55	60720.52
573.71	61001.38
573.87	60839.89
574.03	60563.70
574.20	60835.20
574.36	60736.90
574.52	60769.67
574.68	60804.78
574.84	61010.74
575.01	60889.04
575.17	60793.07
575.33	60961.59
575.49	60750.94
575.65	60657.32
575.82	61006.06
575.98	60863.29
576.14	60947.55
576.30	60917.12
576.46	60671.37
576.62	60963.93
576.79	60561.36
576.95	60823.50
577.11	60851.59
577.27	60729.88
577.43	60783.71
577.59	60706.47
577.75	60839.89
577.92	60706.47
578.08	60734.56
578.24	60736.90
578.40	60891.38
578.56	60966.27
578.72	60982.66
578.88	61085.64
579.04	61010.74
579.21	60837.54
579.37	60989.68
579.53	61116.07
579.69	60814.14
579.85	60856.27
580.01	60769.67
580.17	60781.37
580.33	61045.85
580.49	60952.23
580.65	60825.84
580.82	60891.38
580.98	60825.84
581.14	60996.70
581.30	61116.07
581.46	60858.61
581.62	61048.19
581.78	60793.07
581.94	60996.70
582.10	60896.06
582.26	61003.72
582.42	60949.89
582.58	60743.92
582.74	60865.63
582.90	60982.66
583.06	61151.18
583.22	60776.69
583.38	61048.19
583.54	60959.25
583.70	61169.90
583.86	61209.69
584.02	60973.30
584.18	61223.73
584.34	61006.06
584.50	61146.50
584.66	60947.55
584.82	60842.23
584.98	61303.31
585.14	61183.94
585.30	60987.34
585.46	61034.15
585.62	61045.85
585.78	61272.88
585.94	60851.59
586.10	61069.26
586.26	61155.86
586.42	61289.27
586.58	61350.12
586.74	61064.58
586.90	61036.49
587.06	61127.77
587.22	60999.04
587.38	61120.75
587.54	61291.61
587.70	61406.30
587.86	61073.94
588.02	61223.73
588.18	61366.51
588.34	61162.88
588.49	61169.90
