SpectraSuite Data File
++++++++++++++++++++++++++++++++++++
Date: Fri Oct 25 11:25:20 EDT 2013
User: price-jones
Dark Spectrum Present: No
Reference Spectrum Present: No
Number of Sampled Component Spectra: 1
Spectrometers: USB2+H05261
Integration Time (usec): 100000 (USB2+H05261)
Spectra Averaged: 1 (USB2+H05261)
Boxcar Smoothing: 0 (USB2+H05261)
Correct for Electrical Dark: No (USB2+H05261)
Strobe/Lamp Enabled: No (USB2+H05261)
Correct for Detector Non-linearity: No (USB2+H05261)
Correct for Stray Light: No (USB2+H05261)
Number of Pixels in Processed Spectrum: 2048
>>>>>Begin Processed Spectral Data<<<<<
365.73	266.82
365.92	266.82
366.12	266.82
366.32	154.48
366.52	180.22
366.72	191.92
366.91	119.37
367.11	152.13
367.31	138.09
367.51	124.05
367.70	135.75
367.90	168.52
368.10	86.60
368.30	135.75
368.49	140.43
368.69	203.63
368.89	126.39
369.09	121.71
369.28	182.56
369.48	124.05
369.68	208.31
369.87	182.56
370.07	159.16
370.27	145.11
370.47	269.16
370.66	578.11
370.86	587.47
371.06	650.67
371.25	660.03
371.45	601.52
371.65	688.12
371.84	704.50
372.04	760.67
372.24	814.51
372.44	795.78
372.63	788.76
372.83	746.63
373.03	718.54
373.22	739.61
373.42	791.10
373.62	777.06
373.81	812.17
374.01	826.21
374.21	887.06
374.40	765.36
374.60	873.02
374.79	793.44
374.99	730.25
375.19	858.98
375.38	840.25
375.58	823.87
375.78	851.96
375.97	840.25
376.17	858.98
376.37	805.14
376.56	858.98
376.76	784.08
376.95	800.46
377.15	882.38
377.35	901.11
377.54	847.27
377.74	816.85
377.93	912.81
378.13	873.02
378.33	943.24
378.52	987.71
378.72	903.45
378.91	992.39
379.11	908.13
379.31	964.30
379.50	908.13
379.70	919.83
379.89	1020.47
380.09	999.41
380.28	924.51
380.48	875.36
380.68	1039.20
380.87	997.07
381.07	1004.09
381.26	1053.24
381.46	994.73
381.65	980.68
381.85	1046.22
382.04	1039.20
382.24	1081.33
382.43	1015.79
382.63	1034.52
382.83	1093.03
383.02	1100.05
383.22	1130.48
383.41	1067.28
383.61	1057.92
383.80	1163.25
384.00	1048.56
384.19	1086.01
384.39	1086.01
384.58	1170.27
384.78	1184.31
384.97	1135.16
385.17	1130.48
385.36	1111.75
385.56	1179.63
385.75	1149.20
385.95	1130.48
386.14	1196.01
386.34	1231.12
386.53	1212.40
386.72	1214.74
386.92	1191.33
387.11	1170.27
387.31	1266.23
387.50	1273.25
387.70	1238.14
387.89	1231.12
388.09	1352.83
388.28	1217.08
388.48	1210.06
388.67	1303.68
388.86	1320.06
389.06	1284.95
389.25	1299.00
389.45	1357.51
389.64	1284.95
389.84	1376.24
390.03	1448.79
390.22	1418.36
390.42	1366.87
390.61	1294.32
390.81	1299.00
391.00	1476.88
391.19	1329.42
391.39	1453.47
391.58	1401.98
391.78	1420.71
391.97	1486.24
392.16	1441.77
392.36	1535.39
392.55	1504.96
392.75	1511.99
392.94	1488.58
393.13	1535.39
393.33	1465.18
393.52	1495.60
393.71	1640.72
393.91	1516.67
394.10	1540.07
394.29	1568.16
394.49	1582.20
394.68	1577.52
394.88	1682.85
395.07	1612.63
395.26	1600.93
395.46	1671.14
395.65	1675.82
395.84	1743.70
396.04	1736.68
396.23	1818.60
396.42	1636.03
396.62	1799.87
396.81	1729.66
397.00	1884.13
397.19	1675.82
397.39	1865.41
397.58	1849.02
397.77	1743.70
397.97	1776.47
398.16	1762.42
398.35	1895.83
398.55	1757.74
398.74	1860.73
398.93	1888.81
399.12	1909.88
399.32	1949.67
399.51	1977.75
399.70	2101.80
399.90	1956.69
400.09	2092.44
400.28	1956.69
400.47	1998.82
400.67	2200.10
400.86	2064.35
401.05	2047.97
401.24	2085.42
401.44	2122.87
401.63	2125.21
401.82	2057.33
402.01	2113.50
402.21	2148.61
402.40	2090.10
402.59	2134.57
402.78	2244.57
402.97	2237.55
403.17	2263.30
403.36	2211.81
403.55	2186.06
403.74	2452.88
403.93	2338.20
404.13	2452.88
404.32	2305.43
404.51	2298.41
404.70	2420.11
404.89	2487.99
405.09	2366.28
405.28	2490.33
405.47	2326.49
405.66	2471.61
405.85	2492.67
406.05	2464.58
406.24	2525.44
406.43	2656.51
406.62	2712.68
406.81	2670.55
407.00	2539.48
407.20	2523.10
407.39	2642.46
407.58	2717.36
407.77	2654.17
407.96	2670.55
408.15	2726.72
408.34	2747.79
408.54	2726.72
408.73	2736.09
408.92	2860.13
409.11	2913.97
409.30	2855.45
409.49	2883.54
409.68	3014.61
409.87	2897.58
410.07	3028.65
410.26	2958.44
410.45	3007.59
410.64	2902.26
410.83	3052.06
411.02	3108.23
411.21	3211.22
411.40	3124.62
411.59	3000.57
411.78	3178.45
411.98	3194.83
412.17	3206.53
412.36	3248.66
412.55	3328.24
412.74	3325.90
412.93	3311.86
413.12	3494.42
413.31	3585.70
413.50	3410.16
413.69	3574.00
413.88	3435.91
414.07	3569.32
414.26	3541.23
414.45	3569.32
414.64	3602.08
414.83	3698.05
415.02	3665.28
415.22	3765.92
415.41	3817.41
415.60	3840.82
415.79	3786.99
415.98	3882.95
416.17	3906.35
416.36	3882.95
416.55	4002.32
416.74	3985.93
416.93	4126.36
417.12	4044.45
417.31	4257.43
417.50	4161.47
417.69	4322.97
417.88	4196.58
418.07	4175.52
418.26	4294.88
418.45	4257.43
418.64	4435.32
418.83	4524.26
419.02	4285.52
419.21	4362.76
419.39	4423.61
419.58	4290.20
419.77	4437.66
419.96	4491.49
420.15	4542.98
420.34	4652.98
420.53	4681.07
420.72	4603.83
420.91	4709.16
421.10	4842.57
421.29	4645.96
421.48	4610.86
421.67	4725.54
421.86	4732.56
422.05	4807.46
422.24	4765.33
422.43	4781.71
422.61	4903.42
422.80	4828.53
422.99	4741.93
423.18	4952.57
423.37	4985.34
423.56	4997.04
423.75	4880.02
423.94	4807.46
424.13	4617.88
424.32	4613.20
424.50	4926.83
424.69	4938.53
424.88	5167.90
425.07	4870.65
425.26	4887.04
425.45	4755.97
425.64	5034.49
425.83	4826.18
426.01	4938.53
426.20	5053.22
426.39	5018.11
426.58	4929.17
426.77	4884.70
426.96	5060.24
427.15	5128.11
427.33	5174.92
427.52	4966.62
427.71	5118.75
427.90	5186.63
428.09	5303.65
428.28	5385.57
428.46	5303.65
428.65	5310.68
428.84	5401.96
429.03	5462.81
429.22	5233.44
429.40	5376.21
429.59	5605.58
429.78	5345.78
429.97	5247.48
430.16	5378.55
430.34	5474.51
430.53	5668.78
430.72	5626.65
430.91	5535.37
431.10	5607.92
431.28	5579.84
431.47	5734.31
431.66	5832.62
431.85	5722.61
432.03	5949.64
432.22	5963.68
432.41	5762.40
432.60	5905.17
432.79	5865.38
432.97	5837.30
433.16	5804.53
433.35	6050.28
433.54	6167.31
433.72	6052.63
433.91	6015.18
434.10	5949.64
434.28	5916.87
434.47	6012.84
434.66	6132.20
434.85	6361.58
435.03	6164.97
435.22	6221.14
435.41	6373.28
435.59	6277.32
435.78	6373.28
435.97	6427.11
436.16	6370.94
436.34	6326.47
436.53	6436.47
436.72	6466.90
436.90	6340.51
437.09	6616.69
437.28	6373.28
437.46	6696.27
437.65	6565.20
437.84	6689.25
438.02	6527.75
438.21	6593.29
438.40	6654.14
438.58	6806.28
438.77	6885.86
438.96	6745.42
439.14	7016.93
439.33	7098.84
439.52	7126.93
439.70	7171.40
439.89	7218.21
440.08	7166.72
440.26	7171.40
440.45	7054.37
440.63	7311.83
440.82	7417.16
441.01	7501.42
441.19	7487.37
441.38	7599.72
441.57	7674.62
441.75	7763.56
441.94	7882.92
442.12	7871.22
442.31	8058.46
442.50	8100.59
442.68	7887.61
442.87	8088.89
443.05	7892.29
443.24	8077.19
443.43	7995.27
443.61	7985.91
443.80	8257.41
443.98	7847.82
444.17	7875.90
444.35	8285.50
444.54	8231.66
444.73	8255.07
444.91	8269.11
445.10	8236.35
445.28	8219.96
445.47	8231.66
445.65	8390.82
445.84	8482.10
446.02	8456.36
446.21	8278.47
446.39	8339.33
446.58	8498.49
446.77	8325.29
446.95	8131.02
447.14	8215.28
447.32	8592.11
447.51	8489.12
447.69	8463.38
447.88	8386.14
448.06	8557.00
448.25	8360.39
448.43	8496.14
448.62	8383.80
448.80	8519.55
448.99	8528.91
449.17	8697.43
449.36	8667.00
449.54	8512.53
449.73	8896.38
449.91	8908.08
450.10	8943.19
450.28	8922.12
450.46	8959.57
450.65	9015.74
450.83	9015.74
451.02	9144.47
451.20	9205.33
451.39	9104.68
451.57	8966.59
451.76	8879.99
451.94	9088.30
452.13	9088.30
452.31	9207.67
452.49	9228.73
452.68	9362.14
452.86	9273.20
453.05	9315.33
453.23	9394.91
453.42	9369.16
453.60	9224.05
453.78	9549.39
453.97	9277.88
454.15	9385.55
454.34	9308.31
454.52	9542.36
454.70	9439.38
454.89	9617.26
455.07	9858.34
455.26	9479.17
455.44	9865.36
455.62	9664.07
455.81	9757.69
455.99	9886.42
456.17	10132.18
456.36	9980.04
456.54	10038.56
456.73	10335.81
456.91	10312.40
457.09	10513.69
457.28	10494.96
457.46	10380.28
457.64	10548.79
457.83	10370.91
458.01	10176.65
458.19	10661.14
458.38	10541.77
458.56	10839.02
458.74	10562.84
458.93	10520.71
459.11	10626.03
459.29	10829.66
459.48	10658.80
459.66	10796.89
459.84	10850.72
460.03	10820.30
460.21	11030.94
460.39	11028.60
460.57	10850.72
460.76	11140.95
460.94	11105.84
461.12	11084.78
461.31	11037.97
461.49	10883.49
461.67	11030.94
461.85	11524.80
462.04	11283.72
462.22	11815.02
462.40	11449.90
462.59	11508.41
462.77	11370.32
462.95	11597.35
463.13	11253.30
463.32	11580.97
463.50	11754.17
463.68	11454.58
463.86	11903.96
464.05	11538.84
464.23	11396.07
464.41	11775.24
464.59	11548.20
464.78	12152.06
464.96	11726.08
465.14	11871.20
465.32	11887.58
465.50	11953.12
465.69	11964.82
465.87	12072.48
466.05	11913.33
466.23	12210.57
466.41	12128.66
466.60	12446.97
466.78	12013.97
466.96	12208.23
467.14	12273.77
467.32	12060.78
467.51	12205.89
467.69	12042.06
467.87	12315.90
468.05	12439.95
468.23	12580.38
468.41	12425.90
468.60	12435.27
468.78	12704.43
468.96	12439.95
469.14	12662.30
469.32	12868.27
469.50	12629.53
469.69	12786.35
469.87	12833.16
470.05	12996.99
470.23	13156.15
470.41	13135.09
470.59	13142.11
470.77	13067.21
470.95	13359.78
471.14	13504.89
471.32	13076.57
471.50	13518.93
471.68	13481.49
471.86	13504.89
472.04	13516.59
472.22	14015.13
472.40	13554.04
472.58	13661.71
472.77	13989.38
472.95	13937.89
473.13	14539.41
473.31	13933.21
473.49	14193.01
473.67	14010.45
473.85	14394.29
474.03	14340.46
474.21	14354.51
474.39	14560.47
474.57	14750.06
474.75	14867.08
474.93	14899.85
475.12	14728.99
475.30	14890.49
475.48	14927.94
475.66	15047.30
475.84	14836.66
476.02	15384.34
476.20	15154.97
476.38	15878.19
476.56	15784.57
476.74	15749.46
476.92	15487.32
477.10	15719.04
477.28	16224.59
477.46	15948.41
477.64	15988.20
477.82	16449.28
478.00	16645.89
478.18	16690.36
478.36	16922.07
478.54	17088.25
478.72	17050.80
478.90	17029.74
479.08	17247.41
479.26	17472.10
479.44	17710.83
479.62	17755.30
479.80	17743.60
479.98	18082.98
480.16	18462.15
480.34	18157.88
480.52	18284.26
480.70	18534.70
480.88	18068.94
481.06	18686.84
481.24	18883.44
481.41	18773.44
481.59	19136.22
481.77	19178.35
481.95	19358.57
482.13	19779.87
482.31	19349.21
482.49	20240.95
482.67	20086.48
482.85	20149.67
483.03	20589.69
483.21	20367.34
483.39	20695.02
483.57	20648.21
483.74	20840.13
483.92	21235.68
484.10	21018.01
484.28	21376.11
484.46	21418.24
484.64	22267.86
484.82	22054.87
485.00	21963.59
485.18	22422.33
485.35	22775.75
485.53	22071.25
485.71	22843.63
485.89	23281.31
486.07	22817.88
486.25	23316.42
486.43	23646.43
486.61	23969.43
486.78	23957.72
486.96	23854.74
487.14	24474.98
487.32	24278.38
487.50	24795.64
487.68	24641.16
487.85	25090.54
488.03	25139.69
488.21	25582.06
488.39	25724.83
488.57	26059.52
488.75	25626.53
488.92	26036.12
489.10	26630.62
489.28	26527.63
489.46	26742.96
489.64	26972.33
489.81	27555.13
489.99	27592.58
490.17	27615.98
490.35	28034.94
490.53	28091.11
490.70	28486.66
490.88	27894.50
491.06	28547.51
491.24	28615.39
491.41	28727.74
491.59	28673.90
491.77	28847.10
491.95	29376.06
492.13	29560.97
492.30	29450.96
492.48	29776.30
492.66	30096.95
492.84	29853.53
493.01	30478.46
493.19	30347.39
493.37	30869.33
493.54	31187.64
493.72	31197.00
493.90	31150.19
494.08	31452.12
494.25	31601.91
494.43	31744.69
494.61	32215.13
494.79	32065.34
494.96	32093.43
495.14	32275.99
495.32	32748.78
495.49	32957.08
495.67	32772.18
495.85	33450.94
496.02	33422.85
496.20	33422.85
496.38	33787.97
496.55	33764.57
496.73	34359.06
496.91	34206.93
497.09	34565.03
497.26	34494.82
497.44	34665.67
497.62	34604.82
497.79	35777.43
497.97	35384.22
498.14	35510.61
498.32	35847.64
498.50	35559.76
498.67	36507.68
498.85	35866.37
499.03	36325.11
499.20	36671.51
499.38	36341.50
499.56	36996.85
499.73	36797.90
499.91	36732.37
500.08	37432.19
500.26	37184.09
500.44	37425.17
500.61	37460.27
500.79	37429.85
500.97	38146.05
501.14	38480.75
501.32	38567.35
501.49	38312.23
501.67	38216.27
501.84	38436.28
502.02	38515.86
502.20	38689.06
502.37	38918.43
502.55	38976.94
502.72	38930.13
502.90	39133.76
503.07	39047.16
503.25	38988.64
503.43	39454.41
503.60	39634.63
503.78	39873.37
503.95	39849.96
504.13	40133.17
504.30	40280.62
504.48	40416.37
504.65	40645.74
504.83	40678.51
505.01	41134.92
505.18	40678.51
505.36	41155.98
505.53	41151.30
505.71	41146.62
505.88	41254.28
506.06	40931.29
506.23	41429.82
506.41	41701.32
506.58	42141.35
506.76	41673.24
506.93	42117.94
507.11	41823.03
507.28	41844.10
507.46	42649.24
507.63	42614.13
507.81	42976.92
507.98	42663.28
508.16	42986.28
508.33	43512.90
508.50	43433.32
508.68	43150.12
508.85	43414.60
509.03	43203.95
509.20	43597.16
509.38	43871.00
509.55	44020.80
509.73	43634.61
509.90	44069.95
510.08	44222.08
510.25	43894.41
510.42	44549.76
510.60	44327.41
510.77	44765.09
510.95	45146.59
511.12	44781.47
511.30	45118.51
511.47	44884.45
511.64	45148.93
511.82	45638.11
511.99	45425.12
512.17	45703.64
512.34	45546.82
512.51	45951.74
512.69	45764.49
512.86	46204.52
513.04	46047.70
513.21	46377.72
513.38	46117.92
513.56	46799.01
513.73	46419.84
513.90	46576.66
514.08	46218.56
514.25	46981.57
514.43	46855.18
514.60	47189.88
514.77	46899.65
514.95	47379.46
515.12	47220.31
515.29	47026.04
515.47	47854.59
515.64	47760.97
515.81	47868.64
515.99	47847.57
516.16	48371.85
516.33	47547.98
516.51	48390.58
516.68	48542.71
516.85	48418.66
517.03	48687.82
517.20	48516.96
517.37	48140.14
517.54	48603.56
517.72	48568.46
517.89	48905.49
518.06	48507.60
518.24	48961.67
518.41	49038.90
518.58	49031.88
518.75	48643.35
518.93	49027.20
519.10	49151.25
519.27	49200.40
519.45	49109.12
519.62	49617.02
519.79	49560.84
519.96	49806.60
520.14	49801.92
520.31	49790.22
520.48	50628.13
520.65	49720.00
520.83	50270.03
521.00	50478.33
521.17	50057.04
521.34	50377.69
521.52	50497.06
521.69	50281.73
521.86	50635.15
522.03	50621.11
522.20	50754.52
522.38	51173.47
522.55	51192.20
522.72	50887.93
522.89	51358.38
523.07	51166.45
523.24	51297.52
523.41	51526.89
523.58	51377.10
523.75	51231.99
523.92	51409.87
524.10	51625.20
524.27	51667.33
524.44	51810.10
524.61	51800.74
524.78	51730.52
524.96	51817.12
525.13	51758.61
525.30	52364.81
525.47	52247.78
525.64	52219.69
525.81	52222.03
525.98	52559.07
526.16	52385.87
526.33	52392.89
526.50	52577.79
526.67	52601.20
526.84	52896.11
527.01	52692.48
527.18	52535.66
527.36	52786.10
527.53	53031.86
527.70	53090.37
527.87	53205.06
528.04	53041.22
528.21	53396.98
528.38	53167.61
528.55	53502.31
528.72	53092.71
528.89	52861.00
529.07	53195.70
529.24	53279.96
529.41	53179.31
529.58	53577.20
529.75	53736.36
529.92	53242.51
530.09	53408.68
530.26	53965.73
530.43	53794.87
530.60	53638.06
530.77	53640.40
530.94	53649.76
531.11	53975.09
531.28	53808.92
531.46	54152.97
531.63	53958.71
531.80	54124.89
531.97	54012.54
532.14	54471.29
532.31	54117.87
532.48	54295.75
532.65	54309.79
532.82	54508.74
532.99	54262.98
533.16	54384.69
533.33	54368.30
533.50	54515.76
533.67	54630.44
533.84	54588.31
534.01	54796.62
534.18	54705.34
534.35	54892.58
534.52	54703.00
534.69	55217.92
534.86	55075.15
535.03	54726.41
535.20	55246.00
535.37	55119.62
535.54	55143.02
535.71	55098.55
535.88	55117.28
536.05	55447.29
536.22	55103.23
536.38	55489.42
536.55	55140.68
536.72	55103.23
536.89	55234.30
537.06	55618.15
537.23	55597.09
537.40	55384.10
537.57	55341.97
537.74	55477.72
537.91	55807.73
538.08	55679.00
538.25	55482.40
538.42	55927.10
538.59	55716.45
538.75	55580.70
538.92	55920.08
539.09	56020.72
539.26	55908.38
539.43	55559.64
539.60	55861.57
539.77	55936.46
539.94	56371.80
540.11	56165.84
540.28	56294.56
540.44	56282.86
540.61	56130.73
540.78	56324.99
540.95	56189.24
541.12	56030.08
541.29	56231.37
541.46	56320.31
541.62	56369.46
541.79	56336.69
541.96	56243.07
542.13	56442.02
542.30	56313.29
542.47	56568.41
542.63	56680.75
542.80	56591.81
542.97	56804.80
543.14	57099.71
543.31	56865.66
543.48	57162.90
543.64	57190.99
543.81	56727.56
543.98	57130.14
544.15	57226.10
544.32	57190.99
544.48	57139.50
544.65	57291.63
544.82	57396.96
544.99	57041.20
545.16	57331.42
545.32	57010.77
545.49	57612.29
545.66	57432.07
545.83	57256.53
546.00	57542.07
546.16	57333.76
546.33	57406.32
546.50	56989.70
546.67	57535.05
546.83	57158.22
547.00	57436.75
547.17	57638.03
547.34	57539.73
547.50	57736.34
547.67	57844.00
547.84	57738.68
548.00	57909.53
548.17	57991.45
548.34	57867.40
548.51	57942.30
548.67	58085.07
548.84	57755.06
549.01	57876.77
549.18	58012.52
549.34	57989.11
549.51	58045.29
549.68	58021.88
549.84	58059.33
550.01	58204.44
550.18	57895.49
550.34	58159.97
550.51	58234.87
550.68	58176.36
550.84	58059.33
551.01	58405.73
551.18	58251.25
551.34	58384.66
551.51	58480.63
551.68	58316.79
551.84	58328.49
552.01	58277.00
552.18	58422.11
552.34	58328.49
552.51	58494.67
552.68	58152.95
552.84	58518.07
553.01	58836.39
553.18	58522.76
553.34	58674.89
553.51	58511.05
553.67	58742.77
553.84	58656.17
554.01	58770.85
554.17	58686.59
554.34	58859.79
554.51	58803.62
554.67	58901.92
554.84	58845.75
555.00	58822.34
555.17	58918.31
555.33	58894.90
555.50	58548.50
555.67	58595.31
555.83	58801.28
556.00	58922.99
556.16	58955.75
556.33	58899.58
556.50	58997.88
556.66	59044.69
556.83	58944.05
556.99	59173.42
557.16	59199.17
557.32	59196.83
557.49	59639.19
557.65	58932.35
557.82	59199.17
557.98	58983.84
558.15	59367.69
558.32	59281.09
558.48	59255.34
558.65	59196.83
558.81	59180.45
558.98	59143.00
559.14	59540.89
559.31	59529.19
559.47	59566.63
559.64	59426.20
559.80	59550.25
559.97	59590.04
560.13	59501.10
560.30	59496.42
560.46	59622.81
560.63	59678.98
560.79	59547.91
560.96	59814.73
561.12	59590.04
561.29	59592.38
561.45	59629.83
561.61	59419.18
561.78	59442.59
561.94	59604.08
562.11	59505.78
562.27	59739.83
562.44	59676.64
562.60	59859.20
562.77	59700.04
562.93	59583.02
563.10	59847.50
563.26	59760.90
563.42	59849.84
563.59	59758.56
563.75	59781.96
563.92	59952.82
564.08	60025.38
564.24	60013.68
564.41	60013.68
564.57	59990.27
564.74	59845.16
564.90	59877.93
565.07	59941.12
565.23	60130.70
565.39	59861.54
565.56	60055.81
565.72	59875.58
565.88	59906.01
566.05	59831.11
566.21	59723.45
566.38	60200.92
566.54	60039.42
566.70	59971.55
566.87	60247.73
567.03	59955.16
567.19	60395.18
567.36	60111.98
567.52	60135.38
567.68	60413.91
567.85	60238.37
568.01	60348.37
568.17	60315.61
568.34	60275.82
568.50	60095.60
568.66	60093.25
568.83	60081.55
568.99	60193.90
569.15	60257.09
569.32	60179.85
569.48	60135.38
569.64	60233.69
569.81	60154.11
569.97	60170.49
570.13	60254.75
570.30	60168.15
570.46	60310.92
570.62	60339.01
570.78	60355.39
570.95	60175.17
571.11	60432.63
571.27	60076.87
571.43	60308.58
571.60	60254.75
571.76	60353.05
571.92	60514.55
572.09	60465.40
572.25	60533.28
572.41	60243.05
572.57	60395.18
572.74	60519.23
572.90	60158.79
573.06	60472.42
573.22	60320.29
573.38	60416.25
573.55	60236.03
573.71	60542.64
573.87	60589.45
574.03	60416.25
574.20	60591.79
574.36	60479.44
574.52	60587.11
574.68	60432.63
574.84	60570.72
575.01	60453.70
575.17	60484.12
575.33	60418.59
575.49	60465.40
575.65	60395.18
575.82	60477.10
575.98	60460.72
576.14	60720.52
576.30	60535.62
576.46	60439.65
576.62	60495.83
576.79	60692.43
576.95	60453.70
577.11	60631.58
577.27	60636.26
577.43	60629.24
577.59	60631.58
577.75	60598.81
577.92	60537.96
578.08	60521.57
578.24	60533.28
578.40	60818.82
578.56	60963.93
578.72	60690.09
578.88	60872.65
579.04	60851.59
579.21	60598.81
579.37	60938.19
579.53	60774.35
579.69	60542.64
579.85	60694.77
580.01	60554.34
580.17	60582.43
580.33	60727.54
580.49	60755.63
580.65	60722.86
580.82	60793.07
580.98	60589.45
581.14	60552.00
581.30	60879.67
581.46	60706.47
581.62	60687.75
581.78	60748.60
581.94	60739.24
582.10	60659.66
582.26	60645.62
582.42	60566.04
582.58	60802.44
582.74	60676.05
582.90	60556.68
583.06	60659.66
583.22	60713.50
583.38	60823.50
583.54	60779.03
583.70	60926.49
583.86	60739.24
584.02	60800.10
584.18	60860.95
584.34	60685.41
584.50	60676.05
584.66	60500.51
584.82	60657.32
584.98	60928.83
585.14	60996.70
585.30	60956.91
585.46	60872.65
585.62	60687.75
585.78	60732.22
585.94	60577.75
586.10	60720.52
586.26	60678.39
586.42	60781.37
586.58	60952.23
586.74	60921.80
586.90	60811.80
587.06	60725.20
587.22	60877.33
587.38	61057.56
587.54	60919.46
587.70	61125.43
587.86	60685.41
588.02	60804.78
588.18	60910.10
588.34	60828.18
588.49	60748.60
