SpectraSuite Data File
++++++++++++++++++++++++++++++++++++
Date: Fri Oct 25 10:44:45 EDT 2013
User: price-jones
Dark Spectrum Present: No
Reference Spectrum Present: No
Number of Sampled Component Spectra: 1
Spectrometers: USB2+H05261
Integration Time (usec): 100000 (USB2+H05261)
Spectra Averaged: 1 (USB2+H05261)
Boxcar Smoothing: 0 (USB2+H05261)
Correct for Electrical Dark: No (USB2+H05261)
Strobe/Lamp Enabled: No (USB2+H05261)
Correct for Detector Non-linearity: No (USB2+H05261)
Correct for Stray Light: No (USB2+H05261)
Number of Pixels in Processed Spectrum: 2048
>>>>>Begin Processed Spectral Data<<<<<
365.73	161.50
365.92	161.50
366.12	161.50
366.32	72.56
366.52	44.47
366.72	91.28
366.91	0.00
367.11	28.09
367.31	72.56
367.51	30.43
367.70	0.00
367.90	0.00
368.10	112.35
368.30	49.15
368.49	18.72
368.69	9.36
368.89	58.51
369.09	0.00
369.28	58.51
369.48	0.00
369.68	81.92
369.87	91.28
370.07	63.19
370.27	110.01
370.47	227.03
370.66	304.27
370.86	463.43
371.06	440.02
371.25	400.23
371.45	383.85
371.65	379.17
371.84	477.47
372.04	381.51
372.24	454.06
372.44	475.13
372.63	475.13
372.83	517.26
373.03	566.41
373.22	496.19
373.42	507.90
373.62	440.02
373.81	505.56
374.01	503.22
374.21	599.18
374.40	503.22
374.60	554.71
374.79	543.00
374.99	599.18
375.19	585.13
375.38	554.71
375.58	505.56
375.78	540.66
375.97	543.00
376.17	636.63
376.37	538.32
376.56	606.20
376.76	620.24
376.95	554.71
377.15	540.66
377.35	641.31
377.54	578.11
377.74	634.29
377.93	664.71
378.13	636.63
378.33	655.35
378.52	587.47
378.72	643.65
378.91	603.86
379.11	582.79
379.31	587.47
379.50	617.90
379.70	580.45
379.89	692.80
380.09	594.50
380.28	713.86
380.48	610.88
380.68	681.10
380.87	671.73
381.07	695.14
381.26	734.93
381.46	634.29
381.65	561.73
381.85	645.99
382.04	610.88
382.24	650.67
382.43	702.16
382.63	690.46
382.83	664.71
383.02	730.25
383.22	709.18
383.41	718.54
383.61	699.82
383.80	713.86
384.00	636.63
384.19	753.65
384.39	713.86
384.58	777.06
384.78	791.10
384.97	788.76
385.17	765.36
385.36	739.61
385.56	718.54
385.75	692.80
385.95	711.52
386.14	809.83
386.34	739.61
386.53	784.08
386.72	763.01
386.92	823.87
387.11	786.42
387.31	795.78
387.50	772.38
387.70	695.14
387.89	774.72
388.09	795.78
388.28	744.29
388.48	791.10
388.67	823.87
388.86	908.13
389.06	798.12
389.25	922.17
389.45	931.53
389.64	954.94
389.84	1001.75
390.03	947.92
390.22	915.15
390.42	870.68
390.61	936.21
390.81	985.37
391.00	861.32
391.19	952.60
391.39	999.41
391.58	978.34
391.78	870.68
391.97	985.37
392.16	990.05
392.36	1025.15
392.55	971.32
392.75	961.96
392.94	926.85
393.13	1015.79
393.33	992.39
393.52	936.21
393.71	1029.84
393.91	987.71
394.10	1034.52
394.29	1020.47
394.49	1083.67
394.68	1102.39
394.88	1256.87
395.07	1048.56
395.26	1160.91
395.46	1163.25
395.65	1137.50
395.84	1144.52
396.04	1135.16
396.23	1100.05
396.42	1137.50
396.62	1205.38
396.81	1088.35
397.00	1163.25
397.19	1280.27
397.39	1310.70
397.58	1221.76
397.77	1284.95
397.97	1186.65
398.16	1259.21
398.35	1301.34
398.55	1394.96
398.74	1294.32
398.93	1345.81
399.12	1392.62
399.32	1256.87
399.51	1322.40
399.70	1380.92
399.90	1446.45
400.09	1425.39
400.28	1561.14
400.47	1439.43
400.67	1561.14
400.86	1483.90
401.05	1446.45
401.24	1519.01
401.44	1540.07
401.63	1577.52
401.82	1448.79
402.01	1479.22
402.21	1533.05
402.40	1547.09
402.59	1579.86
402.78	1526.03
402.97	1621.99
403.17	1664.12
403.36	1514.33
403.55	1554.12
403.74	1626.67
403.93	1591.56
404.13	1724.97
404.32	1743.70
404.51	1790.51
404.70	1724.97
404.89	1724.97
405.09	1818.60
405.28	1907.54
405.47	1753.06
405.66	1748.38
405.85	1827.96
406.05	1760.08
406.24	1769.44
406.43	1804.55
406.62	1839.66
406.81	1919.24
407.00	1818.60
407.20	1762.42
407.39	1834.98
407.58	1923.92
407.77	2017.54
407.96	1919.24
408.15	2038.61
408.34	1898.17
408.54	2066.69
408.73	2001.16
408.92	2038.61
409.11	2099.46
409.30	2010.52
409.49	2139.25
409.68	2019.88
409.87	2139.25
410.07	2132.23
410.26	2153.29
410.45	2146.27
410.64	2172.02
410.83	2218.83
411.02	2190.74
411.21	2225.85
411.40	2267.98
411.59	2225.85
411.78	2359.26
411.98	2331.17
412.17	2363.94
412.36	2338.20
412.55	2443.52
412.74	2408.41
412.93	2413.09
413.12	2443.52
413.31	2640.12
413.50	2520.76
413.69	2581.61
413.88	2679.91
414.07	2651.83
414.26	2588.63
414.45	2672.89
414.64	2677.57
414.83	2700.98
415.02	2752.47
415.22	2771.19
415.41	2775.88
415.60	2897.58
415.79	2806.30
415.98	2967.80
416.17	2932.69
416.36	2864.82
416.55	2928.01
416.74	2977.16
416.93	2970.14
417.12	3000.57
417.31	3148.02
417.50	3056.74
417.69	3185.47
417.88	3119.93
418.07	3115.25
418.26	3115.25
418.45	3112.91
418.64	3276.75
418.83	3318.88
419.02	3169.09
419.21	3297.81
419.39	3260.37
419.58	3180.79
419.77	3276.75
419.96	3410.16
420.15	3229.94
420.34	3211.22
420.53	3435.91
420.72	3412.50
420.91	3456.97
421.10	3407.82
421.29	3447.61
421.48	3365.69
421.67	3555.27
421.86	3522.51
422.05	3449.95
422.24	3351.65
422.43	3564.64
422.61	3515.48
422.80	3447.61
422.99	3452.29
423.18	3625.49
423.37	3716.77
423.56	3676.98
423.75	3609.11
423.94	3674.64
424.13	3459.31
424.32	3485.06
424.50	3585.70
424.69	3723.79
424.88	3754.22
425.07	3461.65
425.26	3529.53
425.45	3609.11
425.64	3604.42
425.83	3613.79
426.01	3801.03
426.20	3756.56
426.39	3674.64
426.58	3733.15
426.77	3578.68
426.96	3639.53
427.15	3672.30
427.33	3705.07
427.52	3749.54
427.71	3747.20
427.90	3716.77
428.09	4046.79
428.28	3843.16
428.46	3861.88
428.65	3831.46
428.84	3794.01
429.03	3899.33
429.22	3761.24
429.40	3688.68
429.59	3899.33
429.78	3604.42
429.97	3604.42
430.16	3763.58
430.34	3850.18
430.53	4023.38
430.72	3936.78
430.91	3901.67
431.10	3974.23
431.28	4119.34
431.47	4086.58
431.66	4273.82
431.85	4198.92
432.03	4198.92
432.22	4201.26
432.41	4241.05
432.60	4456.38
432.79	4362.76
432.97	4210.62
433.16	4329.99
433.35	4285.52
433.54	4243.39
433.72	4388.50
433.91	4294.88
434.10	4524.26
434.28	4521.92
434.47	4498.51
434.66	4381.48
434.85	4500.85
435.03	4601.49
435.22	4491.49
435.41	4624.90
435.59	4470.42
435.78	4631.92
435.97	4571.07
436.16	4554.68
436.34	4521.92
436.53	4739.58
436.72	4725.54
436.90	4683.41
437.09	4664.69
437.28	4606.17
437.46	4709.16
437.65	4734.90
437.84	4578.09
438.02	4807.46
438.21	4798.10
438.40	4777.03
438.58	4926.83
438.77	5006.41
438.96	4910.44
439.14	5203.01
439.33	5256.84
439.52	5107.05
439.70	5032.15
439.89	5132.79
440.08	5139.82
440.26	5130.45
440.45	5195.99
440.63	5345.78
440.82	5371.53
441.01	5334.08
441.19	5411.32
441.38	5469.83
441.57	5568.13
441.75	5537.71
441.94	5689.84
442.12	5640.69
442.31	5830.27
442.50	5816.23
442.68	5877.09
442.87	5853.68
443.05	5802.19
443.24	5895.81
443.43	5785.80
443.61	5797.51
443.80	5916.87
443.98	5832.62
444.17	5895.81
444.35	6085.39
444.54	5959.00
444.73	5994.11
444.91	5980.07
445.10	5902.83
445.28	6005.81
445.47	5867.72
445.65	5872.40
445.84	5970.71
446.02	6022.20
446.21	5980.07
446.39	5942.62
446.58	6059.65
446.77	6106.46
446.95	6019.86
447.14	6111.14
447.32	6326.47
447.51	6080.71
447.69	6050.28
447.88	6078.37
448.06	6258.59
448.25	6211.78
448.43	6101.78
448.62	6052.63
448.80	6115.82
448.99	6272.64
449.17	6239.87
449.36	6066.67
449.54	6321.79
449.73	6459.88
449.91	6221.14
450.10	6368.60
450.28	6555.84
450.46	6665.85
450.65	6590.95
450.83	6775.85
451.02	6429.45
451.20	6619.04
451.39	6553.50
451.57	6471.58
451.76	6494.99
451.94	6733.72
452.13	6630.74
452.31	6719.68
452.49	6438.81
452.68	6649.46
452.86	6506.69
453.05	6623.72
453.23	6775.85
453.42	6649.46
453.60	6738.40
453.78	6740.74
453.97	6799.26
454.15	6672.87
454.34	6691.59
454.52	6878.83
454.70	6874.15
454.89	6874.15
455.07	6794.58
455.26	6942.03
455.44	7101.19
455.62	6981.82
455.81	7091.82
455.99	7152.68
456.17	7117.57
456.36	6993.52
456.54	7241.62
456.73	7353.96
456.91	7433.54
457.09	7307.15
457.28	7576.31
457.46	7307.15
457.64	7456.95
457.83	7370.35
458.01	7375.03
458.19	7676.96
458.38	7400.77
458.56	7499.08
458.74	7541.21
458.93	7510.78
459.11	7623.12
459.29	7492.05
459.48	7688.66
459.66	7566.95
459.84	7660.57
460.03	7850.16
460.21	7831.43
460.39	7770.58
460.57	7747.17
460.76	7999.95
460.94	7833.77
461.12	7943.78
461.31	8021.02
461.49	8081.87
461.67	7896.97
461.85	8135.70
462.04	7953.14
462.22	8140.38
462.40	8124.00
462.59	7957.82
462.77	8243.37
462.95	8238.69
463.13	8107.62
463.32	7988.25
463.50	8400.18
463.68	8121.66
463.86	8191.88
464.05	8236.35
464.23	8278.47
464.41	8374.44
464.59	8173.15
464.78	8379.12
464.96	8215.28
465.14	8133.36
465.32	8479.76
465.50	8489.12
465.69	8432.95
465.87	8493.80
466.05	8458.70
466.23	8315.92
466.41	8552.32
466.60	8554.66
466.78	8327.63
466.96	8571.04
467.14	8594.45
467.32	8568.70
467.51	8528.91
467.69	8540.61
467.87	8821.48
468.05	8936.17
468.23	8475.08
468.41	8606.15
468.60	8674.03
468.78	8821.48
468.96	8678.71
469.14	8896.38
469.32	9158.52
469.50	8690.41
469.69	8734.88
469.87	8816.80
470.05	9050.85
470.23	8947.87
470.41	8954.89
470.59	9137.45
470.77	8945.53
470.95	9219.37
471.14	9392.57
471.32	9207.67
471.50	9249.80
471.68	9240.44
471.86	9378.53
472.04	9453.42
472.22	9743.65
472.40	9390.23
472.58	9390.23
472.77	9664.07
472.95	9935.57
473.13	9977.70
473.31	9736.63
473.49	9689.82
473.67	9741.31
473.85	9837.27
474.03	10012.81
474.21	10040.90
474.39	10193.03
474.57	10239.84
474.75	10104.09
474.93	10331.12
475.12	10188.35
475.30	10338.15
475.48	10473.90
475.66	10319.42
475.84	10501.98
476.02	10551.14
476.20	10501.98
476.38	10726.68
476.56	10937.32
476.74	10993.50
476.92	11098.82
477.10	11037.97
477.28	11136.27
477.46	11307.13
477.64	10974.77
477.82	11332.87
478.00	11475.65
478.18	11377.34
478.36	11674.59
478.54	11721.40
478.72	11625.44
478.90	11831.41
479.08	11988.22
479.26	12147.38
479.44	12283.13
479.62	12383.77
479.80	12191.85
479.98	12266.75
480.16	12638.89
480.34	12341.64
480.52	12542.93
480.70	12521.87
480.88	12390.80
481.06	12571.02
481.24	12779.32
481.41	12950.18
481.59	13062.53
481.77	13343.39
481.95	13092.96
482.13	13397.23
482.31	13530.64
482.49	13493.19
482.67	13710.86
482.85	13764.69
483.03	13734.26
483.21	14300.67
483.39	14146.20
483.57	14246.84
483.74	14403.66
483.92	14218.75
484.10	14216.41
484.28	14656.43
484.46	14841.34
484.64	15147.95
484.82	14782.82
485.00	14827.29
485.18	15304.76
485.35	15264.97
485.53	15246.25
485.71	15220.50
485.89	15594.99
486.07	15318.81
486.25	15723.72
486.43	15606.69
486.61	15653.50
486.78	16107.57
486.96	16053.73
487.14	16332.26
487.32	16278.43
487.50	16669.30
487.68	16893.99
487.85	17373.80
488.03	17207.62
488.21	17076.55
488.39	17092.93
488.57	17563.38
488.75	17612.53
488.92	17848.93
489.10	17942.55
489.28	18005.74
489.46	18054.89
489.64	17987.02
489.81	18740.67
489.99	18558.11
490.17	18609.60
490.35	18860.04
490.53	18810.89
490.70	18871.74
490.88	19138.56
491.06	19447.51
491.24	19307.08
491.41	19215.80
491.59	19662.84
491.77	19510.71
491.95	19578.58
492.13	20152.01
492.30	19915.62
492.48	19976.47
492.66	20159.03
492.84	20037.33
493.01	20657.57
493.19	20664.59
493.37	20886.94
493.54	20556.93
493.72	21046.10
493.90	20915.03
494.08	21219.30
494.25	21591.44
494.43	21434.63
494.61	21563.36
494.79	21507.18
494.96	21413.56
495.14	21734.21
495.32	22134.45
495.49	22085.30
495.67	22066.57
495.85	22258.49
496.02	22625.96
496.20	22735.96
496.38	22773.41
496.55	23190.03
496.73	23552.81
496.91	22998.10
497.09	22892.78
497.26	23323.44
497.44	23463.87
497.62	23353.87
497.79	23964.75
497.97	23370.25
498.14	23758.78
498.32	23889.85
498.50	24006.87
498.67	24091.13
498.85	24159.01
499.03	24119.22
499.20	24545.20
499.38	24453.92
499.56	24723.08
499.73	24404.77
499.91	24849.47
500.08	24730.10
500.26	24868.19
500.44	25001.60
500.61	24643.50
500.79	25298.85
500.97	24858.83
501.14	25572.69
501.32	25434.60
501.49	25577.37
501.67	25448.64
501.84	25465.03
502.02	25479.07
502.20	26054.84
502.37	25979.95
502.55	26125.06
502.72	26099.31
502.90	26473.80
503.07	25846.54
503.25	26375.50
503.43	26300.60
503.60	26457.42
503.78	26155.49
503.95	26382.52
504.13	26616.57
504.30	26382.52
504.48	26862.33
504.65	27178.30
504.83	27620.66
505.01	27285.97
505.18	27587.89
505.36	27372.57
505.53	27543.42
505.71	27360.86
505.88	27543.42
506.06	27498.95
506.23	27861.74
506.41	27501.29
506.58	27934.29
506.76	27934.29
506.93	27901.53
507.11	28238.56
507.28	28095.79
507.46	27894.50
507.63	28198.77
507.81	28212.82
507.98	28133.24
508.16	28350.91
508.33	28657.52
508.50	28790.93
508.68	28634.11
508.85	28877.53
509.03	29362.02
509.20	29163.08
509.38	29060.09
509.55	29249.67
509.73	29230.95
509.90	29411.17
510.08	29305.85
510.25	29589.05
510.42	29656.93
510.60	29869.92
510.77	29832.47
510.95	30270.15
511.12	29961.20
511.30	30078.22
511.47	30312.28
511.64	30366.11
511.82	30026.73
511.99	30171.85
512.17	30604.84
512.34	30326.32
512.51	30384.83
512.69	31023.80
512.86	30789.75
513.04	31098.70
513.21	30771.02
513.38	31164.23
513.56	31000.40
513.73	30738.26
513.90	31248.49
514.08	31000.40
514.25	31290.62
514.43	31419.35
514.60	31381.90
514.77	31276.58
514.95	31847.67
515.12	31686.17
515.29	31695.53
515.47	31915.54
515.64	31931.93
515.81	31545.74
515.99	31789.16
516.16	31833.63
516.33	31754.05
516.51	32112.15
516.68	31665.11
516.85	31999.80
517.03	31971.72
517.20	31960.02
517.37	32205.77
517.54	32622.39
517.72	32257.26
517.89	31765.75
518.06	32446.85
518.24	32591.96
518.41	32746.44
518.58	32341.52
518.75	32716.01
518.93	33118.58
519.10	32552.17
519.27	32713.67
519.45	32758.14
519.62	32952.40
519.79	33200.50
519.96	33310.50
520.14	33631.16
520.31	33240.29
520.48	33661.58
520.65	33387.74
520.83	33806.70
521.00	34087.56
521.17	33862.87
521.34	34190.55
521.52	34038.41
521.69	34345.02
521.86	34277.15
522.03	34291.19
522.20	34560.35
522.38	34497.16
522.55	34333.32
522.72	34370.77
522.89	34464.39
523.07	34859.94
523.24	34499.50
523.41	34904.41
523.58	34932.50
523.75	35173.57
523.92	35196.98
524.10	35412.31
524.27	35112.72
524.44	34890.37
524.61	35510.61
524.78	35559.76
524.96	35342.09
525.13	35187.61
525.30	35515.29
525.47	35955.31
525.64	35793.81
525.81	35723.60
525.98	35367.84
526.16	35482.52
526.33	35335.07
526.50	35901.48
526.67	35571.46
526.84	35489.54
527.01	35580.82
527.18	35562.10
527.36	36016.16
527.53	36416.40
527.70	36620.02
527.87	36275.96
528.04	36210.43
528.21	36374.27
528.38	36503.00
528.55	36809.61
528.72	36514.70
528.89	36608.32
529.07	36524.06
529.24	36758.11
529.41	36692.58
529.58	36596.62
529.75	36570.87
529.92	37050.68
530.09	36900.89
530.26	37188.77
530.43	37024.93
530.60	36914.93
530.77	37074.09
530.94	37605.39
531.11	37319.84
531.28	37020.25
531.46	37661.56
531.63	37762.20
531.80	37160.69
531.97	37469.64
532.14	37378.36
532.31	37308.14
532.48	37425.17
532.65	38082.86
532.82	37591.34
532.99	37794.97
533.16	37109.19
533.33	38068.81
533.50	37823.06
533.67	38321.59
533.84	37827.74
534.01	38129.67
534.18	37944.76
534.35	38188.18
534.52	37883.91
534.69	38539.26
534.86	38026.68
535.03	38424.57
535.20	39016.73
535.37	38700.76
535.54	39091.63
535.71	38892.68
535.88	38487.77
536.05	38899.70
536.22	38923.11
536.38	39091.63
536.55	38658.63
536.72	38754.59
536.89	38899.70
537.06	38609.48
537.23	38873.96
537.40	38918.43
537.57	38918.43
537.74	39171.21
537.91	39510.58
538.08	39643.99
538.25	38476.07
538.42	39227.38
538.59	39351.43
538.75	38773.31
538.92	39299.94
539.09	39468.45
539.26	39054.18
539.43	39194.61
539.60	39594.84
539.77	39367.81
539.94	39229.72
540.11	39040.14
540.28	39562.08
540.44	39908.47
540.61	39704.85
540.78	39311.64
540.95	39526.97
541.12	39431.01
541.29	39826.56
541.46	39934.22
541.62	39803.15
541.79	39974.01
541.96	39613.57
542.13	39412.28
542.30	39643.99
542.47	39882.73
542.63	40210.40
542.80	40360.20
542.97	40624.68
543.14	40568.51
543.31	40528.72
543.48	40828.30
543.64	41226.20
543.81	40891.50
543.98	41006.19
544.15	40727.66
544.32	41251.94
544.48	41254.28
544.65	40727.66
544.82	41104.49
544.99	40753.41
545.16	41429.82
545.32	41167.68
545.49	41090.44
545.66	41579.62
545.83	41249.60
546.00	41273.01
546.16	41453.23
546.33	41495.36
546.50	41165.34
546.67	41345.56
546.83	41151.30
547.00	41247.26
547.17	41350.24
547.34	41294.07
547.50	41198.11
547.67	41846.44
547.84	41689.62
548.00	41834.74
548.17	41949.42
548.34	41539.83
548.51	42007.94
548.67	42043.04
548.84	41570.25
549.01	41549.19
549.18	41460.25
549.34	41851.12
549.51	41598.34
549.68	41904.95
549.84	42054.75
550.01	42319.23
550.18	42351.99
550.34	41804.31
550.51	41818.35
550.68	42087.51
550.84	41734.09
551.01	42141.35
551.18	42071.13
551.34	41986.87
551.51	42213.90
551.68	42508.81
551.84	42623.50
552.01	42274.76
552.18	42267.73
552.34	42202.20
552.51	41979.85
552.68	42422.21
552.84	42796.70
553.01	42967.55
553.18	42581.37
553.34	42988.62
553.51	42630.52
553.67	42569.66
553.84	42508.81
554.01	42642.22
554.17	42979.26
554.34	42850.53
554.51	42801.38
554.67	42953.51
554.84	42780.31
555.00	42930.11
555.17	43168.84
555.33	43267.14
555.50	43058.84
555.67	42674.99
555.83	42878.61
556.00	43063.52
556.16	43463.75
556.33	43023.73
556.50	43203.95
556.66	43047.13
556.83	42703.07
556.99	43255.44
557.16	43791.42
557.32	43367.79
557.49	43388.85
557.65	43337.36
557.82	43557.37
557.98	43707.16
558.15	43466.09
558.32	43346.72
558.48	43395.87
558.65	43536.30
558.81	43117.35
558.98	43409.92
559.14	43482.47
559.31	43203.95
559.47	43643.97
559.64	43648.65
559.80	43545.67
559.97	43409.92
560.13	43335.02
560.30	43576.09
560.46	43498.86
560.63	43337.36
560.79	43885.04
560.96	44037.18
561.12	43526.94
561.29	43529.28
561.45	43791.42
561.61	43344.38
561.78	43632.27
561.94	43819.51
562.11	43887.39
562.27	43936.54
562.44	44058.24
562.60	43789.08
562.77	44116.76
562.93	44165.91
563.10	43885.04
563.26	43477.79
563.42	43971.64
563.59	43323.32
563.75	43838.23
563.92	43723.55
564.08	44018.46
564.24	44156.55
564.41	43985.69
564.57	43419.28
564.74	43952.92
564.90	44091.01
565.07	44191.65
565.23	44046.54
565.39	44053.56
565.56	44025.48
565.72	44229.10
565.88	44383.58
566.05	44074.63
566.21	44399.96
566.38	44238.47
566.54	44006.75
566.70	44566.14
566.87	44570.82
567.03	44488.90
567.19	44587.21
567.36	44245.49
567.52	44383.58
567.68	44046.54
567.85	44083.99
568.01	44189.31
568.17	43981.01
568.34	44315.70
568.50	44587.21
568.66	43959.94
568.83	44093.35
568.99	43978.67
569.15	44236.12
569.32	44076.97
569.48	43906.11
569.64	44619.97
569.81	44217.40
569.97	44306.34
570.13	44215.06
570.30	44144.84
570.46	44189.31
570.62	44196.34
570.78	44210.38
570.95	44074.63
571.11	44299.32
571.27	44533.37
571.43	44208.04
571.60	44266.55
571.76	44275.91
571.92	44135.48
572.09	44362.51
572.25	44416.35
572.41	44154.21
572.57	44514.65
572.74	44491.24
572.90	44526.35
573.06	44648.06
573.22	44577.84
573.38	44432.73
573.55	44250.17
573.71	44516.99
573.87	44470.18
574.03	44676.15
574.20	44814.24
574.36	44493.58
574.52	44467.84
574.68	44678.49
574.84	44807.22
575.01	44287.62
575.17	44634.02
575.33	44004.41
575.49	44259.53
575.65	44339.11
575.82	44783.81
575.98	44266.55
576.14	44905.52
576.30	44968.71
576.46	44500.61
576.62	44383.58
576.79	44423.37
576.95	44470.18
577.11	44500.61
577.27	44416.35
577.43	44603.59
577.59	44502.95
577.75	44575.50
577.92	44004.41
578.08	44264.21
578.24	44311.02
578.40	44465.50
578.56	44514.65
578.72	44795.51
578.88	44746.36
579.04	44531.03
579.21	44493.58
579.37	44727.64
579.53	44987.44
579.69	44704.23
579.85	44435.07
580.01	44907.86
580.17	44786.15
580.33	44985.10
580.49	44371.88
580.65	44886.79
580.82	44851.69
580.98	44519.33
581.14	44486.56
581.30	45034.25
581.46	44622.31
581.62	45008.50
581.78	44706.57
581.94	44250.17
582.10	44416.35
582.26	44449.11
582.42	44919.56
582.58	44362.51
582.74	44678.49
582.90	45172.34
583.06	44968.71
583.22	44863.39
583.38	45350.22
583.54	44643.38
583.70	44828.28
583.86	44872.75
584.02	44772.11
584.18	44669.12
584.34	44364.85
584.50	44374.22
584.66	44570.82
584.82	44374.22
584.98	44844.66
585.14	44825.94
585.30	44603.59
585.46	44987.44
585.62	44629.34
585.78	44949.99
585.94	44425.71
586.10	44720.62
586.26	44692.53
586.42	45268.30
586.58	44945.31
586.74	44947.65
586.90	44804.88
587.06	44788.49
587.22	44421.03
587.38	44322.72
587.54	44727.64
587.70	44673.81
587.86	44872.75
588.02	44744.02
588.18	45256.60
588.34	45020.20
588.49	44362.51
588.65	44355.49
588.81	44540.39
588.97	44772.11
589.13	44201.02
589.29	44669.12
589.45	44821.26
589.61	44430.39
589.77	44818.92
589.93	44680.83
590.08	44839.98
590.24	44669.12
