SpectraSuite Data File
++++++++++++++++++++++++++++++++++++
Date: Fri Oct 25 11:25:25 EDT 2013
User: price-jones
Dark Spectrum Present: No
Reference Spectrum Present: No
Number of Sampled Component Spectra: 1
Spectrometers: USB2+H05261
Integration Time (usec): 100000 (USB2+H05261)
Spectra Averaged: 1 (USB2+H05261)
Boxcar Smoothing: 0 (USB2+H05261)
Correct for Electrical Dark: No (USB2+H05261)
Strobe/Lamp Enabled: No (USB2+H05261)
Correct for Detector Non-linearity: No (USB2+H05261)
Correct for Stray Light: No (USB2+H05261)
Number of Pixels in Processed Spectrum: 2048
>>>>>Begin Processed Spectral Data<<<<<
365.73	285.55
365.92	285.55
366.12	285.55
366.32	149.79
366.52	105.32
366.72	166.18
366.91	212.99
367.11	140.43
367.31	58.51
367.51	142.77
367.70	142.77
367.90	196.60
368.10	166.18
368.30	142.77
368.49	91.28
368.69	168.52
368.89	194.26
369.09	138.09
369.28	173.20
369.48	191.92
369.68	152.13
369.87	252.78
370.07	177.88
370.27	304.27
370.47	332.36
370.66	613.22
370.86	699.82
371.06	587.47
371.25	734.93
371.45	629.60
371.65	667.05
371.84	716.20
372.04	704.50
372.24	578.11
372.44	657.69
372.63	767.70
372.83	706.84
373.03	720.88
373.22	739.61
373.42	772.38
373.62	819.19
373.81	779.40
374.01	830.89
374.21	809.83
374.40	842.59
374.60	849.61
374.79	751.31
374.99	744.29
375.19	903.45
375.38	898.77
375.58	844.93
375.78	795.78
375.97	840.25
376.17	922.17
376.37	943.24
376.56	868.34
376.76	858.98
376.95	851.96
377.15	898.77
377.35	882.38
377.54	1020.47
377.74	861.32
377.93	851.96
378.13	877.70
378.33	863.66
378.52	910.47
378.72	877.70
378.91	966.64
379.11	971.32
379.31	924.51
379.50	945.58
379.70	1022.81
379.89	985.37
380.09	901.11
380.28	940.90
380.48	1004.09
380.68	915.15
380.87	987.71
381.07	922.17
381.26	1062.60
381.46	997.07
381.65	1001.75
381.85	1015.79
382.04	1144.52
382.24	1111.75
382.43	1064.94
382.63	1064.94
382.83	1121.12
383.02	1118.78
383.22	1128.14
383.41	1062.60
383.61	1104.73
383.80	1008.77
384.00	1090.69
384.19	1118.78
384.39	1174.95
384.58	1153.88
384.78	1071.97
384.97	1210.06
385.17	1097.71
385.36	1153.88
385.56	1118.78
385.75	1132.82
385.95	1165.59
386.14	1221.76
386.34	1184.31
386.53	1238.14
386.72	1163.25
386.92	1277.93
387.11	1205.38
387.31	1191.33
387.50	1198.35
387.70	1252.19
387.89	1207.72
388.09	1277.93
388.28	1224.10
388.48	1263.89
388.67	1409.00
388.86	1261.55
389.06	1275.59
389.25	1291.98
389.45	1366.87
389.64	1331.76
389.84	1263.89
390.03	1425.39
390.22	1355.17
390.42	1453.47
390.61	1350.49
390.81	1291.98
391.00	1432.41
391.19	1488.58
391.39	1420.71
391.58	1540.07
391.78	1401.98
391.97	1458.15
392.16	1486.24
392.36	1617.31
392.55	1516.67
392.75	1493.26
392.94	1481.56
393.13	1504.96
393.33	1497.94
393.52	1591.56
393.71	1549.43
393.91	1544.75
394.10	1621.99
394.29	1577.52
394.49	1511.99
394.68	1633.69
394.88	1650.08
395.07	1666.46
395.26	1694.55
395.46	1724.97
395.65	1741.36
395.84	1650.08
396.04	1743.70
396.23	1722.63
396.42	1729.66
396.62	1846.68
396.81	1776.47
397.00	1638.38
397.19	1678.16
397.39	1692.21
397.58	1830.30
397.77	1816.26
397.97	1830.30
398.16	1863.07
398.35	1856.04
398.55	1804.55
398.74	1879.45
398.93	1877.11
399.12	1947.33
399.32	1898.17
399.51	1954.35
399.70	1849.02
399.90	1947.33
400.09	1902.86
400.28	2036.27
400.47	2015.20
400.67	2033.93
400.86	2008.18
401.05	2017.54
401.24	2129.89
401.44	2101.80
401.63	2101.80
401.82	2015.20
402.01	2162.66
402.21	2172.02
402.40	2139.25
402.59	2253.94
402.78	2270.32
402.97	2146.27
403.17	2235.21
403.36	2298.41
403.55	2221.17
403.74	2340.54
403.93	2359.26
404.13	2272.66
404.32	2249.25
404.51	2352.24
404.70	2452.88
404.89	2396.71
405.09	2401.39
405.28	2513.74
405.47	2471.61
405.66	2443.52
405.85	2361.60
406.05	2429.48
406.24	2469.27
406.43	2579.27
406.62	2626.08
406.81	2614.38
407.00	2602.68
407.20	2431.82
407.39	2647.15
407.58	2642.46
407.77	2745.45
407.96	2745.45
408.15	2796.94
408.34	2691.62
408.54	2719.70
408.73	2693.96
408.92	2651.83
409.11	2799.28
409.30	2789.92
409.49	2843.75
409.68	2991.20
409.87	2906.95
410.07	2881.20
410.26	3070.78
410.45	2995.89
410.64	3094.19
410.83	3143.34
411.02	3159.72
411.21	3063.76
411.40	3091.85
411.59	3066.10
411.78	3145.68
411.98	3014.61
412.17	3222.92
412.36	3110.57
412.55	3325.90
412.74	3398.46
412.93	3276.75
413.12	3159.72
413.31	3344.63
413.50	3471.01
413.69	3438.25
413.88	3510.80
414.07	3576.34
414.26	3709.75
414.45	3529.53
414.64	3735.50
414.83	3609.11
415.02	3801.03
415.22	3784.65
415.41	3896.99
415.60	3854.86
415.79	3733.15
415.98	3894.65
416.17	3978.91
416.36	3896.99
416.55	4016.36
416.74	4030.40
416.93	4056.15
417.12	4124.02
417.31	4032.74
417.50	4161.47
417.69	4198.92
417.88	4287.86
418.07	4227.01
418.26	4187.22
418.45	4255.09
418.64	4409.57
418.83	4442.34
419.02	4503.19
419.21	4564.04
419.39	4341.69
419.58	4400.21
419.77	4395.53
419.96	4512.55
420.15	4641.28
420.34	4631.92
420.53	4482.13
420.72	4716.18
420.91	4557.02
421.10	4535.96
421.29	4610.86
421.48	4706.82
421.67	4753.63
421.86	4880.02
422.05	4823.84
422.24	4830.87
422.43	4887.04
422.61	4954.91
422.80	4898.74
422.99	4922.15
423.18	5006.41
423.37	4959.60
423.56	4880.02
423.75	4933.85
423.94	4887.04
424.13	4580.43
424.32	4739.58
424.50	4990.02
424.69	5083.64
424.88	4894.06
425.07	4943.21
425.26	4880.02
425.45	4943.21
425.64	5020.45
425.83	4950.23
426.01	5020.45
426.20	4954.91
426.39	5062.58
426.58	4940.87
426.77	5011.09
426.96	4950.23
427.15	5097.69
427.33	5235.78
427.52	5011.09
427.71	5313.02
427.90	5259.18
428.09	5408.98
428.28	5357.49
428.46	5310.68
428.65	5259.18
428.84	5434.72
429.03	5462.81
429.22	5322.38
429.40	5528.35
429.59	5551.75
429.78	5151.52
429.97	5303.65
430.16	5434.72
430.34	5706.23
430.53	5593.88
430.72	5497.92
430.91	5589.20
431.10	5572.82
431.28	5748.36
431.47	5755.38
431.66	5706.23
431.85	5863.04
432.03	5738.99
432.22	5954.32
432.41	5774.10
432.60	5942.62
432.79	5933.26
432.97	5884.11
433.16	5937.94
433.35	5942.62
433.54	6101.78
433.72	6164.97
433.91	5973.05
434.10	6043.26
434.28	5982.41
434.47	6080.71
434.66	6204.76
434.85	6183.70
435.03	6207.10
435.22	6342.85
435.41	6473.92
435.59	6338.17
435.78	6373.28
435.97	6525.41
436.16	6317.11
436.34	6286.68
436.53	6373.28
436.72	6494.99
436.90	6356.90
437.09	6548.82
437.28	6293.70
437.46	6530.09
437.65	6448.18
437.84	6855.43
438.02	6555.84
438.21	6686.91
438.40	6544.14
438.58	6841.39
438.77	6698.61
438.96	6792.23
439.14	6843.73
439.33	6995.86
439.52	7110.55
439.70	7124.59
439.89	7164.38
440.08	7260.34
440.26	7342.26
440.45	7087.14
440.63	7372.69
440.82	7492.05
441.01	7379.71
441.19	7634.83
441.38	7529.50
441.57	7719.09
441.75	7829.09
441.94	7974.21
442.12	7784.62
442.31	7798.66
442.50	7943.78
442.68	7992.93
442.87	7819.73
443.05	8107.62
443.24	8126.34
443.43	7969.52
443.61	8086.55
443.80	8365.07
443.98	8023.36
444.17	7878.24
444.35	8248.05
444.54	8557.00
444.73	8191.88
444.91	8250.39
445.10	8287.84
445.28	8468.06
445.47	8051.44
445.65	8231.66
445.84	8250.39
446.02	8601.47
446.21	8346.35
446.39	8393.16
446.58	8477.42
446.77	8369.76
446.95	8245.71
447.14	8477.42
447.32	8603.81
447.51	8510.19
447.69	8362.73
447.88	8489.12
448.06	8355.71
448.25	8463.38
448.43	8339.33
448.62	8557.00
448.80	8496.14
448.99	8479.76
449.17	8503.17
449.36	8449.33
449.54	8800.41
449.73	8760.63
449.91	8870.63
450.10	8975.95
450.28	9114.05
450.46	8992.34
450.65	8762.97
450.83	8924.46
451.02	8961.91
451.20	9111.71
451.39	8990.00
451.57	9088.30
451.76	9046.17
451.94	9050.85
452.13	9284.91
452.31	9135.11
452.49	9191.28
452.68	9261.50
452.86	9205.33
453.05	9249.80
453.23	9284.91
453.42	9085.96
453.60	9095.32
453.78	9394.91
453.97	9390.23
454.15	9298.95
454.34	9352.78
454.52	9640.67
454.70	9455.76
454.89	9547.05
455.07	9785.78
455.26	9802.16
455.44	9980.04
455.62	9881.74
455.81	9556.41
455.99	9804.50
456.17	9982.38
456.36	9980.04
456.54	10003.45
456.73	10237.50
456.91	10232.82
457.09	10080.69
457.28	10375.59
457.46	10286.65
457.64	10415.38
457.83	10431.77
458.01	10384.96
458.19	10707.95
458.38	10499.64
458.56	10738.38
458.74	10544.11
458.93	10572.20
459.11	10581.56
459.29	10696.25
459.48	10754.76
459.66	10698.59
459.84	10970.09
460.03	10885.83
460.21	10850.72
460.39	10897.53
460.57	10637.73
460.76	10867.11
460.94	10984.13
461.12	11105.84
461.31	10904.56
461.49	11094.14
461.67	11255.64
461.85	11145.63
462.04	11119.89
462.22	11721.40
462.40	11344.58
462.59	11566.93
462.77	11541.18
462.95	11592.67
463.13	11573.95
463.32	11552.88
463.50	11604.38
463.68	11604.38
463.86	11363.30
464.05	11655.87
464.23	11527.14
464.41	11793.96
464.59	11672.25
464.78	12063.12
464.96	11744.81
465.14	11655.87
465.32	12189.51
465.50	12182.49
465.69	11990.56
465.87	11779.92
466.05	12156.74
466.23	12074.82
466.41	12198.87
466.60	12203.55
466.78	11971.84
466.96	11866.52
467.14	11878.22
467.32	12147.38
467.51	12376.75
467.69	12163.76
467.87	12552.29
468.05	12400.16
468.23	12219.94
468.41	12407.18
468.60	12552.29
468.78	12571.02
468.96	12580.38
469.14	12629.53
469.32	12898.69
469.50	12482.08
469.69	12889.33
469.87	12896.35
470.05	12828.48
470.23	12894.01
470.41	12968.91
470.59	12954.87
470.77	13214.66
470.95	13284.88
471.14	13537.66
471.32	13043.81
471.50	13451.06
471.68	13790.44
471.86	13507.23
472.04	13647.66
472.22	13734.26
472.40	13451.06
472.58	13724.90
472.77	13848.95
472.95	14087.68
473.13	14700.90
473.31	13692.13
473.49	13832.57
473.67	13898.10
473.85	14270.25
474.03	14176.62
474.21	14635.37
474.39	14672.82
474.57	14307.69
474.75	14572.18
474.93	14726.65
475.12	14771.12
475.30	14960.70
475.48	15073.05
475.66	14822.61
475.84	14958.36
476.02	15080.07
476.20	15075.39
476.38	15475.62
476.56	15758.83
476.74	15550.52
476.92	15592.65
477.10	15674.57
477.28	15915.64
477.46	15831.38
477.64	16070.12
477.82	16301.83
478.00	16786.32
478.18	16603.76
478.36	16840.15
478.54	17071.87
478.72	16947.82
478.90	17224.00
479.08	17394.86
479.26	17362.09
479.44	17565.72
479.62	17621.89
479.80	17848.93
479.98	17797.43
480.16	18459.81
480.34	18239.79
480.52	18410.65
480.70	18621.30
480.88	18424.70
481.06	18750.03
481.24	18698.54
481.41	19150.26
481.59	18991.11
481.77	19229.84
481.95	19328.14
482.13	19496.66
482.31	19330.48
482.49	20058.39
482.67	19964.77
482.85	20147.33
483.03	20212.87
483.21	20547.56
483.39	20891.62
483.57	20418.83
483.74	20680.97
483.92	21408.88
484.10	20849.49
484.28	21312.92
484.46	21502.50
484.64	22305.31
484.82	21771.66
485.00	22209.34
485.18	22560.42
485.35	22693.83
485.53	22691.49
485.71	22742.99
485.89	22906.82
486.07	23000.44
486.25	23105.77
486.43	23257.90
486.61	23545.79
486.78	23791.55
486.96	24009.22
487.14	24264.33
487.32	24247.95
487.50	24470.30
487.68	24847.13
487.85	24830.74
488.03	25193.53
488.21	25359.70
488.39	25692.06
488.57	25855.90
488.75	25942.50
488.92	26188.25
489.10	26295.92
489.28	26223.36
489.46	27253.20
489.64	26960.63
489.81	27328.10
489.99	27695.56
490.17	27477.89
490.35	27927.27
490.53	27758.75
490.70	28112.17
490.88	28360.27
491.06	28545.17
491.24	28215.16
491.41	28814.34
491.59	29036.69
491.77	29127.97
491.95	29090.52
492.13	29205.20
492.30	29748.21
492.48	29722.46
492.66	30132.06
492.84	29837.15
493.01	30171.85
493.19	30373.13
493.37	30389.52
493.54	30698.47
493.72	31634.68
493.90	31466.16
494.08	31484.89
494.25	31505.95
494.43	31700.22
494.61	31676.81
494.79	32084.06
494.96	32292.37
495.14	32275.99
495.32	33006.23
495.49	32701.96
495.67	32924.32
495.85	32884.53
496.02	33352.63
496.20	33493.07
496.38	33425.19
496.55	33628.82
496.73	34808.45
496.91	33984.58
497.09	34424.60
497.26	34668.02
497.44	34408.22
497.62	35257.83
497.79	35304.64
497.97	34974.63
498.14	35482.52
498.32	35709.55
498.50	35913.18
498.67	36175.32
498.85	36212.77
499.03	35854.67
499.20	36191.70
499.38	36570.87
499.56	36664.49
499.73	36737.05
499.91	36959.40
500.08	37240.26
500.26	36767.48
500.44	37399.42
500.61	37663.90
500.79	37046.00
500.97	37757.52
501.14	37972.85
501.32	38148.39
501.49	38227.97
501.67	38309.89
501.84	38883.32
502.02	38642.24
502.20	39061.20
502.37	38902.04
502.55	39203.97
502.72	38962.90
502.90	39173.55
503.07	39384.19
503.25	39391.22
503.43	39346.75
503.60	40069.97
503.78	39875.71
503.95	39751.66
504.13	40201.04
504.30	40336.79
504.48	39910.82
504.65	40568.51
504.83	40514.67
505.01	40957.03
505.18	40917.25
505.36	41296.41
505.53	41195.77
505.71	41275.35
505.88	41797.29
506.06	41230.88
506.23	41469.61
506.41	41567.91
506.58	41467.27
506.76	41895.59
506.93	41818.35
507.11	41537.49
507.28	42293.48
507.46	42270.08
507.63	42347.31
507.81	43065.86
507.98	42733.50
508.16	42850.53
508.33	42808.40
508.50	43257.78
508.68	43339.70
508.85	43555.03
509.03	43344.38
509.20	43824.19
509.38	44048.88
509.55	43856.96
509.73	43686.10
509.90	44133.14
510.08	44044.20
510.25	44264.21
510.42	44498.26
510.60	44683.17
510.77	44680.83
510.95	44837.64
511.12	44491.24
511.30	44921.90
511.47	44912.54
511.64	44912.54
511.82	45221.49
511.99	45265.96
512.17	45841.73
512.34	45502.35
512.51	45909.61
512.69	46188.13
512.86	45991.53
513.04	46136.64
513.21	46174.09
513.38	46265.37
513.56	46361.33
513.73	46562.62
513.90	46508.79
514.08	46366.01
514.25	46628.15
514.43	46593.04
514.60	47114.98
514.77	46803.69
514.95	47089.24
515.12	47122.01
515.29	47248.39
515.47	47562.03
515.64	47868.64
515.81	47468.40
515.99	47819.49
516.16	48222.06
516.33	48072.26
516.51	48402.28
516.68	48369.51
516.85	47945.87
517.03	48357.81
517.20	48453.77
517.37	48591.86
517.54	48662.08
517.72	48528.67
517.89	48444.41
518.06	49050.61
518.24	48704.21
518.41	48736.98
518.58	49003.80
518.75	48828.26
518.93	49041.24
519.10	49165.29
519.27	49677.87
519.45	49242.53
519.62	49579.57
519.79	49284.66
519.96	49680.21
520.14	49698.94
520.31	49883.84
520.48	50148.32
520.65	49982.14
520.83	50068.74
521.00	50155.34
521.17	50504.08
521.34	50569.61
521.52	50681.96
521.69	50637.49
521.86	50574.30
522.03	50904.31
522.20	50761.54
522.38	51194.54
522.55	51250.71
522.72	51246.03
522.89	50756.86
523.07	51257.73
523.24	51426.25
523.41	51400.50
523.58	51213.26
523.75	51508.17
523.92	51367.74
524.10	51620.52
524.27	51896.70
524.44	51531.57
524.61	51543.28
524.78	52018.41
524.96	52205.65
525.13	51955.21
525.30	52121.39
525.47	52189.27
525.64	52083.94
525.81	52165.86
525.98	52390.55
526.16	52325.02
526.33	52207.99
526.50	52603.54
526.67	52528.64
526.84	52832.91
527.01	52596.52
527.18	52437.36
527.36	52837.59
527.53	52648.01
527.70	52844.62
527.87	53022.50
528.04	52706.52
528.21	52739.29
528.38	53169.95
528.55	53282.30
528.72	53193.36
528.89	53158.25
529.07	53137.18
529.24	53099.73
529.41	53577.20
529.58	53343.15
529.75	53247.19
529.92	53331.45
530.09	53560.82
530.26	53640.40
530.43	53813.60
530.60	53443.79
530.77	53727.00
530.94	53750.40
531.11	53411.02
531.28	53811.26
531.46	53869.77
531.63	53815.94
531.80	54026.59
531.97	53984.46
532.14	54000.84
532.31	54096.80
532.48	54042.97
532.65	54417.46
532.82	54255.96
532.99	54356.60
533.16	54365.96
533.33	54473.63
533.50	54396.39
533.67	54585.97
533.84	54429.16
534.01	54480.65
534.18	54593.00
534.35	54890.24
534.52	54808.32
534.69	54780.24
534.86	54698.32
535.03	54621.08
535.20	54986.21
535.37	55143.02
535.54	55171.11
535.71	54794.28
535.88	55271.75
536.05	55255.37
536.22	55311.54
536.38	55381.76
536.55	55297.50
536.72	55157.06
536.89	55253.03
537.06	55348.99
537.23	55463.67
537.40	55489.42
537.57	55531.55
537.74	55641.56
537.91	55711.77
538.08	55613.47
538.25	55384.10
538.42	55451.97
538.59	55800.71
538.75	55578.36
538.92	55700.07
539.09	55751.56
539.26	55781.99
539.43	55931.78
539.60	56002.00
539.77	55838.16
539.94	55938.80
540.11	56214.99
540.28	56170.52
540.44	56121.37
540.61	56226.69
540.78	56121.37
540.95	56090.94
541.12	56144.77
541.29	56254.78
541.46	56322.65
541.62	56427.98
541.79	56238.39
541.96	56147.11
542.13	56217.33
542.30	56303.93
542.47	56383.51
542.63	56430.32
542.80	56530.96
542.97	56694.80
543.14	57029.49
543.31	56968.64
543.48	56832.89
543.64	57153.54
543.81	57193.33
543.98	57095.03
544.15	57083.33
544.32	57106.73
544.48	57137.16
544.65	57099.71
544.82	57137.16
544.99	57038.86
545.16	57120.77
545.32	57190.99
545.49	57418.02
545.66	57406.32
545.83	57275.25
546.00	57588.88
546.16	57525.69
546.33	57406.32
546.50	57062.26
546.67	57752.72
546.83	57198.01
547.00	57565.48
547.17	57474.20
547.34	57609.95
547.50	57829.96
547.67	57806.55
547.84	57687.18
548.00	57839.32
548.17	58035.92
548.34	57626.33
548.51	57886.13
548.67	58000.82
548.84	58014.86
549.01	58056.99
549.18	57897.83
549.34	58028.90
549.51	57869.75
549.68	58038.26
549.84	57822.93
550.01	58080.39
550.18	57993.79
550.34	58220.83
550.51	58337.85
550.68	58047.63
550.84	58092.10
551.01	58234.87
551.18	58354.24
551.34	58379.98
551.51	58408.07
551.68	58347.21
551.84	58588.29
552.01	58241.89
552.18	58571.91
552.34	58237.21
552.51	58387.00
552.68	58379.98
552.84	58475.94
553.01	58864.47
553.18	58686.59
553.34	58740.42
553.51	58651.48
553.67	58623.40
553.84	58602.33
554.01	58777.87
554.17	58742.77
554.34	58787.24
554.51	58866.81
554.67	58738.08
554.84	58763.83
555.00	58878.52
555.17	58787.24
555.33	58852.77
555.50	58752.13
555.67	58695.95
555.83	58878.52
556.00	58859.79
556.16	59435.56
556.33	59065.76
556.50	58976.82
556.66	58939.37
556.83	58892.56
556.99	59217.89
557.16	59318.54
557.32	59236.62
557.49	59463.65
557.65	59110.23
557.82	58894.90
557.98	59145.34
558.15	59339.60
558.32	59323.22
558.48	59241.30
558.65	59323.22
558.81	59217.89
558.98	59341.94
559.14	59316.20
559.31	59451.95
559.47	59451.95
559.64	59379.39
559.80	59557.27
559.97	59613.44
560.13	59407.48
560.30	59407.48
560.46	59496.42
560.63	59657.91
560.79	59576.00
560.96	59772.60
561.12	59449.61
561.29	59487.06
561.45	59604.08
561.61	59435.56
561.78	59578.34
561.94	59601.74
562.11	59662.60
562.27	59676.64
562.44	59906.01
562.60	59758.56
562.77	59704.73
562.93	59578.34
563.10	59880.27
563.26	59728.13
563.42	59894.31
563.59	59746.86
563.75	59831.11
563.92	59868.56
564.08	59742.17
564.24	59941.12
564.41	59833.46
564.57	60025.38
564.74	59950.48
564.90	59831.11
565.07	59906.01
565.23	59969.21
565.39	59948.14
565.56	59962.18
565.72	59772.60
565.88	59807.71
566.05	59821.75
566.21	59969.21
566.38	59992.61
566.54	59990.27
566.70	60210.28
566.87	60083.89
567.03	59737.49
567.19	60046.44
567.36	59983.25
567.52	60074.53
567.68	60463.06
567.85	60020.70
568.01	60376.46
568.17	60102.62
568.34	60191.56
568.50	59985.59
568.66	60081.55
568.83	60367.10
568.99	59945.80
569.15	60217.30
569.32	59943.46
569.48	60252.41
569.64	60214.96
569.81	60179.85
569.97	60048.78
570.13	60460.72
570.30	60135.38
570.46	60341.35
570.62	60285.18
570.78	60289.86
570.95	60350.71
571.11	60287.52
571.27	60273.48
571.43	60416.25
571.60	60409.23
571.76	60163.47
571.92	60331.99
572.09	60336.67
572.25	60402.21
572.41	60411.57
572.57	60406.89
572.74	60535.62
572.90	60327.31
573.06	60463.06
573.22	60371.78
573.38	60425.61
573.55	60179.85
573.71	60437.31
573.87	60479.44
574.03	60472.42
574.20	60512.21
574.36	60369.44
574.52	60603.49
574.68	60725.20
574.84	60713.50
575.01	60537.96
575.17	60406.89
575.33	60427.95
575.49	60423.27
575.65	60418.59
575.82	60673.71
575.98	60580.09
576.14	60910.10
576.30	60598.81
576.46	60591.79
576.62	60554.34
576.79	60488.80
576.95	60381.14
577.11	60657.32
577.27	60584.77
577.43	60523.91
577.59	60439.65
577.75	60493.49
577.92	60425.61
578.08	60559.02
578.24	60715.84
578.40	60636.26
578.56	60886.70
578.72	60500.51
578.88	60720.52
579.04	60849.25
579.21	60699.45
579.37	60917.12
579.53	60814.14
579.69	60416.25
579.85	60488.80
580.01	60500.51
580.17	60446.68
580.33	60748.60
580.49	60853.93
580.65	60814.14
580.82	60722.86
580.98	60589.45
581.14	60654.98
581.30	60837.54
581.46	60629.24
581.62	60685.41
581.78	60439.65
581.94	60699.45
582.10	60704.13
582.26	60640.94
582.42	60580.09
582.58	60685.41
582.74	60666.69
582.90	60769.67
583.06	60629.24
583.22	60458.38
583.38	60640.94
583.54	60750.94
583.70	60570.72
583.86	60879.67
584.02	60678.39
584.18	60928.83
584.34	60802.44
584.50	60811.80
584.66	60797.76
584.82	60631.58
584.98	60889.04
585.14	61027.13
585.30	60481.78
585.46	60860.95
585.62	60711.16
585.78	61008.40
585.94	60713.50
586.10	60767.33
586.26	60851.59
586.42	60828.18
586.58	60760.31
586.74	60769.67
586.90	60874.99
587.06	60905.42
587.22	60886.70
587.38	60762.65
587.54	61041.17
587.70	61008.40
587.86	60708.82
588.02	60938.19
588.18	61041.17
588.34	60804.78
588.49	60741.58
