SpectraSuite Data File
++++++++++++++++++++++++++++++++++++
Date: Fri Oct 25 10:43:51 EDT 2013
User: price-jones
Dark Spectrum Present: No
Reference Spectrum Present: No
Number of Sampled Component Spectra: 1
Spectrometers: USB2+H05261
Integration Time (usec): 100000 (USB2+H05261)
Spectra Averaged: 1 (USB2+H05261)
Boxcar Smoothing: 0 (USB2+H05261)
Correct for Electrical Dark: No (USB2+H05261)
Strobe/Lamp Enabled: No (USB2+H05261)
Correct for Detector Non-linearity: No (USB2+H05261)
Correct for Stray Light: No (USB2+H05261)
Number of Pixels in Processed Spectrum: 2048
>>>>>Begin Processed Spectral Data<<<<<
365.73	135.75
365.92	135.75
366.12	135.75
366.32	39.79
366.52	0.00
366.72	32.77
366.91	14.04
367.11	56.17
367.31	11.70
367.51	44.47
367.70	16.38
367.90	65.54
368.10	77.24
368.30	0.00
368.49	0.00
368.69	46.81
368.89	0.00
369.09	0.00
369.28	77.24
369.48	7.02
369.68	163.84
369.87	44.47
370.07	58.51
370.27	84.26
370.47	145.11
370.66	348.74
370.86	355.76
371.06	388.53
371.25	395.55
371.45	433.00
371.65	440.02
371.84	425.98
372.04	353.42
372.24	519.60
372.44	482.15
372.63	617.90
372.83	571.09
373.03	489.17
373.22	470.45
373.42	535.98
373.62	603.86
373.81	503.22
374.01	547.69
374.21	571.09
374.40	423.64
374.60	580.45
374.79	531.30
374.99	479.81
375.19	613.22
375.38	702.16
375.58	559.39
375.78	650.67
375.97	568.75
376.17	653.01
376.37	608.54
376.56	615.56
376.76	589.82
376.95	547.69
377.15	585.13
377.35	648.33
377.54	676.41
377.74	617.90
377.93	650.67
378.13	608.54
378.33	624.92
378.52	622.58
378.72	688.12
378.91	681.10
379.11	660.03
379.31	631.94
379.50	575.77
379.70	711.52
379.89	692.80
380.09	667.05
380.28	720.88
380.48	699.82
380.68	699.82
380.87	681.10
381.07	702.16
381.26	683.44
381.46	683.44
381.65	753.65
381.85	662.37
382.04	713.86
382.24	779.40
382.43	725.57
382.63	720.88
382.83	683.44
383.02	802.80
383.22	755.99
383.41	753.65
383.61	711.52
383.80	781.74
384.00	772.38
384.19	730.25
384.39	847.27
384.58	828.55
384.78	791.10
384.97	777.06
385.17	734.93
385.36	922.17
385.56	765.36
385.75	781.74
385.95	753.65
386.14	798.12
386.34	837.91
386.53	821.53
386.72	833.23
386.92	976.00
387.11	1001.75
387.31	880.04
387.50	837.91
387.70	770.04
387.89	898.77
388.09	830.89
388.28	889.40
388.48	849.61
388.67	959.62
388.86	983.02
389.06	968.98
389.25	1013.45
389.45	1043.88
389.64	971.32
389.84	954.94
390.03	1001.75
390.22	1025.15
390.42	1090.69
390.61	1006.43
390.81	1057.92
391.00	1036.86
391.19	1100.05
391.39	1039.20
391.58	1041.54
391.78	1090.69
391.97	1083.67
392.16	1090.69
392.36	1057.92
392.55	910.47
392.75	954.94
392.94	901.11
393.13	1025.15
393.33	945.58
393.52	1060.26
393.71	1093.03
393.91	1102.39
394.10	1163.25
394.29	1102.39
394.49	1151.54
394.68	1142.18
394.88	1270.91
395.07	1210.06
395.26	1254.53
395.46	1327.08
395.65	1315.38
395.84	1193.67
396.04	1242.82
396.23	1196.01
396.42	1214.74
396.62	1303.68
396.81	1132.82
397.00	1261.55
397.19	1362.19
397.39	1254.53
397.58	1369.21
397.77	1338.79
397.97	1427.73
398.16	1441.77
398.35	1427.73
398.55	1453.47
398.74	1596.25
398.93	1511.99
399.12	1444.11
399.32	1537.73
399.51	1579.86
399.70	1551.78
399.90	1591.56
400.09	1572.84
400.28	1626.67
400.47	1659.44
400.67	1617.31
400.86	1528.37
401.05	1647.74
401.24	1713.27
401.44	1739.02
401.63	1687.53
401.82	1739.02
402.01	1685.19
402.21	1834.98
402.40	1799.87
402.59	1776.47
402.78	1825.62
402.97	1621.99
403.17	1907.54
403.36	1785.83
403.55	1867.75
403.74	1898.17
403.93	1832.64
404.13	1870.09
404.32	1933.28
404.51	1895.83
404.70	1956.69
404.89	1893.49
405.09	2111.16
405.28	1930.94
405.47	1980.09
405.66	2001.16
405.85	1921.58
406.05	2033.93
406.24	2052.65
406.43	2001.16
406.62	2087.76
406.81	2202.44
407.00	2054.99
407.20	2008.18
407.39	2052.65
407.58	2179.04
407.77	2209.47
407.96	2303.09
408.15	2239.89
408.34	2317.13
408.54	2277.34
408.73	2265.64
408.92	2289.04
409.11	2270.32
409.30	2167.34
409.49	2235.21
409.68	2305.43
409.87	2303.09
410.07	2312.45
410.26	2363.94
410.45	2370.96
410.64	2499.69
410.83	2408.41
411.02	2626.08
411.21	2616.72
411.40	2621.40
411.59	2630.76
411.78	2689.28
411.98	2548.84
412.17	2560.55
412.36	2658.85
412.55	2780.56
412.74	2806.30
412.93	2752.47
413.12	2689.28
413.31	2995.89
413.50	2738.43
413.69	2843.75
413.88	2932.69
414.07	2965.46
414.26	2956.10
414.45	2970.14
414.64	2942.05
414.83	2979.50
415.02	3115.25
415.22	3211.22
415.41	3197.17
415.60	3150.36
415.79	3236.96
415.98	3227.60
416.17	3318.88
416.36	3159.72
416.55	3215.90
416.74	3295.47
416.93	3311.86
417.12	3269.73
417.31	3466.33
417.50	3295.47
417.69	3478.04
417.88	3480.38
418.07	3368.03
418.26	3431.23
418.45	3396.12
418.64	3461.65
418.83	3583.36
419.02	3581.02
419.21	3590.38
419.39	3489.74
419.58	3524.85
419.77	3602.08
419.96	3665.28
420.15	3705.07
420.34	3662.94
420.53	3798.69
420.72	3758.90
420.91	3712.09
421.10	3833.80
421.29	4035.08
421.48	3901.67
421.67	3941.46
421.86	3857.20
422.05	3875.93
422.24	3782.31
422.43	3871.25
422.61	3948.48
422.80	3985.93
422.99	3981.25
423.18	4002.32
423.37	4025.72
423.56	3882.95
423.75	4021.04
423.94	3815.07
424.13	3744.86
424.32	3815.07
424.50	4007.00
424.69	4039.76
424.88	3997.64
425.07	4025.72
425.26	3946.14
425.45	3878.27
425.64	3946.14
425.83	3957.85
426.01	4147.43
426.20	4109.98
426.39	3988.27
426.58	4016.36
426.77	4056.15
426.96	4011.68
427.15	3899.33
427.33	4011.68
427.52	3974.23
427.71	4065.51
427.90	4159.13
428.09	4079.55
428.28	4161.47
428.46	4105.30
428.65	4264.46
428.84	4278.50
429.03	4311.27
429.22	4259.78
429.40	4287.86
429.59	4095.94
429.78	4119.34
429.97	3920.40
430.16	4072.53
430.34	4058.49
430.53	4285.52
430.72	4301.90
430.91	4245.73
431.10	4273.82
431.28	4622.56
431.47	4521.92
431.66	4737.24
431.85	4540.64
432.03	4746.61
432.22	4615.54
432.41	4617.88
432.60	4762.99
432.79	4741.93
432.97	4842.57
433.16	4851.93
433.35	4678.73
433.54	4688.09
433.72	4765.33
433.91	4730.22
434.10	4681.07
434.28	5022.79
434.47	5006.41
434.66	4901.08
434.85	5090.67
435.03	4985.34
435.22	5041.51
435.41	5111.73
435.59	5076.62
435.78	5055.56
435.97	5116.41
436.16	5069.60
436.34	5067.26
436.53	5177.26
436.72	5369.19
436.90	5076.62
437.09	5245.14
437.28	4961.94
437.46	5245.14
437.65	5268.55
437.84	5235.78
438.02	5210.03
438.21	5177.26
438.40	5025.13
438.58	5380.89
438.77	5411.32
438.96	5418.34
439.14	5621.97
439.33	5685.16
439.52	5584.52
439.70	5673.46
439.89	5727.29
440.08	5682.82
440.26	5664.10
440.45	5727.29
440.63	5650.05
440.82	6120.50
441.01	5919.21
441.19	6019.86
441.38	6111.14
441.57	6157.95
441.75	6256.25
441.94	6305.40
442.12	6375.62
442.31	6359.24
442.50	6455.20
442.68	6394.34
442.87	6399.02
443.05	6560.52
443.24	6401.37
443.43	6438.81
443.61	6579.25
443.80	6637.76
443.98	6366.26
444.17	6324.13
444.35	6499.67
444.54	6635.42
444.73	6675.21
444.91	6518.39
445.10	6612.01
445.28	6548.82
445.47	6352.21
445.65	6462.22
445.84	6670.53
446.02	6729.04
446.21	6705.63
446.39	6719.68
446.58	6698.61
446.77	6754.79
446.95	6822.66
447.14	6722.02
447.32	6686.91
447.51	6595.63
447.69	6663.51
447.88	6726.70
448.06	6906.92
448.25	6715.00
448.43	6810.96
448.62	6836.70
448.80	6745.42
448.99	6871.81
449.17	6820.32
449.36	6703.29
449.54	6946.71
449.73	7325.88
449.91	7194.81
450.10	7056.72
450.28	7164.38
450.46	7419.50
450.65	7407.80
450.83	7309.49
451.02	7140.97
451.20	7365.67
451.39	7522.48
451.57	7194.81
451.76	7115.23
451.94	7332.90
452.13	7136.29
452.31	7148.00
452.49	7098.84
452.68	7400.77
452.86	7297.79
453.05	7365.67
453.23	7412.48
453.42	7389.07
453.60	7288.43
453.78	7475.67
453.97	7445.24
454.15	7501.42
454.34	7335.24
454.52	7510.78
454.70	7515.46
454.89	7569.29
455.07	7707.38
455.26	7698.02
455.44	7934.42
455.62	7665.25
455.81	7700.36
455.99	7960.16
456.17	7801.01
456.36	7803.35
456.54	7889.95
456.73	8053.78
456.91	8234.00
457.09	8182.51
457.28	8322.94
457.46	8140.38
457.64	8114.64
457.83	8086.55
458.01	8002.29
458.19	8133.36
458.38	8100.59
458.56	8339.33
458.74	8287.84
458.93	8234.00
459.11	8325.29
459.29	8395.50
459.48	8585.08
459.66	8442.31
459.84	8505.51
460.03	8559.34
460.21	8411.89
460.39	8622.53
460.57	8578.06
460.76	8645.94
460.94	8704.45
461.12	8643.60
461.31	8887.01
461.49	8641.26
461.67	8720.84
461.85	9018.08
462.04	8573.38
462.22	9118.73
462.40	8917.44
462.59	8697.43
462.77	8985.32
462.95	9036.81
463.13	8809.78
463.32	9055.53
463.50	9083.62
463.68	9050.85
463.86	9200.65
464.05	9125.75
464.23	9107.02
464.41	9280.22
464.59	8947.87
464.78	9357.46
464.96	9071.92
465.14	9210.01
465.32	9137.45
465.50	9357.46
465.69	9151.49
465.87	9535.34
466.05	9270.86
466.23	9146.81
466.41	9282.56
466.60	9371.50
466.78	9320.01
466.96	9394.91
467.14	9439.38
467.32	9568.11
467.51	9551.73
467.69	9294.27
467.87	9397.25
468.05	9589.17
468.23	9535.34
468.41	9631.30
468.60	9502.58
468.78	9628.96
468.96	9640.67
469.14	9811.53
469.32	9860.68
469.50	9563.43
469.69	9825.57
469.87	9914.51
470.05	9834.93
470.23	10012.81
470.41	9755.35
470.59	10064.30
470.77	9834.93
470.95	10047.92
471.14	10148.56
471.32	9982.38
471.50	10375.59
471.68	10310.06
471.86	10413.04
472.04	10279.63
472.22	10569.86
472.40	10265.59
472.58	10586.24
472.77	10525.39
472.95	10473.90
473.13	10984.13
473.31	10736.04
473.49	10682.20
473.67	10832.00
473.85	10588.58
474.03	11276.70
474.21	10944.34
474.39	11236.91
474.57	11246.27
474.75	11096.48
474.93	11257.98
475.12	11180.74
475.30	11318.83
475.48	11342.24
475.66	11218.19
475.84	11440.54
476.02	11482.67
476.20	11592.67
476.38	11948.43
476.56	12079.50
476.74	11955.46
476.92	11866.52
477.10	12032.69
477.28	11964.82
477.46	12145.04
477.64	12353.35
477.82	12727.83
478.00	12711.45
478.18	12685.70
478.36	12645.91
478.54	12723.15
478.72	12849.54
478.90	12833.16
479.08	13200.62
479.26	13193.60
479.44	13202.96
479.62	13275.52
479.80	13460.42
479.98	13865.33
480.16	13720.22
480.34	13722.56
480.52	13980.02
480.70	13769.37
480.88	13750.65
481.06	14015.13
481.24	13961.30
481.41	14246.84
481.59	14314.72
481.77	14424.72
481.95	14476.21
482.13	14740.69
482.31	14677.50
482.49	15047.30
482.67	14593.24
482.85	15204.12
483.03	15330.51
483.21	15400.72
483.39	15482.64
483.57	15466.26
483.74	15484.98
483.92	15772.87
484.10	15604.35
484.28	15983.52
484.46	16020.97
484.64	16259.70
484.82	16205.87
485.00	16250.34
485.18	16563.97
485.35	16975.91
485.53	16634.19
485.71	16236.30
485.89	16725.47
486.07	16526.52
486.25	16882.28
486.43	17055.48
486.61	17277.83
486.78	17167.83
486.96	17532.95
487.14	17895.74
487.32	17654.66
487.50	18235.11
487.68	18307.67
487.85	18396.61
488.03	18834.29
488.21	18574.49
488.39	18771.10
488.57	18764.07
488.75	18803.86
488.92	19171.33
489.10	19538.79
489.28	19578.58
489.46	19726.04
489.64	19838.38
489.81	20355.64
489.99	20173.08
490.17	20521.82
490.35	20648.21
490.53	20615.44
490.70	20599.05
490.88	20638.84
491.06	20858.85
491.24	20877.58
491.41	21256.75
491.59	20982.90
491.77	20975.88
491.95	21287.17
492.13	21500.16
492.30	21551.65
492.48	21710.81
492.66	21912.10
492.84	21884.01
493.01	22120.40
493.19	22373.18
493.37	22398.93
493.54	22663.41
493.72	22602.55
493.90	22602.55
494.08	22981.72
494.25	23325.78
494.43	23208.75
494.61	23585.58
494.79	23704.95
494.96	23239.18
495.14	23531.75
495.32	23836.02
495.49	23992.83
495.67	23742.39
495.85	24205.82
496.02	24224.54
496.20	24517.11
496.38	24180.07
496.55	24776.91
496.73	25144.38
496.91	24952.45
497.09	25221.61
497.26	25118.63
497.44	25205.23
497.62	25378.43
497.79	25699.08
497.97	25364.39
498.14	25429.92
498.32	25542.27
498.50	25619.50
498.67	26221.02
498.85	26192.94
499.03	26141.44
499.20	26501.89
499.38	26195.28
499.56	26565.08
499.73	26565.08
499.91	26892.76
500.08	26768.71
500.26	26181.23
500.44	26850.63
500.61	26473.80
500.79	26778.07
500.97	26892.76
501.14	27332.78
501.32	27435.76
501.49	27356.18
501.67	27054.25
501.84	27229.79
502.02	27541.08
502.20	28081.75
502.37	27887.48
502.55	27974.08
502.72	28095.79
502.90	28126.22
503.07	28364.95
503.25	28128.56
503.43	28273.67
503.60	28437.51
503.78	28594.32
503.95	28070.04
504.13	28606.03
504.30	28496.02
504.48	28877.53
504.65	29329.25
504.83	29048.39
505.01	29898.00
505.18	29502.45
505.36	29790.34
505.53	29635.86
505.71	29834.81
505.88	29715.44
506.06	29575.01
506.23	30094.61
506.41	29408.83
506.58	29858.21
506.76	30099.29
506.93	29846.51
507.11	30078.22
507.28	30017.37
507.46	29979.92
507.63	30295.89
507.81	30169.51
507.98	30160.14
508.16	30441.01
508.33	30778.04
508.50	30595.48
508.68	30946.56
508.85	31824.26
509.03	31026.14
509.20	31112.74
509.38	31332.75
509.55	31438.08
509.73	31239.13
509.90	31702.56
510.08	31456.80
510.25	31847.67
510.42	31372.54
510.60	31618.30
510.77	31999.80
510.95	32341.52
511.12	32208.11
511.30	32184.71
511.47	32545.15
511.64	32561.53
511.82	32566.21
511.99	32456.21
512.17	32416.42
512.34	32486.64
512.51	32968.79
512.69	32783.88
512.86	32737.07
513.04	33111.56
513.21	32919.63
513.38	32837.72
513.56	33359.66
513.73	32914.95
513.90	33511.79
514.08	33158.37
514.25	33483.70
514.43	33310.50
514.60	33830.10
514.77	33514.13
514.95	33825.42
515.12	33366.68
515.29	33546.90
515.47	33722.44
515.64	33879.25
515.81	34279.49
515.99	33832.44
516.16	34080.54
516.33	33535.20
516.51	34019.69
516.68	33287.10
516.85	33762.23
517.03	33694.35
517.20	34242.04
517.37	34403.53
517.54	34724.19
517.72	34450.35
517.89	34244.38
518.06	34127.35
518.24	34473.75
518.41	34249.06
518.58	34862.28
518.75	34370.77
518.93	34923.13
519.10	34838.87
519.27	35108.04
519.45	35309.32
519.62	35655.72
519.79	35562.10
519.96	35517.63
520.14	35796.15
520.31	35009.73
520.48	35618.27
520.65	35604.23
520.83	36126.17
521.00	36297.03
521.17	35938.93
521.34	36313.41
521.52	36463.21
521.69	36095.74
521.86	36664.49
522.03	36563.85
522.20	36369.58
522.38	36594.28
522.55	36517.04
522.72	36460.87
522.89	36474.91
523.07	36617.68
523.24	36854.08
523.41	36687.90
523.58	36439.80
523.75	37385.38
523.92	37539.85
524.10	37172.39
524.27	37523.47
524.44	37317.50
524.61	37612.41
524.78	37123.24
524.96	37764.54
525.13	38199.88
525.30	37731.78
525.47	38082.86
525.64	37947.11
525.81	37455.59
525.98	37441.55
526.16	37076.43
526.33	37544.53
526.50	37874.55
526.67	37567.94
526.84	37766.88
527.01	37621.77
527.18	37727.10
527.36	37848.80
527.53	38443.30
527.70	38579.05
527.87	38770.97
528.04	38237.33
528.21	38581.39
528.38	38885.66
528.55	39014.39
528.72	39297.59
528.89	39412.28
529.07	39257.81
529.24	39000.35
529.41	38941.83
529.58	38948.85
529.75	38803.74
529.92	38955.88
530.09	39269.51
530.26	39288.23
530.43	39714.21
530.60	39667.40
530.77	39494.20
530.94	39288.23
531.11	39323.34
531.28	39536.33
531.46	39653.36
531.63	40119.12
531.80	39496.54
531.97	39447.39
532.14	39824.22
532.31	39218.02
532.48	39714.21
532.65	40332.11
532.82	39550.37
532.99	40481.91
533.16	39576.12
533.33	40025.50
533.50	40540.42
533.67	40399.99
533.84	39917.84
534.01	40154.23
534.18	40179.98
534.35	40357.86
534.52	40149.55
534.69	40730.00
534.86	40531.06
535.03	40517.01
535.20	40580.21
535.37	40959.38
535.54	41212.15
535.71	40538.08
535.88	40512.33
536.05	40800.22
536.22	40863.41
536.38	40914.90
536.55	41174.70
536.72	40690.21
536.89	40840.01
537.06	40996.82
537.23	41584.30
537.40	40889.16
537.57	41305.77
537.74	41287.05
537.91	41596.00
538.08	41493.02
538.25	41184.07
538.42	41500.04
538.59	41689.62
538.75	41031.93
538.92	41322.16
539.09	41249.60
539.26	41434.50
539.43	41617.07
539.60	41151.30
539.77	41535.15
539.94	41558.55
540.11	41680.26
540.28	41593.66
540.44	41755.16
540.61	41350.24
540.78	41509.40
540.95	41394.71
541.12	41977.51
541.29	41930.70
541.46	41869.84
541.62	42005.59
541.79	42483.06
541.96	41914.31
542.13	42326.25
542.30	42253.69
542.47	42195.18
542.63	42167.09
542.80	42101.56
542.97	42129.64
543.14	43117.35
543.31	42796.70
543.48	42693.71
543.64	43320.98
543.81	43075.22
543.98	42944.15
544.15	42920.74
544.32	43175.86
544.48	43320.98
544.65	42579.03
544.82	43405.23
544.99	42848.19
545.16	43098.62
545.32	42932.45
545.49	43250.76
545.66	43365.45
545.83	43159.48
546.00	43236.72
546.16	43819.51
546.33	43274.16
546.50	42885.64
546.67	43550.35
546.83	42756.91
547.00	43363.11
547.17	43210.97
547.34	43210.97
547.50	43559.71
547.67	43363.11
547.84	43227.35
548.00	43966.96
548.17	43761.00
548.34	44133.14
548.51	44023.14
548.67	44184.63
548.84	44151.87
549.01	44009.09
549.18	43599.50
549.34	43962.28
549.51	44399.96
549.68	44247.83
549.84	44179.95
550.01	44088.67
550.18	43723.55
550.34	44210.38
550.51	44509.97
550.68	44383.58
550.84	43557.37
551.01	44313.36
551.18	44371.88
551.34	44353.15
551.51	44662.10
551.68	44814.24
551.84	44318.04
552.01	44374.22
552.18	44261.87
552.34	44072.29
552.51	44507.63
552.68	44725.30
552.84	45017.86
553.01	44538.05
553.18	44624.65
553.34	44371.88
553.51	44432.73
553.67	44575.50
553.84	44975.73
554.01	44793.17
554.17	45083.40
554.34	44645.72
554.51	44893.82
554.67	44928.92
554.84	45029.57
555.00	44912.54
555.17	45226.17
555.33	44935.95
555.50	44905.52
555.67	45216.81
555.83	44863.39
556.00	45031.91
556.16	45441.50
556.33	44779.13
556.50	44774.45
556.66	45336.18
556.83	44563.80
556.99	45443.84
557.16	45209.79
557.32	45170.00
557.49	45478.95
557.65	44772.11
557.82	45287.03
557.98	45776.20
558.15	45052.97
558.32	45406.39
558.48	44788.49
558.65	44994.46
558.81	45212.13
558.98	45006.16
559.14	45216.81
559.31	45312.77
559.47	45415.76
559.64	45436.82
559.80	45177.02
559.97	45081.06
560.13	45188.72
560.30	45153.62
560.46	45649.81
560.63	45617.04
560.79	45453.20
560.96	45680.24
561.12	45408.73
561.29	45024.89
561.45	45808.96
561.61	45368.94
561.78	45722.37
561.94	45656.83
562.11	45467.25
562.27	44912.54
562.44	45961.10
562.60	45872.16
562.77	45741.09
562.93	45631.08
563.10	46010.25
563.26	45507.04
563.42	45855.78
563.59	45734.07
563.75	45965.78
563.92	45787.90
564.08	46110.89
564.24	46141.32
564.41	45837.05
564.57	45787.90
564.74	45696.62
564.90	46141.32
565.07	45956.42
565.23	45397.03
565.39	45792.58
565.56	45593.64
565.72	45792.58
565.88	45790.24
566.05	45607.68
566.21	46117.92
566.38	45998.55
566.54	46391.76
566.70	46181.11
566.87	46494.74
567.03	46033.66
567.19	46637.51
567.36	45893.22
567.52	46012.59
567.68	45443.84
567.85	45731.73
568.01	45961.10
568.17	45729.39
568.34	45928.33
568.50	45886.20
568.66	45612.36
568.83	45689.60
568.99	45785.56
569.15	45720.02
569.32	45804.28
569.48	45661.51
569.64	46293.46
569.81	45743.43
569.97	45757.47
570.13	45799.60
570.30	45509.38
570.46	45553.85
570.62	45338.52
570.78	45256.60
570.95	45567.89
571.11	45986.85
571.27	46033.66
571.43	45722.37
571.60	46258.35
571.76	46244.30
571.92	46351.97
572.09	45998.55
572.25	45965.78
572.41	45841.73
572.57	46333.24
572.74	46433.89
572.90	46382.40
573.06	46038.34
573.22	45902.59
573.38	46499.42
573.55	45921.31
573.71	46340.27
573.87	45886.20
574.03	46192.81
574.20	46298.14
574.36	46281.75
574.52	46092.17
574.68	46160.05
574.84	46216.22
575.01	46089.83
575.17	46316.86
575.33	45813.65
575.49	45801.94
575.65	46211.54
575.82	46382.40
575.98	45872.16
576.14	46555.60
576.30	45806.62
576.46	46490.06
576.62	46579.00
576.79	45806.62
576.95	45860.46
577.11	46000.89
577.27	46536.87
577.43	46192.81
577.59	46501.76
577.75	45879.18
577.92	45968.12
578.08	45581.93
578.24	46043.02
578.40	45904.93
578.56	46164.73
578.72	46234.94
578.88	46291.12
579.04	46237.28
579.21	45806.62
579.37	46122.60
579.53	46199.83
579.69	45996.21
579.85	46410.48
580.01	46454.95
580.17	46410.48
580.33	46270.05
580.49	46665.60
580.65	46480.70
580.82	45549.17
580.98	46117.92
581.14	45972.80
581.30	46071.10
581.46	46457.29
581.62	46092.17
581.78	45759.81
581.94	46721.77
582.10	46150.68
582.26	46101.53
582.42	46492.40
582.58	46644.54
582.74	46366.01
582.90	46497.08
583.06	46443.25
583.22	46443.25
583.38	46461.97
583.54	46440.91
583.70	46597.73
583.86	46293.46
584.02	46265.37
584.18	46403.46
584.34	46127.28
584.50	46403.46
584.66	46457.29
584.82	45731.73
584.98	46492.40
585.14	46298.14
585.30	46153.02
585.46	46337.93
585.62	45682.58
585.78	46110.89
585.94	45752.79
586.10	46366.01
586.26	46307.50
586.42	46817.74
586.58	46241.96
586.74	46211.54
586.90	45975.14
587.06	46394.10
587.22	46429.21
587.38	45963.44
587.54	46752.20
587.70	46342.61
587.86	46461.97
588.02	46370.69
588.18	46478.36
588.34	46377.72
588.49	45600.66
588.65	45521.08
588.81	45972.80
588.97	46162.39
589.13	45694.28
589.29	45958.76
589.45	46347.29
589.61	46358.99
589.77	46471.34
589.93	46457.29
