SpectraSuite Data File
++++++++++++++++++++++++++++++++++++
Date: Fri Oct 25 11:34:46 EDT 2013
User: price-jones
Dark Spectrum Present: No
Reference Spectrum Present: No
Number of Sampled Component Spectra: 1
Spectrometers: USB2+H05261
Integration Time (usec): 100000 (USB2+H05261)
Spectra Averaged: 1 (USB2+H05261)
Boxcar Smoothing: 0 (USB2+H05261)
Correct for Electrical Dark: No (USB2+H05261)
Strobe/Lamp Enabled: No (USB2+H05261)
Correct for Detector Non-linearity: No (USB2+H05261)
Correct for Stray Light: No (USB2+H05261)
Number of Pixels in Processed Spectrum: 2048
>>>>>Begin Processed Spectral Data<<<<<
365.73	362.78
365.92	362.78
366.12	362.78
366.32	231.71
366.52	161.50
366.72	203.63
366.91	159.16
367.11	187.24
367.31	210.65
367.51	170.86
367.70	198.95
367.90	238.73
368.10	227.03
368.30	222.35
368.49	191.92
368.69	205.97
368.89	229.37
369.09	182.56
369.28	156.82
369.48	205.97
369.68	248.10
369.87	189.58
370.07	285.55
370.27	212.99
370.47	292.57
370.66	470.45
370.86	526.62
371.06	514.92
371.25	587.47
371.45	517.26
371.65	559.39
371.84	535.98
372.04	547.69
372.24	486.83
372.44	564.07
372.63	606.20
372.83	592.16
373.03	674.07
373.22	547.69
373.42	608.54
373.62	589.82
373.81	587.47
374.01	657.69
374.21	692.80
374.40	645.99
374.60	636.63
374.79	634.29
374.99	634.29
375.19	608.54
375.38	622.58
375.58	601.52
375.78	683.44
375.97	765.36
376.17	695.14
376.37	685.78
376.56	674.07
376.76	655.35
376.95	704.50
377.15	615.56
377.35	688.12
377.54	667.05
377.74	671.73
377.93	699.82
378.13	713.86
378.33	674.07
378.52	676.41
378.72	692.80
378.91	760.67
379.11	641.31
379.31	643.65
379.50	667.05
379.70	657.69
379.89	683.44
380.09	737.27
380.28	669.39
380.48	629.60
380.68	732.59
380.87	723.23
381.07	730.25
381.26	730.25
381.46	739.61
381.65	767.70
381.85	781.74
382.04	737.27
382.24	781.74
382.43	763.01
382.63	744.29
382.83	763.01
383.02	788.76
383.22	802.80
383.41	706.84
383.61	786.42
383.80	826.21
384.00	812.17
384.19	800.46
384.39	828.55
384.58	800.46
384.78	830.89
384.97	758.33
385.17	751.31
385.36	795.78
385.56	919.83
385.75	758.33
385.95	781.74
386.14	905.79
386.34	882.38
386.53	933.87
386.72	812.17
386.92	823.87
387.11	835.57
387.31	828.55
387.50	861.32
387.70	830.89
387.89	821.53
388.09	903.45
388.28	884.72
388.48	933.87
388.67	950.26
388.86	922.17
389.06	917.49
389.25	926.85
389.45	870.68
389.64	922.17
389.84	966.64
390.03	915.15
390.22	919.83
390.42	945.58
390.61	875.36
390.81	1020.47
391.00	837.91
391.19	992.39
391.39	959.62
391.58	983.02
391.78	1020.47
391.97	997.07
392.16	964.30
392.36	978.34
392.55	1039.20
392.75	1011.11
392.94	1036.86
393.13	985.37
393.33	1020.47
393.52	1090.69
393.71	1107.07
393.91	1043.88
394.10	990.05
394.29	990.05
394.49	1041.54
394.68	1139.84
394.88	1071.97
395.07	1149.20
395.26	1186.65
395.46	1165.59
395.65	1217.08
395.84	1160.91
396.04	1177.29
396.23	1125.80
396.42	1102.39
396.62	1142.18
396.81	1163.25
397.00	1172.61
397.19	1146.86
397.39	1149.20
397.58	1170.27
397.77	1226.44
397.97	1198.35
398.16	1270.91
398.35	1219.42
398.55	1357.51
398.74	1284.95
398.93	1221.76
399.12	1270.91
399.32	1144.52
399.51	1146.86
399.70	1294.32
399.90	1259.21
400.09	1352.83
400.28	1296.66
400.47	1299.00
400.67	1366.87
400.86	1226.44
401.05	1373.89
401.24	1434.75
401.44	1460.49
401.63	1329.42
401.82	1427.73
402.01	1357.51
402.21	1366.87
402.40	1301.34
402.59	1336.45
402.78	1437.09
402.97	1427.73
403.17	1401.98
403.36	1579.86
403.55	1448.79
403.74	1558.80
403.93	1483.90
404.13	1514.33
404.32	1528.37
404.51	1542.41
404.70	1607.95
404.89	1584.54
405.09	1572.84
405.28	1680.50
405.47	1540.07
405.66	1610.29
405.85	1654.76
406.05	1563.48
406.24	1694.55
406.43	1645.40
406.62	1689.87
406.81	1746.04
407.00	1710.93
407.20	1659.44
407.39	1699.23
407.58	1834.98
407.77	1813.92
407.96	1816.26
408.15	1823.28
408.34	1827.96
408.54	1762.42
408.73	1823.28
408.92	1736.68
409.11	1797.53
409.30	1849.02
409.49	1879.45
409.68	1886.47
409.87	1933.28
410.07	1898.17
410.26	2017.54
410.45	1893.49
410.64	2008.18
410.83	2003.50
411.02	2005.84
411.21	1961.37
411.40	2106.48
411.59	2015.20
411.78	2071.37
411.98	2036.27
412.17	2169.68
412.36	2169.68
412.55	2153.29
412.74	2279.68
412.93	2200.10
413.12	2186.06
413.31	2385.01
413.50	2293.72
413.69	2188.40
413.88	2338.20
414.07	2305.43
414.26	2387.35
414.45	2506.71
414.64	2429.48
414.83	2338.20
415.02	2485.65
415.22	2586.29
415.41	2492.67
415.60	2532.46
415.79	2497.35
415.98	2562.89
416.17	2605.02
416.36	2593.31
416.55	2544.16
416.74	2752.47
416.93	2677.57
417.12	2623.74
417.31	2616.72
417.50	2792.26
417.69	2864.82
417.88	2843.75
418.07	2834.39
418.26	2729.06
418.45	2757.15
418.64	2867.16
418.83	2799.28
419.02	2902.26
419.21	3045.04
419.39	2956.10
419.58	2878.86
419.77	2977.16
419.96	3049.72
420.15	2946.73
420.34	3005.25
420.53	2988.86
420.72	3136.32
420.91	3122.27
421.10	3007.59
421.29	3047.38
421.48	3035.67
421.67	3232.28
421.86	3049.72
422.05	3075.46
422.24	3253.34
422.43	3138.66
422.61	3150.36
422.80	3279.09
422.99	3236.96
423.18	3105.89
423.37	3281.43
423.56	3229.94
423.75	3255.69
423.94	3159.72
424.13	3052.06
424.32	3251.00
424.50	3225.26
424.69	3361.01
424.88	3293.13
425.07	3260.37
425.26	3192.49
425.45	3243.98
425.64	3281.43
425.83	3201.85
426.01	3288.45
426.20	3361.01
426.39	3314.20
426.58	3361.01
426.77	3309.52
426.96	3412.50
427.15	3316.54
427.33	3255.69
427.52	3314.20
427.71	3400.80
427.90	3368.03
428.09	3480.38
428.28	3485.06
428.46	3522.51
428.65	3576.34
428.84	3637.19
429.03	3588.04
429.22	3506.12
429.40	3599.74
429.59	3712.09
429.78	3424.20
429.97	3592.72
430.16	3581.02
430.34	3730.81
430.53	3676.98
430.72	3770.60
430.91	3695.71
431.10	3712.09
431.28	3791.67
431.47	3761.24
431.66	3791.67
431.85	3779.97
432.03	3822.09
432.22	3843.16
432.41	3796.35
432.60	3899.33
432.79	3831.46
432.97	3889.97
433.16	3941.46
433.35	3964.87
433.54	3962.53
433.72	4007.00
433.91	3955.51
434.10	3922.74
434.28	3918.06
434.47	4112.32
434.66	4198.92
434.85	3995.29
435.03	3957.85
435.22	4088.92
435.41	4156.79
435.59	4077.21
435.78	4245.73
435.97	4056.15
436.16	4194.24
436.34	4227.01
436.53	4215.30
436.72	4362.76
436.90	4147.43
437.09	4400.21
437.28	4224.67
437.46	4337.01
437.65	4383.82
437.84	4416.59
438.02	4409.57
438.21	4402.55
438.40	4390.84
438.58	4484.47
438.77	4329.99
438.96	4397.87
439.14	4652.98
439.33	4503.19
439.52	4573.41
439.70	4786.40
439.89	4774.69
440.08	4648.30
440.26	4739.58
440.45	4561.70
440.63	4784.06
440.82	4940.87
441.01	4915.12
441.19	4901.08
441.38	4957.25
441.57	5064.92
441.75	5116.41
441.94	5149.18
442.12	5149.18
442.31	5060.24
442.50	5228.76
442.68	5235.78
442.87	5078.96
443.05	5301.31
443.24	5261.52
443.43	5224.08
443.61	5270.89
443.80	5425.36
443.98	5313.02
444.17	5076.62
444.35	5200.67
444.54	5280.25
444.73	5298.97
444.91	5334.08
445.10	5366.85
445.28	5310.68
445.47	5366.85
445.65	5331.74
445.84	5488.56
446.02	5427.70
446.21	5322.38
446.39	5355.15
446.58	5355.15
446.77	5458.13
446.95	5423.02
447.14	5425.36
447.32	5542.39
447.51	5462.81
447.69	5411.32
447.88	5397.28
448.06	5352.81
448.25	5533.03
448.43	5488.56
448.62	5528.35
448.80	5336.42
448.99	5530.69
449.17	5547.07
449.36	5614.95
449.54	5654.73
449.73	5743.67
449.91	5884.11
450.10	5788.14
450.28	5898.15
450.46	5870.06
450.65	5769.42
450.83	5682.82
451.02	5764.74
451.20	5804.53
451.39	5947.30
451.57	5846.66
451.76	5755.38
451.94	5790.49
452.13	5895.81
452.31	6043.26
452.49	5970.71
452.68	5982.41
452.86	5982.41
453.05	6078.37
453.23	5935.60
453.42	6057.31
453.60	6073.69
453.78	6167.31
453.97	5989.43
454.15	6045.60
454.34	5970.71
454.52	6076.03
454.70	6150.93
454.89	6169.65
455.07	6179.01
455.26	6270.30
455.44	6272.64
455.62	6155.61
455.81	6314.77
455.99	6370.94
456.17	6230.51
456.36	6305.40
456.54	6452.86
456.73	6614.35
456.91	6656.48
457.09	6696.27
457.28	6621.38
457.46	6619.04
457.64	6656.48
457.83	6679.89
458.01	6572.22
458.19	6766.49
458.38	6684.57
458.56	6731.38
458.74	6729.04
458.93	6899.90
459.11	6881.18
459.29	6899.90
459.48	6913.94
459.66	6827.34
459.84	6902.24
460.03	6930.33
460.21	7155.02
460.39	7047.35
460.57	6958.41
460.76	7180.76
460.94	7101.19
461.12	7155.02
461.31	7171.40
461.49	6916.28
461.67	7206.51
461.85	7232.26
462.04	7204.17
462.22	7192.47
462.40	7417.16
462.59	7239.28
462.77	7386.73
462.95	7447.58
463.13	7428.86
463.32	7300.13
463.50	7513.12
463.68	7332.90
463.86	7480.35
464.05	7318.86
464.23	7431.20
464.41	7616.10
464.59	7456.95
464.78	7573.97
464.96	7510.78
465.14	7662.91
465.32	7644.19
465.50	7599.72
465.69	7637.17
465.87	7749.51
466.05	7616.10
466.23	7815.05
466.41	7716.75
466.60	7878.24
466.78	7857.18
466.96	7721.43
467.14	7662.91
467.32	7702.70
467.51	8086.55
467.69	7765.90
467.87	7861.86
468.05	8105.28
468.23	7854.84
468.41	7786.96
468.60	7829.09
468.78	8030.38
468.96	7990.59
469.14	7936.76
469.32	8063.15
469.50	8032.72
469.69	8191.88
469.87	8320.60
470.05	8210.60
470.23	8327.63
470.41	8229.32
470.59	8311.24
470.77	8477.42
470.95	8269.11
471.14	8704.45
471.32	8280.82
471.50	8437.63
471.68	8491.46
471.86	8542.96
472.04	8505.51
472.22	8594.45
472.40	8641.26
472.58	8699.77
472.77	8685.73
472.95	8723.18
473.13	8952.55
473.31	8575.72
473.49	8980.64
473.67	8966.59
473.85	8987.66
474.03	9078.94
474.21	9228.73
474.39	9202.99
474.57	9205.33
474.75	9476.83
474.93	9441.72
475.12	9383.21
475.30	9432.36
475.48	9423.00
475.66	9516.62
475.84	9455.76
476.02	9657.05
476.20	9612.58
476.38	9703.86
476.56	9975.36
476.74	9865.36
476.92	9891.10
477.10	9907.49
477.28	9994.09
477.46	10094.73
477.64	9987.07
477.82	10324.10
478.00	10466.88
478.18	10396.66
478.36	10375.59
478.54	10853.06
478.72	10895.19
478.90	10736.04
479.08	10810.93
479.26	11007.54
479.44	10970.09
479.62	11178.40
479.80	11276.70
479.98	11225.21
480.16	11665.23
480.34	11379.68
480.52	11786.94
480.70	11683.95
480.88	11398.41
481.06	11637.14
481.24	11817.36
481.41	11833.75
481.59	11934.39
481.77	11985.88
481.95	12266.75
482.13	12182.49
482.31	12198.87
482.49	12238.66
482.67	12526.55
482.85	12704.43
483.03	12713.79
483.21	12968.91
483.39	12959.55
483.57	12674.00
483.74	12945.50
483.92	13053.17
484.10	13312.97
484.28	13748.31
484.46	13792.78
484.64	13783.41
484.82	13610.22
485.00	13745.97
485.18	14216.41
485.35	14359.19
485.53	14136.84
485.71	14155.56
485.89	14597.92
486.07	14384.93
486.25	14518.34
486.43	14476.21
486.61	14733.67
486.78	14885.81
486.96	14803.89
487.14	15096.46
487.32	15157.31
487.50	15279.02
487.68	15499.03
487.85	15515.41
488.03	15798.62
488.21	16091.18
488.39	15831.38
488.57	16086.50
488.75	16205.87
488.92	16306.51
489.10	16748.87
489.28	16479.71
489.46	16659.93
489.64	16645.89
489.81	17081.23
489.99	17006.33
490.17	17235.70
490.35	17322.30
490.53	17341.03
490.70	17813.82
490.88	17392.52
491.06	17811.48
491.24	17610.19
491.41	17776.37
491.59	18099.36
491.77	17963.61
491.95	18345.12
492.13	18274.90
492.30	18635.35
492.48	18398.95
492.66	18668.11
492.84	18813.23
493.01	19033.24
493.19	19087.07
493.37	19040.26
493.54	19255.59
493.72	19730.72
493.90	19426.45
494.08	19613.69
494.25	19620.71
494.43	19503.68
494.61	19953.07
494.79	20189.46
494.96	19756.46
495.14	20189.46
495.32	20416.49
495.49	20425.86
495.67	20252.66
495.85	20762.89
496.02	20882.26
496.20	20947.79
496.38	21097.59
496.55	21064.82
496.73	21436.97
496.91	21046.10
497.09	21443.99
497.26	21528.25
497.44	21504.84
497.62	21701.45
497.79	21954.22
497.97	21664.00
498.14	22352.12
498.32	22192.96
498.50	22202.32
498.67	22504.25
498.85	22572.13
499.03	22434.03
499.20	22637.66
499.38	22841.29
499.56	22501.91
499.73	23061.30
499.91	23033.21
500.08	23012.15
500.26	23154.92
500.44	23213.43
500.61	23227.48
500.79	23262.58
500.97	23515.36
501.14	23683.88
501.32	23721.33
501.49	23426.42
501.67	24002.19
501.84	24086.45
502.02	23716.65
502.20	23922.62
502.37	24526.47
502.55	24039.64
502.72	24095.82
502.90	24587.33
503.07	24194.12
503.25	24730.10
503.43	24292.42
503.60	24961.81
503.78	24634.14
503.95	24542.86
504.13	24968.84
504.30	24844.79
504.48	25076.50
504.65	25329.28
504.83	25219.27
505.01	25521.20
505.18	25450.99
505.36	25617.16
505.53	25781.00
505.71	25607.80
505.88	26019.74
506.06	25610.14
506.23	26047.82
506.41	25921.43
506.58	26237.41
506.76	26216.34
506.93	26583.80
507.11	26256.13
507.28	26380.18
507.46	26377.84
507.63	26485.50
507.81	26895.10
507.98	26541.68
508.16	26412.95
508.33	26911.48
508.50	27058.93
508.68	26909.14
508.85	27667.47
509.03	26962.97
509.20	27372.57
509.38	27498.95
509.55	27220.43
509.73	27821.95
509.90	27440.44
510.08	27297.67
510.25	27714.28
510.42	27798.54
510.60	28156.64
510.77	28208.14
510.95	28540.49
511.12	27934.29
511.30	28070.04
511.47	28273.67
511.64	28231.54
511.82	28315.80
511.99	28718.37
512.17	28781.57
512.34	28442.19
512.51	28917.32
512.69	29181.80
512.86	29476.71
513.04	28975.83
513.21	29237.97
513.38	29357.34
513.56	29509.47
513.73	29060.09
513.90	29322.23
514.08	29343.30
514.25	29495.43
514.43	29640.54
514.60	29654.59
514.77	29649.91
514.95	30050.14
515.12	30256.11
515.29	29677.99
515.47	30012.69
515.64	30096.95
515.81	30256.11
515.99	30038.44
516.16	30661.02
516.33	30015.03
516.51	30799.11
516.68	30335.68
516.85	31070.61
517.03	30792.09
517.20	30508.88
517.37	30838.90
517.54	30721.87
517.72	30969.97
517.89	30864.64
518.06	30710.17
518.24	31257.85
518.41	30749.96
518.58	31105.72
518.75	30845.92
518.93	31386.58
519.10	31328.07
519.27	31725.96
519.45	31112.74
519.62	31503.61
519.79	31456.80
519.96	31725.96
520.14	31852.35
520.31	31688.51
520.48	32030.23
520.65	32348.54
520.83	32210.45
521.00	32320.46
521.17	32313.44
521.34	32315.78
521.52	32294.71
521.69	32657.49
521.86	32727.71
522.03	32872.82
522.20	32821.33
522.38	32987.51
522.55	32732.39
522.72	32931.34
522.89	32945.38
523.07	33481.36
523.24	32950.06
523.41	33170.07
523.58	32950.06
523.75	33340.93
523.92	32971.13
524.10	33525.83
524.27	33535.20
524.44	33673.29
524.61	33455.62
524.78	33612.43
524.96	33586.69
525.13	33762.23
525.30	33998.62
525.47	33879.25
525.64	33734.14
525.81	34347.36
525.98	34291.19
526.16	34106.29
526.33	33947.13
526.50	34382.47
526.67	34403.53
526.84	34340.34
527.01	34249.06
527.18	34593.12
527.36	34658.65
527.53	34756.96
527.70	34644.61
527.87	35187.61
528.04	34513.54
528.21	34862.28
528.38	34742.91
528.55	34906.75
528.72	35136.12
528.89	35035.48
529.07	35257.83
529.24	34995.69
529.41	35159.53
529.58	35061.22
529.75	35009.73
529.92	35318.68
530.09	35208.68
530.26	35615.93
530.43	35578.48
530.60	35000.37
530.77	35480.18
530.94	35136.12
531.11	35367.84
531.28	35445.07
531.46	35826.58
531.63	36243.20
531.80	35634.66
531.97	36222.13
532.14	36051.27
532.31	35880.41
532.48	36311.07
532.65	36481.93
532.82	36095.74
532.99	36233.83
533.16	35831.26
533.33	36643.43
533.50	36210.43
533.67	36224.47
533.84	36072.34
534.01	36760.45
534.18	36505.34
534.35	36856.42
534.52	36549.81
534.69	36959.40
534.86	36772.16
535.03	37223.88
535.20	37317.50
535.37	37127.92
535.54	37090.47
535.71	36968.76
535.88	37202.82
536.05	37532.83
536.22	37649.86
536.38	37518.79
536.55	36788.54
536.72	37666.24
536.89	37041.32
537.06	37635.81
537.23	37928.38
537.40	37589.00
537.57	37729.44
537.74	37614.75
537.91	37797.31
538.08	37694.33
538.25	37422.83
538.42	37500.06
538.59	38279.46
538.75	37785.61
538.92	38249.03
539.09	38504.15
539.26	37804.33
539.43	38054.77
539.60	38237.33
539.77	38387.13
539.94	38328.61
540.11	38703.10
540.28	38377.76
540.44	38471.39
540.61	38515.86
540.78	38543.94
540.95	38370.74
541.12	38534.58
541.29	38300.53
541.46	38787.36
541.62	38122.65
541.79	39007.37
541.96	38691.40
542.13	38497.13
542.30	39061.20
542.47	38787.36
542.63	39203.97
542.80	39124.40
542.97	39325.68
543.14	39447.39
543.31	39388.88
543.48	39054.18
543.64	39714.21
543.81	39426.32
543.98	39452.07
544.15	39761.02
544.32	39793.79
544.48	39784.43
544.65	39576.12
544.82	39716.55
544.99	39414.62
545.16	39826.56
545.32	39805.49
545.49	40006.78
545.66	40231.47
545.83	40280.62
546.00	40044.23
546.16	40472.54
546.33	40016.14
546.50	39599.52
546.67	40526.38
546.83	39587.82
547.00	39849.96
547.17	39861.66
547.34	40360.20
547.50	40512.33
547.67	40495.95
547.84	40722.98
548.00	40559.14
548.17	40776.81
548.34	40781.49
548.51	40945.33
548.67	40685.53
548.84	40598.93
549.01	40662.13
549.18	40659.79
549.34	40835.33
549.51	41177.04
549.68	40758.09
549.84	40952.35
550.01	41120.87
550.18	41008.53
550.34	41022.57
550.51	41148.96
550.68	41420.46
550.84	41188.75
551.01	41155.98
551.18	41214.49
551.34	41193.43
551.51	41060.02
551.68	41053.00
551.84	41553.87
552.01	40987.46
552.18	41212.15
552.34	40959.38
552.51	41783.24
552.68	41226.20
552.84	41453.23
553.01	41387.69
553.18	41790.27
553.34	41364.29
553.51	41584.30
553.67	41294.07
553.84	41776.22
554.01	41888.57
554.17	41776.22
554.34	42150.71
554.51	41593.66
554.67	42068.79
554.84	42000.91
555.00	41909.63
555.17	41808.99
555.33	41897.93
555.50	41816.01
555.67	42141.35
555.83	41689.62
556.00	42160.07
556.16	42780.31
556.33	42316.89
556.50	41876.86
556.66	42167.09
556.83	41944.74
556.99	42223.26
557.16	42457.32
557.32	42742.86
557.49	42696.05
557.65	41841.76
557.82	42799.04
557.98	42686.69
558.15	42066.45
558.32	42859.89
558.48	42218.58
558.65	42600.09
558.81	42574.34
558.98	42389.44
559.14	42031.34
559.31	42464.34
559.47	43164.16
559.64	43276.51
559.80	43124.37
559.97	42848.19
560.13	42480.72
560.30	42899.68
560.46	42925.42
560.63	42852.87
560.79	43311.61
560.96	43161.82
561.12	42930.11
561.29	43161.82
561.45	42855.21
561.61	43255.44
561.78	43016.71
561.94	43126.71
562.11	43026.07
562.27	43026.07
562.44	42834.14
562.60	43075.22
562.77	43548.01
562.93	43192.25
563.10	43723.55
563.26	42548.60
563.42	43679.08
563.59	43220.33
563.75	43014.37
563.92	43491.83
564.08	43217.99
564.24	43461.41
564.41	43267.14
564.57	43721.21
564.74	43627.59
564.90	43346.72
565.07	43201.61
565.23	43344.38
565.39	43632.27
565.56	43702.48
565.72	43356.08
565.88	43917.81
566.05	43414.60
566.21	43744.61
566.38	43761.00
566.54	43688.44
566.70	43648.65
566.87	43707.16
567.03	43412.26
567.19	43636.95
567.36	43966.96
567.52	43681.42
567.68	44238.47
567.85	43971.64
568.01	44245.49
568.17	43751.63
568.34	43622.90
568.50	43997.39
568.66	43737.59
568.83	43880.36
568.99	43756.32
569.15	43604.18
569.32	43590.14
569.48	43641.63
569.64	43894.41
569.81	44156.55
569.97	43753.97
570.13	44367.20
570.30	43927.17
570.46	44023.14
570.62	43922.49
570.78	44210.38
570.95	43878.02
571.11	44453.79
571.27	43826.53
571.43	43906.11
571.60	44535.71
571.76	44023.14
571.92	43662.69
572.09	44006.75
572.25	44004.41
572.41	44048.88
572.57	44301.66
572.74	44598.91
572.90	44444.43
573.06	44425.71
573.22	44332.09
573.38	44465.50
573.55	44065.27
573.71	44477.20
573.87	44273.57
574.03	44095.69
574.20	44362.51
574.36	44226.76
574.52	44486.56
574.68	44339.11
574.84	44418.69
575.01	44353.15
575.17	44659.76
575.33	44039.52
575.49	44161.23
575.65	44320.38
575.82	44231.44
575.98	44067.61
576.14	44603.59
576.30	44746.36
576.46	44348.47
576.62	44259.53
576.79	44374.22
576.95	44091.01
577.11	44151.87
577.27	44348.47
577.43	44495.92
577.59	44491.24
577.75	44355.49
577.92	44442.09
578.08	44142.50
578.24	44556.78
578.40	44406.98
578.56	44994.46
578.72	44823.60
578.88	44388.26
579.04	44329.75
579.21	44645.72
579.37	44638.70
579.53	44596.57
579.69	44175.27
579.85	44692.53
580.01	44591.89
580.17	44650.40
580.33	44629.34
580.49	44601.25
580.65	44411.67
580.82	44484.22
580.98	44065.27
581.14	44016.11
581.30	44479.54
581.46	44863.39
581.62	44491.24
581.78	44491.24
581.94	44397.62
582.10	44928.92
582.26	44713.59
582.42	44720.62
582.58	44671.46
582.74	44615.29
582.90	44692.53
583.06	44563.80
583.22	44596.57
583.38	44905.52
583.54	44893.82
583.70	44217.40
583.86	44648.06
584.02	44952.33
584.18	45102.12
584.34	44683.17
584.50	44802.53
584.66	44566.14
584.82	44905.52
584.98	45095.10
585.14	44741.68
585.30	44849.35
585.46	44706.57
585.62	44619.97
585.78	44465.50
585.94	44559.12
586.10	44189.31
586.26	44601.25
586.42	44294.64
586.58	44430.39
586.74	44772.11
586.90	44376.56
587.06	44748.70
587.22	45069.36
587.38	44570.82
587.54	44449.11
587.70	44978.07
587.86	45034.25
588.02	44734.66
588.18	44540.39
588.34	44905.52
588.49	45174.68
588.65	44947.65
588.81	44701.89
588.97	45027.23
589.13	44877.43
589.29	45055.31
589.45	45125.53
589.61	44952.33
589.77	45078.72
589.93	44900.84
590.08	44917.22
590.24	45535.12
