SpectraSuite Data File
++++++++++++++++++++++++++++++++++++
Date: Fri Oct 25 11:34:33 EDT 2013
User: price-jones
Dark Spectrum Present: No
Reference Spectrum Present: No
Number of Sampled Component Spectra: 1
Spectrometers: USB2+H05261
Integration Time (usec): 100000 (USB2+H05261)
Spectra Averaged: 1 (USB2+H05261)
Boxcar Smoothing: 0 (USB2+H05261)
Correct for Electrical Dark: No (USB2+H05261)
Strobe/Lamp Enabled: No (USB2+H05261)
Correct for Detector Non-linearity: No (USB2+H05261)
Correct for Stray Light: No (USB2+H05261)
Number of Pixels in Processed Spectrum: 2048
>>>>>Begin Processed Spectral Data<<<<<
365.73	238.73
365.92	238.73
366.12	238.73
366.32	168.52
366.52	156.82
366.72	163.84
366.91	138.09
367.11	161.50
367.31	149.79
367.51	161.50
367.70	149.79
367.90	156.82
368.10	184.90
368.30	238.73
368.49	191.92
368.69	220.01
368.89	131.07
369.09	243.42
369.28	210.65
369.48	215.33
369.68	201.29
369.87	259.80
370.07	269.16
370.27	273.84
370.47	337.04
370.66	498.53
370.86	486.83
371.06	535.98
371.25	550.03
371.45	514.92
371.65	578.11
371.84	559.39
372.04	564.07
372.24	568.75
372.44	566.41
372.63	571.09
372.83	585.13
373.03	627.26
373.22	608.54
373.42	613.22
373.62	678.76
373.81	615.56
374.01	580.45
374.21	681.10
374.40	587.47
374.60	671.73
374.79	620.24
374.99	645.99
375.19	697.48
375.38	627.26
375.58	716.20
375.78	671.73
375.97	692.80
376.17	744.29
376.37	671.73
376.56	664.71
376.76	655.35
376.95	674.07
377.15	709.18
377.35	748.97
377.54	699.82
377.74	559.39
377.93	645.99
378.13	741.95
378.33	706.84
378.52	645.99
378.72	781.74
378.91	730.25
379.11	725.57
379.31	627.26
379.50	683.44
379.70	704.50
379.89	737.27
380.09	648.33
380.28	732.59
380.48	767.70
380.68	615.56
380.87	706.84
381.07	706.84
381.26	772.38
381.46	786.42
381.65	685.78
381.85	779.40
382.04	774.72
382.24	683.44
382.43	777.06
382.63	826.21
382.83	718.54
383.02	840.25
383.22	786.42
383.41	786.42
383.61	781.74
383.80	741.95
384.00	788.76
384.19	805.14
384.39	823.87
384.58	685.78
384.78	779.40
384.97	847.27
385.17	765.36
385.36	861.32
385.56	840.25
385.75	814.51
385.95	823.87
386.14	812.17
386.34	802.80
386.53	849.61
386.72	821.53
386.92	924.51
387.11	938.55
387.31	959.62
387.50	784.08
387.70	844.93
387.89	976.00
388.09	863.66
388.28	882.38
388.48	863.66
388.67	868.34
388.86	931.53
389.06	882.38
389.25	910.47
389.45	910.47
389.64	966.64
389.84	1025.15
390.03	980.68
390.22	950.26
390.42	1086.01
390.61	917.49
390.81	908.13
391.00	985.37
391.19	940.90
391.39	931.53
391.58	940.90
391.78	980.68
391.97	966.64
392.16	931.53
392.36	1064.94
392.55	1069.62
392.75	1034.52
392.94	1146.86
393.13	1004.09
393.33	945.58
393.52	994.73
393.71	1039.20
393.91	1011.11
394.10	1046.22
394.29	1048.56
394.49	1107.07
394.68	1088.35
394.88	1090.69
395.07	1088.35
395.26	1053.24
395.46	1057.92
395.65	1170.27
395.84	1114.10
396.04	1165.59
396.23	1214.74
396.42	1146.86
396.62	1160.91
396.81	1235.80
397.00	1172.61
397.19	1160.91
397.39	1177.29
397.58	1170.27
397.77	1153.88
397.97	1186.65
398.16	1249.85
398.35	1217.08
398.55	1198.35
398.74	1156.22
398.93	1252.19
399.12	1284.95
399.32	1203.04
399.51	1266.23
399.70	1329.42
399.90	1287.29
400.09	1306.02
400.28	1404.32
400.47	1322.40
400.67	1270.91
400.86	1413.68
401.05	1418.36
401.24	1390.28
401.44	1343.47
401.63	1390.28
401.82	1399.64
402.01	1465.18
402.21	1448.79
402.40	1401.98
402.59	1425.39
402.78	1411.34
402.97	1472.20
403.17	1504.96
403.36	1537.73
403.55	1614.97
403.74	1497.94
403.93	1486.24
404.13	1523.69
404.32	1624.33
404.51	1572.84
404.70	1661.78
404.89	1469.86
405.09	1530.71
405.28	1600.93
405.47	1500.28
405.66	1614.97
405.85	1547.09
406.05	1715.61
406.24	1652.42
406.43	1626.67
406.62	1734.34
406.81	1795.19
407.00	1689.87
407.20	1685.19
407.39	1685.19
407.58	1750.72
407.77	1699.23
407.96	1781.15
408.15	1776.47
408.34	1790.51
408.54	1853.70
408.73	1802.21
408.92	1905.20
409.11	1930.94
409.30	1935.62
409.49	1952.01
409.68	1973.07
409.87	1989.46
410.07	1984.77
410.26	1933.28
410.45	2012.86
410.64	1916.90
410.83	1937.96
411.02	2017.54
411.21	2076.06
411.40	2183.72
411.59	2085.42
411.78	2160.31
411.98	2153.29
412.17	2202.44
412.36	2246.91
412.55	2174.36
412.74	2246.91
412.93	2223.51
413.12	2272.66
413.31	2415.43
413.50	2333.51
413.69	2317.13
413.88	2410.75
414.07	2356.92
414.26	2317.13
414.45	2370.96
414.64	2485.65
414.83	2569.91
415.02	2532.46
415.22	2527.78
415.41	2539.48
415.60	2551.18
415.79	2647.15
415.98	2710.34
416.17	2614.38
416.36	2487.99
416.55	2619.06
416.74	2747.79
416.93	2740.77
417.12	2715.02
417.31	2689.28
417.50	2796.94
417.69	2808.64
417.88	2792.26
418.07	2904.60
418.26	2806.30
418.45	2792.26
418.64	2906.95
418.83	2825.03
419.02	2918.65
419.21	3028.65
419.39	3133.98
419.58	2930.35
419.77	2918.65
419.96	2998.23
420.15	3108.23
420.34	2979.50
420.53	3063.76
420.72	3073.12
420.91	3084.83
421.10	3164.40
421.29	3159.72
421.48	3122.27
421.67	3136.32
421.86	3082.49
422.05	3199.51
422.24	3276.75
422.43	3206.53
422.61	3276.75
422.80	3222.92
422.99	3201.85
423.18	3199.51
423.37	3335.26
423.56	3229.94
423.75	3286.11
423.94	3258.03
424.13	3084.83
424.32	3288.45
424.50	3424.20
424.69	3236.96
424.88	3377.39
425.07	3265.05
425.26	3222.92
425.45	3307.18
425.64	3297.81
425.83	3241.64
426.01	3454.63
426.20	3440.59
426.39	3286.11
426.58	3433.57
426.77	3375.05
426.96	3337.60
427.15	3274.41
427.33	3447.61
427.52	3412.50
427.71	3529.53
427.90	3471.01
428.09	3548.25
428.28	3559.95
428.46	3527.19
428.65	3536.55
428.84	3632.51
429.03	3655.92
429.22	3543.57
429.40	3592.72
429.59	3662.94
429.78	3496.76
429.97	3583.36
430.16	3707.41
430.34	3761.24
430.53	3695.71
430.72	3660.60
430.91	3740.18
431.10	3669.96
431.28	3826.78
431.47	3777.62
431.66	3775.28
431.85	3915.72
432.03	3850.18
432.22	3976.57
432.41	3836.14
432.60	3829.12
432.79	3983.59
432.97	4100.62
433.16	3992.95
433.35	3836.14
433.54	3964.87
433.72	3976.57
433.91	4042.11
434.10	4044.45
434.28	4093.60
434.47	4128.70
434.66	3981.25
434.85	4121.68
435.03	4194.24
435.22	4152.11
435.41	4156.79
435.59	4049.13
435.78	4205.94
435.97	4255.09
436.16	4168.49
436.34	4229.35
436.53	4269.14
436.72	4212.96
436.90	4236.37
437.09	4400.21
437.28	4301.90
437.46	4369.78
437.65	4423.61
437.84	4414.25
438.02	4334.67
438.21	4404.89
438.40	4358.08
438.58	4575.75
438.77	4535.96
438.96	4477.44
439.14	4648.30
439.33	4578.09
439.52	4727.88
439.70	4725.54
439.89	4767.67
440.08	4854.27
440.26	4802.78
440.45	4795.76
440.63	4882.36
440.82	5004.07
441.01	4784.06
441.19	4978.32
441.38	5156.20
441.57	5013.43
441.75	5085.98
441.94	5245.14
442.12	5261.52
442.31	5039.17
442.50	5188.97
442.68	5214.71
442.87	5163.22
443.05	5277.91
443.24	5174.92
443.43	5188.97
443.61	5345.78
443.80	5343.44
443.98	5275.57
444.17	5039.17
444.35	5444.09
444.54	5430.04
444.73	5371.53
444.91	5331.74
445.10	5434.72
445.28	5383.23
445.47	5420.68
445.65	5418.34
445.84	5483.88
446.02	5486.22
446.21	5448.77
446.39	5291.95
446.58	5537.71
446.77	5556.43
446.95	5406.64
447.14	5586.86
447.32	5563.45
447.51	5523.66
447.69	5554.09
447.88	5526.00
448.06	5645.37
448.25	5432.38
448.43	5584.52
448.62	5600.90
448.80	5647.71
448.99	5708.57
449.17	5654.73
449.36	5563.45
449.54	5572.82
449.73	5762.40
449.91	5809.21
450.10	5830.27
450.28	5743.67
450.46	5902.83
450.65	5968.37
450.83	5767.08
451.02	5699.20
451.20	6024.54
451.39	5870.06
451.57	6022.20
451.76	5909.85
451.94	5984.75
452.13	5905.17
452.31	5879.43
452.49	5898.15
452.68	6059.65
452.86	6087.73
453.05	5956.66
453.23	6211.78
453.42	6101.78
453.60	6017.52
453.78	6214.12
453.97	6087.73
454.15	6181.35
454.34	6106.46
454.52	6228.17
454.70	6349.87
454.89	6253.91
455.07	6342.85
455.26	6284.34
455.44	6401.37
455.62	6380.30
455.81	6303.06
455.99	6338.17
456.17	6506.69
456.36	6424.77
456.54	6434.13
456.73	6588.61
456.91	6780.53
457.09	6712.66
457.28	6925.65
457.46	6654.14
457.64	6918.62
457.83	6897.56
458.01	6754.79
458.19	6876.49
458.38	6832.02
458.56	6839.05
458.74	6829.68
458.93	6963.09
459.11	6799.26
459.29	6949.05
459.48	6963.09
459.66	7016.93
459.84	7089.48
460.03	7164.38
460.21	7084.80
460.39	7122.25
460.57	7155.02
460.76	7138.63
460.94	7307.15
461.12	7260.34
461.31	6970.12
461.49	7063.74
461.67	7213.53
461.85	7316.51
462.04	7302.47
462.22	7702.70
462.40	7412.48
462.59	7372.69
462.77	7426.52
462.95	7398.43
463.13	7428.86
463.32	7459.29
463.50	7496.74
463.68	7478.01
463.86	7616.10
464.05	7456.95
464.23	7337.58
464.41	7548.23
464.59	7641.85
464.78	7597.38
464.96	7637.17
465.14	7688.66
465.32	7630.15
465.50	7768.24
465.69	7831.43
465.87	7892.29
466.05	7815.05
466.23	7901.65
466.41	8002.29
466.60	8013.99
466.78	7801.01
466.96	7868.88
467.14	7850.16
467.32	8028.04
467.51	7943.78
467.69	7676.96
467.87	7995.27
468.05	8170.81
468.23	8173.15
468.41	7819.73
468.60	8053.78
468.78	8180.17
468.96	8105.28
469.14	8180.17
469.32	8208.26
469.50	8060.80
469.69	8212.94
469.87	8351.03
470.05	8194.22
470.23	8348.69
470.41	8475.08
470.59	8538.27
470.77	8479.76
470.95	8425.93
471.14	8631.90
471.32	8505.51
471.50	8547.64
471.68	8601.47
471.86	8507.85
472.04	8716.16
472.22	8837.86
472.40	8805.10
472.58	8786.37
472.77	8940.85
472.95	8952.55
473.13	9273.20
473.31	9142.13
473.49	8908.08
473.67	9057.87
473.85	9067.24
474.03	9404.27
474.21	9090.64
474.39	9282.56
474.57	9451.08
474.75	9423.00
474.93	9502.58
475.12	9291.93
475.30	9750.67
475.48	9528.32
475.66	9654.71
475.84	9397.25
476.02	9731.95
476.20	9734.29
476.38	9895.78
476.56	10167.29
476.74	9956.64
476.92	10026.86
477.10	9769.40
477.28	10267.93
477.46	10193.03
477.64	10382.62
477.82	10452.83
478.00	10581.56
478.18	10626.03
478.36	10450.49
478.54	10864.77
478.72	10691.57
478.90	10995.84
479.08	10934.98
479.26	11105.84
479.44	11000.52
479.62	11178.40
479.80	11398.41
479.98	11419.47
480.16	11744.81
480.34	11592.67
480.52	11723.74
480.70	11892.26
480.88	11723.74
481.06	11700.34
481.24	11803.32
481.41	12006.95
481.59	12332.28
481.77	12159.08
481.95	12273.77
482.13	12358.03
482.31	12414.20
482.49	12779.32
482.67	12805.07
482.85	12954.87
483.03	13083.59
483.21	13240.41
483.39	13235.73
483.57	12933.80
483.74	13163.17
483.92	13657.03
484.10	13406.59
484.28	13584.47
484.46	13682.77
484.64	13961.30
484.82	13717.88
485.00	14127.47
485.18	14162.58
485.35	14171.94
485.53	14265.57
485.71	14546.43
485.89	14810.91
486.07	14656.43
486.25	14864.74
486.43	14970.07
486.61	14913.89
486.78	15087.09
486.96	15150.29
487.14	15309.44
487.32	15201.78
487.50	15360.94
487.68	15644.14
487.85	15772.87
488.03	16035.01
488.21	16105.23
488.39	16278.43
488.57	16484.39
488.75	16332.26
488.92	16465.67
489.10	16645.89
489.28	16847.18
489.46	16950.16
489.64	16968.88
489.81	17364.43
489.99	17174.85
490.17	17256.77
490.35	17568.06
490.53	17436.99
490.70	17563.38
490.88	17682.75
491.06	18293.63
491.24	17919.14
491.41	18228.09
491.59	18415.34
491.77	18375.55
491.95	18565.13
492.13	18920.89
492.30	18567.47
492.48	18717.26
492.66	18977.06
492.84	19110.47
493.01	19173.67
493.19	19152.60
493.37	19316.44
493.54	19283.67
493.72	19749.44
493.90	19400.70
494.08	19672.20
494.25	19609.01
494.43	20152.01
494.61	20259.68
494.79	20294.79
494.96	20149.67
495.14	20355.64
495.32	20723.10
495.49	20821.41
495.67	20631.82
495.85	21078.86
496.02	20940.77
496.20	21303.56
496.38	21296.53
496.55	21380.79
496.73	21795.07
496.91	21603.14
497.09	22190.62
497.26	22003.38
497.44	21830.18
497.62	22059.55
497.79	22377.86
497.97	22309.99
498.14	22412.97
498.32	22696.17
498.50	22342.75
498.67	23063.64
498.85	22518.29
499.03	22911.50
499.20	22897.46
499.38	23073.00
499.56	23112.79
499.73	23257.90
499.91	23407.70
500.08	23449.83
500.26	23431.10
500.44	23702.61
500.61	23791.55
500.79	23611.32
500.97	23871.12
501.14	23995.17
501.32	23983.47
501.49	24002.19
501.67	24016.24
501.84	24467.96
502.02	24535.84
502.20	24336.89
502.37	24348.59
502.55	24343.91
502.72	24683.29
502.90	24631.80
503.07	24400.08
503.25	24933.73
503.43	24683.29
503.60	24903.30
503.78	25408.86
503.95	24985.22
504.13	25364.39
504.30	25481.41
504.48	25263.74
504.65	25617.16
504.83	25905.05
505.01	26242.09
505.18	25640.57
505.36	26075.91
505.53	26244.43
505.71	25928.45
505.88	25989.31
506.06	26225.70
506.23	26036.12
506.41	26139.10
506.58	26363.79
506.76	26497.20
506.93	26658.70
507.11	26817.86
507.28	26909.14
507.46	26810.84
507.63	26768.71
507.81	27360.86
507.98	26768.71
508.16	27339.80
508.33	27384.27
508.50	27161.92
508.68	27662.79
508.85	27606.62
509.03	27374.91
509.20	28027.92
509.38	28130.90
509.55	27840.67
509.73	27953.02
509.90	28025.57
510.08	28056.00
510.25	27955.36
510.42	27999.83
510.60	28238.56
510.77	28404.74
510.95	28493.68
511.12	28343.89
511.30	28634.11
511.47	28652.84
511.64	28283.03
511.82	29001.58
511.99	28559.22
512.17	28643.48
512.34	28980.51
512.51	29303.51
512.69	29577.35
512.86	29111.58
513.04	29610.12
513.21	29633.52
513.38	29640.54
513.56	29872.26
513.73	29329.25
513.90	29675.65
514.08	29811.40
514.25	30066.52
514.43	30075.88
514.60	30040.78
514.77	29975.24
514.95	30078.22
515.12	30293.55
515.29	30148.44
515.47	30602.50
515.64	30649.32
515.81	29970.56
515.99	30574.42
516.16	30895.07
516.33	30607.19
516.51	31054.23
516.68	30635.27
516.85	31124.44
517.03	31218.07
517.20	30703.15
517.37	31292.96
517.54	30937.20
517.72	31292.96
517.89	31274.24
518.06	31917.89
518.24	31496.59
518.41	31421.69
518.58	31775.11
518.75	31536.38
518.93	32102.79
519.10	31604.25
519.27	31641.70
519.45	31997.46
519.62	32055.98
519.79	32245.56
519.96	32240.88
520.14	32100.45
520.31	32034.91
520.48	32095.77
520.65	32470.25
520.83	33125.60
521.00	32854.10
521.17	32519.40
521.34	32767.50
521.52	32823.67
521.69	32961.76
521.86	32971.13
522.03	33230.93
522.20	33266.03
522.38	33560.94
522.55	33310.50
522.72	33322.21
522.89	33682.65
523.07	33497.75
523.24	33284.76
523.41	33905.00
523.58	33429.87
523.75	33710.74
523.92	33820.74
524.10	34061.82
524.27	34073.52
524.44	33993.94
524.61	34015.01
524.78	33663.93
524.96	34382.47
525.13	34043.09
525.30	34581.42
525.47	34506.52
525.64	34473.75
525.81	34965.26
525.98	34665.67
526.16	34660.99
526.33	34696.10
526.50	35028.46
526.67	34941.86
526.84	34497.16
527.01	34979.31
527.18	34972.28
527.36	35028.46
527.53	35297.62
527.70	35316.34
527.87	35278.89
528.04	35253.15
528.21	35229.74
528.38	34899.73
528.55	35349.11
528.72	35218.04
528.89	35072.93
529.07	35372.52
529.24	35306.98
529.41	35782.11
529.58	35857.01
529.75	35541.03
529.92	36137.87
530.09	35660.40
530.26	35562.10
530.43	35644.02
530.60	35739.98
530.77	35695.51
530.94	36037.23
531.11	36093.40
531.28	36409.37
531.46	35997.44
531.63	36215.11
531.80	36278.30
531.97	36783.86
532.14	36182.34
532.31	36430.44
532.48	36891.52
532.65	36659.81
532.82	36723.01
532.99	36753.43
533.16	36840.03
533.33	37177.07
533.50	36959.40
533.67	37020.25
533.84	36800.24
534.01	37024.93
534.18	36971.10
534.35	37521.13
534.52	37556.24
534.69	37792.63
534.86	37497.72
535.03	37244.94
535.20	37750.50
535.37	37727.10
535.54	37607.73
535.71	37474.32
535.88	37448.57
536.05	37804.33
536.22	37837.10
536.38	37914.34
536.55	37851.14
536.72	37858.17
536.89	37984.55
537.06	37886.25
537.23	38061.79
537.40	37886.25
537.57	37612.41
537.74	38242.01
537.91	38082.86
538.08	37993.92
538.25	37706.03
538.42	38440.96
538.59	38550.96
538.75	38279.46
538.92	38567.35
539.09	38408.19
539.26	38703.10
539.43	38574.37
539.60	38522.88
539.77	38700.76
539.94	39079.92
540.11	38869.28
540.28	38796.72
540.44	38740.55
540.61	38993.32
540.78	38623.52
540.95	38733.53
541.12	39000.35
541.29	38651.61
541.46	38731.18
541.62	39108.01
541.79	39363.13
541.96	39000.35
542.13	38778.00
542.30	39051.84
542.47	39164.18
542.63	39416.96
542.80	39709.53
542.97	39793.79
543.14	40018.48
543.31	39690.80
543.48	39665.06
543.64	40175.30
543.81	40053.59
543.98	39880.39
544.15	40069.97
544.32	40093.38
544.48	40437.44
544.65	40175.30
544.82	40444.46
544.99	40385.94
545.16	40266.58
545.32	40339.13
545.49	40540.42
545.66	40762.77
545.83	40388.28
546.00	40739.36
546.16	40191.68
546.33	40378.92
546.50	40587.23
546.67	40926.61
546.83	40479.57
547.00	40538.08
547.17	40367.22
547.34	40308.71
547.50	41413.44
547.67	41127.89
547.84	40493.61
548.00	40872.78
548.17	41572.60
548.34	41235.56
548.51	41247.26
548.67	41483.66
548.84	41294.07
549.01	41188.75
549.18	41242.58
549.34	41584.30
549.51	41497.70
549.68	41748.14
549.84	41387.69
550.01	41872.18
550.18	41324.50
550.34	41179.39
550.51	41603.02
550.68	41975.17
550.84	41392.37
551.01	42312.20
551.18	41205.13
551.34	41291.73
551.51	42078.15
551.68	41816.01
551.84	41635.79
552.01	41649.83
552.18	41528.13
552.34	41886.23
552.51	42323.91
552.68	42052.41
552.84	41935.38
553.01	42267.73
553.18	42003.25
553.34	42087.51
553.51	42038.36
553.67	42412.85
553.84	42330.93
554.01	42401.14
554.17	42298.16
554.34	42387.10
554.51	42124.96
554.67	42597.75
554.84	42424.55
555.00	42314.55
555.17	42784.99
555.33	42487.74
555.50	42478.38
555.67	42281.78
555.83	42756.91
556.00	42581.37
556.16	43009.68
556.33	42967.55
556.50	42815.42
556.66	42782.65
556.83	42508.81
556.99	43281.19
557.16	43419.28
557.32	42670.31
557.49	42990.96
557.65	42672.65
557.82	43185.22
557.98	42913.72
558.15	43302.25
558.32	42738.18
558.48	43047.13
558.65	43255.44
558.81	42796.70
558.98	43489.49
559.14	42986.28
559.31	43203.95
559.47	43215.65
559.64	43093.94
559.80	43477.79
559.97	43819.51
560.13	43171.18
560.30	43145.44
560.46	43175.86
560.63	43611.20
560.79	43405.23
560.96	43550.35
561.12	43569.07
561.29	43587.80
561.45	44095.69
561.61	43253.10
561.78	43456.73
561.94	43791.42
562.11	43615.88
562.27	43674.40
562.44	43976.33
562.60	43931.86
562.77	44339.11
562.93	43739.93
563.10	44158.89
563.26	43854.62
563.42	44231.44
563.59	43725.89
563.75	43557.37
563.92	44086.33
564.08	44081.65
564.24	43983.35
564.41	43749.29
564.57	43856.96
564.74	43948.24
564.90	43920.15
565.07	43791.42
565.23	43868.66
565.39	43508.22
565.56	44215.06
565.72	43981.01
565.88	44247.83
566.05	44498.26
566.21	44009.09
566.38	44311.02
566.54	44191.65
566.70	43824.19
566.87	44191.65
567.03	43639.29
567.19	43990.37
567.36	44222.08
567.52	44378.90
567.68	44821.26
567.85	44645.72
568.01	44594.23
568.17	44198.68
568.34	44727.64
568.50	44594.23
568.66	44306.34
568.83	44320.38
568.99	44425.71
569.15	44428.05
569.32	44313.36
569.48	44430.39
569.64	44594.23
569.81	44339.11
569.97	44535.71
570.13	44877.43
570.30	44362.51
570.46	44582.52
570.62	44399.96
570.78	44346.13
570.95	44406.98
571.11	44896.16
571.27	44591.89
571.43	44470.18
571.60	44470.18
571.76	44687.85
571.92	44612.95
572.09	44568.48
572.25	44231.44
572.41	44516.99
572.57	44760.40
572.74	45003.82
572.90	44479.54
573.06	44828.28
573.22	44402.30
573.38	44828.28
573.55	44718.28
573.71	45298.73
573.87	44809.56
574.03	44549.76
574.20	45237.87
574.36	44751.04
574.52	44828.28
574.68	44650.40
574.84	44790.83
575.01	45116.17
575.17	45125.53
575.33	45069.36
575.49	44610.61
575.65	44975.73
575.82	45277.66
575.98	44563.80
576.14	45408.73
576.30	45212.13
576.46	45191.06
576.62	45270.64
576.79	44751.04
576.95	44435.07
577.11	44657.42
577.27	44856.37
577.43	44931.26
577.59	45296.39
577.75	44884.45
577.92	44727.64
578.08	45071.70
578.24	44835.30
578.40	45668.53
578.56	45045.95
578.72	45263.62
578.88	45291.71
579.04	45235.53
579.21	44945.31
579.37	44968.71
579.53	44861.05
579.69	45188.72
579.85	44842.32
580.01	44612.95
580.17	45078.72
580.33	44858.71
580.49	45090.42
580.65	45071.70
580.82	44861.05
580.98	44842.32
581.14	44732.32
581.30	45202.77
581.46	45067.02
581.62	44837.64
581.78	44889.13
581.94	45338.52
582.10	45207.45
582.26	45324.47
582.42	45219.15
582.58	44919.56
582.74	45095.10
582.90	45261.28
583.06	45420.44
583.22	45177.02
583.38	45036.59
583.54	45460.23
583.70	45649.81
583.86	45296.39
584.02	45109.14
584.18	45319.79
584.34	45120.85
584.50	45717.68
584.66	45177.02
584.82	45537.46
584.98	45624.06
585.14	45350.22
585.30	44926.58
585.46	45287.03
585.62	44622.31
585.78	45247.24
585.94	45027.23
586.10	45354.90
586.26	45085.74
586.42	44959.35
586.58	45553.85
586.74	45008.50
586.90	45265.96
587.06	45411.07
587.22	45411.07
587.38	44952.33
587.54	45392.35
587.70	45521.08
587.86	45319.79
588.02	45179.36
588.18	44889.13
588.34	45701.30
588.49	45525.76
588.65	45251.92
588.81	45694.28
588.97	45546.82
589.13	45483.63
589.29	45415.76
589.45	45900.25
589.61	45724.71
589.77	45610.02
589.93	45492.99
590.08	45446.18
