SpectraSuite Data File
++++++++++++++++++++++++++++++++++++
Date: Fri Oct 25 11:33:27 EDT 2013
User: price-jones
Dark Spectrum Present: No
Reference Spectrum Present: No
Number of Sampled Component Spectra: 1
Spectrometers: USB2+H05261
Integration Time (usec): 100000 (USB2+H05261)
Spectra Averaged: 1 (USB2+H05261)
Boxcar Smoothing: 0 (USB2+H05261)
Correct for Electrical Dark: No (USB2+H05261)
Strobe/Lamp Enabled: No (USB2+H05261)
Correct for Detector Non-linearity: No (USB2+H05261)
Correct for Stray Light: No (USB2+H05261)
Number of Pixels in Processed Spectrum: 2048
>>>>>Begin Processed Spectral Data<<<<<
365.73	315.97
365.92	315.97
366.12	315.97
366.32	159.16
366.52	196.60
366.72	227.03
366.91	142.77
367.11	74.90
367.31	159.16
367.51	170.86
367.70	95.96
367.90	142.77
368.10	217.67
368.30	180.22
368.49	227.03
368.69	238.73
368.89	243.42
369.09	173.20
369.28	231.71
369.48	241.08
369.68	215.33
369.87	198.95
370.07	330.02
370.27	290.23
370.47	330.02
370.66	465.77
370.86	484.49
371.06	496.19
371.25	580.45
371.45	592.16
371.65	514.92
371.84	624.92
372.04	531.30
372.24	571.09
372.44	585.13
372.63	545.34
372.83	599.18
373.03	617.90
373.22	688.12
373.42	557.05
373.62	648.33
373.81	664.71
374.01	606.20
374.21	678.76
374.40	601.52
374.60	709.18
374.79	634.29
374.99	671.73
375.19	660.03
375.38	664.71
375.58	643.65
375.78	723.23
375.97	734.93
376.17	671.73
376.37	636.63
376.56	699.82
376.76	629.60
376.95	678.76
377.15	648.33
377.35	645.99
377.54	716.20
377.74	704.50
377.93	634.29
378.13	676.41
378.33	620.24
378.52	690.46
378.72	713.86
378.91	723.23
379.11	653.01
379.31	636.63
379.50	690.46
379.70	770.04
379.89	732.59
380.09	755.99
380.28	716.20
380.48	709.18
380.68	758.33
380.87	662.37
381.07	730.25
381.26	781.74
381.46	744.29
381.65	765.36
381.85	786.42
382.04	751.31
382.24	828.55
382.43	840.25
382.63	781.74
382.83	842.59
383.02	781.74
383.22	863.66
383.41	826.21
383.61	784.08
383.80	887.06
384.00	807.48
384.19	786.42
384.39	809.83
384.58	753.65
384.78	826.21
384.97	751.31
385.17	823.87
385.36	781.74
385.56	891.74
385.75	755.99
385.95	863.66
386.14	866.00
386.34	814.51
386.53	919.83
386.72	896.43
386.92	891.74
387.11	837.91
387.31	903.45
387.50	964.30
387.70	866.00
387.89	866.00
388.09	987.71
388.28	933.87
388.48	997.07
388.67	903.45
388.86	882.38
389.06	987.71
389.25	929.19
389.45	936.21
389.64	954.94
389.84	945.58
390.03	1006.43
390.22	943.24
390.42	877.70
390.61	940.90
390.81	943.24
391.00	1004.09
391.19	1006.43
391.39	1008.77
391.58	1067.28
391.78	1013.45
391.97	1050.90
392.16	971.32
392.36	936.21
392.55	1041.54
392.75	1055.58
392.94	1013.45
393.13	954.94
393.33	1107.07
393.52	1039.20
393.71	1064.94
393.91	1069.62
394.10	1146.86
394.29	1090.69
394.49	1001.75
394.68	1132.82
394.88	1193.67
395.07	1174.95
395.26	1137.50
395.46	1121.12
395.65	1242.82
395.84	1263.89
396.04	1144.52
396.23	1242.82
396.42	1160.91
396.62	1170.27
396.81	1191.33
397.00	1233.46
397.19	1177.29
397.39	1247.51
397.58	1247.51
397.77	1249.85
397.97	1357.51
398.16	1160.91
398.35	1270.91
398.55	1233.46
398.74	1259.21
398.93	1334.11
399.12	1369.21
399.32	1416.02
399.51	1317.72
399.70	1369.21
399.90	1404.32
400.09	1352.83
400.28	1380.92
400.47	1404.32
400.67	1404.32
400.86	1343.47
401.05	1469.86
401.24	1486.24
401.44	1453.47
401.63	1411.34
401.82	1406.66
402.01	1390.28
402.21	1418.36
402.40	1556.46
402.59	1472.20
402.78	1479.22
402.97	1523.69
403.17	1495.60
403.36	1476.88
403.55	1500.28
403.74	1671.14
403.93	1586.88
404.13	1640.72
404.32	1453.47
404.51	1626.67
404.70	1572.84
404.89	1551.78
405.09	1647.74
405.28	1710.93
405.47	1699.23
405.66	1755.40
405.85	1734.34
406.05	1701.57
406.24	1600.93
406.43	1743.70
406.62	1694.55
406.81	1825.62
407.00	1783.49
407.20	1724.97
407.39	1682.85
407.58	1722.63
407.77	1914.56
407.96	1865.41
408.15	1827.96
408.34	1891.15
408.54	1813.92
408.73	1886.47
408.92	1989.46
409.11	2033.93
409.30	1970.73
409.49	1998.82
409.68	2022.22
409.87	1980.09
410.07	2106.48
410.26	2045.63
410.45	2047.97
410.64	2162.66
410.83	2069.03
411.02	2150.95
411.21	2094.78
411.40	2251.60
411.59	2235.21
411.78	2155.63
411.98	2120.53
412.17	2324.15
412.36	2169.68
412.55	2326.49
412.74	2375.64
412.93	2359.26
413.12	2420.11
413.31	2438.84
413.50	2335.85
413.69	2298.41
413.88	2473.95
414.07	2434.16
414.26	2431.82
414.45	2483.31
414.64	2513.74
414.83	2553.52
415.02	2665.87
415.22	2562.89
415.41	2541.82
415.60	2605.02
415.79	2715.02
415.98	2663.53
416.17	2738.43
416.36	2775.88
416.55	2785.24
416.74	2857.79
416.93	2668.21
417.12	2876.52
417.31	2991.20
417.50	2827.37
417.69	2951.42
417.88	2911.63
418.07	2864.82
418.26	3021.63
418.45	2925.67
418.64	2984.18
418.83	2986.52
419.02	3082.49
419.21	3056.74
419.39	3038.02
419.58	3089.51
419.77	3040.36
419.96	3126.96
420.15	3126.96
420.34	3187.81
420.53	3087.17
420.72	3269.73
420.91	3279.09
421.10	3281.43
421.29	3304.84
421.48	3251.00
421.67	3180.79
421.86	3218.24
422.05	3337.60
422.24	3192.49
422.43	3295.47
422.61	3344.63
422.80	3454.63
422.99	3398.46
423.18	3405.48
423.37	3480.38
423.56	3353.99
423.75	3358.67
423.94	3283.77
424.13	3169.09
424.32	3286.11
424.50	3485.06
424.69	3398.46
424.88	3620.81
425.07	3414.84
425.26	3267.39
425.45	3536.55
425.64	3361.01
425.83	3351.65
426.01	3431.23
426.20	3517.83
426.39	3550.59
426.58	3489.74
426.77	3585.70
426.96	3494.42
427.15	3463.99
427.33	3520.17
427.52	3564.64
427.71	3660.60
427.90	3644.21
428.09	3714.43
428.28	3700.39
428.46	3723.79
428.65	3604.42
428.84	3756.56
429.03	3737.84
429.22	3564.64
429.40	3815.07
429.59	3786.99
429.78	3639.53
429.97	3658.26
430.16	3840.82
430.34	3962.53
430.53	3796.35
430.72	3911.04
430.91	3854.86
431.10	3885.29
431.28	4030.40
431.47	3826.78
431.66	4011.68
431.85	3908.69
432.03	4079.55
432.22	4217.65
432.41	3971.89
432.60	4100.62
432.79	3985.93
432.97	4011.68
433.16	4119.34
433.35	4079.55
433.54	4189.56
433.72	4255.09
433.91	4159.13
434.10	4212.96
434.28	4227.01
434.47	4313.61
434.66	4184.88
434.85	4308.93
435.03	4362.76
435.22	4271.48
435.41	4423.61
435.59	4407.23
435.78	4381.48
435.97	4475.10
436.16	4423.61
436.34	4416.59
436.53	4421.27
436.72	4580.43
436.90	4416.59
437.09	4379.14
437.28	4524.26
437.46	4528.94
437.65	4458.72
437.84	4620.22
438.02	4758.31
438.21	4669.37
438.40	4660.01
438.58	4739.58
438.77	4765.33
438.96	4777.03
439.14	4791.08
439.33	4880.02
439.52	4807.46
439.70	5001.72
439.89	4854.27
440.08	4959.60
440.26	5036.83
440.45	4983.00
440.63	5083.64
440.82	5163.22
441.01	5221.74
441.19	5203.01
441.38	5212.37
441.57	5240.46
441.75	5364.51
441.94	5451.11
442.12	5455.79
442.31	5507.28
442.50	5336.42
442.68	5551.75
442.87	5458.13
443.05	5612.60
443.24	5621.97
443.43	5591.54
443.61	5699.20
443.80	5762.40
443.98	5430.04
444.17	5334.08
444.35	5479.19
444.54	5792.83
444.73	5666.44
444.91	5591.54
445.10	5856.02
445.28	5729.63
445.47	5652.39
445.65	5596.22
445.84	5696.86
446.02	5834.96
446.21	5671.12
446.39	5701.54
446.58	5753.04
446.77	5703.89
446.95	5575.16
447.14	5703.89
447.32	5888.79
447.51	5710.91
447.69	5724.95
447.88	5708.57
448.06	5701.54
448.25	5757.72
448.43	5748.36
448.62	5902.83
448.80	5647.71
448.99	5865.38
449.17	5851.34
449.36	5788.14
449.54	6111.14
449.73	5944.96
449.91	6097.10
450.10	6043.26
450.28	6066.67
450.46	6139.23
450.65	6061.99
450.83	6139.23
451.02	6127.52
451.20	6080.71
451.39	6202.42
451.57	6223.48
451.76	6160.29
451.94	6235.19
452.13	6424.77
452.31	6410.73
452.49	6228.17
452.68	6471.58
452.86	6462.22
453.05	6370.94
453.23	6441.15
453.42	6345.19
453.60	6345.19
453.78	6532.44
453.97	6415.41
454.15	6424.77
454.34	6403.71
454.52	6448.18
454.70	6722.02
454.89	6579.25
455.07	6555.84
455.26	6745.42
455.44	6754.79
455.62	6843.73
455.81	6752.45
455.99	6731.38
456.17	6752.45
456.36	6829.68
456.54	7052.03
456.73	7007.56
456.91	7222.89
457.09	7073.10
457.28	7269.70
457.46	6981.82
457.64	7164.38
457.83	7066.08
458.01	7052.03
458.19	7293.11
458.38	7019.27
458.56	7276.73
458.74	7290.77
458.93	7133.95
459.11	7304.81
459.29	7265.02
459.48	7248.64
459.66	7243.96
459.84	7328.22
460.03	7473.33
460.21	7419.50
460.39	7485.03
460.57	7183.10
460.76	7517.80
460.94	7513.12
461.12	7466.31
461.31	7456.95
461.49	7480.35
461.67	7487.37
461.85	7728.45
462.04	7485.03
462.22	8201.24
462.40	7815.05
462.59	7714.41
462.77	7648.87
462.95	7880.58
463.13	8032.72
463.32	7976.55
463.50	7957.82
463.68	8219.96
463.86	8084.21
464.05	7833.77
464.23	7789.30
464.41	7957.82
464.59	7742.49
464.78	8091.23
464.96	8124.00
465.14	7859.52
465.32	7990.59
465.50	8145.06
465.69	8170.81
465.87	8166.13
466.05	8191.88
466.23	8170.81
466.41	8191.88
466.60	8278.47
466.78	8416.57
466.96	8170.81
467.14	8245.71
467.32	8435.29
467.51	8475.08
467.69	7957.82
467.87	8355.71
468.05	8596.79
468.23	8311.24
468.41	8454.02
468.60	8425.93
468.78	8568.70
468.96	8472.74
469.14	8645.94
469.32	8444.65
469.50	8517.21
469.69	8585.08
469.87	8695.09
470.05	8753.60
470.23	8791.05
470.41	8856.59
470.59	8975.95
470.77	8781.69
470.95	8936.17
471.14	9027.45
471.32	8879.99
471.50	8973.61
471.68	9102.34
471.86	9104.68
472.04	9212.35
472.22	9397.25
472.40	8966.59
472.58	9144.47
472.77	9488.53
472.95	9359.80
473.13	9624.28
473.31	9317.67
473.49	9446.40
473.67	9404.27
473.85	9743.65
474.03	9764.72
474.21	9619.60
474.39	9863.02
474.57	9715.56
474.75	9783.44
474.93	9914.51
475.12	10134.52
475.30	9973.02
475.48	10071.33
475.66	10305.38
475.84	10195.37
476.02	10225.80
476.20	10087.71
476.38	10621.35
476.56	10607.31
476.74	10506.66
476.92	10530.07
477.10	10434.11
477.28	10925.62
477.46	10846.04
477.64	10902.22
477.82	10853.06
478.00	11094.14
478.18	11028.60
478.36	11105.84
478.54	11346.92
478.72	11454.58
478.90	11524.80
479.08	11669.91
479.26	11777.58
479.44	11499.05
479.62	11779.92
479.80	11941.41
479.98	11871.20
480.16	12390.80
480.34	11925.03
480.52	12248.02
480.70	12468.03
480.88	12257.39
481.06	12444.63
481.24	12615.49
481.41	12662.30
481.59	12798.05
481.77	12996.99
481.95	12968.91
482.13	12945.50
482.31	12940.82
482.49	13261.48
482.67	13593.83
482.85	13385.52
483.03	13720.22
483.21	13504.89
483.39	13898.10
483.57	13872.36
483.74	13930.87
483.92	13982.36
484.10	14064.28
484.28	14155.56
484.46	14375.57
484.64	14892.83
484.82	14607.28
485.00	14988.79
485.18	14918.57
485.35	15206.46
485.53	15171.35
485.71	15304.76
485.89	15360.94
486.07	15730.74
486.25	15566.90
486.43	15445.20
486.61	15770.53
486.78	16011.60
486.96	16084.16
487.14	15903.94
487.32	16343.96
487.50	16149.70
487.68	16517.16
487.85	16500.78
488.03	16966.54
488.21	16812.07
488.39	17092.93
488.57	17111.66
488.75	17322.30
488.92	17497.84
489.10	17554.02
489.28	17619.55
489.46	17898.08
489.64	17984.68
489.81	18115.75
489.99	18148.51
490.17	17991.70
490.35	18434.06
490.53	18527.68
490.70	18841.31
490.88	18789.82
491.06	19136.22
491.24	18911.53
491.41	19082.39
491.59	19239.20
491.77	19278.99
491.95	19566.88
492.13	19456.87
492.30	19555.18
492.48	19894.55
492.66	19534.11
492.84	19999.88
493.01	20262.02
493.19	20070.09
493.37	20414.15
493.54	20393.09
493.72	20664.59
493.90	20779.28
494.08	20865.88
494.25	21186.53
494.43	20795.66
494.61	21247.38
494.79	21081.21
494.96	21502.50
495.14	21656.98
495.32	21790.39
495.49	21642.93
495.67	22052.53
495.85	22162.53
496.02	22176.58
496.20	22494.89
496.38	22691.49
496.55	22644.68
496.73	23143.22
496.91	22974.70
497.09	23211.09
497.26	23117.47
497.44	22834.27
497.62	23250.88
497.79	23779.84
497.97	23461.53
498.14	23903.89
498.32	23618.35
498.50	23927.30
498.67	24049.00
498.85	23728.35
499.03	24088.79
499.20	24058.37
499.38	24140.29
499.56	24432.85
499.73	24430.51
499.91	24844.79
500.08	24608.39
500.26	24629.46
500.44	24652.86
500.61	24945.43
500.79	24680.95
500.97	25076.50
501.14	25357.36
501.32	25127.99
501.49	25135.01
501.67	25247.36
501.84	25876.96
502.02	25106.93
502.20	25722.49
502.37	25804.41
502.55	25579.71
502.72	26066.55
502.90	26022.08
503.07	25858.24
503.25	26068.89
503.43	26038.46
503.60	26602.53
503.78	26396.56
503.95	26354.43
504.13	26693.81
504.30	26742.96
504.48	26932.54
504.65	26918.50
504.83	27278.94
505.01	27241.50
505.18	27325.75
505.36	27564.49
505.53	27384.27
505.71	27218.09
505.88	27377.25
506.06	27147.87
506.23	27833.65
506.41	27899.19
506.58	27955.36
506.76	27866.42
506.93	28315.80
507.11	27721.30
507.28	27903.87
507.46	27885.14
507.63	28517.09
507.81	28776.89
507.98	28322.82
508.16	28439.85
508.33	28587.30
508.50	28297.08
508.68	28945.41
508.85	29219.25
509.03	29092.86
509.20	29177.12
509.38	29656.93
509.55	29603.10
509.73	29441.60
509.90	29654.59
510.08	29193.50
510.25	29476.71
510.42	29706.08
510.60	30218.66
510.77	30080.56
510.95	30340.36
511.12	29769.27
511.30	29907.37
511.47	30253.76
511.64	30359.09
511.82	30398.88
511.99	30515.90
512.17	30649.32
512.34	30466.75
512.51	30754.64
512.69	30874.01
512.86	31105.72
513.04	31026.14
513.21	31019.12
513.38	31136.15
513.56	31550.42
513.73	31407.65
513.90	31482.55
514.08	31398.29
514.25	31655.75
514.43	32011.51
514.60	31772.77
514.77	31697.88
514.95	31798.52
515.12	31800.86
515.29	31955.33
515.47	31880.44
515.64	32254.92
515.81	32093.43
515.99	32577.92
516.16	32847.08
516.33	32381.31
516.51	32402.38
516.68	32439.82
516.85	32659.84
517.03	32643.45
517.20	32797.93
517.37	32919.63
517.54	32893.89
517.72	32868.14
517.89	33132.62
518.06	33270.72
518.24	33020.28
518.41	33612.43
518.58	33207.52
518.75	32954.74
518.93	33535.20
519.10	33317.53
519.27	33633.50
519.45	33923.72
519.62	33790.31
519.79	33701.37
519.96	33741.16
520.14	33991.60
520.31	33944.79
520.48	33696.69
520.65	33996.28
520.83	34918.45
521.00	34518.22
521.17	34356.72
521.34	34457.37
521.52	34410.56
521.69	34962.92
521.86	34778.02
522.03	34932.50
522.20	35044.84
522.38	35012.07
522.55	35204.00
522.72	35241.45
522.89	34937.18
523.07	35552.74
523.24	35002.71
523.41	34925.47
523.58	35463.80
523.75	35768.07
523.92	35339.75
524.10	35559.76
524.27	35676.79
524.44	35910.84
524.61	35873.39
524.78	36067.66
524.96	36147.23
525.13	36128.51
525.30	36039.57
525.47	36458.52
525.64	36168.30
525.81	36563.85
525.98	36184.68
526.16	36584.91
526.33	36163.62
526.50	36620.02
526.67	36275.96
526.84	36552.15
527.01	36790.88
527.18	37043.66
527.36	37013.23
527.53	37228.56
527.70	37493.04
527.87	37502.40
528.04	37118.56
528.21	37029.62
528.38	37345.59
528.55	37801.99
528.72	37268.35
528.89	37397.08
529.07	37366.65
529.24	37406.44
529.41	37457.93
529.58	37743.48
529.75	37240.26
529.92	38103.92
530.09	37373.67
530.26	37813.70
530.43	38284.14
530.60	38033.71
530.77	37581.98
530.94	38209.25
531.11	37862.85
531.28	38316.91
531.46	38347.34
531.63	38483.09
531.80	38286.48
531.97	38249.03
532.14	38298.19
532.31	38246.69
532.48	38768.63
532.65	38998.01
532.82	38752.25
532.99	38895.02
533.16	38651.61
533.33	39063.54
533.50	39232.06
533.67	39367.81
533.84	38611.82
534.01	39042.48
534.18	39196.95
534.35	39421.64
534.52	39037.80
534.69	39433.35
534.86	39683.78
535.03	39431.01
535.20	39117.37
535.37	39821.87
535.54	39454.41
535.71	39779.74
535.88	40041.88
536.05	39592.50
536.22	40219.77
536.38	39440.37
536.55	39648.68
536.72	39917.84
536.89	39461.43
537.06	39969.33
537.23	40060.61
537.40	39906.13
537.57	40275.94
537.74	39510.58
537.91	40318.07
538.08	40282.96
538.25	40023.16
538.42	40105.08
538.59	40402.33
538.75	40051.25
538.92	40715.96
539.09	40856.39
539.26	40795.54
539.43	40959.38
539.60	40346.15
539.77	41130.23
539.94	40818.94
540.11	41158.32
540.28	40708.94
540.44	40739.36
540.61	40999.16
540.78	41188.75
540.95	40942.99
541.12	41383.01
541.29	40769.79
541.46	41216.83
541.62	41170.02
541.79	41308.11
541.96	41116.19
542.13	40697.24
542.30	41163.00
542.47	41340.88
542.63	41581.96
542.80	41666.22
542.97	42263.05
543.14	41942.40
543.31	41769.20
543.48	41851.12
543.64	42188.16
543.81	42485.40
543.98	41888.57
544.15	42234.97
544.32	42483.06
544.48	42707.76
544.65	42237.31
544.82	42656.26
544.99	42043.04
545.16	42146.03
545.32	42178.79
545.49	42721.80
545.66	42958.19
545.83	42899.68
546.00	42834.14
546.16	42433.91
546.33	42597.75
546.50	42611.79
546.67	42885.64
546.83	42473.70
547.00	42773.29
547.17	42672.65
547.34	42808.40
547.50	42801.38
547.67	43585.46
547.84	43185.22
548.00	43456.73
548.17	43718.87
548.34	42995.64
548.51	43442.68
548.67	43402.89
548.84	43517.58
549.01	42735.84
549.18	43426.30
549.34	43255.44
549.51	43475.45
549.68	43920.15
549.84	43899.09
550.01	43510.56
550.18	43632.27
550.34	44030.16
550.51	43840.57
550.68	43810.15
550.84	43880.36
551.01	43723.55
551.18	43917.81
551.34	43896.75
551.51	44280.60
551.68	44004.41
551.84	43959.94
552.01	43702.48
552.18	44177.61
552.34	44135.48
552.51	44547.42
552.68	43770.36
552.84	44423.37
553.01	44037.18
553.18	44121.44
553.34	44399.96
553.51	44507.63
553.67	43943.56
553.84	44376.56
554.01	44294.64
554.17	44495.92
554.34	44718.28
554.51	44563.80
554.67	44821.26
554.84	44650.40
555.00	45064.67
555.17	44758.06
555.33	44795.51
555.50	44755.72
555.67	44474.86
555.83	44533.37
556.00	45008.50
556.16	45415.76
556.33	44945.31
556.50	44769.77
556.66	44947.65
556.83	45317.45
556.99	45219.15
557.16	45415.76
557.32	45256.60
557.49	45179.36
557.65	45357.24
557.82	45226.17
557.98	45481.29
558.15	45076.38
558.32	45308.09
558.48	45017.86
558.65	45118.51
558.81	45790.24
558.98	45013.18
559.14	45205.11
559.31	44849.35
559.47	45507.04
559.64	45628.74
559.80	45354.90
559.97	45731.73
560.13	45574.91
560.30	45205.11
560.46	46124.94
560.63	45542.14
560.79	45925.99
560.96	45834.71
561.12	45734.07
561.29	45860.46
561.45	45621.72
561.61	45652.15
561.78	45642.79
561.94	45902.59
562.11	45893.22
562.27	45759.81
562.44	45815.99
562.60	45893.22
562.77	45652.15
562.93	45979.82
563.10	46356.65
563.26	46021.95
563.42	46099.19
563.59	46146.00
563.75	46017.27
563.92	46347.29
564.08	46302.82
564.24	46178.77
564.41	46150.68
564.57	45977.48
564.74	46206.86
564.90	46312.18
565.07	46504.10
565.23	46082.81
565.39	46607.09
565.56	46288.77
565.72	46024.29
565.88	46450.27
566.05	46525.17
566.21	46649.22
566.38	46410.48
566.54	46167.07
566.70	46344.95
566.87	46581.34
567.03	46469.00
567.19	46447.93
567.36	46284.09
567.52	46454.95
567.68	46822.42
567.85	46581.34
568.01	46838.80
568.17	46471.34
568.34	46639.86
568.50	46621.13
568.66	46110.89
568.83	46288.77
568.99	46485.38
569.15	46497.08
569.32	46644.54
569.48	46469.00
569.64	46838.80
569.81	46845.82
569.97	46555.60
570.13	46660.92
570.30	46387.08
570.46	46639.86
570.62	46892.63
570.78	46923.06
570.95	46946.47
571.11	47213.29
571.27	47037.75
571.43	46681.98
571.60	47047.11
571.76	46857.52
571.92	47150.09
572.09	46693.69
572.25	46696.03
572.41	46749.86
572.57	46852.84
572.74	47278.82
572.90	46843.48
573.06	46962.85
573.22	46731.14
573.38	46894.97
573.55	47587.77
573.71	47138.39
573.87	47182.86
574.03	47058.81
574.20	46944.12
574.36	47016.68
574.52	47484.79
574.68	47264.78
574.84	47367.76
575.01	47419.25
575.17	47196.90
575.33	47409.89
575.49	46990.94
575.65	47384.15
575.82	47236.69
575.98	46665.60
576.14	47407.55
576.30	47096.26
576.46	47208.61
576.62	47140.73
576.79	47433.30
576.95	46904.34
577.11	47138.39
577.27	47086.90
577.43	47217.97
577.59	47274.14
577.75	47037.75
577.92	46859.87
578.08	47311.59
578.24	47391.17
578.40	47203.92
578.56	47316.27
578.72	47463.72
578.88	47653.31
579.04	47089.24
579.21	47407.55
579.37	47381.80
579.53	47517.56
579.69	47079.88
579.85	47140.73
580.01	46799.01
580.17	47243.71
580.33	47351.38
580.49	47557.35
580.65	47344.36
580.82	47435.64
580.98	46937.10
581.14	47313.93
581.30	47543.30
581.46	47276.48
581.62	46988.60
581.78	47250.74
581.94	47452.02
582.10	47346.70
582.26	47672.03
582.42	47084.56
582.58	47306.91
582.74	47662.67
582.90	47285.84
583.06	47870.98
583.22	47552.66
583.38	47559.69
583.54	47543.30
583.70	47419.25
583.86	47473.09
584.02	47473.09
584.18	48186.95
584.34	47550.32
584.50	47412.23
584.66	48004.39
584.82	47475.43
584.98	47880.34
585.14	47704.80
585.30	47288.18
585.46	47903.74
585.62	47629.90
585.78	47669.69
585.94	47199.24
586.10	47274.14
586.26	47182.86
586.42	47606.50
586.58	47543.30
586.74	47777.36
586.90	47737.57
587.06	47470.75
587.22	47758.63
587.38	47704.80
587.54	47821.83
587.70	47707.14
587.86	47412.23
588.02	47503.51
588.18	47622.88
588.34	47346.70
588.49	47519.90
588.65	47356.06
588.81	47590.11
588.97	47496.49
589.13	47545.64
589.29	47700.12
589.45	48121.41
589.61	47910.77
589.77	48289.93
589.93	47452.02
590.08	48107.37
