SpectraSuite Data File
++++++++++++++++++++++++++++++++++++
Date: Fri Oct 25 11:25:15 EDT 2013
User: price-jones
Dark Spectrum Present: No
Reference Spectrum Present: No
Number of Sampled Component Spectra: 1
Spectrometers: USB2+H05261
Integration Time (usec): 100000 (USB2+H05261)
Spectra Averaged: 1 (USB2+H05261)
Boxcar Smoothing: 0 (USB2+H05261)
Correct for Electrical Dark: No (USB2+H05261)
Strobe/Lamp Enabled: No (USB2+H05261)
Correct for Detector Non-linearity: No (USB2+H05261)
Correct for Stray Light: No (USB2+H05261)
Number of Pixels in Processed Spectrum: 2048
>>>>>Begin Processed Spectral Data<<<<<
365.73	271.50
365.92	271.50
366.12	271.50
366.32	145.11
366.52	147.45
366.72	133.41
366.91	168.52
367.11	112.35
367.31	182.56
367.51	98.30
367.70	107.66
367.90	84.26
368.10	208.31
368.30	227.03
368.49	135.75
368.69	145.11
368.89	128.73
369.09	161.50
369.28	117.03
369.48	215.33
369.68	191.92
369.87	159.16
370.07	234.05
370.27	250.44
370.47	311.29
370.66	571.09
370.86	627.26
371.06	725.57
371.25	683.44
371.45	620.24
371.65	727.91
371.84	641.31
372.04	727.91
372.24	734.93
372.44	751.31
372.63	784.08
372.83	751.31
373.03	753.65
373.22	760.67
373.42	758.33
373.62	800.46
373.81	746.63
374.01	786.42
374.21	849.61
374.40	835.57
374.60	772.38
374.79	819.19
374.99	823.87
375.19	786.42
375.38	793.44
375.58	847.27
375.78	912.81
375.97	842.59
376.17	912.81
376.37	870.68
376.56	849.61
376.76	816.85
376.95	912.81
377.15	823.87
377.35	929.19
377.54	889.40
377.74	964.30
377.93	819.19
378.13	908.13
378.33	926.85
378.52	901.11
378.72	936.21
378.91	961.96
379.11	898.77
379.31	933.87
379.50	903.45
379.70	1008.77
379.89	898.77
380.09	1011.11
380.28	1006.43
380.48	936.21
380.68	1043.88
380.87	898.77
381.07	957.28
381.26	1020.47
381.46	990.05
381.65	1027.50
381.85	1020.47
382.04	917.49
382.24	1081.33
382.43	1165.59
382.63	1032.18
382.83	1039.20
383.02	1071.97
383.22	1081.33
383.41	1097.71
383.61	1078.99
383.80	1188.99
384.00	1067.28
384.19	1095.37
384.39	1041.54
384.58	997.07
384.78	1039.20
384.97	1121.12
385.17	1146.86
385.36	1132.82
385.56	1160.91
385.75	1125.80
385.95	1046.22
386.14	1200.69
386.34	1128.14
386.53	1303.68
386.72	1151.54
386.92	1224.10
387.11	1256.87
387.31	1139.84
387.50	1317.72
387.70	1263.89
387.89	1242.82
388.09	1228.78
388.28	1282.61
388.48	1245.16
388.67	1240.48
388.86	1263.89
389.06	1270.91
389.25	1336.45
389.45	1404.32
389.64	1287.29
389.84	1376.24
390.03	1301.34
390.22	1350.49
390.42	1308.36
390.61	1362.19
390.81	1380.92
391.00	1472.20
391.19	1497.94
391.39	1490.92
391.58	1359.85
391.78	1481.56
391.97	1493.26
392.16	1441.77
392.36	1584.54
392.55	1610.29
392.75	1446.45
392.94	1455.81
393.13	1519.01
393.33	1591.56
393.52	1544.75
393.71	1610.29
393.91	1589.22
394.10	1488.58
394.29	1500.28
394.49	1523.69
394.68	1636.03
394.88	1631.35
395.07	1680.50
395.26	1638.38
395.46	1699.23
395.65	1736.68
395.84	1776.47
396.04	1727.32
396.23	1867.75
396.42	1715.61
396.62	1856.04
396.81	1790.51
397.00	1769.44
397.19	1893.49
397.39	1811.57
397.58	1863.07
397.77	1802.21
397.97	1823.28
398.16	1816.26
398.35	1823.28
398.55	1900.52
398.74	1954.35
398.93	1900.52
399.12	1944.99
399.32	1895.83
399.51	1842.00
399.70	1970.73
399.90	1954.35
400.09	2066.69
400.28	1952.01
400.47	2005.84
400.67	2031.58
400.86	2059.67
401.05	2076.06
401.24	2143.93
401.44	2197.76
401.63	2216.49
401.82	2174.36
402.01	2040.95
402.21	2059.67
402.40	2167.34
402.59	2167.34
402.78	2101.80
402.97	2207.13
403.17	2331.17
403.36	2286.70
403.55	2275.00
403.74	2312.45
403.93	2380.32
404.13	2366.28
404.32	2375.64
404.51	2312.45
404.70	2331.17
404.89	2445.86
405.09	2532.46
405.28	2532.46
405.47	2476.29
405.66	2499.69
405.85	2576.93
406.05	2497.35
406.24	2562.89
406.43	2684.59
406.62	2595.65
406.81	2623.74
407.00	2581.61
407.20	2576.93
407.39	2635.44
407.58	2726.72
407.77	2684.59
407.96	2654.17
408.15	2640.12
408.34	2743.11
408.54	2642.46
408.73	2815.66
408.92	2750.13
409.11	2869.50
409.30	2764.17
409.49	2867.16
409.68	2930.35
409.87	2876.52
410.07	2899.92
410.26	2935.03
410.45	2979.50
410.64	3040.36
410.83	3016.95
411.02	3211.22
411.21	3096.53
411.40	3070.78
411.59	3218.24
411.78	3133.98
411.98	3033.33
412.17	3138.66
412.36	3251.00
412.55	3262.71
412.74	3342.28
412.93	3346.97
413.12	3323.56
413.31	3482.72
413.50	3447.61
413.69	3513.14
413.88	3646.55
414.07	3478.04
414.26	3459.31
414.45	3616.13
414.64	3726.13
414.83	3651.24
415.02	3831.46
415.22	3838.48
415.41	3878.27
415.60	3688.68
415.79	3964.87
415.98	3964.87
416.17	3934.44
416.36	3950.82
416.55	4007.00
416.74	4070.19
416.93	3978.91
417.12	4028.06
417.31	4074.87
417.50	4159.13
417.69	4215.30
417.88	4170.83
418.07	4243.39
418.26	4222.33
418.45	4306.59
418.64	4318.29
418.83	4329.99
419.02	4505.53
419.21	4461.06
419.39	4559.36
419.58	4533.62
419.77	4390.84
419.96	4571.07
420.15	4451.70
420.34	4573.41
420.53	4482.13
420.72	4606.17
420.91	4723.20
421.10	4638.94
421.29	4739.58
421.48	4564.04
421.67	4695.11
421.86	4645.96
422.05	4788.74
422.24	4723.20
422.43	4943.21
422.61	5034.49
422.80	4833.21
422.99	4837.89
423.18	4873.00
423.37	4983.00
423.56	4784.06
423.75	4896.40
423.94	4891.72
424.13	4592.13
424.32	4648.30
424.50	4929.17
424.69	5172.58
424.88	4833.21
425.07	4875.34
425.26	4922.15
425.45	4968.96
425.64	4940.87
425.83	4851.93
426.01	4952.57
426.20	5046.20
426.39	5006.41
426.58	4926.83
426.77	5046.20
426.96	5144.50
427.15	5207.69
427.33	5219.39
427.52	5078.96
427.71	5352.81
427.90	5174.92
428.09	5287.27
428.28	5231.10
428.46	5245.14
428.65	5233.44
428.84	5275.57
429.03	5448.77
429.22	5275.57
429.40	5432.38
429.59	5621.97
429.78	5273.23
429.97	5273.23
430.16	5352.81
430.34	5488.56
430.53	5603.24
430.72	5607.92
430.91	5542.39
431.10	5563.45
431.28	5621.97
431.47	5523.66
431.66	5785.80
431.85	5804.53
432.03	5856.02
432.22	5895.81
432.41	5825.59
432.60	6033.90
432.79	5673.46
432.97	5935.60
433.16	5944.96
433.35	5930.92
433.54	5968.37
433.72	6043.26
433.91	5930.92
434.10	6104.12
434.28	5968.37
434.47	6310.08
434.66	6129.86
434.85	6260.93
435.03	6415.41
435.22	6249.23
435.41	6403.71
435.59	6377.96
435.78	6326.47
435.97	6235.19
436.16	6445.84
436.34	6270.30
436.53	6509.03
436.72	6729.04
436.90	6565.20
437.09	6562.86
437.28	6478.60
437.46	6537.12
437.65	6628.40
437.84	6494.99
438.02	6511.37
438.21	6675.21
438.40	6675.21
438.58	6909.26
438.77	6965.43
438.96	6867.13
439.14	6848.41
439.33	7131.61
439.52	7152.68
439.70	7258.00
439.89	7297.79
440.08	7421.84
440.26	7328.22
440.45	7332.90
440.63	7445.24
440.82	7454.61
441.01	7470.99
441.19	7581.00
441.38	7463.97
441.57	7627.81
441.75	7681.64
441.94	7786.96
442.12	7941.44
442.31	7899.31
442.50	7983.57
442.68	7962.50
442.87	7873.56
443.05	7974.21
443.24	8252.73
443.43	8006.97
443.61	8116.98
443.80	8306.56
443.98	8119.32
444.17	7763.56
444.35	8142.72
444.54	8257.41
444.73	8285.50
444.91	8142.72
445.10	8313.58
445.28	8219.96
445.47	8187.19
445.65	8109.96
445.84	8329.97
446.02	8217.62
446.21	8650.62
446.39	8168.47
446.58	8386.14
446.77	8514.87
446.95	8444.65
447.14	8379.12
447.32	8442.31
447.51	8224.64
447.69	8468.06
447.88	8538.27
448.06	8463.38
448.25	8613.17
448.43	8500.83
448.62	8496.14
448.80	8580.40
448.99	8781.69
449.17	8865.95
449.36	8463.38
449.54	8833.18
449.73	8809.78
449.91	8915.10
450.10	8723.18
450.28	8751.26
450.46	8978.30
450.65	9097.66
450.83	8898.72
451.02	9083.62
451.20	8999.36
451.39	8990.00
451.57	9095.32
451.76	9100.00
451.94	9095.32
452.13	9296.61
452.31	9062.55
452.49	9135.11
452.68	9092.98
452.86	9296.61
453.05	9448.74
453.23	9362.14
453.42	9193.62
453.60	9217.03
453.78	9554.07
453.97	9575.13
454.15	9390.23
454.34	9451.08
454.52	9331.72
454.70	9570.45
454.89	9713.22
455.07	9769.40
455.26	9778.76
455.44	9664.07
455.62	9750.67
455.81	9844.29
455.99	9926.21
456.17	9916.85
456.36	10017.49
456.54	9982.38
456.73	10087.71
456.91	10413.04
457.09	10382.62
457.28	10443.47
457.46	10289.00
457.64	10471.56
457.83	10417.72
458.01	10356.87
458.19	10644.76
458.38	10628.37
458.56	10604.97
458.74	10560.50
458.93	10689.23
459.11	10642.42
459.29	10696.25
459.48	10780.51
459.66	10574.54
459.84	10630.71
460.03	10747.74
460.21	10719.65
460.39	10949.03
460.57	10841.36
460.76	11089.46
460.94	11173.72
461.12	11300.11
461.31	10925.62
461.49	10930.30
461.67	11094.14
461.85	11496.71
462.04	11246.27
462.22	11578.63
462.40	11552.88
462.59	11335.21
462.77	11435.86
462.95	11576.29
463.13	11332.87
463.32	11541.18
463.50	11838.43
463.68	11662.89
463.86	11777.58
464.05	11524.80
464.23	11648.85
464.41	11765.87
464.59	11403.09
464.78	12093.55
464.96	11875.88
465.14	11702.68
465.32	11597.35
465.50	12119.29
465.69	12112.27
465.87	12133.34
466.05	12215.26
466.23	12168.45
466.41	12196.53
466.60	12486.76
466.78	11915.67
466.96	11983.54
467.14	12163.76
467.32	12259.73
467.51	12294.83
467.69	11946.09
467.87	12222.28
468.05	12461.01
468.23	12439.95
468.41	12416.54
468.60	12400.16
468.78	12606.13
468.96	12531.23
469.14	12814.43
469.32	12699.75
469.50	12498.46
469.69	12968.91
469.87	12975.93
470.05	13011.04
470.23	13064.87
470.41	12837.84
470.59	13186.58
470.77	13245.09
470.95	13202.96
471.14	13647.66
471.32	12966.57
471.50	13448.72
471.68	13600.85
471.86	13399.57
472.04	13699.16
472.22	14024.49
472.40	13729.58
472.58	13858.31
472.77	13806.82
472.95	14148.54
473.13	14307.69
473.31	14148.54
473.49	14134.50
473.67	14080.66
473.85	14195.35
474.03	14043.21
474.21	14436.42
474.39	14684.52
474.57	14537.07
474.75	14757.08
474.93	14829.63
475.12	14871.76
475.30	15042.62
475.48	14920.92
475.66	14949.00
475.84	15225.18
476.02	15059.01
476.20	15246.25
476.38	15576.27
476.56	16042.03
476.74	15915.64
476.92	15763.51
477.10	15712.02
477.28	15985.86
477.46	15988.20
477.64	16196.51
477.82	16587.38
478.00	16957.18
478.18	16655.25
478.36	16526.52
478.54	17149.11
478.72	17053.14
478.90	17160.81
479.08	17174.85
479.26	17523.59
479.44	17635.94
479.62	17661.68
479.80	18125.11
479.98	18087.66
480.16	18534.70
480.34	17685.09
480.52	18338.10
480.70	18312.35
480.88	18352.14
481.06	18441.08
481.24	18483.21
481.41	18991.11
481.59	19194.73
481.77	19232.18
481.95	19304.74
482.13	19616.03
482.31	19440.49
482.49	19777.53
482.67	19957.75
482.85	20182.44
483.03	20535.86
483.21	20414.15
483.39	20613.10
483.57	20938.43
483.74	20643.52
483.92	21074.18
484.10	20821.41
484.28	21411.22
484.46	21795.07
484.64	22321.69
484.82	21790.39
485.00	22312.33
485.18	22527.66
485.35	23026.19
485.53	22555.74
485.71	22916.19
485.89	23042.57
486.07	22991.08
486.25	23264.92
486.43	23314.08
486.61	23510.68
486.78	23489.62
486.96	24149.65
487.14	24292.42
487.32	24133.26
487.50	24376.68
487.68	24716.06
487.85	25188.85
488.03	25376.09
488.21	25523.54
488.39	25303.53
488.57	25788.02
488.75	25958.88
488.92	26059.52
489.10	26286.56
489.28	26101.65
489.46	26934.88
489.64	26841.26
489.81	27243.84
489.99	27522.36
490.17	27419.38
490.35	28084.09
490.53	27878.12
490.70	28257.29
490.88	28107.49
491.06	28802.63
491.24	28540.49
491.41	28325.16
491.59	29165.42
491.77	29209.89
491.95	29535.22
492.13	29736.51
492.30	29645.23
492.48	29689.70
492.66	29853.53
492.84	29954.18
493.01	30143.76
493.19	30483.14
493.37	30476.12
493.54	30878.69
493.72	31140.83
493.90	31395.95
494.08	31328.07
494.25	31718.94
494.43	31861.71
494.61	32325.14
494.79	31730.64
494.96	31917.89
495.14	32095.77
495.32	32856.44
495.49	32872.82
495.67	33010.92
495.85	33188.80
496.02	33303.48
496.20	33504.77
496.38	33350.29
496.55	33823.08
496.73	34160.12
496.91	34452.69
497.09	34279.49
497.26	35105.70
497.44	34754.61
497.62	34969.94
497.79	35700.19
497.97	34972.28
498.14	35641.68
498.32	35917.86
498.50	35655.72
498.67	36290.01
498.85	36060.63
499.03	36182.34
499.20	36636.41
499.38	37106.85
499.56	36706.62
499.73	36950.04
499.91	36954.72
500.08	37034.30
500.26	36816.63
500.44	37415.80
500.61	37287.07
500.79	37422.83
500.97	37797.31
501.14	38492.45
501.32	38375.42
501.49	38562.67
501.67	38244.35
501.84	38981.62
502.02	38377.76
502.20	38705.44
502.37	39028.43
502.55	38785.02
502.72	39253.12
502.90	39037.80
503.07	39342.06
503.25	39313.98
503.43	39643.99
503.60	39487.18
503.78	40037.20
503.95	39723.57
504.13	40615.32
504.30	40217.43
504.48	40116.78
504.65	40563.82
504.83	40751.07
505.01	41237.90
505.18	40730.00
505.36	41165.34
505.53	41001.50
505.71	40954.69
505.88	41495.36
506.06	40900.86
506.23	41523.44
506.41	41584.30
506.58	41663.88
506.76	41846.44
506.93	42288.80
507.11	41586.64
507.28	42256.03
507.46	42309.86
507.63	42520.51
507.81	42562.64
507.98	42637.54
508.16	43009.68
508.33	42827.12
508.50	43100.97
508.68	43306.93
508.85	43817.17
509.03	43262.46
509.20	43342.04
509.38	43894.41
509.55	43763.34
509.73	44091.01
509.90	44498.26
510.08	44371.88
510.25	44446.77
510.42	44357.83
510.60	44751.04
510.77	45057.65
510.95	45052.97
511.12	45067.02
511.30	44746.36
511.47	45083.40
511.64	45485.97
511.82	45490.65
511.99	45083.40
512.17	45703.64
512.34	45729.39
512.51	46241.96
512.69	45787.90
512.86	46120.26
513.04	46677.30
513.21	46508.79
513.38	46780.29
513.56	46536.87
513.73	46527.51
513.90	46866.89
514.08	46611.77
514.25	47182.86
514.43	47267.12
514.60	46869.23
514.77	47086.90
514.95	47489.47
515.12	47271.80
515.29	47543.30
515.47	47889.70
515.64	47669.69
515.81	47489.47
515.99	47852.25
516.16	48072.26
516.33	48004.39
516.51	48226.74
516.68	48332.06
516.85	48229.08
517.03	48278.23
517.20	48413.98
517.37	48313.34
517.54	48739.32
517.72	48910.17
517.89	48849.32
518.06	49109.12
518.24	49029.54
518.41	48790.81
518.58	48854.00
518.75	48924.22
518.93	49287.00
519.10	48994.43
519.27	49436.80
519.45	49741.06
519.62	49525.74
519.79	49879.16
519.96	49684.89
520.14	49911.92
520.31	49935.33
520.48	49916.61
520.65	50272.37
520.83	50148.32
521.00	50450.25
521.17	50380.03
521.34	50527.48
521.52	50337.90
521.69	50646.85
521.86	50983.89
522.03	50735.79
522.20	50979.21
522.38	51058.79
522.55	51075.17
522.72	50705.37
522.89	50958.14
523.07	51344.33
523.24	51180.49
523.41	51360.72
523.58	51400.50
523.75	51531.57
523.92	51227.31
524.10	51515.19
524.27	51531.57
524.44	51856.91
524.61	51964.57
524.78	51838.18
524.96	51793.71
525.13	52086.28
525.30	52327.36
525.47	52149.48
525.64	52355.44
525.81	52397.57
525.98	52310.97
526.16	52027.77
526.33	52640.99
526.50	52671.42
526.67	52210.33
526.84	52516.94
527.01	52442.04
527.18	52727.59
527.36	52753.33
527.53	52603.54
527.70	53183.99
527.87	53244.85
528.04	52896.11
528.21	53139.52
528.38	52942.92
528.55	53272.93
528.72	53169.95
528.89	53228.46
529.07	53029.52
529.24	53181.65
529.41	53448.47
529.58	53279.96
529.75	53626.35
529.92	53586.57
530.09	53605.29
530.26	53652.10
530.43	53822.96
530.60	53624.01
530.77	53392.30
530.94	53846.36
531.11	53738.70
531.28	54024.25
531.46	54031.27
531.63	53925.94
531.80	53982.12
531.97	54349.58
532.14	54328.52
532.31	54209.15
532.48	54258.30
532.65	54190.42
532.82	54143.61
532.99	54649.17
533.16	54564.91
533.33	54674.91
533.50	54878.54
533.67	54703.00
533.84	54691.30
534.01	54382.35
534.18	54546.18
534.35	54955.78
534.52	54759.17
534.69	54801.30
534.86	54670.23
535.03	54749.81
535.20	54988.55
535.37	55358.35
535.54	55337.29
535.71	55224.94
535.88	55157.06
536.05	55320.90
536.22	55196.85
536.38	55426.23
536.55	55332.60
536.72	55136.00
536.89	55096.21
537.06	55281.11
537.23	55515.17
537.40	55374.73
537.57	55498.78
537.74	55433.25
537.91	55693.05
538.08	55847.52
538.25	55393.46
538.42	55758.58
538.59	56037.11
538.75	55538.57
538.92	55819.44
539.09	56121.37
539.26	55990.30
539.43	55817.10
539.60	55906.04
539.77	56013.70
539.94	56210.31
540.11	56128.39
540.28	56313.29
540.44	56062.85
540.61	56107.32
540.78	56306.27
540.95	56097.96
541.12	56182.22
541.29	56306.27
541.46	56364.78
541.62	56320.31
541.79	56397.55
541.96	56133.07
542.13	56257.12
542.30	56601.18
542.47	56463.08
542.63	56505.21
542.80	56507.55
542.97	56743.95
543.14	57153.54
543.31	56992.04
543.48	57277.59
543.64	57219.08
543.81	57064.60
543.98	57034.17
544.15	57022.47
544.32	57186.31
544.48	57305.68
544.65	56982.68
544.82	57263.55
544.99	57085.67
545.16	57249.50
545.32	57003.75
545.49	57322.06
545.66	57778.46
545.83	57396.96
546.00	57616.97
546.16	57427.38
546.33	57373.55
546.50	57167.58
546.67	57474.20
546.83	57268.23
547.00	57591.22
547.17	57502.28
547.34	57752.72
547.50	57841.66
547.67	57778.46
547.84	57705.91
548.00	57972.73
548.17	58047.63
548.34	57993.79
548.51	57968.05
548.67	58075.71
548.84	58026.56
549.01	57986.77
549.18	58080.39
549.34	58085.07
549.51	57998.48
549.68	58192.74
549.84	58358.92
550.01	58192.74
550.18	58092.10
550.34	58192.74
550.51	58166.99
550.68	58410.41
550.84	57834.64
551.01	58562.54
551.18	58431.47
551.34	58291.04
551.51	58239.55
551.68	58518.07
551.84	58438.50
552.01	58295.72
552.18	58363.60
552.34	58344.87
552.51	58567.23
552.68	58536.80
552.84	58335.51
553.01	58693.61
553.18	58712.34
553.34	58607.01
553.51	58583.61
553.67	58576.59
553.84	58635.10
554.01	58852.77
554.17	58862.13
554.34	58850.43
554.51	58464.24
554.67	58663.19
554.84	58869.15
555.00	58791.92
555.17	58803.62
555.33	58770.85
555.50	58986.18
555.67	59049.38
555.83	58852.77
556.00	58827.02
556.16	59126.61
556.33	59147.68
556.50	58915.96
556.66	59168.74
556.83	58953.41
556.99	59157.04
557.16	59348.96
557.32	59388.75
557.49	59465.99
557.65	59157.04
557.82	59295.13
557.98	59042.35
558.15	59311.52
558.32	59285.77
558.48	59238.96
558.65	59147.68
558.81	59320.88
558.98	59367.69
559.14	59463.65
559.31	59501.10
559.47	59566.63
559.64	59517.48
559.80	59489.40
559.97	59435.56
560.13	59543.23
560.30	59529.19
560.46	59402.80
560.63	59810.05
560.79	59592.38
560.96	59732.81
561.12	59547.91
561.29	59515.14
561.45	59496.42
561.61	59725.79
561.78	59859.20
561.94	59407.48
562.11	59585.36
562.27	59690.68
562.44	59814.73
562.60	59941.12
562.77	59788.98
562.93	59671.96
563.10	59838.14
563.26	59667.28
563.42	59952.82
563.59	59877.93
563.75	59826.43
563.92	59868.56
564.08	59861.54
564.24	59999.63
564.41	59971.55
564.57	60109.64
564.74	60032.40
564.90	60030.06
565.07	60076.87
565.23	59828.77
565.39	59852.18
565.56	60088.57
565.72	60046.44
565.88	60027.72
566.05	59891.97
566.21	59819.41
566.38	60229.01
566.54	60079.21
566.70	60074.53
566.87	60210.28
567.03	60009.00
567.19	60446.68
567.36	60114.32
567.52	59971.55
567.68	60341.35
567.85	60133.04
568.01	60189.22
568.17	60149.43
568.34	60088.57
568.50	60109.64
568.66	60261.77
568.83	60282.84
568.99	60177.51
569.15	60041.76
569.32	60287.52
569.48	60238.37
569.64	60308.58
569.81	59983.25
569.97	60172.83
570.13	60355.39
570.30	60128.36
570.46	60250.07
570.62	60427.95
570.78	60191.56
570.95	60259.43
571.11	60566.04
571.27	60303.90
571.43	60135.38
571.60	60498.17
571.76	60346.03
571.92	60374.12
572.09	60554.34
572.25	60535.62
572.41	60233.69
572.57	60446.68
572.74	60369.44
572.90	60451.36
573.06	60416.25
573.22	60444.33
573.38	60446.68
573.55	60554.34
573.71	60746.26
573.87	60430.29
574.03	60392.84
574.20	60495.83
574.36	60463.06
574.52	60498.17
574.68	60636.26
574.84	60544.98
575.01	60828.18
575.17	60563.70
575.33	60633.92
575.49	60397.52
575.65	60430.29
575.82	60465.40
575.98	60601.15
576.14	60746.26
576.30	60832.86
576.46	60575.40
576.62	60544.98
576.79	60446.68
576.95	60294.54
577.11	60313.26
577.27	60680.73
577.43	60690.09
577.59	60498.17
577.75	60502.85
577.92	60458.38
578.08	60566.04
578.24	60711.16
578.40	60722.86
578.56	60816.48
578.72	60678.39
578.88	60800.10
579.04	60755.63
579.21	60982.66
579.37	60781.37
579.53	60764.99
579.69	60598.81
579.85	60495.83
580.01	60626.90
580.17	60617.53
580.33	60896.06
580.49	60755.63
580.65	60900.74
580.82	60601.15
580.98	60676.05
581.14	60786.05
581.30	60711.16
581.46	60676.05
581.62	60809.46
581.78	60554.34
581.94	60704.13
582.10	60687.75
582.26	60650.30
582.42	60594.13
582.58	60900.74
582.74	60755.63
582.90	60687.75
583.06	60891.38
583.22	60704.13
583.38	60631.58
583.54	60783.71
583.70	60734.56
583.86	60837.54
584.02	60715.84
584.18	60898.40
584.34	60952.23
584.50	60853.93
584.66	60645.62
584.82	60582.43
584.98	61076.28
585.14	60952.23
585.30	60823.50
585.46	60842.23
585.62	60769.67
585.78	60985.00
585.94	60699.45
586.10	60767.33
586.26	61027.13
586.42	60809.46
586.58	60846.91
586.74	60945.21
586.90	60842.23
587.06	60977.98
587.22	60774.35
587.38	60844.57
587.54	60844.57
587.70	61151.18
587.86	61020.11
588.02	60842.23
588.18	61041.17
588.34	60804.78
588.49	60678.39
