SpectraSuite Data File
++++++++++++++++++++++++++++++++++++
Date: Fri Oct 25 11:23:18 EDT 2013
User: price-jones
Dark Spectrum Present: No
Reference Spectrum Present: No
Number of Sampled Component Spectra: 1
Spectrometers: USB2+H05261
Integration Time (usec): 100000 (USB2+H05261)
Spectra Averaged: 1 (USB2+H05261)
Boxcar Smoothing: 0 (USB2+H05261)
Correct for Electrical Dark: No (USB2+H05261)
Strobe/Lamp Enabled: No (USB2+H05261)
Correct for Detector Non-linearity: No (USB2+H05261)
Correct for Stray Light: No (USB2+H05261)
Number of Pixels in Processed Spectrum: 2048
>>>>>Begin Processed Spectral Data<<<<<
365.73	252.78
365.92	252.78
366.12	252.78
366.32	131.07
366.52	128.73
366.72	152.13
366.91	100.64
367.11	107.66
367.31	140.43
367.51	58.51
367.70	110.01
367.90	93.62
368.10	128.73
368.30	175.54
368.49	152.13
368.69	175.54
368.89	126.39
369.09	182.56
369.28	128.73
369.48	110.01
369.68	161.50
369.87	252.78
370.07	175.54
370.27	198.95
370.47	285.55
370.66	533.64
370.86	613.22
371.06	678.76
371.25	732.59
371.45	587.47
371.65	753.65
371.84	603.86
372.04	713.86
372.24	702.16
372.44	744.29
372.63	833.23
372.83	681.10
373.03	777.06
373.22	755.99
373.42	727.91
373.62	823.87
373.81	770.04
374.01	770.04
374.21	741.95
374.40	711.52
374.60	814.51
374.79	870.68
374.99	784.08
375.19	732.59
375.38	828.55
375.58	812.17
375.78	873.02
375.97	835.57
376.17	926.85
376.37	891.74
376.56	816.85
376.76	877.70
376.95	826.21
377.15	947.92
377.35	999.41
377.54	830.89
377.74	910.47
377.93	882.38
378.13	926.85
378.33	961.96
378.52	931.53
378.72	947.92
378.91	954.94
379.11	959.62
379.31	952.60
379.50	905.79
379.70	968.98
379.89	997.07
380.09	957.28
380.28	931.53
380.48	901.11
380.68	992.39
380.87	1011.11
381.07	997.07
381.26	1039.20
381.46	1006.43
381.65	994.73
381.85	1055.58
382.04	999.41
382.24	1032.18
382.43	1111.75
382.63	1128.14
382.83	1064.94
383.02	1104.73
383.22	1130.48
383.41	1083.67
383.61	1008.77
383.80	1071.97
384.00	1125.80
384.19	1093.03
384.39	1130.48
384.58	1179.63
384.78	1167.93
384.97	1116.44
385.17	1130.48
385.36	1179.63
385.56	1196.01
385.75	1280.27
385.95	1221.76
386.14	1165.59
386.34	1111.75
386.53	1121.12
386.72	1287.29
386.92	1184.31
387.11	1259.21
387.31	1256.87
387.50	1231.12
387.70	1254.53
387.89	1308.36
388.09	1306.02
388.28	1336.45
388.48	1249.85
388.67	1306.02
388.86	1282.61
389.06	1404.32
389.25	1317.72
389.45	1308.36
389.64	1277.93
389.84	1362.19
390.03	1390.28
390.22	1455.81
390.42	1357.51
390.61	1350.49
390.81	1401.98
391.00	1437.09
391.19	1530.71
391.39	1444.11
391.58	1423.05
391.78	1446.45
391.97	1476.88
392.16	1451.13
392.36	1544.75
392.55	1465.18
392.75	1586.88
392.94	1453.47
393.13	1514.33
393.33	1568.16
393.52	1605.61
393.71	1554.12
393.91	1666.46
394.10	1617.31
394.29	1629.01
394.49	1582.20
394.68	1659.44
394.88	1643.06
395.07	1746.04
395.26	1659.44
395.46	1732.00
395.65	1631.35
395.84	1767.10
396.04	1834.98
396.23	1743.70
396.42	1839.66
396.62	1755.40
396.81	1813.92
397.00	1849.02
397.19	1767.10
397.39	1783.49
397.58	1813.92
397.77	1820.94
397.97	1895.83
398.16	1898.17
398.35	1940.30
398.55	1902.86
398.74	2052.65
398.93	1973.07
399.12	1919.24
399.32	1975.41
399.51	2003.50
399.70	2078.40
399.90	1989.46
400.09	2043.29
400.28	2141.59
400.47	2094.78
400.67	2001.16
400.86	2148.61
401.05	2111.16
401.24	2043.29
401.44	2195.42
401.63	2115.84
401.82	2047.97
402.01	2176.70
402.21	2127.55
402.40	2120.53
402.59	2237.55
402.78	2265.64
402.97	2246.91
403.17	2342.88
403.36	2249.25
403.55	2366.28
403.74	2427.14
403.93	2307.77
404.13	2450.54
404.32	2471.61
404.51	2392.03
404.70	2392.03
404.89	2441.18
405.09	2406.07
405.28	2621.40
405.47	2513.74
405.66	2473.95
405.85	2637.78
406.05	2441.18
406.24	2534.80
406.43	2633.10
406.62	2530.12
406.81	2785.24
407.00	2668.21
407.20	2700.98
407.39	2640.12
407.58	2691.62
407.77	2684.59
407.96	2785.24
408.15	2869.50
408.34	2820.35
408.54	2803.96
408.73	2850.77
408.92	2960.78
409.11	2923.33
409.30	2878.86
409.49	2995.89
409.68	2965.46
409.87	3084.83
410.07	3103.55
410.26	2991.20
410.45	2993.55
410.64	3176.11
410.83	3084.83
411.02	3047.38
411.21	3218.24
411.40	3176.11
411.59	3201.85
411.78	3325.90
411.98	3236.96
412.17	3300.16
412.36	3407.82
412.55	3400.80
412.74	3431.23
412.93	3220.58
413.12	3468.67
413.31	3616.13
413.50	3543.57
413.69	3501.44
413.88	3552.93
414.07	3611.45
414.26	3693.37
414.45	3707.41
414.64	3623.15
414.83	3829.12
415.02	3838.48
415.22	3824.44
415.41	3901.67
415.60	3911.04
415.79	3997.64
415.98	4021.04
416.17	4063.17
416.36	4039.76
416.55	4037.42
416.74	4117.00
416.93	4124.02
417.12	4091.26
417.31	4161.47
417.50	4194.24
417.69	4521.92
417.88	4294.88
418.07	4203.60
418.26	4236.37
418.45	4358.08
418.64	4468.08
418.83	4503.19
419.02	4519.57
419.21	4514.89
419.39	4582.77
419.58	4437.66
419.77	4514.89
419.96	4751.29
420.15	4627.24
420.34	4688.09
420.53	4716.18
420.72	4587.45
420.91	4814.48
421.10	4657.67
421.29	4800.44
421.48	4667.03
421.67	4795.76
421.86	4814.48
422.05	4919.81
422.24	4968.96
422.43	5011.09
422.61	4997.04
422.80	4997.04
422.99	4898.74
423.18	4983.00
423.37	5060.24
423.56	5104.71
423.75	5001.72
423.94	4865.97
424.13	4542.98
424.32	4798.10
424.50	5104.71
424.69	5149.18
424.88	5029.81
425.07	5046.20
425.26	5069.60
425.45	5011.09
425.64	4964.28
425.83	4943.21
426.01	5184.29
426.20	5200.67
426.39	5088.32
426.58	5093.01
426.77	5057.90
426.96	4985.34
427.15	5053.22
427.33	5282.59
427.52	5165.56
427.71	5462.81
427.90	5287.27
428.09	5284.93
428.28	5497.92
428.46	5523.66
428.65	5308.34
428.84	5526.00
429.03	5467.49
429.22	5394.93
429.40	5628.99
429.59	5479.19
429.78	5327.06
429.97	5275.57
430.16	5544.73
430.34	5500.26
430.53	5526.00
430.72	5685.16
430.91	5633.67
431.10	5762.40
431.28	5858.36
431.47	5980.07
431.66	5994.11
431.85	5753.04
432.03	5788.14
432.22	5898.15
432.41	5970.71
432.60	6073.69
432.79	6092.41
432.97	5991.77
433.16	6122.84
433.35	6050.28
433.54	6139.23
433.72	6132.20
433.91	6092.41
434.10	6267.95
434.28	6300.72
434.47	6202.42
434.66	6277.32
434.85	6387.32
435.03	6502.01
435.22	6188.38
435.41	6462.22
435.59	6403.71
435.78	6602.65
435.97	6619.04
436.16	6415.41
436.34	6511.37
436.53	6715.00
436.72	6773.51
436.90	6494.99
437.09	6752.45
437.28	6654.14
437.46	6715.00
437.65	6635.42
437.84	6745.42
438.02	6939.69
438.21	6860.11
438.40	6773.51
438.58	7119.91
438.77	7185.44
438.96	7009.90
439.14	7321.20
439.33	7330.56
439.52	7384.39
439.70	7232.26
439.89	7246.30
440.08	7321.20
440.26	7421.84
440.45	7344.60
440.63	7323.54
440.82	7541.21
441.01	7634.83
441.19	7829.09
441.38	7810.37
441.57	7969.52
441.75	7927.39
441.94	7978.89
442.12	7786.96
442.31	8070.17
442.50	8248.05
442.68	7950.80
442.87	8131.02
443.05	8386.14
443.24	8121.66
443.43	8198.90
443.61	8379.12
443.80	8547.64
443.98	8124.00
444.17	8124.00
444.35	8381.46
444.54	8451.67
444.73	8278.47
444.91	8549.98
445.10	8505.51
445.28	8486.78
445.47	8456.36
445.65	8348.69
445.84	8376.78
446.02	8659.98
446.21	8587.43
446.39	8421.25
446.58	8627.21
446.77	8573.38
446.95	8320.60
447.14	8381.46
447.32	8723.18
447.51	8559.34
447.69	8608.49
447.88	8643.60
448.06	8643.60
448.25	8608.49
448.43	8725.52
448.62	8711.47
448.80	8851.91
448.99	8765.31
449.17	8856.59
449.36	8798.07
449.54	8889.35
449.73	9001.70
449.91	9053.19
450.10	9001.70
450.28	9245.12
450.46	9184.26
450.65	8992.34
450.83	9172.56
451.02	9268.52
451.20	9121.07
451.39	9254.48
451.57	9298.95
451.76	9345.76
451.94	9088.30
452.13	9338.74
452.31	9277.88
452.49	9378.53
452.68	9617.26
452.86	9600.88
453.05	9727.27
453.23	9685.14
453.42	9280.22
453.60	9245.12
453.78	9635.99
453.97	9537.68
454.15	9481.51
454.34	9460.45
454.52	9984.73
454.70	9827.91
454.89	9834.93
455.07	9785.78
455.26	9788.12
455.44	9909.83
455.62	10047.92
455.81	10171.97
455.99	10097.07
456.17	10260.91
456.36	10328.78
456.54	10347.51
456.73	10518.37
456.91	10534.75
457.09	10483.26
457.28	10586.24
457.46	10354.53
457.64	10527.73
457.83	10576.88
458.01	10457.51
458.19	10717.31
458.38	10792.21
458.56	11007.54
458.74	10834.34
458.93	10768.80
459.11	10946.69
459.29	10860.09
459.48	10827.32
459.66	10747.74
459.84	11019.24
460.03	11049.67
460.21	11136.27
460.39	11098.82
460.57	11281.38
460.76	11344.58
460.94	11405.43
461.12	11435.86
461.31	11157.33
461.49	11105.84
461.67	11417.13
461.85	11548.20
462.04	11349.26
462.22	11866.52
462.40	11674.59
462.59	11627.78
462.77	11693.32
462.95	11744.81
463.13	11630.12
463.32	11824.39
463.50	11693.32
463.68	12023.33
463.86	11882.90
464.05	11892.26
464.23	11936.73
464.41	11988.22
464.59	11754.17
464.78	12409.52
464.96	12121.63
465.14	12091.21
465.32	12203.55
465.50	12063.12
465.69	12173.13
465.87	12159.08
466.05	12475.06
466.23	12297.17
466.41	12325.26
466.60	12737.20
466.78	12348.67
466.96	12334.62
467.14	12208.23
467.32	12453.99
467.51	12692.73
467.69	12212.92
467.87	12311.22
468.05	12641.23
468.23	12566.34
468.41	12814.43
468.60	12718.47
468.78	13053.17
468.96	12755.92
469.14	12931.46
469.32	13046.15
469.50	12690.38
469.69	13135.09
469.87	13427.65
470.05	13085.94
470.23	13483.83
470.41	13207.64
470.59	13401.91
470.77	13439.36
470.95	13554.04
471.14	13390.20
471.32	13348.08
471.50	13544.68
471.68	13638.30
471.86	13823.20
472.04	13841.93
472.22	14218.75
472.40	13561.06
472.58	14288.97
472.77	14108.75
472.95	14387.27
473.13	14630.69
473.31	14118.11
473.49	14209.39
473.67	14307.69
473.85	14462.17
474.03	14785.16
474.21	14698.56
474.39	14686.86
474.57	14810.91
474.75	15150.29
474.93	15166.67
475.12	15318.81
475.30	15126.88
475.48	15286.04
475.66	15749.46
475.84	15559.88
476.02	15461.58
476.20	15473.28
476.38	15927.35
476.56	16322.90
476.74	16245.66
476.92	16135.65
477.10	15901.60
477.28	16283.11
477.46	16414.18
477.64	16613.12
477.82	16622.48
478.00	17380.82
478.18	16559.29
478.36	17167.83
478.54	17563.38
478.72	17460.40
478.90	17605.51
479.08	17755.30
479.26	17715.51
479.44	17855.95
479.62	18085.32
479.80	18401.29
479.98	18260.86
480.16	18728.97
480.34	18490.23
480.52	18831.95
480.70	18843.65
480.88	18827.27
481.06	19154.94
481.24	19124.52
481.41	19445.17
481.59	19506.02
481.77	19896.89
481.95	19836.04
482.13	20018.60
482.31	20369.68
482.49	20545.22
482.67	20269.04
482.85	20821.41
483.03	21113.97
483.21	21528.25
483.39	21343.35
483.57	21275.47
483.74	21488.46
483.92	21743.58
484.10	21294.19
484.28	22211.68
484.46	22115.72
484.64	22586.17
484.82	22082.95
485.00	22995.76
485.18	22944.27
485.35	23328.12
485.53	22827.24
485.71	23290.67
485.89	23576.22
486.07	23597.28
486.25	23821.97
486.43	23632.39
486.61	24203.48
486.78	24486.68
486.96	24556.90
487.14	24816.70
487.32	24889.26
487.50	25109.27
487.68	25153.74
487.85	25408.86
488.03	25673.34
488.21	26071.23
488.39	26209.32
488.57	26455.08
488.75	26656.36
488.92	26684.45
489.10	26995.74
489.28	26967.65
489.46	27281.28
489.64	27199.37
489.81	27718.96
489.99	28056.00
490.17	27725.99
490.35	28524.11
490.53	28526.45
490.70	28613.05
490.88	28528.79
491.06	29207.55
491.24	28922.00
491.41	29324.57
491.59	29558.63
491.77	29687.36
491.95	30150.78
492.13	30073.54
492.30	30295.89
492.48	30630.59
492.66	30464.41
492.84	31072.95
493.01	31290.62
493.19	31009.76
493.37	31454.46
493.54	31243.81
493.72	31868.73
493.90	31803.20
494.08	32034.91
494.25	32308.76
494.43	32393.01
494.61	32669.20
494.79	32903.25
494.96	32868.14
495.14	33406.47
495.32	33247.31
495.49	33879.25
495.67	33553.92
495.85	33963.51
496.02	34033.73
496.20	34284.17
496.38	34209.27
496.55	34412.90
496.73	35117.40
496.91	35159.53
497.09	35047.18
497.26	35693.17
497.44	35332.73
497.62	35456.78
497.79	36084.04
497.97	36208.09
498.14	36404.69
498.32	36664.49
498.50	36224.47
498.67	36980.46
498.85	36945.36
499.03	36896.20
499.20	37312.82
499.38	36760.45
499.56	37181.75
499.73	37551.56
499.91	37305.80
500.08	38071.15
500.26	37799.65
500.44	38082.86
500.61	38473.73
500.79	38440.96
500.97	38270.10
501.14	39339.72
501.32	39098.65
501.49	38960.56
501.67	38925.45
501.84	39297.59
502.02	39328.02
502.20	39428.66
502.37	39463.77
502.55	39648.68
502.72	40093.38
502.90	39981.03
503.07	40095.72
503.25	39955.29
503.43	39924.86
503.60	40657.45
503.78	40697.24
503.95	40783.83
504.13	40828.30
504.30	41083.42
504.48	41027.25
504.65	41256.62
504.83	41823.03
505.01	41762.18
505.18	41794.95
505.36	41940.06
505.53	41696.64
505.71	41883.89
505.88	42087.51
506.06	41860.48
506.23	42618.81
506.41	42267.73
506.58	42583.71
506.76	42831.80
506.93	42607.11
507.11	42513.49
507.28	42656.26
507.46	42916.06
507.63	43632.27
507.81	43737.59
507.98	43299.91
508.16	43697.80
508.33	43646.31
508.50	44093.35
508.68	44287.62
508.85	44392.94
509.03	44205.70
509.20	44425.71
509.38	44783.81
509.55	44322.72
509.73	44851.69
509.90	45132.55
510.08	44835.30
510.25	44751.04
510.42	45081.06
510.60	45088.08
510.77	45675.55
510.95	45741.09
511.12	45659.17
511.30	45687.26
511.47	45808.96
511.64	45947.06
511.82	46150.68
511.99	45921.31
512.17	46354.31
512.34	46354.31
512.51	46766.24
512.69	46834.12
512.86	46934.76
513.04	47058.81
513.21	47049.45
513.38	47309.25
513.56	47325.63
513.73	47112.64
513.90	47468.40
514.08	47040.09
514.25	47529.26
514.43	47910.77
514.60	47772.67
514.77	47580.75
514.95	48299.30
515.12	47814.80
515.29	48098.01
515.47	48193.97
515.64	48233.76
515.81	48301.64
515.99	48535.69
516.16	49050.61
516.33	48753.36
516.51	49282.32
516.68	48994.43
516.85	48891.45
517.03	49275.30
517.20	49364.24
517.37	49350.20
517.54	49282.32
517.72	49322.11
517.89	49696.59
518.06	49530.42
518.24	49411.05
518.41	49411.05
518.58	49886.18
518.75	49567.87
518.93	49804.26
519.10	49940.01
519.27	50113.21
519.45	50213.85
519.62	50347.26
519.79	50286.41
519.96	50342.58
520.14	50436.20
520.31	50148.32
520.48	50948.78
520.65	50241.94
520.83	51239.01
521.00	50948.78
521.17	51009.64
521.34	51157.09
521.52	51016.66
521.69	50904.31
521.86	51526.89
522.03	51524.55
522.20	51711.80
522.38	51653.28
522.55	51927.13
522.72	51779.67
522.89	52020.75
523.07	52191.61
523.24	51861.59
523.41	52257.14
523.58	51892.02
523.75	52252.46
523.92	51920.10
524.10	52334.38
524.27	52369.49
524.44	52360.12
524.61	52399.91
524.78	52907.81
524.96	52486.51
525.13	52512.26
525.30	52851.64
525.47	52465.45
525.64	52917.17
525.81	53076.33
525.98	53153.57
526.16	52772.06
526.33	52919.51
526.50	53265.91
526.67	53209.74
526.84	53123.14
527.01	52914.83
527.18	53284.64
527.36	53200.38
527.53	53200.38
527.70	53844.02
527.87	53565.50
528.04	53298.68
528.21	53787.85
528.38	53539.75
528.55	53797.21
528.72	53584.22
528.89	53769.13
529.07	53822.96
529.24	53705.93
529.41	53947.01
529.58	54042.97
529.75	54031.27
529.92	54176.38
530.09	54260.64
530.26	54333.20
530.43	54382.35
530.60	53951.69
530.77	54082.76
530.94	54319.15
531.11	54312.13
531.28	54424.48
531.46	54511.08
531.63	54415.11
531.80	54684.28
531.97	54672.57
532.14	55047.06
532.31	54773.22
532.48	54852.80
532.65	54967.48
532.82	54780.24
532.99	55089.19
533.16	54967.48
533.33	55351.33
533.50	55222.60
533.67	55072.81
533.84	55016.63
534.01	55100.89
534.18	55213.24
534.35	55449.63
534.52	55374.73
534.69	55650.92
534.86	55519.85
535.03	55440.27
535.20	55531.55
535.37	55753.90
535.54	55625.17
535.71	55573.68
535.88	55760.92
536.05	55704.75
536.22	55887.31
536.38	55854.54
536.55	55901.36
536.72	56053.49
536.89	55945.83
537.06	56006.68
537.23	56074.55
537.40	55842.84
537.57	55861.57
537.74	56044.13
537.91	56271.16
538.08	56200.94
538.25	55997.32
538.42	56240.73
538.59	56463.08
538.75	56069.87
538.92	56191.58
539.09	56626.92
539.26	56697.14
539.43	56254.78
539.60	56535.64
539.77	56521.60
539.94	56582.45
540.11	56369.46
540.28	56687.78
540.44	56697.14
540.61	56762.67
540.78	56875.02
540.95	56842.25
541.12	56617.56
541.29	56697.14
541.46	56753.31
541.62	56619.90
541.79	56999.07
541.96	56762.67
542.13	56858.63
542.30	56795.44
542.47	57029.49
542.63	57219.08
542.80	57120.77
542.97	57319.72
543.14	57286.95
543.31	57422.70
543.48	57411.00
543.64	57794.85
543.81	57488.24
543.98	57474.20
544.15	57673.14
544.32	57741.02
544.48	57708.25
544.65	57537.39
544.82	57797.19
544.99	57460.15
545.16	57701.23
545.32	57661.44
545.49	57808.89
545.66	57972.73
545.83	58068.69
546.00	58019.54
546.16	57846.34
546.33	57818.25
546.50	57708.25
546.67	58064.01
546.83	57553.77
547.00	58129.54
547.17	58136.57
547.34	58089.76
547.50	58176.36
547.67	58150.61
547.84	58372.96
548.00	58277.00
548.17	58548.50
548.34	58241.89
548.51	58351.90
548.67	58258.27
548.84	58506.37
549.01	58335.51
549.18	58234.87
549.34	58592.97
549.51	58787.24
549.68	58695.95
549.84	58632.76
550.01	58546.16
550.18	58614.04
550.34	58780.21
550.51	58759.15
550.68	58684.25
550.84	58489.99
551.01	58885.54
551.18	58831.71
551.34	58960.44
551.51	58752.13
551.68	58918.31
551.84	58658.51
552.01	58946.39
552.18	58829.37
552.34	58747.45
552.51	58927.67
552.68	58887.88
552.84	58775.53
553.01	59346.62
553.18	58953.41
553.34	59145.34
553.51	59037.67
553.67	59117.25
553.84	59243.64
554.01	59274.07
554.17	59068.10
554.34	59458.97
554.51	59377.05
554.67	59253.00
554.84	59353.65
555.00	59133.63
555.17	59192.15
555.33	59236.62
555.50	59143.00
555.67	59311.52
555.83	59318.54
556.00	59421.52
556.16	59629.83
556.33	59634.51
556.50	59526.84
556.66	59667.28
556.83	59147.68
556.99	59611.10
557.16	59643.87
557.32	59758.56
557.49	59627.49
557.65	59643.87
557.82	59498.76
557.98	59510.46
558.15	59643.87
558.32	59922.40
558.48	59416.84
558.65	59704.73
558.81	59758.56
558.98	59962.18
559.14	59812.39
559.31	59948.14
559.47	60046.44
559.64	59971.55
559.80	59898.99
559.97	59978.57
560.13	59894.31
560.30	60095.60
560.46	60046.44
560.63	59882.61
560.79	60079.21
560.96	60079.21
561.12	60051.12
561.29	60214.96
561.45	60065.17
561.61	60170.49
561.78	60210.28
561.94	60196.24
562.11	60121.34
562.27	60140.07
562.44	60224.32
562.60	60083.89
562.77	60285.18
562.93	59922.40
563.10	60289.86
563.26	60074.53
563.42	60463.06
563.59	60137.72
563.75	60273.48
563.92	60116.66
564.08	60343.69
564.24	60500.51
564.41	60238.37
564.57	60329.65
564.74	60362.42
564.90	60306.24
565.07	60191.56
565.23	60130.70
565.39	60317.95
565.56	60547.32
565.72	60093.25
565.88	60331.99
566.05	60292.20
566.21	60519.23
566.38	60500.51
566.54	60374.12
566.70	60449.02
566.87	60624.56
567.03	60465.40
567.19	60617.53
567.36	60486.46
567.52	60514.55
567.68	60722.86
567.85	60626.90
568.01	60486.46
568.17	60559.02
568.34	60659.66
568.50	60631.58
568.66	60413.91
568.83	60636.26
568.99	60519.23
569.15	60659.66
569.32	60715.84
569.48	60598.81
569.64	60860.95
569.81	60676.05
569.97	60509.87
570.13	60678.39
570.30	60554.34
570.46	60865.63
570.62	60882.02
570.78	60706.47
570.95	60687.75
571.11	60949.89
571.27	60561.36
571.43	60610.51
571.60	60926.49
571.76	60734.56
571.92	60924.14
572.09	60767.33
572.25	60896.06
572.41	60722.86
572.57	60870.31
572.74	61186.28
572.90	60767.33
573.06	60949.89
573.22	60959.25
573.38	60814.14
573.55	60961.59
573.71	60968.61
573.87	60727.54
574.03	60786.05
574.20	60966.27
574.36	60757.97
574.52	60917.12
574.68	61010.74
574.84	61176.92
575.01	60856.27
575.17	61062.24
575.33	60874.99
575.49	60757.97
575.65	60973.30
575.82	61109.05
575.98	61010.74
576.14	61167.56
576.30	61036.49
576.46	60956.91
576.62	60966.27
576.79	61024.79
576.95	60867.97
577.11	61010.74
577.27	61144.16
577.43	61111.39
577.59	61052.87
577.75	61027.13
577.92	60741.58
578.08	60949.89
578.24	61109.05
578.40	61055.21
578.56	61176.92
578.72	60898.40
578.88	61488.21
579.04	61347.78
579.21	60992.02
579.37	61116.07
579.53	61216.71
579.69	60903.08
579.85	61038.83
580.01	61125.43
580.17	60985.00
580.33	61265.86
580.49	61258.84
580.65	61228.41
580.82	61062.24
580.98	61073.94
581.14	61045.85
581.30	61176.92
581.46	61235.44
581.62	61137.13
581.78	61031.81
581.94	61275.22
582.10	61221.39
582.26	61329.06
582.42	61235.44
582.58	61258.84
582.74	61113.73
582.90	61069.26
583.06	61141.81
583.22	60982.66
583.38	61162.88
583.54	61270.54
583.70	61153.52
583.86	61251.82
584.02	61102.03
584.18	61300.97
584.34	61209.69
584.50	60954.57
584.66	61155.86
584.82	60907.76
584.98	61298.63
585.14	61389.91
585.30	61223.73
585.46	61223.73
585.62	61216.71
585.78	61291.61
585.94	61052.87
586.10	61207.35
586.26	61048.19
586.42	61364.17
586.58	61153.52
586.74	61169.90
586.90	61109.05
587.06	61155.86
587.22	61366.51
587.38	61448.42
587.54	61268.20
587.70	61443.74
587.86	61209.69
588.02	61118.41
588.18	61270.54
588.34	61361.82
588.49	61511.62
