SpectraSuite Data File
++++++++++++++++++++++++++++++++++++
Date: Fri Oct 25 11:33:26 EDT 2013
User: price-jones
Dark Spectrum Present: No
Reference Spectrum Present: No
Number of Sampled Component Spectra: 1
Spectrometers: USB2+H05261
Integration Time (usec): 100000 (USB2+H05261)
Spectra Averaged: 1 (USB2+H05261)
Boxcar Smoothing: 0 (USB2+H05261)
Correct for Electrical Dark: No (USB2+H05261)
Strobe/Lamp Enabled: No (USB2+H05261)
Correct for Detector Non-linearity: No (USB2+H05261)
Correct for Stray Light: No (USB2+H05261)
Number of Pixels in Processed Spectrum: 2048
>>>>>Begin Processed Spectral Data<<<<<
365.73	278.52
365.92	278.52
366.12	278.52
366.32	198.95
366.52	227.03
366.72	140.43
366.91	175.54
367.11	191.92
367.31	135.75
367.51	191.92
367.70	182.56
367.90	212.99
368.10	154.48
368.30	142.77
368.49	166.18
368.69	182.56
368.89	145.11
369.09	168.52
369.28	189.58
369.48	252.78
369.68	224.69
369.87	292.57
370.07	264.48
370.27	280.86
370.47	346.40
370.66	449.38
370.86	528.96
371.06	484.49
371.25	512.58
371.45	524.28
371.65	535.98
371.84	585.13
372.04	489.17
372.24	524.28
372.44	634.29
372.63	589.82
372.83	535.98
373.03	568.75
373.22	667.05
373.42	636.63
373.62	599.18
373.81	657.69
374.01	603.86
374.21	653.01
374.40	641.31
374.60	699.82
374.79	638.97
374.99	781.74
375.19	650.67
375.38	657.69
375.58	683.44
375.78	622.58
375.97	645.99
376.17	695.14
376.37	669.39
376.56	629.60
376.76	648.33
376.95	674.07
377.15	763.01
377.35	702.16
377.54	692.80
377.74	732.59
377.93	765.36
378.13	692.80
378.33	676.41
378.52	695.14
378.72	711.52
378.91	688.12
379.11	713.86
379.31	711.52
379.50	753.65
379.70	786.42
379.89	781.74
380.09	713.86
380.28	718.54
380.48	727.91
380.68	730.25
380.87	784.08
381.07	767.70
381.26	767.70
381.46	760.67
381.65	777.06
381.85	777.06
382.04	791.10
382.24	744.29
382.43	774.72
382.63	720.88
382.83	823.87
383.02	706.84
383.22	795.78
383.41	793.44
383.61	807.48
383.80	732.59
384.00	833.23
384.19	727.91
384.39	802.80
384.58	779.40
384.78	830.89
384.97	809.83
385.17	833.23
385.36	901.11
385.56	774.72
385.75	819.19
385.95	800.46
386.14	814.51
386.34	795.78
386.53	753.65
386.72	933.87
386.92	840.25
387.11	887.06
387.31	898.77
387.50	774.72
387.70	903.45
387.89	868.34
388.09	896.43
388.28	875.36
388.48	903.45
388.67	950.26
388.86	901.11
389.06	828.55
389.25	901.11
389.45	947.92
389.64	968.98
389.84	943.24
390.03	1004.09
390.22	910.47
390.42	877.70
390.61	966.64
390.81	1041.54
391.00	959.62
391.19	983.02
391.39	1008.77
391.58	1008.77
391.78	1018.13
391.97	1018.13
392.16	971.32
392.36	1118.78
392.55	1100.05
392.75	1041.54
392.94	1048.56
393.13	1074.31
393.33	1088.35
393.52	1020.47
393.71	1130.48
393.91	1071.97
394.10	1088.35
394.29	1076.65
394.49	1128.14
394.68	1111.75
394.88	1109.41
395.07	1121.12
395.26	1121.12
395.46	1153.88
395.65	1132.82
395.84	1233.46
396.04	1228.78
396.23	1245.16
396.42	1135.16
396.62	1160.91
396.81	1212.40
397.00	1188.99
397.19	1163.25
397.39	1205.38
397.58	1177.29
397.77	1193.67
397.97	1299.00
398.16	1226.44
398.35	1273.25
398.55	1275.59
398.74	1296.66
398.93	1268.57
399.12	1247.51
399.32	1284.95
399.51	1310.70
399.70	1336.45
399.90	1387.94
400.09	1273.25
400.28	1357.51
400.47	1296.66
400.67	1446.45
400.86	1409.00
401.05	1423.05
401.24	1432.41
401.44	1399.64
401.63	1462.83
401.82	1413.68
402.01	1448.79
402.21	1453.47
402.40	1469.86
402.59	1540.07
402.78	1490.92
402.97	1488.58
403.17	1533.05
403.36	1657.10
403.55	1565.82
403.74	1619.65
403.93	1617.31
404.13	1598.59
404.32	1577.52
404.51	1654.76
404.70	1600.93
404.89	1607.95
405.09	1673.48
405.28	1736.68
405.47	1591.56
405.66	1668.80
405.85	1680.50
406.05	1849.02
406.24	1750.72
406.43	1699.23
406.62	1748.38
406.81	1954.35
407.00	1785.83
407.20	1729.66
407.39	1797.53
407.58	1818.60
407.77	1898.17
407.96	1881.79
408.15	1961.37
408.34	1963.71
408.54	1923.92
408.73	1865.41
408.92	1968.39
409.11	1980.09
409.30	2090.10
409.49	1968.39
409.68	2001.16
409.87	1998.82
410.07	2054.99
410.26	2019.88
410.45	2092.44
410.64	2050.31
410.83	2143.93
411.02	2132.23
411.21	2218.83
411.40	2172.02
411.59	2211.81
411.78	2188.40
411.98	2106.48
412.17	2197.76
412.36	2326.49
412.55	2279.68
412.74	2413.09
412.93	2342.88
413.12	2359.26
413.31	2497.35
413.50	2466.92
413.69	2300.75
413.88	2420.11
414.07	2434.16
414.26	2485.65
414.45	2516.08
414.64	2553.52
414.83	2567.57
415.02	2588.63
415.22	2663.53
415.41	2642.46
415.60	2609.70
415.79	2635.44
415.98	2738.43
416.17	2768.85
416.36	2801.62
416.55	2806.30
416.74	2832.05
416.93	2827.37
417.12	2850.77
417.31	2867.16
417.50	2892.90
417.69	2878.86
417.88	2827.37
418.07	2988.86
418.26	2949.08
418.45	2930.35
418.64	3096.53
418.83	3021.63
419.02	2993.55
419.21	3159.72
419.39	3115.25
419.58	3232.28
419.77	3173.77
419.96	3220.58
420.15	3136.32
420.34	3283.77
420.53	3150.36
420.72	3201.85
420.91	3258.03
421.10	3229.94
421.29	3438.25
421.48	3171.43
421.67	3236.96
421.86	3211.22
422.05	3293.13
422.24	3375.05
422.43	3222.92
422.61	3377.39
422.80	3384.41
422.99	3421.86
423.18	3309.52
423.37	3407.82
423.56	3506.12
423.75	3473.36
423.94	3309.52
424.13	3215.90
424.32	3267.39
424.50	3452.29
424.69	3574.00
424.88	3417.18
425.07	3403.14
425.26	3419.52
425.45	3428.88
425.64	3417.18
425.83	3520.17
426.01	3559.95
426.20	3449.95
426.39	3524.85
426.58	3435.91
426.77	3452.29
426.96	3609.11
427.15	3592.72
427.33	3620.81
427.52	3630.17
427.71	3721.45
427.90	3569.32
428.09	3592.72
428.28	3705.07
428.46	3700.39
428.65	3552.93
428.84	3850.18
429.03	3911.04
429.22	3702.73
429.40	3786.99
429.59	3705.07
429.78	3658.26
429.97	3627.83
430.16	3758.90
430.34	3871.25
430.53	3948.48
430.72	3873.59
430.91	3892.31
431.10	3845.50
431.28	4039.76
431.47	3981.25
431.66	4098.28
431.85	3871.25
432.03	4119.34
432.22	4117.00
432.41	4102.96
432.60	4016.36
432.79	4072.53
432.97	4173.18
433.16	4217.65
433.35	4046.79
433.54	4212.96
433.72	4285.52
433.91	4236.37
434.10	4166.15
434.28	4173.18
434.47	4131.05
434.66	4311.27
434.85	4360.42
435.03	4552.34
435.22	4395.53
435.41	4442.34
435.59	4381.48
435.78	4411.91
435.97	4278.50
436.16	4306.59
436.34	4423.61
436.53	4395.53
436.72	4491.49
436.90	4437.66
437.09	4524.26
437.28	4423.61
437.46	4484.47
437.65	4582.77
437.84	4685.75
438.02	4655.33
438.21	4554.68
438.40	4547.66
438.58	4713.84
438.77	4711.50
438.96	4606.17
439.14	4842.57
439.33	4884.70
439.52	5015.77
439.70	5001.72
439.89	4945.55
440.08	5025.13
440.26	5060.24
440.45	4943.21
440.63	5226.42
440.82	5188.97
441.01	5088.32
441.19	5238.12
441.38	5249.82
441.57	5280.25
441.75	5226.42
441.94	5392.59
442.12	5530.69
442.31	5474.51
442.50	5577.50
442.68	5324.72
442.87	5535.37
443.05	5540.05
443.24	5481.53
443.43	5591.54
443.61	5596.22
443.80	5724.95
443.98	5523.66
444.17	5350.46
444.35	5612.60
444.54	5717.93
444.73	5659.42
444.91	5699.20
445.10	5549.41
445.28	5713.25
445.47	5640.69
445.65	5717.93
445.84	5834.96
446.02	5762.40
446.21	5790.49
446.39	5767.08
446.58	5689.84
446.77	5802.19
446.95	5584.52
447.14	5626.65
447.32	5830.27
447.51	5877.09
447.69	5905.17
447.88	5771.76
448.06	5879.43
448.25	5846.66
448.43	5741.33
448.62	5771.76
448.80	5942.62
448.99	5802.19
449.17	5968.37
449.36	5940.28
449.54	6057.31
449.73	5912.19
449.91	6188.38
450.10	6071.35
450.28	6134.54
450.46	6043.26
450.65	6195.40
450.83	6132.20
451.02	6132.20
451.20	6108.80
451.39	6230.51
451.57	6230.51
451.76	6038.58
451.94	6200.08
452.13	6296.04
452.31	6375.62
452.49	6171.99
452.68	6349.87
452.86	6431.79
453.05	6298.38
453.23	6511.37
453.42	6347.53
453.60	6328.81
453.78	6614.35
453.97	6319.45
454.15	6551.16
454.34	6567.54
454.52	6473.92
454.70	6579.25
454.89	6394.34
455.07	6658.82
455.26	6548.82
455.44	6682.23
455.62	6782.87
455.81	6722.02
455.99	6703.29
456.17	6825.00
456.36	6853.09
456.54	6719.68
456.73	7042.67
456.91	6988.84
457.09	7042.67
457.28	7026.29
457.46	6867.13
457.64	7028.63
457.83	7026.29
458.01	6956.07
458.19	7410.14
458.38	7157.36
458.56	7155.02
458.74	7143.32
458.93	7145.66
459.11	7258.00
459.29	7286.09
459.48	7304.81
459.66	7239.28
459.84	7351.62
460.03	7405.46
460.21	7283.75
460.39	7302.47
460.57	7559.93
460.76	7456.95
460.94	7737.81
461.12	7557.59
461.31	7515.46
461.49	7503.76
461.67	7569.29
461.85	7557.59
462.04	7719.09
462.22	8011.65
462.40	7714.41
462.59	7754.19
462.77	7805.69
462.95	7829.09
463.13	7840.79
463.32	7906.33
463.50	7946.12
463.68	7882.92
463.86	7960.16
464.05	7896.97
464.23	8006.97
464.41	8035.06
464.59	7906.33
464.78	8032.72
464.96	7829.09
465.14	7981.23
465.32	7995.27
465.50	8231.66
465.69	8252.73
465.87	8098.25
466.05	8067.83
466.23	8063.15
466.41	8203.58
466.60	8561.68
466.78	8198.90
466.96	8145.06
467.14	8161.45
467.32	8210.60
467.51	8306.56
467.69	8131.02
467.87	8468.06
468.05	8416.57
468.23	8135.70
468.41	8463.38
468.60	8531.25
468.78	8641.26
468.96	8360.39
469.14	8617.85
469.32	8685.73
469.50	8631.90
469.69	8814.46
469.87	8992.34
470.05	8821.48
470.23	8748.92
470.41	8919.78
470.59	9174.90
470.77	8917.44
470.95	8973.61
471.14	9011.06
471.32	8968.93
471.50	9200.65
471.68	8968.93
471.86	9121.07
472.04	9404.27
472.22	9397.25
472.40	9212.35
472.58	9233.41
472.77	9437.04
472.95	9462.79
473.13	9731.95
473.31	9371.50
473.49	9621.94
473.67	9430.02
473.85	9502.58
474.03	9764.72
474.21	9668.75
474.39	9834.93
474.57	9874.72
474.75	9898.13
474.93	9923.87
475.12	9991.75
475.30	9902.81
475.48	9949.62
475.66	10223.46
475.84	10197.71
476.02	10242.18
476.20	10141.54
476.38	10443.47
476.56	10602.63
476.74	10553.48
476.92	10417.72
477.10	10532.41
477.28	10991.16
477.46	10565.18
477.64	10792.21
477.82	11014.56
478.00	11103.50
478.18	11236.91
478.36	11070.73
478.54	11548.20
478.72	11346.92
478.90	11658.21
479.08	11529.48
479.26	11800.98
479.44	11672.25
479.62	12025.67
479.80	11793.96
479.98	12065.46
480.16	12498.46
480.34	12290.15
480.52	12381.43
480.70	12294.83
480.88	12325.26
481.06	12346.33
481.24	12482.08
481.41	12585.06
481.59	12802.73
481.77	12823.80
481.95	12898.69
482.13	13158.49
482.31	12992.31
482.49	13420.63
482.67	13305.95
482.85	13591.49
483.03	13858.31
483.21	13528.30
483.39	14017.47
483.57	13839.59
483.74	14125.13
483.92	14331.10
484.10	14033.85
484.28	14305.35
484.46	14785.16
484.64	14621.33
484.82	14537.07
485.00	14932.62
485.18	14843.68
485.35	14998.15
485.53	15005.17
485.71	15197.10
485.89	15573.92
486.07	15279.02
486.25	15529.45
486.43	15580.95
486.61	15470.94
486.78	15913.30
486.96	15880.53
487.14	16063.10
487.32	16355.66
487.50	16475.03
487.68	16442.26
487.85	16662.27
488.03	17013.35
488.21	17064.85
488.39	17301.24
488.57	17261.45
488.75	17006.33
488.92	17394.86
489.10	17626.57
489.28	17610.19
489.46	17914.46
489.64	18108.72
489.81	18155.54
489.99	18424.70
490.17	18073.62
490.35	18675.13
490.53	18490.23
490.70	18820.25
490.88	18930.25
491.06	18925.57
491.24	18813.23
491.41	19009.83
491.59	19484.96
491.77	19433.47
491.95	19702.63
492.13	19606.67
492.30	19264.95
492.48	19618.37
492.66	20027.96
492.84	20009.24
493.01	20271.38
493.19	20175.42
493.37	20491.39
493.54	20971.20
493.72	20577.99
493.90	20599.05
494.08	21275.47
494.25	21046.10
494.43	21078.86
494.61	21165.46
494.79	21275.47
494.96	21174.83
495.14	21556.33
495.32	22099.34
495.49	22101.68
495.67	22097.00
495.85	21666.34
496.02	22195.30
496.20	22621.28
496.38	22429.35
496.55	22368.50
496.73	23075.34
496.91	22888.10
497.09	22878.74
497.26	22881.08
497.44	22897.46
497.62	23330.46
497.79	23676.86
497.97	23744.73
498.14	23447.49
498.32	23735.37
498.50	23524.72
498.67	24336.89
498.85	23953.04
499.03	24283.06
499.20	24278.38
499.38	24404.77
499.56	24287.74
499.73	24613.07
499.91	24699.67
500.08	24783.93
500.26	24767.55
500.44	24933.73
500.61	25135.01
500.79	24940.75
500.97	25245.02
501.14	25355.02
501.32	25420.56
501.49	25385.45
501.67	25514.18
501.84	25504.82
502.02	25762.28
502.20	25687.38
502.37	25914.41
502.55	25797.38
502.72	26230.38
502.90	26078.25
503.07	25886.32
503.25	25972.92
503.43	26419.97
503.60	27012.12
503.78	26668.06
503.95	26309.96
504.13	26438.69
504.30	27103.40
504.48	26265.49
504.65	26953.61
504.83	26948.93
505.01	27428.74
505.18	27126.81
505.36	27435.76
505.53	27433.42
505.71	27438.10
505.88	27611.30
506.06	27360.86
506.23	27730.67
506.41	27641.73
506.58	27765.78
506.76	28203.46
506.93	28240.90
507.11	27857.06
507.28	28432.83
507.46	28362.61
507.63	28479.64
507.81	28662.20
507.98	28070.04
508.16	28980.51
508.33	28854.12
508.50	28959.45
508.68	29092.86
508.85	29312.87
509.03	29301.17
509.20	29198.18
509.38	29539.90
509.55	29347.98
509.73	29535.22
509.90	29656.93
510.08	29474.37
510.25	29432.24
510.42	30000.99
510.60	29984.60
510.77	29881.62
510.95	30380.15
511.12	30396.54
511.30	30382.49
511.47	30129.72
511.64	30143.76
511.82	30459.73
511.99	30576.76
512.17	30597.82
512.34	30487.82
512.51	30740.60
512.69	30986.35
512.86	31012.10
513.04	31028.48
513.21	31346.79
513.38	31211.04
513.56	31529.36
513.73	31342.11
513.90	31580.85
514.08	31496.59
514.25	31625.32
514.43	31435.74
514.60	31805.54
514.77	31431.05
514.95	31812.56
515.12	32060.66
515.29	32135.56
515.47	32121.51
515.64	32320.46
515.81	32093.43
515.99	32261.94
516.16	32704.31
516.33	32563.87
516.51	32402.38
516.68	32659.84
516.85	32245.56
517.03	32929.00
517.20	32877.51
517.37	32919.63
517.54	33235.61
517.72	33214.54
517.89	33127.94
518.06	32940.70
518.24	32924.32
518.41	33104.54
518.58	33251.99
518.75	33116.24
518.93	33729.46
519.10	33453.28
519.27	33631.16
519.45	33696.69
519.62	34195.23
519.79	33940.11
519.96	34223.31
520.14	34242.04
520.31	34113.31
520.48	33572.64
520.65	34127.35
520.83	34658.65
521.00	34405.88
521.17	34548.65
521.34	34665.67
521.52	35033.14
521.69	34855.26
521.86	34653.97
522.03	34710.14
522.20	34719.51
522.38	34827.17
522.55	35325.71
522.72	35321.02
522.89	35299.96
523.07	35573.80
523.24	35302.30
523.41	35737.64
523.58	35608.91
523.75	35747.00
523.92	35264.85
524.10	35225.06
524.27	35866.37
524.44	35569.12
524.61	35775.09
524.78	36163.62
524.96	35648.70
525.13	36224.47
525.30	36980.46
525.47	36610.66
525.64	35931.90
525.81	36751.09
525.98	36360.22
526.16	36201.07
526.33	36627.04
526.50	36552.15
526.67	36299.37
526.84	36802.58
527.01	36954.72
527.18	36898.55
527.36	36816.63
527.53	37076.43
527.70	37141.96
527.87	37326.86
528.04	37200.47
528.21	37322.18
528.38	37305.80
528.55	37296.44
528.72	37420.48
528.89	37670.92
529.07	37560.92
529.24	37104.51
529.41	37504.74
529.58	37762.20
529.75	37071.75
529.92	37881.57
530.09	37661.56
530.26	37792.63
530.43	38078.18
530.60	37659.22
530.77	37450.91
530.94	37963.49
531.11	37982.21
531.28	37940.08
531.46	38197.54
531.63	38410.53
531.80	38085.20
531.97	38628.20
532.14	38242.01
532.31	38422.23
532.48	38508.83
532.65	38944.17
532.82	38967.58
532.99	38721.82
533.16	38447.98
533.33	38855.23
533.50	39026.09
533.67	38831.83
533.84	38820.13
534.01	39271.85
534.18	38986.30
534.35	39473.13
534.52	39543.35
534.69	39662.72
534.86	39276.53
535.03	39452.07
535.20	39531.65
535.37	39498.88
535.54	39936.56
535.71	39529.31
535.88	39906.13
536.05	39817.19
536.22	40163.59
536.38	40126.14
536.55	40102.74
536.72	39648.68
536.89	39945.92
537.06	39871.03
537.23	40210.40
537.40	40182.32
537.57	39653.36
537.74	40222.11
537.91	40355.52
538.08	40271.26
538.25	40563.82
538.42	40390.62
538.59	40914.90
538.75	40196.36
538.92	40542.76
539.09	40596.59
539.26	40620.00
539.43	40442.12
539.60	40598.93
539.77	40671.49
539.94	41390.03
540.11	41057.68
540.28	40814.26
540.44	40713.62
540.61	41237.90
540.78	41022.57
540.95	40926.61
541.12	41113.85
541.29	41404.08
541.46	41130.23
541.62	40910.22
541.79	41310.46
541.96	40669.15
542.13	41703.67
542.30	41123.21
542.47	41347.90
542.63	41251.94
542.80	42014.96
542.97	41874.52
543.14	42071.13
543.31	42047.72
543.48	42211.56
543.64	42532.22
543.81	42307.52
543.98	42206.88
544.15	42387.10
544.32	42487.74
544.48	42913.72
544.65	42843.51
544.82	42546.26
544.99	42239.65
545.16	42459.66
545.32	42625.84
545.49	43077.56
545.66	42859.89
545.83	43000.32
546.00	42944.15
546.16	42660.94
546.33	42920.74
546.50	42452.64
546.67	42604.77
546.83	42216.24
547.00	42780.31
547.17	42607.11
547.34	43037.77
547.50	43519.92
547.67	43531.62
547.84	43222.67
548.00	43370.13
548.17	43833.55
548.34	43576.09
548.51	43749.29
548.67	43519.92
548.84	43159.48
549.01	43365.45
549.18	43941.22
549.34	43971.64
549.51	43686.10
549.68	43545.67
549.84	43501.20
550.01	43622.90
550.18	43688.44
550.34	44126.12
550.51	43735.25
550.68	43863.98
550.84	43288.21
551.01	43784.40
551.18	43576.09
551.34	43983.35
551.51	44114.42
551.68	43966.96
551.84	44203.36
552.01	43929.51
552.18	44020.80
552.34	44215.06
552.51	44273.57
552.68	44002.07
552.84	43842.92
553.01	44626.99
553.18	44589.55
553.34	44329.75
553.51	44428.05
553.67	43992.71
553.84	44928.92
554.01	44713.59
554.17	44540.39
554.34	44685.51
554.51	44622.31
554.67	45050.63
554.84	44568.48
555.00	44383.58
555.17	44439.75
555.33	44776.79
555.50	44928.92
555.67	44788.49
555.83	45184.04
556.00	45031.91
556.16	45455.54
556.33	44966.37
556.50	45090.42
556.66	45010.84
556.83	45076.38
556.99	45233.19
557.16	45258.94
557.32	45333.84
557.49	45708.32
557.65	45179.36
557.82	45490.65
557.98	45277.66
558.15	45394.69
558.32	45329.16
558.48	44980.42
558.65	45366.60
558.81	45214.47
558.98	44889.13
559.14	45471.93
559.31	45607.68
559.47	45485.97
559.64	45642.79
559.80	45455.54
559.97	45521.08
560.13	45488.31
560.30	45790.24
560.46	45921.31
560.63	45848.75
560.79	45904.93
560.96	46211.54
561.12	45813.65
561.29	45776.20
561.45	45652.15
561.61	46138.98
561.78	45883.86
561.94	46143.66
562.11	45483.63
562.27	45570.23
562.44	45876.84
562.60	45951.74
562.77	45970.46
562.93	45839.39
563.10	46036.00
563.26	46199.83
563.42	46155.36
563.59	46274.73
563.75	46251.33
563.92	46302.82
564.08	46328.56
564.24	46164.73
564.41	46279.41
564.57	46525.17
564.74	46288.77
564.90	46251.33
565.07	46316.86
565.23	46450.27
565.39	46176.43
565.56	46803.69
565.72	46469.00
565.88	46459.63
566.05	46314.52
566.21	46583.68
566.38	46387.08
566.54	46539.21
566.70	46518.15
566.87	46504.10
567.03	46632.83
567.19	46380.06
567.36	46473.68
567.52	46438.57
567.68	46796.67
567.85	46588.36
568.01	47004.98
568.17	46831.78
568.34	46831.78
568.50	46368.35
568.66	46429.21
568.83	46689.01
568.99	46763.90
569.15	46571.98
569.32	46260.69
569.48	46567.30
569.64	47248.39
569.81	46492.40
569.97	46843.48
570.13	46930.08
570.30	46454.95
570.46	46403.46
570.62	46635.17
570.78	47004.98
570.95	46817.74
571.11	47119.66
571.27	46717.09
571.43	46684.33
571.60	46571.98
571.76	46752.20
571.92	46527.51
572.09	47012.00
572.25	46681.98
572.41	46665.60
572.57	46766.24
572.74	47302.23
572.90	47091.58
573.06	46920.72
573.22	47393.51
573.38	47236.69
573.55	47201.58
573.71	47222.65
573.87	47131.37
574.03	47246.05
574.20	47604.16
574.36	47112.64
574.52	47143.07
574.68	47164.14
574.84	46944.12
575.01	47295.21
575.17	47250.74
575.33	47227.33
575.49	47363.08
575.65	46962.85
575.82	47243.71
575.98	46918.38
576.14	47473.09
576.30	47400.53
576.46	47187.54
576.62	47342.02
576.79	47423.93
576.95	46887.95
577.11	47437.98
577.27	47491.81
577.43	47468.40
577.59	47236.69
577.75	47033.07
577.92	47114.98
578.08	47082.22
578.24	47323.29
578.40	47746.93
578.56	46934.76
578.72	47632.24
578.88	47386.49
579.04	47629.90
579.21	47309.25
579.37	47557.35
579.53	47423.93
579.69	47189.88
579.85	47356.06
580.01	47143.07
580.17	47475.43
580.33	47508.19
580.49	47529.26
580.65	47255.42
580.82	47667.35
580.98	47304.57
581.14	46733.48
581.30	47468.40
581.46	47409.89
581.62	47395.85
581.78	46960.51
581.94	47674.37
582.10	47337.33
582.26	47814.80
582.42	47512.88
582.58	47386.49
582.74	47526.92
582.90	47428.62
583.06	47756.29
583.22	47470.75
583.38	47468.40
583.54	47395.85
583.70	47704.80
583.86	47700.12
584.02	47356.06
584.18	47894.38
584.34	47613.52
584.50	48013.75
584.66	47569.05
584.82	47583.09
584.98	47730.54
585.14	47760.97
585.30	46939.44
585.46	47639.26
585.62	47543.30
585.78	47580.75
585.94	47430.96
586.10	47199.24
586.26	47342.02
586.42	47473.09
586.58	47767.99
586.74	47700.12
586.90	47859.27
587.06	47732.89
587.22	47915.45
587.38	47494.15
587.54	47789.06
587.70	48315.68
587.86	47416.91
588.02	47164.14
588.18	47494.15
588.34	47618.20
588.49	47430.96
588.65	47428.62
588.81	47604.16
588.97	47842.89
589.13	48069.92
589.29	47714.16
589.45	48013.75
589.61	47924.81
589.77	47854.59
589.93	47789.06
590.08	48133.12
