SpectraSuite Data File
++++++++++++++++++++++++++++++++++++
Date: Fri Oct 25 10:43:55 EDT 2013
User: price-jones
Dark Spectrum Present: No
Reference Spectrum Present: No
Number of Sampled Component Spectra: 1
Spectrometers: USB2+H05261
Integration Time (usec): 100000 (USB2+H05261)
Spectra Averaged: 1 (USB2+H05261)
Boxcar Smoothing: 0 (USB2+H05261)
Correct for Electrical Dark: No (USB2+H05261)
Strobe/Lamp Enabled: No (USB2+H05261)
Correct for Detector Non-linearity: No (USB2+H05261)
Correct for Stray Light: No (USB2+H05261)
Number of Pixels in Processed Spectrum: 2048
>>>>>Begin Processed Spectral Data<<<<<
365.73	149.79
365.92	149.79
366.12	149.79
366.32	4.68
366.52	14.04
366.72	70.22
366.91	53.83
367.11	65.54
367.31	32.77
367.51	39.79
367.70	65.54
367.90	30.43
368.10	32.77
368.30	0.00
368.49	60.85
368.69	53.83
368.89	53.83
369.09	28.09
369.28	60.85
369.48	28.09
369.68	142.77
369.87	28.09
370.07	72.56
370.27	142.77
370.47	163.84
370.66	299.59
370.86	461.09
371.06	461.09
371.25	498.53
371.45	402.57
371.65	545.34
371.84	482.15
372.04	526.62
372.24	489.17
372.44	440.02
372.63	376.83
372.83	484.49
373.03	575.77
373.22	582.79
373.42	594.50
373.62	601.52
373.81	517.26
374.01	578.11
374.21	540.66
374.40	526.62
374.60	585.13
374.79	603.86
374.99	550.03
375.19	620.24
375.38	603.86
375.58	638.97
375.78	538.32
375.97	610.88
376.17	681.10
376.37	641.31
376.56	543.00
376.76	620.24
376.95	526.62
377.15	720.88
377.35	683.44
377.54	723.23
377.74	624.92
377.93	638.97
378.13	688.12
378.33	716.20
378.52	613.22
378.72	634.29
378.91	734.93
379.11	779.40
379.31	608.54
379.50	706.84
379.70	660.03
379.89	716.20
380.09	650.67
380.28	772.38
380.48	732.59
380.68	763.01
380.87	713.86
381.07	746.63
381.26	798.12
381.46	674.07
381.65	758.33
381.85	753.65
382.04	748.97
382.24	763.01
382.43	758.33
382.63	685.78
382.83	739.61
383.02	746.63
383.22	786.42
383.41	777.06
383.61	807.48
383.80	685.78
384.00	851.96
384.19	858.98
384.39	791.10
384.58	868.34
384.78	826.21
384.97	774.72
385.17	894.08
385.36	856.64
385.56	849.61
385.75	835.57
385.95	847.27
386.14	875.36
386.34	898.77
386.53	880.04
386.72	830.89
386.92	812.17
387.11	901.11
387.31	915.15
387.50	866.00
387.70	959.62
387.89	929.19
388.09	976.00
388.28	863.66
388.48	868.34
388.67	961.96
388.86	976.00
389.06	884.72
389.25	1076.65
389.45	992.39
389.64	1048.56
389.84	1128.14
390.03	1020.47
390.22	1001.75
390.42	999.41
390.61	1132.82
390.81	1088.35
391.00	1071.97
391.19	1076.65
391.39	1046.22
391.58	1067.28
391.78	1111.75
391.97	1135.16
392.16	1095.37
392.36	1074.31
392.55	1048.56
392.75	1128.14
392.94	968.98
393.13	1071.97
393.33	936.21
393.52	1020.47
393.71	1095.37
393.91	1158.57
394.10	1151.54
394.29	1231.12
394.49	1277.93
394.68	1259.21
394.88	1245.16
395.07	1284.95
395.26	1348.15
395.46	1268.57
395.65	1306.02
395.84	1207.72
396.04	1299.00
396.23	1217.08
396.42	1137.50
396.62	1184.31
396.81	1235.80
397.00	1231.12
397.19	1334.11
397.39	1336.45
397.58	1437.09
397.77	1418.36
397.97	1425.39
398.16	1397.30
398.35	1558.80
398.55	1605.61
398.74	1526.03
398.93	1596.25
399.12	1579.86
399.32	1507.30
399.51	1572.84
399.70	1533.05
399.90	1631.35
400.09	1645.40
400.28	1680.50
400.47	1715.61
400.67	1724.97
400.86	1830.30
401.05	1715.61
401.24	1825.62
401.44	1809.23
401.63	1832.64
401.82	1870.09
402.01	1813.92
402.21	1809.23
402.40	1909.88
402.59	1867.75
402.78	1816.26
402.97	1849.02
403.17	1898.17
403.36	1879.45
403.55	1877.11
403.74	2003.50
403.93	1919.24
404.13	1998.82
404.32	1916.90
404.51	1961.37
404.70	2026.90
404.89	2017.54
405.09	1968.39
405.28	1954.35
405.47	2043.29
405.66	2129.89
405.85	2106.48
406.05	2036.27
406.24	2083.08
406.43	2246.91
406.62	2221.17
406.81	2242.23
407.00	2120.53
407.20	2087.76
407.39	2183.72
407.58	2218.83
407.77	2345.22
407.96	2314.79
408.15	2352.24
408.34	2319.47
408.54	2352.24
408.73	2375.64
408.92	2459.90
409.11	2438.84
409.30	2492.67
409.49	2377.98
409.68	2499.69
409.87	2296.07
410.07	2410.75
410.26	2471.61
410.45	2445.86
410.64	2492.67
410.83	2576.93
411.02	2630.76
411.21	2609.70
411.40	2747.79
411.59	2710.34
411.78	2745.45
411.98	2768.85
412.17	2818.00
412.36	2766.51
412.55	2810.98
412.74	2920.99
412.93	2923.33
413.12	3033.33
413.31	3038.02
413.50	2923.33
413.69	3012.27
413.88	3169.09
414.07	3133.98
414.26	3176.11
414.45	3042.70
414.64	3096.53
414.83	3344.63
415.02	3279.09
415.22	3258.03
415.41	3126.96
415.60	3295.47
415.79	3328.24
415.98	3485.06
416.17	3485.06
416.36	3323.56
416.55	3346.97
416.74	3393.78
416.93	3339.94
417.12	3438.25
417.31	3454.63
417.50	3431.23
417.69	3548.25
417.88	3552.93
418.07	3625.49
418.26	3494.42
418.45	3597.40
418.64	3712.09
418.83	3686.34
419.02	3712.09
419.21	3728.47
419.39	3719.11
419.58	3719.11
419.77	3648.90
419.96	3658.26
420.15	3904.01
420.34	3896.99
420.53	3969.55
420.72	3992.95
420.91	4007.00
421.10	3934.44
421.29	4074.87
421.48	4067.85
421.67	4173.18
421.86	3904.01
422.05	3925.08
422.24	3693.37
422.43	3915.72
422.61	4070.19
422.80	4046.79
422.99	4121.68
423.18	4074.87
423.37	4205.94
423.56	4182.54
423.75	4063.17
423.94	4032.74
424.13	3791.67
424.32	3808.05
424.50	4208.28
424.69	4177.86
424.88	4264.46
425.07	4170.83
425.26	3995.29
425.45	4044.45
425.64	4135.73
425.83	4147.43
426.01	4025.72
426.20	4128.70
426.39	4187.22
426.58	4152.11
426.77	4063.17
426.96	4229.35
427.15	4203.60
427.33	4126.36
427.52	4376.80
427.71	4348.72
427.90	4315.95
428.09	4325.31
428.28	4234.03
428.46	4386.16
428.65	4208.28
428.84	4482.13
429.03	4437.66
429.22	4320.63
429.40	4332.33
429.59	4337.01
429.78	4084.23
429.97	4102.96
430.16	4175.52
430.34	4337.01
430.53	4498.51
430.72	4404.89
430.91	4442.34
431.10	4482.13
431.28	4720.86
431.47	4844.91
431.66	4861.29
431.85	4793.42
432.03	4762.99
432.22	4678.73
432.41	4905.76
432.60	4968.96
432.79	4875.34
432.97	4929.17
433.16	4858.95
433.35	4938.53
433.54	4875.34
433.72	4833.21
433.91	4835.55
434.10	4882.36
434.28	5041.51
434.47	4905.76
434.66	5144.50
434.85	5165.56
435.03	5078.96
435.22	5109.39
435.41	5378.55
435.59	5221.74
435.78	5465.15
435.97	5446.43
436.16	5394.93
436.34	5305.99
436.53	5439.40
436.72	5533.03
436.90	5184.29
437.09	5289.61
437.28	5308.34
437.46	5432.38
437.65	5338.76
437.84	5320.04
438.02	5226.42
438.21	5444.09
438.40	5406.64
438.58	5547.07
438.77	5680.48
438.96	5617.29
439.14	5827.93
439.33	5994.11
439.52	5984.75
439.70	5853.68
439.89	5867.72
440.08	6090.07
440.26	5877.09
440.45	6001.13
440.63	6001.13
440.82	6314.77
441.01	6242.21
441.19	6249.23
441.38	6415.41
441.57	6361.58
441.75	6202.42
441.94	6478.60
442.12	6722.02
442.31	6502.01
442.50	6651.80
442.68	6640.10
442.87	6764.15
443.05	6609.67
443.24	6974.80
443.43	6722.02
443.61	6724.36
443.80	6817.98
443.98	6532.44
444.17	6532.44
444.35	6789.89
444.54	6916.28
444.73	7000.54
444.91	6703.29
445.10	6736.06
445.28	6703.29
445.47	6649.46
445.65	6752.45
445.84	6792.23
446.02	7026.29
446.21	6930.33
446.39	6913.94
446.58	7000.54
446.77	6850.75
446.95	6736.06
447.14	6850.75
447.32	7140.97
447.51	6874.15
447.69	6927.99
447.88	7000.54
448.06	7117.57
448.25	7066.08
448.43	7173.74
448.62	7094.16
448.80	6986.50
448.99	6949.05
449.17	7091.82
449.36	7112.89
449.54	7126.93
449.73	7351.62
449.91	7410.14
450.10	7391.41
450.28	7625.47
450.46	7644.19
450.65	7653.55
450.83	7573.97
451.02	7569.29
451.20	7536.52
451.39	7613.76
451.57	7473.33
451.76	7442.90
451.94	7691.00
452.13	7644.19
452.31	7531.84
452.49	7520.14
452.68	7627.81
452.86	7428.86
453.05	7522.48
453.23	7747.17
453.42	7625.47
453.60	7796.32
453.78	7838.45
453.97	7552.91
454.15	7599.72
454.34	7754.19
454.52	7798.66
454.70	7639.51
454.89	7978.89
455.07	7854.84
455.26	7974.21
455.44	8025.70
455.62	7990.59
455.81	7976.55
455.99	8112.30
456.17	8236.35
456.36	8070.17
456.54	8442.31
456.73	8346.35
456.91	8482.10
457.09	8379.12
457.28	8702.11
457.46	8278.47
457.64	8519.55
457.83	8503.17
458.01	8372.10
458.19	8650.62
458.38	8475.08
458.56	8578.06
458.74	8545.30
458.93	8456.36
459.11	8564.02
459.29	8798.07
459.48	8844.88
459.66	8720.84
459.84	8788.71
460.03	8791.05
460.21	8814.46
460.39	8968.93
460.57	8821.48
460.76	8870.63
460.94	9142.13
461.12	9128.09
461.31	9050.85
461.49	9025.11
461.67	8987.66
461.85	9263.84
462.04	9092.98
462.22	9224.05
462.40	9476.83
462.59	9200.65
462.77	9116.39
462.95	9327.03
463.13	9266.18
463.32	9378.53
463.50	9582.15
463.68	9252.14
463.86	9331.72
464.05	9352.78
464.23	9174.90
464.41	9448.74
464.59	9149.15
464.78	9462.79
464.96	9448.74
465.14	9493.21
465.32	9582.15
465.50	9797.48
465.69	9757.69
465.87	9614.92
466.05	9635.99
466.23	9483.85
466.41	9507.26
466.60	9617.26
466.78	9533.00
466.96	9713.22
467.14	9762.37
467.32	9884.08
467.51	9617.26
467.69	9645.35
467.87	9582.15
468.05	9970.68
468.23	9671.09
468.41	9863.02
468.60	9884.08
468.78	9963.66
468.96	9907.49
469.14	9975.36
469.32	10090.05
469.50	9767.06
469.69	9926.21
469.87	10174.31
470.05	10195.37
470.23	10078.35
470.41	10310.06
470.59	10073.67
470.77	10377.94
470.95	10520.71
471.14	10745.40
471.32	10256.23
471.50	10679.86
471.68	10740.72
471.86	10813.28
472.04	10801.57
472.22	10923.28
472.40	10541.77
472.58	10665.82
472.77	10768.80
472.95	10979.45
473.13	11126.91
473.31	11019.24
473.49	11190.10
473.67	11030.94
473.85	11197.12
474.03	11297.77
474.21	11339.90
474.39	11426.50
474.57	11508.41
474.75	11686.29
474.93	11597.35
475.12	11522.46
475.30	11648.85
475.48	11880.56
475.66	11655.87
475.84	11953.12
476.02	11641.82
476.20	11859.49
476.38	11978.86
476.56	12224.62
476.74	12320.58
476.92	12233.98
477.10	12257.39
477.28	12517.18
477.46	12589.74
477.64	12744.22
477.82	12884.65
478.00	13296.58
478.18	12779.32
478.36	12912.74
478.54	13294.24
478.72	13046.15
478.90	13437.02
479.08	13682.77
479.26	13682.77
479.44	13551.70
479.62	13535.32
479.80	13654.69
479.98	14073.64
480.16	14298.33
480.34	13991.72
480.52	14193.01
480.70	14450.47
480.88	14197.69
481.06	14494.94
481.24	14593.24
481.41	14946.66
481.59	15012.20
481.77	15164.33
481.95	15014.54
482.13	15087.09
482.31	15087.09
482.49	15325.83
482.67	15124.54
482.85	15557.54
483.03	15840.75
483.21	16121.61
483.39	16119.27
483.57	15981.18
483.74	16152.04
483.92	16264.38
484.10	16250.34
484.28	16542.91
484.46	16861.22
484.64	16971.22
484.82	16582.70
485.00	16783.98
485.18	17067.19
485.35	16889.31
485.53	16697.38
485.71	16554.61
485.89	16830.79
486.07	16856.54
486.25	17226.34
486.43	17432.31
486.61	17617.21
486.78	17813.82
486.96	18022.12
487.14	18403.63
487.32	18478.53
487.50	18445.76
487.68	18906.85
487.85	19094.09
488.03	19019.19
488.21	19360.91
488.39	19171.33
488.57	19414.74
488.75	18979.40
488.92	20126.27
489.10	20020.94
489.28	20238.61
489.46	20456.28
489.64	20706.72
489.81	21069.50
489.99	21083.55
490.17	20936.09
490.35	21226.32
490.53	20957.16
490.70	21188.87
490.88	21549.31
491.06	21659.32
491.24	21713.15
491.41	21392.50
491.59	21483.78
491.77	21476.76
491.95	22019.76
492.13	22455.10
492.30	22113.38
492.48	22876.40
492.66	22494.89
492.84	22682.13
493.01	23000.44
493.19	23108.11
493.37	22874.06
493.54	22941.93
493.72	23583.24
493.90	23309.40
494.08	23597.28
494.25	24037.30
494.43	23779.84
494.61	24421.15
494.79	24521.79
494.96	24297.10
495.14	23910.91
495.32	24320.51
495.49	24458.60
495.67	24781.59
495.85	25317.57
496.02	24936.07
496.20	25193.53
496.38	25343.32
496.55	25343.32
496.73	25827.81
496.91	25928.45
497.09	26237.41
497.26	25991.65
497.44	26043.14
497.62	26045.48
497.79	26260.81
497.97	25816.11
498.14	26590.83
498.32	26616.57
498.50	26616.57
498.67	26923.18
498.85	26803.82
499.03	27201.71
499.20	27290.65
499.38	27555.13
499.56	27353.84
499.73	27505.98
499.91	27498.95
500.08	27269.58
500.26	27438.10
500.44	27707.26
500.61	27480.23
500.79	27398.31
500.97	27782.16
501.14	27878.12
501.32	28056.00
501.49	27831.31
501.67	28463.25
501.84	28266.65
502.02	28388.36
502.20	28631.77
502.37	28947.75
502.55	28893.91
502.72	28699.65
502.90	28861.15
503.07	28727.74
503.25	28694.97
503.43	29142.01
503.60	29029.66
503.78	29003.92
503.95	29205.20
504.13	29207.55
504.30	29862.90
504.48	29596.07
504.65	29916.73
504.83	29865.24
505.01	29928.43
505.18	30040.78
505.36	30703.15
505.53	30419.94
505.71	30808.47
505.88	30707.83
506.06	30448.03
506.23	30859.96
506.41	30586.12
506.58	30644.63
506.76	30794.43
506.93	30993.37
507.11	31044.87
507.28	30981.67
507.46	31070.61
507.63	31079.97
507.81	31278.92
507.98	31000.40
508.16	31428.71
508.33	31639.36
508.50	31566.81
508.68	31913.20
508.85	32173.00
509.03	32046.62
509.20	31810.22
509.38	32283.01
509.55	31971.72
509.73	32283.01
509.90	32283.01
510.08	32229.18
510.25	32086.40
510.42	32294.71
510.60	32463.23
510.77	32840.06
510.95	33116.24
511.12	32435.14
511.30	33130.28
511.47	33673.29
511.64	33469.66
511.82	33420.51
511.99	33404.13
512.17	33422.85
512.34	33399.44
512.51	33795.00
512.69	33684.99
512.86	33619.46
513.04	33710.74
513.21	33450.94
513.38	34178.84
513.56	33635.84
513.73	33729.46
513.90	33905.00
514.08	34263.10
514.25	34204.59
514.43	34232.68
514.60	34101.61
514.77	34061.82
514.95	34405.88
515.12	34579.07
515.29	34448.00
515.47	35051.86
515.64	34986.33
515.81	34668.02
515.99	34878.66
516.16	35019.10
516.33	34637.59
516.51	34967.60
516.68	33818.40
516.85	34141.39
517.03	34242.04
517.20	35309.32
517.37	35318.68
517.54	35655.72
517.72	35351.45
517.89	34660.99
518.06	34878.66
518.24	35199.32
518.41	35012.07
518.58	35449.75
518.75	35531.67
518.93	36018.50
519.10	36016.16
519.27	36177.66
519.45	35878.07
519.62	36524.06
519.79	36350.86
519.96	36135.53
520.14	36575.55
520.31	36432.78
520.48	36184.68
520.65	36397.67
520.83	37050.68
521.00	36833.01
521.17	37015.57
521.34	36940.68
521.52	37120.90
521.69	37242.60
521.86	37205.16
522.03	37200.47
522.20	37497.72
522.38	37584.32
522.55	37591.34
522.72	37422.83
522.89	37525.81
523.07	37722.41
523.24	37771.57
523.41	38213.93
523.58	37965.83
523.75	38337.98
523.92	38185.84
524.10	38288.82
524.27	38576.71
524.44	38099.24
524.61	38253.72
524.78	38756.93
524.96	38752.25
525.13	38473.73
525.30	38763.95
525.47	39040.14
525.64	38724.16
525.81	38623.52
525.98	38576.71
526.16	38143.71
526.33	38101.58
526.50	38806.08
526.67	37916.68
526.84	38216.27
527.01	37820.72
527.18	39077.58
527.36	39304.62
527.53	39803.15
527.70	39480.16
527.87	39552.71
528.04	39512.92
528.21	39248.44
528.38	39641.65
528.55	39679.10
528.72	40252.53
528.89	40474.88
529.07	40142.53
529.24	39508.24
529.41	40086.36
529.58	39866.34
529.75	40119.12
529.92	40287.64
530.09	39737.62
530.26	39945.92
530.43	40608.29
530.60	40032.52
530.77	40245.51
530.94	40706.60
531.11	40741.71
531.28	40165.93
531.46	41036.61
531.63	40509.99
531.80	40517.01
531.97	40594.25
532.14	40781.49
532.31	40084.01
532.48	40327.43
532.65	40620.00
532.82	40376.58
532.99	40706.60
533.16	40828.30
533.33	41317.48
533.50	41071.72
533.67	40994.48
533.84	41008.53
534.01	41474.29
534.18	40912.56
534.35	41280.03
534.52	40933.63
534.69	40975.76
534.86	41565.57
535.03	41731.75
535.20	42066.45
535.37	42267.73
535.54	41883.89
535.71	41731.75
535.88	41808.99
536.05	41680.26
536.22	42043.04
536.38	41682.60
536.55	42141.35
536.72	41357.27
536.89	41235.56
537.06	41677.92
537.23	42185.82
537.40	42361.36
537.57	42260.71
537.74	41989.21
537.91	42534.56
538.08	42487.74
538.25	42419.87
538.42	42473.70
538.59	42609.45
538.75	41839.42
538.92	42663.28
539.09	42319.23
539.26	42574.34
539.43	42244.33
539.60	42342.63
539.77	42223.26
539.94	43054.15
540.11	42321.57
540.28	42471.36
540.44	42335.61
540.61	42195.18
540.78	42700.73
540.95	42572.00
541.12	42677.33
541.29	42738.18
541.46	42944.15
541.62	43070.54
541.79	42916.06
541.96	42593.07
542.13	42761.59
542.30	43042.45
542.47	42892.66
542.63	42862.23
542.80	43012.02
542.97	43377.15
543.14	43878.02
543.31	43784.40
543.48	43840.57
543.64	44158.89
543.81	43812.49
543.98	44229.10
544.15	43838.23
544.32	43950.58
544.48	44224.42
544.65	44065.27
544.82	44095.69
544.99	43433.32
545.16	43927.17
545.32	43833.55
545.49	44240.81
545.66	44444.43
545.83	44168.25
546.00	44093.35
546.16	44334.43
546.33	44067.61
546.50	43948.24
546.67	44327.41
546.83	44016.11
547.00	44357.83
547.17	44774.45
547.34	43962.28
547.50	44168.25
547.67	44701.89
547.84	44608.27
548.00	44692.53
548.17	44755.72
548.34	44818.92
548.51	45062.33
548.67	44793.17
548.84	44982.76
549.01	44903.18
549.18	44442.09
549.34	44863.39
549.51	44919.56
549.68	45216.81
549.84	45020.20
550.01	45357.24
550.18	44898.50
550.34	44999.14
550.51	44964.03
550.68	44666.78
550.84	44575.50
551.01	45441.50
551.18	45237.87
551.34	45048.29
551.51	45172.34
551.68	45319.79
551.84	45113.83
552.01	45242.56
552.18	45170.00
552.34	44907.86
552.51	45244.90
552.68	45469.59
552.84	45041.27
553.01	45331.50
553.18	45022.54
553.34	45469.59
553.51	45385.33
553.67	45790.24
553.84	45661.51
554.01	45804.28
554.17	45581.93
554.34	45949.40
554.51	45993.87
554.67	45911.95
554.84	45797.26
555.00	45394.69
555.17	45684.92
555.33	45778.54
555.50	45897.91
555.67	45860.46
555.83	45930.67
556.00	45801.94
556.16	46178.77
556.33	46080.47
556.50	45965.78
556.66	45918.97
556.83	45778.54
556.99	46209.20
557.16	46199.83
557.32	46117.92
557.49	46110.89
557.65	46115.58
557.82	45834.71
557.98	46017.27
558.15	45832.37
558.32	46080.47
558.48	45572.57
558.65	46106.21
558.81	45993.87
558.98	45827.69
559.14	45904.93
559.31	46553.26
559.47	46185.79
559.64	46106.21
559.80	46108.55
559.97	46169.41
560.13	46138.98
560.30	46155.36
560.46	45893.22
560.63	46436.23
560.79	46302.82
560.96	46983.91
561.12	46382.40
561.29	45715.34
561.45	46265.37
561.61	46232.60
561.78	46300.48
561.94	45989.19
562.11	45970.46
562.27	46148.34
562.44	46337.93
562.60	46433.89
562.77	46651.56
562.93	46417.50
563.10	46892.63
563.26	46185.79
563.42	46721.77
563.59	46241.96
563.75	46375.37
563.92	46864.55
564.08	46459.63
564.24	46974.55
564.41	46663.26
564.57	46590.70
564.74	46433.89
564.90	46174.09
565.07	46703.05
565.23	46546.23
565.39	46597.73
565.56	46569.64
565.72	46564.96
565.88	46438.57
566.05	46396.44
566.21	46497.08
566.38	46567.30
566.54	46457.29
566.70	46876.25
566.87	46724.11
567.03	46803.69
567.19	47009.66
567.36	46913.70
567.52	46939.44
567.68	46995.62
567.85	46653.90
568.01	47103.28
568.17	46796.67
568.34	46506.44
568.50	46717.09
568.66	46817.74
568.83	46628.15
568.99	46595.38
569.15	46270.05
569.32	46810.71
569.48	46239.62
569.64	47054.13
569.81	46710.07
569.97	46181.11
570.13	46916.04
570.30	46309.84
570.46	46356.65
570.62	46773.27
570.78	46298.14
570.95	46515.81
571.11	46951.15
571.27	46635.17
571.43	46777.95
571.60	46965.19
571.76	46726.46
571.92	47021.36
572.09	46911.36
572.25	47150.09
572.41	46927.74
572.57	47173.50
572.74	47512.88
572.90	46894.97
573.06	46976.89
573.22	46492.40
573.38	46986.25
573.55	47042.43
573.71	47206.26
573.87	46899.65
574.03	46724.11
574.20	46815.40
574.36	46541.55
574.52	46670.28
574.68	46990.94
574.84	47004.98
575.01	46866.89
575.17	46532.19
575.33	46738.16
575.49	46571.98
575.65	47306.91
575.82	47189.88
575.98	46972.21
576.14	46728.80
576.30	46614.11
576.46	46932.42
576.62	46920.72
576.79	46862.21
576.95	46412.82
577.11	47028.38
577.27	47164.14
577.43	46822.42
577.59	46649.22
577.75	46274.73
577.92	46471.34
578.08	46349.63
578.24	46518.15
578.40	46850.50
578.56	47065.83
578.72	47002.64
578.88	46937.10
579.04	47363.08
579.21	46632.83
579.37	46838.80
579.53	46717.09
579.69	46735.82
579.85	47007.32
580.01	47161.79
580.17	46904.34
580.33	47145.41
580.49	47456.70
580.65	47157.11
580.82	47452.02
580.98	46677.30
581.14	47124.35
581.30	47580.75
581.46	47203.92
581.62	46834.12
581.78	47082.22
581.94	47398.19
582.10	47487.13
582.26	47178.18
582.42	47283.50
582.58	46925.40
582.74	47042.43
582.90	47243.71
583.06	47302.23
583.22	47311.59
583.38	47524.58
583.54	47276.48
583.70	47030.72
583.86	46848.16
584.02	46887.95
584.18	47033.07
584.34	46927.74
584.50	46923.06
584.66	46801.35
584.82	47206.26
584.98	47494.15
585.14	46906.68
585.30	46681.98
585.46	47124.35
585.62	46555.60
585.78	46677.30
585.94	46469.00
586.10	47203.92
586.26	46483.04
586.42	47428.62
586.58	47065.83
586.74	46953.49
586.90	47103.28
587.06	47168.82
587.22	46990.94
587.38	46887.95
587.54	46993.28
587.70	47264.78
587.86	47161.79
588.02	46857.52
588.18	47192.22
588.34	46630.49
588.49	46658.58
588.65	46256.01
588.81	46424.53
588.97	46506.44
589.13	46461.97
589.29	46672.62
589.45	46841.14
589.61	46890.29
589.77	46707.73
