SpectraSuite Data File
++++++++++++++++++++++++++++++++++++
Date: Fri Oct 25 11:34:03 EDT 2013
User: price-jones
Dark Spectrum Present: No
Reference Spectrum Present: No
Number of Sampled Component Spectra: 1
Spectrometers: USB2+H05261
Integration Time (usec): 100000 (USB2+H05261)
Spectra Averaged: 1 (USB2+H05261)
Boxcar Smoothing: 0 (USB2+H05261)
Correct for Electrical Dark: No (USB2+H05261)
Strobe/Lamp Enabled: No (USB2+H05261)
Correct for Detector Non-linearity: No (USB2+H05261)
Correct for Stray Light: No (USB2+H05261)
Number of Pixels in Processed Spectrum: 2048
>>>>>Begin Processed Spectral Data<<<<<
365.73	308.95
365.92	308.95
366.12	308.95
366.32	180.22
366.52	159.16
366.72	182.56
366.91	220.01
367.11	189.58
367.31	217.67
367.51	208.31
367.70	180.22
367.90	182.56
368.10	203.63
368.30	222.35
368.49	187.24
368.69	222.35
368.89	187.24
369.09	212.99
369.28	222.35
369.48	203.63
369.68	194.26
369.87	269.16
370.07	210.65
370.27	227.03
370.47	332.36
370.66	484.49
370.86	535.98
371.06	517.26
371.25	496.19
371.45	472.79
371.65	580.45
371.84	587.47
372.04	587.47
372.24	489.17
372.44	587.47
372.63	608.54
372.83	676.41
373.03	660.03
373.22	592.16
373.42	653.01
373.62	674.07
373.81	706.84
374.01	664.71
374.21	564.07
374.40	613.22
374.60	681.10
374.79	636.63
374.99	671.73
375.19	660.03
375.38	650.67
375.58	578.11
375.78	781.74
375.97	751.31
376.17	709.18
376.37	667.05
376.56	617.90
376.76	681.10
376.95	699.82
377.15	669.39
377.35	638.97
377.54	758.33
377.74	629.60
377.93	699.82
378.13	676.41
378.33	732.59
378.52	711.52
378.72	713.86
378.91	730.25
379.11	732.59
379.31	699.82
379.50	669.39
379.70	697.48
379.89	730.25
380.09	777.06
380.28	699.82
380.48	699.82
380.68	667.05
380.87	720.88
381.07	713.86
381.26	718.54
381.46	744.29
381.65	753.65
381.85	788.76
382.04	791.10
382.24	753.65
382.43	723.23
382.63	807.48
382.83	781.74
383.02	798.12
383.22	816.85
383.41	763.01
383.61	816.85
383.80	840.25
384.00	884.72
384.19	781.74
384.39	868.34
384.58	779.40
384.78	828.55
384.97	826.21
385.17	746.63
385.36	863.66
385.56	830.89
385.75	809.83
385.95	814.51
386.14	854.30
386.34	875.36
386.53	823.87
386.72	945.58
386.92	880.04
387.11	882.38
387.31	823.87
387.50	837.91
387.70	908.13
387.89	922.17
388.09	882.38
388.28	882.38
388.48	858.98
388.67	971.32
388.86	910.47
389.06	854.30
389.25	917.49
389.45	966.64
389.64	999.41
389.84	1006.43
390.03	926.85
390.22	971.32
390.42	968.98
390.61	961.96
390.81	926.85
391.00	931.53
391.19	971.32
391.39	936.21
391.58	976.00
391.78	1015.79
391.97	1048.56
392.16	1046.22
392.36	1071.97
392.55	1004.09
392.75	940.90
392.94	1025.15
393.13	1034.52
393.33	1057.92
393.52	1078.99
393.71	1062.60
393.91	1074.31
394.10	1001.75
394.29	1050.90
394.49	1090.69
394.68	1107.07
394.88	1104.73
395.07	1153.88
395.26	1100.05
395.46	1151.54
395.65	1205.38
395.84	1158.57
396.04	1184.31
396.23	1165.59
396.42	1179.63
396.62	1128.14
396.81	1245.16
397.00	1212.40
397.19	1238.14
397.39	1118.78
397.58	1233.46
397.77	1200.69
397.97	1203.04
398.16	1221.76
398.35	1261.55
398.55	1291.98
398.74	1369.21
398.93	1362.19
399.12	1221.76
399.32	1303.68
399.51	1275.59
399.70	1362.19
399.90	1327.08
400.09	1364.53
400.28	1376.24
400.47	1329.42
400.67	1451.13
400.86	1420.71
401.05	1397.30
401.24	1327.08
401.44	1423.05
401.63	1493.26
401.82	1378.58
402.01	1427.73
402.21	1469.86
402.40	1446.45
402.59	1444.11
402.78	1451.13
402.97	1465.18
403.17	1537.73
403.36	1479.22
403.55	1521.35
403.74	1490.92
403.93	1540.07
404.13	1554.12
404.32	1465.18
404.51	1519.01
404.70	1617.31
404.89	1659.44
405.09	1666.46
405.28	1736.68
405.47	1584.54
405.66	1661.78
405.85	1696.89
406.05	1600.93
406.24	1757.74
406.43	1715.61
406.62	1746.04
406.81	1811.57
407.00	1746.04
407.20	1809.23
407.39	1795.19
407.58	1790.51
407.77	1832.64
407.96	1818.60
408.15	1778.81
408.34	1832.64
408.54	1743.70
408.73	1933.28
408.92	1902.86
409.11	1860.73
409.30	1879.45
409.49	1891.15
409.68	1954.35
409.87	1937.96
410.07	1973.07
410.26	1973.07
410.45	1930.94
410.64	2052.65
410.83	2036.27
411.02	2090.10
411.21	2047.97
411.40	2129.89
411.59	2111.16
411.78	2118.18
411.98	2090.10
412.17	2202.44
412.36	2120.53
412.55	2242.23
412.74	2331.17
412.93	2345.22
413.12	2235.21
413.31	2410.75
413.50	2319.47
413.69	2256.28
413.88	2448.20
414.07	2427.14
414.26	2506.71
414.45	2530.12
414.64	2483.31
414.83	2431.82
415.02	2539.48
415.22	2593.31
415.41	2703.32
415.60	2558.21
415.79	2663.53
415.98	2736.09
416.17	2600.34
416.36	2649.49
416.55	2752.47
416.74	2808.64
416.93	2853.11
417.12	2698.64
417.31	2759.49
417.50	2881.20
417.69	2878.86
417.88	2867.16
418.07	2843.75
418.26	2920.99
418.45	2885.88
418.64	3094.19
418.83	2930.35
419.02	3000.57
419.21	3038.02
419.39	2972.48
419.58	3028.65
419.77	3028.65
419.96	3145.68
420.15	2984.18
420.34	3143.34
420.53	3253.34
420.72	3253.34
420.91	3232.28
421.10	3318.88
421.29	3080.14
421.48	3091.85
421.67	3173.77
421.86	3239.30
422.05	3283.77
422.24	3274.41
422.43	3262.71
422.61	3204.19
422.80	3290.79
422.99	3255.69
423.18	3417.18
423.37	3321.22
423.56	3290.79
423.75	3405.48
423.94	3204.19
424.13	3098.87
424.32	3279.09
424.50	3368.03
424.69	3361.01
424.88	3426.54
425.07	3243.98
425.26	3304.84
425.45	3281.43
425.64	3372.71
425.83	3478.04
426.01	3480.38
426.20	3346.97
426.39	3428.88
426.58	3307.18
426.77	3379.73
426.96	3454.63
427.15	3471.01
427.33	3480.38
427.52	3557.61
427.71	3602.08
427.90	3566.98
428.09	3595.06
428.28	3548.25
428.46	3552.93
428.65	3543.57
428.84	3789.33
429.03	3829.12
429.22	3669.96
429.40	3627.83
429.59	3609.11
429.78	3492.08
429.97	3515.48
430.16	3772.94
430.34	3669.96
430.53	3819.75
430.72	3810.39
430.91	3882.95
431.10	3728.47
431.28	3892.31
431.47	3936.78
431.66	4030.40
431.85	3969.55
432.03	3976.57
432.22	4077.21
432.41	4091.26
432.60	4032.74
432.79	3822.09
432.97	3946.14
433.16	3946.14
433.35	4187.22
433.54	4058.49
433.72	4177.86
433.91	4081.89
434.10	4166.15
434.28	4046.79
434.47	4133.39
434.66	4102.96
434.85	4180.20
435.03	4187.22
435.22	4236.37
435.41	4367.44
435.59	4304.25
435.78	4290.20
435.97	4297.22
436.16	4236.37
436.34	4365.10
436.53	4430.63
436.72	4456.38
436.90	4325.31
437.09	4503.19
437.28	4341.69
437.46	4528.94
437.65	4479.79
437.84	4505.53
438.02	4545.32
438.21	4486.81
438.40	4390.84
438.58	4730.22
438.77	4755.97
438.96	4645.96
439.14	4922.15
439.33	4739.58
439.52	4835.55
439.70	4840.23
439.89	4910.44
440.08	4896.40
440.26	5022.79
440.45	4908.10
440.63	5015.77
440.82	5184.29
441.01	5097.69
441.19	5144.50
441.38	5153.86
441.57	5158.54
441.75	5167.90
441.94	5289.61
442.12	5320.04
442.31	5322.38
442.50	5355.15
442.68	5446.43
442.87	5362.17
443.05	5451.11
443.24	5455.79
443.43	5369.19
443.61	5413.66
443.80	5610.26
443.98	5338.76
444.17	5242.80
444.35	5640.69
444.54	5568.13
444.73	5497.92
444.91	5612.60
445.10	5668.78
445.28	5647.71
445.47	5448.77
445.65	5605.58
445.84	5542.39
446.02	5640.69
446.21	5582.18
446.39	5671.12
446.58	5671.12
446.77	5645.37
446.95	5509.62
447.14	5502.60
447.32	5640.69
447.51	5439.40
447.69	5563.45
447.88	5593.88
448.06	5643.03
448.25	5645.37
448.43	5675.80
448.62	5570.48
448.80	5668.78
448.99	5891.13
449.17	5935.60
449.36	5806.87
449.54	5872.40
449.73	5795.17
449.91	5921.56
450.10	5987.09
450.28	6057.31
450.46	6052.63
450.65	6057.31
450.83	5888.79
451.02	6047.94
451.20	6171.99
451.39	5888.79
451.57	6064.33
451.76	6069.01
451.94	6036.24
452.13	6150.93
452.31	6183.70
452.49	6333.49
452.68	6237.53
452.86	6183.70
453.05	6176.67
453.23	6242.21
453.42	6267.95
453.60	6183.70
453.78	6483.28
453.97	6202.42
454.15	6256.25
454.34	6237.53
454.52	6539.46
454.70	6443.49
454.89	6361.58
455.07	6511.37
455.26	6462.22
455.44	6518.39
455.62	6644.78
455.81	6677.55
455.99	6539.46
456.17	6686.91
456.36	6637.76
456.54	6738.40
456.73	7014.59
456.91	6923.30
457.09	6806.28
457.28	6993.52
457.46	6750.10
457.64	7019.27
457.83	6923.30
458.01	6913.94
458.19	6965.43
458.38	6803.94
458.56	6951.39
458.74	6981.82
458.93	7068.42
459.11	7000.54
459.29	6909.26
459.48	7218.21
459.66	7143.32
459.84	7143.32
460.03	7286.09
460.21	7353.96
460.39	7236.94
460.57	7346.94
460.76	7382.05
460.94	7272.04
461.12	7328.22
461.31	7318.86
461.49	7295.45
461.67	7351.62
461.85	7588.02
462.04	7592.70
462.22	7838.45
462.40	7529.50
462.59	7482.69
462.77	7569.29
462.95	7571.63
463.13	7698.02
463.32	7559.93
463.50	7503.76
463.68	7700.36
463.86	7810.37
464.05	7648.87
464.23	7805.69
464.41	7770.58
464.59	7793.98
464.78	7798.66
464.96	7751.85
465.14	7803.35
465.32	8009.31
465.50	7985.91
465.69	8077.19
465.87	7889.95
466.05	8023.36
466.23	8070.17
466.41	7786.96
466.60	8070.17
466.78	7929.74
466.96	7929.74
467.14	8163.79
467.32	8070.17
467.51	8250.39
467.69	8074.85
467.87	8039.74
468.05	8175.49
468.23	8009.31
468.41	8114.64
468.60	8287.84
468.78	8301.88
468.96	8018.68
469.14	8355.71
469.32	8580.40
469.50	8271.45
469.69	8468.06
469.87	8512.53
470.05	8608.49
470.23	8793.39
470.41	8365.07
470.59	8627.21
470.77	8531.25
470.95	8528.91
471.14	8905.74
471.32	8496.14
471.50	8650.62
471.68	8875.31
471.86	8772.33
472.04	9081.28
472.22	9338.74
472.40	8924.46
472.58	8980.64
472.77	9308.31
472.95	9233.41
473.13	9490.87
473.31	9006.38
473.49	9210.01
473.67	9305.97
473.85	9399.59
474.03	9514.28
474.21	9554.07
474.39	9521.30
474.57	9645.35
474.75	9652.37
474.93	9818.55
475.12	9694.50
475.30	9811.53
475.48	9767.06
475.66	9891.10
475.84	9778.76
476.02	9947.28
476.20	9888.76
476.38	10429.43
476.56	10186.01
476.74	10340.49
476.92	10391.98
477.10	10125.16
477.28	10406.02
477.46	10394.32
477.64	10611.99
477.82	10574.54
478.00	11021.58
478.18	10764.12
478.36	10918.60
478.54	11248.61
478.72	11122.23
478.90	11269.68
479.08	11335.21
479.26	11604.38
479.44	11414.79
479.62	11461.60
479.80	11477.99
479.98	11707.36
480.16	11981.20
480.34	11845.45
480.52	11747.15
480.70	12304.20
480.88	11723.74
481.06	12086.53
481.24	12386.12
481.41	12372.07
481.59	12386.12
481.77	12718.47
481.95	12451.65
482.13	12842.52
482.31	12636.55
482.49	12861.24
482.67	12755.92
482.85	13231.05
483.03	13125.72
483.21	13390.20
483.39	13359.78
483.57	13373.82
483.74	13514.25
483.92	13830.23
484.10	13626.60
484.28	14111.09
484.46	14094.71
484.64	14108.75
484.82	14331.10
485.00	14314.72
485.18	14787.50
485.35	14902.19
485.53	14778.14
485.71	14824.95
485.89	14951.34
486.07	15082.41
486.25	15264.97
486.43	15473.28
486.61	15496.69
486.78	15538.82
486.96	15616.05
487.14	15819.68
487.32	15976.50
487.50	16079.48
487.68	15744.78
487.85	16374.39
488.03	16292.47
488.21	16610.78
488.39	16613.12
488.57	16683.34
488.75	16910.37
488.92	16975.91
489.10	17135.06
489.28	17195.92
489.46	17226.34
489.64	17420.61
489.81	17565.72
489.99	17869.99
490.17	17764.67
490.35	17975.31
490.53	18106.38
490.70	18331.08
490.88	18253.84
491.06	18438.74
491.24	18586.19
491.41	18635.35
491.59	18541.72
491.77	18836.63
491.95	19030.90
492.13	19274.31
492.30	18869.40
492.48	19190.05
492.66	19257.93
492.84	19487.30
493.01	19896.89
493.19	19625.39
493.37	19924.98
493.54	20161.37
493.72	19999.88
493.90	20180.10
494.08	20442.24
494.25	20416.49
494.43	20453.94
494.61	20793.32
494.79	20739.49
494.96	20648.21
495.14	20835.45
495.32	21209.93
495.49	21528.25
495.67	21221.64
495.85	21355.05
496.02	21399.52
496.20	21898.05
496.38	22057.21
496.55	22122.74
496.73	22689.15
496.91	22515.95
497.09	22663.41
497.26	22487.87
497.44	22651.70
497.62	22789.80
497.79	22684.47
497.97	23028.53
498.14	23005.13
498.32	23353.87
498.50	23021.51
498.67	23676.86
498.85	23393.65
499.03	23281.31
499.20	23534.09
499.38	23892.19
499.56	23765.80
499.73	24037.30
499.91	24217.52
500.08	24208.16
500.26	24135.60
500.44	24098.16
500.61	24102.84
500.79	24362.64
500.97	24379.02
501.14	24702.01
501.32	25305.87
501.49	25006.28
501.67	24673.93
501.84	25022.67
502.02	25193.53
502.20	24971.18
502.37	25172.46
502.55	25029.69
502.72	25450.99
502.90	25221.61
503.07	25298.85
503.25	25551.63
503.43	25460.35
503.60	25933.14
503.78	26043.14
503.95	25708.44
504.13	25979.95
504.30	26410.60
504.48	25886.32
504.65	26429.33
504.83	26504.23
505.01	26249.11
505.18	26789.77
505.36	26684.45
505.53	26906.80
505.71	26838.92
505.88	26995.74
506.06	26644.66
506.23	27112.77
506.41	26972.33
506.58	27119.79
506.76	26977.01
506.93	27775.14
507.11	27728.33
507.28	27360.86
507.46	27697.90
507.63	27304.69
507.81	27953.02
507.98	27957.70
508.16	27857.06
508.33	27807.90
508.50	27892.16
508.68	28252.61
508.85	28538.15
509.03	28409.42
509.20	28371.97
509.38	28790.93
509.55	28685.61
509.73	29083.50
509.90	28587.30
510.08	29127.97
510.25	28959.45
510.42	28870.51
510.60	28697.31
510.77	29472.03
510.95	29434.58
511.12	29230.95
511.30	29500.11
511.47	29457.98
511.64	29453.30
511.82	29703.74
511.99	29951.84
512.17	29663.95
512.34	29776.30
512.51	29968.22
512.69	30335.68
512.86	30197.59
513.04	29937.79
513.21	30134.40
513.38	30209.29
513.56	30733.57
513.73	30384.83
513.90	30859.96
514.08	30532.29
514.25	30845.92
514.43	31044.87
514.60	30782.73
514.77	31101.04
514.95	31021.46
515.12	31082.31
515.29	31302.32
515.47	31180.62
515.64	31468.50
515.81	31178.28
515.99	31527.02
516.16	31899.16
516.33	31688.51
516.51	32156.62
516.68	31587.87
516.85	31484.89
517.03	31728.30
517.20	31821.92
517.37	31892.14
517.54	31920.23
517.72	32322.80
517.89	32313.44
518.06	32580.26
518.24	32421.10
518.41	32313.44
518.58	32336.84
518.75	32173.00
518.93	32187.05
519.10	32739.41
519.27	32624.73
519.45	32751.12
519.62	33289.44
519.79	33097.52
519.96	33006.23
520.14	33226.24
520.31	33053.05
520.48	32978.15
520.65	33205.18
520.83	33663.93
521.00	33577.33
521.17	33525.83
521.34	33343.27
521.52	33893.30
521.69	34080.54
521.86	33783.29
522.03	34199.91
522.20	33979.90
522.38	34513.54
522.55	34312.25
522.72	33919.04
522.89	34506.52
523.07	34721.85
523.24	34483.11
523.41	34536.94
523.58	34333.32
523.75	34550.99
523.92	34581.42
524.10	34656.31
524.27	34799.08
524.44	34632.91
524.61	35138.46
524.78	34981.65
524.96	34988.67
525.13	35295.28
525.30	35559.76
525.47	35550.40
525.64	35290.60
525.81	35447.41
525.98	35505.93
526.16	35606.57
526.33	35585.50
526.50	36074.68
526.67	35892.12
526.84	35683.81
527.01	35969.35
527.18	35929.56
527.36	35871.05
527.53	36144.89
527.70	36048.93
527.87	36215.11
528.04	36154.26
528.21	36259.58
528.38	36428.10
528.55	36093.40
528.72	36222.13
528.89	36484.27
529.07	36135.53
529.24	36671.51
529.41	36790.88
529.58	36683.22
529.75	36687.90
529.92	37060.04
530.09	37067.06
530.26	36603.64
530.43	36872.80
530.60	37060.04
530.77	37031.96
530.94	37090.47
531.11	37031.96
531.28	37191.11
531.46	37397.08
531.63	37336.23
531.80	37439.21
531.97	37607.73
532.14	37467.30
532.31	37495.38
532.48	37670.92
532.65	37860.51
532.82	37862.85
532.99	38211.59
533.16	37457.93
533.33	37801.99
533.50	38007.96
533.67	37832.42
533.84	37837.10
534.01	38094.56
534.18	38024.34
534.35	38569.69
534.52	38312.23
534.69	38873.96
534.86	38508.83
535.03	38520.54
535.20	38466.70
535.37	38483.09
535.54	38731.18
535.71	38628.20
535.88	38679.69
536.05	38614.16
536.22	39150.14
536.38	38848.21
536.55	38789.70
536.72	38960.56
536.89	38822.47
537.06	39283.55
537.23	39323.34
537.40	38639.90
537.57	38969.92
537.74	38808.42
537.91	39510.58
538.08	39346.75
538.25	39243.76
538.42	39342.06
538.59	40009.12
538.75	39566.76
538.92	39648.68
539.09	39625.27
539.26	39393.56
539.43	39686.12
539.60	39887.41
539.77	39756.34
539.94	39845.28
540.11	40086.36
540.28	39606.55
540.44	39571.44
540.61	39927.20
540.78	40093.38
540.95	39730.59
541.12	39995.07
541.29	39461.43
541.46	40334.45
541.62	40142.53
541.79	40683.19
541.96	40051.25
542.13	40175.30
542.30	40072.31
542.47	40573.19
542.63	40591.91
542.80	40692.55
542.97	40788.52
543.14	41050.66
543.31	40603.61
543.48	40786.18
543.64	41331.52
543.81	41057.68
543.98	40910.22
544.15	40982.78
544.32	41455.57
544.48	41684.94
544.65	41390.03
544.82	41579.62
544.99	41200.45
545.16	41366.63
545.32	41216.83
545.49	41631.11
545.66	41918.99
545.83	41682.60
546.00	41759.84
546.16	41879.21
546.33	41949.42
546.50	41778.56
546.67	41794.95
546.83	41570.25
547.00	41837.08
547.17	41642.81
547.34	41359.61
547.50	41904.95
547.67	42110.92
547.84	42129.64
548.00	41860.48
548.17	42480.72
548.34	41958.78
548.51	42604.77
548.67	42440.93
548.84	42171.77
549.01	42403.49
549.18	42010.28
549.34	42733.50
549.51	42424.55
549.68	42581.37
549.84	42139.00
550.01	43019.05
550.18	42380.08
550.34	42663.28
550.51	42698.39
550.68	42932.45
550.84	42209.22
551.01	42504.13
551.18	42754.57
551.34	43072.88
551.51	42899.68
551.68	42972.24
551.84	43079.90
552.01	42724.14
552.18	42845.85
552.34	43412.26
552.51	43150.12
552.68	42773.29
552.84	43636.95
553.01	43484.81
553.18	42782.65
553.34	43173.52
553.51	42906.70
553.67	43299.91
553.84	43459.07
554.01	43746.95
554.17	43863.98
554.34	43564.39
554.51	43611.20
554.67	43655.67
554.84	43861.64
555.00	43997.39
555.17	43873.34
555.33	44201.02
555.50	43388.85
555.67	43697.80
555.83	43562.05
556.00	43985.69
556.16	44463.16
556.33	43887.39
556.50	44329.75
556.66	44318.04
556.83	43438.00
556.99	44631.68
557.16	44257.19
557.32	44194.00
557.49	44399.96
557.65	44032.50
557.82	44313.36
557.98	44004.41
558.15	44421.03
558.32	44629.34
558.48	44156.55
558.65	43885.04
558.81	44519.33
558.98	44039.52
559.14	44215.06
559.31	44638.70
559.47	44484.22
559.64	44589.55
559.80	44451.45
559.97	44748.70
560.13	44472.52
560.30	44502.95
560.46	44435.07
560.63	45200.43
560.79	44624.65
560.96	45186.38
561.12	44919.56
561.29	44896.16
561.45	45085.74
561.61	45233.19
561.78	44732.32
561.94	44903.18
562.11	44582.52
562.27	45102.12
562.44	44512.31
562.60	45155.96
562.77	44966.37
562.93	45139.57
563.10	45488.31
563.26	44980.42
563.42	45078.72
563.59	44744.02
563.75	44779.13
563.92	45212.13
564.08	45024.89
564.24	45301.07
564.41	44926.58
564.57	45287.03
564.74	45399.37
564.90	44732.32
565.07	45165.32
565.23	45092.76
565.39	45212.13
565.56	45684.92
565.72	45193.40
565.88	45542.14
566.05	45280.00
566.21	45305.75
566.38	44912.54
566.54	45216.81
566.70	45886.20
566.87	45762.15
567.03	44999.14
567.19	45488.31
567.36	45633.42
567.52	45642.79
567.68	45729.39
567.85	45310.43
568.01	45471.93
568.17	45167.66
568.34	45687.26
568.50	45418.10
568.66	45272.98
568.83	45949.40
568.99	46047.70
569.15	45404.05
569.32	45710.66
569.48	45705.98
569.64	45663.85
569.81	45631.08
569.97	46019.61
570.13	45965.78
570.30	45198.09
570.46	46005.57
570.62	45890.88
570.78	45666.19
570.95	45748.11
571.11	45808.96
571.27	45860.46
571.43	45710.66
571.60	45874.50
571.76	45701.30
571.92	45752.79
572.09	46103.87
572.25	45787.90
572.41	45399.37
572.57	45956.42
572.74	46085.15
572.90	46206.86
573.06	46078.13
573.22	45514.06
573.38	46312.18
573.55	46220.90
573.71	46459.63
573.87	46480.70
574.03	45914.29
574.20	46525.17
574.36	45937.69
574.52	46342.61
574.68	46101.53
574.84	46667.94
575.01	46216.22
575.17	46274.73
575.33	46073.45
575.49	46010.25
575.65	46408.14
575.82	46150.68
575.98	46485.38
576.14	46410.48
576.30	46344.95
576.46	46377.72
576.62	45930.67
576.79	46387.08
576.95	46195.15
577.11	45691.94
577.27	46106.21
577.43	46188.13
577.59	45986.85
577.75	45968.12
577.92	46078.13
578.08	45970.46
578.24	46511.13
578.40	46089.83
578.56	46131.96
578.72	46223.24
578.88	45909.61
579.04	46471.34
579.21	46050.04
579.37	46485.38
579.53	46478.36
579.69	46110.89
579.85	46305.16
580.01	46230.26
580.17	46408.14
580.33	46113.23
580.49	46405.80
580.65	46085.15
580.82	46309.84
580.98	45993.87
581.14	46272.39
581.30	46043.02
581.46	46185.79
581.62	46293.46
581.78	46366.01
581.94	46019.61
582.10	46270.05
582.26	46567.30
582.42	46553.26
582.58	46560.28
582.74	46576.66
582.90	46281.75
583.06	46593.04
583.22	46436.23
583.38	46483.04
583.54	46511.13
583.70	46735.82
583.86	46705.39
584.02	46358.99
584.18	46745.18
584.34	46539.21
584.50	46667.94
584.66	46518.15
584.82	46782.63
584.98	46710.07
585.14	46710.07
585.30	46710.07
585.46	46227.92
585.62	46391.76
585.78	46911.36
585.94	46354.31
586.10	46237.28
586.26	46412.82
586.42	46192.81
586.58	46698.37
586.74	46464.32
586.90	46464.32
587.06	46560.28
587.22	46363.67
587.38	46321.54
587.54	46801.35
587.70	46820.08
587.86	46880.93
588.02	46529.85
588.18	46260.69
588.34	46529.85
588.49	46335.59
588.65	46419.84
588.81	46454.95
588.97	46925.40
589.13	46550.91
589.29	46958.17
589.45	46869.23
589.61	46539.21
589.77	46649.22
589.93	47150.09
590.08	46672.62
