SpectraSuite Data File
++++++++++++++++++++++++++++++++++++
Date: Fri Oct 25 11:34:19 EDT 2013
User: price-jones
Dark Spectrum Present: No
Reference Spectrum Present: No
Number of Sampled Component Spectra: 1
Spectrometers: USB2+H05261
Integration Time (usec): 100000 (USB2+H05261)
Spectra Averaged: 1 (USB2+H05261)
Boxcar Smoothing: 0 (USB2+H05261)
Correct for Electrical Dark: No (USB2+H05261)
Strobe/Lamp Enabled: No (USB2+H05261)
Correct for Detector Non-linearity: No (USB2+H05261)
Correct for Stray Light: No (USB2+H05261)
Number of Pixels in Processed Spectrum: 2048
>>>>>Begin Processed Spectral Data<<<<<
365.73	297.25
365.92	297.25
366.12	297.25
366.32	245.76
366.52	227.03
366.72	147.45
366.91	135.75
367.11	231.71
367.31	184.90
367.51	191.92
367.70	156.82
367.90	177.88
368.10	156.82
368.30	161.50
368.49	154.48
368.69	278.52
368.89	231.71
369.09	248.10
369.28	184.90
369.48	271.50
369.68	250.44
369.87	173.20
370.07	215.33
370.27	220.01
370.47	367.46
370.66	433.00
370.86	566.41
371.06	484.49
371.25	585.13
371.45	533.64
371.65	486.83
371.84	521.94
372.04	573.43
372.24	608.54
372.44	582.79
372.63	613.22
372.83	582.79
373.03	594.50
373.22	557.05
373.42	596.84
373.62	638.97
373.81	528.96
374.01	657.69
374.21	669.39
374.40	603.86
374.60	587.47
374.79	620.24
374.99	695.14
375.19	620.24
375.38	638.97
375.58	692.80
375.78	667.05
375.97	636.63
376.17	763.01
376.37	760.67
376.56	634.29
376.76	615.56
376.95	688.12
377.15	608.54
377.35	716.20
377.54	692.80
377.74	624.92
377.93	603.86
378.13	718.54
378.33	737.27
378.52	720.88
378.72	770.04
378.91	711.52
379.11	737.27
379.31	746.63
379.50	755.99
379.70	678.76
379.89	720.88
380.09	805.14
380.28	706.84
380.48	765.36
380.68	720.88
380.87	765.36
381.07	702.16
381.26	763.01
381.46	676.41
381.65	709.18
381.85	737.27
382.04	727.91
382.24	767.70
382.43	833.23
382.63	788.76
382.83	779.40
383.02	741.95
383.22	770.04
383.41	671.73
383.61	763.01
383.80	847.27
384.00	807.48
384.19	835.57
384.39	746.63
384.58	819.19
384.78	763.01
384.97	791.10
385.17	880.04
385.36	880.04
385.56	807.48
385.75	737.27
385.95	819.19
386.14	842.59
386.34	858.98
386.53	837.91
386.72	821.53
386.92	903.45
387.11	924.51
387.31	833.23
387.50	870.68
387.70	901.11
387.89	800.46
388.09	870.68
388.28	866.00
388.48	868.34
388.67	926.85
388.86	898.77
389.06	917.49
389.25	877.70
389.45	999.41
389.64	908.13
389.84	978.34
390.03	943.24
390.22	999.41
390.42	901.11
390.61	858.98
390.81	931.53
391.00	933.87
391.19	959.62
391.39	978.34
391.58	1011.11
391.78	987.71
391.97	945.58
392.16	1039.20
392.36	1074.31
392.55	1013.45
392.75	1025.15
392.94	1043.88
393.13	971.32
393.33	971.32
393.52	1102.39
393.71	1165.59
393.91	1053.24
394.10	1069.62
394.29	1015.79
394.49	1039.20
394.68	1118.78
394.88	1064.94
395.07	1153.88
395.26	1064.94
395.46	1107.07
395.65	1118.78
395.84	1109.41
396.04	1221.76
396.23	1111.75
396.42	1158.57
396.62	1128.14
396.81	1184.31
397.00	1179.63
397.19	1174.95
397.39	1210.06
397.58	1249.85
397.77	1174.95
397.97	1205.38
398.16	1327.08
398.35	1289.64
398.55	1219.42
398.74	1214.74
398.93	1315.38
399.12	1280.27
399.32	1270.91
399.51	1219.42
399.70	1392.62
399.90	1289.64
400.09	1256.87
400.28	1392.62
400.47	1371.55
400.67	1420.71
400.86	1357.51
401.05	1378.58
401.24	1378.58
401.44	1444.11
401.63	1420.71
401.82	1451.13
402.01	1425.39
402.21	1432.41
402.40	1465.18
402.59	1448.79
402.78	1483.90
402.97	1474.54
403.17	1563.48
403.36	1469.86
403.55	1451.13
403.74	1598.59
403.93	1540.07
404.13	1603.27
404.32	1554.12
404.51	1619.65
404.70	1549.43
404.89	1535.39
405.09	1645.40
405.28	1614.97
405.47	1724.97
405.66	1593.90
405.85	1675.82
406.05	1643.06
406.24	1657.10
406.43	1647.74
406.62	1701.57
406.81	1813.92
407.00	1717.95
407.20	1701.57
407.39	1619.65
407.58	1755.40
407.77	1762.42
407.96	1856.04
408.15	1846.68
408.34	1788.17
408.54	1830.30
408.73	1937.96
408.92	1834.98
409.11	1933.28
409.30	1853.70
409.49	1909.88
409.68	1902.86
409.87	1891.15
410.07	1914.56
410.26	2026.90
410.45	1970.73
410.64	2101.80
410.83	2022.22
411.02	2045.63
411.21	2038.61
411.40	1996.48
411.59	2153.29
411.78	2108.82
411.98	2146.27
412.17	2160.31
412.36	2165.00
412.55	2200.10
412.74	2228.19
412.93	2232.87
413.12	2389.69
413.31	2462.24
413.50	2380.32
413.69	2333.51
413.88	2464.58
414.07	2476.29
414.26	2476.29
414.45	2562.89
414.64	2403.73
414.83	2445.86
415.02	2497.35
415.22	2537.14
415.41	2602.68
415.60	2558.21
415.79	2633.10
415.98	2544.16
416.17	2654.17
416.36	2586.29
416.55	2579.27
416.74	2654.17
416.93	2745.45
417.12	2733.75
417.31	2796.94
417.50	2860.13
417.69	2794.60
417.88	2869.50
418.07	2827.37
418.26	2832.05
418.45	2974.82
418.64	2986.52
418.83	2876.52
419.02	2951.42
419.21	3035.67
419.39	3040.36
419.58	3014.61
419.77	2944.39
419.96	3005.25
420.15	3040.36
420.34	3110.57
420.53	3241.64
420.72	3232.28
420.91	3070.78
421.10	3222.92
421.29	3234.62
421.48	3122.27
421.67	3232.28
421.86	3218.24
422.05	3222.92
422.24	3243.98
422.43	3251.00
422.61	3243.98
422.80	3225.26
422.99	3171.43
423.18	3379.73
423.37	3279.09
423.56	3309.52
423.75	3258.03
423.94	3194.83
424.13	3073.12
424.32	3215.90
424.50	3400.80
424.69	3445.27
424.88	3417.18
425.07	3286.11
425.26	3283.77
425.45	3279.09
425.64	3302.50
425.83	3407.82
426.01	3403.14
426.20	3386.76
426.39	3332.92
426.58	3246.32
426.77	3197.17
426.96	3412.50
427.15	3503.78
427.33	3550.59
427.52	3339.94
427.71	3485.06
427.90	3559.95
428.09	3623.15
428.28	3527.19
428.46	3595.06
428.65	3604.42
428.84	3637.19
429.03	3726.13
429.22	3499.10
429.40	3590.38
429.59	3662.94
429.78	3545.91
429.97	3611.45
430.16	3681.66
430.34	3606.77
430.53	3803.37
430.72	3644.21
430.91	3805.71
431.10	3733.15
431.28	3784.65
431.47	3892.31
431.66	3885.29
431.85	3826.78
432.03	3960.19
432.22	3943.80
432.41	3906.35
432.60	3894.65
432.79	3915.72
432.97	3974.23
433.16	3941.46
433.35	3950.82
433.54	4058.49
433.72	3960.19
433.91	4105.30
434.10	4091.26
434.28	4166.15
434.47	4189.56
434.66	4053.81
434.85	4098.28
435.03	4292.54
435.22	4163.81
435.41	4348.72
435.59	4294.88
435.78	4159.13
435.97	4269.14
436.16	4276.16
436.34	4217.65
436.53	4210.62
436.72	4341.69
436.90	4227.01
437.09	4444.68
437.28	4404.89
437.46	4400.21
437.65	4404.89
437.84	4489.15
438.02	4545.32
438.21	4486.81
438.40	4404.89
438.58	4540.64
438.77	4545.32
438.96	4521.92
439.14	4685.75
439.33	4751.29
439.52	4732.56
439.70	4856.61
439.89	4858.95
440.08	4966.62
440.26	4791.08
440.45	4882.36
440.63	5011.09
440.82	5004.07
441.01	5011.09
441.19	5057.90
441.38	5006.41
441.57	5097.69
441.75	5104.71
441.94	5221.74
442.12	5167.90
442.31	5231.10
442.50	5226.42
442.68	5160.88
442.87	5275.57
443.05	5315.36
443.24	5371.53
443.43	5263.86
443.61	5277.91
443.80	5509.62
443.98	5217.05
444.17	5305.99
444.35	5434.72
444.54	5444.09
444.73	5376.21
444.91	5584.52
445.10	5680.48
445.28	5437.06
445.47	5465.15
445.65	5565.79
445.84	5572.82
446.02	5500.26
446.21	5434.72
446.39	5647.71
446.58	5467.49
446.77	5483.88
446.95	5518.98
447.14	5687.50
447.32	5507.28
447.51	5474.51
447.69	5540.05
447.88	5509.62
448.06	5626.65
448.25	5579.84
448.43	5771.76
448.62	5579.84
448.80	5612.60
448.99	5633.67
449.17	5844.32
449.36	5628.99
449.54	5738.99
449.73	5937.94
449.91	5935.60
450.10	5926.24
450.28	5877.09
450.46	5834.96
450.65	5926.24
450.83	5928.58
451.02	5949.64
451.20	5954.32
451.39	5996.45
451.57	6069.01
451.76	5811.55
451.94	6045.60
452.13	6148.59
452.31	6108.80
452.49	5834.96
452.68	6134.54
452.86	6209.44
453.05	6057.31
453.23	6129.86
453.42	6129.86
453.60	6026.88
453.78	6331.15
453.97	6059.65
454.15	6300.72
454.34	6258.59
454.52	6162.63
454.70	6282.00
454.89	6331.15
455.07	6399.02
455.26	6408.39
455.44	6455.20
455.62	6399.02
455.81	6544.14
455.99	6600.31
456.17	6483.28
456.36	6441.15
456.54	6724.36
456.73	6651.80
456.91	6696.27
457.09	6841.39
457.28	6909.26
457.46	6801.60
457.64	6820.32
457.83	6995.86
458.01	6693.93
458.19	6913.94
458.38	6991.18
458.56	6778.19
458.74	6951.39
458.93	6787.55
459.11	6942.03
459.29	7052.03
459.48	6829.68
459.66	6937.35
459.84	7143.32
460.03	7356.30
460.21	7047.35
460.39	7215.87
460.57	6984.16
460.76	7061.40
460.94	7232.26
461.12	7323.54
461.31	7300.13
461.49	7218.21
461.67	7272.04
461.85	7487.37
462.04	7386.73
462.22	7801.01
462.40	7555.25
462.59	7344.60
462.77	7466.31
462.95	7506.10
463.13	7581.00
463.32	7503.76
463.50	7691.00
463.68	7796.32
463.86	7569.29
464.05	7639.51
464.23	7733.13
464.41	7852.50
464.59	7489.71
464.78	7822.07
464.96	7751.85
465.14	7585.68
465.32	7744.83
465.50	7826.75
465.69	7941.44
465.87	7868.88
466.05	7976.55
466.23	7915.69
466.41	8009.31
466.60	8044.42
466.78	7854.84
466.96	7927.39
467.14	7969.52
467.32	8006.97
467.51	8116.98
467.69	7922.71
467.87	8067.83
468.05	8196.56
468.23	8079.53
468.41	7990.59
468.60	8273.79
468.78	8266.77
468.96	8196.56
469.14	8421.25
469.32	8301.88
469.50	8212.94
469.69	8245.71
469.87	8287.84
470.05	8645.94
470.23	8549.98
470.41	8557.00
470.59	8648.28
470.77	8734.88
470.95	8594.45
471.14	8716.16
471.32	8603.81
471.50	8613.17
471.68	8606.15
471.86	8636.58
472.04	8847.22
472.22	9036.81
472.40	8755.94
472.58	8835.52
472.77	8968.93
472.95	9022.77
473.13	9481.51
473.31	8997.02
473.49	9224.05
473.67	9022.77
473.85	9186.60
474.03	9369.16
474.21	9544.70
474.39	9495.55
474.57	9577.47
474.75	9610.24
474.93	9626.62
475.12	9497.89
475.30	9624.28
475.48	9699.18
475.66	9809.19
475.84	9401.93
476.02	9935.57
476.20	10022.17
476.38	10057.28
476.56	10176.65
476.74	10186.01
476.92	10113.45
477.10	10188.35
477.28	10260.91
477.46	10534.75
477.64	10382.62
477.82	10602.63
478.00	10878.81
478.18	10726.68
478.36	10909.24
478.54	10906.90
478.72	11084.78
478.90	11040.31
479.08	11103.50
479.26	11393.73
479.44	11410.11
479.62	11407.77
479.80	11459.26
479.98	11662.89
480.16	11754.17
480.34	11473.31
480.52	11772.89
480.70	11847.79
480.88	11698.00
481.06	11985.88
481.24	11899.28
481.41	12304.20
481.59	12243.34
481.77	12503.14
481.95	12297.17
482.13	12772.30
482.31	12472.71
482.49	12861.24
482.67	12922.10
482.85	13151.47
483.03	13233.39
483.21	13137.43
483.39	13238.07
483.57	13490.85
483.74	13362.12
483.92	13605.53
484.10	13448.72
484.28	13738.94
484.46	13989.38
484.64	14317.06
484.82	13734.26
485.00	14139.18
485.18	14389.61
485.35	14600.26
485.53	14466.85
485.71	14534.73
485.89	14944.32
486.07	14806.23
486.25	15211.14
486.43	15105.82
486.61	15077.73
486.78	15318.81
486.96	15255.61
487.14	15845.43
487.32	15566.90
487.50	15604.35
487.68	16011.60
487.85	16006.92
488.03	16308.85
488.21	16346.30
488.39	16463.33
488.57	16362.69
488.75	16613.12
488.92	16631.85
489.10	16851.86
489.28	16739.51
489.46	17205.28
489.64	17184.21
489.81	17631.26
489.99	17743.60
490.17	17722.54
490.35	17809.14
490.53	18429.38
490.70	18195.32
490.88	17844.24
491.06	18200.01
491.24	18050.21
491.41	18572.15
491.59	18410.65
491.77	18574.49
491.95	18705.56
492.13	19042.60
492.30	19063.66
492.48	18824.93
492.66	19178.35
492.84	19229.84
493.01	19754.12
493.19	19822.00
493.37	19878.17
493.54	19747.10
493.72	19920.30
493.90	19620.71
494.08	20278.40
494.25	20023.28
494.43	20322.87
494.61	20374.36
494.79	20407.13
494.96	20381.38
495.14	20755.87
495.32	20858.85
495.49	21193.55
495.67	21212.28
495.85	21128.02
496.02	21263.77
496.20	21685.06
496.38	21282.49
496.55	21612.51
496.73	22054.87
496.91	21539.95
497.09	21741.24
497.26	22431.69
497.44	21886.35
497.62	22043.17
497.79	22588.51
497.97	22429.35
498.14	22810.86
498.32	22984.06
498.50	22824.90
498.67	23215.77
498.85	22902.14
499.03	22977.04
499.20	23515.36
499.38	23199.39
499.56	23489.62
499.73	23655.79
499.91	23941.34
500.08	24004.53
500.26	23908.57
500.44	23885.17
500.61	24084.11
500.79	23892.19
500.97	24112.20
501.14	24542.86
501.32	24430.51
501.49	24456.26
501.67	24547.54
501.84	24840.11
502.02	24734.78
502.20	24711.38
502.37	24814.36
502.55	24898.62
502.72	24636.48
502.90	25184.16
503.07	24978.20
503.25	25338.64
503.43	25081.18
503.60	25355.02
503.78	25518.86
503.95	25635.89
504.13	25762.28
504.30	26026.76
504.48	25827.81
504.65	25736.53
504.83	26087.61
505.01	26457.42
505.18	26225.70
505.36	26237.41
505.53	26295.92
505.71	26267.83
505.88	26075.91
506.06	26485.50
506.23	26714.87
506.41	26740.62
506.58	26965.31
506.76	26745.30
506.93	27019.14
507.11	26778.07
507.28	27042.55
507.46	27140.85
507.63	27026.17
507.81	27683.86
507.98	27185.32
508.16	27529.38
508.33	27864.08
508.50	28109.83
508.68	27854.72
508.85	28339.21
509.03	27819.61
509.20	28100.47
509.38	28156.64
509.55	28189.41
509.73	28467.94
509.90	28306.44
510.08	28645.82
510.25	28297.08
510.42	28486.66
510.60	28596.67
510.77	28797.95
510.95	29069.45
511.12	28652.84
511.30	29034.35
511.47	28835.40
511.64	29095.20
511.82	29209.89
511.99	29113.92
512.17	29434.58
512.34	29074.13
512.51	29797.36
512.69	29605.44
512.86	29841.83
513.04	29551.60
513.21	29890.98
513.38	29956.52
513.56	30293.55
513.73	30197.59
513.90	30094.61
514.08	29993.97
514.25	30080.56
514.43	30494.84
514.60	30658.68
514.77	30691.44
514.95	30682.08
515.12	30866.98
515.29	30637.61
515.47	30869.33
515.64	31005.08
515.81	30677.40
515.99	31115.08
516.16	31349.14
516.33	31573.83
516.51	31634.68
516.68	31491.91
516.85	31070.61
517.03	31328.07
517.20	31456.80
517.37	31367.86
517.54	31278.92
517.72	31761.07
517.89	32037.25
518.06	32016.19
518.24	31854.69
518.41	31812.56
518.58	32088.74
518.75	32135.56
518.93	32238.54
519.10	32116.83
519.27	32023.21
519.45	32477.27
519.62	32388.33
519.79	32449.19
519.96	32617.71
520.14	32521.74
520.31	32549.83
520.48	33235.61
520.65	33179.43
520.83	33116.24
521.00	33249.65
521.17	33015.60
521.34	32905.59
521.52	33706.05
521.69	33486.04
521.86	33408.81
522.03	33518.81
522.20	33553.92
522.38	33579.67
522.55	33954.15
522.72	33593.71
522.89	34110.97
523.07	34117.99
523.24	33787.97
523.41	34237.36
523.58	34033.73
523.75	34258.42
523.92	34017.35
524.10	34256.08
524.27	34361.40
524.44	34396.51
524.61	34368.43
524.78	34508.86
524.96	34829.51
525.13	35079.95
525.30	35171.23
525.47	34960.58
525.64	34742.91
525.81	35093.99
525.98	35061.22
526.16	34827.17
526.33	34983.99
526.50	35456.78
526.67	35166.55
526.84	35550.40
527.01	34948.88
527.18	35625.29
527.36	35721.26
527.53	35606.57
527.70	36168.30
527.87	35915.52
528.04	35173.57
528.21	35412.31
528.38	35695.51
528.55	36114.47
528.72	35887.43
528.89	36098.08
529.07	35948.29
529.24	35922.54
529.41	36128.51
529.58	36114.47
529.75	35683.81
529.92	36280.64
530.09	36268.94
530.26	36240.86
530.43	36472.57
530.60	36287.67
530.77	36254.90
530.94	36931.31
531.11	36121.49
531.28	36793.22
531.46	36776.84
531.63	36800.24
531.80	36898.55
531.97	37006.21
532.14	36905.57
532.31	37177.07
532.48	37645.18
532.65	37427.51
532.82	37258.99
532.99	37329.20
533.16	37081.11
533.33	37628.79
533.50	37481.34
533.67	37420.48
533.84	37317.50
534.01	37731.78
534.18	37675.60
534.35	37806.67
534.52	37347.93
534.69	38356.70
534.86	37848.80
535.03	37914.34
535.20	38204.56
535.37	38019.66
535.54	38078.18
535.71	38363.72
535.88	37928.38
536.05	38286.48
536.22	38284.14
536.38	38333.29
536.55	38483.09
536.72	38185.84
536.89	38279.46
537.06	38122.65
537.23	38930.13
537.40	38433.94
537.57	38857.57
537.74	38576.71
537.91	38918.43
538.08	38670.33
538.25	38778.00
538.42	38852.89
538.59	39091.63
538.75	39119.71
538.92	38873.96
539.09	38932.47
539.26	38913.75
539.43	38527.56
539.60	39147.80
539.77	39033.11
539.94	39613.57
540.11	39746.98
540.28	39438.03
540.44	39847.62
540.61	39761.02
540.78	39533.99
540.95	39496.54
541.12	39845.28
541.29	39700.17
541.46	39875.71
541.62	39611.23
541.79	39955.29
541.96	39388.88
542.13	39557.39
542.30	39758.68
542.47	39927.20
542.63	40292.32
542.80	40254.87
542.97	40751.07
543.14	40474.88
543.31	40678.51
543.48	40041.88
543.64	40697.24
543.81	40676.17
543.98	40683.19
544.15	40762.77
544.32	40697.24
544.48	40891.50
544.65	40870.43
544.82	40566.16
544.99	40444.46
545.16	40971.08
545.32	40879.80
545.49	41797.29
545.66	41446.21
545.83	40774.47
546.00	41008.53
546.16	41223.86
546.33	40872.78
546.50	40720.64
546.67	41518.76
546.83	40945.33
547.00	41254.28
547.17	41294.07
547.34	41074.06
547.50	41670.90
547.67	41610.04
547.84	41663.88
548.00	42094.53
548.17	42031.34
548.34	41516.42
548.51	41972.83
548.67	41902.61
548.84	41706.01
549.01	41638.13
549.18	41844.10
549.34	42073.47
549.51	42380.08
549.68	42300.50
549.84	41940.06
550.01	42522.85
550.18	41703.67
550.34	42199.86
550.51	42298.16
550.68	42206.88
550.84	42162.41
551.01	42162.41
551.18	42359.02
551.34	41911.97
551.51	42649.24
551.68	42543.92
551.84	42373.06
552.01	42370.72
552.18	42543.92
552.34	42167.09
552.51	42904.36
552.68	42230.29
552.84	43005.00
553.01	42733.50
553.18	42820.10
553.34	42359.02
553.51	42639.88
553.67	42761.59
553.84	43129.05
554.01	42962.87
554.17	42590.73
554.34	43250.76
554.51	42728.82
554.67	43077.56
554.84	43311.61
555.00	42841.17
555.17	42794.36
555.33	43283.53
555.50	43260.12
555.67	43103.31
555.83	43189.91
556.00	43421.62
556.16	43768.02
556.33	43311.61
556.50	43232.04
556.66	43583.12
556.83	43281.19
556.99	43484.81
557.16	43988.03
557.32	43871.00
557.49	43885.04
557.65	43318.64
557.82	43452.05
557.98	43325.66
558.15	43693.12
558.32	43332.68
558.48	43962.28
558.65	43643.97
558.81	43674.40
558.98	43735.25
559.14	43533.96
559.31	43892.07
559.47	43763.34
559.64	43856.96
559.80	43803.13
559.97	44102.71
560.13	43419.28
560.30	44081.65
560.46	44598.91
560.63	43896.75
560.79	43889.73
560.96	44233.78
561.12	44425.71
561.29	44423.37
561.45	44128.46
561.61	44378.90
561.78	44381.24
561.94	43948.24
562.11	44058.24
562.27	44336.77
562.44	44547.42
562.60	44198.68
562.77	44367.20
562.93	44444.43
563.10	44390.60
563.26	44353.15
563.42	44406.98
563.59	44458.48
563.75	43983.35
563.92	43814.83
564.08	44601.25
564.24	44467.84
564.41	44432.73
564.57	44844.66
564.74	44196.34
564.90	44594.23
565.07	44755.72
565.23	44217.40
565.39	44453.79
565.56	44612.95
565.72	44884.45
565.88	44868.07
566.05	44921.90
566.21	44722.96
566.38	44538.05
566.54	44847.00
566.70	44872.75
566.87	44776.79
567.03	44928.92
567.19	45132.55
567.36	44954.67
567.52	45052.97
567.68	45338.52
567.85	45017.86
568.01	44615.29
568.17	44645.72
568.34	44832.96
568.50	44617.63
568.66	44708.91
568.83	44704.23
568.99	45017.86
569.15	44870.41
569.32	44751.04
569.48	44903.18
569.64	45642.79
569.81	45247.24
569.97	45350.22
570.13	45371.28
570.30	44748.70
570.46	45158.30
570.62	45048.29
570.78	44765.09
570.95	44891.48
571.11	45565.55
571.27	44755.72
571.43	45301.07
571.60	45326.81
571.76	44886.79
571.92	45111.49
572.09	45595.98
572.25	45411.07
572.41	45256.60
572.57	45581.93
572.74	45567.89
572.90	45537.46
573.06	45720.02
573.22	45324.47
573.38	45734.07
573.55	45450.86
573.71	46178.77
573.87	45752.79
574.03	45682.58
574.20	45879.18
574.36	45631.08
574.52	45626.40
574.68	45661.51
574.84	45521.08
575.01	45783.22
575.17	45528.10
575.33	45310.43
575.49	45106.80
575.65	45783.22
575.82	45029.57
575.98	45244.90
576.14	45860.46
576.30	45830.03
576.46	45687.26
576.62	45446.18
576.79	46014.93
576.95	44783.81
577.11	45333.84
577.27	45539.80
577.43	45436.82
577.59	45670.87
577.75	45411.07
577.92	45474.27
578.08	45469.59
578.24	45556.19
578.40	45638.11
578.56	45680.24
578.72	45640.45
578.88	45792.58
579.04	45937.69
579.21	45392.35
579.37	45638.11
579.53	45521.08
579.69	45661.51
579.85	45860.46
580.01	45958.76
580.17	45549.17
580.33	46124.94
580.49	45935.35
580.65	45808.96
580.82	45743.43
580.98	45436.82
581.14	45368.94
581.30	45923.65
581.46	45837.05
581.62	45441.50
581.78	45174.68
581.94	45418.10
582.10	45577.25
582.26	45844.07
582.42	45640.45
582.58	45720.02
582.74	45916.63
582.90	46017.27
583.06	46127.28
583.22	46157.70
583.38	45855.78
583.54	45956.42
583.70	45677.90
583.86	46106.21
584.02	45682.58
584.18	46370.69
584.34	45411.07
584.50	46117.92
584.66	46157.70
584.82	46150.68
584.98	46394.10
585.14	46113.23
585.30	45790.24
585.46	46129.62
585.62	45855.78
585.78	45886.20
585.94	45223.83
586.10	45577.25
586.26	45504.70
586.42	45996.21
586.58	45965.78
586.74	46134.30
586.90	45595.98
587.06	46134.30
587.22	45710.66
587.38	45624.06
587.54	46124.94
587.70	46078.13
587.86	46195.15
588.02	46206.86
588.18	45635.77
588.34	45607.68
588.49	45808.96
588.65	45893.22
588.81	45607.68
588.97	46232.60
589.13	46120.26
589.29	45567.89
589.45	46216.22
589.61	46227.92
589.77	45776.20
589.93	46080.47
590.08	46363.67
