SpectraSuite Data File
++++++++++++++++++++++++++++++++++++
Date: Fri Oct 25 11:25:43 EDT 2013
User: price-jones
Dark Spectrum Present: No
Reference Spectrum Present: No
Number of Sampled Component Spectra: 1
Spectrometers: USB2+H05261
Integration Time (usec): 100000 (USB2+H05261)
Spectra Averaged: 1 (USB2+H05261)
Boxcar Smoothing: 0 (USB2+H05261)
Correct for Electrical Dark: No (USB2+H05261)
Strobe/Lamp Enabled: No (USB2+H05261)
Correct for Detector Non-linearity: No (USB2+H05261)
Correct for Stray Light: No (USB2+H05261)
Number of Pixels in Processed Spectrum: 2048
>>>>>Begin Processed Spectral Data<<<<<
365.73	266.82
365.92	266.82
366.12	266.82
366.32	128.73
366.52	128.73
366.72	128.73
366.91	117.03
367.11	98.30
367.31	170.86
367.51	217.67
367.70	72.56
367.90	131.07
368.10	102.98
368.30	205.97
368.49	126.39
368.69	145.11
368.89	133.41
369.09	124.05
369.28	149.79
369.48	170.86
369.68	194.26
369.87	234.05
370.07	208.31
370.27	283.20
370.47	393.21
370.66	566.41
370.86	690.46
371.06	648.33
371.25	688.12
371.45	674.07
371.65	716.20
371.84	674.07
372.04	674.07
372.24	688.12
372.44	723.23
372.63	755.99
372.83	765.36
373.03	753.65
373.22	767.70
373.42	709.18
373.62	765.36
373.81	732.59
374.01	800.46
374.21	821.53
374.40	739.61
374.60	795.78
374.79	830.89
374.99	938.55
375.19	847.27
375.38	856.64
375.58	777.06
375.78	821.53
375.97	819.19
376.17	891.74
376.37	877.70
376.56	938.55
376.76	894.08
376.95	795.78
377.15	840.25
377.35	896.43
377.54	903.45
377.74	835.57
377.93	950.26
378.13	922.17
378.33	915.15
378.52	950.26
378.72	940.90
378.91	954.94
379.11	1011.11
379.31	997.07
379.50	919.83
379.70	1034.52
379.89	971.32
380.09	1029.84
380.28	997.07
380.48	1015.79
380.68	1022.81
380.87	980.68
381.07	929.19
381.26	968.98
381.46	1001.75
381.65	1043.88
381.85	954.94
382.04	1043.88
382.24	1015.79
382.43	1050.90
382.63	1050.90
382.83	1128.14
383.02	1046.22
383.22	1071.97
383.41	1046.22
383.61	1086.01
383.80	1086.01
384.00	1081.33
384.19	1034.52
384.39	1088.35
384.58	1062.60
384.78	1123.46
384.97	1174.95
385.17	1160.91
385.36	1191.33
385.56	1139.84
385.75	1221.76
385.95	1151.54
386.14	1214.74
386.34	1151.54
386.53	1217.08
386.72	1156.22
386.92	1263.89
387.11	1226.44
387.31	1231.12
387.50	1242.82
387.70	1142.18
387.89	1352.83
388.09	1313.04
388.28	1306.02
388.48	1245.16
388.67	1359.85
388.86	1345.81
389.06	1306.02
389.25	1348.15
389.45	1212.40
389.64	1418.36
389.84	1371.55
390.03	1376.24
390.22	1406.66
390.42	1376.24
390.61	1299.00
390.81	1336.45
391.00	1418.36
391.19	1441.77
391.39	1425.39
391.58	1453.47
391.78	1387.94
391.97	1423.05
392.16	1458.15
392.36	1516.67
392.55	1474.54
392.75	1530.71
392.94	1500.28
393.13	1572.84
393.33	1509.65
393.52	1643.06
393.71	1575.18
393.91	1582.20
394.10	1519.01
394.29	1542.41
394.49	1540.07
394.68	1547.09
394.88	1575.18
395.07	1710.93
395.26	1661.78
395.46	1650.08
395.65	1638.38
395.84	1717.95
396.04	1706.25
396.23	1699.23
396.42	1755.40
396.62	1830.30
396.81	1788.17
397.00	1750.72
397.19	1692.21
397.39	1785.83
397.58	1928.60
397.77	1912.22
397.97	1834.98
398.16	1905.20
398.35	1916.90
398.55	1867.75
398.74	1818.60
398.93	1975.41
399.12	1888.81
399.32	1928.60
399.51	1959.03
399.70	1998.82
399.90	1914.56
400.09	2019.88
400.28	1987.11
400.47	2033.93
400.67	2172.02
400.86	2031.58
401.05	2104.14
401.24	2031.58
401.44	2150.95
401.63	2223.51
401.82	2120.53
402.01	2209.47
402.21	2064.35
402.40	2242.23
402.59	2209.47
402.78	2317.13
402.97	2265.64
403.17	2286.70
403.36	2202.44
403.55	2307.77
403.74	2342.88
403.93	2340.54
404.13	2359.26
404.32	2321.81
404.51	2415.43
404.70	2438.84
404.89	2347.56
405.09	2445.86
405.28	2415.43
405.47	2490.33
405.66	2614.38
405.85	2443.52
406.05	2450.54
406.24	2555.86
406.43	2562.89
406.62	2527.78
406.81	2642.46
407.00	2581.61
407.20	2506.71
407.39	2560.55
407.58	2677.57
407.77	2726.72
407.96	2761.83
408.15	2668.21
408.34	2733.75
408.54	2672.89
408.73	2801.62
408.92	2745.45
409.11	2899.92
409.30	2780.56
409.49	2822.69
409.68	2925.67
409.87	2825.03
410.07	2899.92
410.26	3002.91
410.45	2965.46
410.64	2956.10
410.83	2972.48
411.02	3138.66
411.21	3169.09
411.40	3054.40
411.59	3187.81
411.78	3129.30
411.98	3211.22
412.17	3208.87
412.36	3272.07
412.55	3332.92
412.74	3403.14
412.93	3321.22
413.12	3353.99
413.31	3562.30
413.50	3414.84
413.69	3513.14
413.88	3506.12
414.07	3522.51
414.26	3590.38
414.45	3618.47
414.64	3681.66
414.83	3784.65
415.02	3616.13
415.22	3756.56
415.41	3833.80
415.60	3854.86
415.79	3803.37
415.98	3808.05
416.17	3875.93
416.36	4023.38
416.55	4056.15
416.74	3805.71
416.93	3953.16
417.12	4074.87
417.31	4227.01
417.50	4018.70
417.69	4341.69
417.88	4287.86
418.07	4077.21
418.26	4360.42
418.45	4219.99
418.64	4470.42
418.83	4374.46
419.02	4379.14
419.21	4472.76
419.39	4442.34
419.58	4596.81
419.77	4435.32
419.96	4596.81
420.15	4606.17
420.34	4535.96
420.53	4695.11
420.72	4685.75
420.91	4681.07
421.10	4854.27
421.29	4812.14
421.48	4634.26
421.67	4868.31
421.86	4725.54
422.05	4681.07
422.24	4699.80
422.43	4926.83
422.61	4805.12
422.80	4910.44
422.99	4877.68
423.18	4905.76
423.37	4753.63
423.56	4844.91
423.75	4849.59
423.94	4807.46
424.13	4585.11
424.32	4744.27
424.50	4884.70
424.69	4938.53
424.88	5006.41
425.07	4924.49
425.26	4910.44
425.45	5055.56
425.64	4933.85
425.83	4816.82
426.01	4903.42
426.20	4971.30
426.39	5132.79
426.58	4959.60
426.77	5097.69
426.96	5074.28
427.15	5151.52
427.33	5060.24
427.52	4994.70
427.71	5305.99
427.90	5268.55
428.09	5305.99
428.28	5247.48
428.46	5413.66
428.65	5256.84
428.84	5465.15
429.03	5497.92
429.22	5310.68
429.40	5357.49
429.59	5406.64
429.78	5193.65
429.97	5245.14
430.16	5479.19
430.34	5509.62
430.53	5483.88
430.72	5610.26
430.91	5589.20
431.10	5729.63
431.28	5717.93
431.47	5743.67
431.66	5741.33
431.85	5774.10
432.03	5982.41
432.22	6052.63
432.41	5987.09
432.60	5966.03
432.79	5844.32
432.97	6045.60
433.16	6024.54
433.35	5837.30
433.54	5968.37
433.72	6164.97
433.91	6064.33
434.10	6040.92
434.28	5968.37
434.47	6230.51
434.66	6216.46
434.85	6279.66
435.03	6090.07
435.22	6179.01
435.41	6551.16
435.59	6401.37
435.78	6443.49
435.97	6413.07
436.16	6497.33
436.34	6237.53
436.53	6466.90
436.72	6672.87
436.90	6366.26
437.09	6544.14
437.28	6572.22
437.46	6480.94
437.65	6623.72
437.84	6642.44
438.02	6651.80
438.21	6855.43
438.40	6565.20
438.58	7019.27
438.77	6897.56
438.96	6843.73
439.14	7016.93
439.33	7253.32
439.52	7157.36
439.70	7166.72
439.89	7183.10
440.08	7417.16
440.26	7258.00
440.45	7272.04
440.63	7529.50
440.82	7651.21
441.01	7559.93
441.19	7651.21
441.38	7627.81
441.57	7613.76
441.75	7754.19
441.94	7815.05
442.12	7829.09
442.31	7889.95
442.50	7946.12
442.68	7859.52
442.87	7925.05
443.05	7962.50
443.24	8095.91
443.43	8077.19
443.61	8198.90
443.80	8500.83
443.98	7903.99
444.17	7847.82
444.35	8201.24
444.54	8163.79
444.73	8238.69
444.91	8124.00
445.10	8315.92
445.28	8163.79
445.47	8241.03
445.65	8212.94
445.84	8482.10
446.02	8339.33
446.21	8327.63
446.39	8449.33
446.58	8496.14
446.77	8365.07
446.95	8372.10
447.14	8475.08
447.32	8475.08
447.51	8390.82
447.69	8344.01
447.88	8505.51
448.06	8493.80
448.25	8285.50
448.43	8482.10
448.62	8421.25
448.80	8526.57
448.99	8645.94
449.17	8793.39
449.36	8596.79
449.54	8872.97
449.73	8812.12
449.91	8922.12
450.10	9039.15
450.28	9092.98
450.46	8908.08
450.65	8978.30
450.83	8917.44
451.02	8912.76
451.20	9135.11
451.39	8936.17
451.57	8774.67
451.76	9181.92
451.94	9261.50
452.13	9067.24
452.31	9315.33
452.49	8774.67
452.68	9179.58
452.86	9212.35
453.05	9338.74
453.23	9408.95
453.42	9352.78
453.60	9212.35
453.78	9420.66
453.97	9458.10
454.15	9502.58
454.34	9397.25
454.52	9551.73
454.70	9472.15
454.89	9750.67
455.07	9596.20
455.26	9666.41
455.44	9947.28
455.62	9844.29
455.81	9895.78
455.99	9813.87
456.17	9958.98
456.36	9987.07
456.54	10167.29
456.73	10167.29
456.91	10445.81
457.09	10279.63
457.28	10532.41
457.46	10270.27
457.64	10394.32
457.83	10413.04
458.01	10445.81
458.19	10729.02
458.38	10356.87
458.56	10637.73
458.74	10623.69
458.93	10607.31
459.11	10644.76
459.29	10595.61
459.48	10827.32
459.66	10771.15
459.84	10892.85
460.03	10796.89
460.21	10934.98
460.39	10827.32
460.57	10853.06
460.76	10855.40
460.94	11098.82
461.12	11066.05
461.31	11164.36
461.49	11171.38
461.67	10930.30
461.85	11396.07
462.04	11215.85
462.22	11943.75
462.40	11527.14
462.59	11473.31
462.77	11227.55
462.95	11517.78
463.13	11494.37
463.32	11688.64
463.50	11482.67
463.68	11609.06
463.86	11808.00
464.05	11527.14
464.23	11587.99
464.41	11871.20
464.59	11648.85
464.78	11889.92
464.96	11784.60
465.14	11686.29
465.32	11765.87
465.50	12152.06
465.69	12311.22
465.87	12262.07
466.05	11903.96
466.23	11880.56
466.41	12161.42
466.60	12351.01
466.78	11857.15
466.96	12072.48
467.14	12287.81
467.32	12325.26
467.51	12519.53
467.69	12049.08
467.87	12297.17
468.05	12301.86
468.23	12374.41
468.41	12322.92
468.60	12629.53
468.78	12636.55
468.96	12601.44
469.14	12575.70
469.32	12894.01
469.50	12727.83
469.69	12957.21
469.87	13071.89
470.05	13104.66
470.23	13041.46
470.41	12966.57
470.59	13266.16
470.77	13006.36
470.95	12985.29
471.14	13516.59
471.32	13057.85
471.50	13371.48
471.68	13385.52
471.86	13827.88
472.04	13893.42
472.22	13921.51
472.40	13617.24
472.58	13804.48
472.77	13811.50
472.95	14008.11
473.13	14607.28
473.31	14033.85
473.49	14150.88
473.67	14005.77
473.85	14211.73
474.03	14464.51
474.21	14321.74
474.39	14895.17
474.57	14427.06
474.75	14501.96
474.93	14576.86
475.12	14759.42
475.30	14890.49
475.48	15122.20
475.66	15136.24
475.84	15145.61
476.02	15255.61
476.20	15342.21
476.38	15513.07
476.56	16177.78
476.74	15805.64
476.92	15859.47
477.10	15573.92
477.28	16283.11
477.46	16056.08
477.64	16156.72
477.82	16360.34
478.00	16915.05
478.18	16568.65
478.36	16620.14
478.54	17184.21
478.72	16929.09
478.90	17425.29
479.08	17399.54
479.26	17415.93
479.44	17605.51
479.62	17804.46
479.80	18260.86
479.98	17963.61
480.16	18249.16
480.34	18277.24
480.52	18558.11
480.70	18359.16
480.88	18478.53
481.06	18258.52
481.24	18541.72
481.41	19103.45
481.59	19290.70
481.77	19473.26
481.95	19328.14
482.13	19332.82
482.31	19623.05
482.49	20203.50
482.67	20346.28
482.85	20217.55
483.03	20442.24
483.21	20746.51
483.39	20751.19
483.57	20823.75
483.74	21193.55
483.92	21104.61
484.10	20978.22
484.28	21500.16
484.46	21912.10
484.64	22059.55
484.82	22033.80
485.00	22108.70
485.18	22394.25
485.35	22852.99
485.53	22661.07
485.71	22829.59
485.89	23510.68
486.07	23138.54
486.25	23386.63
486.43	23302.37
486.61	23477.91
486.78	23859.42
486.96	24051.34
487.14	24269.01
487.32	24460.94
487.50	24603.71
487.68	24627.12
487.85	24989.90
488.03	25240.34
488.21	25865.26
488.39	25624.18
488.57	25589.08
488.75	25961.22
488.92	26082.93
489.10	26270.17
489.28	26490.18
489.46	26834.24
489.64	26757.00
489.81	27372.57
489.99	27477.89
490.17	27555.13
490.35	28063.02
490.53	27969.40
490.70	28397.72
490.88	28208.14
491.06	28755.82
491.24	28411.76
491.41	29120.95
491.59	29095.20
491.77	29198.18
491.95	29488.41
492.13	29551.60
492.30	29909.71
492.48	29993.97
492.66	30199.93
492.84	30146.10
493.01	30443.35
493.19	30363.77
493.37	30630.59
493.54	30988.69
493.72	31363.18
493.90	30740.60
494.08	31646.38
494.25	31770.43
494.43	31718.94
494.61	32018.53
494.79	32168.32
494.96	32271.31
495.14	32753.46
495.32	32886.87
495.49	33006.23
495.67	33362.00
495.85	33399.44
496.02	33233.27
496.20	33886.28
496.38	33331.57
496.55	33975.22
496.73	34604.82
496.91	34026.71
497.09	34307.57
497.26	34834.19
497.44	35122.08
497.62	35054.20
497.79	35562.10
497.97	35009.73
498.14	35648.70
498.32	35765.73
498.50	35906.16
498.67	36479.59
498.85	36252.56
499.03	36224.47
499.20	36830.67
499.38	36708.96
499.56	36797.90
499.73	37104.51
499.91	36982.80
500.08	37509.43
500.26	37251.97
500.44	37476.66
500.61	37591.34
500.79	37663.90
500.97	37743.48
501.14	38160.09
501.32	38433.94
501.49	38340.32
501.67	38330.95
501.84	38307.55
502.02	38672.67
502.20	38834.17
502.37	38990.98
502.55	39218.02
502.72	39356.11
502.90	39381.85
503.07	39316.32
503.25	39533.99
503.43	39569.10
503.60	39765.70
503.78	40236.15
503.95	39927.20
504.13	40329.77
504.30	40446.80
504.48	40123.80
504.65	40802.56
504.83	40818.94
505.01	40940.65
505.18	40851.71
505.36	41640.47
505.53	40830.65
505.71	41443.87
505.88	41411.10
506.06	41532.81
506.23	41715.37
506.41	41591.32
506.58	41633.45
506.76	41937.72
506.93	41972.83
507.11	41979.85
507.28	42682.01
507.46	42782.65
507.63	42501.79
507.81	42859.89
507.98	42705.41
508.16	43091.60
508.33	43316.29
508.50	43468.43
508.68	43686.10
508.85	43817.17
509.03	43590.14
509.20	43533.96
509.38	43873.34
509.55	44020.80
509.73	44516.99
509.90	44294.64
510.08	44449.11
510.25	44332.09
510.42	44329.75
510.60	44645.72
510.77	44540.39
510.95	45446.18
511.12	44879.77
511.30	45050.63
511.47	45350.22
511.64	45113.83
511.82	45567.89
511.99	45125.53
512.17	46066.42
512.34	45865.14
512.51	46199.83
512.69	46073.45
512.86	45839.39
513.04	46560.28
513.21	46691.35
513.38	46199.83
513.56	46674.96
513.73	46438.57
513.90	47164.14
514.08	46763.90
514.25	46918.38
514.43	46993.28
514.60	47344.36
514.77	47199.24
514.95	47154.77
515.12	47737.57
515.29	47201.58
515.47	47524.58
515.64	47999.71
515.81	47487.13
515.99	47903.74
516.16	48280.57
516.33	47723.52
516.51	48404.62
516.68	48205.67
516.85	48252.48
517.03	48210.35
517.20	48739.32
517.37	48470.15
517.54	48814.21
517.72	48715.91
517.89	48868.05
518.06	48954.64
518.24	49036.56
518.41	48842.30
518.58	49036.56
518.75	48706.55
518.93	49663.83
519.10	49214.44
519.27	49762.13
519.45	49357.22
519.62	49717.66
519.79	49869.79
519.96	49794.90
520.14	49766.81
520.31	50085.12
520.48	50035.97
520.65	50281.73
520.83	50309.82
521.00	50340.24
521.17	50532.17
521.34	50209.17
521.52	50756.86
521.69	50473.65
521.86	50754.52
522.03	51004.95
522.20	51068.15
522.38	50958.14
522.55	50911.33
522.72	51079.85
522.89	50724.09
523.07	51344.33
523.24	51419.23
523.41	51339.65
523.58	51133.68
523.75	51742.22
523.92	51679.03
524.10	51873.29
524.27	51798.40
524.44	51964.57
524.61	52046.49
524.78	51789.03
524.96	52011.38
525.13	51924.78
525.30	52308.63
525.47	52006.70
525.64	52107.35
525.81	52648.01
525.98	52545.03
526.16	52456.09
526.33	52320.34
526.50	52685.46
526.67	52552.05
526.84	52783.76
527.01	52863.34
527.18	52521.62
527.36	52755.68
527.53	52755.68
527.70	53439.11
527.87	53010.79
528.04	52795.46
528.21	53207.40
528.38	53123.14
528.55	53394.64
528.72	53265.91
528.89	53226.12
529.07	53200.38
529.24	53198.04
529.41	53371.24
529.58	53549.12
529.75	53677.85
529.92	53495.28
530.09	53694.23
530.26	53619.33
530.43	54007.86
530.60	53666.14
530.77	53719.98
530.94	53572.52
531.11	53925.94
531.28	53661.46
531.46	54045.31
531.63	53982.12
531.80	54136.59
531.97	54007.86
532.14	54115.53
532.31	54160.00
532.48	54396.39
532.65	54307.45
532.82	54466.61
532.99	54553.21
533.16	54466.61
533.33	54773.22
533.50	55068.12
533.67	54513.42
533.84	54543.84
534.01	54805.98
534.18	54855.14
534.35	55056.42
534.52	54946.42
534.69	55243.66
534.86	54850.45
535.03	55023.65
535.20	54569.59
535.37	55316.22
535.54	55285.79
535.71	55388.78
535.88	55421.55
536.05	55192.17
536.22	55332.60
536.38	55604.11
536.55	55332.60
536.72	55356.01
536.89	55311.54
537.06	55318.56
537.23	55618.15
537.40	55192.17
537.57	55693.05
537.74	55639.22
537.91	55959.87
538.08	55585.38
538.25	55466.02
538.42	55711.77
538.59	55847.52
538.75	55887.31
538.92	55643.90
539.09	55786.67
539.26	55943.48
539.43	55978.59
539.60	55908.38
539.77	56151.79
539.94	56097.96
540.11	56397.55
540.28	56289.88
540.44	56030.08
540.61	56444.36
540.78	56247.75
540.95	56259.46
541.12	56203.28
541.29	56456.06
541.46	55997.32
541.62	56488.83
541.79	56514.58
541.96	56357.76
542.13	56659.69
542.30	56523.94
542.47	56472.45
542.63	56713.52
542.80	56767.35
542.97	57083.33
543.14	57020.13
543.31	57050.56
543.48	57303.34
543.64	57439.09
543.81	57071.62
543.98	57036.51
544.15	56982.68
544.32	57282.27
544.48	57284.61
544.65	57298.65
544.82	57286.95
544.99	57099.71
545.16	57567.82
545.32	57418.02
545.49	57607.61
545.66	57574.84
545.83	57469.51
546.00	57579.52
546.16	57462.49
546.33	57401.64
546.50	57422.70
546.67	57492.92
546.83	57113.75
547.00	57558.45
547.17	57495.26
547.34	57462.49
547.50	57645.05
547.67	57946.98
547.84	57719.95
548.00	57972.73
548.17	58042.95
548.34	58019.54
548.51	58054.65
548.67	58026.56
548.84	58035.92
549.01	57949.32
549.18	58117.84
549.34	57794.85
549.51	58061.67
549.68	58073.37
549.84	57855.70
550.01	58152.95
550.18	58169.33
550.34	58099.12
550.51	58513.39
550.68	58314.45
550.84	57928.26
551.01	58394.03
551.18	58375.30
551.34	58195.08
551.51	58326.15
551.68	58262.96
551.84	58602.33
552.01	58417.43
552.18	58394.03
552.34	58213.80
552.51	58511.05
552.68	58365.94
552.84	58504.03
553.01	58775.53
553.18	58461.90
553.34	58590.63
553.51	58761.49
553.67	58581.27
553.84	58869.15
554.01	58681.91
554.17	58995.54
554.34	58871.49
554.51	58752.13
554.67	58693.61
554.84	58763.83
555.00	58934.69
555.17	58948.73
555.33	58969.80
555.50	58817.66
555.67	58721.70
555.83	58962.78
556.00	58913.62
556.16	59025.97
556.33	58906.60
556.50	59171.08
556.66	59164.06
556.83	58918.31
556.99	59381.73
557.16	59580.68
557.32	59440.24
557.49	59327.90
557.65	59285.77
557.82	59236.62
557.98	59337.26
558.15	59299.81
558.32	59168.74
558.48	59292.79
558.65	59426.20
558.81	59346.62
558.98	59458.97
559.14	59231.94
559.31	59568.97
559.47	59484.72
559.64	59550.25
559.80	59590.04
559.97	59646.21
560.13	59283.43
560.30	59606.42
560.46	59636.85
560.63	59611.10
560.79	59407.48
560.96	59604.08
561.12	59798.35
561.29	59484.72
561.45	59620.47
561.61	59774.94
561.78	59749.20
561.94	59737.49
562.11	59683.66
562.27	59842.82
562.44	59821.75
562.60	59891.97
562.77	60023.04
562.93	59681.32
563.10	59838.14
563.26	59859.20
563.42	60072.19
563.59	59751.54
563.75	59810.05
563.92	59756.22
564.08	59728.13
564.24	60062.83
564.41	60168.15
564.57	59924.74
564.74	60039.42
564.90	59852.18
565.07	59880.27
565.23	59880.27
565.39	59852.18
565.56	60060.49
565.72	59929.42
565.88	60257.09
566.05	59826.43
566.21	59924.74
566.38	60149.43
566.54	60123.68
566.70	60203.26
566.87	60114.32
567.03	59880.27
567.19	60175.17
567.36	60144.75
567.52	60032.40
567.68	60336.67
567.85	60271.14
568.01	60109.64
568.17	60245.39
568.34	60320.29
568.50	60158.79
568.66	60114.32
568.83	60399.86
568.99	60355.39
569.15	60470.08
569.32	60327.31
569.48	60193.90
569.64	60367.10
569.81	60144.75
569.97	60245.39
570.13	60221.98
570.30	60149.43
570.46	60343.69
570.62	60219.64
570.78	60530.93
570.95	60385.82
571.11	60519.23
571.27	60418.59
571.43	60343.69
571.60	60198.58
571.76	60317.95
571.92	60418.59
572.09	60416.25
572.25	60301.56
572.41	60481.78
572.57	60540.30
572.74	60505.19
572.90	60322.63
573.06	60231.35
573.22	60470.08
573.38	60392.84
573.55	60322.63
573.71	60683.07
573.87	60533.28
574.03	60367.10
574.20	60779.03
574.36	60451.36
574.52	60575.40
574.68	60465.40
574.84	60741.58
575.01	60683.07
575.17	60486.46
575.33	60505.19
575.49	60357.74
575.65	60755.63
575.82	60790.73
575.98	60788.39
576.14	60790.73
576.30	60690.09
576.46	60439.65
576.62	60498.17
576.79	60465.40
576.95	60643.28
577.11	60636.26
577.27	60552.00
577.43	60790.73
577.59	60671.37
577.75	60561.36
577.92	60631.58
578.08	60683.07
578.24	60570.72
578.40	60786.05
578.56	60940.53
578.72	60713.50
578.88	60830.52
579.04	60762.65
579.21	60680.73
579.37	60743.92
579.53	60708.82
579.69	60666.69
579.85	60664.35
580.01	60617.53
580.17	60598.81
580.33	60793.07
580.49	60783.71
580.65	60865.63
580.82	60577.75
580.98	60713.50
581.14	60622.22
581.30	60942.87
581.46	60767.33
581.62	60818.82
581.78	60645.62
581.94	60690.09
582.10	60786.05
582.26	60891.38
582.42	60683.07
582.58	60673.71
582.74	60739.24
582.90	60889.04
583.06	60790.73
583.22	60603.49
583.38	60846.91
583.54	60734.56
583.70	60898.40
583.86	60718.18
584.02	60811.80
584.18	61076.28
584.34	60692.43
584.50	60832.86
584.66	60559.02
584.82	60729.88
584.98	61090.32
585.14	60821.16
585.30	60790.73
585.46	60856.27
585.62	60804.78
585.78	61064.58
585.94	60519.23
586.10	60947.55
586.26	60837.54
586.42	61010.74
586.58	60992.02
586.74	60882.02
586.90	60823.50
587.06	60903.08
587.22	60853.93
587.38	60844.57
587.54	60942.87
587.70	60945.21
587.86	61003.72
588.02	60860.95
588.18	61200.33
588.34	60851.59
588.49	61003.72
