SpectraSuite Data File
++++++++++++++++++++++++++++++++++++
Date: Fri Oct 25 10:43:34 EDT 2013
User: price-jones
Dark Spectrum Present: No
Reference Spectrum Present: No
Number of Sampled Component Spectra: 1
Spectrometers: USB2+H05261
Integration Time (usec): 100000 (USB2+H05261)
Spectra Averaged: 1 (USB2+H05261)
Boxcar Smoothing: 0 (USB2+H05261)
Correct for Electrical Dark: No (USB2+H05261)
Strobe/Lamp Enabled: No (USB2+H05261)
Correct for Detector Non-linearity: No (USB2+H05261)
Correct for Stray Light: No (USB2+H05261)
Number of Pixels in Processed Spectrum: 2048
>>>>>Begin Processed Spectral Data<<<<<
365.73	114.69
365.92	114.69
366.12	114.69
366.32	11.70
366.52	25.75
366.72	81.92
366.91	42.13
367.11	32.77
367.31	16.38
367.51	4.68
367.70	0.00
367.90	51.49
368.10	65.54
368.30	0.00
368.49	37.45
368.69	60.85
368.89	77.24
369.09	70.22
369.28	32.77
369.48	46.81
369.68	16.38
369.87	32.77
370.07	58.51
370.27	58.51
370.47	196.60
370.66	402.57
370.86	430.66
371.06	447.04
371.25	500.87
371.45	447.04
371.65	444.70
371.84	461.09
372.04	451.72
372.24	498.53
372.44	489.17
372.63	472.79
372.83	428.32
373.03	477.47
373.22	528.96
373.42	456.40
373.62	493.85
373.81	622.58
374.01	568.75
374.21	571.09
374.40	521.94
374.60	557.05
374.79	543.00
374.99	589.82
375.19	606.20
375.38	524.28
375.58	608.54
375.78	608.54
375.97	559.39
376.17	643.65
376.37	606.20
376.56	610.88
376.76	662.37
376.95	613.22
377.15	608.54
377.35	645.99
377.54	711.52
377.74	617.90
377.93	697.48
378.13	631.94
378.33	627.26
378.52	664.71
378.72	603.86
378.91	699.82
379.11	676.41
379.31	627.26
379.50	706.84
379.70	638.97
379.89	765.36
380.09	667.05
380.28	657.69
380.48	641.31
380.68	692.80
380.87	802.80
381.07	695.14
381.26	767.70
381.46	779.40
381.65	627.26
381.85	624.92
382.04	629.60
382.24	737.27
382.43	636.63
382.63	655.35
382.83	667.05
383.02	711.52
383.22	788.76
383.41	737.27
383.61	744.29
383.80	828.55
384.00	786.42
384.19	798.12
384.39	828.55
384.58	863.66
384.78	779.40
384.97	758.33
385.17	671.73
385.36	795.78
385.56	807.48
385.75	823.87
385.95	781.74
386.14	842.59
386.34	821.53
386.53	807.48
386.72	784.08
386.92	844.93
387.11	821.53
387.31	908.13
387.50	898.77
387.70	903.45
387.89	863.66
388.09	898.77
388.28	919.83
388.48	1022.81
388.67	933.87
388.86	915.15
389.06	1001.75
389.25	926.85
389.45	978.34
389.64	1055.58
389.84	968.98
390.03	901.11
390.22	1022.81
390.42	1011.11
390.61	952.60
390.81	992.39
391.00	1060.26
391.19	1102.39
391.39	1057.92
391.58	1107.07
391.78	1039.20
391.97	1111.75
392.16	1081.33
392.36	1046.22
392.55	1015.79
392.75	1067.28
392.94	980.68
393.13	990.05
393.33	1011.11
393.52	1053.24
393.71	1132.82
393.91	1135.16
394.10	1130.48
394.29	1114.10
394.49	1144.52
394.68	1200.69
394.88	1350.49
395.07	1324.74
395.26	1207.72
395.46	1240.48
395.65	1364.53
395.84	1254.53
396.04	1256.87
396.23	1219.42
396.42	1153.88
396.62	1172.61
396.81	1238.14
397.00	1247.51
397.19	1310.70
397.39	1376.24
397.58	1427.73
397.77	1383.26
397.97	1322.40
398.16	1439.43
398.35	1509.65
398.55	1453.47
398.74	1479.22
398.93	1568.16
399.12	1519.01
399.32	1582.20
399.51	1582.20
399.70	1565.82
399.90	1589.22
400.09	1664.12
400.28	1661.78
400.47	1556.46
400.67	1619.65
400.86	1678.16
401.05	1624.33
401.24	1675.82
401.44	1650.08
401.63	1776.47
401.82	1809.23
402.01	1710.93
402.21	1774.13
402.40	1839.66
402.59	1685.19
402.78	1732.00
402.97	1870.09
403.17	1837.32
403.36	1832.64
403.55	1823.28
403.74	1909.88
403.93	1907.54
404.13	1923.92
404.32	1853.70
404.51	1947.33
404.70	1952.01
404.89	1872.43
405.09	1923.92
405.28	1961.37
405.47	1980.09
405.66	1963.71
405.85	1923.92
406.05	2104.14
406.24	1949.67
406.43	2129.89
406.62	2113.50
406.81	2237.55
407.00	2134.57
407.20	2228.19
407.39	2148.61
407.58	2223.51
407.77	2228.19
407.96	2352.24
408.15	2239.89
408.34	2228.19
408.54	2363.94
408.73	2387.35
408.92	2413.09
409.11	2368.62
409.30	2342.88
409.49	2347.56
409.68	2221.17
409.87	2270.32
410.07	2382.67
410.26	2256.28
410.45	2352.24
410.64	2452.88
410.83	2422.45
411.02	2569.91
411.21	2752.47
411.40	2583.95
411.59	2619.06
411.78	2679.91
411.98	2717.36
412.17	2745.45
412.36	2705.66
412.55	2747.79
412.74	2771.19
412.93	2691.62
413.12	2871.84
413.31	3007.59
413.50	2822.69
413.69	2825.03
413.88	2923.33
414.07	3019.29
414.26	3016.95
414.45	2946.73
414.64	2972.48
414.83	3073.12
415.02	3133.98
415.22	3126.96
415.41	3187.81
415.60	3213.56
415.79	3241.64
415.98	3253.34
416.17	3103.55
416.36	3269.73
416.55	3304.84
416.74	3269.73
416.93	3339.94
417.12	3403.14
417.31	3335.26
417.50	3412.50
417.69	3618.47
417.88	3379.73
418.07	3304.84
418.26	3508.46
418.45	3569.32
418.64	3641.87
418.83	3595.06
419.02	3571.66
419.21	3562.30
419.39	3662.94
419.58	3545.91
419.77	3541.23
419.96	3655.92
420.15	3653.58
420.34	3765.92
420.53	3672.30
420.72	3887.63
420.91	3824.44
421.10	3749.54
421.29	3852.52
421.48	3852.52
421.67	3894.65
421.86	3948.48
422.05	3850.18
422.24	3775.28
422.43	3875.93
422.61	3990.61
422.80	3988.27
422.99	4058.49
423.18	3927.42
423.37	4039.76
423.56	4032.74
423.75	4007.00
423.94	3906.35
424.13	3812.73
424.32	3798.69
424.50	3960.19
424.69	4187.22
424.88	4140.41
425.07	4046.79
425.26	3964.87
425.45	3960.19
425.64	4051.47
425.83	3953.16
426.01	4166.15
426.20	3962.53
426.39	4035.08
426.58	4086.58
426.77	4060.83
426.96	3962.53
427.15	3946.14
427.33	4009.34
427.52	4128.70
427.71	4168.49
427.90	4184.88
428.09	4161.47
428.28	4191.90
428.46	3990.61
428.65	4147.43
428.84	4381.48
429.03	4346.37
429.22	4100.62
429.40	4231.69
429.59	4177.86
429.78	3967.21
429.97	3894.65
430.16	4124.02
430.34	4086.58
430.53	4243.39
430.72	4217.65
430.91	4306.59
431.10	4423.61
431.28	4566.39
431.47	4636.60
431.66	4758.31
431.85	4631.92
432.03	4720.86
432.22	4634.26
432.41	4587.45
432.60	4791.08
432.79	4772.35
432.97	4779.37
433.16	4826.18
433.35	4652.98
433.54	4664.69
433.72	4648.30
433.91	4758.31
434.10	4723.20
434.28	4809.80
434.47	4997.04
434.66	5006.41
434.85	5032.15
435.03	4992.36
435.22	5067.26
435.41	5144.50
435.59	5210.03
435.78	5200.67
435.97	5125.77
436.16	5151.52
436.34	5298.97
436.53	5301.31
436.72	5376.21
436.90	5165.56
437.09	5167.90
437.28	5289.61
437.46	5366.85
437.65	5387.91
437.84	5343.44
438.02	5341.10
438.21	5252.16
438.40	5121.09
438.58	5394.93
438.77	5504.94
438.96	5523.66
439.14	5619.63
439.33	5689.84
439.52	5628.99
439.70	5626.65
439.89	5741.33
440.08	5650.05
440.26	5839.64
440.45	5874.74
440.63	5930.92
440.82	6104.12
441.01	6050.28
441.19	6019.86
441.38	6232.85
441.57	6148.59
441.75	6328.81
441.94	6317.11
442.12	6361.58
442.31	6464.56
442.50	6361.58
442.68	6413.07
442.87	6457.54
443.05	6478.60
443.24	6520.73
443.43	6520.73
443.61	6560.52
443.80	6658.82
443.98	6244.55
444.17	6338.17
444.35	6473.92
444.54	6607.33
444.73	6796.92
444.91	6429.45
445.10	6492.65
445.28	6312.42
445.47	6523.07
445.65	6590.95
445.84	6609.67
446.02	6843.73
446.21	6654.14
446.39	6485.62
446.58	6651.80
446.77	6729.04
446.95	6642.44
447.14	6843.73
447.32	6874.15
447.51	6717.34
447.69	6658.82
447.88	6761.81
448.06	6698.61
448.25	6803.94
448.43	6897.56
448.62	6843.73
448.80	6920.96
448.99	6920.96
449.17	6855.43
449.36	6855.43
449.54	7028.63
449.73	7091.82
449.91	7103.53
450.10	7204.17
450.28	7529.50
450.46	7241.62
450.65	7384.39
450.83	7365.67
451.02	7410.14
451.20	7424.18
451.39	7428.86
451.57	7070.76
451.76	7155.02
451.94	7353.96
452.13	7304.81
452.31	7290.77
452.49	7267.36
452.68	7098.84
452.86	7187.79
453.05	7304.81
453.23	7368.01
453.42	7428.86
453.60	7499.08
453.78	7606.74
453.97	7421.84
454.15	7520.14
454.34	7337.58
454.52	7578.65
454.70	7562.27
454.89	7728.45
455.07	7674.62
455.26	7726.11
455.44	7784.62
455.62	7744.83
455.81	7969.52
455.99	7843.14
456.17	7864.20
456.36	7768.24
456.54	8156.77
456.73	8077.19
456.91	8257.41
457.09	8224.64
457.28	8514.87
457.46	8175.49
457.64	8444.65
457.83	8205.92
458.01	7985.91
458.19	8341.67
458.38	8269.11
458.56	8423.59
458.74	8346.35
458.93	8374.44
459.11	8489.12
459.29	8383.80
459.48	8229.32
459.66	8226.98
459.84	8435.29
460.03	8493.80
460.21	8610.83
460.39	8592.11
460.57	8720.84
460.76	8681.05
460.94	8779.35
461.12	8664.66
461.31	8903.40
461.49	8741.90
461.67	8870.63
461.85	9055.53
462.04	8879.99
462.22	9245.12
462.40	9055.53
462.59	8985.32
462.77	8990.00
462.95	9022.77
463.13	9062.55
463.32	9149.15
463.50	9188.94
463.68	9078.94
463.86	8966.59
464.05	8990.00
464.23	9020.42
464.41	9100.00
464.59	8821.48
464.78	9320.01
464.96	9219.37
465.14	9135.11
465.32	9153.84
465.50	9390.23
465.69	9561.09
465.87	9294.27
466.05	9226.39
466.23	9184.26
466.41	9268.52
466.60	9753.01
466.78	9153.84
466.96	9425.34
467.14	9397.25
467.32	9554.07
467.51	9516.62
467.69	9401.93
467.87	9635.99
468.05	9507.26
468.23	9469.81
468.41	9387.89
468.60	9392.57
468.78	9659.39
468.96	9745.99
469.14	9790.46
469.32	9799.82
469.50	9628.96
469.69	9853.66
469.87	9961.32
470.05	9996.43
470.23	9870.04
470.41	9975.36
470.59	10029.20
470.77	9872.38
470.95	10122.82
471.14	10331.12
471.32	10209.42
471.50	10253.89
471.68	10441.13
471.86	10506.66
472.04	10691.57
472.22	10497.30
472.40	10293.68
472.58	10345.17
472.77	10377.94
472.95	10579.22
473.13	10839.02
473.31	10546.45
473.49	10604.97
473.67	10675.18
473.85	10803.91
474.03	11211.17
474.21	11089.46
474.39	11218.19
474.57	11304.79
474.75	11375.00
474.93	11239.25
475.12	11269.68
475.30	11220.53
475.48	11389.05
475.66	11510.75
475.84	11662.89
476.02	11407.77
476.20	11433.52
476.38	11770.55
476.56	12224.62
476.74	11969.50
476.92	11896.94
477.10	11836.09
477.28	12322.92
477.46	12081.85
477.64	12255.04
477.82	12542.93
478.00	12781.67
478.18	12849.54
478.36	12587.40
478.54	12819.11
478.72	12833.16
478.90	13036.78
479.08	13174.88
479.26	13327.01
479.44	13139.77
479.62	13493.19
479.80	13422.97
479.98	13476.80
480.16	13811.50
480.34	13675.75
480.52	13687.45
480.70	13820.86
480.88	13785.76
481.06	14078.32
481.24	14155.56
481.41	14211.73
481.59	14661.12
481.77	14621.33
481.95	14445.79
482.13	14803.89
482.31	14567.49
482.49	15023.90
482.67	14803.89
482.85	15016.88
483.03	15288.38
483.21	15185.40
483.39	15475.62
483.57	15541.16
483.74	15587.97
483.92	15999.90
484.10	15634.78
484.28	15992.88
484.46	16163.74
484.64	16514.82
484.82	16222.25
485.00	16205.87
485.18	16383.75
485.35	16676.32
485.53	16189.49
485.71	16240.98
485.89	16669.30
486.07	16510.14
486.25	16760.58
486.43	17118.68
486.61	17334.01
486.78	17467.42
486.96	17462.74
487.14	17795.09
487.32	17804.46
487.50	17961.27
487.68	18246.82
487.85	18448.10
488.03	18497.25
488.21	18967.70
488.39	18562.79
488.57	18981.74
488.75	18817.91
488.92	19187.71
489.10	19719.01
489.28	19541.13
489.46	20107.54
489.64	19784.55
489.81	20357.98
489.99	20411.81
490.17	20184.78
490.35	20531.18
490.53	20900.98
490.70	20566.29
490.88	20943.11
491.06	20992.26
491.24	20917.37
491.41	21013.33
491.59	20884.60
491.77	21083.55
491.95	21556.33
492.13	21582.08
492.30	21865.28
492.48	21661.66
492.66	22015.08
492.84	22057.21
493.01	22525.32
493.19	22089.98
493.37	22581.49
493.54	22504.25
493.72	22628.30
493.90	22544.04
494.08	22881.08
494.25	23232.16
494.43	22986.40
494.61	23616.01
494.79	23866.44
494.96	23807.93
495.14	23791.55
495.32	23901.55
495.49	23859.42
495.67	23946.02
495.85	24533.50
496.02	24086.45
496.20	24746.48
496.38	24856.49
496.55	24842.45
496.73	24992.24
496.91	25046.07
497.09	24886.92
497.26	25411.20
497.44	25303.53
497.62	25263.74
497.79	25502.48
497.97	25406.52
498.14	26031.44
498.32	26040.80
498.50	25823.13
498.67	26101.65
498.85	26113.36
499.03	26810.84
499.20	26214.00
499.38	26347.41
499.56	26597.85
499.73	27068.30
499.91	26848.29
500.08	26670.40
500.26	26771.05
500.44	26541.68
500.61	27192.34
500.79	26544.02
500.97	26981.70
501.14	27496.61
501.32	26965.31
501.49	27452.14
501.67	27304.69
501.84	27805.56
502.02	27470.87
502.20	28016.21
502.37	28154.30
502.55	27967.06
502.72	28123.88
502.90	28041.96
503.07	28301.76
503.25	28500.70
503.43	28299.42
503.60	28418.78
503.78	28137.92
503.95	28460.91
504.13	28938.38
504.30	28713.69
504.48	28622.41
504.65	29048.39
504.83	29481.39
505.01	28893.91
505.18	29355.00
505.36	29869.92
505.53	29518.84
505.71	29874.60
505.88	30031.41
506.06	29640.54
506.23	30398.88
506.41	29675.65
506.58	30068.86
506.76	29703.74
506.93	30122.69
507.11	30017.37
507.28	30436.33
507.46	30291.21
507.63	30120.35
507.81	30625.91
507.98	30188.23
508.16	30476.12
508.33	30874.01
508.50	30871.67
508.68	31236.79
508.85	31269.56
509.03	31285.94
509.20	31288.28
509.38	31489.57
509.55	31608.93
509.73	31428.71
509.90	31754.05
510.08	31882.78
510.25	31590.21
510.42	32341.52
510.60	32219.81
510.77	31887.46
510.95	32355.57
511.12	32325.14
511.30	32158.96
511.47	32758.14
511.64	32793.25
511.82	32753.46
511.99	32292.37
512.17	32870.48
512.34	32610.68
512.51	32404.72
512.69	32886.87
512.86	32711.33
513.04	33088.15
513.21	33336.25
513.38	33207.52
513.56	33144.33
513.73	33329.23
513.90	33387.74
514.08	33397.10
514.25	33457.96
514.43	33261.35
514.60	33404.13
514.77	33464.98
514.95	34188.21
515.12	33823.08
515.29	33750.52
515.47	34190.55
515.64	34389.49
515.81	34305.23
515.99	34211.61
516.16	33942.45
516.33	33790.31
516.51	34127.35
516.68	33553.92
516.85	33516.47
517.03	33830.10
517.20	34338.00
517.37	34429.28
517.54	34810.79
517.72	34541.63
517.89	34403.53
518.06	33797.34
518.24	34497.16
518.41	34057.14
518.58	34614.18
518.75	34607.16
518.93	34686.74
519.10	35065.91
519.27	35487.20
519.45	35325.71
519.62	35433.37
519.79	35775.09
519.96	35175.91
520.14	35330.39
520.31	35328.05
520.48	35910.84
520.65	35505.93
520.83	36126.17
521.00	35859.35
521.17	35772.75
521.34	36362.56
521.52	36182.34
521.69	36130.85
521.86	36673.85
522.03	36311.07
522.20	36460.87
522.38	36605.98
522.55	36657.47
522.72	36259.58
522.89	36631.72
523.07	37113.87
523.24	36751.09
523.41	37488.36
523.58	37343.25
523.75	37551.56
523.92	37308.14
524.10	37085.79
524.27	37242.60
524.44	37443.89
524.61	37748.16
524.78	37715.39
524.96	37418.14
525.13	38087.54
525.30	38307.55
525.47	38075.84
525.64	37965.83
525.81	37495.38
525.98	37825.40
526.16	37282.39
526.33	37516.45
526.50	37816.04
526.67	37446.23
526.84	37511.77
527.01	37144.30
527.18	37647.52
527.36	38066.47
527.53	38838.85
527.70	38827.15
527.87	38719.48
528.04	38251.38
528.21	38443.30
528.38	38483.09
528.55	38831.83
528.72	39098.65
528.89	39524.63
529.07	38951.20
529.24	39166.52
529.41	38775.66
529.58	38637.56
529.75	39213.34
529.92	39339.72
530.09	39431.01
530.26	39487.18
530.43	39690.80
530.60	39012.05
530.77	39466.11
530.94	39892.09
531.11	39412.28
531.28	40027.84
531.46	39655.70
531.63	39730.59
531.80	39538.67
531.97	39433.35
532.14	39597.18
532.31	39473.13
532.48	39449.73
532.65	39761.02
532.82	39899.11
532.99	40524.04
533.16	39887.41
533.33	40027.84
533.50	40107.42
533.67	39938.90
533.84	40683.19
534.01	40308.71
534.18	40395.31
534.35	40336.79
534.52	40854.05
534.69	40622.34
534.86	40844.69
535.03	40566.16
535.20	41055.34
535.37	40825.96
535.54	41200.45
535.71	41083.42
535.88	41060.02
536.05	40535.74
536.22	41034.27
536.38	40985.12
536.55	40966.40
536.72	40945.33
536.89	40570.85
537.06	41212.15
537.23	41469.61
537.40	40786.18
537.57	41249.60
537.74	41354.93
537.91	41537.49
538.08	41654.51
538.25	40950.01
538.42	41514.08
538.59	41713.03
538.75	41638.13
538.92	41457.91
539.09	41624.09
539.26	41034.27
539.43	41832.39
539.60	41605.36
539.77	41464.93
539.94	41574.94
540.11	41757.50
540.28	41724.73
540.44	41975.17
540.61	41886.23
540.78	41530.47
540.95	41490.68
541.12	41455.57
541.29	41853.46
541.46	42183.48
541.62	42183.48
541.79	42057.09
541.96	41439.18
542.13	41848.78
542.30	42092.19
542.47	42403.49
542.63	42361.36
542.80	42169.43
542.97	42644.56
543.14	42824.78
543.31	43047.13
543.48	42834.14
543.64	43030.75
543.81	43278.85
543.98	43098.62
544.15	42852.87
544.32	43346.72
544.48	43761.00
544.65	43058.84
544.82	43349.06
544.99	42953.51
545.16	42934.79
545.32	42766.27
545.49	44086.33
545.66	43283.53
545.83	43023.73
546.00	43388.85
546.16	43213.31
546.33	43201.61
546.50	43192.25
546.67	43482.47
546.83	42728.82
547.00	43274.16
547.17	43271.82
547.34	43072.88
547.50	43622.90
547.67	44023.14
547.84	43737.59
548.00	43557.37
548.17	43863.98
548.34	44037.18
548.51	44250.17
548.67	43990.37
548.84	43758.66
549.01	43721.21
549.18	43791.42
549.34	44006.75
549.51	43859.30
549.68	44051.22
549.84	44545.08
550.01	44357.83
550.18	44002.07
550.34	44091.01
550.51	44177.61
550.68	43735.25
550.84	43206.29
551.01	44474.86
551.18	44329.75
551.34	43856.96
551.51	44505.29
551.68	44186.97
551.84	44109.74
552.01	44474.86
552.18	44381.24
552.34	44430.39
552.51	44514.65
552.68	44577.84
552.84	44409.32
553.01	44776.79
553.18	44378.90
553.34	44680.83
553.51	44655.08
553.67	44825.94
553.84	45198.09
554.01	45251.92
554.17	45219.15
554.34	44722.96
554.51	44807.22
554.67	44804.88
554.84	44676.15
555.00	44322.72
555.17	44498.26
555.33	44418.69
555.50	45067.02
555.67	45284.68
555.83	44690.19
556.00	45074.04
556.16	45832.37
556.33	44781.47
556.50	45097.44
556.66	45373.63
556.83	44676.15
556.99	45258.94
557.16	45448.52
557.32	44903.18
557.49	45099.78
557.65	45366.60
557.82	44985.10
557.98	45385.33
558.15	45207.45
558.32	45427.46
558.48	44732.32
558.65	44931.26
558.81	45177.02
558.98	45172.34
559.14	45375.97
559.31	44849.35
559.47	45116.17
559.64	45237.87
559.80	45476.61
559.97	45338.52
560.13	45237.87
560.30	45226.17
560.46	45963.44
560.63	45935.35
560.79	45907.27
560.96	45703.64
561.12	45579.59
561.29	45528.10
561.45	45579.59
561.61	45406.39
561.78	45256.60
561.94	45560.87
562.11	45191.06
562.27	45312.77
562.44	45226.17
562.60	46075.79
562.77	45837.05
562.93	45361.92
563.10	46436.23
563.26	45546.82
563.42	45675.55
563.59	45766.84
563.75	45773.86
563.92	45874.50
564.08	45633.42
564.24	46181.11
564.41	45619.38
564.57	45776.20
564.74	45698.96
564.90	45806.62
565.07	45528.10
565.23	45720.02
565.39	45507.04
565.56	45755.13
565.72	45265.96
565.88	46033.66
566.05	45605.34
566.21	45436.82
566.38	45818.33
566.54	45415.76
566.70	46071.10
566.87	46223.24
567.03	46192.81
567.19	46471.34
567.36	46146.00
567.52	45656.83
567.68	45834.71
567.85	45741.09
568.01	45869.82
568.17	45806.62
568.34	45853.44
568.50	45799.60
568.66	45900.25
568.83	46391.76
568.99	45909.61
569.15	46312.18
569.32	45670.87
569.48	45799.60
569.64	45954.08
569.81	46216.22
569.97	45865.14
570.13	45736.41
570.30	45460.23
570.46	45696.62
570.62	45673.21
570.78	45694.28
570.95	45441.50
571.11	45797.26
571.27	45607.68
571.43	46188.13
571.60	45921.31
571.76	45830.03
571.92	45771.52
572.09	45846.41
572.25	46326.22
572.41	46213.88
572.57	45881.52
572.74	46571.98
572.90	46347.29
573.06	46288.77
573.22	46637.51
573.38	46358.99
573.55	45944.72
573.71	46602.41
573.87	46131.96
574.03	45703.64
574.20	45963.44
574.36	46150.68
574.52	46134.30
574.68	46108.55
574.84	46298.14
575.01	45792.58
575.17	45883.86
575.33	45680.24
575.49	45839.39
575.65	45916.63
575.82	46071.10
575.98	45762.15
576.14	46499.42
576.30	46368.35
576.46	46167.07
576.62	46471.34
576.79	46003.23
576.95	45991.53
577.11	46307.50
577.27	46433.89
577.43	46476.02
577.59	46176.43
577.75	46174.09
577.92	45731.73
578.08	45886.20
578.24	45916.63
578.40	45752.79
578.56	46216.22
578.72	46323.88
578.88	46480.70
579.04	46447.93
579.21	45951.74
579.37	46263.03
579.53	46178.77
579.69	46043.02
579.85	46129.62
580.01	46150.68
580.17	45895.56
580.33	46256.01
580.49	46623.47
580.65	46024.29
580.82	46089.83
580.98	46450.27
581.14	45659.17
581.30	46401.12
581.46	46178.77
581.62	46471.34
581.78	46106.21
581.94	46302.82
582.10	46380.06
582.26	46307.50
582.42	46557.94
582.58	46157.70
582.74	46340.27
582.90	46574.32
583.06	46447.93
583.22	46059.40
583.38	46251.33
583.54	46581.34
583.70	46667.94
583.86	46213.88
584.02	45853.44
584.18	46483.04
584.34	46314.52
584.50	46368.35
584.66	46108.55
584.82	46342.61
584.98	46375.37
585.14	45720.02
585.30	46225.58
585.46	45935.35
585.62	46028.98
585.78	46190.47
585.94	45975.14
586.10	45963.44
586.26	46052.38
586.42	46110.89
586.58	46937.10
586.74	46169.41
586.90	46241.96
587.06	46127.28
587.22	46080.47
587.38	45900.25
587.54	46490.06
587.70	46440.91
587.86	46225.58
588.02	46174.09
588.18	46169.41
588.34	46138.98
588.49	45766.84
588.65	45925.99
588.81	45476.61
588.97	46054.72
589.13	45539.80
589.29	45514.06
589.45	45837.05
589.61	45830.03
589.77	46518.15
589.93	46204.52
