SpectraSuite Data File
++++++++++++++++++++++++++++++++++++
Date: Fri Oct 25 10:47:31 EDT 2013
User: price-jones
Dark Spectrum Present: No
Reference Spectrum Present: No
Number of Sampled Component Spectra: 1
Spectrometers: USB2+H05261
Integration Time (usec): 100000 (USB2+H05261)
Spectra Averaged: 1 (USB2+H05261)
Boxcar Smoothing: 0 (USB2+H05261)
Correct for Electrical Dark: No (USB2+H05261)
Strobe/Lamp Enabled: No (USB2+H05261)
Correct for Detector Non-linearity: No (USB2+H05261)
Correct for Stray Light: No (USB2+H05261)
Number of Pixels in Processed Spectrum: 2048
>>>>>Begin Processed Spectral Data<<<<<
365.73	217.67
365.92	217.67
366.12	217.67
366.32	117.03
366.52	58.51
366.72	77.24
366.91	56.17
367.11	140.43
367.31	70.22
367.51	72.56
367.70	46.81
367.90	74.90
368.10	81.92
368.30	72.56
368.49	102.98
368.69	23.41
368.89	46.81
369.09	145.11
369.28	105.32
369.48	46.81
369.68	37.45
369.87	105.32
370.07	131.07
370.27	138.09
370.47	154.48
370.66	306.61
370.86	351.08
371.06	423.64
371.25	477.47
371.45	404.91
371.65	496.19
371.84	367.46
372.04	472.79
372.24	433.00
372.44	414.27
372.63	514.92
372.83	468.11
373.03	543.00
373.22	393.21
373.42	531.30
373.62	524.28
373.81	496.19
374.01	564.07
374.21	531.30
374.40	531.30
374.60	531.30
374.79	531.30
374.99	606.20
375.19	550.03
375.38	503.22
375.58	606.20
375.78	578.11
375.97	582.79
376.17	624.92
376.37	578.11
376.56	578.11
376.76	540.66
376.95	594.50
377.15	608.54
377.35	582.79
377.54	620.24
377.74	594.50
377.93	638.97
378.13	580.45
378.33	624.92
378.52	592.16
378.72	688.12
378.91	648.33
379.11	655.35
379.31	561.73
379.50	587.47
379.70	699.82
379.89	613.22
380.09	645.99
380.28	631.94
380.48	589.82
380.68	557.05
380.87	634.29
381.07	671.73
381.26	741.95
381.46	557.05
381.65	758.33
381.85	643.65
382.04	678.76
382.24	655.35
382.43	671.73
382.63	650.67
382.83	660.03
383.02	685.78
383.22	709.18
383.41	671.73
383.61	671.73
383.80	741.95
384.00	770.04
384.19	730.25
384.39	741.95
384.58	697.48
384.78	751.31
384.97	791.10
385.17	688.12
385.36	763.01
385.56	760.67
385.75	751.31
385.95	739.61
386.14	795.78
386.34	753.65
386.53	699.82
386.72	706.84
386.92	858.98
387.11	866.00
387.31	793.44
387.50	716.20
387.70	744.29
387.89	758.33
388.09	786.42
388.28	814.51
388.48	795.78
388.67	793.44
388.86	842.59
389.06	763.01
389.25	800.46
389.45	922.17
389.64	947.92
389.84	901.11
390.03	915.15
390.22	947.92
390.42	924.51
390.61	952.60
390.81	861.32
391.00	922.17
391.19	903.45
391.39	990.05
391.58	983.02
391.78	985.37
391.97	919.83
392.16	889.40
392.36	1020.47
392.55	912.81
392.75	842.59
392.94	950.26
393.13	945.58
393.33	1029.84
393.52	964.30
393.71	976.00
393.91	1114.10
394.10	1055.58
394.29	992.39
394.49	943.24
394.68	1001.75
394.88	1071.97
395.07	1128.14
395.26	1036.86
395.46	1064.94
395.65	1086.01
395.84	1074.31
396.04	1153.88
396.23	1086.01
396.42	1067.28
396.62	1170.27
396.81	1083.67
397.00	1123.46
397.19	1095.37
397.39	1172.61
397.58	1247.51
397.77	1219.42
397.97	1252.19
398.16	1284.95
398.35	1268.57
398.55	1273.25
398.74	1296.66
398.93	1240.48
399.12	1273.25
399.32	1259.21
399.51	1371.55
399.70	1376.24
399.90	1273.25
400.09	1329.42
400.28	1458.15
400.47	1387.94
400.67	1373.89
400.86	1338.79
401.05	1476.88
401.24	1392.62
401.44	1530.71
401.63	1394.96
401.82	1411.34
402.01	1444.11
402.21	1523.69
402.40	1542.41
402.59	1465.18
402.78	1465.18
402.97	1418.36
403.17	1483.90
403.36	1476.88
403.55	1483.90
403.74	1631.35
403.93	1537.73
404.13	1551.78
404.32	1572.84
404.51	1549.43
404.70	1657.10
404.89	1577.52
405.09	1636.03
405.28	1657.10
405.47	1767.10
405.66	1743.70
405.85	1743.70
406.05	1743.70
406.24	1682.85
406.43	1722.63
406.62	1834.98
406.81	1834.98
407.00	1799.87
407.20	1790.51
407.39	1694.55
407.58	1830.30
407.77	1888.81
407.96	1942.64
408.15	1884.13
408.34	1884.13
408.54	1975.41
408.73	1860.73
408.92	1893.49
409.11	1984.77
409.30	1996.48
409.49	1905.20
409.68	2104.14
409.87	2019.88
410.07	2015.20
410.26	1982.43
410.45	2024.56
410.64	2008.18
410.83	2160.31
411.02	2047.97
411.21	2209.47
411.40	2223.51
411.59	2118.18
411.78	2150.95
411.98	2204.78
412.17	2190.74
412.36	2218.83
412.55	2354.58
412.74	2382.67
412.93	2251.60
413.12	2359.26
413.31	2492.67
413.50	2420.11
413.69	2326.49
413.88	2553.52
414.07	2495.01
414.26	2476.29
414.45	2509.05
414.64	2534.80
414.83	2595.65
415.02	2689.28
415.22	2745.45
415.41	2675.23
415.60	2743.11
415.79	2675.23
415.98	2841.41
416.17	2715.02
416.36	2712.68
416.55	2839.07
416.74	2857.79
416.93	2853.11
417.12	2836.73
417.31	2986.52
417.50	2848.43
417.69	2953.76
417.88	3026.31
418.07	3005.25
418.26	3014.61
418.45	2895.24
418.64	3141.00
418.83	3096.53
419.02	3005.25
419.21	3122.27
419.39	3112.91
419.58	3059.08
419.77	3206.53
419.96	3094.19
420.15	3225.26
420.34	3222.92
420.53	3194.83
420.72	3304.84
420.91	3276.75
421.10	3258.03
421.29	3232.28
421.48	3211.22
421.67	3346.97
421.86	3328.24
422.05	3344.63
422.24	3293.13
422.43	3255.69
422.61	3363.35
422.80	3386.76
422.99	3468.67
423.18	3396.12
423.37	3489.74
423.56	3398.46
423.75	3510.80
423.94	3234.62
424.13	3159.72
424.32	3356.33
424.50	3400.80
424.69	3545.91
424.88	3597.40
425.07	3407.82
425.26	3365.69
425.45	3353.99
425.64	3473.36
425.83	3419.52
426.01	3616.13
426.20	3529.53
426.39	3522.51
426.58	3431.23
426.77	3431.23
426.96	3604.42
427.15	3480.38
427.33	3569.32
427.52	3466.33
427.71	3611.45
427.90	3726.13
428.09	3595.06
428.28	3609.11
428.46	3693.37
428.65	3695.71
428.84	3728.47
429.03	3751.88
429.22	3651.24
429.40	3698.05
429.59	3529.53
429.78	3613.79
429.97	3501.44
430.16	3641.87
430.34	3742.52
430.53	3880.61
430.72	3880.61
430.91	3733.15
431.10	3789.33
431.28	3852.52
431.47	4032.74
431.66	4009.34
431.85	3999.98
432.03	3981.25
432.22	4175.52
432.41	4004.66
432.60	3981.25
432.79	4117.00
432.97	4229.35
433.16	4161.47
433.35	4044.45
433.54	4119.34
433.72	4098.28
433.91	4264.46
434.10	4278.50
434.28	4311.27
434.47	4292.54
434.66	4290.20
434.85	4344.03
435.03	4407.23
435.22	4395.53
435.41	4449.36
435.59	4449.36
435.78	4470.42
435.97	4411.91
436.16	4585.11
436.34	4510.21
436.53	4435.32
436.72	4465.74
436.90	4437.66
437.09	4540.64
437.28	4519.57
437.46	4531.28
437.65	4601.49
437.84	4603.83
438.02	4641.28
438.21	4683.41
438.40	4477.44
438.58	4760.65
438.77	4772.35
438.96	4723.20
439.14	4809.80
439.33	4903.42
439.52	4889.38
439.70	4863.63
439.89	5100.03
440.08	4999.38
440.26	4954.91
440.45	4978.32
440.63	5153.86
440.82	5074.28
441.01	5298.97
441.19	5139.82
441.38	5303.65
441.57	5247.48
441.75	5350.46
441.94	5476.85
442.12	5472.17
442.31	5502.60
442.50	5504.94
442.68	5434.72
442.87	5376.21
443.05	5511.96
443.24	5645.37
443.43	5605.58
443.61	5673.46
443.80	5783.46
443.98	5528.35
444.17	5537.71
444.35	5617.29
444.54	5746.02
444.73	5591.54
444.91	5586.86
445.10	5762.40
445.28	5654.73
445.47	5577.50
445.65	5724.95
445.84	5888.79
446.02	5757.72
446.21	5724.95
446.39	5783.46
446.58	5738.99
446.77	5827.93
446.95	5706.23
447.14	5743.67
447.32	5891.13
447.51	5907.51
447.69	5769.42
447.88	5909.85
448.06	5916.87
448.25	5874.74
448.43	6022.20
448.62	5916.87
448.80	5926.24
448.99	6054.97
449.17	6094.76
449.36	5966.03
449.54	5891.13
449.73	6047.94
449.91	6129.86
450.10	6129.86
450.28	6225.82
450.46	6319.45
450.65	6115.82
450.83	6349.87
451.02	6134.54
451.20	6352.21
451.39	6361.58
451.57	6176.67
451.76	6214.12
451.94	6174.33
452.13	6335.83
452.31	6277.32
452.49	6218.80
452.68	6305.40
452.86	6251.57
453.05	6607.33
453.23	6377.96
453.42	6399.02
453.60	6429.45
453.78	6562.86
453.97	6415.41
454.15	6431.79
454.34	6361.58
454.52	6593.29
454.70	6740.74
454.89	6661.16
455.07	6696.27
455.26	6885.86
455.44	6822.66
455.62	6677.55
455.81	6855.43
455.99	6722.02
456.17	6778.19
456.36	6942.03
456.54	6956.07
456.73	6965.43
456.91	7059.06
457.09	7173.74
457.28	7265.02
457.46	6995.86
457.64	7192.47
457.83	7059.06
458.01	7180.76
458.19	7248.64
458.38	7180.76
458.56	7311.83
458.74	7344.60
458.93	7248.64
459.11	7206.51
459.29	7250.98
459.48	7405.46
459.66	7360.98
459.84	7300.13
460.03	7604.40
460.21	7447.58
460.39	7520.14
460.57	7552.91
460.76	7384.39
460.94	7639.51
461.12	7470.99
461.31	7583.34
461.49	7501.42
461.67	7618.44
461.85	7826.75
462.04	7665.25
462.22	8400.18
462.40	7901.65
462.59	8018.68
462.77	7772.92
462.95	7880.58
463.13	7747.17
463.32	7770.58
463.50	7873.56
463.68	7960.16
463.86	7953.14
464.05	7936.76
464.23	7906.33
464.41	8084.21
464.59	7981.23
464.78	8168.47
464.96	7981.23
465.14	8018.68
465.32	8124.00
465.50	8161.45
465.69	8149.75
465.87	8119.32
466.05	8222.30
466.23	8234.00
466.41	8112.30
466.60	8322.94
466.78	7934.42
466.96	8116.98
467.14	8355.71
467.32	8390.82
467.51	8269.11
467.69	8116.98
467.87	8414.23
468.05	8575.72
468.23	8379.12
468.41	8416.57
468.60	8608.49
468.78	8748.92
468.96	8449.33
469.14	8435.29
469.32	8475.08
469.50	8465.72
469.69	8706.79
469.87	8629.56
470.05	8737.22
470.23	8578.06
470.41	8716.16
470.59	8788.71
470.77	8795.73
470.95	8947.87
471.14	9036.81
471.32	8781.69
471.50	8971.27
471.68	8816.80
471.86	8926.80
472.04	9092.98
472.22	9444.06
472.40	8961.91
472.58	9284.91
472.77	9266.18
472.95	9420.66
473.13	9628.96
473.31	9331.72
473.49	9327.03
473.67	9708.54
473.85	9645.35
474.03	9635.99
474.21	9647.69
474.39	9816.21
474.57	9858.34
474.75	9806.84
474.93	10073.67
475.12	9724.93
475.30	10005.79
475.48	9991.75
475.66	10026.86
475.84	9888.76
476.02	10115.80
476.20	10040.90
476.38	10335.81
476.56	10574.54
476.74	10551.14
476.92	10551.14
477.10	10310.06
477.28	10801.57
477.46	10640.08
477.64	10991.16
477.82	10892.85
478.00	11157.33
478.18	11119.89
478.36	11138.61
478.54	11318.83
478.72	11250.96
478.90	11246.27
479.08	11461.60
479.26	11580.97
479.44	11700.34
479.62	11517.78
479.80	11826.73
479.98	11906.31
480.16	12030.35
480.34	11918.01
480.52	12245.68
480.70	12163.76
480.88	12128.66
481.06	12210.57
481.24	12276.11
481.41	12475.06
481.59	12636.55
481.77	12758.26
481.95	12828.48
482.13	12772.30
482.31	12917.42
482.49	13128.06
482.67	13121.04
482.85	13523.62
483.03	13500.21
483.21	13844.27
483.39	13853.63
483.57	13851.29
483.74	13921.51
483.92	13884.06
484.10	13942.57
484.28	14132.15
484.46	14272.59
484.64	14747.72
484.82	14310.04
485.00	14361.53
485.18	14572.18
485.35	14822.61
485.53	14743.03
485.71	14860.06
485.89	15281.36
486.07	15115.18
486.25	15145.61
486.43	15243.91
486.61	15405.41
486.78	15449.88
486.96	15960.11
487.14	15833.72
487.32	15999.90
487.50	15852.45
487.68	16346.30
487.85	16538.23
488.03	16739.51
488.21	16669.30
488.39	16566.31
488.57	16849.52
488.75	17018.04
488.92	17411.25
489.10	17039.10
489.28	17406.56
489.46	17696.79
489.64	17270.81
489.81	17792.75
489.99	18015.10
490.17	18291.29
490.35	18270.22
490.53	18218.73
490.70	18499.59
490.88	18567.47
491.06	18628.32
491.24	18340.44
491.41	18691.52
491.59	18801.52
491.77	18731.31
491.95	19140.90
492.13	19309.42
492.30	19365.59
492.48	19463.90
492.66	19548.15
492.84	19681.56
493.01	19826.68
493.19	19637.09
493.37	20135.63
493.54	20046.69
493.72	20182.44
493.90	20589.69
494.08	20706.72
494.25	20863.54
494.43	20727.78
494.61	21020.35
494.79	21268.45
494.96	20886.94
495.14	20992.26
495.32	21207.59
495.49	21338.66
495.67	21270.79
495.85	22068.91
496.02	21755.28
496.20	21986.99
496.38	21774.00
496.55	21991.67
496.73	22565.10
496.91	22176.58
497.09	22511.27
497.26	22485.53
497.44	22616.60
497.62	22583.83
497.79	22890.44
497.97	23035.55
498.14	23101.09
498.32	23194.71
498.50	23288.33
498.67	23679.20
498.85	23580.90
499.03	23702.61
499.20	23810.27
499.38	23831.33
499.56	23962.40
499.73	23894.53
499.91	23934.32
500.08	24154.33
500.26	23988.15
500.44	24261.99
500.61	24187.10
500.79	24168.37
500.97	24442.21
501.14	24802.66
501.32	24636.48
501.49	25034.37
501.67	24783.93
501.84	24929.05
502.02	25104.59
502.20	25050.75
502.37	25436.94
502.55	25238.00
502.72	25392.47
502.90	25387.79
503.07	25355.02
503.25	25338.64
503.43	25551.63
503.60	25841.85
503.78	25568.01
503.95	25799.73
504.13	25970.58
504.30	25853.56
504.48	26122.72
504.65	26431.67
504.83	26375.50
505.01	26293.58
505.18	26714.87
505.36	26630.62
505.53	26775.73
505.71	27143.19
505.88	26918.50
506.06	26478.48
506.23	26778.07
506.41	26787.43
506.58	27054.25
506.76	27082.34
506.93	27314.05
507.11	27042.55
507.28	27309.37
507.46	27087.02
507.63	27140.85
507.81	27728.33
507.98	27826.63
508.16	27843.01
508.33	27669.81
508.50	27796.20
508.68	28004.51
508.85	28432.83
509.03	28393.04
509.20	28208.14
509.38	28519.43
509.55	28924.34
509.73	28631.77
509.90	28662.20
510.08	28535.81
510.25	28952.43
510.42	28730.08
510.60	29144.35
510.77	28659.86
510.95	29289.46
511.12	29167.76
511.30	29163.08
511.47	29362.02
511.64	29825.45
511.82	29593.73
511.99	29216.91
512.17	29862.90
512.34	29647.57
512.51	29963.54
512.69	29853.53
512.86	29872.26
513.04	30293.55
513.21	30265.47
513.38	30293.55
513.56	30120.35
513.73	30120.35
513.90	30115.67
514.08	30230.36
514.25	30513.56
514.43	30754.64
514.60	30621.23
514.77	30625.91
514.95	30740.60
515.12	30522.93
515.29	31047.21
515.47	30974.65
515.64	30995.71
515.81	30773.36
515.99	31159.55
516.16	31449.78
516.33	31227.43
516.51	31529.36
516.68	31421.69
516.85	31152.53
517.03	31484.89
517.20	31438.08
517.37	31662.77
517.54	31484.89
517.72	31789.16
517.89	31557.44
518.06	31630.00
518.24	31709.58
518.41	31857.03
518.58	31842.99
518.75	32109.81
518.93	32297.05
519.10	32048.96
519.27	32486.64
519.45	32414.08
519.62	32474.93
519.79	32737.07
519.96	32748.78
520.14	32837.72
520.31	32730.05
520.48	32428.12
520.65	32774.52
520.83	33146.67
521.00	33228.59
521.17	33324.55
521.34	33366.68
521.52	33326.89
521.69	33420.51
521.86	33310.50
522.03	33432.21
522.20	33689.67
522.38	33865.21
522.55	33696.69
522.72	34038.41
522.89	34003.30
523.07	34134.37
523.24	33701.37
523.41	33902.66
523.58	33745.84
523.75	34660.99
523.92	34321.62
524.10	33848.83
524.27	34326.30
524.44	34387.15
524.61	34878.66
524.78	34848.24
524.96	34558.01
525.13	34410.56
525.30	34768.66
525.47	34934.84
525.64	34677.38
525.81	35096.33
525.98	35051.86
526.16	34583.76
526.33	34691.42
526.50	35180.59
526.67	34906.75
526.84	34817.81
527.01	34590.78
527.18	35360.81
527.36	35316.34
527.53	35868.71
527.70	36130.85
527.87	35674.45
528.04	35627.63
528.21	35845.30
528.38	35459.12
528.55	35892.12
528.72	36149.57
528.89	36264.26
529.07	35608.91
529.24	35887.43
529.41	36081.70
529.58	36400.01
529.75	35976.37
529.92	36435.12
530.09	36062.97
530.26	36048.93
530.43	36596.62
530.60	36273.62
530.77	36278.30
530.94	36217.45
531.11	36587.25
531.28	36292.35
531.46	36631.72
531.63	36879.82
531.80	36259.58
531.97	36371.92
532.14	37008.55
532.31	36687.90
532.48	37167.71
532.65	37261.33
532.82	36582.57
532.99	37125.58
533.16	36971.10
533.33	37195.79
533.50	37188.77
533.67	37392.40
533.84	37305.80
534.01	37429.85
534.18	37212.18
534.35	37528.15
534.52	37598.37
534.69	37612.41
534.86	37586.66
535.03	37027.28
535.20	38029.02
535.37	37984.55
535.54	38167.12
535.71	37907.32
535.88	38298.19
536.05	37427.51
536.22	37954.13
536.38	37954.13
536.55	37902.64
536.72	38036.05
536.89	38192.86
537.06	38345.00
537.23	38129.67
537.40	38096.90
537.57	38513.52
537.74	38433.94
537.91	38792.04
538.08	38981.62
538.25	38120.31
538.42	38347.34
538.59	38735.87
538.75	38466.70
538.92	38637.56
539.09	38817.78
539.26	38831.83
539.43	38632.88
539.60	38913.75
539.77	38527.56
539.94	39306.96
540.11	38808.42
540.28	39463.77
540.44	38703.10
540.61	38925.45
540.78	39143.12
540.95	39019.07
541.12	39299.94
541.29	38986.30
541.46	39423.98
541.62	39124.40
541.79	39543.35
541.96	39379.51
542.13	39384.19
542.30	39597.18
542.47	39306.96
542.63	39618.25
542.80	39358.45
542.97	40252.53
543.14	40048.91
543.31	40076.99
543.48	40119.12
543.64	40208.06
543.81	40271.26
543.98	40453.82
544.15	40189.34
544.32	40605.95
544.48	40734.68
544.65	40219.77
544.82	40385.94
544.99	39845.28
545.16	40367.22
545.32	40388.28
545.49	40449.14
545.66	40528.72
545.83	40598.93
546.00	40418.71
546.16	40650.42
546.33	40926.61
546.50	40219.77
546.67	40753.41
546.83	39868.69
547.00	40879.80
547.17	40807.24
547.34	40554.46
547.50	40769.79
547.67	41146.62
547.84	41045.97
548.00	40938.31
548.17	41120.87
548.34	41006.19
548.51	41574.94
548.67	41036.61
548.84	41214.49
549.01	41326.84
549.18	41315.14
549.34	41504.72
549.51	41743.45
549.68	41727.07
549.84	41352.58
550.01	41598.34
550.18	41273.01
550.34	41315.14
550.51	40999.16
550.68	41392.37
550.84	41055.34
551.01	41546.85
551.18	41654.51
551.34	41486.00
551.51	41504.72
551.68	41523.44
551.84	41881.55
552.01	41518.76
552.18	42113.26
552.34	41261.30
552.51	42000.91
552.68	42064.11
552.84	42026.66
553.01	42246.67
553.18	42014.96
553.34	41947.08
553.51	41846.44
553.67	41806.65
553.84	42171.77
554.01	42195.18
554.17	42527.53
554.34	42726.48
554.51	42412.85
554.67	42005.59
554.84	42270.08
555.00	42230.29
555.17	41991.55
555.33	42405.83
555.50	42459.66
555.67	42148.37
555.83	42408.17
556.00	42588.39
556.16	42937.13
556.33	42665.63
556.50	42445.62
556.66	42621.16
556.83	42216.24
556.99	42682.01
557.16	42817.76
557.32	42710.10
557.49	42799.04
557.65	42679.67
557.82	42452.64
557.98	42728.82
558.15	42513.49
558.32	42806.06
558.48	43049.47
558.65	42909.04
558.81	42443.27
558.98	42939.47
559.14	42969.90
559.31	42843.51
559.47	42986.28
559.64	43051.81
559.80	42920.74
559.97	43026.07
560.13	42789.67
560.30	42944.15
560.46	42972.24
560.63	43208.63
560.79	43501.20
560.96	43201.61
561.12	43068.20
561.29	43473.11
561.45	43140.75
561.61	42829.46
561.78	43365.45
561.94	42703.07
562.11	43220.33
562.27	42969.90
562.44	43559.71
562.60	43669.72
562.77	43571.41
562.93	43384.17
563.10	43533.96
563.26	43098.62
563.42	43290.55
563.59	43185.22
563.75	43323.32
563.92	43438.00
564.08	43718.87
564.24	43519.92
564.41	43634.61
564.57	43571.41
564.74	43505.88
564.90	43667.37
565.07	43426.30
565.23	43681.42
565.39	43798.44
565.56	43770.36
565.72	43203.95
565.88	43641.63
566.05	43185.22
566.21	43386.51
566.38	43768.02
566.54	43721.21
566.70	43248.42
566.87	44027.82
567.03	43543.33
567.19	43646.31
567.36	43889.73
567.52	43735.25
567.68	44053.56
567.85	43599.50
568.01	43716.53
568.17	43557.37
568.34	43875.68
568.50	43592.48
568.66	43384.17
568.83	43672.06
568.99	43742.27
569.15	44016.11
569.32	43667.37
569.48	43622.90
569.64	44254.85
569.81	44519.33
569.97	43749.29
570.13	43672.06
570.30	43681.42
570.46	43295.23
570.62	43718.87
570.78	43271.82
570.95	43555.03
571.11	44065.27
571.27	43892.07
571.43	43803.13
571.60	44095.69
571.76	43985.69
571.92	43849.94
572.09	43618.22
572.25	44060.58
572.41	43992.71
572.57	44055.90
572.74	44018.46
572.90	44013.77
573.06	43838.23
573.22	44486.56
573.38	43648.65
573.55	43903.77
573.71	43681.42
573.87	44126.12
574.03	43959.94
574.20	44142.50
574.36	44184.63
574.52	44266.55
574.68	44292.30
574.84	44093.35
575.01	43887.39
575.17	44465.50
575.33	43990.37
575.49	43615.88
575.65	44172.93
575.82	44540.39
575.98	44240.81
576.14	44603.59
576.30	44481.88
576.46	43770.36
576.62	44126.12
576.79	44378.90
576.95	43955.26
577.11	44172.93
577.27	44093.35
577.43	44498.26
577.59	44275.91
577.75	43800.79
577.92	43910.79
578.08	43784.40
578.24	44100.37
578.40	43896.75
578.56	44285.28
578.72	44243.15
578.88	44636.36
579.04	44091.01
579.21	44055.90
579.37	44032.50
579.53	43878.02
579.69	44201.02
579.85	44322.72
580.01	43831.21
580.17	44088.67
580.33	44521.67
580.49	44657.42
580.65	44034.84
580.82	44364.85
580.98	44144.84
581.14	43833.55
581.30	44481.88
581.46	44119.10
581.62	44304.00
581.78	44191.65
581.94	44472.52
582.10	44566.14
582.26	44626.99
582.42	44521.67
582.58	44442.09
582.74	44430.39
582.90	44280.60
583.06	44453.79
583.22	44381.24
583.38	44414.01
583.54	44278.25
583.70	44189.31
583.86	43976.33
584.02	44081.65
584.18	44500.61
584.34	44046.54
584.50	44563.80
584.66	44252.51
584.82	44046.54
584.98	44451.45
585.14	44357.83
585.30	44074.63
585.46	44210.38
585.62	44123.78
585.78	43981.01
585.94	43805.47
586.10	44154.21
586.26	44346.13
586.42	44116.76
586.58	44498.26
586.74	44184.63
586.90	44322.72
587.06	44222.08
587.22	44362.51
587.38	44254.85
587.54	44493.58
587.70	44460.82
587.86	44172.93
588.02	44488.90
588.18	44414.01
588.34	44657.42
588.49	44367.20
588.65	43746.95
588.81	44486.56
588.97	44474.86
589.13	44463.16
589.29	44369.54
589.45	44612.95
589.61	44362.51
589.77	44786.15
589.93	44156.55
590.08	44304.00
590.24	44645.72
