SpectraSuite Data File
++++++++++++++++++++++++++++++++++++
Date: Fri Oct 25 10:48:25 EDT 2013
User: price-jones
Dark Spectrum Present: No
Reference Spectrum Present: No
Number of Sampled Component Spectra: 1
Spectrometers: USB2+H05261
Integration Time (usec): 100000 (USB2+H05261)
Spectra Averaged: 1 (USB2+H05261)
Boxcar Smoothing: 0 (USB2+H05261)
Correct for Electrical Dark: No (USB2+H05261)
Strobe/Lamp Enabled: No (USB2+H05261)
Correct for Detector Non-linearity: No (USB2+H05261)
Correct for Stray Light: No (USB2+H05261)
Number of Pixels in Processed Spectrum: 2048
>>>>>Begin Processed Spectral Data<<<<<
365.73	149.79
365.92	149.79
366.12	149.79
366.32	58.51
366.52	28.09
366.72	39.79
366.91	0.00
367.11	9.36
367.31	16.38
367.51	18.72
367.70	74.90
367.90	25.75
368.10	100.64
368.30	60.85
368.49	0.00
368.69	63.19
368.89	32.77
369.09	9.36
369.28	21.06
369.48	37.45
369.68	98.30
369.87	91.28
370.07	49.15
370.27	67.88
370.47	236.39
370.66	510.24
370.86	404.91
371.06	458.74
371.25	524.28
371.45	472.79
371.65	484.49
371.84	498.53
372.04	451.72
372.24	498.53
372.44	454.06
372.63	517.26
372.83	521.94
373.03	554.71
373.22	514.92
373.42	528.96
373.62	585.13
373.81	566.41
374.01	603.86
374.21	559.39
374.40	531.30
374.60	592.16
374.79	582.79
374.99	566.41
375.19	627.26
375.38	617.90
375.58	608.54
375.78	596.84
375.97	566.41
376.17	688.12
376.37	615.56
376.56	674.07
376.76	645.99
376.95	603.86
377.15	678.76
377.35	676.41
377.54	627.26
377.74	709.18
377.93	587.47
378.13	622.58
378.33	706.84
378.52	655.35
378.72	671.73
378.91	699.82
379.11	580.45
379.31	697.48
379.50	617.90
379.70	638.97
379.89	645.99
380.09	760.67
380.28	648.33
380.48	709.18
380.68	629.60
380.87	608.54
381.07	685.78
381.26	732.59
381.46	683.44
381.65	716.20
381.85	599.18
382.04	688.12
382.24	688.12
382.43	732.59
382.63	739.61
382.83	744.29
383.02	770.04
383.22	786.42
383.41	755.99
383.61	798.12
383.80	830.89
384.00	830.89
384.19	828.55
384.39	744.29
384.58	772.38
384.78	880.04
384.97	826.21
385.17	821.53
385.36	795.78
385.56	765.36
385.75	737.27
385.95	849.61
386.14	840.25
386.34	772.38
386.53	830.89
386.72	915.15
386.92	812.17
387.11	858.98
387.31	868.34
387.50	786.42
387.70	894.08
387.89	898.77
388.09	842.59
388.28	835.57
388.48	889.40
388.67	964.30
388.86	940.90
389.06	954.94
389.25	966.64
389.45	945.58
389.64	926.85
389.84	1006.43
390.03	1029.84
390.22	992.39
390.42	933.87
390.61	945.58
390.81	959.62
391.00	1018.13
391.19	1057.92
391.39	1043.88
391.58	1160.91
391.78	926.85
391.97	1001.75
392.16	987.71
392.36	1041.54
392.55	1036.86
392.75	994.73
392.94	1041.54
393.13	997.07
393.33	1043.88
393.52	1102.39
393.71	1123.46
393.91	1039.20
394.10	1139.84
394.29	1097.71
394.49	1170.27
394.68	1219.42
394.88	1172.61
395.07	1233.46
395.26	1036.86
395.46	1268.57
395.65	1352.83
395.84	1116.44
396.04	1193.67
396.23	1233.46
396.42	1170.27
396.62	1107.07
396.81	1160.91
397.00	1207.72
397.19	1252.19
397.39	1210.06
397.58	1291.98
397.77	1299.00
397.97	1282.61
398.16	1294.32
398.35	1411.34
398.55	1355.17
398.74	1427.73
398.93	1439.43
399.12	1427.73
399.32	1467.52
399.51	1420.71
399.70	1418.36
399.90	1465.18
400.09	1528.37
400.28	1544.75
400.47	1507.30
400.67	1561.14
400.86	1582.20
401.05	1572.84
401.24	1584.54
401.44	1589.22
401.63	1657.10
401.82	1652.42
402.01	1680.50
402.21	1706.25
402.40	1666.46
402.59	1612.63
402.78	1617.31
402.97	1624.33
403.17	1748.38
403.36	1675.82
403.55	1795.19
403.74	1750.72
403.93	1764.76
404.13	1748.38
404.32	1804.55
404.51	1792.85
404.70	1881.79
404.89	1813.92
405.09	1842.00
405.28	1891.15
405.47	1820.94
405.66	1825.62
405.85	1891.15
406.05	1849.02
406.24	1975.41
406.43	1919.24
406.62	2054.99
406.81	2122.87
407.00	1989.46
407.20	2045.63
407.39	1977.75
407.58	1996.48
407.77	2108.82
407.96	2038.61
408.15	2059.67
408.34	2120.53
408.54	2272.66
408.73	2153.29
408.92	2195.42
409.11	2190.74
409.30	2202.44
409.49	2122.87
409.68	2169.68
409.87	2230.53
410.07	2246.91
410.26	2289.04
410.45	2331.17
410.64	2434.16
410.83	2427.14
411.02	2499.69
411.21	2417.77
411.40	2420.11
411.59	2495.01
411.78	2464.58
411.98	2513.74
412.17	2628.42
412.36	2527.78
412.55	2434.16
412.74	2761.83
412.93	2560.55
413.12	2558.21
413.31	2813.32
413.50	2724.38
413.69	2850.77
413.88	2736.09
414.07	2766.51
414.26	2836.73
414.45	2888.22
414.64	2904.60
414.83	2946.73
415.02	2904.60
415.22	2944.39
415.41	3033.33
415.60	2970.14
415.79	3045.04
415.98	3124.62
416.17	3162.06
416.36	3112.91
416.55	3232.28
416.74	3068.44
416.93	3187.81
417.12	3166.74
417.31	3204.19
417.50	3229.94
417.69	3211.22
417.88	3253.34
418.07	3239.30
418.26	3276.75
418.45	3276.75
418.64	3421.86
418.83	3438.25
419.02	3375.05
419.21	3506.12
419.39	3433.57
419.58	3445.27
419.77	3344.63
419.96	3524.85
420.15	3698.05
420.34	3597.40
420.53	3590.38
420.72	3665.28
420.91	3712.09
421.10	3604.42
421.29	3632.51
421.48	3613.79
421.67	3667.62
421.86	3686.34
422.05	3639.53
422.24	3510.80
422.43	3660.60
422.61	3723.79
422.80	3742.52
422.99	3775.28
423.18	3880.61
423.37	3826.78
423.56	3969.55
423.75	3845.50
423.94	3843.16
424.13	3442.93
424.32	3801.03
424.50	3833.80
424.69	3789.33
424.88	3925.08
425.07	3765.92
425.26	3831.46
425.45	3784.65
425.64	3861.88
425.83	3789.33
426.01	3882.95
426.20	3915.72
426.39	3932.10
426.58	3751.88
426.77	3606.77
426.96	3812.73
427.15	3840.82
427.33	3920.40
427.52	3995.29
427.71	3925.08
427.90	4037.42
428.09	4121.68
428.28	3990.61
428.46	4149.77
428.65	3981.25
428.84	4245.73
429.03	4142.75
429.22	3997.64
429.40	4161.47
429.59	3967.21
429.78	3735.50
429.97	3906.35
430.16	4030.40
430.34	3934.44
430.53	4145.09
430.72	4135.73
430.91	4079.55
431.10	4173.18
431.28	4393.19
431.47	4320.63
431.66	4603.83
431.85	4465.74
432.03	4519.57
432.22	4568.73
432.41	4435.32
432.60	4615.54
432.79	4468.08
432.97	4552.34
433.16	4571.07
433.35	4428.29
433.54	4540.64
433.72	4634.26
433.91	4540.64
434.10	4599.15
434.28	4634.26
434.47	4821.50
434.66	4732.56
434.85	4723.20
435.03	4741.93
435.22	4688.09
435.41	4910.44
435.59	4830.87
435.78	4945.55
435.97	5057.90
436.16	4851.93
436.34	4922.15
436.53	4938.53
436.72	5083.64
436.90	5048.54
437.09	5137.48
437.28	4966.62
437.46	5034.49
437.65	4966.62
437.84	5025.13
438.02	5137.48
438.21	4957.25
438.40	4903.42
438.58	5177.26
438.77	5280.25
438.96	5331.74
439.14	5458.13
439.33	5334.08
439.52	5579.84
439.70	5462.81
439.89	5331.74
440.08	5509.62
440.26	5509.62
440.45	5720.27
440.63	5696.86
440.82	5734.31
441.01	5647.71
441.19	5757.72
441.38	5844.32
441.57	5727.29
441.75	5888.79
441.94	6127.52
442.12	5961.34
442.31	6141.57
442.50	6071.35
442.68	5994.11
442.87	6040.92
443.05	6036.24
443.24	6256.25
443.43	6169.65
443.61	6260.93
443.80	6164.97
443.98	6202.42
444.17	6008.16
444.35	6328.81
444.54	6480.94
444.73	6296.04
444.91	6359.24
445.10	6274.98
445.28	6207.10
445.47	6076.03
445.65	6139.23
445.84	6487.96
446.02	6471.58
446.21	6244.55
446.39	6422.43
446.58	6354.55
446.77	6534.78
446.95	6289.02
447.14	6380.30
447.32	6480.94
447.51	6354.55
447.69	6399.02
447.88	6555.84
448.06	6628.40
448.25	6502.01
448.43	6509.03
448.62	6520.73
448.80	6518.39
448.99	6553.50
449.17	6719.68
449.36	6640.10
449.54	6743.08
449.73	6799.26
449.91	6813.30
450.10	6745.42
450.28	7075.44
450.46	6839.05
450.65	7052.03
450.83	7075.44
451.02	6766.49
451.20	6897.56
451.39	7173.74
451.57	6918.62
451.76	6946.71
451.94	6937.35
452.13	7047.35
452.31	6942.03
452.49	6874.15
452.68	7117.57
452.86	6885.86
453.05	7171.40
453.23	7250.98
453.42	6991.18
453.60	7073.10
453.78	7222.89
453.97	7155.02
454.15	7173.74
454.34	6988.84
454.52	7417.16
454.70	7267.36
454.89	7459.29
455.07	7220.55
455.26	7337.58
455.44	7442.90
455.62	7557.59
455.81	7410.14
455.99	7470.99
456.17	7480.35
456.36	7646.53
456.54	7569.29
456.73	7683.98
456.91	7728.45
457.09	7850.16
457.28	8060.80
457.46	7882.92
457.64	7770.58
457.83	7899.31
458.01	7693.34
458.19	8006.97
458.38	7733.13
458.56	8025.70
458.74	8147.40
458.93	7892.29
459.11	7864.20
459.29	8021.02
459.48	7918.03
459.66	8023.36
459.84	8222.30
460.03	8147.40
460.21	8290.18
460.39	8479.76
460.57	8358.05
460.76	8226.98
460.94	8278.47
461.12	8336.99
461.31	8336.99
461.49	8248.05
461.67	8339.33
461.85	8486.78
462.04	8388.48
462.22	8908.08
462.40	8643.60
462.59	8559.34
462.77	8685.73
462.95	8943.19
463.13	8723.18
463.32	8524.23
463.50	8685.73
463.68	8648.28
463.86	8603.81
464.05	8629.56
464.23	8622.53
464.41	8795.73
464.59	8554.66
464.78	8915.10
464.96	8692.75
465.14	8631.90
465.32	8903.40
465.50	8908.08
465.69	8936.17
465.87	8933.82
466.05	8910.42
466.23	8879.99
466.41	8929.14
466.60	8903.40
466.78	8777.01
466.96	9055.53
467.14	8877.65
467.32	9287.25
467.51	9397.25
467.69	9006.38
467.87	9160.86
468.05	9401.93
468.23	9048.51
468.41	9055.53
468.60	9291.93
468.78	9275.54
468.96	8982.98
469.14	9427.68
469.32	9525.98
469.50	9057.87
469.69	9420.66
469.87	9425.34
470.05	9600.88
470.23	9404.27
470.41	9502.58
470.59	9547.05
470.77	9635.99
470.95	9788.12
471.14	9884.08
471.32	9657.05
471.50	9900.47
471.68	9902.81
471.86	9858.34
472.04	10132.18
472.22	10274.95
472.40	9923.87
472.58	9987.07
472.77	10359.21
472.95	10408.36
473.13	10516.03
473.31	10171.97
473.49	10090.05
473.67	10380.28
473.85	10305.38
474.03	10841.36
474.21	10675.18
474.39	10670.50
474.57	10897.53
474.75	10824.98
474.93	10970.09
475.12	10876.47
475.30	11040.31
475.48	10862.43
475.66	11253.30
475.84	10848.38
476.02	11204.14
476.20	11068.39
476.38	11407.77
476.56	11463.94
476.74	11412.45
476.92	11393.73
477.10	11356.28
477.28	11625.44
477.46	11531.82
477.64	11761.19
477.82	11817.36
478.00	12280.79
478.18	12269.09
478.36	12016.31
478.54	12327.60
478.72	12269.09
478.90	12367.39
479.08	12608.47
479.26	12739.54
479.44	12666.98
479.62	12954.87
479.80	12769.96
479.98	13008.70
480.16	13043.81
480.34	13167.85
480.52	13380.84
480.70	13238.07
480.88	13259.13
481.06	13542.34
481.24	13701.50
481.41	13673.41
481.59	13968.32
481.77	14061.94
481.95	13947.25
482.13	14015.13
482.31	14050.24
482.49	14403.66
482.67	14499.62
482.85	14590.90
483.03	14607.28
483.21	14867.08
483.39	14862.40
483.57	14890.49
483.74	15154.97
483.92	15066.03
484.10	15232.21
484.28	15564.56
484.46	15672.23
484.64	15852.45
484.82	15726.06
485.00	15782.23
485.18	16074.80
485.35	16255.02
485.53	15672.23
485.71	15838.41
485.89	16343.96
486.07	16091.18
486.25	16325.24
486.43	16381.41
486.61	16601.42
486.78	16751.21
486.96	16996.97
487.14	17350.39
487.32	17355.07
487.50	17586.79
487.68	17617.21
487.85	17980.00
488.03	18113.41
488.21	18305.33
488.39	18040.85
488.57	18223.41
488.75	18396.61
488.92	18401.29
489.10	18752.37
489.28	18817.91
489.46	19119.84
489.64	18998.13
489.81	19536.45
489.99	19627.73
490.17	19585.60
490.35	19681.56
490.53	19754.12
490.70	19791.57
490.88	20081.80
491.06	20095.84
491.24	20086.48
491.41	20437.56
491.59	20475.01
491.77	20322.87
491.95	20739.49
492.13	20908.01
492.30	20786.30
492.48	21064.82
492.66	21153.76
492.84	21355.05
493.01	21411.22
493.19	21544.63
493.37	21865.28
493.54	21954.22
493.72	22178.92
493.90	21811.45
494.08	22078.27
494.25	22700.86
494.43	22483.19
494.61	23040.23
494.79	22347.44
494.96	22593.19
495.14	22553.40
495.32	23077.68
495.49	23178.33
495.67	23442.81
495.85	23714.31
496.02	23543.45
496.20	23662.82
496.38	24020.92
496.55	24034.96
496.73	24601.37
496.91	24032.62
497.09	24489.03
497.26	24362.64
497.44	24144.97
497.62	24533.50
497.79	24823.72
497.97	24741.80
498.14	24753.51
498.32	24933.73
498.50	25193.53
498.67	25523.54
498.85	25317.57
499.03	25797.38
499.20	25568.01
499.38	26040.80
499.56	25825.47
499.73	25998.67
499.91	25832.49
500.08	25839.51
500.26	25886.32
500.44	25949.52
500.61	26096.97
500.79	25902.71
500.97	26497.20
501.14	26738.28
501.32	26487.84
501.49	26450.39
501.67	26639.98
501.84	26820.20
502.02	26785.09
502.20	26813.18
502.37	27087.02
502.55	27402.99
502.72	27524.70
502.90	27559.81
503.07	27482.57
503.25	27442.78
503.43	27735.35
503.60	27454.48
503.78	27730.67
503.95	27384.27
504.13	27669.81
504.30	27917.91
504.48	27756.41
504.65	28257.29
504.83	28622.41
505.01	28666.88
505.18	28620.07
505.36	29027.32
505.53	28959.45
505.71	29226.27
505.88	29153.71
506.06	28936.04
506.23	29113.92
506.41	28772.21
506.58	29060.09
506.76	29053.07
506.93	29160.73
507.11	29479.05
507.28	29563.31
507.46	29144.35
507.63	29935.45
507.81	29680.33
507.98	29687.36
508.16	29731.83
508.33	29846.51
508.50	30272.49
508.68	30162.48
508.85	30328.66
509.03	30284.19
509.20	30309.94
509.38	30480.80
509.55	30771.02
509.73	30602.50
509.90	30789.75
510.08	30909.11
510.25	30764.00
510.42	30852.94
510.60	31435.74
510.77	31105.72
510.95	31665.11
511.12	31321.05
511.30	31611.28
511.47	32173.00
511.64	31625.32
511.82	31931.93
511.99	31632.34
512.17	31613.62
512.34	31424.03
512.51	31707.24
512.69	32095.77
512.86	32009.17
513.04	32271.31
513.21	32173.00
513.38	32280.67
513.56	32313.44
513.73	32219.81
513.90	32484.30
514.08	32154.28
514.25	32814.31
514.43	32716.01
514.60	32512.38
514.77	32655.15
514.95	33298.80
515.12	33202.84
515.29	33153.69
515.47	33113.90
515.64	33476.68
515.81	33214.54
515.99	33326.89
516.16	33099.86
516.33	33366.68
516.51	33242.63
516.68	32505.36
516.85	32940.70
517.03	33251.99
517.20	33600.73
517.37	33656.90
517.54	33598.39
517.72	33804.36
517.89	33811.38
518.06	33888.62
518.24	33937.77
518.41	33869.89
518.58	34225.65
518.75	34181.18
518.93	34445.66
519.10	34600.14
519.27	34506.52
519.45	34450.35
519.62	34948.88
519.79	34660.99
519.96	34958.24
520.14	35264.85
520.31	35009.73
520.48	35241.45
520.65	35290.60
520.83	35501.25
521.00	35384.22
521.17	35297.62
521.34	35644.02
521.52	35779.77
521.69	35892.12
521.86	35744.66
522.03	35938.93
522.20	35552.74
522.38	35608.91
522.55	36261.92
522.72	35849.99
522.89	36161.28
523.07	35969.35
523.24	36430.44
523.41	35798.49
523.58	36222.13
523.75	36547.47
523.92	36629.38
524.10	36830.67
524.27	36671.51
524.44	36624.70
524.61	36952.38
524.78	36732.37
524.96	37148.98
525.13	36973.44
525.30	37329.20
525.47	37193.45
525.64	36952.38
525.81	37071.75
525.98	37261.33
526.16	37212.18
526.33	37275.37
526.50	37333.89
526.67	37088.13
526.84	36811.95
527.01	37275.37
527.18	37401.76
527.36	37750.50
527.53	37614.75
527.70	37890.93
527.87	38319.25
528.04	37886.25
528.21	37979.87
528.38	37490.70
528.55	37855.82
528.72	38052.43
528.89	38539.26
529.07	37975.19
529.24	38298.19
529.41	38272.44
529.58	38373.08
529.75	38242.01
529.92	38590.75
530.09	38529.90
530.26	38490.11
530.43	38600.12
530.60	38197.54
530.77	38843.53
530.94	38986.30
531.11	38838.85
531.28	38969.92
531.46	39044.82
531.63	39278.87
531.80	38733.53
531.97	39103.33
532.14	38937.15
532.31	38827.15
532.48	39091.63
532.65	39470.79
532.82	39388.88
532.99	39541.01
533.16	39681.44
533.33	39742.30
533.50	40023.16
533.67	39913.16
533.84	39328.02
534.01	39662.72
534.18	39784.43
534.35	39805.49
534.52	39409.94
534.69	39742.30
534.86	39950.60
535.03	39676.76
535.20	39978.69
535.37	40156.57
535.54	40603.61
535.71	39983.37
535.88	40390.62
536.05	39908.47
536.22	40421.05
536.38	40360.20
536.55	39819.53
536.72	40407.01
536.89	40388.28
537.06	40582.55
537.23	40456.16
537.40	40191.68
537.57	40545.10
537.74	40430.41
537.91	41216.83
538.08	41165.34
538.25	40378.92
538.42	40952.35
538.59	41364.29
538.75	40811.92
538.92	40790.86
539.09	41432.16
539.26	40926.61
539.43	41010.87
539.60	40704.26
539.77	41085.76
539.94	41235.56
540.11	41144.28
540.28	41024.91
540.44	41031.93
540.61	40720.64
540.78	41160.66
540.95	41294.07
541.12	40727.66
541.29	41237.90
541.46	41844.10
541.62	41478.97
541.79	41427.48
541.96	41106.83
542.13	41317.48
542.30	41600.68
542.47	41780.90
542.63	41577.28
542.80	41748.14
542.97	42426.89
543.14	42286.46
543.31	42300.50
543.48	42438.59
543.64	42752.23
543.81	42810.74
543.98	42061.77
544.15	42181.13
544.32	42443.27
544.48	42712.44
544.65	42373.06
544.82	42658.60
544.99	42082.83
545.16	42426.89
545.32	42567.32
545.49	43140.75
545.66	42864.57
545.83	42803.72
546.00	43136.07
546.16	42581.37
546.33	42759.25
546.50	42321.57
546.67	42321.57
546.83	42263.05
547.00	42665.63
547.17	42960.53
547.34	42934.79
547.50	43100.97
547.67	43487.15
547.84	42672.65
548.00	43765.68
548.17	42946.49
548.34	43075.22
548.51	43824.19
548.67	43091.60
548.84	43487.15
549.01	43339.70
549.18	43058.84
549.34	43573.75
549.51	43316.29
549.68	43295.23
549.84	43402.89
550.01	43665.03
550.18	43618.22
550.34	44198.68
550.51	43346.72
550.68	43405.23
550.84	43136.07
551.01	44013.77
551.18	43648.65
551.34	43749.29
551.51	43863.98
551.68	43789.08
551.84	43835.89
552.01	43950.58
552.18	44215.06
552.34	43679.08
552.51	43538.65
552.68	43922.49
552.84	44194.00
553.01	44287.62
553.18	44065.27
553.34	44306.34
553.51	44060.58
553.67	44304.00
553.84	44526.35
554.01	44011.43
554.17	44149.53
554.34	44381.24
554.51	44481.88
554.67	44615.29
554.84	44299.32
555.00	44423.37
555.17	44535.71
555.33	44947.65
555.50	44362.51
555.67	44645.72
555.83	44458.48
556.00	44531.03
556.16	44980.42
556.33	44954.67
556.50	44690.19
556.66	44610.61
556.83	44294.64
556.99	44355.49
557.16	45074.04
557.32	44697.21
557.49	44509.97
557.65	44917.22
557.82	44947.65
557.98	44762.75
558.15	44910.20
558.32	44406.98
558.48	44978.07
558.65	44699.55
558.81	44870.41
558.98	44453.79
559.14	45308.09
559.31	44872.75
559.47	44809.56
559.64	45165.32
559.80	45242.56
559.97	45366.60
560.13	45162.98
560.30	45193.40
560.46	45551.51
560.63	45109.14
560.79	45284.68
560.96	45401.71
561.12	45092.76
561.29	45043.61
561.45	45172.34
561.61	45186.38
561.78	45521.08
561.94	45158.30
562.11	45207.45
562.27	44891.48
562.44	45200.43
562.60	45453.20
562.77	45612.36
562.93	45280.00
563.10	45813.65
563.26	45181.70
563.42	45202.77
563.59	45303.41
563.75	45270.64
563.92	45268.30
564.08	45308.09
564.24	45500.01
564.41	45675.55
564.57	45441.50
564.74	45443.84
564.90	45750.45
565.07	45518.74
565.23	45439.16
565.39	45560.87
565.56	45600.66
565.72	45392.35
565.88	45354.90
566.05	45467.25
566.21	45996.21
566.38	45368.94
566.54	45544.48
566.70	45933.01
566.87	46080.47
567.03	45722.37
567.19	45991.53
567.36	45256.60
567.52	46017.27
567.68	45940.04
567.85	45202.77
568.01	45727.05
568.17	45579.59
568.34	45984.51
568.50	45457.88
568.66	45628.74
568.83	45656.83
568.99	45930.67
569.15	45553.85
569.32	45595.98
569.48	45418.10
569.64	45811.31
569.81	45965.78
569.97	46216.22
570.13	46036.00
570.30	45570.23
570.46	45074.04
570.62	45373.63
570.78	46370.69
570.95	45792.58
571.11	45982.16
571.27	45659.17
571.43	45329.16
571.60	46232.60
571.76	46323.88
571.92	45607.68
572.09	45811.31
572.25	45911.95
572.41	45790.24
572.57	45808.96
572.74	46323.88
572.90	45691.94
573.06	46021.95
573.22	46167.07
573.38	45670.87
573.55	45937.69
573.71	46017.27
573.87	46040.68
574.03	45670.87
574.20	46007.91
574.36	45661.51
574.52	46014.93
574.68	45567.89
574.84	46258.35
575.01	45998.55
575.17	45900.25
575.33	45935.35
575.49	45343.20
575.65	45947.06
575.82	46059.40
575.98	46080.47
576.14	46487.72
576.30	46241.96
576.46	45720.02
576.62	45722.37
576.79	46028.98
576.95	45397.03
577.11	46103.87
577.27	46017.27
577.43	46014.93
577.59	45921.31
577.75	45668.53
577.92	46007.91
578.08	45645.13
578.24	46012.59
578.40	45935.35
578.56	45951.74
578.72	46225.58
578.88	46246.65
579.04	45961.10
579.21	46010.25
579.37	46057.06
579.53	45680.24
579.69	45930.67
579.85	46167.07
580.01	46307.50
580.17	46190.47
580.33	46492.40
580.49	46007.91
580.65	46417.50
580.82	45975.14
580.98	46108.55
581.14	46012.59
581.30	46122.60
581.46	46277.07
581.62	46405.80
581.78	46136.64
581.94	46583.68
582.10	46108.55
582.26	46344.95
582.42	46328.56
582.58	45907.27
582.74	46169.41
582.90	45972.80
583.06	45993.87
583.22	45956.42
583.38	46536.87
583.54	46068.76
583.70	45827.69
583.86	46225.58
584.02	46237.28
584.18	46375.37
584.34	46199.83
584.50	46113.23
584.66	45914.29
584.82	46054.72
584.98	46330.90
585.14	46721.77
585.30	45940.04
585.46	46253.67
585.62	46080.47
585.78	45940.04
585.94	45893.22
586.10	45858.12
586.26	46157.70
586.42	46085.15
586.58	46312.18
586.74	46190.47
586.90	46302.82
587.06	46150.68
587.22	46389.42
587.38	45757.47
587.54	46293.46
587.70	46361.33
587.86	46452.61
588.02	46108.55
588.18	46417.50
588.34	45734.07
588.49	46146.00
588.65	45591.30
588.81	45787.90
588.97	45743.43
589.13	46057.06
589.29	45588.95
589.45	46157.70
589.61	46038.34
589.77	46412.82
589.93	46586.02
590.08	46050.04
