SpectraSuite Data File
++++++++++++++++++++++++++++++++++++
Date: Fri Oct 25 11:34:40 EDT 2013
User: price-jones
Dark Spectrum Present: No
Reference Spectrum Present: No
Number of Sampled Component Spectra: 1
Spectrometers: USB2+H05261
Integration Time (usec): 100000 (USB2+H05261)
Spectra Averaged: 1 (USB2+H05261)
Boxcar Smoothing: 0 (USB2+H05261)
Correct for Electrical Dark: No (USB2+H05261)
Strobe/Lamp Enabled: No (USB2+H05261)
Correct for Detector Non-linearity: No (USB2+H05261)
Correct for Stray Light: No (USB2+H05261)
Number of Pixels in Processed Spectrum: 2048
>>>>>Begin Processed Spectral Data<<<<<
365.73	285.55
365.92	285.55
366.12	285.55
366.32	234.05
366.52	182.56
366.72	187.24
366.91	231.71
367.11	222.35
367.31	131.07
367.51	163.84
367.70	170.86
367.90	194.26
368.10	154.48
368.30	243.42
368.49	208.31
368.69	231.71
368.89	259.80
369.09	189.58
369.28	159.16
369.48	201.29
369.68	203.63
369.87	238.73
370.07	234.05
370.27	306.61
370.47	341.72
370.66	472.79
370.86	500.87
371.06	528.96
371.25	512.58
371.45	540.66
371.65	528.96
371.84	543.00
372.04	587.47
372.24	564.07
372.44	594.50
372.63	629.60
372.83	613.22
373.03	575.77
373.22	540.66
373.42	552.37
373.62	643.65
373.81	596.84
374.01	645.99
374.21	599.18
374.40	641.31
374.60	617.90
374.79	648.33
374.99	692.80
375.19	648.33
375.38	596.84
375.58	603.86
375.78	695.14
375.97	660.03
376.17	699.82
376.37	653.01
376.56	669.39
376.76	702.16
376.95	681.10
377.15	709.18
377.35	702.16
377.54	744.29
377.74	704.50
377.93	744.29
378.13	713.86
378.33	683.44
378.52	690.46
378.72	655.35
378.91	692.80
379.11	713.86
379.31	650.67
379.50	692.80
379.70	720.88
379.89	758.33
380.09	716.20
380.28	615.56
380.48	781.74
380.68	758.33
380.87	730.25
381.07	786.42
381.26	725.57
381.46	727.91
381.65	788.76
381.85	755.99
382.04	716.20
382.24	770.04
382.43	741.95
382.63	718.54
382.83	800.46
383.02	793.44
383.22	812.17
383.41	678.76
383.61	784.08
383.80	840.25
384.00	753.65
384.19	809.83
384.39	770.04
384.58	767.70
384.78	734.93
384.97	807.48
385.17	767.70
385.36	847.27
385.56	828.55
385.75	805.14
385.95	858.98
386.14	856.64
386.34	880.04
386.53	866.00
386.72	849.61
386.92	854.30
387.11	917.49
387.31	844.93
387.50	835.57
387.70	908.13
387.89	945.58
388.09	936.21
388.28	929.19
388.48	866.00
388.67	940.90
388.86	933.87
389.06	842.59
389.25	901.11
389.45	957.28
389.64	919.83
389.84	947.92
390.03	917.49
390.22	980.68
390.42	929.19
390.61	950.26
390.81	917.49
391.00	950.26
391.19	999.41
391.39	1022.81
391.58	978.34
391.78	926.85
391.97	1006.43
392.16	983.02
392.36	1050.90
392.55	1069.62
392.75	992.39
392.94	1011.11
393.13	952.60
393.33	976.00
393.52	987.71
393.71	990.05
393.91	968.98
394.10	1128.14
394.29	1025.15
394.49	1097.71
394.68	1083.67
394.88	1128.14
395.07	1062.60
395.26	1071.97
395.46	1196.01
395.65	1036.86
395.84	1163.25
396.04	1156.22
396.23	1125.80
396.42	1090.69
396.62	1174.95
396.81	1142.18
397.00	1200.69
397.19	1172.61
397.39	1256.87
397.58	1270.91
397.77	1184.31
397.97	1284.95
398.16	1165.59
398.35	1254.53
398.55	1252.19
398.74	1179.63
398.93	1296.66
399.12	1263.89
399.32	1249.85
399.51	1240.48
399.70	1296.66
399.90	1376.24
400.09	1324.74
400.28	1301.34
400.47	1266.23
400.67	1397.30
400.86	1345.81
401.05	1263.89
401.24	1385.60
401.44	1320.06
401.63	1352.83
401.82	1364.53
402.01	1357.51
402.21	1472.20
402.40	1411.34
402.59	1350.49
402.78	1420.71
402.97	1451.13
403.17	1486.24
403.36	1495.60
403.55	1441.77
403.74	1584.54
403.93	1420.71
404.13	1593.90
404.32	1530.71
404.51	1544.75
404.70	1598.59
404.89	1554.12
405.09	1692.21
405.28	1605.61
405.47	1650.08
405.66	1565.82
405.85	1626.67
406.05	1570.50
406.24	1624.33
406.43	1708.59
406.62	1685.19
406.81	1767.10
407.00	1673.48
407.20	1687.53
407.39	1739.02
407.58	1750.72
407.77	1792.85
407.96	1797.53
408.15	1736.68
408.34	1809.23
408.54	1923.92
408.73	1820.94
408.92	1891.15
409.11	1877.11
409.30	1867.75
409.49	1886.47
409.68	1977.75
409.87	1942.64
410.07	1947.33
410.26	1912.22
410.45	1940.30
410.64	2057.33
410.83	2108.82
411.02	2071.37
411.21	2045.63
411.40	1970.73
411.59	2111.16
411.78	2054.99
411.98	2054.99
412.17	2148.61
412.36	2078.40
412.55	2115.84
412.74	2244.57
412.93	2246.91
413.12	2230.53
413.31	2361.60
413.50	2293.72
413.69	2265.64
413.88	2307.77
414.07	2270.32
414.26	2448.20
414.45	2417.77
414.64	2349.90
414.83	2401.39
415.02	2485.65
415.22	2600.34
415.41	2574.59
415.60	2443.52
415.79	2654.17
415.98	2520.76
416.17	2588.63
416.36	2576.93
416.55	2595.65
416.74	2693.96
416.93	2644.81
417.12	2654.17
417.31	2731.41
417.50	2555.86
417.69	2902.26
417.88	2843.75
418.07	2698.64
418.26	2792.26
418.45	2890.56
418.64	2878.86
418.83	2839.07
419.02	2932.69
419.21	2930.35
419.39	2935.03
419.58	2995.89
419.77	2911.63
419.96	2928.01
420.15	2942.05
420.34	2981.84
420.53	2970.14
420.72	3014.61
420.91	3117.59
421.10	3204.19
421.29	3176.11
421.48	3059.08
421.67	3164.40
421.86	3068.44
422.05	3164.40
422.24	3126.96
422.43	3150.36
422.61	3218.24
422.80	3225.26
422.99	3155.04
423.18	3143.34
423.37	3246.32
423.56	3253.34
423.75	3302.50
423.94	3117.59
424.13	3054.40
424.32	3075.46
424.50	3274.41
424.69	3325.90
424.88	3407.82
425.07	3206.53
425.26	3260.37
425.45	3293.13
425.64	3236.96
425.83	3173.77
426.01	3318.88
426.20	3178.45
426.39	3356.33
426.58	3267.39
426.77	3309.52
426.96	3290.79
427.15	3377.39
427.33	3337.60
427.52	3496.76
427.71	3414.84
427.90	3368.03
428.09	3410.16
428.28	3571.66
428.46	3569.32
428.65	3595.06
428.84	3623.15
429.03	3562.30
429.22	3536.55
429.40	3541.23
429.59	3564.64
429.78	3529.53
429.97	3349.31
430.16	3550.59
430.34	3590.38
430.53	3684.00
430.72	3681.66
430.91	3616.13
431.10	3630.17
431.28	3817.41
431.47	3836.14
431.66	3758.90
431.85	3679.32
432.03	3927.42
432.22	3878.27
432.41	3845.50
432.60	3756.56
432.79	3859.54
432.97	3852.52
433.16	3836.14
433.35	3840.82
433.54	3927.42
433.72	4037.42
433.91	3880.61
434.10	4028.06
434.28	3854.86
434.47	4039.76
434.66	4028.06
434.85	4028.06
435.03	4161.47
435.22	4081.89
435.41	4135.73
435.59	4102.96
435.78	4102.96
435.97	4227.01
436.16	4156.79
436.34	4121.68
436.53	4418.93
436.72	4418.93
436.90	4236.37
437.09	4276.16
437.28	4168.49
437.46	4402.55
437.65	4290.20
437.84	4414.25
438.02	4325.31
438.21	4360.42
438.40	4255.09
438.58	4554.68
438.77	4533.62
438.96	4592.13
439.14	4631.92
439.33	4599.15
439.52	4688.09
439.70	4814.48
439.89	4786.40
440.08	4711.50
440.26	4779.37
440.45	4641.28
440.63	4828.53
440.82	4784.06
441.01	4952.57
441.19	4943.21
441.38	4975.98
441.57	5121.09
441.75	5064.92
441.94	5046.20
442.12	5057.90
442.31	5315.36
442.50	5158.54
442.68	4919.81
442.87	5177.26
443.05	5366.85
443.24	5408.98
443.43	5170.24
443.61	5357.49
443.80	5504.94
443.98	5301.31
444.17	5076.62
444.35	5294.29
444.54	5296.63
444.73	5385.57
444.91	5231.10
445.10	5462.81
445.28	5465.15
445.47	5275.57
445.65	5329.40
445.84	5394.93
446.02	5413.66
446.21	5465.15
446.39	5313.02
446.58	5359.83
446.77	5350.46
446.95	5350.46
447.14	5366.85
447.32	5399.62
447.51	5439.40
447.69	5359.83
447.88	5521.32
448.06	5298.97
448.25	5373.87
448.43	5579.84
448.62	5530.69
448.80	5577.50
448.99	5509.62
449.17	5621.97
449.36	5584.52
449.54	5647.71
449.73	5715.59
449.91	5930.92
450.10	5736.65
450.28	5778.78
450.46	5757.72
450.65	5661.76
450.83	5797.51
451.02	5804.53
451.20	5879.43
451.39	5755.38
451.57	5907.51
451.76	5753.04
451.94	5975.39
452.13	5991.77
452.31	5860.70
452.49	5823.25
452.68	5884.11
452.86	6092.41
453.05	6146.25
453.23	5977.73
453.42	5994.11
453.60	5867.72
453.78	6071.35
453.97	5921.56
454.15	5954.32
454.34	6033.90
454.52	6232.85
454.70	6223.48
454.89	6183.70
455.07	6064.33
455.26	6235.19
455.44	6317.11
455.62	6298.38
455.81	6349.87
455.99	6455.20
456.17	6485.62
456.36	6263.27
456.54	6415.41
456.73	6368.60
456.91	6691.59
457.09	6693.93
457.28	6621.38
457.46	6572.22
457.64	6696.27
457.83	6616.69
458.01	6920.96
458.19	6960.75
458.38	6747.76
458.56	6794.58
458.74	6759.47
458.93	6766.49
459.11	6920.96
459.29	6960.75
459.48	6958.41
459.66	6773.51
459.84	7077.78
460.03	7063.74
460.21	6993.52
460.39	7052.03
460.57	7089.48
460.76	7080.12
460.94	7014.59
461.12	7227.57
461.31	7122.25
461.49	7169.06
461.67	7148.00
461.85	7239.28
462.04	7293.11
462.22	7686.32
462.40	7389.07
462.59	7564.61
462.77	7456.95
462.95	7440.56
463.13	7281.41
463.32	7363.33
463.50	7503.76
463.68	7478.01
463.86	7569.29
464.05	7449.93
464.23	7391.41
464.41	7559.93
464.59	7346.94
464.78	7700.36
464.96	7576.31
465.14	7356.30
465.32	7520.14
465.50	7672.28
465.69	7733.13
465.87	7637.17
466.05	7698.02
466.23	7681.64
466.41	7620.78
466.60	7831.43
466.78	7669.94
466.96	7789.30
467.14	7569.29
467.32	7765.90
467.51	7913.35
467.69	7737.81
467.87	7887.61
468.05	7927.39
468.23	7920.37
468.41	7756.54
468.60	7779.94
468.78	8173.15
468.96	8191.88
469.14	8217.62
469.32	8250.39
469.50	8046.76
469.69	8128.68
469.87	8339.33
470.05	8416.57
470.23	8341.67
470.41	8177.83
470.59	8442.31
470.77	8430.61
470.95	8542.96
471.14	8655.30
471.32	8423.59
471.50	8561.68
471.68	8599.13
471.86	8610.83
472.04	8589.77
472.22	8531.25
472.40	8844.88
472.58	8875.31
472.77	8863.61
472.95	8767.65
473.13	9118.73
473.31	8966.59
473.49	8828.50
473.67	8870.63
473.85	9055.53
474.03	9064.89
474.21	9259.16
474.39	9193.62
474.57	9071.92
474.75	9355.12
474.93	9441.72
475.12	9305.97
475.30	9249.80
475.48	9682.80
475.66	9500.23
475.84	9542.36
476.02	9818.55
476.20	9586.83
476.38	9870.04
476.56	10003.45
476.74	9963.66
476.92	9919.19
477.10	9839.61
477.28	10174.31
477.46	10200.05
477.64	10106.43
477.82	10193.03
478.00	10623.69
478.18	10462.19
478.36	10525.39
478.54	10675.18
478.72	10750.08
478.90	10913.92
479.08	11012.22
479.26	11115.20
479.44	10956.05
479.62	10932.64
479.80	11220.53
479.98	11400.75
480.16	11377.34
480.34	11445.22
480.52	11822.05
480.70	11756.51
480.88	11286.06
481.06	11775.24
481.24	11749.49
481.41	11845.45
481.59	12023.33
481.77	12238.66
481.95	12257.39
482.13	12163.76
482.31	12482.08
482.49	12690.38
482.67	12695.07
482.85	12608.47
483.03	12805.07
483.21	12802.73
483.39	12940.82
483.57	13032.10
483.74	13221.69
483.92	13205.30
484.10	13132.75
484.28	13511.91
484.46	13797.46
484.64	13834.91
484.82	13626.60
485.00	13755.33
485.18	13958.96
485.35	14043.21
485.53	14052.58
485.71	14176.62
485.89	14403.66
486.07	14604.94
486.25	14567.49
486.43	14611.96
486.61	14855.38
486.78	14745.38
486.96	14902.19
487.14	15194.76
487.32	15403.07
487.50	15119.86
487.68	15438.17
487.85	15550.52
488.03	15707.34
488.21	16011.60
488.39	15929.69
488.57	16051.39
488.75	16313.53
488.92	16173.10
489.10	16369.71
489.28	16641.21
489.46	16669.30
489.64	16648.23
489.81	17226.34
489.99	17207.62
490.17	17334.01
490.35	17355.07
490.53	17511.89
490.70	17422.95
490.88	17633.60
491.06	17706.15
491.24	17713.17
491.41	17921.48
491.59	18295.97
491.77	18047.87
491.95	18272.56
492.13	18354.48
492.30	18569.81
492.48	18773.44
492.66	18951.32
492.84	19016.85
493.01	19112.81
493.19	19058.98
493.37	19276.65
493.54	19222.82
493.72	19391.34
493.90	19506.02
494.08	19674.54
494.25	19538.79
494.43	19978.81
494.61	20013.92
494.79	20182.44
494.96	20037.33
495.14	20266.70
495.32	20582.67
495.49	20624.80
495.67	20666.93
495.85	20847.15
496.02	21252.06
496.20	21043.76
496.38	21167.80
496.55	20922.05
496.73	21497.82
496.91	21151.42
497.09	21422.92
497.26	21528.25
497.44	21764.64
497.62	21673.36
497.79	22361.48
497.97	21823.16
498.14	22260.84
498.32	22434.03
498.50	22064.23
498.67	22544.04
498.85	22621.28
499.03	22757.03
499.20	22717.24
499.38	23009.81
499.56	22810.86
499.73	22937.25
499.91	23213.43
500.08	23374.93
500.26	23246.20
500.44	23391.31
500.61	23538.77
500.79	23239.18
500.97	23599.62
501.14	23924.96
501.32	23875.80
501.49	23861.76
501.67	23772.82
501.84	24294.76
502.02	24231.57
502.20	24233.91
502.37	24105.18
502.55	24388.38
502.72	24372.00
502.90	24449.24
503.07	24175.39
503.25	24627.12
503.43	24685.63
503.60	24570.94
503.78	24905.64
503.95	24755.85
504.13	25256.72
504.30	25120.97
504.48	25032.03
504.65	25701.42
504.83	25736.53
505.01	25521.20
505.18	25469.71
505.36	25951.86
505.53	25605.46
505.71	25560.99
505.88	25757.60
506.06	25790.36
506.23	26075.91
506.41	25919.09
506.58	26008.03
506.76	26195.28
506.93	26359.11
507.11	26216.34
507.28	26684.45
507.46	26529.97
507.63	26962.97
507.81	26984.04
507.98	26597.85
508.16	27021.48
508.33	27105.74
508.50	27054.25
508.68	27049.57
508.85	27218.09
509.03	26988.72
509.20	27197.02
509.38	27957.70
509.55	27517.68
509.73	27618.32
509.90	27962.38
510.08	27931.95
510.25	27679.18
510.42	28009.19
510.60	28107.49
510.77	28149.62
510.95	28350.91
511.12	28072.39
511.30	28393.04
511.47	28517.09
511.64	28606.03
511.82	28489.00
511.99	28283.03
512.17	28786.25
512.34	28608.37
512.51	29223.93
512.69	29509.47
512.86	28844.76
513.04	29088.18
513.21	29167.76
513.38	29165.42
513.56	29507.13
513.73	29125.63
513.90	29493.09
514.08	29266.06
514.25	29909.71
514.43	29736.51
514.60	29795.02
514.77	30008.01
514.95	30036.09
515.12	30005.67
515.29	30188.23
515.47	29928.43
515.64	30284.19
515.81	30225.68
515.99	30426.96
516.16	30609.53
516.33	30752.30
516.51	30354.41
516.68	30506.54
516.85	30768.68
517.03	30829.54
517.20	30764.00
517.37	31056.57
517.54	30675.06
517.72	30824.86
517.89	31274.24
518.06	31239.13
518.24	31232.11
518.41	31236.79
518.58	31211.04
518.75	31461.48
518.93	31321.05
519.10	31194.66
519.27	31768.09
519.45	31452.12
519.62	31952.99
519.79	31391.26
519.96	31899.16
520.14	32074.70
520.31	31798.52
520.48	31962.36
520.65	31840.65
520.83	32060.66
521.00	32378.97
521.17	32341.52
521.34	32313.44
521.52	32350.88
521.69	32580.26
521.86	32627.07
522.03	33048.36
522.20	32865.80
522.38	32692.60
522.55	33104.54
522.72	32985.17
522.89	33212.20
523.07	33266.03
523.24	33078.79
523.41	33188.80
523.58	33074.11
523.75	33188.80
523.92	33574.98
524.10	33373.70
524.27	33582.01
524.44	33862.87
524.61	33865.21
524.78	33589.03
524.96	33769.25
525.13	33897.98
525.30	33914.36
525.47	34361.40
525.64	34122.67
525.81	34536.94
525.98	34279.49
526.16	34033.73
526.33	34333.32
526.50	34717.17
526.67	34204.59
526.84	34719.51
527.01	34391.83
527.18	34319.28
527.36	34913.77
527.53	34778.02
527.70	34958.24
527.87	34962.92
528.04	34794.40
528.21	34801.43
528.38	34799.08
528.55	34998.03
528.72	35061.22
528.89	35330.39
529.07	34991.01
529.24	35232.08
529.41	35330.39
529.58	35367.84
529.75	35505.93
529.92	35236.77
530.09	35522.31
530.26	35456.78
530.43	35739.98
530.60	35189.95
530.77	35793.81
530.94	35182.93
531.11	35742.32
531.28	35826.58
531.46	36411.71
531.63	36062.97
531.80	35833.60
531.97	36191.70
532.14	36376.61
532.31	36142.55
532.48	36203.41
532.65	36570.87
532.82	36226.81
532.99	36414.05
533.16	36336.82
533.33	36421.08
533.50	36507.68
533.67	36493.63
533.84	36250.22
534.01	36781.52
534.18	36620.02
534.35	36992.17
534.52	37291.76
534.69	36954.72
534.86	37394.74
535.03	36847.05
535.20	37212.18
535.37	37069.40
535.54	37647.52
535.71	36814.29
535.88	37394.74
536.05	37050.68
536.22	37818.38
536.38	37516.45
536.55	37628.79
536.72	37682.62
536.89	37254.31
537.06	37860.51
537.23	37593.68
537.40	37308.14
537.57	37638.15
537.74	37312.82
537.91	37736.46
538.08	37483.68
538.25	37479.00
538.42	37792.63
538.59	38225.63
538.75	38017.32
538.92	38328.61
539.09	38293.50
539.26	38515.86
539.43	38045.41
539.60	38129.67
539.77	38258.40
539.94	38888.00
540.11	38480.75
540.28	38548.62
540.44	38363.72
540.61	38316.91
540.78	38373.08
540.95	38548.62
541.12	38808.42
541.29	38359.04
541.46	38806.08
541.62	38518.20
541.79	38932.47
541.96	38539.26
542.13	38740.55
542.30	39014.39
542.47	38841.19
542.63	39229.72
542.80	39129.08
542.97	39332.70
543.14	39899.11
543.31	39185.25
543.48	39487.18
543.64	39730.59
543.81	39730.59
543.98	39831.24
544.15	39318.66
544.32	39667.40
544.48	40275.94
544.65	39779.74
544.82	40128.48
544.99	39405.26
545.16	39700.17
545.32	39866.34
545.49	40140.19
545.66	40474.88
545.83	40271.26
546.00	40451.48
546.16	39861.66
546.33	40191.68
546.50	39826.56
546.67	40329.77
546.83	39810.17
547.00	40149.55
547.17	40215.08
547.34	40027.84
547.50	40666.81
547.67	40854.05
547.84	40477.22
548.00	40643.40
548.17	40664.47
548.34	40645.74
548.51	40765.11
548.67	41071.72
548.84	41174.70
549.01	40746.39
549.18	40722.98
549.34	41191.09
549.51	41085.76
549.68	41081.08
549.84	40961.72
550.01	40704.26
550.18	40896.18
550.34	41191.09
550.51	41467.27
550.68	41411.10
550.84	41172.36
551.01	41830.05
551.18	41345.56
551.34	40858.73
551.51	41633.45
551.68	41237.90
551.84	41251.94
552.01	41436.84
552.18	41399.40
552.34	41635.79
552.51	41397.06
552.68	41476.63
552.84	42071.13
553.01	41834.74
553.18	41787.92
553.34	42143.69
553.51	42206.88
553.67	41596.00
553.84	41841.76
554.01	41837.08
554.17	41963.46
554.34	42183.48
554.51	42059.43
554.67	42408.17
554.84	42171.77
555.00	41993.89
555.17	42052.41
555.33	42305.18
555.50	42373.06
555.67	42234.97
555.83	42160.07
556.00	42337.95
556.16	42277.10
556.33	42433.91
556.50	42396.46
556.66	42590.73
556.83	42066.45
556.99	42106.24
557.16	42277.10
557.32	42684.35
557.49	42836.48
557.65	42370.72
557.82	42295.82
557.98	42752.23
558.15	42679.67
558.32	42644.56
558.48	42604.77
558.65	42710.10
558.81	42986.28
558.98	42267.73
559.14	42635.20
559.31	42534.56
559.47	43281.19
559.64	42859.89
559.80	42822.44
559.97	43119.69
560.13	42574.34
560.30	43199.27
560.46	43342.04
560.63	43145.44
560.79	43189.91
560.96	43297.57
561.12	43737.59
561.29	43459.07
561.45	43674.40
561.61	43215.65
561.78	43143.09
561.94	43049.47
562.11	43206.29
562.27	43248.42
562.44	42951.17
562.60	43349.06
562.77	43419.28
562.93	43257.78
563.10	43459.07
563.26	43505.88
563.42	43674.40
563.59	43318.64
563.75	43627.59
563.92	43470.77
564.08	43725.89
564.24	43145.44
564.41	43625.25
564.57	43468.43
564.74	43552.69
564.90	43028.41
565.07	43643.97
565.23	43311.61
565.39	43517.58
565.56	43615.88
565.72	43608.86
565.88	43428.64
566.05	43639.29
566.21	43498.86
566.38	43962.28
566.54	43702.48
566.70	43938.88
566.87	43522.26
567.03	43578.43
567.19	43863.98
567.36	43903.77
567.52	43665.03
567.68	44428.05
567.85	44048.88
568.01	44229.10
568.17	43803.13
568.34	43995.05
568.50	43728.23
568.66	43768.02
568.83	43658.01
568.99	43856.96
569.15	43973.98
569.32	43716.53
569.48	43899.09
569.64	43873.34
569.81	43931.86
569.97	44493.58
570.13	44252.51
570.30	43723.55
570.46	43973.98
570.62	44114.42
570.78	43981.01
570.95	43999.73
571.11	44383.58
571.27	44203.36
571.43	44172.93
571.60	44257.19
571.76	44336.77
571.92	44198.68
572.09	44519.33
572.25	44142.50
572.41	44032.50
572.57	44186.97
572.74	44486.56
572.90	44304.00
573.06	44439.75
573.22	44409.32
573.38	44425.71
573.55	44772.11
573.71	44694.87
573.87	44638.70
574.03	43931.86
574.20	44275.91
574.36	44334.43
574.52	44573.16
574.68	44278.25
574.84	44577.84
575.01	44704.23
575.17	44765.09
575.33	44877.43
575.49	44554.44
575.65	44392.94
575.82	44655.08
575.98	44634.02
576.14	44449.11
576.30	45155.96
576.46	44655.08
576.62	44142.50
576.79	44526.35
576.95	44189.31
577.11	44212.72
577.27	44320.38
577.43	44617.63
577.59	44294.64
577.75	44327.41
577.92	44456.14
578.08	44531.03
578.24	44514.65
578.40	44811.90
578.56	45097.44
578.72	44919.56
578.88	44903.18
579.04	44650.40
579.21	44516.99
579.37	44697.21
579.53	44486.56
579.69	44257.19
579.85	44533.37
580.01	44318.04
580.17	44376.56
580.33	44638.70
580.49	44765.09
580.65	44603.59
580.82	44589.55
580.98	44804.88
581.14	44701.89
581.30	44807.22
581.46	44500.61
581.62	44521.67
581.78	44643.38
581.94	44898.50
582.10	44430.39
582.26	45216.81
582.42	44900.84
582.58	44842.32
582.74	45074.04
582.90	44685.51
583.06	44432.73
583.22	44865.73
583.38	44999.14
583.54	45057.65
583.70	45088.08
583.86	45237.87
584.02	44734.66
584.18	45397.03
584.34	44964.03
584.50	44898.50
584.66	44788.49
584.82	44549.76
584.98	45261.28
585.14	45050.63
585.30	44858.71
585.46	44891.48
585.62	44722.96
585.78	45062.33
585.94	44598.91
586.10	44699.55
586.26	44554.44
586.42	44247.83
586.58	44872.75
586.74	44706.57
586.90	44814.24
587.06	44896.16
587.22	44514.65
587.38	44811.90
587.54	45113.83
587.70	45338.52
587.86	45148.93
588.02	44989.78
588.18	44797.85
588.34	44931.26
588.49	44966.37
588.65	44985.10
588.81	44739.34
588.97	44669.12
589.13	44949.99
589.29	45052.97
589.45	45251.92
589.61	44992.12
589.77	45146.59
589.93	44828.28
590.08	45385.33
590.24	45265.96
