SpectraSuite Data File
++++++++++++++++++++++++++++++++++++
Date: Fri Oct 25 11:26:41 EDT 2013
User: price-jones
Dark Spectrum Present: No
Reference Spectrum Present: No
Number of Sampled Component Spectra: 1
Spectrometers: USB2+H05261
Integration Time (usec): 100000 (USB2+H05261)
Spectra Averaged: 1 (USB2+H05261)
Boxcar Smoothing: 0 (USB2+H05261)
Correct for Electrical Dark: No (USB2+H05261)
Strobe/Lamp Enabled: No (USB2+H05261)
Correct for Detector Non-linearity: No (USB2+H05261)
Correct for Stray Light: No (USB2+H05261)
Number of Pixels in Processed Spectrum: 2048
>>>>>Begin Processed Spectral Data<<<<<
365.73	259.80
365.92	259.80
366.12	259.80
366.32	194.26
366.52	117.03
366.72	229.37
366.91	112.35
367.11	210.65
367.31	152.13
367.51	175.54
367.70	208.31
367.90	229.37
368.10	163.84
368.30	124.05
368.49	67.88
368.69	238.73
368.89	222.35
369.09	138.09
369.28	201.29
369.48	128.73
369.68	210.65
369.87	252.78
370.07	201.29
370.27	313.63
370.47	355.76
370.66	638.97
370.86	645.99
371.06	730.25
371.25	713.86
371.45	638.97
371.65	739.61
371.84	648.33
372.04	737.27
372.24	718.54
372.44	746.63
372.63	767.70
372.83	739.61
373.03	786.42
373.22	695.14
373.42	784.08
373.62	753.65
373.81	807.48
374.01	774.72
374.21	819.19
374.40	793.44
374.60	723.23
374.79	833.23
374.99	809.83
375.19	922.17
375.38	903.45
375.58	898.77
375.78	875.36
375.97	882.38
376.17	903.45
376.37	840.25
376.56	884.72
376.76	828.55
376.95	877.70
377.15	908.13
377.35	910.47
377.54	898.77
377.74	929.19
377.93	910.47
378.13	957.28
378.33	992.39
378.52	943.24
378.72	1076.65
378.91	999.41
379.11	915.15
379.31	1025.15
379.50	952.60
379.70	1008.77
379.89	1027.50
380.09	966.64
380.28	1057.92
380.48	1018.13
380.68	987.71
380.87	1036.86
381.07	1069.62
381.26	1039.20
381.46	968.98
381.65	966.64
381.85	1011.11
382.04	1036.86
382.24	1111.75
382.43	985.37
382.63	1121.12
382.83	1062.60
383.02	1144.52
383.22	1093.03
383.41	1020.47
383.61	1142.18
383.80	1125.80
384.00	1111.75
384.19	1064.94
384.39	1109.41
384.58	1200.69
384.78	1242.82
384.97	1118.78
385.17	1256.87
385.36	1153.88
385.56	1156.22
385.75	1186.65
385.95	1231.12
386.14	1217.08
386.34	1198.35
386.53	1254.53
386.72	1275.59
386.92	1231.12
387.11	1228.78
387.31	1299.00
387.50	1245.16
387.70	1273.25
387.89	1205.38
388.09	1308.36
388.28	1284.95
388.48	1287.29
388.67	1317.72
388.86	1399.64
389.06	1387.94
389.25	1306.02
389.45	1289.64
389.64	1380.92
389.84	1483.90
390.03	1284.95
390.22	1451.13
390.42	1270.91
390.61	1345.81
390.81	1343.47
391.00	1380.92
391.19	1504.96
391.39	1458.15
391.58	1544.75
391.78	1434.75
391.97	1533.05
392.16	1483.90
392.36	1556.46
392.55	1444.11
392.75	1640.72
392.94	1479.22
393.13	1554.12
393.33	1465.18
393.52	1507.30
393.71	1509.65
393.91	1535.39
394.10	1547.09
394.29	1495.60
394.49	1617.31
394.68	1654.76
394.88	1589.22
395.07	1767.10
395.26	1729.66
395.46	1678.16
395.65	1792.85
395.84	1701.57
396.04	1865.41
396.23	1774.13
396.42	1788.17
396.62	1813.92
396.81	1778.81
397.00	1739.02
397.19	1755.40
397.39	1781.15
397.58	1919.24
397.77	1774.13
397.97	1872.43
398.16	1886.47
398.35	1895.83
398.55	1996.48
398.74	1970.73
398.93	1907.54
399.12	1989.46
399.32	1919.24
399.51	1916.90
399.70	2076.06
399.90	2012.86
400.09	1994.14
400.28	2090.10
400.47	2127.55
400.67	2143.93
400.86	2057.33
401.05	2146.27
401.24	2146.27
401.44	2134.57
401.63	2150.95
401.82	2092.44
402.01	2167.34
402.21	2270.32
402.40	2326.49
402.59	2200.10
402.78	2204.78
402.97	2298.41
403.17	2221.17
403.36	2193.08
403.55	2368.62
403.74	2452.88
403.93	2415.43
404.13	2399.05
404.32	2389.69
404.51	2424.80
404.70	2389.69
404.89	2415.43
405.09	2548.84
405.28	2450.54
405.47	2450.54
405.66	2551.18
405.85	2605.02
406.05	2546.50
406.24	2649.49
406.43	2583.95
406.62	2607.36
406.81	2689.28
407.00	2656.51
407.20	2689.28
407.39	2654.17
407.58	2771.19
407.77	2782.90
407.96	2670.55
408.15	2731.41
408.34	2633.10
408.54	2841.41
408.73	2834.39
408.92	2946.73
409.11	2883.54
409.30	2925.67
409.49	2944.39
409.68	3000.57
409.87	2871.84
410.07	3061.42
410.26	3030.99
410.45	2979.50
410.64	3023.97
410.83	3110.57
411.02	3080.14
411.21	3255.69
411.40	3061.42
411.59	3190.15
411.78	3269.73
411.98	3192.49
412.17	3279.09
412.36	3295.47
412.55	3431.23
412.74	3368.03
412.93	3382.07
413.12	3323.56
413.31	3592.72
413.50	3559.95
413.69	3466.33
413.88	3590.38
414.07	3585.70
414.26	3747.20
414.45	3740.18
414.64	3758.90
414.83	3798.69
415.02	3779.97
415.22	3974.23
415.41	3925.08
415.60	3983.59
415.79	3920.40
415.98	3906.35
416.17	3941.46
416.36	3964.87
416.55	4114.66
416.74	4098.28
416.93	4147.43
417.12	4079.55
417.31	4131.05
417.50	4219.99
417.69	4210.62
417.88	4358.08
418.07	4332.33
418.26	4376.80
418.45	4283.18
418.64	4528.94
418.83	4358.08
419.02	4423.61
419.21	4631.92
419.39	4432.97
419.58	4601.49
419.77	4550.00
419.96	4690.43
420.15	4676.39
420.34	4723.20
420.53	4681.07
420.72	4849.59
420.91	4580.43
421.10	4678.73
421.29	4830.87
421.48	4863.63
421.67	4816.82
421.86	4828.53
422.05	4968.96
422.24	4964.28
422.43	4870.65
422.61	4903.42
422.80	5011.09
422.99	4945.55
423.18	4990.02
423.37	5219.39
423.56	4905.76
423.75	5011.09
423.94	4851.93
424.13	4589.79
424.32	4645.96
424.50	5046.20
424.69	5224.08
424.88	5195.99
425.07	5050.88
425.26	4936.19
425.45	4922.15
425.64	5172.58
425.83	5015.77
426.01	5041.51
426.20	5135.14
426.39	5163.22
426.58	5006.41
426.77	5055.56
426.96	5261.52
427.15	5289.61
427.33	5074.28
427.52	5074.28
427.71	5341.10
427.90	5200.67
428.09	5275.57
428.28	5345.78
428.46	5345.78
428.65	5277.91
428.84	5521.32
429.03	5495.58
429.22	5439.40
429.40	5554.09
429.59	5446.43
429.78	5252.16
429.97	5350.46
430.16	5600.90
430.34	5652.39
430.53	5743.67
430.72	5687.50
430.91	5650.05
431.10	5652.39
431.28	5694.52
431.47	5802.19
431.66	6005.81
431.85	5846.66
432.03	5886.45
432.22	5987.09
432.41	5940.28
432.60	5926.24
432.79	6019.86
432.97	5813.89
433.16	6097.10
433.35	6087.73
433.54	6179.01
433.72	6146.25
433.91	6104.12
434.10	6193.06
434.28	6127.52
434.47	6134.54
434.66	6148.59
434.85	6422.43
435.03	6380.30
435.22	6286.68
435.41	6415.41
435.59	6202.42
435.78	6513.71
435.97	6553.50
436.16	6457.54
436.34	6417.75
436.53	6492.65
436.72	6607.33
436.90	6544.14
437.09	6747.76
437.28	6670.53
437.46	6696.27
437.65	6691.59
437.84	6862.45
438.02	6717.34
438.21	6878.83
438.40	6719.68
438.58	6841.39
438.77	7061.40
438.96	6972.46
439.14	7206.51
439.33	7349.28
439.52	7276.73
439.70	7183.10
439.89	7323.54
440.08	7368.01
440.26	7538.87
440.45	7431.20
440.63	7566.95
440.82	7595.04
441.01	7566.95
441.19	7627.81
441.38	7798.66
441.57	7637.17
441.75	7939.10
441.94	7997.61
442.12	7882.92
442.31	8119.32
442.50	7957.82
442.68	8070.17
442.87	8234.00
443.05	8306.56
443.24	8248.05
443.43	8290.18
443.61	8369.76
443.80	8341.67
443.98	8128.68
444.17	7941.44
444.35	8299.54
444.54	8346.35
444.73	8250.39
444.91	8266.77
445.10	8421.25
445.28	8484.44
445.47	8381.46
445.65	8423.59
445.84	8758.28
446.02	8589.77
446.21	8369.76
446.39	8437.63
446.58	8407.20
446.77	8498.49
446.95	8358.05
447.14	8348.69
447.32	8641.26
447.51	8617.85
447.69	8549.98
447.88	8559.34
448.06	8685.73
448.25	8638.92
448.43	8699.77
448.62	8699.77
448.80	8610.83
448.99	8774.67
449.17	8772.33
449.36	8753.60
449.54	8901.06
449.73	9088.30
449.91	9114.05
450.10	9085.96
450.28	9177.24
450.46	9158.52
450.65	9015.74
450.83	9200.65
451.02	9235.75
451.20	9600.88
451.39	9472.15
451.57	9444.06
451.76	9132.77
451.94	9247.46
452.13	9383.21
452.31	9544.70
452.49	9277.88
452.68	9455.76
452.86	9231.07
453.05	9359.80
453.23	9603.22
453.42	9659.39
453.60	9439.38
453.78	9593.86
453.97	9488.53
454.15	9717.90
454.34	9579.81
454.52	9818.55
454.70	9584.49
454.89	9717.90
455.07	9860.68
455.26	9907.49
455.44	10001.11
455.62	10038.56
455.81	9966.00
455.99	10178.99
456.17	9940.26
456.36	10118.14
456.54	10270.27
456.73	10202.40
456.91	10586.24
457.09	10150.90
457.28	10698.59
457.46	10359.21
457.64	10588.58
457.83	10654.12
458.01	10583.90
458.19	10663.48
458.38	10626.03
458.56	10843.70
458.74	10600.29
458.93	10710.29
459.11	10729.02
459.29	10963.07
459.48	10796.89
459.66	10934.98
459.84	11016.90
460.03	11290.74
460.21	11009.88
460.39	11077.76
460.57	11246.27
460.76	11173.72
460.94	11396.07
461.12	11042.65
461.31	11187.76
461.49	11061.37
461.67	11323.51
461.85	11620.76
462.04	11372.66
462.22	11510.75
462.40	11845.45
462.59	11379.68
462.77	11545.86
462.95	11939.07
463.13	11606.72
463.32	11644.17
463.50	11838.43
463.68	11779.92
463.86	12063.12
464.05	11918.01
464.23	11836.09
464.41	11857.15
464.59	11920.35
464.78	12149.72
464.96	12063.12
465.14	12072.48
465.32	12224.62
465.50	12336.96
465.69	12362.71
465.87	12142.70
466.05	12297.17
466.23	12250.36
466.41	12229.30
466.60	12561.66
466.78	12418.88
466.96	12065.46
467.14	12318.24
467.32	12470.37
467.51	12739.54
467.69	12257.39
467.87	12631.87
468.05	12540.59
468.23	12582.72
468.41	12498.46
468.60	12578.04
468.78	12971.25
468.96	12580.38
469.14	12830.82
469.32	13057.85
469.50	12535.91
469.69	13036.78
469.87	13233.39
470.05	13425.31
470.23	13413.61
470.41	13076.57
470.59	13247.43
470.77	13053.17
470.95	13341.05
471.14	13853.63
471.32	13242.75
471.50	13671.07
471.68	13745.97
471.86	13855.97
472.04	13671.07
472.22	14270.25
472.40	13724.90
472.58	14115.77
472.77	14340.46
472.95	14211.73
473.13	14923.26
473.31	14209.39
473.49	14272.59
473.67	14043.21
473.85	14319.40
474.03	14911.55
474.21	14717.29
474.39	14579.20
474.57	14794.53
474.75	14988.79
474.93	15028.58
475.12	14913.89
475.30	15250.93
475.48	14923.26
475.66	15314.13
475.84	15351.57
476.02	15550.52
476.20	15344.55
476.38	15749.46
476.56	15948.41
476.74	16107.57
476.92	15925.00
477.10	15840.75
477.28	16046.71
477.46	16313.53
477.64	16341.62
477.82	16676.32
478.00	17085.91
478.18	16898.67
478.36	17179.53
478.54	16952.50
478.72	17245.07
478.90	17767.01
479.08	17532.95
479.26	17675.73
479.44	17657.00
479.62	17731.90
479.80	18146.17
479.98	18499.59
480.16	18597.90
480.34	18382.57
480.52	18504.28
480.70	18815.57
480.88	18630.66
481.06	19070.68
481.24	19051.96
481.41	19192.39
481.59	19381.98
481.77	19662.84
481.95	19552.84
482.13	19721.35
482.31	19985.83
482.49	20685.65
482.67	20348.62
482.85	20650.55
483.03	20350.96
483.21	21025.03
483.39	21092.91
483.57	21041.42
483.74	20922.05
483.92	21364.41
484.10	21282.49
484.28	21802.09
484.46	22008.06
484.64	22499.57
484.82	22022.10
485.00	22497.23
485.18	22764.05
485.35	23278.97
485.53	22918.53
485.71	23325.78
485.89	23543.45
486.07	23426.42
486.25	23372.59
486.43	23761.12
486.61	23868.78
486.78	23978.79
486.96	24456.26
487.14	24746.48
487.32	25113.95
487.50	25282.47
487.68	24854.15
487.85	25352.68
488.03	25493.12
488.21	25944.84
488.39	25991.65
488.57	26174.21
488.75	26375.50
488.92	26757.00
489.10	26745.30
489.28	26824.88
489.46	27110.43
489.64	27218.09
489.81	27648.75
489.99	27948.34
490.17	28023.23
490.35	28329.84
490.53	28376.66
490.70	28386.02
490.88	28287.71
491.06	28994.56
491.24	28744.12
491.41	29462.66
491.59	29474.37
491.77	29385.43
491.95	29745.87
492.13	29804.38
492.30	29919.07
492.48	30267.81
492.66	30319.30
492.84	30651.66
493.01	30623.57
493.19	31087.00
493.37	30813.15
493.54	31426.37
493.72	31543.40
493.90	31803.20
494.08	31934.27
494.25	32086.40
494.43	32273.65
494.61	32751.12
494.79	32542.81
494.96	32320.46
495.14	33039.00
495.32	33624.14
495.49	33640.52
495.67	33621.80
495.85	33532.86
496.02	34232.68
496.20	34391.83
496.38	34345.02
496.55	34101.61
496.73	35215.70
496.91	34651.63
497.09	35353.79
497.26	35098.67
497.44	35260.17
497.62	35150.17
497.79	36177.66
497.97	35599.55
498.14	36037.23
498.32	36217.45
498.50	36268.94
498.67	36479.59
498.85	36605.98
499.03	36837.69
499.20	37223.88
499.38	36954.72
499.56	37706.03
499.73	36706.62
499.91	37347.93
500.08	37713.05
500.26	37661.56
500.44	37846.46
500.61	38057.11
500.79	37846.46
500.97	38218.61
501.14	38382.45
501.32	39124.40
501.49	38382.45
501.67	38735.87
501.84	38911.41
502.02	39351.43
502.20	39400.58
502.37	39419.30
502.55	39573.78
502.72	39138.44
502.90	39910.82
503.07	39658.04
503.25	40147.21
503.43	39758.68
503.60	40563.82
503.78	40067.63
503.95	40245.51
504.13	40964.06
504.30	41223.86
504.48	40952.35
504.65	41076.40
504.83	41394.71
505.01	41731.75
505.18	41680.26
505.36	41549.19
505.53	41694.30
505.71	41801.97
505.88	42014.96
506.06	41532.81
506.23	42281.78
506.41	42251.35
506.58	42150.71
506.76	42286.46
506.93	42433.91
507.11	42419.87
507.28	42784.99
507.46	42813.08
507.63	43234.38
507.81	43679.08
507.98	43393.53
508.16	43058.84
508.33	43536.30
508.50	43976.33
508.68	43545.67
508.85	44016.11
509.03	44119.10
509.20	44353.15
509.38	44947.65
509.55	44313.36
509.73	44851.69
509.90	44807.22
510.08	44540.39
510.25	45006.16
510.42	45294.05
510.60	45242.56
510.77	45350.22
510.95	45523.42
511.12	45617.04
511.30	45436.82
511.47	45677.90
511.64	45968.12
511.82	46129.62
511.99	45654.49
512.17	46110.89
512.34	46052.38
512.51	46274.73
512.69	46536.87
512.86	46930.08
513.04	46948.81
513.21	46679.64
513.38	46937.10
513.56	46932.42
513.73	47051.79
513.90	46553.26
514.08	47288.18
514.25	47243.71
514.43	47122.01
514.60	47622.88
514.77	47629.90
514.95	47845.23
515.12	47545.64
515.29	47641.60
515.47	48587.18
515.64	48200.99
515.81	47892.04
515.99	48612.93
516.16	49055.29
516.33	48650.38
516.51	49008.48
516.68	48711.23
516.85	48584.84
517.03	49319.77
517.20	49177.00
517.37	49036.56
517.54	48938.26
517.72	49354.88
517.89	48987.41
518.06	49507.01
518.24	49462.54
518.41	49546.80
518.58	49507.01
518.75	49420.41
518.93	49624.04
519.10	49731.70
519.27	49860.43
519.45	49785.54
519.62	49918.95
519.79	50136.62
519.96	50347.26
520.14	50415.14
520.31	50424.50
520.48	50506.42
520.65	50452.59
520.83	50787.28
521.00	50677.28
521.17	50829.41
521.34	51107.94
521.52	51161.77
521.69	51217.94
521.86	51075.17
522.03	51180.49
522.20	51503.49
522.38	51746.90
522.55	51803.08
522.72	51538.60
522.89	51292.84
523.07	51929.47
523.24	51543.28
523.41	51978.62
523.58	51824.14
523.75	51814.78
523.92	52177.56
524.10	52107.35
524.27	52303.95
524.44	52046.49
524.61	52306.29
524.78	52346.08
524.96	52437.36
525.13	52528.64
525.30	52633.97
525.47	52652.69
525.64	52797.80
525.81	52736.95
525.98	52846.96
526.16	52807.17
526.33	52500.56
526.50	53158.25
526.67	53076.33
526.84	52924.19
527.01	53338.47
527.18	53137.18
527.36	52839.93
527.53	53354.85
527.70	53609.97
527.87	53359.53
528.04	53289.32
528.21	53584.22
528.38	53483.58
528.55	53755.08
528.72	53415.71
528.89	53502.31
529.07	53567.84
529.24	53567.84
529.41	53691.89
529.58	53790.19
529.75	53741.04
529.92	53984.46
530.09	54017.22
530.26	54148.29
530.43	54045.31
530.60	53813.60
530.77	54007.86
530.94	54281.70
531.11	54134.25
531.28	54394.05
531.46	54710.02
531.63	54358.94
531.80	54064.03
531.97	54555.55
532.14	54410.43
532.31	54382.35
532.48	54581.29
532.65	54742.79
532.82	54628.10
532.99	54969.82
533.16	54747.47
533.33	54801.30
533.50	55103.23
533.67	54838.75
533.84	54901.95
534.01	55098.55
534.18	55161.75
534.35	55402.82
534.52	55384.10
534.69	55309.20
534.86	55393.46
535.03	55227.28
535.20	55267.07
535.37	55760.92
535.54	55664.96
535.71	55353.67
535.88	55760.92
536.05	55683.69
536.22	55852.20
536.38	55704.75
536.55	55613.47
536.72	55622.83
536.89	55835.82
537.06	55402.82
537.23	55807.73
537.40	55597.09
537.57	55971.57
537.74	55962.21
537.91	56224.35
538.08	55917.74
538.25	55854.54
538.42	56245.41
538.59	56119.02
538.75	55943.48
538.92	56273.50
539.09	56259.46
539.26	56250.09
539.43	56126.05
539.60	56587.13
539.77	56488.83
539.94	56669.05
540.11	56493.51
540.28	56545.00
540.44	56657.35
540.61	56566.07
540.78	56486.49
540.95	56488.83
541.12	56350.74
541.29	56580.11
541.46	56839.91
541.62	56851.61
541.79	56935.87
541.96	56568.41
542.13	56823.53
542.30	56608.20
542.47	56926.51
542.63	56989.70
542.80	56928.85
542.97	57284.61
543.14	57308.02
543.31	57343.12
543.48	57441.43
543.64	57790.17
543.81	57467.17
543.98	57420.36
544.15	57429.72
544.32	57450.79
544.48	57705.91
544.65	57509.30
544.82	57478.88
544.99	57574.84
545.16	57778.46
545.32	57499.94
545.49	57743.36
545.66	57811.23
545.83	57855.70
546.00	57968.05
546.16	57687.18
546.33	57703.57
546.50	57581.86
546.67	57841.66
546.83	57518.67
547.00	57935.28
547.17	57806.55
547.34	57939.96
547.50	58237.21
547.67	58274.66
547.84	58080.39
548.00	58225.51
548.17	58272.32
548.34	58211.46
548.51	58302.74
548.67	58248.91
548.84	58288.70
549.01	58255.93
549.18	58239.55
549.34	58494.67
549.51	58377.64
549.68	58529.78
549.84	58447.86
550.01	58632.76
550.18	58576.59
550.34	58466.58
550.51	58574.25
550.68	58415.09
550.84	58497.01
551.01	58876.18
551.18	58712.34
551.34	58644.46
551.51	58787.24
551.68	58693.61
551.84	58841.07
552.01	58433.81
552.18	58831.71
552.34	58672.55
552.51	58639.78
552.68	58700.64
552.84	58862.13
553.01	58890.22
553.18	59018.95
553.34	58702.98
553.51	58976.82
553.67	58890.22
553.84	59058.74
554.01	59278.75
554.17	59208.53
554.34	58995.54
554.51	59119.59
554.67	59250.66
554.84	58997.88
555.00	59274.07
555.17	58908.94
555.33	59044.69
555.50	59150.02
555.67	59161.72
555.83	59117.25
556.00	59440.24
556.16	59487.06
556.33	59372.37
556.50	59220.23
556.66	59365.35
556.83	59208.53
556.99	59461.31
557.16	59671.96
557.32	59470.67
557.49	59774.94
557.65	59494.08
557.82	59435.56
557.98	59489.40
558.15	59622.81
558.32	59573.66
558.48	59405.14
558.65	59777.28
558.81	59662.60
558.98	59676.64
559.14	59772.60
559.31	59838.14
559.47	59810.05
559.64	59838.14
559.80	59821.75
559.97	59810.05
560.13	59650.89
560.30	59784.30
560.46	59971.55
560.63	59803.03
560.79	59863.88
560.96	60058.15
561.12	59915.37
561.29	60039.42
561.45	60018.36
561.61	60025.38
561.78	60119.00
561.94	59735.15
562.11	60004.31
562.27	59744.51
562.44	60020.70
562.60	60055.81
562.77	60130.70
562.93	59863.88
563.10	60137.72
563.26	59910.69
563.42	60346.03
563.59	60107.30
563.75	59978.57
563.92	59924.74
564.08	60004.31
564.24	60273.48
564.41	60404.55
564.57	60320.29
564.74	60130.70
564.90	60336.67
565.07	60301.56
565.23	60378.80
565.39	60203.26
565.56	60376.46
565.72	60243.05
565.88	60416.25
566.05	60268.79
566.21	60240.71
566.38	60385.82
566.54	60374.12
566.70	60397.52
566.87	60446.68
567.03	60226.66
567.19	60521.57
567.36	60411.57
567.52	60425.61
567.68	60657.32
567.85	60390.50
568.01	60552.00
568.17	60158.79
568.34	60568.38
568.50	60385.82
568.66	60451.36
568.83	60624.56
568.99	60631.58
569.15	60662.00
569.32	60507.53
569.48	60409.23
569.64	60647.96
569.81	60666.69
569.97	60446.68
570.13	60526.25
570.30	60357.74
570.46	60573.06
570.62	60605.83
570.78	60430.29
570.95	60317.95
571.11	60774.35
571.27	60502.85
571.43	60692.43
571.60	60626.90
571.76	60720.52
571.92	60783.71
572.09	60842.23
572.25	60783.71
572.41	60514.55
572.57	60612.85
572.74	60685.41
572.90	60647.96
573.06	60729.88
573.22	60727.54
573.38	60900.74
573.55	60699.45
573.71	60893.72
573.87	60982.66
574.03	60561.36
574.20	60762.65
574.36	60594.13
574.52	60863.29
574.68	60718.18
574.84	60942.87
575.01	60980.32
575.17	60807.12
575.33	60781.37
575.49	60790.73
575.65	60645.62
575.82	61041.17
575.98	60989.68
576.14	60959.25
576.30	60837.54
576.46	60786.05
576.62	60842.23
576.79	60708.82
576.95	60828.18
577.11	60987.34
577.27	60842.23
577.43	60914.78
577.59	60769.67
577.75	61078.62
577.92	60713.50
578.08	60985.00
578.24	60886.70
578.40	60959.25
578.56	61050.53
578.72	60891.38
578.88	61167.56
579.04	61003.72
579.21	60945.21
579.37	61221.39
579.53	61153.52
579.69	60910.10
579.85	60905.42
580.01	60767.33
580.17	60952.23
580.33	61069.26
580.49	61137.13
580.65	60980.32
580.82	61071.60
580.98	61008.40
581.14	60807.12
581.30	61132.45
581.46	60931.17
581.62	60900.74
581.78	60928.83
581.94	61134.79
582.10	61104.37
582.26	61034.15
582.42	60905.42
582.58	60828.18
582.74	60872.65
582.90	61102.03
583.06	61029.47
583.22	60856.27
583.38	61106.71
583.54	61064.58
583.70	61116.07
583.86	61102.03
584.02	61111.39
584.18	61148.84
584.34	61130.11
584.50	61003.72
584.66	61169.90
584.82	60959.25
584.98	61303.31
585.14	61237.78
585.30	61064.58
585.46	61207.35
585.62	61186.28
585.78	61155.86
585.94	60727.54
586.10	61219.05
586.26	61300.97
586.42	61205.01
586.58	61460.13
586.74	61216.71
586.90	61078.62
587.06	61137.13
587.22	61434.38
587.38	61109.05
587.54	61179.26
587.70	61268.20
587.86	61017.77
588.02	61155.86
588.18	61434.38
588.34	61228.41
