SpectraSuite Data File
++++++++++++++++++++++++++++++++++++
Date: Fri Oct 25 11:23:29 EDT 2013
User: price-jones
Dark Spectrum Present: No
Reference Spectrum Present: No
Number of Sampled Component Spectra: 1
Spectrometers: USB2+H05261
Integration Time (usec): 100000 (USB2+H05261)
Spectra Averaged: 1 (USB2+H05261)
Boxcar Smoothing: 0 (USB2+H05261)
Correct for Electrical Dark: No (USB2+H05261)
Strobe/Lamp Enabled: No (USB2+H05261)
Correct for Detector Non-linearity: No (USB2+H05261)
Correct for Stray Light: No (USB2+H05261)
Number of Pixels in Processed Spectrum: 2048
>>>>>Begin Processed Spectral Data<<<<<
365.73	259.80
365.92	259.80
366.12	259.80
366.32	191.92
366.52	110.01
366.72	224.69
366.91	142.77
367.11	215.33
367.31	142.77
367.51	161.50
367.70	166.18
367.90	107.66
368.10	142.77
368.30	159.16
368.49	152.13
368.69	98.30
368.89	128.73
369.09	93.62
369.28	184.90
369.48	198.95
369.68	67.88
369.87	255.12
370.07	180.22
370.27	259.80
370.47	332.36
370.66	592.16
370.86	601.52
371.06	634.29
371.25	648.33
371.45	615.56
371.65	702.16
371.84	631.94
372.04	699.82
372.24	713.86
372.44	664.71
372.63	770.04
372.83	671.73
373.03	695.14
373.22	727.91
373.42	774.72
373.62	713.86
373.81	779.40
374.01	819.19
374.21	884.72
374.40	751.31
374.60	837.91
374.79	840.25
374.99	870.68
375.19	812.17
375.38	882.38
375.58	851.96
375.78	866.00
375.97	884.72
376.17	875.36
376.37	943.24
376.56	919.83
376.76	957.28
376.95	828.55
377.15	814.51
377.35	884.72
377.54	870.68
377.74	910.47
377.93	901.11
378.13	947.92
378.33	915.15
378.52	943.24
378.72	940.90
378.91	957.28
379.11	999.41
379.31	936.21
379.50	924.51
379.70	933.87
379.89	926.85
380.09	968.98
380.28	954.94
380.48	943.24
380.68	924.51
380.87	992.39
381.07	985.37
381.26	964.30
381.46	1020.47
381.65	1008.77
381.85	1050.90
382.04	1039.20
382.24	1102.39
382.43	1116.44
382.63	1041.54
382.83	1050.90
383.02	1151.54
383.22	1144.52
383.41	1027.50
383.61	1139.84
383.80	1081.33
384.00	1118.78
384.19	1081.33
384.39	1111.75
384.58	1153.88
384.78	1100.05
384.97	1118.78
385.17	1135.16
385.36	1203.04
385.56	1231.12
385.75	1123.46
385.95	1153.88
386.14	1203.04
386.34	1207.72
386.53	1221.76
386.72	1273.25
386.92	1270.91
387.11	1233.46
387.31	1207.72
387.50	1242.82
387.70	1256.87
387.89	1214.74
388.09	1263.89
388.28	1210.06
388.48	1294.32
388.67	1320.06
388.86	1256.87
389.06	1373.89
389.25	1385.60
389.45	1413.68
389.64	1357.51
389.84	1308.36
390.03	1401.98
390.22	1434.75
390.42	1385.60
390.61	1362.19
390.81	1413.68
391.00	1409.00
391.19	1465.18
391.39	1376.24
391.58	1455.81
391.78	1465.18
391.97	1472.20
392.16	1434.75
392.36	1526.03
392.55	1556.46
392.75	1551.78
392.94	1533.05
393.13	1430.07
393.33	1483.90
393.52	1526.03
393.71	1596.25
393.91	1535.39
394.10	1603.27
394.29	1605.61
394.49	1544.75
394.68	1671.14
394.88	1619.65
395.07	1774.13
395.26	1645.40
395.46	1654.76
395.65	1713.27
395.84	1692.21
396.04	1788.17
396.23	1816.26
396.42	1732.00
396.62	1813.92
396.81	1776.47
397.00	1706.25
397.19	1781.15
397.39	1804.55
397.58	1827.96
397.77	1774.13
397.97	1872.43
398.16	1844.34
398.35	1837.32
398.55	1872.43
398.74	1886.47
398.93	1914.56
399.12	1973.07
399.32	1914.56
399.51	1914.56
399.70	1959.03
399.90	1973.07
400.09	1977.75
400.28	2097.12
400.47	2066.69
400.67	2069.03
400.86	2106.48
401.05	2169.68
401.24	2036.27
401.44	2181.38
401.63	2069.03
401.82	2132.23
402.01	2132.23
402.21	2139.25
402.40	2232.87
402.59	2204.78
402.78	2207.13
402.97	2218.83
403.17	2359.26
403.36	2286.70
403.55	2246.91
403.74	2424.80
403.93	2356.92
404.13	2169.68
404.32	2377.98
404.51	2356.92
404.70	2455.22
404.89	2382.67
405.09	2445.86
405.28	2450.54
405.47	2445.86
405.66	2502.03
405.85	2565.23
406.05	2579.27
406.24	2523.10
406.43	2612.04
406.62	2616.72
406.81	2590.97
407.00	2675.23
407.20	2558.21
407.39	2551.18
407.58	2726.72
407.77	2871.84
407.96	2731.41
408.15	2785.24
408.34	2771.19
408.54	2832.05
408.73	2731.41
408.92	2806.30
409.11	2906.95
409.30	2888.22
409.49	2846.09
409.68	2951.42
409.87	3035.67
410.07	2930.35
410.26	2991.20
410.45	3070.78
410.64	3173.77
410.83	3089.51
411.02	3087.17
411.21	3169.09
411.40	3077.80
411.59	3129.30
411.78	3276.75
411.98	3166.74
412.17	3246.32
412.36	3344.63
412.55	3365.69
412.74	3386.76
412.93	3417.18
413.12	3393.78
413.31	3592.72
413.50	3527.19
413.69	3524.85
413.88	3597.40
414.07	3602.08
414.26	3669.96
414.45	3606.77
414.64	3616.13
414.83	3625.49
415.02	3646.55
415.22	3794.01
415.41	3911.04
415.60	3918.06
415.79	3880.61
415.98	3950.82
416.17	3999.98
416.36	4046.79
416.55	4007.00
416.74	3997.64
416.93	4072.53
417.12	4004.66
417.31	4133.39
417.50	4241.05
417.69	4238.71
417.88	4383.82
418.07	4329.99
418.26	4327.65
418.45	4404.89
418.64	4542.98
418.83	4393.19
419.02	4421.27
419.21	4477.44
419.39	4491.49
419.58	4528.94
419.77	4458.72
419.96	4706.82
420.15	4720.86
420.34	4667.03
420.53	4540.64
420.72	4631.92
420.91	4716.18
421.10	4812.14
421.29	4812.14
421.48	4706.82
421.67	4770.01
421.86	4840.23
422.05	4873.00
422.24	4800.44
422.43	4779.37
422.61	4865.97
422.80	4968.96
422.99	4891.72
423.18	4919.81
423.37	5093.01
423.56	4980.66
423.75	4952.57
423.94	4901.08
424.13	4758.31
424.32	4877.68
424.50	4882.36
424.69	5050.88
424.88	5083.64
425.07	4880.02
425.26	4915.12
425.45	4959.60
425.64	4903.42
425.83	5128.11
426.01	5081.30
426.20	5034.49
426.39	5062.58
426.58	5078.96
426.77	5071.94
426.96	5280.25
427.15	4992.36
427.33	5254.50
427.52	5210.03
427.71	5305.99
427.90	5242.80
428.09	5277.91
428.28	5352.81
428.46	5303.65
428.65	5497.92
428.84	5577.50
429.03	5427.70
429.22	5362.17
429.40	5533.03
429.59	5441.75
429.78	5334.08
429.97	5273.23
430.16	5303.65
430.34	5561.11
430.53	5593.88
430.72	5619.63
430.91	5593.88
431.10	5748.36
431.28	5846.66
431.47	5823.25
431.66	5757.72
431.85	5823.25
432.03	5879.43
432.22	6036.24
432.41	6015.18
432.60	6061.99
432.79	5919.21
432.97	6061.99
433.16	5944.96
433.35	5966.03
433.54	6113.48
433.72	6211.78
433.91	6115.82
434.10	6284.34
434.28	6015.18
434.47	6127.52
434.66	6115.82
434.85	6314.77
435.03	6438.81
435.22	6389.66
435.41	6541.80
435.59	6375.62
435.78	6595.63
435.97	6502.01
436.16	6415.41
436.34	6642.44
436.53	6389.66
436.72	6553.50
436.90	6422.43
437.09	6604.99
437.28	6668.19
437.46	6785.21
437.65	6759.47
437.84	6640.10
438.02	6773.51
438.21	6923.30
438.40	6633.08
438.58	6834.36
438.77	7098.84
438.96	7073.10
439.14	7077.78
439.33	7314.17
439.52	7262.68
439.70	7152.68
439.89	7258.00
440.08	7344.60
440.26	7449.93
440.45	7480.35
440.63	7428.86
440.82	7581.00
441.01	7538.87
441.19	7639.51
441.38	7850.16
441.57	7920.37
441.75	7948.46
441.94	8060.80
442.12	7815.05
442.31	8128.68
442.50	8128.68
442.68	8131.02
442.87	8013.99
443.05	8065.49
443.24	8112.30
443.43	8166.13
443.61	8325.29
443.80	8479.76
443.98	8121.66
444.17	7899.31
444.35	8042.08
444.54	8451.67
444.73	8229.32
444.91	8339.33
445.10	8381.46
445.28	8208.26
445.47	8372.10
445.65	8393.16
445.84	8554.66
446.02	8386.14
446.21	8468.06
446.39	8388.48
446.58	8512.53
446.77	8372.10
446.95	8266.77
447.14	8411.89
447.32	8683.39
447.51	8592.11
447.69	8355.71
447.88	8765.31
448.06	8437.63
448.25	8575.72
448.43	8479.76
448.62	8482.10
448.80	8617.85
448.99	8734.88
449.17	8779.35
449.36	8652.96
449.54	9015.74
449.73	8863.61
449.91	8992.34
450.10	8912.76
450.28	9149.15
450.46	8980.64
450.65	9128.09
450.83	9029.79
451.02	9064.89
451.20	9088.30
451.39	9238.09
451.57	9153.84
451.76	9032.13
451.94	9303.63
452.13	9378.53
452.31	9427.68
452.49	9221.71
452.68	9415.98
452.86	9348.10
453.05	9439.38
453.23	9338.74
453.42	9542.36
453.60	9362.14
453.78	9542.36
453.97	9451.08
454.15	9661.73
454.34	9504.92
454.52	9774.08
454.70	9600.88
454.89	9734.29
455.07	9806.84
455.26	9720.24
455.44	10071.33
455.62	9958.98
455.81	9991.75
455.99	9958.98
456.17	10195.37
456.36	10186.01
456.54	10256.23
456.73	10263.25
456.91	10541.77
457.09	10469.22
457.28	10658.80
457.46	10384.96
457.64	10501.98
457.83	10431.77
458.01	10511.35
458.19	10565.18
458.38	10590.92
458.56	10675.18
458.74	10977.11
458.93	10946.69
459.11	10958.39
459.29	10710.29
459.48	10869.45
459.66	10689.23
459.84	10813.28
460.03	11248.61
460.21	11075.42
460.39	11094.14
460.57	10918.60
460.76	11159.67
460.94	10927.96
461.12	11265.00
461.31	11068.39
461.49	11283.72
461.67	11260.32
461.85	11463.94
462.04	11543.52
462.22	12138.02
462.40	11459.26
462.59	11777.58
462.77	11637.14
462.95	11501.39
463.13	11344.58
463.32	11611.40
463.50	11747.15
463.68	11831.41
463.86	12065.46
464.05	11716.72
464.23	11646.51
464.41	12028.01
464.59	11719.06
464.78	12018.65
464.96	12100.57
465.14	11903.96
465.32	12039.72
465.50	12283.13
465.69	12035.03
465.87	12231.64
466.05	12138.02
466.23	12063.12
466.41	12376.75
466.60	12374.41
466.78	12098.23
466.96	12152.06
467.14	12231.64
467.32	12285.47
467.51	12418.88
467.69	12081.85
467.87	12393.14
468.05	12807.41
468.23	12517.18
468.41	12615.49
468.60	12697.41
468.78	12872.95
468.96	12528.89
469.14	12872.95
469.32	12795.71
469.50	12521.87
469.69	13263.82
469.87	13132.75
470.05	13025.08
470.23	13186.58
470.41	13064.87
470.59	13247.43
470.77	13046.15
470.95	13504.89
471.14	13713.20
471.32	13123.38
471.50	13741.29
471.68	13696.82
471.86	13870.01
472.04	13806.82
472.22	14197.69
472.40	13769.37
472.58	13851.29
472.77	13991.72
472.95	14120.45
473.13	14403.66
473.31	14256.20
473.49	14288.97
473.67	14303.01
473.85	14396.64
474.03	14773.46
474.21	15030.92
474.39	14801.55
474.57	14778.14
474.75	14801.55
474.93	14911.55
475.12	15009.86
475.30	15077.73
475.48	14960.70
475.66	15646.48
475.84	15218.16
476.02	15602.01
476.20	15330.51
476.38	15667.55
476.56	16112.25
476.74	16119.27
476.92	15833.72
477.10	15957.77
477.28	16035.01
477.46	16425.88
477.64	16570.99
477.82	16524.18
478.00	17146.76
478.18	17020.38
478.36	16989.95
478.54	17366.78
478.72	17343.37
478.90	17490.82
479.08	17612.53
479.26	17542.32
479.44	17558.70
479.62	17862.97
479.80	17996.38
479.98	18256.18
480.16	18597.90
480.34	18380.23
480.52	19035.58
480.70	18806.20
480.88	18560.45
481.06	18754.71
481.24	19005.15
481.41	19290.70
481.59	19489.64
481.77	19379.64
481.95	19480.28
482.13	19805.61
482.31	19695.61
482.49	20414.15
482.67	20430.54
482.85	20486.71
483.03	21174.83
483.21	21003.97
483.39	20947.79
483.57	20905.66
483.74	21441.65
483.92	21223.98
484.10	21523.57
484.28	21710.81
484.46	22277.22
484.64	22450.42
484.82	22338.07
485.00	22522.98
485.18	22663.41
485.35	23318.76
485.53	23044.91
485.71	23040.23
485.89	23283.65
486.07	23353.87
486.25	23475.57
486.43	23630.05
486.61	23892.19
486.78	24123.90
486.96	23929.64
487.14	24510.09
487.32	24521.79
487.50	24882.24
487.68	25076.50
487.85	25497.80
488.03	25324.60
488.21	25790.36
488.39	25993.99
488.57	26001.01
488.75	26300.60
488.92	26380.18
489.10	27019.14
489.28	27028.51
489.46	27157.24
489.64	27143.19
489.81	27648.75
489.99	28154.30
490.17	27615.98
490.35	28173.03
490.53	28091.11
490.70	28430.49
490.88	28212.82
491.06	28898.59
491.24	28910.30
491.41	28861.15
491.59	29820.77
491.77	29085.84
491.95	30024.39
492.13	29937.79
492.30	30417.60
492.48	30015.03
492.66	30609.53
492.84	30682.08
493.01	30824.86
493.19	30766.34
493.37	31302.32
493.54	31187.64
493.72	31299.98
493.90	31356.16
494.08	31861.71
494.25	32311.10
494.43	32566.21
494.61	32304.07
494.79	32650.47
494.96	32826.01
495.14	32966.45
495.32	33296.46
495.49	33191.14
495.67	33385.40
495.85	33593.71
496.02	34108.63
496.20	34139.05
496.38	33937.77
496.55	34141.39
496.73	34852.92
496.91	34628.23
497.09	34724.19
497.26	35189.95
497.44	35112.72
497.62	35391.24
497.79	36217.45
497.97	35482.52
498.14	35964.67
498.32	36371.92
498.50	36554.49
498.67	36598.96
498.85	36634.06
499.03	36755.77
499.20	36767.48
499.38	36762.79
499.56	37053.02
499.73	37411.12
499.91	37923.70
500.08	37888.59
500.26	37502.40
500.44	37813.70
500.61	38050.09
500.79	37916.68
500.97	37827.74
501.14	38583.73
501.32	38705.44
501.49	38600.12
501.67	38787.36
501.84	39161.84
502.02	38906.73
502.20	39456.75
502.37	39339.72
502.55	39379.51
502.72	39426.32
502.90	39571.44
503.07	39484.84
503.25	40095.72
503.43	39889.75
503.60	40245.51
503.78	40119.12
503.95	40355.52
504.13	40540.42
504.30	40659.79
504.48	40517.01
504.65	40842.35
504.83	41111.51
505.01	41254.28
505.18	41888.57
505.36	41474.29
505.53	41205.13
505.71	42368.38
505.88	41979.85
506.06	41488.34
506.23	41865.16
506.41	41783.24
506.58	42190.50
506.76	42396.46
506.93	42543.92
507.11	42735.84
507.28	42862.23
507.46	42972.24
507.63	42756.91
507.81	43414.60
507.98	43320.98
508.16	43349.06
508.33	43693.12
508.50	43255.44
508.68	44112.08
508.85	44294.64
509.03	44161.23
509.20	44273.57
509.38	44568.48
509.55	44657.42
509.73	44360.17
509.90	44711.25
510.08	44257.19
510.25	44158.89
510.42	44882.11
510.60	45329.16
510.77	45404.05
510.95	45233.19
511.12	45186.38
511.30	45727.05
511.47	45542.14
511.64	45916.63
511.82	46127.28
511.99	46066.42
512.17	46202.18
512.34	45694.28
512.51	46569.64
512.69	46848.16
512.86	46227.92
513.04	47058.81
513.21	46621.13
513.38	46845.82
513.56	47143.07
513.73	46876.25
513.90	47154.77
514.08	47159.45
514.25	47533.94
514.43	47227.33
514.60	47419.25
514.77	47620.54
514.95	47765.65
515.12	47515.22
515.29	47934.17
515.47	48133.12
515.64	48224.40
515.81	48067.58
515.99	48268.87
516.16	48676.12
516.33	48355.47
516.51	48982.73
516.68	48683.14
516.85	48605.91
517.03	48811.87
517.20	48964.01
517.37	49205.08
517.54	49202.74
517.72	49172.31
517.89	49574.89
518.06	49322.11
518.24	49502.33
518.41	49191.04
518.58	49460.20
518.75	49277.64
518.93	49968.10
519.10	49586.59
519.27	49813.62
519.45	50007.89
519.62	49954.05
519.79	50255.98
519.96	50134.28
520.14	50272.37
520.31	50307.47
520.48	50429.18
520.65	50452.59
520.83	50665.58
521.00	50829.41
521.17	51000.27
521.34	50492.38
521.52	50850.48
521.69	50990.91
521.86	51224.96
522.03	51405.19
522.20	51426.25
522.38	51475.40
522.55	51344.33
522.72	51276.46
522.89	51299.86
523.07	52002.02
523.24	51985.64
523.41	51505.83
523.58	51440.29
523.75	52039.47
523.92	51796.06
524.10	51887.34
524.27	52126.07
524.44	52076.92
524.61	52406.94
524.78	52500.56
524.96	52032.45
525.13	52357.78
525.30	52968.66
525.47	52699.50
525.64	52795.46
525.81	52821.21
525.98	52795.46
526.16	52631.63
526.33	52893.77
526.50	53179.31
526.67	52924.19
526.84	53158.25
527.01	53109.10
527.18	53015.47
527.36	52975.69
527.53	53427.41
527.70	53373.58
527.87	53460.18
528.04	53303.36
528.21	53811.26
528.38	53483.58
528.55	53750.40
528.72	53762.11
528.89	53698.91
529.07	53492.94
529.24	53628.69
529.41	53890.83
529.58	53787.85
529.75	53607.63
529.92	53638.06
530.09	53787.85
530.26	54237.23
530.43	54045.31
530.60	53911.90
530.77	53937.65
530.94	54174.04
531.11	54115.53
531.28	54450.22
531.46	54487.67
531.63	54426.82
531.80	54585.97
531.97	54424.48
532.14	54513.42
532.31	54508.74
532.48	54705.34
532.65	54735.77
532.82	54733.43
532.99	54735.77
533.16	54707.68
533.33	54918.33
533.50	54890.24
533.67	54796.62
533.84	54784.92
534.01	55168.77
534.18	55077.49
534.35	55360.69
534.52	55199.19
534.69	55264.73
534.86	55454.31
535.03	55246.00
535.20	54995.57
535.37	55463.67
535.54	55519.85
535.71	55161.75
535.88	55384.10
536.05	55529.21
536.22	55753.90
536.38	55807.73
536.55	55735.18
536.72	55728.16
536.89	55613.47
537.06	55826.46
537.23	55861.57
537.40	55653.26
537.57	55945.83
537.74	55927.10
537.91	56226.69
538.08	56203.28
538.25	55957.53
538.42	56107.32
538.59	56287.54
538.75	56002.00
538.92	56109.66
539.09	56367.12
539.26	56140.09
539.43	56289.88
539.60	56210.31
539.77	56472.45
539.94	56655.01
540.11	56509.89
540.28	56825.87
540.44	56837.57
540.61	56619.90
540.78	56690.12
540.95	56662.03
541.12	56647.99
541.29	56465.42
541.46	56516.92
541.62	56547.34
541.79	56580.11
541.96	56472.45
542.13	56601.18
542.30	56999.07
542.47	56694.80
542.63	56961.62
542.80	57085.67
542.97	57113.75
543.14	57223.76
543.31	57425.04
543.48	57167.58
543.64	57696.55
543.81	57551.43
543.98	57425.04
544.15	57345.47
544.32	57623.99
544.48	57579.52
544.65	57329.08
544.82	57373.55
544.99	57394.62
545.16	57722.29
545.32	57251.84
545.49	57591.22
545.66	57766.76
545.83	57663.78
546.00	57836.98
546.16	57659.10
546.33	57312.70
546.50	57509.30
546.67	57726.97
546.83	57595.90
547.00	57733.99
547.17	57623.99
547.34	57944.64
547.50	58150.61
547.67	58225.51
547.84	58007.84
548.00	58157.63
548.17	58333.17
548.34	58148.27
548.51	58319.13
548.67	58267.64
548.84	58183.38
549.01	58234.87
549.18	58241.89
549.34	58403.39
549.51	58321.47
549.68	58443.18
549.84	58389.34
550.01	58724.04
550.18	58485.31
550.34	58747.45
550.51	58541.48
550.68	58674.89
550.84	58445.52
551.01	58766.17
551.18	58525.10
551.34	58602.33
551.51	58497.01
551.68	58504.03
551.84	58604.67
552.01	58773.19
552.18	58728.72
552.34	58719.36
552.51	58585.95
552.68	58644.46
552.84	58930.01
553.01	58848.09
553.18	59049.38
553.34	58880.86
553.51	58864.47
553.67	58953.41
553.84	58918.31
554.01	59070.44
554.17	59210.87
554.34	59098.53
554.51	59061.08
554.67	59274.07
554.84	59217.89
555.00	58983.84
555.17	59058.74
555.33	58967.46
555.50	59028.31
555.67	59063.42
555.83	59126.61
556.00	59243.64
556.16	59536.21
556.33	59501.10
556.50	59508.12
556.66	59400.46
556.83	59271.73
556.99	59592.38
557.16	59690.68
557.32	59601.74
557.49	59723.45
557.65	59552.59
557.82	59501.10
557.98	59419.18
558.15	59475.35
558.32	59618.13
558.48	59571.32
558.65	59540.89
558.81	59554.93
558.98	59611.10
559.14	59753.88
559.31	59674.30
559.47	59854.52
559.64	59749.20
559.80	59536.21
559.97	59714.09
560.13	59437.90
560.30	59842.82
560.46	59634.51
560.63	59772.60
560.79	59859.20
560.96	60058.15
561.12	60060.49
561.29	59920.05
561.45	59728.13
561.61	60046.44
561.78	59924.74
561.94	59842.82
562.11	59992.61
562.27	59924.74
562.44	60126.02
562.60	60245.39
562.77	60137.72
562.93	59924.74
563.10	60107.30
563.26	59955.16
563.42	60250.07
563.59	60086.23
563.75	60126.02
563.92	60257.09
564.08	60257.09
564.24	60252.41
564.41	60287.52
564.57	60154.11
564.74	60191.56
564.90	60175.17
565.07	60168.15
565.23	60226.66
565.39	60285.18
565.56	60252.41
565.72	60285.18
565.88	60259.43
566.05	60266.45
566.21	60491.15
566.38	60519.23
566.54	60320.29
566.70	60453.70
566.87	60549.66
567.03	60364.76
567.19	60694.77
567.36	60596.47
567.52	60460.72
567.68	60486.46
567.85	60266.45
568.01	60390.50
568.17	60470.08
568.34	60467.74
568.50	60453.70
568.66	60458.38
568.83	60591.79
568.99	60296.88
569.15	60441.99
569.32	60259.43
569.48	60505.19
569.64	60654.98
569.81	60568.38
569.97	60629.24
570.13	60638.60
570.30	60535.62
570.46	60493.49
570.62	60605.83
570.78	60589.45
570.95	60629.24
571.11	60594.13
571.27	60690.09
571.43	60626.90
571.60	60903.08
571.76	60706.47
571.92	61066.92
572.09	60673.71
572.25	60507.53
572.41	60762.65
572.57	60629.24
572.74	60795.42
572.90	60727.54
573.06	60697.11
573.22	60835.20
573.38	60615.19
573.55	60652.64
573.71	60938.19
573.87	60774.35
574.03	60750.94
574.20	60720.52
574.36	60767.33
574.52	60755.63
574.68	60935.85
574.84	61071.60
575.01	60846.91
575.17	60832.86
575.33	60821.16
575.49	60692.43
575.65	60795.42
575.82	60900.74
575.98	60903.08
576.14	61069.26
576.30	60720.52
576.46	60750.94
576.62	60889.04
576.79	60764.99
576.95	60619.88
577.11	60975.64
577.27	60994.36
577.43	60992.02
577.59	60846.91
577.75	60846.91
577.92	60786.05
578.08	60961.59
578.24	60982.66
578.40	61087.98
578.56	61071.60
578.72	60903.08
578.88	61078.62
579.04	61268.20
579.21	61209.69
579.37	60884.36
579.53	60980.32
579.69	60872.65
579.85	60947.55
580.01	60912.44
580.17	61027.13
580.33	60917.12
580.49	60982.66
580.65	61118.41
580.82	60949.89
580.98	60786.05
581.14	60849.25
581.30	61176.92
581.46	60882.02
581.62	61132.45
581.78	61109.05
581.94	60882.02
582.10	60874.99
582.26	60963.93
582.42	61050.53
582.58	61137.13
582.74	60970.96
582.90	61034.15
583.06	61080.96
583.22	60837.54
583.38	61055.21
583.54	61024.79
583.70	61029.47
583.86	61209.69
584.02	60989.68
584.18	61097.34
584.34	61031.81
584.50	61043.51
584.66	60783.71
584.82	60980.32
584.98	61066.92
585.14	61118.41
585.30	61071.60
585.46	61207.35
585.62	61139.47
585.78	61242.46
585.94	60954.57
586.10	61197.99
586.26	61076.28
586.42	61090.32
586.58	61099.68
586.74	61141.81
586.90	61193.31
587.06	61099.68
587.22	61069.26
587.38	61120.75
587.54	61265.86
587.70	61244.80
587.86	61230.75
588.02	61277.57
588.18	61329.06
588.34	61080.96
588.49	61315.01
