SpectraSuite Data File
++++++++++++++++++++++++++++++++++++
Date: Fri Oct 25 11:26:08 EDT 2013
User: price-jones
Dark Spectrum Present: No
Reference Spectrum Present: No
Number of Sampled Component Spectra: 1
Spectrometers: USB2+H05261
Integration Time (usec): 100000 (USB2+H05261)
Spectra Averaged: 1 (USB2+H05261)
Boxcar Smoothing: 0 (USB2+H05261)
Correct for Electrical Dark: No (USB2+H05261)
Strobe/Lamp Enabled: No (USB2+H05261)
Correct for Detector Non-linearity: No (USB2+H05261)
Correct for Stray Light: No (USB2+H05261)
Number of Pixels in Processed Spectrum: 2048
>>>>>Begin Processed Spectral Data<<<<<
365.73	173.20
365.92	173.20
366.12	173.20
366.32	77.24
366.52	154.48
366.72	189.58
366.91	175.54
367.11	107.66
367.31	131.07
367.51	168.52
367.70	177.88
367.90	180.22
368.10	191.92
368.30	147.45
368.49	180.22
368.69	161.50
368.89	175.54
369.09	102.98
369.28	177.88
369.48	107.66
369.68	215.33
369.87	189.58
370.07	145.11
370.27	248.10
370.47	414.27
370.66	573.43
370.86	671.73
371.06	678.76
371.25	734.93
371.45	774.72
371.65	671.73
371.84	620.24
372.04	683.44
372.24	667.05
372.44	685.78
372.63	709.18
372.83	763.01
373.03	685.78
373.22	725.57
373.42	779.40
373.62	819.19
373.81	774.72
374.01	870.68
374.21	800.46
374.40	826.21
374.60	835.57
374.79	763.01
374.99	861.32
375.19	884.72
375.38	887.06
375.58	795.78
375.78	894.08
375.97	887.06
376.17	877.70
376.37	833.23
376.56	924.51
376.76	861.32
376.95	896.43
377.15	788.76
377.35	856.64
377.54	980.68
377.74	952.60
377.93	873.02
378.13	964.30
378.33	851.96
378.52	924.51
378.72	957.28
378.91	973.66
379.11	987.71
379.31	912.81
379.50	973.66
379.70	997.07
379.89	983.02
380.09	950.26
380.28	919.83
380.48	1001.75
380.68	994.73
380.87	1039.20
381.07	1048.56
381.26	1060.26
381.46	1048.56
381.65	1043.88
381.85	940.90
382.04	1088.35
382.24	1086.01
382.43	1097.71
382.63	1053.24
382.83	1114.10
383.02	1076.65
383.22	1069.62
383.41	1139.84
383.61	1107.07
383.80	1057.92
384.00	1064.94
384.19	1135.16
384.39	1095.37
384.58	1093.03
384.78	1086.01
384.97	1188.99
385.17	1069.62
385.36	1146.86
385.56	1193.67
385.75	1214.74
385.95	1184.31
386.14	1179.63
386.34	1200.69
386.53	1226.44
386.72	1252.19
386.92	1181.97
387.11	1282.61
387.31	1310.70
387.50	1217.08
387.70	1177.29
387.89	1287.29
388.09	1247.51
388.28	1268.57
388.48	1252.19
388.67	1350.49
388.86	1310.70
389.06	1341.13
389.25	1387.94
389.45	1427.73
389.64	1387.94
389.84	1394.96
390.03	1355.17
390.22	1299.00
390.42	1331.76
390.61	1373.89
390.81	1430.07
391.00	1455.81
391.19	1404.32
391.39	1476.88
391.58	1472.20
391.78	1441.77
391.97	1516.67
392.16	1341.13
392.36	1481.56
392.55	1455.81
392.75	1558.80
392.94	1490.92
393.13	1420.71
393.33	1511.99
393.52	1572.84
393.71	1521.35
393.91	1497.94
394.10	1519.01
394.29	1638.38
394.49	1593.90
394.68	1603.27
394.88	1614.97
395.07	1750.72
395.26	1633.69
395.46	1778.81
395.65	1734.34
395.84	1753.06
396.04	1785.83
396.23	1774.13
396.42	1732.00
396.62	1830.30
396.81	1802.21
397.00	1874.77
397.19	1846.68
397.39	1820.94
397.58	1753.06
397.77	1853.70
397.97	1792.85
398.16	1856.04
398.35	1853.70
398.55	1867.75
398.74	1856.04
398.93	1891.15
399.12	1902.86
399.32	1856.04
399.51	1944.99
399.70	1947.33
399.90	1987.11
400.09	2085.42
400.28	2115.84
400.47	2148.61
400.67	2022.22
400.86	2047.97
401.05	2155.63
401.24	2125.21
401.44	2050.31
401.63	2033.93
401.82	2214.15
402.01	2090.10
402.21	2249.25
402.40	2181.38
402.59	2237.55
402.78	2216.49
402.97	2118.18
403.17	2270.32
403.36	2349.90
403.55	2256.28
403.74	2370.96
403.93	2310.11
404.13	2401.39
404.32	2275.00
404.51	2331.17
404.70	2422.45
404.89	2445.86
405.09	2466.92
405.28	2438.84
405.47	2319.47
405.66	2593.31
405.85	2520.76
406.05	2457.56
406.24	2555.86
406.43	2586.29
406.62	2649.49
406.81	2558.21
407.00	2572.25
407.20	2600.34
407.39	2600.34
407.58	2663.53
407.77	2757.15
407.96	2726.72
408.15	2890.56
408.34	2738.43
408.54	2644.81
408.73	2700.98
408.92	2881.20
409.11	2951.42
409.30	2881.20
409.49	2832.05
409.68	3012.27
409.87	2843.75
410.07	2986.52
410.26	2960.78
410.45	3028.65
410.64	3063.76
410.83	3063.76
411.02	3023.97
411.21	3269.73
411.40	3122.27
411.59	3084.83
411.78	3183.13
411.98	3126.96
412.17	3297.81
412.36	3136.32
412.55	3253.34
412.74	3361.01
412.93	3442.93
413.12	3218.24
413.31	3634.85
413.50	3562.30
413.69	3590.38
413.88	3576.34
414.07	3595.06
414.26	3728.47
414.45	3662.94
414.64	3569.32
414.83	3737.84
415.02	3829.12
415.22	3782.31
415.41	3920.40
415.60	3751.88
415.79	3847.84
415.98	4028.06
416.17	4016.36
416.36	3864.22
416.55	3941.46
416.74	3974.23
416.93	4065.51
417.12	4156.79
417.31	4215.30
417.50	4187.22
417.69	4177.86
417.88	4311.27
418.07	4152.11
418.26	4248.07
418.45	4301.90
418.64	4517.23
418.83	4266.80
419.02	4346.37
419.21	4533.62
419.39	4528.94
419.58	4388.50
419.77	4397.87
419.96	4645.96
420.15	4540.64
420.34	4535.96
420.53	4610.86
420.72	4704.48
420.91	4681.07
421.10	4575.75
421.29	4746.61
421.48	4671.71
421.67	4760.65
421.86	4727.88
422.05	4706.82
422.24	4858.95
422.43	4849.59
422.61	4826.18
422.80	4882.36
422.99	4727.88
423.18	4851.93
423.37	5041.51
423.56	5085.98
423.75	5027.47
423.94	4821.50
424.13	4648.30
424.32	4720.86
424.50	5039.17
424.69	5214.71
424.88	5132.79
425.07	5013.43
425.26	4947.89
425.45	5029.81
425.64	5046.20
425.83	4919.81
426.01	4992.36
426.20	5062.58
426.39	5097.69
426.58	5097.69
426.77	5097.69
426.96	5263.86
427.15	5123.43
427.33	5093.01
427.52	5018.11
427.71	5298.97
427.90	5324.72
428.09	5425.36
428.28	5287.27
428.46	5305.99
428.65	5397.28
428.84	5448.77
429.03	5441.75
429.22	5345.78
429.40	5369.19
429.59	5320.04
429.78	5294.29
429.97	5221.74
430.16	5430.04
430.34	5432.38
430.53	5570.48
430.72	5589.20
430.91	5640.69
431.10	5554.09
431.28	5666.44
431.47	5905.17
431.66	5907.51
431.85	5626.65
432.03	5881.77
432.22	5856.02
432.41	5930.92
432.60	5837.30
432.79	5921.56
432.97	6071.35
433.16	6136.88
433.35	6076.03
433.54	6120.50
433.72	6080.71
433.91	6118.16
434.10	6019.86
434.28	6097.10
434.47	6265.61
434.66	6258.59
434.85	6289.02
435.03	6380.30
435.22	5994.11
435.41	6363.92
435.59	6448.18
435.78	6487.96
435.97	6279.66
436.16	6307.74
436.34	6413.07
436.53	6354.55
436.72	6553.50
436.90	6511.37
437.09	6604.99
437.28	6420.09
437.46	6773.51
437.65	6581.59
437.84	6850.75
438.02	6663.51
438.21	6684.57
438.40	6602.65
438.58	6930.33
438.77	6967.77
438.96	6974.80
439.14	7227.57
439.33	7007.56
439.52	7281.41
439.70	7199.49
439.89	7295.45
440.08	7307.15
440.26	7297.79
440.45	7405.46
440.63	7538.87
440.82	7611.42
441.01	7501.42
441.19	7482.69
441.38	7599.72
441.57	7595.04
441.75	7756.54
441.94	7737.81
442.12	8051.44
442.31	7932.08
442.50	8053.78
442.68	7918.03
442.87	7983.57
443.05	8037.40
443.24	8088.89
443.43	8067.83
443.61	8297.20
443.80	8451.67
443.98	8074.85
444.17	7934.42
444.35	8128.68
444.54	8336.99
444.73	8372.10
444.91	8018.68
445.10	8285.50
445.28	8287.84
445.47	8290.18
445.65	8451.67
445.84	8383.80
446.02	8437.63
446.21	8259.75
446.39	8264.43
446.58	8449.33
446.77	8264.43
446.95	8248.05
447.14	8304.22
447.32	8662.32
447.51	8720.84
447.69	8348.69
447.88	8475.08
448.06	8585.08
448.25	8421.25
448.43	8421.25
448.62	8475.08
448.80	8521.89
448.99	8704.45
449.17	8667.00
449.36	8458.70
449.54	8751.26
449.73	8716.16
449.91	9001.70
450.10	9018.08
450.28	9095.32
450.46	9174.90
450.65	9069.58
450.83	8999.36
451.02	9008.72
451.20	9088.30
451.39	9083.62
451.57	9090.64
451.76	8919.78
451.94	9020.42
452.13	9327.03
452.31	9324.69
452.49	9179.58
452.68	9348.10
452.86	9458.10
453.05	9390.23
453.23	9586.83
453.42	9219.37
453.60	9331.72
453.78	9537.68
453.97	9427.68
454.15	9310.65
454.34	9540.02
454.52	9802.16
454.70	9561.09
454.89	9558.75
455.07	9647.69
455.26	10026.86
455.44	9926.21
455.62	9928.55
455.81	9930.89
455.99	9926.21
456.17	10066.64
456.36	10059.62
456.54	10366.23
456.73	10314.74
456.91	10265.59
457.09	10363.89
457.28	10581.56
457.46	10293.68
457.64	10431.77
457.83	10485.60
458.01	10342.83
458.19	10782.85
458.38	10698.59
458.56	10527.73
458.74	10686.89
458.93	10668.16
459.11	10719.65
459.29	10431.77
459.48	10677.52
459.66	10710.29
459.84	11019.24
460.03	11059.03
460.21	10881.15
460.39	10986.47
460.57	10902.22
460.76	11122.23
460.94	11246.27
461.12	10970.09
461.31	11199.46
461.49	10981.79
461.67	11173.72
461.85	11302.45
462.04	11190.10
462.22	11775.24
462.40	11669.91
462.59	11349.26
462.77	11272.02
462.95	11606.72
463.13	11414.79
463.32	11674.59
463.50	11667.57
463.68	11822.05
463.86	11946.09
464.05	11641.82
464.23	11831.41
464.41	11660.55
464.59	11531.82
464.78	12091.21
464.96	11761.19
465.14	11770.55
465.32	12140.36
465.50	12133.34
465.69	12201.21
465.87	12039.72
466.05	12320.58
466.23	12266.75
466.41	11957.80
466.60	12301.86
466.78	12182.49
466.96	12142.70
467.14	12219.94
467.32	12372.07
467.51	12463.35
467.69	12154.40
467.87	12505.48
468.05	12624.85
468.23	12332.28
468.41	12418.88
468.60	12723.15
468.78	12784.01
468.96	12425.90
469.14	12798.05
469.32	13060.19
469.50	12812.09
469.69	12978.27
469.87	12971.25
470.05	13163.17
470.23	13158.49
470.41	13188.92
470.59	13121.04
470.77	13172.54
470.95	13380.84
471.14	13327.01
471.32	12917.42
471.50	13589.15
471.68	13465.10
471.86	13579.79
472.04	13870.01
472.22	13958.96
472.40	13497.87
472.58	13668.73
472.77	13914.48
472.95	13820.86
473.13	14427.06
473.31	13980.02
473.49	14031.51
473.67	14019.81
473.85	14073.64
474.03	14558.13
474.21	14621.33
474.39	14808.57
474.57	14778.14
474.75	14941.98
474.93	14960.70
475.12	14883.47
475.30	15274.34
475.48	15197.10
475.66	15260.29
475.84	15281.36
476.02	15393.70
476.20	15513.07
476.38	15632.44
476.56	15943.73
476.74	15948.41
476.92	15861.81
477.10	15854.79
477.28	16236.30
477.46	16121.61
477.64	16173.10
477.82	16353.32
478.00	16681.00
478.18	16430.56
478.36	16833.13
478.54	17071.87
478.72	17027.40
478.90	17331.67
479.08	17528.27
479.26	17633.60
479.44	17568.06
479.62	17790.41
479.80	17970.63
479.98	18178.94
480.16	18675.13
480.34	18146.17
480.52	18693.86
480.70	18471.51
480.88	18302.99
481.06	18633.00
481.24	18572.15
481.41	18864.72
481.59	19190.05
481.77	19604.33
481.95	19501.34
482.13	19587.94
482.31	19637.09
482.49	20182.44
482.67	20121.59
482.85	19981.15
483.03	20622.46
483.21	20507.77
483.39	20685.65
483.57	20720.76
483.74	21020.35
483.92	21303.56
484.10	21125.68
484.28	21661.66
484.46	21582.08
484.64	21975.29
484.82	21757.62
485.00	22003.38
485.18	22235.09
485.35	22913.84
485.53	22590.85
485.71	23049.60
485.89	23714.31
486.07	22965.34
486.25	23232.16
486.43	23714.31
486.61	23487.28
486.78	23964.75
486.96	24318.17
487.14	24559.24
487.32	24692.65
487.50	24746.48
487.68	24786.27
487.85	24950.11
488.03	25469.71
488.21	25785.68
488.39	25902.71
488.57	25528.22
488.75	25762.28
488.92	26494.86
489.10	26579.12
489.28	26881.05
489.46	26897.44
489.64	26932.54
489.81	27927.27
489.99	27440.44
490.17	27484.91
490.35	27868.76
490.53	27922.59
490.70	28166.01
490.88	28259.63
491.06	28793.27
491.24	28498.36
491.41	29024.98
491.59	29240.31
491.77	28720.71
491.95	29441.60
492.13	29259.04
492.30	29827.79
492.48	29762.25
492.66	30338.02
492.84	29771.61
493.01	30794.43
493.19	30574.42
493.37	30745.28
493.54	30890.39
493.72	31178.28
493.90	31351.48
494.08	31728.30
494.25	31868.73
494.43	31957.67
494.61	31927.25
494.79	32308.76
494.96	32217.47
495.14	32486.64
495.32	32631.75
495.49	33268.37
495.67	33041.34
495.85	33834.78
496.02	33834.78
496.20	34204.59
496.38	33975.22
496.55	33881.60
496.73	34429.28
496.91	34869.30
497.09	34700.78
497.26	34820.15
497.44	34937.18
497.62	34911.43
497.79	35625.29
497.97	35253.15
498.14	35395.92
498.32	36180.00
498.50	36187.02
498.67	36322.77
498.85	36341.50
499.03	36804.92
499.20	36737.05
499.38	36917.27
499.56	36989.83
499.73	37050.68
499.91	37256.65
500.08	37521.13
500.26	37336.23
500.44	37553.90
500.61	37640.50
500.79	37467.30
500.97	38143.71
501.14	38345.00
501.32	38572.03
501.49	38309.89
501.67	38501.81
501.84	39075.24
502.02	38838.85
502.20	38815.44
502.37	39159.50
502.55	39662.72
502.72	39459.09
502.90	39409.94
503.07	39374.83
503.25	39791.45
503.43	39702.51
503.60	39952.94
503.78	40004.44
503.95	40044.23
504.13	40273.60
504.30	40526.38
504.48	40563.82
504.65	40697.24
504.83	40711.28
505.01	41041.29
505.18	40945.33
505.36	40987.46
505.53	41368.97
505.71	41600.68
505.88	41497.70
506.06	41656.85
506.23	41418.12
506.41	41916.65
506.58	41752.82
506.76	41872.18
506.93	42520.51
507.11	41816.01
507.28	42244.33
507.46	42447.96
507.63	43262.46
507.81	43225.01
507.98	42483.06
508.16	43037.77
508.33	43227.35
508.50	43264.80
508.68	43592.48
508.85	43445.02
509.03	43875.68
509.20	44165.91
509.38	43709.50
509.55	43878.02
509.73	44322.72
509.90	44589.55
510.08	44463.16
510.25	44662.10
510.42	44428.05
510.60	44870.41
510.77	44921.90
510.95	45532.78
511.12	45270.64
511.30	45036.59
511.47	45331.50
511.64	45425.12
511.82	45663.85
511.99	45317.45
512.17	45895.56
512.34	46005.57
512.51	45832.37
512.69	46054.72
512.86	46064.08
513.04	46487.72
513.21	46567.30
513.38	46754.54
513.56	46712.41
513.73	46639.86
513.90	47210.95
514.08	46752.20
514.25	47138.39
514.43	47175.84
514.60	46976.89
514.77	47318.61
514.95	47381.80
515.12	47498.83
515.29	47217.97
515.47	47564.37
515.64	47555.00
515.81	47700.12
515.99	47861.61
516.16	48589.52
516.33	48191.63
516.51	48278.23
516.68	48374.19
516.85	48320.36
517.03	48598.88
517.20	48568.46
517.37	48596.54
517.54	48727.61
517.72	48875.07
517.89	48786.13
518.06	48870.39
518.24	48935.92
518.41	49064.65
518.58	49406.37
518.75	49167.63
518.93	49727.02
519.10	49057.63
519.27	49663.83
519.45	49504.67
519.62	49818.30
519.79	49797.24
519.96	50101.51
520.14	50148.32
520.31	49991.50
520.48	50204.49
520.65	50234.92
520.83	50253.64
521.00	50204.49
521.17	50426.84
521.34	50518.12
521.52	50796.65
521.69	50567.27
521.86	50976.87
522.03	50829.41
522.20	51241.35
522.38	51182.84
522.55	50908.99
522.72	51306.88
522.89	51318.59
523.07	51386.46
523.24	51386.46
523.41	51393.48
523.58	51231.99
523.75	51672.01
523.92	51660.30
524.10	51540.94
524.27	51629.88
524.44	52006.70
524.61	52030.11
524.78	51983.30
524.96	52114.37
525.13	52156.50
525.30	52528.64
525.47	52329.70
525.64	52278.21
525.81	52388.21
525.98	52652.69
526.16	52547.37
526.33	52678.44
526.50	52809.51
526.67	52711.20
526.84	52956.96
527.01	52624.60
527.18	52975.69
527.36	52912.49
527.53	52783.76
527.70	53296.34
527.87	53092.71
528.04	52975.69
528.21	53031.86
528.38	53179.31
528.55	53303.36
528.72	53230.80
528.89	53364.21
529.07	53127.82
529.24	53286.98
529.41	53408.68
529.58	53834.66
529.75	53593.59
529.92	53820.62
530.09	53799.55
530.26	53745.72
530.43	53961.05
530.60	53588.91
530.77	53722.32
530.94	54164.68
531.11	53790.19
531.28	53916.58
531.46	54220.85
531.63	54162.34
531.80	54284.04
531.97	54440.86
532.14	54167.02
532.31	54197.44
532.48	54164.68
532.65	54279.36
532.82	54508.74
532.99	54623.42
533.16	54534.48
533.33	54789.60
533.50	54616.40
533.67	54482.99
533.84	54585.97
534.01	54459.58
534.18	54763.85
534.35	55098.55
534.52	54911.31
534.69	55168.77
534.86	55000.25
535.03	54890.24
535.20	55016.63
535.37	55332.60
535.54	55243.66
535.71	55323.24
535.88	55110.25
536.05	55351.33
536.22	55601.77
536.38	55281.11
536.55	55580.70
536.72	55728.16
536.89	55175.79
537.06	55690.71
537.23	55690.71
537.40	55625.17
537.57	55482.40
537.74	55433.25
537.91	55894.33
538.08	55791.35
538.25	55611.13
538.42	55475.38
538.59	55999.66
538.75	55735.18
538.92	55920.08
539.09	56104.98
539.26	55938.80
539.43	55931.78
539.60	56093.28
539.77	56102.64
539.94	56507.55
540.11	56268.82
540.28	56395.21
540.44	56072.21
540.61	56184.56
540.78	56203.28
540.95	56278.18
541.12	56357.76
541.29	56378.82
541.46	56420.95
541.62	56474.79
541.79	56694.80
541.96	56376.48
542.13	56477.13
542.30	56603.52
542.47	56697.14
542.63	56643.30
542.80	56825.87
542.97	57003.75
543.14	57127.80
543.31	57251.84
543.48	57275.25
543.64	57324.40
543.81	57179.29
543.98	57209.71
544.15	57286.95
544.32	57148.86
544.48	57446.11
544.65	57282.27
544.82	57403.98
544.99	57027.15
545.16	57354.83
545.32	57322.06
545.49	57609.95
545.66	57556.11
545.83	57584.20
546.00	57640.37
546.16	57598.24
546.33	57490.58
546.50	57408.66
546.67	57748.04
546.83	57174.61
547.00	57780.81
547.17	57574.84
547.34	57895.49
547.50	57879.11
547.67	57928.26
547.84	58007.84
548.00	58068.69
548.17	58127.20
548.34	57764.42
548.51	58204.44
548.67	58003.16
548.84	58010.18
549.01	58047.63
549.18	58181.04
549.34	58066.35
549.51	58204.44
549.68	58307.43
549.84	58234.87
550.01	58159.97
550.18	58092.10
550.34	58424.45
550.51	58497.01
550.68	58262.96
550.84	57939.96
551.01	58520.41
551.18	58475.94
551.34	58326.15
551.51	58616.38
551.68	58543.82
551.84	58487.65
552.01	58546.16
552.18	58466.58
552.34	58497.01
552.51	58628.08
552.68	58447.86
552.84	58646.80
553.01	58817.66
553.18	58791.92
553.34	58733.40
553.51	58878.52
553.67	58922.99
553.84	58894.90
554.01	59007.25
554.17	58906.60
554.34	58939.37
554.51	58850.43
554.67	58922.99
554.84	58869.15
555.00	58812.98
555.17	58899.58
555.33	58946.39
555.50	58794.26
555.67	59051.72
555.83	58848.09
556.00	59159.38
556.16	59264.70
556.33	59285.77
556.50	58967.46
556.66	59178.10
556.83	59000.22
556.99	59318.54
557.16	59430.88
557.32	59374.71
557.49	59634.51
557.65	59133.63
557.82	59428.54
557.98	59105.55
558.15	59358.33
558.32	59498.76
558.48	59302.15
558.65	59377.05
558.81	59515.14
558.98	59379.39
559.14	59519.82
559.31	59437.90
559.47	59580.68
559.64	59660.26
559.80	59615.79
559.97	59615.79
560.13	59576.00
560.30	59674.30
560.46	59742.17
560.63	59590.04
560.79	59716.43
560.96	59730.47
561.12	59826.43
561.29	59606.42
561.45	59683.66
561.61	59763.24
561.78	59664.94
561.94	59664.94
562.11	59877.93
562.27	59824.09
562.44	59948.14
562.60	59812.39
562.77	59678.98
562.93	59564.29
563.10	60104.96
563.26	59828.77
563.42	60236.03
563.59	59849.84
563.75	59866.22
563.92	59931.76
564.08	59835.80
564.24	59987.93
564.41	60011.34
564.57	60044.10
564.74	59987.93
564.90	59952.82
565.07	59948.14
565.23	60004.31
565.39	60327.31
565.56	60095.60
565.72	59969.21
565.88	60214.96
566.05	60001.97
566.21	60037.08
566.38	60257.09
566.54	60301.56
566.70	60289.86
566.87	60486.46
567.03	60013.68
567.19	60374.12
567.36	60315.61
567.52	60121.34
567.68	60491.15
567.85	60357.74
568.01	60374.12
568.17	60285.18
568.34	60353.05
568.50	60320.29
568.66	60172.83
568.83	60170.49
568.99	60250.07
569.15	60397.52
569.32	60420.93
569.48	60264.11
569.64	60425.61
569.81	60247.73
569.97	60456.04
570.13	60303.90
570.30	60186.88
570.46	60430.29
570.62	60470.08
570.78	60245.39
570.95	60397.52
571.11	60540.30
571.27	60367.10
571.43	60275.82
571.60	60317.95
571.76	60456.04
571.92	60498.17
572.09	60624.56
572.25	60285.18
572.41	60605.83
572.57	60540.30
572.74	60739.24
572.90	60505.19
573.06	60434.97
573.22	60547.32
573.38	60772.01
573.55	60484.12
573.71	60727.54
573.87	60781.37
574.03	60474.76
574.20	60767.33
574.36	60420.93
574.52	60711.16
574.68	60472.42
574.84	60500.51
575.01	60753.29
575.17	60713.50
575.33	60580.09
575.49	60552.00
575.65	60837.54
575.82	60676.05
575.98	60800.10
576.14	60699.45
576.30	60570.72
576.46	60722.86
576.62	60654.98
576.79	60846.91
576.95	60514.55
577.11	60566.04
577.27	60608.17
577.43	60706.47
577.59	60566.04
577.75	60800.10
577.92	60638.60
578.08	60502.85
578.24	60729.88
578.40	60853.93
578.56	60912.44
578.72	60619.88
578.88	60938.19
579.04	60924.14
579.21	60811.80
579.37	60921.80
579.53	60830.52
579.69	60526.25
579.85	60622.22
580.01	60781.37
580.17	60772.01
580.33	60811.80
580.49	60683.07
580.65	60879.67
580.82	60722.86
580.98	60905.42
581.14	60713.50
581.30	61038.83
581.46	60832.86
581.62	60788.39
581.78	60573.06
581.94	61015.43
582.10	60853.93
582.26	60736.90
582.42	60720.52
582.58	60647.96
582.74	60690.09
582.90	60713.50
583.06	60903.08
583.22	60526.25
583.38	60905.42
583.54	60741.58
583.70	60839.89
583.86	61139.47
584.02	60633.92
584.18	60828.18
584.34	60992.02
584.50	60865.63
584.66	60954.57
584.82	60711.16
584.98	60914.78
585.14	60921.80
585.30	60652.64
585.46	60924.14
585.62	60851.59
585.78	61029.47
585.94	60898.40
586.10	60884.36
586.26	60982.66
586.42	60818.82
586.58	61197.99
586.74	60956.91
586.90	60839.89
587.06	60779.03
587.22	61038.83
587.38	60837.54
587.54	61003.72
587.70	61190.97
587.86	61076.28
588.02	60931.17
588.18	61111.39
588.34	60924.14
588.49	60931.17
