SpectraSuite Data File
++++++++++++++++++++++++++++++++++++
Date: Fri Oct 25 11:26:28 EDT 2013
User: price-jones
Dark Spectrum Present: No
Reference Spectrum Present: No
Number of Sampled Component Spectra: 1
Spectrometers: USB2+H05261
Integration Time (usec): 100000 (USB2+H05261)
Spectra Averaged: 1 (USB2+H05261)
Boxcar Smoothing: 0 (USB2+H05261)
Correct for Electrical Dark: No (USB2+H05261)
Strobe/Lamp Enabled: No (USB2+H05261)
Correct for Detector Non-linearity: No (USB2+H05261)
Correct for Stray Light: No (USB2+H05261)
Number of Pixels in Processed Spectrum: 2048
>>>>>Begin Processed Spectral Data<<<<<
365.73	173.20
365.92	173.20
366.12	173.20
366.32	161.50
366.52	105.32
366.72	128.73
366.91	154.48
367.11	149.79
367.31	189.58
367.51	126.39
367.70	154.48
367.90	210.65
368.10	173.20
368.30	212.99
368.49	166.18
368.69	180.22
368.89	140.43
369.09	175.54
369.28	175.54
369.48	215.33
369.68	205.97
369.87	229.37
370.07	234.05
370.27	266.82
370.47	330.02
370.66	528.96
370.86	582.79
371.06	699.82
371.25	697.48
371.45	671.73
371.65	730.25
371.84	704.50
372.04	617.90
372.24	765.36
372.44	683.44
372.63	753.65
372.83	744.29
373.03	723.23
373.22	711.52
373.42	793.44
373.62	891.74
373.81	753.65
374.01	795.78
374.21	812.17
374.40	772.38
374.60	884.72
374.79	800.46
374.99	842.59
375.19	798.12
375.38	791.10
375.58	847.27
375.78	912.81
375.97	922.17
376.17	938.55
376.37	891.74
376.56	849.61
376.76	840.25
376.95	947.92
377.15	896.43
377.35	894.08
377.54	922.17
377.74	894.08
377.93	915.15
378.13	882.38
378.33	919.83
378.52	891.74
378.72	959.62
378.91	957.28
379.11	966.64
379.31	1022.81
379.50	926.85
379.70	1015.79
379.89	1013.45
380.09	999.41
380.28	1076.65
380.48	983.02
380.68	943.24
380.87	931.53
381.07	978.34
381.26	1032.18
381.46	1015.79
381.65	1064.94
381.85	1069.62
382.04	1029.84
382.24	1128.14
382.43	1048.56
382.63	1036.86
382.83	1048.56
383.02	1114.10
383.22	1102.39
383.41	1090.69
383.61	1116.44
383.80	1191.33
384.00	1118.78
384.19	1104.73
384.39	1156.22
384.58	1118.78
384.78	1132.82
384.97	1247.51
385.17	1167.93
385.36	1196.01
385.56	1238.14
385.75	1158.57
385.95	1090.69
386.14	1116.44
386.34	1165.59
386.53	1224.10
386.72	1212.40
386.92	1205.38
387.11	1174.95
387.31	1287.29
387.50	1242.82
387.70	1181.97
387.89	1249.85
388.09	1268.57
388.28	1306.02
388.48	1259.21
388.67	1352.83
388.86	1291.98
389.06	1294.32
389.25	1303.68
389.45	1336.45
389.64	1404.32
389.84	1387.94
390.03	1366.87
390.22	1308.36
390.42	1394.96
390.61	1409.00
390.81	1362.19
391.00	1404.32
391.19	1462.83
391.39	1542.41
391.58	1493.26
391.78	1376.24
391.97	1427.73
392.16	1425.39
392.36	1535.39
392.55	1455.81
392.75	1511.99
392.94	1528.37
393.13	1488.58
393.33	1598.59
393.52	1596.25
393.71	1619.65
393.91	1629.01
394.10	1460.49
394.29	1629.01
394.49	1486.24
394.68	1570.50
394.88	1666.46
395.07	1696.89
395.26	1570.50
395.46	1600.93
395.65	1734.34
395.84	1743.70
396.04	1795.19
396.23	1729.66
396.42	1643.06
396.62	1809.23
396.81	1860.73
397.00	1710.93
397.19	1902.86
397.39	1825.62
397.58	1858.39
397.77	1696.89
397.97	1858.39
398.16	1851.36
398.35	1914.56
398.55	1867.75
398.74	1893.49
398.93	1949.67
399.12	1900.52
399.32	1947.33
399.51	1834.98
399.70	1975.41
399.90	2106.48
400.09	1998.82
400.28	2005.84
400.47	1980.09
400.67	2092.44
400.86	2045.63
401.05	1987.11
401.24	2108.82
401.44	2104.14
401.63	2113.50
401.82	2209.47
402.01	2090.10
402.21	2148.61
402.40	2223.51
402.59	2207.13
402.78	2307.77
402.97	2235.21
403.17	2249.25
403.36	2338.20
403.55	2314.79
403.74	2335.85
403.93	2279.68
404.13	2345.22
404.32	2310.11
404.51	2413.09
404.70	2450.54
404.89	2338.20
405.09	2436.50
405.28	2473.95
405.47	2504.37
405.66	2490.33
405.85	2485.65
406.05	2455.22
406.24	2586.29
406.43	2612.04
406.62	2649.49
406.81	2590.97
407.00	2572.25
407.20	2619.06
407.39	2677.57
407.58	2663.53
407.77	2705.66
407.96	2782.90
408.15	2930.35
408.34	2815.66
408.54	2780.56
408.73	2752.47
408.92	2661.19
409.11	2953.76
409.30	2862.48
409.49	2888.22
409.68	2904.60
409.87	2998.23
410.07	2920.99
410.26	2993.55
410.45	3021.63
410.64	3059.08
410.83	3124.62
411.02	2986.52
411.21	3262.71
411.40	3080.14
411.59	3276.75
411.78	3082.49
411.98	3194.83
412.17	3346.97
412.36	3382.07
412.55	3283.77
412.74	3272.07
412.93	3337.60
413.12	3372.71
413.31	3550.59
413.50	3391.44
413.69	3396.12
413.88	3562.30
414.07	3597.40
414.26	3620.81
414.45	3574.00
414.64	3616.13
414.83	3632.51
415.02	3824.44
415.22	3873.59
415.41	3896.99
415.60	3845.50
415.79	3896.99
415.98	3838.48
416.17	3918.06
416.36	3906.35
416.55	4042.11
416.74	4044.45
416.93	4058.49
417.12	3978.91
417.31	4234.03
417.50	4154.45
417.69	4292.54
417.88	4355.74
418.07	4276.16
418.26	4393.19
418.45	4292.54
418.64	4592.13
418.83	4390.84
419.02	4416.59
419.21	4393.19
419.39	4463.40
419.58	4479.79
419.77	4367.44
419.96	4596.81
420.15	4554.68
420.34	4709.16
420.53	4709.16
420.72	4774.69
420.91	4770.01
421.10	4716.18
421.29	4835.55
421.48	4732.56
421.67	4793.42
421.86	4840.23
422.05	4702.14
422.24	4772.35
422.43	4891.72
422.61	4816.82
422.80	4901.08
422.99	5039.17
423.18	5039.17
423.37	4889.38
423.56	4973.64
423.75	4823.84
423.94	4767.67
424.13	4608.51
424.32	4798.10
424.50	4833.21
424.69	5001.72
424.88	4954.91
425.07	5055.56
425.26	4870.65
425.45	4943.21
425.64	5018.11
425.83	5085.98
426.01	5158.54
426.20	5036.83
426.39	5130.45
426.58	5078.96
426.77	5050.88
426.96	5125.77
427.15	5158.54
427.33	5163.22
427.52	5217.05
427.71	5334.08
427.90	5198.33
428.09	5242.80
428.28	5392.59
428.46	5252.16
428.65	5427.70
428.84	5495.58
429.03	5420.68
429.22	5420.68
429.40	5390.25
429.59	5483.88
429.78	5303.65
429.97	5383.23
430.16	5530.69
430.34	5654.73
430.53	5708.57
430.72	5696.86
430.91	5764.74
431.10	5612.60
431.28	5654.73
431.47	5825.59
431.66	5823.25
431.85	5858.36
432.03	5888.79
432.22	5879.43
432.41	5921.56
432.60	6080.71
432.79	5884.11
432.97	5989.43
433.16	6078.37
433.35	5902.83
433.54	6043.26
433.72	6087.73
433.91	6099.44
434.10	6078.37
434.28	6188.38
434.47	6291.36
434.66	6338.17
434.85	6282.00
435.03	6207.10
435.22	6298.38
435.41	6586.27
435.59	6413.07
435.78	6480.94
435.97	6394.34
436.16	6382.64
436.34	6424.77
436.53	6588.61
436.72	6654.14
436.90	6494.99
437.09	6434.13
437.28	6574.56
437.46	6658.82
437.65	6726.70
437.84	6726.70
438.02	6717.34
438.21	6705.63
438.40	6614.35
438.58	6820.32
438.77	7098.84
438.96	6874.15
439.14	7061.40
439.33	7155.02
439.52	7236.94
439.70	7096.50
439.89	7323.54
440.08	7478.01
440.26	7487.37
440.45	7468.65
440.63	7595.04
440.82	7653.55
441.01	7499.08
441.19	7595.04
441.38	7686.32
441.57	7583.34
441.75	7679.30
441.94	7946.12
442.12	7976.55
442.31	8025.70
442.50	7927.39
442.68	7983.57
442.87	8013.99
443.05	8133.36
443.24	8248.05
443.43	8266.77
443.61	8121.66
443.80	8552.32
443.98	8063.15
444.17	8046.76
444.35	8229.32
444.54	8315.92
444.73	8397.84
444.91	8301.88
445.10	8175.49
445.28	8482.10
445.47	8248.05
445.65	8182.51
445.84	8266.77
446.02	8456.36
446.21	8561.68
446.39	8362.73
446.58	8489.12
446.77	8435.29
446.95	8126.34
447.14	8327.63
447.32	8650.62
447.51	8617.85
447.69	8500.83
447.88	8444.65
448.06	8484.44
448.25	8489.12
448.43	8589.77
448.62	8582.74
448.80	8444.65
448.99	8634.24
449.17	8659.98
449.36	8542.96
449.54	8884.67
449.73	8933.82
449.91	8961.91
450.10	8821.48
450.28	9041.49
450.46	9153.84
450.65	9043.83
450.83	9238.09
451.02	8980.64
451.20	9172.56
451.39	9181.92
451.57	9242.78
451.76	9153.84
451.94	9095.32
452.13	9320.01
452.31	9247.46
452.49	9268.52
452.68	9210.01
452.86	9160.86
453.05	9401.93
453.23	9481.51
453.42	9296.61
453.60	9348.10
453.78	9565.77
453.97	9483.85
454.15	9399.59
454.34	9497.89
454.52	9621.94
454.70	9638.33
454.89	9832.59
455.07	9760.03
455.26	9867.70
455.44	10036.22
455.62	10036.22
455.81	9844.29
455.99	9916.85
456.17	10073.67
456.36	10134.52
456.54	10251.55
456.73	10129.84
456.91	10595.61
457.09	10359.21
457.28	10588.58
457.46	10202.40
457.64	10530.07
457.83	10546.45
458.01	10258.57
458.19	10607.31
458.38	10483.26
458.56	10511.35
458.74	10848.38
458.93	10544.11
459.11	10665.82
459.29	10656.46
459.48	11007.54
459.66	10810.93
459.84	10963.07
460.03	11049.67
460.21	11150.31
460.39	11056.69
460.57	11042.65
460.76	10927.96
460.94	11185.42
461.12	11169.04
461.31	11126.91
461.49	11257.98
461.67	11246.27
461.85	11545.86
462.04	11325.85
462.22	11974.18
462.40	11632.46
462.59	11566.93
462.77	11197.12
462.95	11506.07
463.13	11580.97
463.32	11831.41
463.50	11681.61
463.68	11808.00
463.86	11939.07
464.05	11611.40
464.23	11587.99
464.41	11740.13
464.59	11625.44
464.78	12063.12
464.96	11875.88
465.14	11843.11
465.32	12030.35
465.50	12142.70
465.69	12006.95
465.87	12119.29
466.05	12091.21
466.23	12102.91
466.41	12224.62
466.60	12423.56
466.78	12187.17
466.96	12238.66
467.14	12241.00
467.32	12432.93
467.51	12472.71
467.69	12198.87
467.87	12514.84
468.05	12376.75
468.23	12327.60
468.41	12301.86
468.60	12545.27
468.78	12758.26
468.96	12421.22
469.14	12830.82
469.32	12784.01
469.50	12683.36
469.69	13022.74
469.87	13130.41
470.05	13067.21
470.23	13111.68
470.41	13085.94
470.59	13324.67
470.77	13027.42
470.95	13207.64
471.14	13659.37
471.32	13158.49
471.50	13713.20
471.68	13394.89
471.86	13532.98
472.04	13729.58
472.22	13937.89
472.40	13584.47
472.58	13895.76
472.77	13907.46
472.95	14150.88
473.13	14665.80
473.31	14300.67
473.49	14361.53
473.67	14111.09
473.85	14391.95
474.03	14670.48
474.21	14408.34
474.39	14614.30
474.57	14618.99
474.75	14740.69
474.93	14885.81
475.12	15080.07
475.30	15452.22
475.48	15201.78
475.66	15222.84
475.84	15054.33
476.02	15297.74
476.20	15410.09
476.38	15597.33
476.56	15740.10
476.74	15822.02
476.92	15939.05
477.10	15803.30
477.28	16231.62
477.46	15955.43
477.64	16594.40
477.82	16301.83
478.00	16982.93
478.18	16847.18
478.36	17114.00
478.54	17165.49
478.72	16868.24
478.90	17350.39
479.08	17664.02
479.26	17832.54
479.44	17727.22
479.62	18235.11
479.80	17980.00
479.98	18104.04
480.16	18597.90
480.34	18068.94
480.52	18768.76
480.70	18607.26
480.88	18361.50
481.06	18958.34
481.24	18635.35
481.41	18988.77
481.59	19166.65
481.77	19604.33
481.95	19770.51
482.13	19728.38
482.31	19765.82
482.49	20425.86
482.67	20222.23
482.85	20273.72
483.03	20460.96
483.21	20709.06
483.39	20915.03
483.57	20950.14
483.74	21003.97
483.92	21596.12
484.10	21308.24
484.28	21813.79
484.46	22354.46
484.64	22300.62
484.82	22024.44
485.00	22368.50
485.18	22796.82
485.35	23047.26
485.53	22752.35
485.71	23033.21
485.89	23396.00
486.07	23147.90
486.25	23761.12
486.43	23393.65
486.61	24072.41
486.78	24079.43
486.96	24088.79
487.14	24662.22
487.32	24678.61
487.50	24844.79
487.68	24931.39
487.85	25429.92
488.03	25432.26
488.21	25832.49
488.39	25605.46
488.57	25745.89
488.75	25776.32
488.92	26714.87
489.10	26553.38
489.28	26644.66
489.46	27028.51
489.64	26831.90
489.81	27908.55
489.99	27314.05
490.17	27674.49
490.35	28102.81
490.53	27983.44
490.70	28547.51
490.88	28268.99
491.06	28856.46
491.24	28903.28
491.41	28765.18
491.59	29048.39
491.77	29273.08
491.95	29626.50
492.13	29921.41
492.30	29762.25
492.48	29858.21
492.66	29895.66
492.84	30314.62
493.01	30717.19
493.19	30859.96
493.37	30955.93
493.54	30810.81
493.72	31517.65
493.90	31630.00
494.08	31850.01
494.25	31718.94
494.43	31978.74
494.61	32074.70
494.79	32137.90
494.96	32456.21
495.14	32563.87
495.32	33015.60
495.49	33205.18
495.67	33151.35
495.85	33369.02
496.02	33982.24
496.20	33940.11
496.38	34267.78
496.55	34361.40
496.73	34754.61
496.91	34520.56
497.09	34831.85
497.26	34562.69
497.44	34820.15
497.62	35124.42
497.79	35559.76
497.97	35346.77
498.14	35840.62
498.32	35892.12
498.50	36168.30
498.67	36638.75
498.85	36430.44
499.03	36811.95
499.20	36463.21
499.38	36811.95
499.56	37219.20
499.73	37046.00
499.91	37542.19
500.08	37647.52
500.26	37308.14
500.44	37340.91
500.61	38150.73
500.79	37715.39
500.97	38431.60
501.14	38630.54
501.32	38675.01
501.49	38857.57
501.67	38852.89
501.84	39091.63
502.02	38778.00
502.20	39075.24
502.37	39524.63
502.55	38946.51
502.72	39690.80
502.90	39686.12
503.07	39281.21
503.25	39498.88
503.43	39859.32
503.60	39882.73
503.78	40037.20
503.95	40198.70
504.13	40402.33
504.30	40287.64
504.48	40528.72
504.65	40554.46
504.83	40734.68
505.01	41326.84
505.18	41493.02
505.36	41116.19
505.53	40954.69
505.71	41474.29
505.88	41390.03
506.06	41319.82
506.23	42251.35
506.41	41509.40
506.58	41677.92
506.76	42398.80
506.93	42340.29
507.11	42291.14
507.28	42447.96
507.46	42480.72
507.63	42525.19
507.81	42939.47
507.98	42642.22
508.16	43494.18
508.33	43229.69
508.50	43550.35
508.68	43772.70
508.85	43803.13
509.03	43646.31
509.20	43889.73
509.38	44364.85
509.55	44294.64
509.73	44238.47
509.90	44650.40
510.08	44678.49
510.25	44432.73
510.42	44491.24
510.60	45198.09
510.77	45162.98
510.95	45612.36
511.12	45146.59
511.30	44870.41
511.47	45492.99
511.64	45408.73
511.82	45888.54
511.99	45652.15
512.17	46192.81
512.34	45600.66
512.51	46504.10
512.69	46543.89
512.86	46637.51
513.04	47143.07
513.21	46595.38
513.38	46555.60
513.56	46632.83
513.73	46848.16
513.90	47056.47
514.08	46887.95
514.25	46735.82
514.43	47564.37
514.60	47342.02
514.77	47051.79
514.95	47833.53
515.12	47665.01
515.29	47461.38
515.47	48044.18
515.64	48172.91
515.81	47910.77
515.99	48200.99
516.16	48484.20
516.33	48282.91
516.51	48678.46
516.68	48526.33
516.85	48650.38
517.03	48905.49
517.20	48861.02
517.37	48779.10
517.54	48996.77
517.72	48718.25
517.89	49144.23
518.06	49422.75
518.24	49160.61
518.41	49680.21
518.58	49240.19
518.75	49471.90
518.93	49368.92
519.10	49902.56
519.27	49457.86
519.45	49476.58
519.62	49799.58
519.79	50026.61
519.96	49776.17
520.14	50014.91
520.31	49954.05
520.48	50485.36
520.65	50452.59
520.83	50431.52
521.00	50396.42
521.17	50642.17
521.34	50759.20
521.52	50614.08
521.69	50749.84
521.86	50969.85
522.03	51021.34
522.20	50784.94
522.38	51407.53
522.55	51213.26
522.72	51033.04
522.89	51260.07
523.07	51519.87
523.24	51482.42
523.41	51538.60
523.58	51709.46
523.75	51543.28
523.92	51702.43
524.10	51927.13
524.27	51735.20
524.44	52233.74
524.61	52289.91
524.78	52212.67
524.96	52259.48
525.13	51983.30
525.30	52538.01
525.47	52636.31
525.64	52458.43
525.81	52486.51
525.98	52673.76
526.16	52472.47
526.33	52580.13
526.50	52755.68
526.67	52566.09
526.84	52926.53
527.01	53207.40
527.18	52701.84
527.36	52755.68
527.53	53095.05
527.70	53228.46
527.87	53411.02
528.04	53083.35
528.21	53277.61
528.38	53448.47
528.55	53188.67
528.72	53514.01
528.89	53303.36
529.07	53350.17
529.24	53673.16
529.41	53729.34
529.58	53745.72
529.75	53476.56
529.92	53841.68
530.09	53741.04
530.26	53897.86
530.43	53652.10
530.60	53862.75
530.77	53961.05
530.94	54220.85
531.11	53977.43
531.28	54150.63
531.46	54092.12
531.63	54122.55
531.80	53958.71
531.97	54419.80
532.14	54223.19
532.31	54653.85
532.48	54607.04
532.65	54754.49
532.82	54358.94
532.99	54773.22
533.16	54798.96
533.33	54845.77
533.50	54712.36
533.67	54855.14
533.84	54752.15
534.01	54763.85
534.18	54841.09
534.35	55121.96
534.52	54946.42
534.69	55091.53
534.86	55105.57
535.03	54997.91
535.20	55075.15
535.37	55007.27
535.54	55334.95
535.71	55487.08
535.88	55458.99
536.05	55566.66
536.22	55636.87
536.38	55571.34
536.55	55309.20
536.72	55650.92
536.89	55351.33
537.06	55346.65
537.23	55576.02
537.40	55421.55
537.57	55679.00
537.74	55655.60
537.91	56018.38
538.08	55880.29
538.25	55819.44
538.42	55758.58
538.59	55870.93
538.75	55929.44
538.92	56011.36
539.09	56355.42
539.26	56133.07
539.43	55938.80
539.60	56334.35
539.77	55901.36
539.94	56355.42
540.11	56315.63
540.28	56402.23
540.44	56374.14
540.61	56324.99
540.78	56308.61
540.95	56549.68
541.12	56435.00
541.29	56252.44
541.46	56619.90
541.62	56584.79
541.79	56589.47
541.96	56362.44
542.13	56521.60
542.30	56573.09
542.47	56821.19
542.63	56739.27
542.80	56884.38
542.97	56931.19
543.14	57221.42
543.31	57071.62
543.48	57223.76
543.64	57448.45
543.81	57584.20
543.98	57286.95
544.15	57272.91
544.32	57422.70
544.48	57499.94
544.65	57460.15
544.82	57434.41
544.99	57249.50
545.16	57406.32
545.32	57418.02
545.49	57506.96
545.66	57745.70
545.83	57670.80
546.00	57661.44
546.16	57516.32
546.33	57387.60
546.50	57511.64
546.67	57528.03
546.83	57265.89
547.00	57736.34
547.17	57762.08
547.34	57701.23
547.50	57968.05
547.67	58234.87
547.84	57937.62
548.00	57956.35
548.17	58092.10
548.34	58213.80
548.51	58099.12
548.67	58087.42
548.84	58152.95
549.01	57902.51
549.18	58134.23
549.34	58178.70
549.51	58284.02
549.68	58293.38
549.84	58272.32
550.01	58356.58
550.18	58272.32
550.34	58370.62
550.51	58417.43
550.68	58422.11
550.84	58127.20
551.01	58487.65
551.18	58405.73
551.34	58597.65
551.51	58501.69
551.68	58649.14
551.84	58279.34
552.01	58398.71
552.18	58791.92
552.34	58478.28
552.51	58733.40
552.68	58466.58
552.84	58412.75
553.01	58576.59
553.18	58969.80
553.34	58871.49
553.51	58712.34
553.67	58642.12
553.84	58843.41
554.01	58789.58
554.17	59044.69
554.34	58965.12
554.51	58976.82
554.67	58976.82
554.84	59023.63
555.00	58855.11
555.17	58857.45
555.33	58859.79
555.50	59058.74
555.67	59035.33
555.83	59040.01
556.00	59018.95
556.16	59274.07
556.33	59320.88
556.50	59114.91
556.66	59381.73
556.83	59089.16
556.99	59351.30
557.16	59454.29
557.32	59568.97
557.49	59508.12
557.65	59203.85
557.82	59388.75
557.98	59414.50
558.15	59550.25
558.32	59388.75
558.48	59494.08
558.65	59540.89
558.81	59564.29
558.98	59779.62
559.14	59702.38
559.31	59440.24
559.47	59676.64
559.64	59367.69
559.80	59618.13
559.97	59786.64
560.13	59611.10
560.30	59767.92
560.46	59824.09
560.63	59641.53
560.79	59838.14
560.96	59847.50
561.12	59564.29
561.29	59791.33
561.45	59842.82
561.61	59758.56
561.78	59831.11
561.94	59749.20
562.11	59760.90
562.27	59980.91
562.44	59877.93
562.60	59922.40
562.77	59929.42
562.93	59884.95
563.10	60051.12
563.26	59983.25
563.42	60147.09
563.59	60121.34
563.75	59854.52
563.92	59999.63
564.08	59831.11
564.24	60161.13
564.41	60170.49
564.57	60076.87
564.74	60198.58
564.90	60149.43
565.07	59943.46
565.23	60142.41
565.39	60051.12
565.56	60156.45
565.72	60142.41
565.88	60100.28
566.05	60083.89
566.21	60067.51
566.38	60191.56
566.54	60406.89
566.70	60331.99
566.87	60484.12
567.03	60168.15
567.19	60310.92
567.36	60205.60
567.52	60261.77
567.68	60498.17
567.85	60289.86
568.01	60301.56
568.17	60170.49
568.34	60563.70
568.50	60411.57
568.66	60275.82
568.83	60411.57
568.99	60385.82
569.15	60423.27
569.32	60418.59
569.48	60310.92
569.64	60561.36
569.81	60495.83
569.97	60168.15
570.13	60427.95
570.30	60313.26
570.46	60437.31
570.62	60470.08
570.78	60521.57
570.95	60245.39
571.11	60470.08
571.27	60507.53
571.43	60402.21
571.60	60662.00
571.76	60603.49
571.92	60596.47
572.09	60418.59
572.25	60685.41
572.41	60624.56
572.57	60427.95
572.74	60683.07
572.90	60392.84
573.06	60542.64
573.22	60636.26
573.38	60544.98
573.55	60659.66
573.71	60580.09
573.87	60769.67
574.03	60559.02
574.20	60678.39
574.36	60605.83
574.52	60640.94
574.68	60818.82
574.84	60818.82
575.01	60776.69
575.17	60753.29
575.33	60694.77
575.49	60418.59
575.65	60640.94
575.82	60912.44
575.98	60755.63
576.14	61022.45
576.30	60477.10
576.46	60650.30
576.62	60594.13
576.79	60701.79
576.95	60381.14
577.11	60643.28
577.27	60867.97
577.43	60762.65
577.59	60804.78
577.75	60650.30
577.92	60748.60
578.08	60687.75
578.24	60795.42
578.40	61116.07
578.56	61106.71
578.72	60753.29
578.88	60917.12
579.04	61036.49
579.21	61050.53
579.37	61036.49
579.53	61017.77
579.69	60629.24
579.85	60814.14
580.01	60877.33
580.17	60760.31
580.33	60788.39
580.49	60966.27
580.65	60884.36
580.82	61034.15
580.98	60856.27
581.14	60739.24
581.30	60942.87
581.46	60839.89
581.62	60874.99
581.78	60856.27
581.94	60870.31
582.10	60816.48
582.26	60654.98
582.42	60940.53
582.58	60889.04
582.74	60933.51
582.90	60903.08
583.06	60938.19
583.22	60697.11
583.38	60942.87
583.54	61003.72
583.70	61085.64
583.86	60933.51
584.02	60879.67
584.18	60968.61
584.34	61057.56
584.50	60858.61
584.66	60706.47
584.82	60762.65
584.98	61102.03
585.14	61020.11
585.30	61001.38
585.46	60961.59
585.62	60898.40
585.78	60999.04
585.94	60886.70
586.10	60973.30
586.26	60985.00
586.42	61127.77
586.58	60966.27
586.74	60809.46
586.90	61043.51
587.06	61022.45
587.22	60977.98
587.38	61015.43
587.54	61080.96
587.70	61132.45
587.86	61057.56
588.02	61055.21
588.18	61195.65
588.34	61015.43
