SpectraSuite Data File
++++++++++++++++++++++++++++++++++++
Date: Fri Oct 25 11:26:37 EDT 2013
User: price-jones
Dark Spectrum Present: No
Reference Spectrum Present: No
Number of Sampled Component Spectra: 1
Spectrometers: USB2+H05261
Integration Time (usec): 100000 (USB2+H05261)
Spectra Averaged: 1 (USB2+H05261)
Boxcar Smoothing: 0 (USB2+H05261)
Correct for Electrical Dark: No (USB2+H05261)
Strobe/Lamp Enabled: No (USB2+H05261)
Correct for Detector Non-linearity: No (USB2+H05261)
Correct for Stray Light: No (USB2+H05261)
Number of Pixels in Processed Spectrum: 2048
>>>>>Begin Processed Spectral Data<<<<<
365.73	205.97
365.92	205.97
366.12	205.97
366.32	163.84
366.52	203.63
366.72	170.86
366.91	119.37
367.11	126.39
367.31	175.54
367.51	156.82
367.70	133.41
367.90	189.58
368.10	91.28
368.30	215.33
368.49	81.92
368.69	156.82
368.89	112.35
369.09	210.65
369.28	182.56
369.48	203.63
369.68	236.39
369.87	142.77
370.07	215.33
370.27	234.05
370.47	346.40
370.66	608.54
370.86	615.56
371.06	699.82
371.25	720.88
371.45	660.03
371.65	657.69
371.84	746.63
372.04	739.61
372.24	702.16
372.44	737.27
372.63	774.72
372.83	774.72
373.03	798.12
373.22	720.88
373.42	851.96
373.62	835.57
373.81	814.51
374.01	870.68
374.21	791.10
374.40	844.93
374.60	840.25
374.79	830.89
374.99	791.10
375.19	940.90
375.38	861.32
375.58	866.00
375.78	830.89
375.97	840.25
376.17	940.90
376.37	898.77
376.56	880.04
376.76	910.47
376.95	952.60
377.15	844.93
377.35	894.08
377.54	901.11
377.74	840.25
377.93	905.79
378.13	905.79
378.33	936.21
378.52	940.90
378.72	926.85
378.91	990.05
379.11	889.40
379.31	983.02
379.50	912.81
379.70	992.39
379.89	936.21
380.09	976.00
380.28	985.37
380.48	957.28
380.68	992.39
380.87	945.58
381.07	1011.11
381.26	1104.73
381.46	938.55
381.65	959.62
381.85	1064.94
382.04	1036.86
382.24	1020.47
382.43	1039.20
382.63	1046.22
382.83	1111.75
383.02	1121.12
383.22	1104.73
383.41	1163.25
383.61	1151.54
383.80	1153.88
384.00	1153.88
384.19	1102.39
384.39	1078.99
384.58	1151.54
384.78	1146.86
384.97	1210.06
385.17	1240.48
385.36	1219.42
385.56	1139.84
385.75	1242.82
385.95	1214.74
386.14	1128.14
386.34	1118.78
386.53	1228.78
386.72	1210.06
386.92	1259.21
387.11	1214.74
387.31	1280.27
387.50	1268.57
387.70	1247.51
387.89	1261.55
388.09	1256.87
388.28	1266.23
388.48	1217.08
388.67	1338.79
388.86	1411.34
389.06	1315.38
389.25	1348.15
389.45	1284.95
389.64	1362.19
389.84	1409.00
390.03	1380.92
390.22	1404.32
390.42	1284.95
390.61	1394.96
390.81	1369.21
391.00	1376.24
391.19	1497.94
391.39	1469.86
391.58	1523.69
391.78	1401.98
391.97	1526.03
392.16	1425.39
392.36	1490.92
392.55	1577.52
392.75	1638.38
392.94	1502.62
393.13	1528.37
393.33	1483.90
393.52	1570.50
393.71	1481.56
393.91	1638.38
394.10	1631.35
394.29	1666.46
394.49	1584.54
394.68	1715.61
394.88	1577.52
395.07	1692.21
395.26	1659.44
395.46	1661.78
395.65	1694.55
395.84	1809.23
396.04	1898.17
396.23	1668.80
396.42	1743.70
396.62	1809.23
396.81	1746.04
397.00	1753.06
397.19	1753.06
397.39	1706.25
397.58	1827.96
397.77	1851.36
397.97	1823.28
398.16	1769.44
398.35	1912.22
398.55	1788.17
398.74	1949.67
398.93	1982.43
399.12	1956.69
399.32	1982.43
399.51	1998.82
399.70	2003.50
399.90	1900.52
400.09	1959.03
400.28	1980.09
400.47	1991.80
400.67	2167.34
400.86	2008.18
401.05	2094.78
401.24	2120.53
401.44	2162.66
401.63	2181.38
401.82	2253.94
402.01	2160.31
402.21	2097.12
402.40	2211.81
402.59	2073.71
402.78	2279.68
402.97	2377.98
403.17	2345.22
403.36	2305.43
403.55	2340.54
403.74	2387.35
403.93	2413.09
404.13	2408.41
404.32	2345.22
404.51	2286.70
404.70	2490.33
404.89	2289.04
405.09	2431.82
405.28	2450.54
405.47	2459.90
405.66	2513.74
405.85	2548.84
406.05	2576.93
406.24	2516.08
406.43	2537.14
406.62	2642.46
406.81	2661.19
407.00	2672.89
407.20	2551.18
407.39	2675.23
407.58	2778.22
407.77	2789.92
407.96	2794.60
408.15	2874.18
408.34	2647.15
408.54	2754.81
408.73	2792.26
408.92	2843.75
409.11	2857.79
409.30	2843.75
409.49	2909.29
409.68	2906.95
409.87	2869.50
410.07	2883.54
410.26	2953.76
410.45	3052.06
410.64	3096.53
410.83	3171.43
411.02	3096.53
411.21	3157.38
411.40	3248.66
411.59	3185.47
411.78	3194.83
411.98	3178.45
412.17	3239.30
412.36	3194.83
412.55	3396.12
412.74	3431.23
412.93	3459.31
413.12	3405.48
413.31	3606.77
413.50	3353.99
413.69	3487.40
413.88	3545.91
414.07	3632.51
414.26	3616.13
414.45	3604.42
414.64	3665.28
414.83	3817.41
415.02	3763.58
415.22	3906.35
415.41	3901.67
415.60	3915.72
415.79	3735.50
415.98	3981.25
416.17	3983.59
416.36	4051.47
416.55	4102.96
416.74	4060.83
416.93	3983.59
417.12	4107.64
417.31	4173.18
417.50	4114.66
417.69	4278.50
417.88	4280.84
418.07	4285.52
418.26	4156.79
418.45	4297.22
418.64	4547.66
418.83	4454.04
419.02	4407.23
419.21	4465.74
419.39	4521.92
419.58	4545.32
419.77	4547.66
419.96	4519.57
420.15	4575.75
420.34	4580.43
420.53	4732.56
420.72	4706.82
420.91	4727.88
421.10	4751.29
421.29	4807.46
421.48	4755.97
421.67	4725.54
421.86	4861.29
422.05	4947.89
422.24	4971.30
422.43	4823.84
422.61	4891.72
422.80	5039.17
422.99	4924.49
423.18	4966.62
423.37	5004.07
423.56	4889.38
423.75	4952.57
423.94	4910.44
424.13	4615.54
424.32	4800.44
424.50	5095.35
424.69	5259.18
424.88	5006.41
425.07	4990.02
425.26	4922.15
425.45	5018.11
425.64	4990.02
425.83	5022.79
426.01	5231.10
426.20	5165.56
426.39	5011.09
426.58	5020.45
426.77	5078.96
426.96	5184.29
427.15	5181.95
427.33	5203.01
427.52	5177.26
427.71	5383.23
427.90	5355.15
428.09	5256.84
428.28	5359.83
428.46	5441.75
428.65	5352.81
428.84	5535.37
429.03	5554.09
429.22	5310.68
429.40	5575.16
429.59	5366.85
429.78	5259.18
429.97	5256.84
430.16	5497.92
430.34	5657.07
430.53	5647.71
430.72	5619.63
430.91	5722.61
431.10	5582.18
431.28	5790.49
431.47	5799.85
431.66	5844.32
431.85	5795.17
432.03	5956.66
432.22	5874.74
432.41	5994.11
432.60	6057.31
432.79	6069.01
432.97	5802.19
433.16	5940.28
433.35	5973.05
433.54	5928.58
433.72	6092.41
433.91	6146.25
434.10	6167.31
434.28	5980.07
434.47	6139.23
434.66	6424.77
434.85	6354.55
435.03	6274.98
435.22	6317.11
435.41	6523.07
435.59	6270.30
435.78	6387.32
435.97	6408.39
436.16	6445.84
436.34	6525.41
436.53	6368.60
436.72	6656.48
436.90	6352.21
437.09	6686.91
437.28	6518.39
437.46	6530.09
437.65	6729.04
437.84	6719.68
438.02	6892.88
438.21	6698.61
438.40	6722.02
438.58	7002.88
438.77	6998.20
438.96	7056.72
439.14	7098.84
439.33	7084.80
439.52	7332.90
439.70	7201.83
439.89	7438.22
440.08	7538.87
440.26	7316.51
440.45	7461.63
440.63	7382.05
440.82	7786.96
441.01	7510.78
441.19	7482.69
441.38	7602.06
441.57	7581.00
441.75	7756.54
441.94	8121.66
442.12	8013.99
442.31	8119.32
442.50	8081.87
442.68	8042.08
442.87	8060.80
443.05	8105.28
443.24	8252.73
443.43	8159.11
443.61	8161.45
443.80	8367.42
443.98	7868.88
444.17	8002.29
444.35	8297.20
444.54	8411.89
444.73	8353.37
444.91	8290.18
445.10	8461.04
445.28	8250.39
445.47	8393.16
445.65	8243.37
445.84	8582.74
446.02	8531.25
446.21	8376.78
446.39	8374.44
446.58	8566.36
446.77	8493.80
446.95	8306.56
447.14	8454.02
447.32	8528.91
447.51	8549.98
447.69	8641.26
447.88	8507.85
448.06	8671.68
448.25	8446.99
448.43	8671.68
448.62	8519.55
448.80	8545.30
448.99	8629.56
449.17	8737.22
449.36	8667.00
449.54	8865.95
449.73	8952.55
449.91	9132.77
450.10	8891.70
450.28	9121.07
450.46	9048.51
450.65	9041.49
450.83	9107.02
451.02	9090.64
451.20	9165.54
451.39	9245.12
451.57	9137.45
451.76	8912.76
451.94	9305.97
452.13	9305.97
452.31	9418.32
452.49	8997.02
452.68	9390.23
452.86	9408.95
453.05	9308.31
453.23	9334.06
453.42	9336.40
453.60	9226.39
453.78	9638.33
453.97	9626.62
454.15	9605.56
454.34	9385.55
454.52	9769.40
454.70	9774.08
454.89	9748.33
455.07	9680.46
455.26	9907.49
455.44	9895.78
455.62	9919.19
455.81	10111.11
455.99	10001.11
456.17	10303.04
456.36	10122.82
456.54	10214.10
456.73	10239.84
456.91	10361.55
457.09	10548.79
457.28	10497.30
457.46	10176.65
457.64	10469.22
457.83	10562.84
458.01	10572.20
458.19	10773.49
458.38	10654.12
458.56	10846.04
458.74	10834.34
458.93	10530.07
459.11	10789.87
459.29	10759.44
459.48	10745.40
459.66	11009.88
459.84	10874.13
460.03	11108.18
460.21	11117.54
460.39	10857.75
460.57	10998.18
460.76	11094.14
460.94	11279.04
461.12	11269.68
461.31	10995.84
461.49	11274.36
461.67	11335.21
461.85	11510.75
462.04	11695.66
462.22	11538.84
462.40	11564.59
462.59	11461.60
462.77	11611.40
462.95	11915.67
463.13	11690.98
463.32	11625.44
463.50	11854.81
463.68	11784.60
463.86	11878.22
464.05	11669.91
464.23	11485.01
464.41	11763.53
464.59	11686.29
464.78	12013.97
464.96	11976.52
465.14	11967.16
465.32	11957.80
465.50	12196.53
465.69	12283.13
465.87	12025.67
466.05	12013.97
466.23	12306.54
466.41	12173.13
466.60	12472.71
466.78	12175.47
466.96	12231.64
467.14	12163.76
467.32	12339.30
467.51	12327.60
467.69	12100.57
467.87	12456.33
468.05	12503.14
468.23	12624.85
468.41	12407.18
468.60	12627.19
468.78	12695.07
468.96	12674.00
469.14	12697.41
469.32	12947.84
469.50	12573.36
469.69	13001.68
469.87	12971.25
470.05	13036.78
470.23	13259.13
470.41	13186.58
470.59	13172.54
470.77	13165.51
470.95	13514.25
471.14	13664.05
471.32	13221.69
471.50	13870.01
471.68	13605.53
471.86	13729.58
472.04	13689.79
472.22	14113.43
472.40	13837.25
472.58	13715.54
472.77	13902.78
472.95	14349.82
473.13	14754.74
473.31	14150.88
473.49	14066.62
473.67	14174.28
473.85	14176.62
474.03	14778.14
474.21	14532.39
474.39	14698.56
474.57	14597.92
474.75	14853.04
474.93	15272.00
475.12	15157.31
475.30	15335.19
475.48	15089.43
475.66	15382.00
475.84	15176.03
476.02	15325.83
476.20	15597.33
476.38	15969.48
476.56	15822.02
476.74	15889.90
476.92	15927.35
477.10	15859.47
477.28	16018.63
477.46	16135.65
477.64	16252.68
477.82	16854.20
478.00	16891.65
478.18	16989.95
478.36	16957.18
478.54	17348.05
478.72	17254.43
478.90	17235.70
479.08	17528.27
479.26	17790.41
479.44	17776.37
479.62	17799.77
479.80	18080.64
479.98	18043.19
480.16	18684.50
480.34	18345.12
480.52	18682.16
480.70	18597.90
480.88	18558.11
481.06	18965.36
481.24	18670.45
481.41	18993.45
481.59	19201.76
481.77	19681.56
481.95	19578.58
482.13	20051.37
482.31	19735.40
482.49	20095.84
482.67	20365.00
482.85	20479.69
483.03	20599.05
483.21	20669.27
483.39	21104.61
483.57	20868.22
483.74	20816.72
483.92	21507.18
484.10	21380.79
484.28	21441.65
484.46	22185.94
484.64	22443.40
484.82	22377.86
485.00	22169.55
485.18	22792.14
485.35	23204.07
485.53	22838.95
485.71	22902.14
485.89	23491.96
486.07	23557.49
486.25	23363.23
486.43	23330.46
486.61	23796.23
486.78	24217.52
486.96	24142.63
487.14	24500.73
487.32	24453.92
487.50	25102.25
487.68	25106.93
487.85	25083.52
488.03	25458.01
488.21	26078.25
488.39	26080.59
488.57	26307.62
488.75	26167.19
488.92	26197.62
489.10	26586.15
489.28	26700.83
489.46	26661.04
489.64	27152.55
489.81	27779.82
489.99	27468.53
490.17	27714.28
490.35	28376.66
490.53	28254.95
490.70	28549.85
490.88	28364.95
491.06	28561.56
491.24	28933.70
491.41	29233.29
491.59	28931.36
491.77	28893.91
491.95	29839.49
492.13	29832.47
492.30	30059.50
492.48	29902.68
492.66	30106.31
492.84	30054.82
493.01	30874.01
493.19	30726.55
493.37	31019.12
493.54	31037.84
493.72	31353.82
493.90	31262.54
494.08	31740.00
494.25	31695.53
494.43	32084.06
494.61	32304.07
494.79	32416.42
494.96	32748.78
495.14	32828.35
495.32	32947.72
495.49	33141.99
495.67	33174.75
495.85	33708.40
496.02	33542.22
496.20	34110.97
496.38	34176.50
496.55	34176.50
496.73	34637.59
496.91	34431.62
497.09	34939.52
497.26	35180.59
497.44	34958.24
497.62	35438.05
497.79	36236.17
497.97	35325.71
498.14	35880.41
498.32	36182.34
498.50	36135.53
498.67	36378.95
498.85	36432.78
499.03	36495.97
499.20	36493.63
499.38	37076.43
499.56	36919.61
499.73	36959.40
499.91	37518.79
500.08	37565.60
500.26	37710.71
500.44	37656.88
500.61	38064.13
500.79	37989.24
500.97	38232.65
501.14	38611.82
501.32	38937.15
501.49	38588.41
501.67	38836.51
501.84	38677.35
502.02	38974.60
502.20	38862.26
502.37	39445.05
502.55	39171.21
502.72	39510.58
502.90	39634.63
503.07	39686.12
503.25	40025.50
503.43	39573.78
503.60	39945.92
503.78	40067.63
503.95	40376.58
504.13	40645.74
504.30	40439.78
504.48	40130.83
504.65	40790.86
504.83	40680.85
505.01	41717.71
505.18	41549.19
505.36	41574.94
505.53	41134.92
505.71	41773.88
505.88	41752.82
506.06	42099.22
506.23	41947.08
506.41	41961.12
506.58	42436.25
506.76	41895.59
506.93	42485.40
507.11	42579.03
507.28	42546.26
507.46	42555.62
507.63	42941.81
507.81	43093.94
507.98	43391.19
508.16	43414.60
508.33	43311.61
508.50	43445.02
508.68	43690.78
508.85	43526.94
509.03	43585.46
509.20	43973.98
509.38	44608.27
509.55	44421.03
509.73	44444.43
509.90	44470.18
510.08	44285.28
510.25	44680.83
510.42	44823.60
510.60	45020.20
510.77	44940.63
510.95	45731.73
511.12	45261.28
511.30	45167.66
511.47	45823.01
511.64	45450.86
511.82	45895.56
511.99	45476.61
512.17	45801.94
512.34	46134.30
512.51	46553.26
512.69	46398.78
512.86	46532.19
513.04	46686.67
513.21	46604.75
513.38	46972.21
513.56	47089.24
513.73	46920.72
513.90	47175.84
514.08	46962.85
514.25	47351.38
514.43	47173.50
514.60	47236.69
514.77	46948.81
514.95	47456.70
515.12	47311.59
515.29	47793.74
515.47	47955.24
515.64	47929.49
515.81	47990.34
515.99	48357.81
516.16	48322.70
516.33	48617.61
516.51	48521.65
516.68	48765.06
516.85	48465.47
517.03	48734.63
517.20	49052.95
517.37	48540.37
517.54	49038.90
517.72	49010.82
517.89	49048.27
518.06	49242.53
518.24	49287.00
518.41	49691.91
518.58	49380.62
518.75	49226.15
518.93	49516.37
519.10	49427.43
519.27	49930.65
519.45	49588.93
519.62	50003.20
519.79	50342.58
519.96	50057.04
520.14	50272.37
520.31	50277.05
520.48	50466.63
520.65	50307.47
520.83	50417.48
521.00	50557.91
521.17	49937.67
521.34	50642.17
521.52	50988.57
521.69	50578.98
521.86	51145.39
522.03	51093.89
522.20	51295.18
522.38	51444.98
522.55	51365.40
522.72	51358.38
522.89	51222.62
523.07	51241.35
523.24	51444.98
523.41	51519.87
523.58	51341.99
523.75	52158.84
523.92	51835.84
524.10	52147.14
524.27	51838.18
524.44	51976.28
524.61	51990.32
524.78	52100.32
524.96	52505.24
525.13	52435.02
525.30	52339.06
525.47	52584.82
525.64	52350.76
525.81	52706.52
525.98	52919.51
526.16	52402.25
526.33	52484.17
526.50	53071.65
526.67	52397.57
526.84	52832.91
527.01	52856.32
527.18	52779.08
527.36	52931.22
527.53	52914.83
527.70	53090.37
527.87	53584.22
528.04	53010.79
528.21	53336.13
528.38	53371.24
528.55	53495.28
528.72	53387.62
528.89	53453.15
529.07	53645.08
529.24	53549.12
529.41	53769.13
529.58	53588.91
529.75	53429.75
529.92	54033.61
530.09	53708.27
530.26	54096.80
530.43	53851.05
530.60	53656.78
530.77	53867.43
530.94	54190.42
531.11	53738.70
531.28	54078.08
531.46	54354.26
531.63	54284.04
531.80	54274.68
531.97	54372.99
532.14	54635.13
532.31	54291.07
532.48	54499.37
532.65	54731.09
532.82	54436.18
532.99	54522.78
533.16	54576.61
533.33	54663.21
533.50	54941.74
533.67	54822.37
533.84	54490.01
534.01	54820.03
534.18	54831.73
534.35	55215.58
534.52	55145.36
534.69	55056.42
534.86	55351.33
535.03	55182.81
535.20	55182.81
535.37	55217.92
535.54	55281.11
535.71	55388.78
535.88	55475.38
536.05	55524.53
536.22	55552.62
536.38	55433.25
536.55	55758.58
536.72	55543.25
536.89	55622.83
537.06	55564.32
537.23	55655.60
537.40	55711.77
537.57	55863.91
537.74	55781.99
537.91	55896.67
538.08	55796.03
538.25	56006.68
538.42	55983.27
538.59	56238.39
538.75	55838.16
538.92	55924.76
539.09	56355.42
539.26	56189.24
539.43	56423.29
539.60	56484.15
539.77	56238.39
539.94	56399.89
540.11	56245.41
540.28	56488.83
540.44	56598.83
540.61	56526.28
540.78	56292.22
540.95	56470.11
541.12	56446.70
541.29	56484.15
541.46	56444.36
541.62	56699.48
541.79	56765.01
541.96	56385.85
542.13	56587.13
542.30	56619.90
542.47	56884.38
542.63	56912.47
542.80	56968.64
542.97	56959.28
543.14	57310.36
543.31	57240.14
543.48	57263.55
543.64	57441.43
543.81	57361.85
543.98	57291.63
544.15	57223.76
544.32	57221.42
544.48	57542.07
544.65	57408.66
544.82	57467.17
544.99	57305.68
545.16	57457.81
545.32	57478.88
545.49	57755.06
545.66	57656.76
545.83	57661.44
546.00	57598.24
546.16	57806.55
546.33	57532.71
546.50	57532.71
546.67	57769.10
546.83	57350.15
547.00	57593.56
547.17	57748.04
547.34	57776.12
547.50	58092.10
547.67	58108.48
547.84	58274.66
548.00	58073.37
548.17	58211.46
548.34	58124.86
548.51	58092.10
548.67	58377.64
548.84	58192.74
549.01	58014.86
549.18	58007.84
549.34	58213.80
549.51	58356.58
549.68	58183.38
549.84	58211.46
550.01	58384.66
550.18	58454.88
550.34	58564.88
550.51	58630.42
550.68	58665.53
550.84	58075.71
551.01	58560.20
551.18	58457.22
551.34	58775.53
551.51	58555.52
551.68	58459.56
551.84	58630.42
552.01	58461.90
552.18	58604.67
552.34	58482.97
552.51	58679.57
552.68	58522.76
552.84	58969.80
553.01	58890.22
553.18	58852.77
553.34	58962.78
553.51	58831.71
553.67	58639.78
553.84	58995.54
554.01	59051.72
554.17	58969.80
554.34	59128.95
554.51	59138.32
554.67	59058.74
554.84	58953.41
555.00	58866.81
555.17	59025.97
555.33	58986.18
555.50	58965.12
555.67	59011.93
555.83	59222.58
556.00	59150.02
556.16	59327.90
556.33	59189.81
556.50	59107.89
556.66	59559.61
556.83	59077.46
556.99	59208.53
557.16	59540.89
557.32	59576.00
557.49	59604.08
557.65	59400.46
557.82	59278.75
557.98	59405.14
558.15	59421.52
558.32	59510.46
558.48	59288.11
558.65	59503.44
558.81	59351.30
558.98	59620.47
559.14	59564.29
559.31	59580.68
559.47	59648.55
559.64	59573.66
559.80	59978.57
559.97	59721.11
560.13	59629.83
560.30	59622.81
560.46	59739.83
560.63	59929.42
560.79	59800.69
560.96	59943.46
561.12	59973.89
561.29	59735.15
561.45	59655.57
561.61	59840.48
561.78	59924.74
561.94	59746.86
562.11	59807.71
562.27	59821.75
562.44	59884.95
562.60	60275.82
562.77	59973.89
562.93	59868.56
563.10	59997.29
563.26	59812.39
563.42	60163.47
563.59	60027.72
563.75	59929.42
563.92	60111.98
564.08	59997.29
564.24	60257.09
564.41	60348.37
564.57	60039.42
564.74	59971.55
564.90	60149.43
565.07	60172.83
565.23	60135.38
565.39	60067.51
565.56	60165.81
565.72	60275.82
565.88	60416.25
566.05	60074.53
566.21	60144.75
566.38	60252.41
566.54	60280.50
566.70	60362.42
566.87	60453.70
567.03	60067.51
567.19	60383.48
567.36	60226.66
567.52	60404.55
567.68	60549.66
567.85	60369.44
568.01	60243.05
568.17	60369.44
568.34	60292.20
568.50	60404.55
568.66	60381.14
568.83	60341.35
568.99	60392.84
569.15	60516.89
569.32	60264.11
569.48	60383.48
569.64	60360.08
569.81	60495.83
569.97	60617.53
570.13	60437.31
570.30	60528.59
570.46	60603.49
570.62	60432.63
570.78	60549.66
570.95	60523.91
571.11	60685.41
571.27	60350.71
571.43	60446.68
571.60	60542.64
571.76	60601.15
571.92	60654.98
572.09	60678.39
572.25	60727.54
572.41	60584.77
572.57	60603.49
572.74	60647.96
572.90	60608.17
573.06	60650.30
573.22	60575.40
573.38	60406.89
573.55	60657.32
573.71	60704.13
573.87	60832.86
574.03	60608.17
574.20	60631.58
574.36	60713.50
574.52	60598.81
574.68	60818.82
574.84	60823.50
575.01	60690.09
575.17	60694.77
575.33	60596.47
575.49	60657.32
575.65	60961.59
575.82	60772.01
575.98	60917.12
576.14	60844.57
576.30	60956.91
576.46	60654.98
576.62	60727.54
576.79	60776.69
576.95	60673.71
577.11	60795.42
577.27	60734.56
577.43	60886.70
577.59	60715.84
577.75	60760.31
577.92	60692.43
578.08	60865.63
578.24	60870.31
578.40	60970.96
578.56	61102.03
578.72	60994.36
578.88	60814.14
579.04	61137.13
579.21	60999.04
579.37	61038.83
579.53	61020.11
579.69	60690.09
579.85	60816.48
580.01	60615.19
580.17	60835.20
580.33	60940.53
580.49	60956.91
580.65	60926.49
580.82	60823.50
580.98	60739.24
581.14	60795.42
581.30	60928.83
581.46	60956.91
581.62	60949.89
581.78	60933.51
581.94	61059.90
582.10	60996.70
582.26	60807.12
582.42	60715.84
582.58	60987.34
582.74	60830.52
582.90	60992.02
583.06	60772.01
583.22	60753.29
583.38	60669.03
583.54	60947.55
583.70	60917.12
583.86	60767.33
584.02	60825.84
584.18	60970.96
584.34	60828.18
584.50	61008.40
584.66	60804.78
584.82	60893.72
584.98	61160.54
585.14	61020.11
585.30	61066.92
585.46	61111.39
585.62	60842.23
585.78	61031.81
585.94	60797.76
586.10	61109.05
586.26	60963.93
586.42	61155.86
586.58	60870.31
586.74	61137.13
586.90	61048.19
587.06	61015.43
587.22	61172.24
587.38	61123.09
587.54	61141.81
587.70	61368.85
587.86	61183.94
588.02	61172.24
588.18	61132.45
588.34	61158.20
588.49	61197.99
