SpectraSuite Data File
++++++++++++++++++++++++++++++++++++
Date: Fri Oct 25 11:33:22 EDT 2013
User: price-jones
Dark Spectrum Present: No
Reference Spectrum Present: No
Number of Sampled Component Spectra: 1
Spectrometers: USB2+H05261
Integration Time (usec): 100000 (USB2+H05261)
Spectra Averaged: 1 (USB2+H05261)
Boxcar Smoothing: 0 (USB2+H05261)
Correct for Electrical Dark: No (USB2+H05261)
Strobe/Lamp Enabled: No (USB2+H05261)
Correct for Detector Non-linearity: No (USB2+H05261)
Correct for Stray Light: No (USB2+H05261)
Number of Pixels in Processed Spectrum: 2048
>>>>>Begin Processed Spectral Data<<<<<
365.73	294.91
365.92	294.91
366.12	294.91
366.32	234.05
366.52	156.82
366.72	234.05
366.91	208.31
367.11	175.54
367.31	156.82
367.51	201.29
367.70	184.90
367.90	177.88
368.10	42.13
368.30	194.26
368.49	205.97
368.69	201.29
368.89	187.24
369.09	147.45
369.28	182.56
369.48	175.54
369.68	222.35
369.87	215.33
370.07	201.29
370.27	257.46
370.47	358.10
370.66	418.96
370.86	517.26
371.06	573.43
371.25	615.56
371.45	564.07
371.65	580.45
371.84	538.32
372.04	505.56
372.24	587.47
372.44	580.45
372.63	559.39
372.83	592.16
373.03	617.90
373.22	589.82
373.42	596.84
373.62	627.26
373.81	638.97
374.01	645.99
374.21	676.41
374.40	627.26
374.60	690.46
374.79	655.35
374.99	690.46
375.19	631.94
375.38	681.10
375.58	638.97
375.78	664.71
375.97	671.73
376.17	748.97
376.37	667.05
376.56	685.78
376.76	718.54
376.95	699.82
377.15	760.67
377.35	774.72
377.54	716.20
377.74	615.56
377.93	699.82
378.13	704.50
378.33	784.08
378.52	713.86
378.72	732.59
378.91	732.59
379.11	631.94
379.31	755.99
379.50	683.44
379.70	718.54
379.89	734.93
380.09	732.59
380.28	713.86
380.48	641.31
380.68	681.10
380.87	685.78
381.07	793.44
381.26	819.19
381.46	763.01
381.65	786.42
381.85	765.36
382.04	744.29
382.24	847.27
382.43	770.04
382.63	690.46
382.83	800.46
383.02	795.78
383.22	795.78
383.41	793.44
383.61	772.38
383.80	800.46
384.00	856.64
384.19	854.30
384.39	823.87
384.58	821.53
384.78	924.51
384.97	851.96
385.17	819.19
385.36	805.14
385.56	798.12
385.75	798.12
385.95	840.25
386.14	851.96
386.34	880.04
386.53	917.49
386.72	973.66
386.92	873.02
387.11	887.06
387.31	784.08
387.50	828.55
387.70	910.47
387.89	950.26
388.09	887.06
388.28	842.59
388.48	898.77
388.67	978.34
388.86	887.06
389.06	940.90
389.25	877.70
389.45	1027.50
389.64	919.83
389.84	929.19
390.03	973.66
390.22	945.58
390.42	1004.09
390.61	1142.18
390.81	980.68
391.00	980.68
391.19	1036.86
391.39	922.17
391.58	1027.50
391.78	947.92
391.97	1011.11
392.16	983.02
392.36	1083.67
392.55	1074.31
392.75	1036.86
392.94	1076.65
393.13	1128.14
393.33	1078.99
393.52	1029.84
393.71	1118.78
393.91	1116.44
394.10	1158.57
394.29	1151.54
394.49	1149.20
394.68	1104.73
394.88	1188.99
395.07	1149.20
395.26	1156.22
395.46	1109.41
395.65	1172.61
395.84	1156.22
396.04	1280.27
396.23	1299.00
396.42	1153.88
396.62	1221.76
396.81	1256.87
397.00	1224.10
397.19	1210.06
397.39	1306.02
397.58	1219.42
397.77	1280.27
397.97	1188.99
398.16	1299.00
398.35	1233.46
398.55	1231.12
398.74	1284.95
398.93	1289.64
399.12	1315.38
399.32	1327.08
399.51	1331.76
399.70	1364.53
399.90	1357.51
400.09	1348.15
400.28	1359.85
400.47	1376.24
400.67	1430.07
400.86	1488.58
401.05	1448.79
401.24	1434.75
401.44	1467.52
401.63	1423.05
401.82	1533.05
402.01	1504.96
402.21	1549.43
402.40	1469.86
402.59	1502.62
402.78	1462.83
402.97	1621.99
403.17	1633.69
403.36	1582.20
403.55	1483.90
403.74	1596.25
403.93	1621.99
404.13	1640.72
404.32	1521.35
404.51	1586.88
404.70	1652.42
404.89	1652.42
405.09	1678.16
405.28	1605.61
405.47	1713.27
405.66	1741.36
405.85	1746.04
406.05	1710.93
406.24	1678.16
406.43	1703.91
406.62	1701.57
406.81	1846.68
407.00	1818.60
407.20	1769.44
407.39	1860.73
407.58	1842.00
407.77	1872.43
407.96	1898.17
408.15	1851.36
408.34	1893.49
408.54	1891.15
408.73	1877.11
408.92	1977.75
409.11	1914.56
409.30	1935.62
409.49	2050.31
409.68	2001.16
409.87	2054.99
410.07	2099.46
410.26	1970.73
410.45	2029.24
410.64	2104.14
410.83	2214.15
411.02	2118.18
411.21	2150.95
411.40	2155.63
411.59	2181.38
411.78	2186.06
411.98	2143.93
412.17	2359.26
412.36	2267.98
412.55	2377.98
412.74	2366.28
412.93	2417.77
413.12	2401.39
413.31	2490.33
413.50	2197.76
413.69	2359.26
413.88	2562.89
414.07	2480.97
414.26	2485.65
414.45	2520.76
414.64	2457.56
414.83	2597.99
415.02	2635.44
415.22	2724.38
415.41	2560.55
415.60	2595.65
415.79	2726.72
415.98	2818.00
416.17	2677.57
416.36	2813.32
416.55	2747.79
416.74	2869.50
416.93	2801.62
417.12	2722.04
417.31	2825.03
417.50	2932.69
417.69	2988.86
417.88	2913.97
418.07	2906.95
418.26	3002.91
418.45	2885.88
418.64	3094.19
418.83	3047.38
419.02	2958.44
419.21	3091.85
419.39	3155.04
419.58	3131.64
419.77	3183.13
419.96	3124.62
420.15	3185.47
420.34	3087.17
420.53	3148.02
420.72	3258.03
420.91	3286.11
421.10	3166.74
421.29	3370.37
421.48	3155.04
421.67	3290.79
421.86	3389.10
422.05	3314.20
422.24	3286.11
422.43	3421.86
422.61	3276.75
422.80	3335.26
422.99	3503.78
423.18	3452.29
423.37	3604.42
423.56	3480.38
423.75	3421.86
423.94	3323.56
424.13	3239.30
424.32	3309.52
424.50	3487.40
424.69	3463.99
424.88	3501.44
425.07	3372.71
425.26	3602.08
425.45	3433.57
425.64	3428.88
425.83	3417.18
426.01	3506.12
426.20	3669.96
426.39	3431.23
426.58	3618.47
426.77	3494.42
426.96	3454.63
427.15	3534.21
427.33	3527.19
427.52	3534.21
427.71	3667.62
427.90	3716.77
428.09	3676.98
428.28	3662.94
428.46	3761.24
428.65	3679.32
428.84	3864.22
429.03	3847.84
429.22	3763.58
429.40	3953.16
429.59	3794.01
429.78	3864.22
429.97	3665.28
430.16	3779.97
430.34	3761.24
430.53	3901.67
430.72	4035.08
430.91	3948.48
431.10	3929.76
431.28	3927.42
431.47	4093.60
431.66	4077.21
431.85	4084.23
432.03	4049.13
432.22	4177.86
432.41	4124.02
432.60	4187.22
432.79	4224.67
432.97	4292.54
433.16	4201.26
433.35	4152.11
433.54	4180.20
433.72	4283.18
433.91	4386.16
434.10	4236.37
434.28	4117.00
434.47	4201.26
434.66	4245.73
434.85	4280.84
435.03	4411.91
435.22	4329.99
435.41	4594.47
435.59	4414.25
435.78	4432.97
435.97	4512.55
436.16	4500.85
436.34	4505.53
436.53	4526.60
436.72	4503.19
436.90	4444.68
437.09	4475.10
437.28	4470.42
437.46	4575.75
437.65	4641.28
437.84	4676.39
438.02	4578.09
438.21	4678.73
438.40	4587.45
438.58	4791.08
438.77	4744.27
438.96	4624.90
439.14	4711.50
439.33	5006.41
439.52	4865.97
439.70	4929.17
439.89	5036.83
440.08	4870.65
440.26	5060.24
440.45	5093.01
440.63	5238.12
440.82	5158.54
441.01	5008.75
441.19	5224.08
441.38	5266.21
441.57	5275.57
441.75	5245.14
441.94	5397.28
442.12	5483.88
442.31	5540.05
442.50	5502.60
442.68	5537.71
442.87	5476.85
443.05	5549.41
443.24	5586.86
443.43	5551.75
443.61	5710.91
443.80	5877.09
443.98	5523.66
444.17	5355.15
444.35	5612.60
444.54	5713.25
444.73	5621.97
444.91	5647.71
445.10	5790.49
445.28	5713.25
445.47	5783.46
445.65	5867.72
445.84	5748.36
446.02	5699.20
446.21	5769.42
446.39	5753.04
446.58	5867.72
446.77	5720.27
446.95	5631.33
447.14	5687.50
447.32	5874.74
447.51	5720.27
447.69	5710.91
447.88	5907.51
448.06	5762.40
448.25	5900.49
448.43	5820.91
448.62	5942.62
448.80	5919.21
448.99	5764.74
449.17	6010.50
449.36	5966.03
449.54	6122.84
449.73	6101.78
449.91	6155.61
450.10	6139.23
450.28	6120.50
450.46	6207.10
450.65	6083.05
450.83	6382.64
451.02	6244.55
451.20	6211.78
451.39	6352.21
451.57	6246.89
451.76	6104.12
451.94	6193.06
452.13	6396.68
452.31	6417.75
452.49	6408.39
452.68	6392.00
452.86	6274.98
453.05	6492.65
453.23	6417.75
453.42	6368.60
453.60	6387.32
453.78	6497.33
453.97	6434.13
454.15	6429.45
454.34	6406.05
454.52	6492.65
454.70	6651.80
454.89	6516.05
455.07	6581.59
455.26	6731.38
455.44	6803.94
455.62	6825.00
455.81	6778.19
455.99	6796.92
456.17	6766.49
456.36	6810.96
456.54	6789.89
456.73	6839.05
456.91	7190.13
457.09	6944.37
457.28	7117.57
457.46	6981.82
457.64	7183.10
457.83	6970.12
458.01	7005.22
458.19	7515.46
458.38	7103.53
458.56	7253.32
458.74	7290.77
458.93	7229.91
459.11	7265.02
459.29	7037.99
459.48	7407.80
459.66	7297.79
459.84	7440.56
460.03	7513.12
460.21	7370.35
460.39	7339.92
460.57	7508.44
460.76	7588.02
460.94	7559.93
461.12	7737.81
461.31	7487.37
461.49	7648.87
461.67	7597.38
461.85	7726.11
462.04	7623.12
462.22	8004.63
462.40	7646.53
462.59	7906.33
462.77	7906.33
462.95	7801.01
463.13	7761.22
463.32	7894.63
463.50	7962.50
463.68	7925.05
463.86	7964.84
464.05	7880.58
464.23	7847.82
464.41	8091.23
464.59	7992.93
464.78	8074.85
464.96	7992.93
465.14	7967.18
465.32	8116.98
465.50	8175.49
465.69	8098.25
465.87	8168.47
466.05	8271.45
466.23	8301.88
466.41	8219.96
466.60	8463.38
466.78	8234.00
466.96	8437.63
467.14	8273.79
467.32	8484.44
467.51	8479.76
467.69	8430.61
467.87	8435.29
468.05	8482.10
468.23	8470.40
468.41	8535.93
468.60	8517.21
468.78	8751.26
468.96	8561.68
469.14	8468.06
469.32	8774.67
469.50	8652.96
469.69	8755.94
469.87	8650.62
470.05	8622.53
470.23	8854.25
470.41	8938.51
470.59	8896.38
470.77	8868.29
470.95	8954.89
471.14	9207.67
471.32	8858.93
471.50	9100.00
471.68	9130.43
471.86	9032.13
472.04	9252.14
472.22	9427.68
472.40	9139.79
472.58	9273.20
472.77	9404.27
472.95	9502.58
473.13	9736.63
473.31	9488.53
473.49	9345.76
473.67	9645.35
473.85	9535.34
474.03	9930.89
474.21	9942.60
474.39	9788.12
474.57	9834.93
474.75	9923.87
474.93	10078.35
475.12	9982.38
475.30	10190.69
475.48	10057.28
475.66	10244.52
475.84	10221.12
476.02	10307.72
476.20	10118.14
476.38	10483.26
476.56	10787.53
476.74	10750.08
476.92	10476.24
477.10	10420.06
477.28	10721.99
477.46	10888.17
477.64	10951.37
477.82	10984.13
478.00	11269.68
478.18	11138.61
478.36	11260.32
478.54	11487.35
478.72	11583.31
478.90	11470.97
479.08	11915.67
479.26	11810.34
479.44	11866.52
479.62	11922.69
479.80	11957.80
479.98	12121.63
480.16	12304.20
480.34	12327.60
480.52	12329.94
480.70	12358.03
480.88	12198.87
481.06	12386.12
481.24	12458.67
481.41	12863.58
481.59	12931.46
481.77	12856.56
481.95	12987.63
482.13	12819.11
482.31	13018.06
482.49	13380.84
482.67	13373.82
482.85	13465.10
483.03	13582.13
483.21	13678.09
483.39	13811.50
483.57	13879.38
483.74	13965.98
483.92	14263.22
484.10	14122.79
484.28	14534.73
484.46	14448.13
484.64	14679.84
484.82	14614.30
485.00	14733.67
485.18	15016.88
485.35	15400.72
485.53	15049.64
485.71	15407.75
485.89	15374.98
486.07	15484.98
486.25	15527.11
486.43	15868.83
486.61	15712.02
486.78	15763.51
486.96	16044.37
487.14	16299.49
487.32	16531.20
487.50	16301.83
487.68	16702.06
487.85	16568.65
488.03	17018.04
488.21	17128.04
488.39	17186.55
488.57	17205.28
488.75	17233.36
488.92	17582.10
489.10	17830.20
489.28	17678.07
489.46	18335.76
489.64	17652.32
489.81	18054.89
489.99	18424.70
490.17	18593.22
490.35	18726.63
490.53	18630.66
490.70	18801.52
490.88	18700.88
491.06	19019.19
491.24	19101.11
491.41	19243.88
491.59	19407.72
491.77	19342.19
491.95	19529.43
492.13	19641.78
492.30	19609.01
492.48	19807.95
492.66	20395.43
492.84	19946.05
493.01	20217.55
493.19	20404.79
493.37	20524.16
493.54	20489.05
493.72	20716.08
493.90	20795.66
494.08	21015.67
494.25	21123.33
494.43	21181.85
494.61	21216.96
494.79	21453.35
494.96	21341.00
495.14	21736.56
495.32	22015.08
495.49	21898.05
495.67	22043.17
495.85	22185.94
496.02	22424.67
496.20	22190.62
496.38	22483.19
496.55	22368.50
496.73	23187.69
496.91	22841.29
497.09	23028.53
497.26	23068.32
497.44	23218.11
497.62	23309.40
497.79	23735.37
497.97	23641.75
498.14	23992.83
498.32	24154.33
498.50	24049.00
498.67	24095.82
498.85	24084.11
499.03	24208.16
499.20	24170.71
499.38	24694.99
499.56	24556.90
499.73	24451.58
499.91	24847.13
500.08	25090.54
500.26	24692.65
500.44	24886.92
500.61	25413.54
500.79	25223.95
500.97	25439.28
501.14	25649.93
501.32	25816.11
501.49	25654.61
501.67	25757.60
501.84	25528.22
502.02	25895.69
502.20	25900.37
502.37	25837.17
502.55	26040.80
502.72	26295.92
502.90	25858.24
503.07	26228.04
503.25	26347.41
503.43	26321.66
503.60	26534.65
503.78	26480.82
503.95	26932.54
504.13	26672.74
504.30	26834.24
504.48	26742.96
504.65	26892.76
504.83	27311.71
505.01	27152.55
505.18	27754.07
505.36	27491.93
505.53	27470.87
505.71	27847.69
505.88	27555.13
506.06	27599.60
506.23	27569.17
506.41	27763.43
506.58	27892.16
506.76	28025.57
506.93	28224.52
507.11	28137.92
507.28	28278.35
507.46	28205.80
507.63	28650.50
507.81	28840.08
507.98	28556.88
508.16	28627.09
508.33	28748.80
508.50	28865.83
508.68	28606.03
508.85	29172.44
509.03	29139.67
509.20	29303.51
509.38	29537.56
509.55	29689.70
509.73	29495.43
509.90	29916.73
510.08	29783.32
510.25	29933.11
510.42	29879.28
510.60	30312.28
510.77	29986.94
510.95	30740.60
511.12	29701.40
511.30	30480.80
511.47	30574.42
511.64	30260.79
511.82	30969.97
511.99	30513.56
512.17	30766.34
512.34	30855.28
512.51	30815.49
512.69	31271.90
512.86	31005.08
513.04	31234.45
513.21	31400.63
513.38	31016.78
513.56	31262.54
513.73	31360.84
513.90	31501.27
514.08	31711.92
514.25	31721.28
514.43	31786.82
514.60	31894.48
514.77	31915.54
514.95	31821.92
515.12	32128.53
515.29	32294.71
515.47	32341.52
515.64	32346.20
515.81	31831.29
515.99	32018.53
516.16	32631.75
516.33	32327.48
516.51	32788.56
516.68	32669.20
516.85	32666.86
517.03	32978.15
517.20	33064.75
517.37	32809.63
517.54	33612.43
517.72	33359.66
517.89	33146.67
518.06	33256.67
518.24	33481.36
518.41	33394.76
518.58	33610.09
518.75	33528.17
518.93	33380.72
519.10	33851.17
519.27	33855.85
519.45	34019.69
519.62	33890.96
519.79	33900.32
519.96	33998.62
520.14	34061.82
520.31	34045.43
520.48	34443.32
520.65	34761.64
520.83	34789.72
521.00	34677.38
521.17	34143.74
521.34	35002.71
521.52	34829.51
521.69	35016.75
521.86	35276.55
522.03	34859.94
522.20	35276.55
522.38	35342.09
522.55	35143.14
522.72	35463.80
522.89	35299.96
523.07	35810.20
523.24	35580.82
523.41	35952.97
523.58	35480.18
523.75	36051.27
523.92	35632.32
524.10	35878.07
524.27	35934.24
524.44	36360.22
524.61	36362.56
524.78	36400.01
524.96	36318.09
525.13	36584.91
525.30	36332.14
525.47	36240.86
525.64	36755.77
525.81	36694.92
525.98	36802.58
526.16	36343.84
526.33	36692.58
526.50	37156.00
526.67	36975.78
526.84	36580.23
527.01	36910.25
527.18	36835.35
527.36	37581.98
527.53	37193.45
527.70	37635.81
527.87	37387.72
528.04	37113.87
528.21	37581.98
528.38	37408.78
528.55	37479.00
528.72	37720.07
528.89	37708.37
529.07	37628.79
529.24	37600.71
529.41	38085.20
529.58	37699.01
529.75	37710.71
529.92	37773.91
530.09	37619.43
530.26	38178.82
530.43	38211.59
530.60	37879.23
530.77	37830.08
530.94	38253.72
531.11	37839.44
531.28	38595.43
531.46	38527.56
531.63	38569.69
531.80	38604.80
531.97	38962.90
532.14	38342.66
532.31	38363.72
532.48	39007.37
532.65	39054.18
532.82	38937.15
532.99	39407.60
533.16	38485.43
533.33	39468.45
533.50	39082.27
533.67	39126.74
533.84	38904.38
534.01	38939.49
534.18	39159.50
534.35	39515.26
534.52	39608.89
534.69	39587.82
534.86	39992.73
535.03	39725.91
535.20	39615.91
535.37	39615.91
535.54	39735.27
535.71	39941.24
535.88	39758.68
536.05	39721.23
536.22	40465.52
536.38	39878.05
536.55	39690.80
536.72	39922.52
536.89	39782.09
537.06	39744.64
537.23	40940.65
537.40	39927.20
537.57	39873.37
537.74	40304.02
537.91	40161.25
538.08	40648.08
538.25	40161.25
538.42	40437.44
538.59	40825.96
538.75	40517.01
538.92	41446.21
539.09	40987.46
539.26	41184.07
539.43	40748.73
539.60	41010.87
539.77	40889.16
539.94	41378.33
540.11	41172.36
540.28	40591.91
540.44	40921.93
540.61	40809.58
540.78	40786.18
540.95	41368.97
541.12	40755.75
541.29	41062.36
541.46	41446.21
541.62	41408.76
541.79	41944.74
541.96	40849.37
542.13	41193.43
542.30	41642.81
542.47	41504.72
542.63	41827.71
542.80	41996.23
542.97	42169.43
543.14	42391.78
543.31	42192.84
543.48	42036.02
543.64	42623.50
543.81	42586.05
543.98	42342.63
544.15	42478.38
544.32	42424.55
544.48	42918.40
544.65	42305.18
544.82	42682.01
544.99	42351.99
545.16	42469.02
545.32	42246.67
545.49	43115.01
545.66	43529.28
545.83	43044.79
546.00	42946.49
546.16	43051.81
546.33	42962.87
546.50	43203.95
546.67	43695.46
546.83	42539.24
547.00	43058.84
547.17	42749.88
547.34	42782.65
547.50	43466.09
547.67	43660.35
547.84	43466.09
548.00	43456.73
548.17	43777.38
548.34	43758.66
548.51	43840.57
548.67	44074.63
548.84	43695.46
549.01	43948.24
549.18	43655.67
549.34	43796.10
549.51	43922.49
549.68	43515.24
549.84	43770.36
550.01	44336.77
550.18	43318.64
550.34	44048.88
550.51	43676.74
550.68	44442.09
550.84	43613.54
551.01	44273.57
551.18	43786.74
551.34	43852.28
551.51	43931.86
551.68	44116.76
551.84	44177.61
552.01	44423.37
552.18	44498.26
552.34	44318.04
552.51	44498.26
552.68	44095.69
552.84	44573.16
553.01	44467.84
553.18	44177.61
553.34	44680.83
553.51	44411.67
553.67	44428.05
553.84	44828.28
554.01	44954.67
554.17	44573.16
554.34	44734.66
554.51	44851.69
554.67	45394.69
554.84	45200.43
555.00	45029.57
555.17	44767.43
555.33	45170.00
555.50	45448.52
555.67	44790.83
555.83	44905.52
556.00	45240.21
556.16	45565.55
556.33	45312.77
556.50	45340.86
556.66	44961.69
556.83	45006.16
556.99	45422.78
557.16	45460.23
557.32	45471.93
557.49	45195.74
557.65	45333.84
557.82	45064.67
557.98	45268.30
558.15	45537.46
558.32	45441.50
558.48	45457.88
558.65	45521.08
558.81	45818.33
558.98	45860.46
559.14	45572.57
559.31	45567.89
559.47	45827.69
559.64	45422.78
559.80	45888.54
559.97	45689.60
560.13	45429.80
560.30	45769.18
560.46	45790.24
560.63	46211.54
560.79	46316.86
560.96	46532.19
561.12	46211.54
561.29	46171.75
561.45	46300.48
561.61	46305.16
561.78	45970.46
561.94	46108.55
562.11	46031.32
562.27	46555.60
562.44	46323.88
562.60	46314.52
562.77	46677.30
562.93	45556.19
563.10	46597.73
563.26	46178.77
563.42	46263.03
563.59	46260.69
563.75	46300.48
563.92	46476.02
564.08	46387.08
564.24	46471.34
564.41	46389.42
564.57	46300.48
564.74	46679.64
564.90	46366.01
565.07	46312.18
565.23	46279.41
565.39	46457.29
565.56	46567.30
565.72	46670.28
565.88	46644.54
566.05	46686.67
566.21	46705.39
566.38	46305.16
566.54	46557.94
566.70	46656.24
566.87	46955.83
567.03	46265.37
567.19	46923.06
567.36	46459.63
567.52	46543.89
567.68	47358.40
567.85	46862.21
568.01	46541.55
568.17	46576.66
568.34	47009.66
568.50	46909.02
568.66	46911.36
568.83	46579.00
568.99	47056.47
569.15	47213.29
569.32	46990.94
569.48	46787.31
569.64	47349.04
569.81	46721.77
569.97	47112.64
570.13	47014.34
570.30	46731.14
570.46	46887.95
570.62	46796.67
570.78	46960.51
570.95	47276.48
571.11	47423.93
571.27	47110.30
571.43	47234.35
571.60	46801.35
571.76	47063.49
571.92	47217.97
572.09	47042.43
572.25	46681.98
572.41	47159.45
572.57	47040.09
572.74	47339.68
572.90	47281.16
573.06	47276.48
573.22	47203.92
573.38	47082.22
573.55	47026.04
573.71	47899.06
573.87	47402.87
574.03	47159.45
574.20	47629.90
574.36	47435.64
574.52	47620.54
574.68	47222.65
574.84	47531.60
575.01	47498.83
575.17	47295.21
575.33	47241.37
575.49	47236.69
575.65	47737.57
575.82	47707.14
575.98	47334.99
576.14	47653.31
576.30	47742.25
576.46	47414.57
576.62	47749.27
576.79	47374.78
576.95	46787.31
577.11	46976.89
577.27	47154.77
577.43	47409.89
577.59	47625.22
577.75	47636.92
577.92	47524.58
578.08	47613.52
578.24	47281.16
578.40	47599.47
578.56	47452.02
578.72	47597.13
578.88	47330.31
579.04	47494.15
579.21	47484.79
579.37	47543.30
579.53	48133.12
579.69	47000.30
579.85	47398.19
580.01	47428.62
580.17	47744.59
580.33	47765.65
580.49	47732.89
580.65	47721.18
580.82	47437.98
580.98	47295.21
581.14	47192.22
581.30	47576.07
581.46	47552.66
581.62	47363.08
581.78	47423.93
581.94	47854.59
582.10	47201.58
582.26	47840.55
582.42	47260.10
582.58	47386.49
582.74	47821.83
582.90	47859.27
583.06	48090.99
583.22	47646.29
583.38	47531.60
583.54	47927.15
583.70	47725.86
583.86	47901.40
584.02	47093.92
584.18	48060.56
584.34	47957.58
584.50	47889.70
584.66	47913.11
584.82	47693.10
584.98	48051.20
585.14	48193.97
585.30	47707.14
585.46	47882.68
585.62	47854.59
585.78	47751.61
585.94	47412.23
586.10	47697.78
586.26	47896.72
586.42	47702.46
586.58	47414.57
586.74	47772.67
586.90	47437.98
587.06	47917.79
587.22	47922.47
587.38	47721.18
587.54	47812.46
587.70	48184.61
587.86	48093.33
588.02	48051.20
588.18	47587.77
588.34	47924.81
588.49	47669.69
588.65	47756.29
588.81	47899.06
588.97	48062.90
589.13	47775.02
589.29	47704.80
589.45	48051.20
589.61	48189.29
589.77	48292.27
589.93	48098.01
