SpectraSuite Data File
++++++++++++++++++++++++++++++++++++
Date: Fri Oct 25 11:22:35 EDT 2013
User: price-jones
Dark Spectrum Present: No
Reference Spectrum Present: No
Number of Sampled Component Spectra: 1
Spectrometers: USB2+H05261
Integration Time (usec): 100000 (USB2+H05261)
Spectra Averaged: 1 (USB2+H05261)
Boxcar Smoothing: 0 (USB2+H05261)
Correct for Electrical Dark: No (USB2+H05261)
Strobe/Lamp Enabled: No (USB2+H05261)
Correct for Detector Non-linearity: No (USB2+H05261)
Correct for Stray Light: No (USB2+H05261)
Number of Pixels in Processed Spectrum: 2048
>>>>>Begin Processed Spectral Data<<<<<
365.73	238.73
365.92	238.73
366.12	238.73
366.32	56.17
366.52	128.73
366.72	91.28
366.91	72.56
367.11	128.73
367.31	156.82
367.51	105.32
367.70	138.09
367.90	112.35
368.10	133.41
368.30	133.41
368.49	91.28
368.69	182.56
368.89	170.86
369.09	180.22
369.28	161.50
369.48	117.03
369.68	133.41
369.87	191.92
370.07	229.37
370.27	229.37
370.47	367.46
370.66	599.18
370.86	620.24
371.06	561.73
371.25	676.41
371.45	620.24
371.65	599.18
371.84	711.52
372.04	685.78
372.24	685.78
372.44	692.80
372.63	716.20
372.83	772.38
373.03	751.31
373.22	795.78
373.42	861.32
373.62	753.65
373.81	830.89
374.01	791.10
374.21	795.78
374.40	856.64
374.60	828.55
374.79	741.95
374.99	842.59
375.19	793.44
375.38	833.23
375.58	795.78
375.78	877.70
375.97	835.57
376.17	856.64
376.37	781.74
376.56	798.12
376.76	809.83
376.95	849.61
377.15	889.40
377.35	849.61
377.54	870.68
377.74	877.70
377.93	863.66
378.13	898.77
378.33	917.49
378.52	959.62
378.72	891.74
378.91	922.17
379.11	1001.75
379.31	887.06
379.50	887.06
379.70	978.34
379.89	950.26
380.09	901.11
380.28	947.92
380.48	933.87
380.68	966.64
380.87	1027.50
381.07	1069.62
381.26	922.17
381.46	1006.43
381.65	1053.24
381.85	1022.81
382.04	999.41
382.24	1048.56
382.43	1050.90
382.63	1078.99
382.83	1100.05
383.02	1109.41
383.22	1064.94
383.41	1074.31
383.61	1041.54
383.80	1198.35
384.00	1097.71
384.19	1046.22
384.39	1093.03
384.58	1179.63
384.78	1137.50
384.97	1128.14
385.17	1128.14
385.36	1172.61
385.56	1142.18
385.75	1107.07
385.95	1160.91
386.14	1167.93
386.34	1193.67
386.53	1210.06
386.72	1174.95
386.92	1247.51
387.11	1235.80
387.31	1273.25
387.50	1153.88
387.70	1308.36
387.89	1254.53
388.09	1296.66
388.28	1219.42
388.48	1242.82
388.67	1299.00
388.86	1231.12
389.06	1266.23
389.25	1373.89
389.45	1366.87
389.64	1380.92
389.84	1338.79
390.03	1299.00
390.22	1376.24
390.42	1385.60
390.61	1366.87
390.81	1476.88
391.00	1430.07
391.19	1404.32
391.39	1378.58
391.58	1446.45
391.78	1460.49
391.97	1490.92
392.16	1476.88
392.36	1563.48
392.55	1551.78
392.75	1533.05
392.94	1493.26
393.13	1465.18
393.33	1481.56
393.52	1516.67
393.71	1437.09
393.91	1577.52
394.10	1575.18
394.29	1526.03
394.49	1631.35
394.68	1678.16
394.88	1614.97
395.07	1710.93
395.26	1722.63
395.46	1659.44
395.65	1750.72
395.84	1678.16
396.04	1785.83
396.23	1654.76
396.42	1769.44
396.62	1820.94
396.81	1781.15
397.00	1769.44
397.19	1900.52
397.39	1811.57
397.58	1834.98
397.77	1743.70
397.97	1820.94
398.16	1949.67
398.35	1769.44
398.55	1933.28
398.74	1937.96
398.93	2033.93
399.12	1949.67
399.32	1930.94
399.51	2001.16
399.70	2005.84
399.90	1935.62
400.09	2012.86
400.28	2003.50
400.47	2040.95
400.67	2150.95
400.86	2104.14
401.05	2029.24
401.24	2001.16
401.44	2099.46
401.63	2167.34
401.82	2062.01
402.01	2167.34
402.21	2207.13
402.40	2176.70
402.59	2242.23
402.78	2258.62
402.97	2195.42
403.17	2293.72
403.36	2172.02
403.55	2349.90
403.74	2307.77
403.93	2286.70
404.13	2429.48
404.32	2326.49
404.51	2445.86
404.70	2359.26
404.89	2492.67
405.09	2509.05
405.28	2490.33
405.47	2431.82
405.66	2427.14
405.85	2506.71
406.05	2513.74
406.24	2654.17
406.43	2581.61
406.62	2551.18
406.81	2654.17
407.00	2616.72
407.20	2619.06
407.39	2612.04
407.58	2750.13
407.77	2794.60
407.96	2778.22
408.15	2792.26
408.34	2731.41
408.54	2733.75
408.73	2719.70
408.92	2682.25
409.11	2768.85
409.30	2808.64
409.49	2963.12
409.68	3045.04
409.87	2878.86
410.07	2946.73
410.26	2977.16
410.45	2965.46
410.64	3063.76
410.83	3117.59
411.02	3101.21
411.21	3234.62
411.40	3222.92
411.59	3232.28
411.78	3232.28
411.98	3110.57
412.17	3206.53
412.36	3262.71
412.55	3349.31
412.74	3431.23
412.93	3421.86
413.12	3300.16
413.31	3667.62
413.50	3456.97
413.69	3550.59
413.88	3517.83
414.07	3468.67
414.26	3555.27
414.45	3684.00
414.64	3660.60
414.83	3733.15
415.02	3777.62
415.22	3866.56
415.41	3744.86
415.60	3716.77
415.79	3918.06
415.98	3836.14
416.17	3981.25
416.36	3836.14
416.55	3810.39
416.74	4131.05
416.93	4145.09
417.12	4138.07
417.31	4053.81
417.50	4135.73
417.69	4416.59
417.88	4212.96
418.07	4252.75
418.26	4379.14
418.45	4285.52
418.64	4351.06
418.83	4454.04
419.02	4421.27
419.21	4510.21
419.39	4713.84
419.58	4454.04
419.77	4512.55
419.96	4617.88
420.15	4601.49
420.34	4594.47
420.53	4723.20
420.72	4784.06
420.91	4657.67
421.10	4830.87
421.29	4734.90
421.48	4552.34
421.67	4774.69
421.86	4880.02
422.05	4786.40
422.24	4975.98
422.43	4978.32
422.61	4791.08
422.80	4985.34
422.99	4947.89
423.18	4973.64
423.37	5076.62
423.56	5081.30
423.75	4884.70
423.94	4851.93
424.13	4608.51
424.32	4795.76
424.50	4973.64
424.69	5181.95
424.88	5060.24
425.07	4957.25
425.26	4882.36
425.45	5118.75
425.64	5128.11
425.83	4997.04
426.01	5062.58
426.20	5111.73
426.39	5135.14
426.58	5107.05
426.77	5195.99
426.96	5128.11
427.15	5060.24
427.33	5205.35
427.52	5233.44
427.71	5191.31
427.90	5172.58
428.09	5294.29
428.28	5303.65
428.46	5315.36
428.65	5413.66
428.84	5617.29
429.03	5514.30
429.22	5334.08
429.40	5488.56
429.59	5493.24
429.78	5172.58
429.97	5469.83
430.16	5418.34
430.34	5600.90
430.53	5636.01
430.72	5792.83
430.91	5607.92
431.10	5636.01
431.28	5877.09
431.47	5701.54
431.66	5811.55
431.85	5809.21
432.03	5837.30
432.22	6019.86
432.41	5951.98
432.60	5940.28
432.79	6026.88
432.97	5951.98
433.16	5867.72
433.35	5947.30
433.54	6211.78
433.72	6193.06
433.91	6157.95
434.10	6160.29
434.28	6136.88
434.47	6253.91
434.66	6356.90
434.85	6286.68
435.03	6216.46
435.22	6340.51
435.41	6588.61
435.59	6422.43
435.78	6520.73
435.97	6604.99
436.16	6349.87
436.34	6431.79
436.53	6560.52
436.72	6609.67
436.90	6452.86
437.09	6663.51
437.28	6502.01
437.46	6715.00
437.65	6745.42
437.84	6876.49
438.02	6754.79
438.21	6904.58
438.40	6729.04
438.58	7049.69
438.77	6993.52
438.96	6832.02
439.14	7126.93
439.33	7243.96
439.52	7335.24
439.70	7356.30
439.89	7655.89
440.08	7290.77
440.26	7543.55
440.45	7283.75
440.63	7428.86
440.82	7740.15
441.01	7541.21
441.19	7751.85
441.38	7836.11
441.57	7871.22
441.75	7765.90
441.94	7889.95
442.12	8173.15
442.31	8276.13
442.50	7911.01
442.68	8067.83
442.87	8028.04
443.05	8093.57
443.24	8271.45
443.43	8292.52
443.61	8276.13
443.80	8486.78
443.98	8208.26
444.17	8084.21
444.35	8250.39
444.54	8369.76
444.73	8414.23
444.91	8301.88
445.10	8451.67
445.28	8416.57
445.47	8388.48
445.65	8182.51
445.84	8449.33
446.02	8393.16
446.21	8645.94
446.39	8376.78
446.58	8475.08
446.77	8503.17
446.95	8304.22
447.14	8496.14
447.32	8659.98
447.51	8486.78
447.69	8416.57
447.88	8573.38
448.06	8610.83
448.25	8650.62
448.43	8702.11
448.62	8730.20
448.80	8702.11
448.99	8734.88
449.17	8683.39
449.36	8624.87
449.54	8830.84
449.73	9142.13
449.91	9261.50
450.10	9029.79
450.28	9139.79
450.46	9249.80
450.65	8975.95
450.83	9305.97
451.02	9219.37
451.20	9231.07
451.39	9380.87
451.57	9362.14
451.76	9071.92
451.94	9343.42
452.13	9495.55
452.31	9387.89
452.49	9217.03
452.68	9397.25
452.86	9266.18
453.05	9446.40
453.23	9643.01
453.42	9324.69
453.60	9359.80
453.78	9600.88
453.97	9518.96
454.15	9568.11
454.34	9448.74
454.52	9809.19
454.70	9748.33
454.89	10005.79
455.07	9820.89
455.26	9933.23
455.44	10073.67
455.62	9895.78
455.81	9914.51
455.99	9991.75
456.17	9865.36
456.36	10361.55
456.54	10115.80
456.73	10356.87
456.91	10597.95
457.09	10410.70
457.28	10785.19
457.46	10249.21
457.64	10537.09
457.83	10527.73
458.01	10501.98
458.19	10794.55
458.38	10824.98
458.56	10633.05
458.74	10686.89
458.93	10527.73
459.11	10703.27
459.29	10782.85
459.48	11075.42
459.66	10981.79
459.84	10799.23
460.03	11014.56
460.21	11220.53
460.39	10956.05
460.57	11332.87
460.76	11133.93
460.94	11255.64
461.12	11363.30
461.31	11279.04
461.49	11257.98
461.67	11412.45
461.85	11424.15
462.04	11468.62
462.22	12044.40
462.40	11857.15
462.59	11632.46
462.77	11454.58
462.95	12100.57
463.13	11592.67
463.32	11826.73
463.50	12006.95
463.68	12023.33
463.86	11889.92
464.05	11833.75
464.23	11910.99
464.41	11964.82
464.59	11648.85
464.78	12156.74
464.96	12271.43
465.14	12037.38
465.32	12060.78
465.50	12425.90
465.69	12145.04
465.87	12131.00
466.05	12194.19
466.23	12255.04
466.41	12313.56
466.60	12664.64
466.78	12149.72
466.96	12079.50
467.14	12360.37
467.32	12535.91
467.51	12533.57
467.69	12379.09
467.87	12645.91
468.05	12699.75
468.23	12468.03
468.41	12571.02
468.60	12631.87
468.78	13004.02
468.96	12554.63
469.14	12858.90
469.32	13165.51
469.50	12624.85
469.69	13198.28
469.87	13259.13
470.05	13294.24
470.23	13362.12
470.41	13296.58
470.59	13514.25
470.77	13135.09
470.95	13242.75
471.14	13682.77
471.32	13200.62
471.50	13752.99
471.68	13783.41
471.86	13827.88
472.04	13877.04
472.22	13862.99
472.40	14087.68
472.58	14010.45
472.77	14305.35
472.95	14251.52
473.13	14771.12
473.31	14073.64
473.49	14338.12
473.67	14078.32
473.85	14693.88
474.03	14593.24
474.21	14782.82
474.39	14881.13
474.57	14850.70
474.75	14946.66
474.93	15005.17
475.12	15236.89
475.30	15552.86
475.48	15169.01
475.66	15311.78
475.84	15403.07
476.02	15531.80
476.20	15391.36
476.38	15756.49
476.56	16175.44
476.74	16009.26
476.92	15859.47
477.10	15829.04
477.28	16428.22
477.46	16248.00
477.64	16582.70
477.82	16524.18
478.00	17242.73
478.18	17069.53
478.36	16896.33
478.54	17322.30
478.72	17235.70
478.90	17605.51
479.08	17605.51
479.26	17947.23
479.44	17879.35
479.62	17937.87
479.80	18031.49
479.98	18155.54
480.16	18537.04
480.34	18328.74
480.52	18752.37
480.70	18925.57
480.88	18544.06
481.06	19140.90
481.24	18946.64
481.41	19337.51
481.59	19552.84
481.77	19707.31
481.95	19831.36
482.13	20067.75
482.31	19957.75
482.49	20475.01
482.67	20095.84
482.85	20755.87
483.03	20755.87
483.21	21085.89
483.39	20964.18
483.57	21104.61
483.74	21577.40
483.92	21916.78
484.10	21214.62
484.28	22047.85
484.46	22169.55
484.64	22431.69
484.82	22246.79
485.00	22705.54
485.18	23243.86
485.35	23136.20
485.53	23283.65
485.71	23513.02
485.89	23693.24
486.07	23180.67
486.25	23641.75
486.43	23740.05
486.61	24231.57
486.78	24357.96
486.96	24638.82
487.14	24863.51
487.32	24943.09
487.50	25170.12
487.68	24947.77
487.85	25345.66
488.03	25944.84
488.21	26197.62
488.39	26181.23
488.57	26232.72
488.75	26515.93
488.92	26609.55
489.10	27009.78
489.28	27185.32
489.46	27370.22
489.64	27339.80
489.81	27995.15
489.99	27971.74
490.17	28088.77
490.35	28409.42
490.53	28657.52
490.70	28524.11
490.88	28650.50
491.06	29565.65
491.24	28720.71
491.41	29350.32
491.59	30010.35
491.77	29572.67
491.95	30122.69
492.13	30132.06
492.30	30263.13
492.48	30321.64
492.66	30731.23
492.84	30850.60
493.01	30541.65
493.19	30946.56
493.37	31264.88
493.54	31620.64
493.72	31838.31
493.90	32020.87
494.08	31992.78
494.25	32107.47
494.43	32194.07
494.61	32840.06
494.79	33120.92
494.96	32795.59
495.14	32971.13
495.32	33254.33
495.49	33357.32
495.67	33284.76
495.85	33722.44
496.02	33919.04
496.20	34157.78
496.38	34326.30
496.55	34066.50
496.73	35157.19
496.91	34962.92
497.09	35292.94
497.26	35075.27
497.44	35131.44
497.62	35571.46
497.79	36217.45
497.97	35639.34
498.14	36109.78
498.32	36067.66
498.50	36383.63
498.67	37249.63
498.85	36954.72
499.03	37249.63
499.20	37167.71
499.38	37223.88
499.56	37247.29
499.73	37652.20
499.91	37500.06
500.08	38092.22
500.26	37706.03
500.44	37607.73
500.61	38094.56
500.79	38099.24
500.97	38522.88
501.14	38986.30
501.32	38745.23
501.49	38878.64
501.67	39262.49
501.84	39407.60
502.02	39634.63
502.20	39688.46
502.37	39831.24
502.55	39220.36
502.72	39838.26
502.90	40264.24
503.07	39901.45
503.25	39772.72
503.43	40432.75
503.60	40554.46
503.78	40641.06
503.95	40664.47
504.13	41158.32
504.30	40957.03
504.48	40940.65
504.65	41153.64
504.83	41420.46
505.01	41600.68
505.18	41663.88
505.36	41895.59
505.53	41478.97
505.71	42017.30
505.88	42506.47
506.06	42162.41
506.23	41951.76
506.41	41825.37
506.58	42525.19
506.76	42419.87
506.93	43105.65
507.11	42761.59
507.28	43012.02
507.46	43330.34
507.63	43349.06
507.81	43271.82
507.98	43342.04
508.16	43496.52
508.33	43316.29
508.50	43718.87
508.68	43821.85
508.85	44631.68
509.03	43978.67
509.20	44058.24
509.38	44561.46
509.55	44825.94
509.73	45282.34
509.90	45443.84
510.08	45132.55
510.25	44748.70
510.42	45151.27
510.60	45298.73
510.77	45277.66
510.95	46003.23
511.12	45439.16
511.30	45272.98
511.47	46204.52
511.64	45944.72
511.82	46312.18
511.99	45769.18
512.17	46501.76
512.34	46263.03
512.51	46670.28
512.69	46366.01
512.86	46639.86
513.04	46948.81
513.21	47175.84
513.38	47037.75
513.56	47107.96
513.73	47435.64
513.90	47318.61
514.08	47428.62
514.25	47318.61
514.43	47650.97
514.60	47999.71
514.77	47512.88
514.95	48034.81
515.12	48161.20
515.29	47522.24
515.47	48224.40
515.64	48692.50
515.81	48313.34
515.99	48938.26
516.16	48701.87
516.33	48910.17
516.51	49071.67
516.68	48903.15
516.85	48861.02
517.03	49165.29
517.20	49308.07
517.37	49371.26
517.54	49127.84
517.72	49504.67
517.89	49427.43
518.06	49354.88
518.24	49736.38
518.41	49921.29
518.58	49661.49
518.75	49001.46
518.93	50028.95
519.10	49724.68
519.27	50134.28
519.45	50038.31
519.62	49808.94
519.79	50433.86
519.96	50508.76
520.14	50653.87
520.31	50569.61
520.48	50789.62
520.65	50787.28
520.83	51196.88
521.00	50946.44
521.17	50635.15
521.34	50944.10
521.52	51416.89
521.69	51435.61
521.86	51639.24
522.03	51339.65
522.20	51564.34
522.38	51894.36
522.55	51835.84
522.72	51386.46
522.89	51800.74
523.07	52149.48
523.24	51803.08
523.41	52360.12
523.58	51746.90
523.75	52121.39
523.92	52355.44
524.10	52357.78
524.27	52584.82
524.44	52327.36
524.61	52123.73
524.78	52428.00
524.96	52655.03
525.13	52734.61
525.30	52814.19
525.47	52818.87
525.64	52746.31
525.81	52973.34
525.98	52762.70
526.16	52945.26
526.33	52825.89
526.50	53340.81
526.67	53279.96
526.84	53031.86
527.01	53130.16
527.18	53312.72
527.36	53092.71
527.53	53441.45
527.70	53738.70
527.87	53832.32
528.04	53560.82
528.21	53757.42
528.38	53668.48
528.55	53586.57
528.72	53710.61
528.89	53532.73
529.07	53647.42
529.24	53396.98
529.41	53764.45
529.58	54059.35
529.75	53680.19
529.92	54033.61
530.09	54115.53
530.26	54169.36
530.43	54213.83
530.60	54155.32
530.77	54234.89
530.94	54475.97
531.11	54183.40
531.28	54485.33
531.46	54628.10
531.63	54440.86
531.80	54798.96
531.97	54569.59
532.14	54948.76
532.31	54770.88
532.48	54665.55
532.65	54981.52
532.82	54777.90
532.99	54885.56
533.16	54948.76
533.33	55009.61
533.50	55290.48
533.67	55030.68
533.84	55023.65
534.01	55238.98
534.18	55040.04
534.35	56020.72
534.52	55423.89
534.69	55618.15
534.86	55437.93
535.03	55402.82
535.20	55526.87
535.37	55664.96
535.54	55686.03
535.71	55657.94
535.88	56109.66
536.05	56044.13
536.22	55784.33
536.38	55985.61
536.55	55870.93
536.72	55999.66
536.89	55807.73
537.06	55767.94
537.23	56055.83
537.40	56030.08
537.57	55807.73
537.74	56226.69
537.91	56200.94
538.08	55952.85
538.25	56179.88
538.42	56039.45
538.59	56530.96
538.75	56198.60
538.92	56350.74
539.09	56439.68
539.26	56381.16
539.43	56399.89
539.60	56367.12
539.77	56339.04
539.94	56542.66
540.11	56853.95
540.28	56664.37
540.44	56769.69
540.61	56673.73
540.78	56683.09
540.95	56612.88
541.12	56519.26
541.29	56732.25
541.46	56851.61
541.62	56779.06
541.79	57125.46
541.96	56439.68
542.13	56725.22
542.30	57036.51
542.47	57097.37
542.63	57160.56
542.80	57242.48
542.97	57165.24
543.14	57415.68
543.31	57319.72
543.48	57432.07
543.64	57654.42
543.81	57481.22
543.98	57591.22
544.15	57663.78
544.32	57780.81
544.48	57715.27
544.65	57645.05
544.82	57584.20
544.99	57609.95
545.16	57776.12
545.32	57724.63
545.49	58078.05
545.66	58127.20
545.83	57806.55
546.00	58033.58
546.16	57869.75
546.33	57776.12
546.50	57783.15
546.67	57836.98
546.83	57752.72
547.00	58075.71
547.17	58040.60
547.34	58335.51
547.50	58197.42
547.67	58382.32
547.84	58412.75
548.00	58356.58
548.17	58489.99
548.34	58466.58
548.51	58452.54
548.67	58307.43
548.84	58216.14
549.01	58298.06
549.18	58394.03
549.34	58298.06
549.51	58614.04
549.68	58595.31
549.84	58515.73
550.01	58618.72
550.18	58735.74
550.34	58801.28
550.51	58866.81
550.68	58768.51
550.84	58511.05
551.01	58674.89
551.18	58740.42
551.34	58604.67
551.51	58667.87
551.68	59173.42
551.84	58838.73
552.01	58710.00
552.18	58913.62
552.34	58775.53
552.51	59173.42
552.68	58845.75
552.84	58733.40
553.01	59086.82
553.18	59164.06
553.34	59187.47
553.51	58951.07
553.67	58951.07
553.84	59255.34
554.01	59339.60
554.17	59271.73
554.34	59316.20
554.51	59114.91
554.67	59444.93
554.84	59199.17
555.00	59250.66
555.17	59072.78
555.33	59199.17
555.50	59302.15
555.67	59461.31
555.83	59313.86
556.00	59435.56
556.16	59742.17
556.33	59646.21
556.50	59428.54
556.66	59491.74
556.83	59498.76
556.99	59636.85
557.16	59690.68
557.32	59669.62
557.49	59781.96
557.65	59578.34
557.82	59571.32
557.98	59697.70
558.15	59571.32
558.32	59866.22
558.48	59524.50
558.65	59723.45
558.81	59686.00
558.98	60030.06
559.14	59927.08
559.31	59828.77
559.47	59994.95
559.64	60168.15
559.80	59966.87
559.97	60069.85
560.13	59894.31
560.30	59985.59
560.46	59922.40
560.63	59973.89
560.79	59922.40
560.96	60088.57
561.12	60198.58
561.29	60137.72
561.45	60121.34
561.61	60016.02
561.78	60252.41
561.94	60142.41
562.11	60030.06
562.27	60186.88
562.44	60179.85
562.60	60280.50
562.77	60109.64
562.93	59906.01
563.10	60205.60
563.26	60053.47
563.42	60404.55
563.59	60039.42
563.75	60135.38
563.92	60416.25
564.08	60306.24
564.24	60392.84
564.41	60224.32
564.57	60479.44
564.74	60474.76
564.90	60427.95
565.07	60308.58
565.23	60308.58
565.39	60266.45
565.56	60292.20
565.72	60357.74
565.88	60397.52
566.05	60266.45
566.21	60437.31
566.38	60460.72
566.54	60544.98
566.70	60582.43
566.87	60725.20
567.03	60341.35
567.19	60683.07
567.36	60816.48
567.52	60521.57
567.68	60692.43
567.85	60601.15
568.01	60453.70
568.17	60706.47
568.34	60690.09
568.50	60516.89
568.66	60360.08
568.83	60493.49
568.99	60638.60
569.15	60760.31
569.32	60769.67
569.48	60552.00
569.64	60863.29
569.81	60683.07
569.97	60802.44
570.13	60624.56
570.30	60519.23
570.46	60650.30
570.62	60535.62
570.78	60704.13
570.95	60772.01
571.11	60725.20
571.27	60535.62
571.43	60823.50
571.60	60814.14
571.76	61015.43
571.92	60767.33
572.09	60835.20
572.25	60713.50
572.41	60715.84
572.57	60624.56
572.74	60910.10
572.90	60846.91
573.06	60982.66
573.22	60914.78
573.38	60879.67
573.55	60970.96
573.71	60973.30
573.87	60961.59
574.03	60783.71
574.20	60966.27
574.36	60912.44
574.52	60905.42
574.68	60666.69
574.84	60992.02
575.01	60980.32
575.17	60860.95
575.33	61137.13
575.49	60832.86
575.65	61153.52
575.82	61109.05
575.98	60877.33
576.14	61312.67
576.30	60961.59
576.46	60982.66
576.62	60977.98
576.79	61092.66
576.95	60870.31
577.11	61024.79
577.27	60809.46
577.43	60973.30
577.59	60837.54
577.75	61123.09
577.92	60867.97
578.08	61020.11
578.24	61057.56
578.40	61113.73
578.56	61172.24
578.72	61132.45
578.88	61237.78
579.04	61226.07
579.21	61153.52
579.37	61006.06
579.53	61134.79
579.69	61043.51
579.85	61197.99
580.01	61087.98
580.17	61062.24
580.33	61087.98
580.49	61139.47
580.65	61216.71
580.82	61141.81
580.98	61059.90
581.14	61258.84
581.30	61195.65
581.46	61160.54
581.62	61008.40
581.78	61076.28
581.94	61226.07
582.10	61036.49
582.26	61120.75
582.42	61066.92
582.58	61050.53
582.74	61307.99
582.90	61146.50
583.06	61118.41
583.22	61064.58
583.38	61216.71
583.54	61212.03
583.70	61043.51
583.86	61249.48
584.02	61158.20
584.18	61324.38
584.34	61315.01
584.50	61333.74
584.66	61237.78
584.82	60994.36
584.98	61373.53
585.14	61237.78
585.30	60903.08
585.46	61174.58
585.62	61359.48
585.78	61375.87
585.94	61050.53
586.10	61240.12
586.26	61277.57
586.42	61530.34
586.58	61303.31
586.74	61336.08
586.90	61127.77
587.06	61329.06
587.22	61230.75
587.38	61249.48
587.54	61633.33
587.70	61300.97
587.86	61261.18
588.02	61413.32
588.18	61399.27
588.34	61366.51
588.49	61373.53
