SpectraSuite Data File
++++++++++++++++++++++++++++++++++++
Date: Fri Oct 25 10:44:47 EDT 2013
User: price-jones
Dark Spectrum Present: No
Reference Spectrum Present: No
Number of Sampled Component Spectra: 1
Spectrometers: USB2+H05261
Integration Time (usec): 100000 (USB2+H05261)
Spectra Averaged: 1 (USB2+H05261)
Boxcar Smoothing: 0 (USB2+H05261)
Correct for Electrical Dark: No (USB2+H05261)
Strobe/Lamp Enabled: No (USB2+H05261)
Correct for Detector Non-linearity: No (USB2+H05261)
Correct for Stray Light: No (USB2+H05261)
Number of Pixels in Processed Spectrum: 2048
>>>>>Begin Processed Spectral Data<<<<<
365.73	88.94
365.92	88.94
366.12	88.94
366.32	60.85
366.52	84.26
366.72	63.19
366.91	30.43
367.11	0.00
367.31	32.77
367.51	32.77
367.70	0.00
367.90	0.00
368.10	46.81
368.30	49.15
368.49	0.00
368.69	28.09
368.89	0.00
369.09	46.81
369.28	46.81
369.48	84.26
369.68	49.15
369.87	51.49
370.07	124.05
370.27	175.54
370.47	273.84
370.66	369.80
370.86	402.57
371.06	447.04
371.25	449.38
371.45	475.13
371.65	435.34
371.84	414.27
372.04	433.00
372.24	489.17
372.44	482.15
372.63	437.68
372.83	470.45
373.03	423.64
373.22	444.70
373.42	484.49
373.62	491.51
373.81	521.94
374.01	550.03
374.21	552.37
374.40	482.15
374.60	531.30
374.79	580.45
374.99	524.28
375.19	521.94
375.38	592.16
375.58	507.90
375.78	578.11
375.97	557.05
376.17	587.47
376.37	667.05
376.56	627.26
376.76	571.09
376.95	608.54
377.15	645.99
377.35	601.52
377.54	575.77
377.74	606.20
377.93	606.20
378.13	592.16
378.33	615.56
378.52	564.07
378.72	697.48
378.91	601.52
379.11	606.20
379.31	610.88
379.50	535.98
379.70	667.05
379.89	650.67
380.09	540.66
380.28	641.31
380.48	643.65
380.68	624.92
380.87	608.54
381.07	564.07
381.26	730.25
381.46	702.16
381.65	643.65
381.85	617.90
382.04	704.50
382.24	697.48
382.43	734.93
382.63	582.79
382.83	613.22
383.02	704.50
383.22	695.14
383.41	692.80
383.61	751.31
383.80	767.70
384.00	674.07
384.19	758.33
384.39	732.59
384.58	727.91
384.78	674.07
384.97	751.31
385.17	713.86
385.36	732.59
385.56	826.21
385.75	706.84
385.95	800.46
386.14	781.74
386.34	688.12
386.53	760.67
386.72	791.10
386.92	774.72
387.11	854.30
387.31	828.55
387.50	828.55
387.70	854.30
387.89	812.17
388.09	763.01
388.28	798.12
388.48	884.72
388.67	858.98
388.86	807.48
389.06	809.83
389.25	772.38
389.45	873.02
389.64	954.94
389.84	950.26
390.03	901.11
390.22	903.45
390.42	863.66
390.61	936.21
390.81	898.77
391.00	863.66
391.19	887.06
391.39	952.60
391.58	919.83
391.78	940.90
391.97	908.13
392.16	961.96
392.36	968.98
392.55	1013.45
392.75	964.30
392.94	863.66
393.13	1064.94
393.33	947.92
393.52	1004.09
393.71	980.68
393.91	1039.20
394.10	943.24
394.29	1118.78
394.49	1083.67
394.68	1086.01
394.88	1104.73
395.07	1055.58
395.26	1179.63
395.46	1111.75
395.65	1053.24
395.84	1090.69
396.04	1203.04
396.23	1132.82
396.42	1076.65
396.62	1217.08
396.81	1146.86
397.00	1156.22
397.19	1153.88
397.39	1144.52
397.58	1301.34
397.77	1226.44
397.97	1254.53
398.16	1247.51
398.35	1280.27
398.55	1228.78
398.74	1233.46
398.93	1310.70
399.12	1294.32
399.32	1291.98
399.51	1376.24
399.70	1303.68
399.90	1331.76
400.09	1369.21
400.28	1287.29
400.47	1509.65
400.67	1465.18
400.86	1507.30
401.05	1481.56
401.24	1577.52
401.44	1444.11
401.63	1453.47
401.82	1561.14
402.01	1500.28
402.21	1493.26
402.40	1584.54
402.59	1472.20
402.78	1605.61
402.97	1551.78
403.17	1650.08
403.36	1572.84
403.55	1556.46
403.74	1544.75
403.93	1671.14
404.13	1666.46
404.32	1565.82
404.51	1643.06
404.70	1739.02
404.89	1717.95
405.09	1732.00
405.28	1717.95
405.47	1776.47
405.66	1699.23
405.85	1781.15
406.05	1715.61
406.24	1748.38
406.43	1795.19
406.62	1858.39
406.81	1867.75
407.00	1746.04
407.20	1813.92
407.39	1952.01
407.58	1839.66
407.77	1928.60
407.96	1947.33
408.15	2080.74
408.34	1954.35
408.54	2033.93
408.73	2052.65
408.92	2064.35
409.11	2022.22
409.30	1994.14
409.49	2031.58
409.68	2036.27
409.87	2015.20
410.07	2183.72
410.26	2083.08
410.45	2054.99
410.64	2101.80
410.83	2296.07
411.02	2218.83
411.21	2291.38
411.40	2347.56
411.59	2331.17
411.78	2389.69
411.98	2277.34
412.17	2366.28
412.36	2338.20
412.55	2368.62
412.74	2380.32
412.93	2450.54
413.12	2373.30
413.31	2539.48
413.50	2455.22
413.69	2511.39
413.88	2637.78
414.07	2691.62
414.26	2619.06
414.45	2635.44
414.64	2633.10
414.83	2649.49
415.02	2675.23
415.22	2780.56
415.41	2672.89
415.60	2771.19
415.79	2836.73
415.98	2764.17
416.17	2932.69
416.36	2871.84
416.55	2930.35
416.74	2878.86
416.93	3012.27
417.12	2963.12
417.31	2991.20
417.50	3143.34
417.69	3180.79
417.88	3157.38
418.07	3033.33
418.26	3066.10
418.45	3063.76
418.64	3251.00
418.83	3262.71
419.02	3101.21
419.21	3246.32
419.39	3178.45
419.58	3243.98
419.77	3150.36
419.96	3403.14
420.15	3361.01
420.34	3180.79
420.53	3377.39
420.72	3391.44
420.91	3559.95
421.10	3307.18
421.29	3304.84
421.48	3527.19
421.67	3365.69
421.86	3428.88
422.05	3391.44
422.24	3424.20
422.43	3417.18
422.61	3398.46
422.80	3471.01
422.99	3550.59
423.18	3449.95
423.37	3527.19
423.56	3482.72
423.75	3487.40
423.94	3368.03
424.13	3368.03
424.32	3368.03
424.50	3597.40
424.69	3691.02
424.88	3641.87
425.07	3569.32
425.26	3463.99
425.45	3524.85
425.64	3421.86
425.83	3485.06
426.01	3588.04
426.20	3681.66
426.39	3705.07
426.58	3555.27
426.77	3520.17
426.96	3616.13
427.15	3527.19
427.33	3702.73
427.52	3611.45
427.71	3641.87
427.90	3595.06
428.09	3770.60
428.28	3686.34
428.46	3665.28
428.65	3889.97
428.84	3978.91
429.03	3880.61
429.22	3777.62
429.40	3801.03
429.59	3777.62
429.78	3592.72
429.97	3585.70
430.16	3709.75
430.34	3852.52
430.53	3747.20
430.72	3967.21
430.91	3765.92
431.10	3894.65
431.28	4063.17
431.47	4203.60
431.66	4086.58
431.85	4065.51
432.03	4152.11
432.22	4227.01
432.41	4114.66
432.60	4128.70
432.79	4049.13
432.97	4337.01
433.16	4294.88
433.35	4252.75
433.54	4154.45
433.72	4264.46
433.91	4283.18
434.10	4276.16
434.28	4255.09
434.47	4353.40
434.66	4381.48
434.85	4507.87
435.03	4451.70
435.22	4346.37
435.41	4606.17
435.59	4610.86
435.78	4479.79
435.97	4676.39
436.16	4512.55
436.34	4542.98
436.53	4713.84
436.72	4737.24
436.90	4486.81
437.09	4706.82
437.28	4746.61
437.46	4685.75
437.65	4975.98
437.84	4706.82
438.02	4585.11
438.21	4678.73
438.40	4723.20
438.58	4657.67
438.77	4884.70
438.96	4882.36
439.14	4999.38
439.33	4994.70
439.52	5111.73
439.70	5135.14
439.89	5308.34
440.08	5074.28
440.26	5231.10
440.45	5186.63
440.63	5170.24
440.82	5392.59
441.01	5355.15
441.19	5460.47
441.38	5369.19
441.57	5605.58
441.75	5624.31
441.94	5551.75
442.12	5617.29
442.31	5767.08
442.50	5900.49
442.68	5612.60
442.87	5774.10
443.05	5640.69
443.24	5781.12
443.43	5661.76
443.61	5748.36
443.80	6040.92
443.98	5713.25
444.17	5556.43
444.35	5827.93
444.54	6010.50
444.73	5788.14
444.91	5851.34
445.10	5769.42
445.28	5776.44
445.47	5816.23
445.65	5853.68
445.84	5898.15
446.02	5975.39
446.21	5776.44
446.39	5980.07
446.58	6080.71
446.77	6003.47
446.95	5933.26
447.14	5898.15
447.32	6019.86
447.51	5902.83
447.69	5966.03
447.88	6050.28
448.06	6150.93
448.25	6019.86
448.43	6078.37
448.62	5980.07
448.80	5975.39
448.99	6120.50
449.17	6097.10
449.36	6108.80
449.54	6253.91
449.73	6396.68
449.91	6445.84
450.10	6352.21
450.28	6544.14
450.46	6420.09
450.65	6392.00
450.83	6476.26
451.02	6621.38
451.20	6434.13
451.39	6434.13
451.57	6382.64
451.76	6370.94
451.94	6431.79
452.13	6663.51
452.31	6534.78
452.49	6466.90
452.68	6523.07
452.86	6513.71
453.05	6504.35
453.23	6614.35
453.42	6644.78
453.60	6665.85
453.78	6764.15
453.97	6647.12
454.15	6794.58
454.34	6644.78
454.52	6787.55
454.70	6736.06
454.89	6822.66
455.07	6963.09
455.26	6841.39
455.44	6970.12
455.62	6920.96
455.81	7005.22
455.99	7206.51
456.17	6953.73
456.36	6937.35
456.54	7026.29
456.73	7103.53
456.91	7426.52
457.09	7463.97
457.28	7463.97
457.46	7190.13
457.64	7272.04
457.83	7232.26
458.01	7192.47
458.19	7515.46
458.38	7459.29
458.56	7311.83
458.74	7501.42
458.93	7435.88
459.11	7393.75
459.29	7555.25
459.48	7627.81
459.66	7651.21
459.84	7627.81
460.03	7733.13
460.21	7918.03
460.39	7854.84
460.57	7864.20
460.76	7726.11
460.94	7974.21
461.12	7803.35
461.31	7915.69
461.49	7810.37
461.67	7709.72
461.85	7964.84
462.04	8002.29
462.22	8107.62
462.40	8018.68
462.59	8065.49
462.77	8039.74
462.95	8201.24
463.13	8046.76
463.32	8044.42
463.50	8166.13
463.68	8180.17
463.86	8173.15
464.05	8100.59
464.23	8126.34
464.41	8262.09
464.59	8131.02
464.78	8231.66
464.96	8266.77
465.14	8147.40
465.32	8285.50
465.50	8341.67
465.69	8479.76
465.87	8276.13
466.05	8594.45
466.23	8622.53
466.41	8283.16
466.60	8674.03
466.78	8339.33
466.96	8404.86
467.14	8566.36
467.32	8517.21
467.51	8521.89
467.69	8439.97
467.87	8547.64
468.05	8650.62
468.23	8503.17
468.41	8655.30
468.60	8711.47
468.78	8697.43
468.96	8678.71
469.14	8772.33
469.32	8929.14
469.50	8704.45
469.69	8924.46
469.87	9062.55
470.05	8849.57
470.23	8879.99
470.41	9025.11
470.59	8915.10
470.77	8978.30
470.95	9104.68
471.14	9252.14
471.32	9097.66
471.50	9350.44
471.68	9167.88
471.86	9357.46
472.04	9415.98
472.22	9638.33
472.40	9341.08
472.58	9516.62
472.77	9584.49
472.95	9509.60
473.13	9970.68
473.31	9640.67
473.49	9600.88
473.67	9778.76
473.85	9753.01
474.03	9767.06
474.21	10122.82
474.39	9930.89
474.57	9827.91
474.75	10012.81
474.93	10059.62
475.12	9966.00
475.30	10286.65
475.48	10031.54
475.66	10204.74
475.84	10291.34
476.02	10530.07
476.20	10370.91
476.38	10415.38
476.56	10759.44
476.74	10616.67
476.92	10785.19
477.10	10721.99
477.28	10951.37
477.46	11178.40
477.64	10958.39
477.82	11183.08
478.00	11311.81
478.18	11391.39
478.36	11470.97
478.54	11662.89
478.72	11417.13
478.90	11946.09
479.08	11894.60
479.26	11688.64
479.44	12102.91
479.62	12084.19
479.80	12191.85
479.98	12215.26
480.16	12313.56
480.34	12119.29
480.52	12610.81
480.70	12512.50
480.88	12482.08
481.06	12571.02
481.24	12549.95
481.41	12872.95
481.59	13081.25
481.77	13303.60
481.95	13025.08
482.13	13177.22
482.31	13186.58
482.49	13750.65
482.67	13521.27
482.85	13771.71
483.03	13975.34
483.21	13872.36
483.39	14265.57
483.57	13996.40
483.74	14078.32
483.92	14354.51
484.10	14061.94
484.28	14579.20
484.46	14541.75
484.64	14881.13
484.82	14672.82
485.00	14775.80
485.18	14883.47
485.35	15447.54
485.53	14965.39
485.71	15211.14
485.89	15487.32
486.07	15035.60
486.25	15286.04
486.43	15585.63
486.61	15740.10
486.78	15665.21
486.96	16177.78
487.14	16290.13
487.32	16219.91
487.50	16615.46
487.68	16657.59
487.85	17022.72
488.03	16898.67
488.21	16952.50
488.39	17132.72
488.57	17465.08
488.75	17186.55
488.92	17678.07
489.10	17848.93
489.28	17439.33
489.46	18176.60
489.64	17813.82
489.81	18052.55
489.99	18600.24
490.17	18129.79
490.35	18464.49
490.53	18693.86
490.70	18890.46
490.88	18494.91
491.06	19185.37
491.24	19220.48
491.41	18930.25
491.59	19157.28
491.77	19227.50
491.95	19454.53
492.13	19653.48
492.30	19822.00
492.48	19601.99
492.66	20060.73
492.84	20112.22
493.01	20269.04
493.19	20027.96
493.37	20355.64
493.54	20393.09
493.72	20833.11
493.90	20870.56
494.08	20844.81
494.25	21235.68
494.43	21561.02
494.61	21369.09
494.79	21649.96
494.96	21259.09
495.14	21474.42
495.32	21834.86
495.49	21668.68
495.67	21947.20
495.85	22073.59
496.02	22148.49
496.20	22279.56
496.38	22427.01
496.55	22157.85
496.73	22827.24
496.91	22864.69
497.09	22829.59
497.26	22955.97
497.44	23021.51
497.62	23101.09
497.79	23491.96
497.97	23494.30
498.14	23810.27
498.32	23620.69
498.50	23707.29
498.67	23864.10
498.85	23718.99
499.03	24594.35
499.20	23924.96
499.38	24191.78
499.56	24409.45
499.73	24482.00
499.91	24346.25
500.08	24531.15
500.26	24261.99
500.44	24474.98
500.61	24383.70
500.79	24767.55
500.97	25163.10
501.14	25085.86
501.32	25317.57
501.49	25048.41
501.67	24987.56
501.84	25575.03
502.02	25146.72
502.20	25605.46
502.37	25680.36
502.55	25624.18
502.72	25975.27
502.90	25909.73
503.07	25781.00
503.25	26244.43
503.43	26232.72
503.60	26281.88
503.78	26192.94
503.95	26218.68
504.13	26534.65
504.30	26242.09
504.48	26621.25
504.65	26752.32
504.83	26801.47
505.01	27133.83
505.18	26946.59
505.36	27402.99
505.53	27140.85
505.71	27803.22
505.88	27433.42
506.06	27501.29
506.23	27391.29
506.41	27463.85
506.58	27548.11
506.76	27302.35
506.93	28149.62
507.11	27585.55
507.28	27962.38
507.46	27674.49
507.63	28456.23
507.81	28102.81
507.98	28002.17
508.16	27957.70
508.33	28458.57
508.50	28449.21
508.68	28636.45
508.85	28947.75
509.03	28975.83
509.20	29020.30
509.38	29139.67
509.55	28886.89
509.73	29275.42
509.90	29097.54
510.08	29383.09
510.25	29252.02
510.42	29497.77
510.60	29268.40
510.77	29434.58
510.95	29652.25
511.12	29715.44
511.30	29685.01
511.47	30019.71
511.64	30202.27
511.82	30024.39
511.99	29858.21
512.17	30148.44
512.34	29773.95
512.51	30134.40
512.69	30506.54
512.86	30574.42
513.04	30321.64
513.21	30494.84
513.38	30525.27
513.56	30651.66
513.73	30525.27
513.90	30785.07
514.08	30761.66
514.25	31019.12
514.43	30773.36
514.60	30892.73
514.77	30998.06
514.95	31461.48
515.12	31480.21
515.29	31140.83
515.47	31232.11
515.64	31758.73
515.81	31311.69
515.99	31590.21
516.16	31887.46
516.33	31651.06
516.51	31407.65
516.68	31328.07
516.85	31115.08
517.03	31601.91
517.20	31569.15
517.37	32308.76
517.54	32411.74
517.72	32070.02
517.89	31917.89
518.06	32411.74
518.24	32081.72
518.41	32374.29
518.58	31861.71
518.75	32767.50
518.93	32580.26
519.10	32432.80
519.27	32823.67
519.45	32769.84
519.62	33104.54
519.79	33085.81
519.96	32762.82
520.14	33422.85
520.31	32992.19
520.48	33432.21
520.65	33261.35
520.83	33624.14
521.00	34024.37
521.17	33549.24
521.34	33991.60
521.52	33792.65
521.69	34192.89
521.86	34497.16
522.03	33872.23
522.20	34136.71
522.38	34326.30
522.55	34050.11
522.72	34286.51
522.89	34246.72
523.07	34476.09
523.24	34073.52
523.41	34658.65
523.58	34480.77
523.75	34902.07
523.92	34836.53
524.10	34988.67
524.27	34953.56
524.44	35173.57
524.61	35260.17
524.78	35381.88
524.96	35335.07
525.13	35220.38
525.30	35426.35
525.47	35817.22
525.64	35402.94
525.81	35641.68
525.98	35459.12
526.16	35201.66
526.33	35199.32
526.50	35571.46
526.67	35419.33
526.84	35424.01
527.01	35548.06
527.18	35491.88
527.36	35915.52
527.53	36222.13
527.70	36350.86
527.87	36041.91
528.04	36154.26
528.21	36163.62
528.38	36446.82
528.55	36751.09
528.72	36456.18
528.89	36538.10
529.07	36493.63
529.24	36503.00
529.41	36545.12
529.58	36311.07
529.75	36095.74
529.92	37041.32
530.09	36804.92
530.26	36678.54
530.43	36870.46
530.60	37254.31
530.77	36678.54
530.94	37467.30
531.11	37024.93
531.28	36933.65
531.46	37380.70
531.63	37408.78
531.80	37127.92
531.97	37191.11
532.14	36989.83
532.31	37123.24
532.48	37373.67
532.65	37368.99
532.82	37539.85
532.99	37565.60
533.16	37013.23
533.33	37383.04
533.50	37724.75
533.67	38176.48
533.84	37486.02
534.01	37961.15
534.18	37518.79
534.35	38050.09
534.52	37944.76
534.69	38377.76
534.86	38274.78
535.03	38305.21
535.20	38501.81
535.37	38600.12
535.54	38670.33
535.71	38316.91
535.88	38345.00
536.05	38220.95
536.22	38705.44
536.38	38586.07
536.55	38572.03
536.72	38796.72
536.89	38146.05
537.06	38394.15
537.23	39040.14
537.40	38880.98
537.57	38923.11
537.74	38995.67
537.91	39178.23
538.08	38735.87
538.25	38820.13
538.42	39037.80
538.59	39276.53
538.75	38462.02
538.92	38986.30
539.09	39257.81
539.26	38927.79
539.43	39056.52
539.60	39234.40
539.77	39138.44
539.94	38918.43
540.11	39461.43
540.28	39524.63
540.44	39302.28
540.61	39452.07
540.78	39131.42
540.95	39433.35
541.12	39456.75
541.29	39744.64
541.46	39627.61
541.62	39550.37
541.79	40020.82
541.96	39653.36
542.13	39941.24
542.30	39803.15
542.47	39899.11
542.63	40023.16
542.80	40098.06
542.97	40435.10
543.14	40252.53
543.31	40357.86
543.48	40238.49
543.64	40818.94
543.81	40521.69
543.98	40940.65
544.15	40680.85
544.32	40739.36
544.48	41085.76
544.65	40889.16
544.82	40224.45
544.99	40715.96
545.16	40865.75
545.32	40435.10
545.49	40786.18
545.66	41184.07
545.83	41081.08
546.00	41298.75
546.16	40954.69
546.33	40662.13
546.50	40840.01
546.67	41305.77
546.83	40465.52
547.00	41085.76
547.17	40945.33
547.34	41099.81
547.50	41371.31
547.67	41544.51
547.84	41233.22
548.00	41324.50
548.17	41792.61
548.34	41387.69
548.51	41656.85
548.67	41813.67
548.84	41574.94
549.01	41546.85
549.18	41453.23
549.34	41633.45
549.51	41736.43
549.68	42124.96
549.84	41977.51
550.01	42169.43
550.18	42300.50
550.34	41605.36
550.51	41830.05
550.68	41947.08
550.84	41750.48
551.01	41752.82
551.18	41860.48
551.34	41937.72
551.51	42485.40
551.68	42171.77
551.84	42557.96
552.01	42136.66
552.18	42017.30
552.34	41937.72
552.51	41811.33
552.68	41787.92
552.84	42024.32
553.01	42604.77
553.18	42387.10
553.34	42279.44
553.51	42057.09
553.67	42424.55
553.84	42642.22
554.01	42836.48
554.17	42759.25
554.34	42813.08
554.51	42447.96
554.67	42782.65
554.84	42438.59
555.00	42487.74
555.17	42602.43
555.33	42422.21
555.50	42602.43
555.67	42738.18
555.83	42883.30
556.00	42953.51
556.16	43007.34
556.33	42955.85
556.50	42326.25
556.66	42925.42
556.83	42635.20
556.99	43274.16
557.16	42918.40
557.32	43012.02
557.49	43201.61
557.65	43019.05
557.82	42909.04
557.98	43175.86
558.15	42817.76
558.32	43063.52
558.48	43227.35
558.65	42974.58
558.81	42899.68
558.98	43409.92
559.14	43407.58
559.31	43136.07
559.47	43461.41
559.64	43363.11
559.80	43203.95
559.97	43475.45
560.13	43124.37
560.30	42927.77
560.46	43187.56
560.63	42967.55
560.79	43672.06
560.96	43643.97
561.12	43522.26
561.29	43529.28
561.45	43484.81
561.61	43435.66
561.78	43957.60
561.94	43304.59
562.11	43175.86
562.27	43475.45
562.44	43440.34
562.60	43807.81
562.77	43627.59
562.93	43667.37
563.10	43728.23
563.26	43555.03
563.42	43599.50
563.59	43550.35
563.75	43555.03
563.92	43730.57
564.08	44123.78
564.24	44121.44
564.41	43775.04
564.57	43929.51
564.74	43590.14
564.90	43599.50
565.07	43871.00
565.23	43845.26
565.39	43374.81
565.56	44039.52
565.72	43578.43
565.88	43398.21
566.05	43793.76
566.21	43983.35
566.38	43800.79
566.54	44179.95
566.70	44058.24
566.87	44306.34
567.03	43976.33
567.19	44507.63
567.36	43772.70
567.52	43770.36
567.68	44261.87
567.85	43732.91
568.01	44030.16
568.17	43791.42
568.34	43929.51
568.50	44399.96
568.66	44142.50
568.83	43934.20
568.99	43854.62
569.15	43950.58
569.32	43917.81
569.48	43723.55
569.64	44493.58
569.81	44109.74
569.97	44144.84
570.13	44023.14
570.30	44102.71
570.46	43587.80
570.62	43814.83
570.78	43812.49
570.95	43459.07
571.11	44093.35
571.27	44142.50
571.43	44196.34
571.60	44165.91
571.76	44074.63
571.92	44217.40
572.09	44128.46
572.25	44222.08
572.41	44121.44
572.57	44254.85
572.74	44821.26
572.90	44566.14
573.06	44301.66
573.22	44172.93
573.38	44236.12
573.55	44177.61
573.71	44280.60
573.87	44250.17
574.03	44034.84
574.20	43929.51
574.36	43924.83
574.52	44109.74
574.68	44479.54
574.84	44556.78
575.01	44198.68
575.17	44486.56
575.33	43629.93
575.49	44053.56
575.65	44116.76
575.82	44542.74
575.98	44053.56
576.14	44603.59
576.30	44524.01
576.46	44322.72
576.62	44217.40
576.79	44631.68
576.95	44112.08
577.11	43981.01
577.27	44346.13
577.43	44346.13
577.59	44339.11
577.75	44381.24
577.92	43892.07
578.08	44320.38
578.24	43903.77
578.40	43873.34
578.56	43962.28
578.72	44231.44
578.88	44844.66
579.04	44535.71
579.21	44467.84
579.37	44641.04
579.53	44748.70
579.69	44020.80
579.85	44315.70
580.01	44409.32
580.17	44374.22
580.33	44465.50
580.49	44463.16
580.65	44903.18
580.82	44371.88
580.98	44135.48
581.14	44596.57
581.30	44973.39
581.46	44275.91
581.62	44746.36
581.78	44458.48
581.94	44388.26
582.10	43969.30
582.26	44547.42
582.42	44374.22
582.58	44669.12
582.74	44566.14
582.90	44580.18
583.06	44456.14
583.22	44418.69
583.38	44811.90
583.54	44091.01
583.70	44364.85
583.86	44315.70
584.02	44573.16
584.18	44685.51
584.34	44809.56
584.50	44287.62
584.66	43920.15
584.82	44215.06
584.98	44519.33
585.14	44961.69
585.30	44650.40
585.46	44430.39
585.62	44648.06
585.78	44634.02
585.94	44395.28
586.10	44575.50
586.26	44292.30
586.42	44418.69
586.58	44584.86
586.74	44753.38
586.90	44481.88
587.06	44395.28
587.22	44769.77
587.38	44399.96
587.54	44531.03
587.70	44491.24
587.86	44577.84
588.02	44282.94
588.18	44767.43
588.34	44381.24
588.49	44154.21
588.65	44257.19
588.81	44266.55
588.97	44402.30
589.13	44039.52
589.29	44414.01
589.45	44811.90
589.61	44383.58
589.77	44856.37
589.93	44619.97
590.08	44877.43
590.24	44879.77
590.40	45254.26
