SpectraSuite Data File
++++++++++++++++++++++++++++++++++++
Date: Fri Oct 25 11:25:45 EDT 2013
User: price-jones
Dark Spectrum Present: No
Reference Spectrum Present: No
Number of Sampled Component Spectra: 1
Spectrometers: USB2+H05261
Integration Time (usec): 100000 (USB2+H05261)
Spectra Averaged: 1 (USB2+H05261)
Boxcar Smoothing: 0 (USB2+H05261)
Correct for Electrical Dark: No (USB2+H05261)
Strobe/Lamp Enabled: No (USB2+H05261)
Correct for Detector Non-linearity: No (USB2+H05261)
Correct for Stray Light: No (USB2+H05261)
Number of Pixels in Processed Spectrum: 2048
>>>>>Begin Processed Spectral Data<<<<<
365.73	229.37
365.92	229.37
366.12	229.37
366.32	168.52
366.52	152.13
366.72	126.39
366.91	142.77
367.11	121.71
367.31	110.01
367.51	224.69
367.70	98.30
367.90	105.32
368.10	168.52
368.30	131.07
368.49	131.07
368.69	220.01
368.89	203.63
369.09	131.07
369.28	198.95
369.48	163.84
369.68	163.84
369.87	227.03
370.07	184.90
370.27	290.23
370.47	308.95
370.66	517.26
370.86	688.12
371.06	622.58
371.25	662.37
371.45	753.65
371.65	653.01
371.84	674.07
372.04	645.99
372.24	774.72
372.44	819.19
372.63	863.66
372.83	695.14
373.03	772.38
373.22	720.88
373.42	737.27
373.62	774.72
373.81	826.21
374.01	851.96
374.21	807.48
374.40	786.42
374.60	847.27
374.79	826.21
374.99	856.64
375.19	844.93
375.38	858.98
375.58	854.30
375.78	784.08
375.97	781.74
376.17	791.10
376.37	830.89
376.56	952.60
376.76	908.13
376.95	847.27
377.15	760.67
377.35	840.25
377.54	910.47
377.74	870.68
377.93	854.30
378.13	940.90
378.33	961.96
378.52	947.92
378.72	889.40
378.91	931.53
379.11	887.06
379.31	973.66
379.50	994.73
379.70	999.41
379.89	908.13
380.09	896.43
380.28	961.96
380.48	1032.18
380.68	1076.65
380.87	980.68
381.07	966.64
381.26	1011.11
381.46	999.41
381.65	1039.20
381.85	1041.54
382.04	1086.01
382.24	1093.03
382.43	1046.22
382.63	1121.12
382.83	1064.94
383.02	1067.28
383.22	1128.14
383.41	1109.41
383.61	1078.99
383.80	1088.35
384.00	1100.05
384.19	1109.41
384.39	1111.75
384.58	1153.88
384.78	1193.67
384.97	1125.80
385.17	1219.42
385.36	1205.38
385.56	1135.16
385.75	1121.12
385.95	1266.23
386.14	1238.14
386.34	1200.69
386.53	1160.91
386.72	1156.22
386.92	1130.48
387.11	1207.72
387.31	1153.88
387.50	1249.85
387.70	1144.52
387.89	1378.58
388.09	1212.40
388.28	1268.57
388.48	1263.89
388.67	1294.32
388.86	1373.89
389.06	1341.13
389.25	1313.04
389.45	1320.06
389.64	1364.53
389.84	1320.06
390.03	1334.11
390.22	1430.07
390.42	1420.71
390.61	1392.62
390.81	1371.55
391.00	1341.13
391.19	1411.34
391.39	1409.00
391.58	1549.43
391.78	1509.65
391.97	1439.43
392.16	1441.77
392.36	1502.62
392.55	1607.95
392.75	1535.39
392.94	1549.43
393.13	1481.56
393.33	1547.09
393.52	1619.65
393.71	1556.46
393.91	1540.07
394.10	1490.92
394.29	1624.33
394.49	1708.59
394.68	1685.19
394.88	1614.97
395.07	1647.74
395.26	1657.10
395.46	1664.12
395.65	1783.49
395.84	1734.34
396.04	1785.83
396.23	1717.95
396.42	1687.53
396.62	1729.66
396.81	1888.81
397.00	1781.15
397.19	1837.32
397.39	1893.49
397.58	1858.39
397.77	1687.53
397.97	1846.68
398.16	1842.00
398.35	1898.17
398.55	1914.56
398.74	1970.73
398.93	1944.99
399.12	1893.49
399.32	1874.77
399.51	1870.09
399.70	2026.90
399.90	1907.54
400.09	1963.71
400.28	2003.50
400.47	1982.43
400.67	2050.31
400.86	1937.96
401.05	2097.12
401.24	2071.37
401.44	2111.16
401.63	2097.12
401.82	2188.40
402.01	2101.80
402.21	2069.03
402.40	2251.60
402.59	2223.51
402.78	2153.29
402.97	2223.51
403.17	2190.74
403.36	2153.29
403.55	2228.19
403.74	2373.30
403.93	2352.24
404.13	2307.77
404.32	2296.07
404.51	2317.13
404.70	2448.20
404.89	2370.96
405.09	2436.50
405.28	2487.99
405.47	2396.71
405.66	2473.95
405.85	2520.76
406.05	2593.31
406.24	2560.55
406.43	2562.89
406.62	2675.23
406.81	2579.27
407.00	2504.37
407.20	2626.08
407.39	2530.12
407.58	2609.70
407.77	2647.15
407.96	2813.32
408.15	2764.17
408.34	2661.19
408.54	2773.53
408.73	2677.57
408.92	2799.28
409.11	2787.58
409.30	2888.22
409.49	2810.98
409.68	2967.80
409.87	2925.67
410.07	2991.20
410.26	2888.22
410.45	2981.84
410.64	3047.38
410.83	3103.55
411.02	3019.29
411.21	3040.36
411.40	3159.72
411.59	3222.92
411.78	3133.98
411.98	3136.32
412.17	3178.45
412.36	3304.84
412.55	3396.12
412.74	3307.18
412.93	3452.29
413.12	3290.79
413.31	3461.65
413.50	3475.70
413.69	3487.40
413.88	3672.30
414.07	3382.07
414.26	3609.11
414.45	3630.17
414.64	3618.47
414.83	3730.81
415.02	3812.73
415.22	3894.65
415.41	3936.78
415.60	3826.78
415.79	3824.44
415.98	4023.38
416.17	3941.46
416.36	4021.04
416.55	4053.81
416.74	4046.79
416.93	3887.63
417.12	4124.02
417.31	4187.22
417.50	4147.43
417.69	4315.95
417.88	4250.41
418.07	4313.61
418.26	4299.56
418.45	4276.16
418.64	4482.13
418.83	4365.10
419.02	4423.61
419.21	4355.74
419.39	4402.55
419.58	4486.81
419.77	4418.93
419.96	4521.92
420.15	4542.98
420.34	4442.34
420.53	4603.83
420.72	4669.37
420.91	4744.27
421.10	4723.20
421.29	4634.26
421.48	4603.83
421.67	4828.53
421.86	4751.29
422.05	4802.78
422.24	4770.01
422.43	4772.35
422.61	4840.23
422.80	4922.15
422.99	5006.41
423.18	4755.97
423.37	4983.00
423.56	4896.40
423.75	4931.51
423.94	4774.69
424.13	4669.37
424.32	4863.63
424.50	4894.06
424.69	5034.49
424.88	5144.50
425.07	4919.81
425.26	4854.27
425.45	4891.72
425.64	4849.59
425.83	5062.58
426.01	5050.88
426.20	5118.75
426.39	4968.96
426.58	4896.40
426.77	5039.17
426.96	5025.13
427.15	5060.24
427.33	5245.14
427.52	5116.41
427.71	5317.70
427.90	5268.55
428.09	5313.02
428.28	5324.72
428.46	5207.69
428.65	5343.44
428.84	5469.83
429.03	5481.53
429.22	5266.21
429.40	5294.29
429.59	5305.99
429.78	5317.70
429.97	5231.10
430.16	5472.17
430.34	5575.16
430.53	5561.11
430.72	5614.95
430.91	5472.17
431.10	5458.13
431.28	5731.97
431.47	5767.08
431.66	5699.20
431.85	5638.35
432.03	5879.43
432.22	6043.26
432.41	5865.38
432.60	5891.13
432.79	5858.36
432.97	5830.27
433.16	5961.34
433.35	5863.04
433.54	6101.78
433.72	5973.05
433.91	5916.87
434.10	6113.48
434.28	6162.63
434.47	5959.00
434.66	6366.26
434.85	6141.57
435.03	6373.28
435.22	6282.00
435.41	6525.41
435.59	6216.46
435.78	6258.59
435.97	6340.51
436.16	6590.95
436.34	6506.69
436.53	6312.42
436.72	6576.91
436.90	6455.20
437.09	6483.28
437.28	6342.85
437.46	6586.27
437.65	6553.50
437.84	6782.87
438.02	6583.93
438.21	6815.64
438.40	6480.94
438.58	7026.29
438.77	6993.52
438.96	6944.37
439.14	7096.50
439.33	7082.46
439.52	6946.71
439.70	6993.52
439.89	7122.25
440.08	7428.86
440.26	7197.15
440.45	7440.56
440.63	7386.73
440.82	7578.65
441.01	7407.80
441.19	7592.70
441.38	7808.03
441.57	7485.03
441.75	7744.83
441.94	7852.50
442.12	7728.45
442.31	7880.58
442.50	8126.34
442.68	7859.52
442.87	7875.90
443.05	7988.25
443.24	8109.96
443.43	7962.50
443.61	8051.44
443.80	8374.44
443.98	7985.91
444.17	7681.64
444.35	8231.66
444.54	8423.59
444.73	8280.82
444.91	8210.60
445.10	8341.67
445.28	8255.07
445.47	8060.80
445.65	8278.47
445.84	8374.44
446.02	8390.82
446.21	8226.98
446.39	8276.13
446.58	8470.40
446.77	8599.13
446.95	8287.84
447.14	8191.88
447.32	8468.06
447.51	8418.91
447.69	8514.87
447.88	8645.94
448.06	8620.19
448.25	8491.46
448.43	8479.76
448.62	8540.61
448.80	8533.59
448.99	8643.60
449.17	8517.21
449.36	8545.30
449.54	8655.30
449.73	9137.45
449.91	9083.62
450.10	8798.07
450.28	8919.78
450.46	9039.15
450.65	9015.74
450.83	8884.67
451.02	9273.20
451.20	9043.83
451.39	9156.18
451.57	8990.00
451.76	8931.48
451.94	9270.86
452.13	9177.24
452.31	9327.03
452.49	9284.91
452.68	9060.21
452.86	9053.19
453.05	9289.59
453.23	9437.04
453.42	9217.03
453.60	9249.80
453.78	9465.13
453.97	9345.76
454.15	9549.39
454.34	9357.46
454.52	9741.31
454.70	9568.11
454.89	9694.50
455.07	9668.75
455.26	9654.71
455.44	9795.14
455.62	9741.31
455.81	9680.46
455.99	9996.43
456.17	10169.63
456.36	10237.50
456.54	10178.99
456.73	10160.27
456.91	10340.49
457.09	10253.89
457.28	10504.32
457.46	10307.72
457.64	10415.38
457.83	10384.96
458.01	10328.78
458.19	10714.97
458.38	10300.70
458.56	10759.44
458.74	10436.45
458.93	10740.72
459.11	10490.28
459.29	10752.42
459.48	10920.94
459.66	10759.44
459.84	10801.57
460.03	10817.96
460.21	10923.28
460.39	10909.24
460.57	10853.06
460.76	10909.24
460.94	10951.37
461.12	11012.22
461.31	11103.50
461.49	10909.24
461.67	11105.84
461.85	11318.83
462.04	11342.24
462.22	11733.11
462.40	11356.28
462.59	11435.86
462.77	11407.77
462.95	11559.91
463.13	11419.47
463.32	11372.66
463.50	11587.99
463.68	11833.75
463.86	11815.02
464.05	11620.76
464.23	11480.33
464.41	11915.67
464.59	11859.49
464.78	11988.22
464.96	11915.67
465.14	11728.42
465.32	11878.22
465.50	12063.12
465.69	12081.85
465.87	12126.32
466.05	11936.73
466.23	12147.38
466.41	12208.23
466.60	12107.59
466.78	12278.45
466.96	12145.04
467.14	12372.07
467.32	12018.65
467.51	12367.39
467.69	12290.15
467.87	12236.32
468.05	12580.38
468.23	12248.02
468.41	12386.12
468.60	12526.55
468.78	12798.05
468.96	12388.46
469.14	12730.17
469.32	13025.08
469.50	12631.87
469.69	12905.71
469.87	13062.53
470.05	12950.18
470.23	12971.25
470.41	13128.06
470.59	13188.92
470.77	13064.87
470.95	13097.64
471.14	13664.05
471.32	12989.97
471.50	13357.44
471.68	13659.37
471.86	13385.52
472.04	13603.19
472.22	13710.86
472.40	13610.22
472.58	13661.71
472.77	13783.41
472.95	14115.77
473.13	14544.09
473.31	14167.26
473.49	14071.30
473.67	13968.32
473.85	13720.22
474.03	14513.66
474.21	14324.08
474.39	14761.76
474.57	14623.67
474.75	14738.35
474.93	14761.76
475.12	14801.55
475.30	14991.13
475.48	14946.66
475.66	14965.39
475.84	14986.45
476.02	15309.44
476.20	15234.55
476.38	15552.86
476.56	15775.21
476.74	15761.17
476.92	15714.36
477.10	15784.57
477.28	15936.71
477.46	15927.35
477.64	16156.72
477.82	16273.74
478.00	16912.71
478.18	16662.27
478.36	16599.08
478.54	17057.82
478.72	17123.36
478.90	17334.01
479.08	17673.39
479.26	17659.34
479.44	17308.26
479.62	17741.26
479.80	17504.87
479.98	17991.70
480.16	18024.47
480.34	18059.57
480.52	18326.39
480.70	18216.39
480.88	18214.05
481.06	18607.26
481.24	18490.23
481.41	18806.20
481.59	19360.91
481.77	19215.80
481.95	19389.00
482.13	19623.05
482.31	19552.84
482.49	20088.82
482.67	19995.20
482.85	20212.87
483.03	20355.64
483.21	20533.52
483.39	20559.27
483.57	20629.48
483.74	21111.63
483.92	21294.19
484.10	21008.65
484.28	21556.33
484.46	21673.36
484.64	22120.40
484.82	21736.56
485.00	22092.32
485.18	22525.32
485.35	22682.13
485.53	22810.86
485.71	22754.69
485.89	23410.04
486.07	23098.75
486.25	23215.77
486.43	23335.14
486.61	23913.25
486.78	23817.29
486.96	23751.76
487.14	24343.91
487.32	24294.76
487.50	24383.70
487.68	24922.02
487.85	25158.42
488.03	25413.54
488.21	25661.63
488.39	25542.27
488.57	26043.14
488.75	26038.46
488.92	26251.45
489.10	26497.20
489.28	26054.84
489.46	27253.20
489.64	26911.48
489.81	27405.33
489.99	27393.63
490.17	27358.52
490.35	28102.81
490.53	27868.76
490.70	28098.13
490.88	28212.82
491.06	28376.66
491.24	28432.83
491.41	28734.76
491.59	28694.97
491.77	29237.97
491.95	29411.17
492.13	29331.59
492.30	29713.10
492.48	30029.07
492.66	30031.41
492.84	30302.92
493.01	30450.37
493.19	30471.43
493.37	30565.06
493.54	31152.53
493.72	31510.63
493.90	31152.53
494.08	31393.61
494.25	31910.86
494.43	31821.92
494.61	31985.76
494.79	32147.26
494.96	32067.68
495.14	32301.73
495.32	32940.70
495.49	32833.04
495.67	32879.85
495.85	33415.83
496.02	33397.10
496.20	33787.97
496.38	33968.19
496.55	34162.46
496.73	34820.15
496.91	34043.09
497.09	35047.18
497.26	34480.77
497.44	34710.14
497.62	34820.15
497.79	35620.61
497.97	35229.74
498.14	35576.14
498.32	35941.27
498.50	35817.22
498.67	36275.96
498.85	35725.94
499.03	36383.63
499.20	36126.17
499.38	36472.57
499.56	36664.49
499.73	36851.73
499.91	37104.51
500.08	37528.15
500.26	37376.01
500.44	37731.78
500.61	37481.34
500.79	37750.50
500.97	37507.08
501.14	38258.40
501.32	38237.33
501.49	38286.48
501.67	38773.31
501.84	38080.52
502.02	37996.26
502.20	38820.13
502.37	38930.13
502.55	38728.84
502.72	39131.42
502.90	39189.93
503.07	39391.22
503.25	39196.95
503.43	39405.26
503.60	39655.70
503.78	40229.13
503.95	39770.38
504.13	40259.55
504.30	40355.52
504.48	40559.14
504.65	40304.02
504.83	40671.49
505.01	41373.65
505.18	40905.54
505.36	41401.74
505.53	40781.49
505.71	41193.43
505.88	41467.27
506.06	41134.92
506.23	41289.39
506.41	41478.97
506.58	41273.01
506.76	42082.83
506.93	41970.49
507.11	42253.69
507.28	42162.41
507.46	42225.60
507.63	42864.57
507.81	42862.23
507.98	42330.93
508.16	42899.68
508.33	42960.53
508.50	43129.05
508.68	43217.99
508.85	43835.89
509.03	43672.06
509.20	43562.05
509.38	43775.04
509.55	44041.86
509.73	44383.58
509.90	44098.03
510.08	44105.06
510.25	44566.14
510.42	44395.28
510.60	44619.97
510.77	45200.43
510.95	44945.31
511.12	44835.30
511.30	44821.26
511.47	45048.29
511.64	45113.83
511.82	45371.28
511.99	45404.05
512.17	45516.40
512.34	45619.38
512.51	45956.42
512.69	46209.20
512.86	46000.89
513.04	45930.67
513.21	46232.60
513.38	46164.73
513.56	46586.02
513.73	46560.28
513.90	46773.27
514.08	46621.13
514.25	46986.25
514.43	47327.97
514.60	47243.71
514.77	47182.86
514.95	47391.17
515.12	46932.42
515.29	47477.77
515.47	47842.89
515.64	47641.60
515.81	47667.35
515.99	47854.59
516.16	48535.69
516.33	48095.67
516.51	48018.43
516.68	47889.70
516.85	48535.69
517.03	48364.83
517.20	48662.08
517.37	48605.91
517.54	48198.65
517.72	48854.00
517.89	49130.19
518.06	48842.30
518.24	48788.47
518.41	49104.44
518.58	48751.02
518.75	49074.01
518.93	49158.27
519.10	48877.41
519.27	49359.56
519.45	49591.27
519.62	49647.44
519.79	49504.67
519.96	49638.08
520.14	50066.40
520.31	49989.16
520.48	49759.79
520.65	49940.01
520.83	50461.95
521.00	50436.20
521.17	50160.02
521.34	50185.77
521.52	50396.42
521.69	50344.92
521.86	50815.37
522.03	50740.47
522.20	50894.95
522.38	51049.42
522.55	51421.57
522.72	50869.20
522.89	50852.82
523.07	51023.68
523.24	51208.58
523.41	51318.59
523.58	51173.47
523.75	51545.62
523.92	51391.14
524.10	51550.30
524.27	52016.07
524.44	51693.07
524.61	51819.46
524.78	51999.68
524.96	52142.45
525.13	51882.66
525.30	51627.54
525.47	52212.67
525.64	52392.89
525.81	52294.59
525.98	52650.35
526.16	52678.44
526.33	52715.89
526.50	52472.47
526.67	52552.05
526.84	52526.30
527.01	52832.91
527.18	52617.58
527.36	52739.29
527.53	52741.63
527.70	52963.98
527.87	53010.79
528.04	52804.83
528.21	53242.51
528.38	52926.53
528.55	53158.25
528.72	53036.54
528.89	53378.26
529.07	53125.48
529.24	53024.84
529.41	53631.04
529.58	53574.86
529.75	53127.82
529.92	53429.75
530.09	53633.38
530.26	53832.32
530.43	53574.86
530.60	53670.82
530.77	53387.62
530.94	53867.43
531.11	53811.26
531.28	53862.75
531.46	54092.12
531.63	53916.58
531.80	53853.39
531.97	54237.23
532.14	54202.13
532.31	54031.27
532.48	54494.69
532.65	54438.52
532.82	54389.37
532.99	54518.10
533.16	54541.50
533.33	54382.35
533.50	54747.47
533.67	54901.95
533.84	54508.74
534.01	54707.68
534.18	54644.49
534.35	54768.54
534.52	55033.02
534.69	55208.56
534.86	55086.85
535.03	54763.85
535.20	54944.08
535.37	55075.15
535.54	55175.79
535.71	54768.54
535.88	55325.58
536.05	55379.42
536.22	55592.40
536.38	55489.42
536.55	55257.71
536.72	55210.90
536.89	55042.38
537.06	55262.39
537.23	55405.16
537.40	55381.76
537.57	55334.95
537.74	55510.49
537.91	55627.51
538.08	55311.54
538.25	55391.12
538.42	55587.72
538.59	55819.44
538.75	55611.13
538.92	55634.53
539.09	55737.52
539.26	55831.14
539.43	55931.78
539.60	56135.41
539.77	55913.06
539.94	56158.81
540.11	56168.18
540.28	56198.60
540.44	56250.09
540.61	56479.47
540.78	55913.06
540.95	56306.27
541.12	56065.19
541.29	56273.50
541.46	56186.90
541.62	56425.64
541.79	56629.26
541.96	56470.11
542.13	56212.65
542.30	56395.21
542.47	56690.12
542.63	56814.16
542.80	56633.94
542.97	56985.02
543.14	56889.06
543.31	56931.19
543.48	57022.47
543.64	57183.97
543.81	57193.33
543.98	57043.54
544.15	57214.40
544.32	57230.78
544.48	57265.89
544.65	57090.35
544.82	57270.57
544.99	57207.37
545.16	57408.66
545.32	56767.35
545.49	57247.16
545.66	57661.44
545.83	57249.50
546.00	57420.36
546.16	57607.61
546.33	57048.22
546.50	57179.29
546.67	57301.00
546.83	57371.21
547.00	57539.73
547.17	57640.37
547.34	57446.11
547.50	57560.79
547.67	57696.55
547.84	57736.34
548.00	57886.13
548.17	57733.99
548.34	57865.06
548.51	57963.37
548.67	58178.70
548.84	58103.80
549.01	57902.51
549.18	57932.94
549.34	58113.16
549.51	58152.95
549.68	58232.53
549.84	58431.47
550.01	58195.08
550.18	57975.07
550.34	58384.66
550.51	58066.35
550.68	58302.74
550.84	58087.42
551.01	58225.51
551.18	58319.13
551.34	58230.19
551.51	58424.45
551.68	58473.60
551.84	58564.88
552.01	58183.38
552.18	58595.31
552.34	58401.05
552.51	58511.05
552.68	58412.75
552.84	58578.93
553.01	58724.04
553.18	58403.39
553.34	58660.85
553.51	58590.63
553.67	58522.76
553.84	58602.33
554.01	58745.11
554.17	58908.94
554.34	58745.11
554.51	58763.83
554.67	58955.75
554.84	58752.13
555.00	58885.54
555.17	58745.11
555.33	58901.92
555.50	58754.47
555.67	58993.20
555.83	59096.19
556.00	59140.66
556.16	59271.73
556.33	59182.79
556.50	58965.12
556.66	59114.91
556.83	58960.44
556.99	59269.39
557.16	59407.48
557.32	59440.24
557.49	59693.02
557.65	59126.61
557.82	59171.08
557.98	59194.49
558.15	59512.80
558.32	59267.05
558.48	59178.10
558.65	59351.30
558.81	59131.29
558.98	59330.24
559.14	59297.47
559.31	59407.48
559.47	59442.59
559.64	59503.44
559.80	59519.82
559.97	59606.42
560.13	59358.33
560.30	59475.35
560.46	59496.42
560.63	59636.85
560.79	59323.22
560.96	59536.21
561.12	59650.89
561.29	59688.34
561.45	59648.55
561.61	59714.09
561.78	59667.28
561.94	59753.88
562.11	59510.46
562.27	59611.10
562.44	59737.49
562.60	59791.33
562.77	60046.44
562.93	59723.45
563.10	59959.84
563.26	59695.36
563.42	59821.75
563.59	59943.46
563.75	59819.41
563.92	59877.93
564.08	59683.66
564.24	59999.63
564.41	59955.16
564.57	59962.18
564.74	59861.54
564.90	60041.76
565.07	60016.02
565.23	59913.03
565.39	59945.80
565.56	60030.06
565.72	59821.75
565.88	60093.25
566.05	59739.83
566.21	59765.58
566.38	60109.64
566.54	60210.28
566.70	60170.49
566.87	60346.03
567.03	60013.68
567.19	60137.72
567.36	59915.37
567.52	60158.79
567.68	60399.86
567.85	60097.94
568.01	60231.35
568.17	60126.02
568.34	60308.58
568.50	60020.70
568.66	60130.70
568.83	60182.19
568.99	60154.11
569.15	60214.96
569.32	60128.36
569.48	60111.98
569.64	60271.14
569.81	60271.14
569.97	60121.34
570.13	60310.92
570.30	60060.49
570.46	60479.44
570.62	60254.75
570.78	60170.49
570.95	60182.19
571.11	60528.59
571.27	60336.67
571.43	60467.74
571.60	60467.74
571.76	60203.26
571.92	60467.74
572.09	60413.91
572.25	60437.31
572.41	60205.60
572.57	60423.27
572.74	60781.37
572.90	60460.72
573.06	60310.92
573.22	60327.31
573.38	60652.64
573.55	60327.31
573.71	60470.08
573.87	60556.68
574.03	60282.84
574.20	60605.83
574.36	60360.08
574.52	60575.40
574.68	60519.23
574.84	60734.56
575.01	60509.87
575.17	60563.70
575.33	60430.29
575.49	60289.86
575.65	60622.22
575.82	60673.71
575.98	60547.32
576.14	60743.92
576.30	60732.22
576.46	60470.08
576.62	60441.99
576.79	60584.77
576.95	60196.24
577.11	60512.21
577.27	60563.70
577.43	60704.13
577.59	60552.00
577.75	60512.21
577.92	60615.19
578.08	60470.08
578.24	60657.32
578.40	60802.44
578.56	60893.72
578.72	60659.66
578.88	60762.65
579.04	60729.88
579.21	60711.16
579.37	60704.13
579.53	60776.69
579.69	60425.61
579.85	60743.92
580.01	60563.70
580.17	60568.38
580.33	60664.35
580.49	60783.71
580.65	60746.26
580.82	60523.91
580.98	60589.45
581.14	60598.81
581.30	60879.67
581.46	60715.84
581.62	60650.30
581.78	60795.42
581.94	60844.57
582.10	60839.89
582.26	60757.97
582.42	60921.80
582.58	60748.60
582.74	60832.86
582.90	60837.54
583.06	60786.05
583.22	60640.94
583.38	60720.52
583.54	60853.93
583.70	60879.67
583.86	60877.33
584.02	60786.05
584.18	60729.88
584.34	60839.89
584.50	60790.73
584.66	60601.15
584.82	60725.20
584.98	61052.87
585.14	60832.86
585.30	60783.71
585.46	60788.39
585.62	60814.14
585.78	60814.14
585.94	60589.45
586.10	60727.54
586.26	60907.76
586.42	60821.16
586.58	60800.10
586.74	60996.70
586.90	60884.36
587.06	60736.90
587.22	61017.77
587.38	60917.12
587.54	61024.79
587.70	61085.64
587.86	60690.09
588.02	60673.71
588.18	61085.64
588.34	60952.23
588.49	60949.89
