SpectraSuite Data File
++++++++++++++++++++++++++++++++++++
Date: Fri Oct 25 11:23:17 EDT 2013
User: price-jones
Dark Spectrum Present: No
Reference Spectrum Present: No
Number of Sampled Component Spectra: 1
Spectrometers: USB2+H05261
Integration Time (usec): 100000 (USB2+H05261)
Spectra Averaged: 1 (USB2+H05261)
Boxcar Smoothing: 0 (USB2+H05261)
Correct for Electrical Dark: No (USB2+H05261)
Strobe/Lamp Enabled: No (USB2+H05261)
Correct for Detector Non-linearity: No (USB2+H05261)
Correct for Stray Light: No (USB2+H05261)
Number of Pixels in Processed Spectrum: 2048
>>>>>Begin Processed Spectral Data<<<<<
365.73	241.08
365.92	241.08
366.12	241.08
366.32	168.52
366.52	93.62
366.72	135.75
366.91	149.79
367.11	110.01
367.31	58.51
367.51	147.45
367.70	65.54
367.90	147.45
368.10	135.75
368.30	220.01
368.49	145.11
368.69	191.92
368.89	154.48
369.09	128.73
369.28	147.45
369.48	163.84
369.68	105.32
369.87	191.92
370.07	259.80
370.27	196.60
370.47	369.80
370.66	566.41
370.86	608.54
371.06	631.94
371.25	692.80
371.45	624.92
371.65	737.27
371.84	660.03
372.04	695.14
372.24	699.82
372.44	828.55
372.63	713.86
372.83	758.33
373.03	744.29
373.22	676.41
373.42	863.66
373.62	819.19
373.81	802.80
374.01	821.53
374.21	772.38
374.40	830.89
374.60	880.04
374.79	856.64
374.99	826.21
375.19	863.66
375.38	856.64
375.58	844.93
375.78	819.19
375.97	896.43
376.17	866.00
376.37	844.93
376.56	936.21
376.76	833.23
376.95	833.23
377.15	847.27
377.35	950.26
377.54	915.15
377.74	931.53
377.93	863.66
378.13	835.57
378.33	936.21
378.52	961.96
378.72	994.73
378.91	1006.43
379.11	978.34
379.31	1001.75
379.50	985.37
379.70	938.55
379.89	1020.47
380.09	933.87
380.28	1022.81
380.48	1032.18
380.68	940.90
380.87	973.66
381.07	1004.09
381.26	1076.65
381.46	1057.92
381.65	1041.54
381.85	999.41
382.04	1029.84
382.24	1032.18
382.43	983.02
382.63	1060.26
382.83	1015.79
383.02	1053.24
383.22	1163.25
383.41	1088.35
383.61	1160.91
383.80	1100.05
384.00	1069.62
384.19	1111.75
384.39	1104.73
384.58	1137.50
384.78	1114.10
384.97	1118.78
385.17	1170.27
385.36	1116.44
385.56	1174.95
385.75	1219.42
385.95	1165.59
386.14	1224.10
386.34	1142.18
386.53	1165.59
386.72	1228.78
386.92	1275.59
387.11	1287.29
387.31	1198.35
387.50	1170.27
387.70	1327.08
387.89	1233.46
388.09	1284.95
388.28	1226.44
388.48	1214.74
388.67	1299.00
388.86	1434.75
389.06	1416.02
389.25	1376.24
389.45	1451.13
389.64	1355.17
389.84	1425.39
390.03	1385.60
390.22	1376.24
390.42	1369.21
390.61	1455.81
390.81	1437.09
391.00	1437.09
391.19	1437.09
391.39	1448.79
391.58	1584.54
391.78	1507.30
391.97	1502.62
392.16	1458.15
392.36	1523.69
392.55	1497.94
392.75	1603.27
392.94	1598.59
393.13	1591.56
393.33	1584.54
393.52	1490.92
393.71	1607.95
393.91	1572.84
394.10	1577.52
394.29	1743.70
394.49	1542.41
394.68	1624.33
394.88	1617.31
395.07	1619.65
395.26	1680.50
395.46	1654.76
395.65	1842.00
395.84	1746.04
396.04	1673.48
396.23	1643.06
396.42	1795.19
396.62	1830.30
396.81	1776.47
397.00	1659.44
397.19	1792.85
397.39	1802.21
397.58	1867.75
397.77	1792.85
397.97	1874.77
398.16	1921.58
398.35	1865.41
398.55	1863.07
398.74	1921.58
398.93	1891.15
399.12	1856.04
399.32	1827.96
399.51	1916.90
399.70	2054.99
399.90	2057.33
400.09	1952.01
400.28	2019.88
400.47	1895.83
400.67	2106.48
400.86	2193.08
401.05	2169.68
401.24	2085.42
401.44	2188.40
401.63	2134.57
401.82	2127.55
402.01	2108.82
402.21	2160.31
402.40	2143.93
402.59	2228.19
402.78	2289.04
402.97	2258.62
403.17	2305.43
403.36	2230.53
403.55	2328.83
403.74	2424.80
403.93	2361.60
404.13	2354.58
404.32	2260.96
404.51	2387.35
404.70	2469.27
404.89	2509.05
405.09	2492.67
405.28	2574.59
405.47	2574.59
405.66	2513.74
405.85	2621.40
406.05	2509.05
406.24	2530.12
406.43	2668.21
406.62	2649.49
406.81	2679.91
407.00	2616.72
407.20	2640.12
407.39	2612.04
407.58	2743.11
407.77	2703.32
407.96	2679.91
408.15	2750.13
408.34	2726.72
408.54	2839.07
408.73	2850.77
408.92	2789.92
409.11	3063.76
409.30	2862.48
409.49	3028.65
409.68	2874.18
409.87	2967.80
410.07	3045.04
410.26	3145.68
410.45	3045.04
410.64	3028.65
410.83	3075.46
411.02	3014.61
411.21	3171.43
411.40	3145.68
411.59	3178.45
411.78	3112.91
411.98	3204.19
412.17	3241.64
412.36	3311.86
412.55	3316.54
412.74	3382.07
412.93	3403.14
413.12	3459.31
413.31	3684.00
413.50	3318.88
413.69	3686.34
413.88	3583.36
414.07	3527.19
414.26	3688.68
414.45	3669.96
414.64	3669.96
414.83	3822.09
415.02	3885.29
415.22	3906.35
415.41	3922.74
415.60	3908.69
415.79	3995.29
415.98	4077.21
416.17	4053.81
416.36	3981.25
416.55	4063.17
416.74	4051.47
416.93	4098.28
417.12	4205.94
417.31	4154.45
417.50	4217.65
417.69	4341.69
417.88	4210.62
418.07	4182.54
418.26	4432.97
418.45	4425.95
418.64	4521.92
418.83	4505.53
419.02	4493.83
419.21	4669.37
419.39	4512.55
419.58	4531.28
419.77	4603.83
419.96	4589.79
420.15	4484.47
420.34	4514.89
420.53	4734.90
420.72	4631.92
420.91	4788.74
421.10	4744.27
421.29	4854.27
421.48	4837.89
421.67	4816.82
421.86	4755.97
422.05	4695.11
422.24	4863.63
422.43	4884.70
422.61	5018.11
422.80	5006.41
422.99	4975.98
423.18	4985.34
423.37	5041.51
423.56	4929.17
423.75	4889.38
423.94	4873.00
424.13	4753.63
424.32	4917.47
424.50	4905.76
424.69	5205.35
424.88	5085.98
425.07	5071.94
425.26	5170.24
425.45	5039.17
425.64	4891.72
425.83	5095.35
426.01	5071.94
426.20	5114.07
426.39	5048.54
426.58	5078.96
426.77	5043.85
426.96	5125.77
427.15	5167.90
427.33	5303.65
427.52	5226.42
427.71	5214.71
427.90	5345.78
428.09	5383.23
428.28	5476.85
428.46	5446.43
428.65	5338.76
428.84	5526.00
429.03	5865.38
429.22	5345.78
429.40	5570.48
429.59	5586.86
429.78	5423.02
429.97	5256.84
430.16	5563.45
430.34	5577.50
430.53	5710.91
430.72	5678.14
430.91	5650.05
431.10	5619.63
431.28	5853.68
431.47	5912.19
431.66	5865.38
431.85	5678.14
432.03	5797.51
432.22	6090.07
432.41	5804.53
432.60	6064.33
432.79	5926.24
432.97	6218.80
433.16	5989.43
433.35	6031.56
433.54	6066.67
433.72	6083.05
433.91	6333.49
434.10	6150.93
434.28	6169.65
434.47	6197.74
434.66	6387.32
434.85	6265.61
435.03	6401.37
435.22	6303.06
435.41	6485.62
435.59	6546.48
435.78	6459.88
435.97	6459.88
436.16	6523.07
436.34	6403.71
436.53	6560.52
436.72	6583.93
436.90	6476.26
437.09	6899.90
437.28	6612.01
437.46	6684.57
437.65	6801.60
437.84	6916.28
438.02	6766.49
438.21	6773.51
438.40	6871.81
438.58	6998.20
438.77	7178.42
438.96	7105.87
439.14	7201.83
439.33	7346.94
439.52	7323.54
439.70	7260.34
439.89	7295.45
440.08	7496.74
440.26	7506.10
440.45	7463.97
440.63	7466.31
440.82	7763.56
441.01	7700.36
441.19	7784.62
441.38	7658.23
441.57	7756.54
441.75	7880.58
441.94	8161.45
442.12	8018.68
442.31	8285.50
442.50	8175.49
442.68	8093.57
442.87	8241.03
443.05	8191.88
443.24	8461.04
443.43	8226.98
443.61	8243.37
443.80	8336.99
443.98	8133.36
444.17	7964.84
444.35	8446.99
444.54	8458.70
444.73	8365.07
444.91	8475.08
445.10	8428.27
445.28	8421.25
445.47	8470.40
445.65	8580.40
445.84	8397.84
446.02	8484.44
446.21	8599.13
446.39	8475.08
446.58	8805.10
446.77	8465.72
446.95	8334.65
447.14	8547.64
447.32	8629.56
447.51	8671.68
447.69	8463.38
447.88	8507.85
448.06	8549.98
448.25	8636.58
448.43	8622.53
448.62	8739.56
448.80	8383.80
448.99	8674.03
449.17	9020.42
449.36	8891.70
449.54	8980.64
449.73	9238.09
449.91	9284.91
450.10	9034.47
450.28	9114.05
450.46	9114.05
450.65	9151.49
450.83	9322.35
451.02	9163.20
451.20	9214.69
451.39	9310.65
451.57	9245.12
451.76	9160.86
451.94	9210.01
452.13	9284.91
452.31	9383.21
452.49	9221.71
452.68	9465.13
452.86	9556.41
453.05	9598.54
453.23	9635.99
453.42	9392.57
453.60	9675.77
453.78	9708.54
453.97	9455.76
454.15	9589.17
454.34	9624.28
454.52	9844.29
454.70	9851.31
454.89	9748.33
455.07	9724.93
455.26	9863.02
455.44	10242.18
455.62	10064.30
455.81	9851.31
455.99	10487.94
456.17	10270.27
456.36	10083.03
456.54	10134.52
456.73	10171.97
456.91	10544.11
457.09	10696.25
457.28	10836.68
457.46	10572.20
457.64	10682.20
457.83	10490.28
458.01	10651.78
458.19	10759.44
458.38	10602.63
458.56	10754.76
458.74	11002.86
458.93	10890.51
459.11	10721.99
459.29	10630.71
459.48	10621.35
459.66	11049.67
459.84	10942.00
460.03	11304.79
460.21	11171.38
460.39	11222.87
460.57	11150.31
460.76	11353.94
460.94	11363.30
461.12	11356.28
461.31	11239.25
461.49	11206.48
461.67	11349.26
461.85	11339.90
462.04	11477.99
462.22	11506.07
462.40	11597.35
462.59	11733.11
462.77	11639.48
462.95	11831.41
463.13	11894.60
463.32	11899.28
463.50	11819.71
463.68	11927.37
463.86	12046.74
464.05	11726.08
464.23	11908.65
464.41	12229.30
464.59	11964.82
464.78	12430.59
464.96	12088.87
465.14	11782.26
465.32	12203.55
465.50	12208.23
465.69	12248.02
465.87	12114.61
466.05	12290.15
466.23	12231.64
466.41	12432.93
466.60	12765.28
466.78	12259.73
466.96	12503.14
467.14	12566.34
467.32	12446.97
467.51	12657.62
467.69	12493.78
467.87	12568.68
468.05	12688.04
468.23	12442.29
468.41	12769.96
468.60	12669.32
468.78	12875.29
468.96	12938.48
469.14	12957.21
469.32	13071.89
469.50	12746.56
469.69	13212.32
469.87	13249.77
470.05	13345.73
470.23	13362.12
470.41	13453.40
470.59	13495.53
470.77	13369.14
470.95	13371.48
471.14	13612.56
471.32	13217.01
471.50	13556.38
471.68	13617.24
471.86	13884.06
472.04	14083.00
472.22	14450.47
472.40	13736.60
472.58	14052.58
472.77	14092.37
472.95	14272.59
473.13	14750.06
473.31	14150.88
473.49	14101.73
473.67	14452.81
473.85	14335.78
474.03	14644.73
474.21	14817.93
474.39	14822.61
474.57	14654.09
474.75	15108.16
474.93	15192.42
475.12	15272.00
475.30	15545.84
475.48	15353.91
475.66	15304.76
475.84	15103.48
476.02	15503.71
476.20	15442.85
476.38	16060.76
476.56	16353.32
476.74	16226.93
476.92	16035.01
477.10	16077.14
477.28	16566.31
477.46	16409.50
477.64	16491.41
477.82	16711.42
478.00	17064.85
478.18	17003.99
478.36	17144.42
478.54	17373.80
478.72	17390.18
478.90	17453.37
479.08	17582.10
479.26	18160.22
479.44	17797.43
479.62	17994.04
479.80	18295.97
479.98	18445.76
480.16	18813.23
480.34	18738.33
480.52	18979.40
480.70	18768.76
480.88	18714.92
481.06	18850.67
481.24	19129.20
481.41	19391.34
481.59	19356.23
481.77	19728.38
481.95	19845.40
482.13	20084.14
482.31	19840.72
482.49	20390.75
482.67	20229.25
482.85	20685.65
483.03	21095.25
483.21	20828.43
483.39	21181.85
483.57	20821.41
483.74	21380.79
483.92	21631.23
484.10	21799.75
484.28	22073.59
484.46	22267.86
484.64	22237.43
484.82	22394.25
485.00	22532.34
485.18	23049.60
485.35	23260.24
485.53	23171.30
485.71	23236.84
485.89	23711.97
486.07	23218.11
486.25	23576.22
486.43	24041.98
486.61	24238.59
486.78	24020.92
486.96	24271.36
487.14	24893.94
487.32	24594.35
487.50	25380.77
487.68	25511.84
487.85	25628.87
488.03	25914.41
488.21	26157.83
488.39	26115.70
488.57	26340.39
488.75	26352.09
488.92	26892.76
489.10	26857.65
489.28	27138.51
489.46	27370.22
489.64	27342.14
489.81	28128.56
489.99	27901.53
490.17	28041.96
490.35	28683.27
490.53	28723.05
490.70	28645.82
490.88	28552.20
491.06	29163.08
491.24	29263.72
491.41	29252.02
491.59	29827.79
491.77	29577.35
491.95	29722.46
492.13	30235.04
492.30	30448.03
492.48	30216.32
492.66	30953.58
492.84	30792.09
493.01	31124.44
493.19	31386.58
493.37	31538.72
493.54	31592.55
493.72	32077.04
493.90	31960.02
494.08	32053.64
494.25	32451.53
494.43	32280.67
494.61	32783.88
494.79	32854.10
494.96	32638.77
495.14	33486.04
495.32	33818.40
495.49	33497.75
495.67	33954.15
495.85	33799.68
496.02	33846.49
496.20	34082.88
496.38	34424.60
496.55	34101.61
496.73	35255.49
496.91	34946.54
497.09	35051.86
497.26	35292.94
497.44	35440.39
497.62	35641.68
497.79	36128.51
497.97	35758.70
498.14	36229.15
498.32	36699.60
498.50	36669.17
498.67	37214.52
498.85	37130.26
499.03	37123.24
499.20	37163.03
499.38	37392.40
499.56	37305.80
499.73	37598.37
499.91	38005.62
500.08	37916.68
500.26	37848.80
500.44	38113.28
500.61	38263.08
500.79	38513.52
500.97	38749.91
501.14	39175.89
501.32	38696.08
501.49	38983.96
501.67	38976.94
501.84	39653.36
502.02	39119.71
502.20	39260.15
502.37	40016.14
502.55	39990.39
502.72	39737.62
502.90	40030.18
503.07	39725.91
503.25	40390.62
503.43	40542.76
503.60	40580.21
503.78	40842.35
503.95	40793.20
504.13	40788.52
504.30	40779.15
504.48	41254.28
504.65	41773.88
504.83	41387.69
505.01	41900.27
505.18	41612.38
505.36	42253.69
505.53	41675.58
505.71	42024.32
505.88	42560.30
506.06	42188.16
506.23	42763.93
506.41	42375.40
506.58	42885.64
506.76	42562.64
506.93	42981.60
507.11	42953.51
507.28	43215.65
507.46	43122.03
507.63	43463.75
507.81	43763.34
507.98	42990.96
508.16	43878.02
508.33	43714.19
508.50	44025.48
508.68	44088.67
508.85	44275.91
509.03	44086.33
509.20	44664.44
509.38	44856.37
509.55	45059.99
509.73	44729.98
509.90	45254.26
510.08	44739.34
510.25	45001.48
510.42	45682.58
510.60	45591.30
510.77	45757.47
510.95	45867.48
511.12	45673.21
511.30	45668.53
511.47	46024.29
511.64	46244.30
511.82	46216.22
511.99	46183.45
512.17	46810.71
512.34	46281.75
512.51	46438.57
512.69	46850.50
512.86	46871.57
513.04	46850.50
513.21	47068.17
513.38	47363.08
513.56	47400.53
513.73	47466.06
513.90	47643.94
514.08	47540.96
514.25	47618.20
514.43	48048.86
514.60	47814.80
514.77	47882.68
514.95	48058.22
515.12	47917.79
515.29	48065.24
515.47	48568.46
515.64	48715.91
515.81	48458.45
515.99	48690.16
516.16	49031.88
516.33	48891.45
516.51	49230.83
516.68	48978.05
516.85	48809.53
517.03	49497.65
517.20	49514.03
517.37	49230.83
517.54	49675.53
517.72	49495.31
517.89	49659.15
518.06	49694.25
518.24	49822.98
518.41	49296.36
518.58	49656.81
518.75	49471.90
518.93	50040.65
519.10	49886.18
519.27	50288.75
519.45	50138.96
519.62	50251.30
519.79	50408.12
519.96	50216.19
520.14	50696.00
520.31	50309.82
520.48	51035.38
520.65	50759.20
520.83	51077.51
521.00	50717.07
521.17	51100.92
521.34	50995.59
521.52	51185.18
521.69	51004.95
521.86	51452.00
522.03	51367.74
522.20	51882.66
522.38	51728.18
522.55	51845.21
522.72	51938.83
522.89	51557.32
523.07	52203.31
523.24	52034.79
523.41	51931.81
523.58	52002.02
523.75	52123.73
523.92	52069.90
524.10	52203.31
524.27	52360.12
524.44	52535.66
524.61	52493.54
524.78	52589.50
524.96	52484.17
525.13	52491.19
525.30	52893.77
525.47	52753.33
525.64	52788.44
525.81	53167.61
525.98	53153.57
526.16	52846.96
526.33	52992.07
526.50	53389.96
526.67	53378.26
526.84	53160.59
527.01	52996.75
527.18	53155.91
527.36	53214.42
527.53	53336.13
527.70	53645.08
527.87	53771.47
528.04	53654.44
528.21	54052.33
528.38	53333.79
528.55	53932.96
528.72	53701.25
528.89	53825.30
529.07	53759.76
529.24	54143.61
529.41	53719.98
529.58	54134.25
529.75	53820.62
529.92	54171.70
530.09	54064.03
530.26	54089.78
530.43	54192.76
530.60	54375.33
530.77	54199.79
530.94	54337.88
531.11	54532.14
531.28	54281.70
531.46	54475.97
531.63	54679.60
531.80	54585.97
531.97	54841.09
532.14	54855.14
532.31	54681.94
532.48	54946.42
532.65	54820.03
532.82	54927.69
532.99	55054.08
533.16	54934.71
533.33	55238.98
533.50	55363.03
533.67	55061.10
533.84	54759.17
534.01	55154.72
534.18	55119.62
534.35	55721.13
534.52	55306.86
534.69	55571.34
534.86	55690.71
535.03	55353.67
535.20	55468.36
535.37	55784.33
535.54	55508.14
535.71	55632.19
535.88	55758.58
536.05	55590.06
536.22	55943.48
536.38	55723.47
536.55	55849.86
536.72	55980.93
536.89	55833.48
537.06	55959.87
537.23	56090.94
537.40	55908.38
537.57	55908.38
537.74	56090.94
537.91	56322.65
538.08	56058.17
538.25	56135.41
538.42	56156.47
538.59	56437.34
538.75	56336.69
538.92	56287.54
539.09	56570.75
539.26	56378.82
539.43	56629.26
539.60	56526.28
539.77	56460.74
539.94	56521.60
540.11	56713.52
540.28	56746.29
540.44	56811.82
540.61	56851.61
540.78	56900.76
540.95	56891.40
541.12	56795.44
541.29	56694.80
541.46	56877.36
541.62	56835.23
541.79	56973.32
541.96	56856.29
542.13	56750.97
542.30	57113.75
542.47	57080.98
542.63	57104.39
542.80	57078.64
542.97	57399.30
543.14	57499.94
543.31	57361.85
543.48	57511.64
543.64	57701.23
543.81	57698.89
543.98	57631.01
544.15	57525.69
544.32	57631.01
544.48	57921.24
544.65	57528.03
544.82	57628.67
544.99	57703.57
545.16	57886.13
545.32	57616.97
545.49	57914.22
545.66	57972.73
545.83	57932.94
546.00	57965.71
546.16	58028.90
546.33	57874.43
546.50	57813.57
546.67	58073.37
546.83	57654.42
547.00	58075.71
547.17	58174.02
547.34	58134.23
547.50	58225.51
547.67	58405.73
547.84	58302.74
548.00	58475.94
548.17	58429.13
548.34	58312.11
548.51	58480.63
548.67	58485.31
548.84	58497.01
549.01	58225.51
549.18	58522.76
549.34	58522.76
549.51	58459.56
549.68	58482.97
549.84	58712.34
550.01	58644.46
550.18	58440.84
550.34	58717.02
550.51	58780.21
550.68	58864.47
550.84	58616.38
551.01	58890.22
551.18	58775.53
551.34	58812.98
551.51	58686.59
551.68	58693.61
551.84	58794.26
552.01	58761.49
552.18	58960.44
552.34	58822.34
552.51	58845.75
552.68	58934.69
552.84	58974.48
553.01	59182.79
553.18	59187.47
553.34	59192.15
553.51	58951.07
553.67	59061.08
553.84	59126.61
554.01	59082.14
554.17	59334.92
554.34	59253.00
554.51	59309.18
554.67	59236.62
554.84	59295.13
555.00	59241.30
555.17	59171.08
555.33	59203.85
555.50	59260.02
555.67	59316.20
555.83	59164.06
556.00	59360.67
556.16	59873.24
556.33	59629.83
556.50	59543.23
556.66	59781.96
556.83	59426.20
556.99	59735.15
557.16	59618.13
557.32	59519.82
557.49	59791.33
557.65	59592.38
557.82	59503.44
557.98	59669.62
558.15	59859.20
558.32	59791.33
558.48	59597.06
558.65	59781.96
558.81	59744.51
558.98	59674.30
559.14	59770.26
559.31	59983.25
559.47	59997.29
559.64	59990.27
559.80	59887.29
559.97	59955.16
560.13	59941.12
560.30	60016.02
560.46	59945.80
560.63	59994.95
560.79	60030.06
560.96	60027.72
561.12	60168.15
561.29	60144.75
561.45	60090.91
561.61	60133.04
561.78	60048.78
561.94	60165.81
562.11	60168.15
562.27	60196.24
562.44	60240.71
562.60	60308.58
562.77	60315.61
562.93	59952.82
563.10	60210.28
563.26	60086.23
563.42	60547.32
563.59	60156.45
563.75	60271.14
563.92	60142.41
564.08	60493.49
564.24	60292.20
564.41	60444.33
564.57	60434.97
564.74	60416.25
564.90	60484.12
565.07	60390.50
565.23	60486.46
565.39	60200.92
565.56	60474.76
565.72	60619.88
565.88	60432.63
566.05	60477.10
566.21	60603.49
566.38	60612.85
566.54	60500.51
566.70	60406.89
566.87	60575.40
567.03	60596.47
567.19	60638.60
567.36	60676.05
567.52	60285.18
567.68	60736.90
567.85	60647.96
568.01	60741.58
568.17	60582.43
568.34	60669.03
568.50	60722.86
568.66	60619.88
568.83	60626.90
568.99	60371.78
569.15	60722.86
569.32	60772.01
569.48	60603.49
569.64	60781.37
569.81	60816.48
569.97	60760.31
570.13	60692.43
570.30	60769.67
570.46	60636.26
570.62	60671.37
570.78	60755.63
570.95	60779.03
571.11	60966.27
571.27	60793.07
571.43	60774.35
571.60	61041.17
571.76	60912.44
571.92	60919.46
572.09	60935.85
572.25	60900.74
572.41	60783.71
572.57	60849.25
572.74	61085.64
572.90	60977.98
573.06	60945.21
573.22	60837.54
573.38	61071.60
573.55	61059.90
573.71	60996.70
573.87	61022.45
574.03	60767.33
574.20	60912.44
574.36	60830.52
574.52	61076.28
574.68	61073.94
574.84	61087.98
575.01	61106.71
575.17	60973.30
575.33	60821.16
575.49	60891.38
575.65	60952.23
575.82	61013.08
575.98	60975.64
576.14	61235.44
576.30	61270.54
576.46	61069.26
576.62	61130.11
576.79	61038.83
576.95	60856.27
577.11	61036.49
577.27	61137.13
577.43	61130.11
577.59	60919.46
577.75	61057.56
577.92	60863.29
578.08	60926.49
578.24	61104.37
578.40	61319.70
578.56	61389.91
578.72	61034.15
578.88	61233.10
579.04	61193.31
579.21	61073.94
579.37	61366.51
579.53	61275.22
579.69	60987.34
579.85	61073.94
580.01	60947.55
580.17	61034.15
580.33	61389.91
580.49	61183.94
580.65	61087.98
580.82	61064.58
580.98	61146.50
581.14	61205.01
581.30	61209.69
581.46	61298.63
581.62	61034.15
581.78	61216.71
581.94	61123.09
582.10	61275.22
582.26	60987.34
582.42	61066.92
582.58	61193.31
582.74	61249.48
582.90	61242.46
583.06	61258.84
583.22	61190.97
583.38	61186.28
583.54	61059.90
583.70	61235.44
583.86	61279.91
584.02	61263.52
584.18	61209.69
584.34	61162.88
584.50	61205.01
584.66	61087.98
584.82	61090.32
584.98	61563.11
585.14	61394.59
585.30	61069.26
585.46	61146.50
585.62	61282.25
585.78	61240.12
585.94	61181.60
586.10	61340.76
586.26	61083.30
586.42	61371.19
586.58	61506.94
586.74	61338.42
586.90	61172.24
587.06	61256.50
587.22	61469.49
587.38	61293.95
587.54	61460.13
587.70	61443.74
587.86	61296.29
588.02	61268.20
588.18	61422.68
588.34	61317.35
