SpectraSuite Data File
++++++++++++++++++++++++++++++++++++
Date: Fri Oct 25 10:48:11 EDT 2013
User: price-jones
Dark Spectrum Present: No
Reference Spectrum Present: No
Number of Sampled Component Spectra: 1
Spectrometers: USB2+H05261
Integration Time (usec): 100000 (USB2+H05261)
Spectra Averaged: 1 (USB2+H05261)
Boxcar Smoothing: 0 (USB2+H05261)
Correct for Electrical Dark: No (USB2+H05261)
Strobe/Lamp Enabled: No (USB2+H05261)
Correct for Detector Non-linearity: No (USB2+H05261)
Correct for Stray Light: No (USB2+H05261)
Number of Pixels in Processed Spectrum: 2048
>>>>>Begin Processed Spectral Data<<<<<
365.73	140.43
365.92	140.43
366.12	140.43
366.32	44.47
366.52	0.00
366.72	93.62
366.91	0.00
367.11	93.62
367.31	7.02
367.51	72.56
367.70	44.47
367.90	156.82
368.10	56.17
368.30	44.47
368.49	51.49
368.69	84.26
368.89	11.70
369.09	21.06
369.28	72.56
369.48	67.88
369.68	63.19
369.87	117.03
370.07	142.77
370.27	135.75
370.47	187.24
370.66	395.55
370.86	463.43
371.06	444.70
371.25	449.38
371.45	402.57
371.65	486.83
371.84	472.79
372.04	414.27
372.24	468.11
372.44	465.77
372.63	505.56
372.83	470.45
373.03	526.62
373.22	418.96
373.42	468.11
373.62	491.51
373.81	472.79
374.01	582.79
374.21	603.86
374.40	526.62
374.60	580.45
374.79	561.73
374.99	526.62
375.19	645.99
375.38	636.63
375.58	514.92
375.78	589.82
375.97	608.54
376.17	662.37
376.37	503.22
376.56	575.77
376.76	575.77
376.95	580.45
377.15	610.88
377.35	592.16
377.54	636.63
377.74	592.16
377.93	617.90
378.13	634.29
378.33	571.09
378.52	653.01
378.72	608.54
378.91	629.60
379.11	589.82
379.31	634.29
379.50	631.94
379.70	643.65
379.89	699.82
380.09	615.56
380.28	627.26
380.48	671.73
380.68	784.08
380.87	610.88
381.07	662.37
381.26	732.59
381.46	727.91
381.65	643.65
381.85	685.78
382.04	627.26
382.24	634.29
382.43	702.16
382.63	667.05
382.83	678.76
383.02	725.57
383.22	723.23
383.41	697.48
383.61	704.50
383.80	688.12
384.00	620.24
384.19	807.48
384.39	751.31
384.58	805.14
384.78	748.97
384.97	760.67
385.17	777.06
385.36	805.14
385.56	746.63
385.75	685.78
385.95	835.57
386.14	791.10
386.34	793.44
386.53	858.98
386.72	779.40
386.92	830.89
387.11	814.51
387.31	882.38
387.50	861.32
387.70	779.40
387.89	821.53
388.09	887.06
388.28	770.04
388.48	744.29
388.67	901.11
388.86	929.19
389.06	926.85
389.25	917.49
389.45	884.72
389.64	889.40
389.84	947.92
390.03	931.53
390.22	936.21
390.42	987.71
390.61	854.30
390.81	856.64
391.00	1022.81
391.19	1036.86
391.39	987.71
391.58	1078.99
391.78	952.60
391.97	936.21
392.16	901.11
392.36	1053.24
392.55	1025.15
392.75	898.77
392.94	950.26
393.13	1006.43
393.33	971.32
393.52	971.32
393.71	1027.50
393.91	1088.35
394.10	1006.43
394.29	1100.05
394.49	1006.43
394.68	1102.39
394.88	1071.97
395.07	1184.31
395.26	1249.85
395.46	1083.67
395.65	1104.73
395.84	1100.05
396.04	1263.89
396.23	1107.07
396.42	1090.69
396.62	1151.54
396.81	1135.16
397.00	1179.63
397.19	1132.82
397.39	1203.04
397.58	1233.46
397.77	1160.91
397.97	1273.25
398.16	1217.08
398.35	1338.79
398.55	1343.47
398.74	1409.00
398.93	1348.15
399.12	1273.25
399.32	1291.98
399.51	1289.64
399.70	1394.96
399.90	1359.85
400.09	1324.74
400.28	1411.34
400.47	1352.83
400.67	1390.28
400.86	1483.90
401.05	1373.89
401.24	1479.22
401.44	1472.20
401.63	1561.14
401.82	1451.13
402.01	1504.96
402.21	1535.39
402.40	1591.56
402.59	1542.41
402.78	1540.07
402.97	1589.22
403.17	1528.37
403.36	1547.09
403.55	1593.90
403.74	1715.61
403.93	1734.34
404.13	1734.34
404.32	1614.97
404.51	1593.90
404.70	1715.61
404.89	1638.38
405.09	1666.46
405.28	1750.72
405.47	1645.40
405.66	1715.61
405.85	1804.55
406.05	1746.04
406.24	1685.19
406.43	1769.44
406.62	2036.27
406.81	1926.26
407.00	1806.89
407.20	1842.00
407.39	1860.73
407.58	1834.98
407.77	1863.07
407.96	1888.81
408.15	2031.58
408.34	2001.16
408.54	1998.82
408.73	1935.62
408.92	2019.88
409.11	2040.95
409.30	2033.93
409.49	1952.01
409.68	1952.01
409.87	1984.77
410.07	2136.91
410.26	2076.06
410.45	2097.12
410.64	2176.70
410.83	2204.78
411.02	2101.80
411.21	2253.94
411.40	2232.87
411.59	2256.28
411.78	2230.53
411.98	2263.30
412.17	2406.07
412.36	2298.41
412.55	2403.73
412.74	2354.58
412.93	2457.56
413.12	2490.33
413.31	2544.16
413.50	2445.86
413.69	2562.89
413.88	2612.04
414.07	2576.93
414.26	2633.10
414.45	2663.53
414.64	2722.04
414.83	2612.04
415.02	2670.55
415.22	2745.45
415.41	2752.47
415.60	2785.24
415.79	2808.64
415.98	2871.84
416.17	2822.69
416.36	2743.11
416.55	2775.88
416.74	2916.31
416.93	2963.12
417.12	2944.39
417.31	2892.90
417.50	2998.23
417.69	3105.89
417.88	3110.57
418.07	3110.57
418.26	3117.59
418.45	3096.53
418.64	3143.34
418.83	3187.81
419.02	3157.38
419.21	3218.24
419.39	3316.54
419.58	3234.62
419.77	3105.89
419.96	3325.90
420.15	3337.60
420.34	3286.11
420.53	3368.03
420.72	3400.80
420.91	3562.30
421.10	3396.12
421.29	3433.57
421.48	3342.28
421.67	3494.42
421.86	3456.97
422.05	3300.16
422.24	3377.39
422.43	3297.81
422.61	3342.28
422.80	3475.70
422.99	3445.27
423.18	3571.66
423.37	3669.96
423.56	3574.00
423.75	3391.44
423.94	3564.64
424.13	3330.58
424.32	3440.59
424.50	3597.40
424.69	3599.74
424.88	3604.42
425.07	3442.93
425.26	3513.14
425.45	3557.61
425.64	3541.23
425.83	3569.32
426.01	3632.51
426.20	3613.79
426.39	3648.90
426.58	3508.46
426.77	3531.87
426.96	3660.60
427.15	3618.47
427.33	3796.35
427.52	3716.77
427.71	3742.52
427.90	3686.34
428.09	3749.54
428.28	3812.73
428.46	3777.62
428.65	3756.56
428.84	3866.56
429.03	4084.23
429.22	3789.33
429.40	3763.58
429.59	3847.84
429.78	3634.85
429.97	3592.72
430.16	3847.84
430.34	3754.22
430.53	3904.01
430.72	3941.46
430.91	3915.72
431.10	4011.68
431.28	4067.85
431.47	4278.50
431.66	4060.83
431.85	4030.40
432.03	4208.28
432.22	4231.69
432.41	4252.75
432.60	4255.09
432.79	4325.31
432.97	4308.93
433.16	4133.39
433.35	4250.41
433.54	4432.97
433.72	4198.92
433.91	4231.69
434.10	4365.10
434.28	4369.78
434.47	4344.03
434.66	4411.91
434.85	4444.68
435.03	4418.93
435.22	4369.78
435.41	4685.75
435.59	4589.79
435.78	4505.53
435.97	4575.75
436.16	4620.22
436.34	4554.68
436.53	4496.17
436.72	4697.46
436.90	4545.32
437.09	4613.20
437.28	4601.49
437.46	4725.54
437.65	4645.96
437.84	4812.14
438.02	4624.90
438.21	4671.71
438.40	4613.20
438.58	4737.24
438.77	4950.23
438.96	4856.61
439.14	4990.02
439.33	4898.74
439.52	5146.84
439.70	5109.39
439.89	5078.96
440.08	5273.23
440.26	5144.50
440.45	5146.84
440.63	5231.10
440.82	5369.19
441.01	5359.83
441.19	5366.85
441.38	5408.98
441.57	5542.39
441.75	5640.69
441.94	5544.73
442.12	5495.58
442.31	5586.86
442.50	5668.78
442.68	5614.95
442.87	5706.23
443.05	5750.70
443.24	5954.32
443.43	5858.36
443.61	5844.32
443.80	6033.90
443.98	5643.03
444.17	5647.71
444.35	5806.87
444.54	5893.47
444.73	5872.40
444.91	5680.48
445.10	5813.89
445.28	5827.93
445.47	5675.80
445.65	5717.93
445.84	5879.43
446.02	5863.04
446.21	5898.15
446.39	5944.96
446.58	6047.94
446.77	5942.62
446.95	5895.81
447.14	5879.43
447.32	5923.90
447.51	6092.41
447.69	5980.07
447.88	5984.75
448.06	5977.73
448.25	5944.96
448.43	6225.82
448.62	6139.23
448.80	6003.47
448.99	6012.84
449.17	6139.23
449.36	6085.39
449.54	6342.85
449.73	6270.30
449.91	6328.81
450.10	6506.69
450.28	6436.47
450.46	6558.18
450.65	6471.58
450.83	6502.01
451.02	6413.07
451.20	6487.96
451.39	6319.45
451.57	6431.79
451.76	6370.94
451.94	6328.81
452.13	6581.59
452.31	6284.34
452.49	6314.77
452.68	6544.14
452.86	6417.75
453.05	6576.91
453.23	6668.19
453.42	6527.75
453.60	6518.39
453.78	6656.48
453.97	6600.31
454.15	6677.55
454.34	6588.61
454.52	6696.27
454.70	6747.76
454.89	6923.30
455.07	6808.62
455.26	6946.71
455.44	6918.62
455.62	6951.39
455.81	6918.62
455.99	6984.16
456.17	7087.14
456.36	7080.12
456.54	7192.47
456.73	7344.60
456.91	7276.73
457.09	7152.68
457.28	7475.67
457.46	7021.61
457.64	7358.64
457.83	7265.02
458.01	7190.13
458.19	7489.71
458.38	7295.45
458.56	7396.09
458.74	7480.35
458.93	7468.65
459.11	7307.15
459.29	7494.40
459.48	7485.03
459.66	7463.97
459.84	7634.83
460.03	7751.85
460.21	7651.21
460.39	7590.36
460.57	7524.82
460.76	7864.20
460.94	7803.35
461.12	7786.96
461.31	7758.88
461.49	7817.39
461.67	7705.04
461.85	7868.88
462.04	7686.32
462.22	8273.79
462.40	7997.61
462.59	8079.53
462.77	7873.56
462.95	8128.68
463.13	8051.44
463.32	8210.60
463.50	8002.29
463.68	8107.62
463.86	8266.77
464.05	8308.90
464.23	8070.17
464.41	8400.18
464.59	8163.79
464.78	8404.86
464.96	8189.53
465.14	8182.51
465.32	8184.85
465.50	8346.35
465.69	8414.23
465.87	8418.91
466.05	8390.82
466.23	8493.80
466.41	8278.47
466.60	8615.51
466.78	8271.45
466.96	8435.29
467.14	8379.12
467.32	8374.44
467.51	8631.90
467.69	8271.45
467.87	8592.11
468.05	8659.98
468.23	8379.12
468.41	8524.23
468.60	8933.82
468.78	8730.20
468.96	8557.00
469.14	8868.29
469.32	8854.25
469.50	8849.57
469.69	8746.58
469.87	8884.67
470.05	9022.77
470.23	8966.59
470.41	8912.76
470.59	9188.94
470.77	8908.08
470.95	8805.10
471.14	9067.24
471.32	9081.28
471.50	9320.01
471.68	9394.91
471.86	9357.46
472.04	9350.44
472.22	9673.43
472.40	9130.43
472.58	9474.49
472.77	9369.16
472.95	9731.95
473.13	9886.42
473.31	9781.10
473.49	9415.98
473.67	9572.79
473.85	9652.37
474.03	10001.11
474.21	9949.62
474.39	10064.30
474.57	9994.09
474.75	10029.20
474.93	10197.71
475.12	10111.11
475.30	10307.72
475.48	10258.57
475.66	10483.26
475.84	10083.03
476.02	10609.65
476.20	10555.82
476.38	10422.41
476.56	10850.72
476.74	10595.61
476.92	10530.07
477.10	10843.70
477.28	11143.29
477.46	11028.60
477.64	11056.69
477.82	11138.61
478.00	11557.57
478.18	11634.80
478.36	11337.56
478.54	11798.64
478.72	11325.85
478.90	11705.02
479.08	11913.33
479.26	11742.47
479.44	11990.56
479.62	11971.84
479.80	12119.29
479.98	12236.32
480.16	12517.18
480.34	12175.47
480.52	12554.63
480.70	12517.18
480.88	12306.54
481.06	12615.49
481.24	12376.75
481.41	12910.40
481.59	13064.87
481.77	13224.03
481.95	13174.88
482.13	13319.99
482.31	13266.16
482.49	13540.00
482.67	13366.80
482.85	13860.65
483.03	13834.91
483.21	13965.98
483.39	14176.62
483.57	14045.55
483.74	14197.69
483.92	14382.59
484.10	13858.31
484.28	14429.40
484.46	14736.01
484.64	14853.04
484.82	14728.99
485.00	14878.79
485.18	15257.95
485.35	15185.40
485.53	14909.21
485.71	15002.83
485.89	15566.90
486.07	15227.53
486.25	15325.83
486.43	15587.97
486.61	15922.66
486.78	15939.05
486.96	16067.78
487.14	16507.80
487.32	16152.04
487.50	16451.63
487.68	16580.36
487.85	16947.82
488.03	17174.85
488.21	17256.77
488.39	17259.11
488.57	17259.11
488.75	17357.41
488.92	17596.15
489.10	17685.09
489.28	17795.09
489.46	17797.43
489.64	17771.69
489.81	18101.70
489.99	18302.99
490.17	18347.46
490.35	18881.10
490.53	18576.83
490.70	18700.88
490.88	18724.29
491.06	19192.39
491.24	18960.68
491.41	19021.53
491.59	19096.43
491.77	19276.65
491.95	19374.95
492.13	19730.72
492.30	19791.57
492.48	19829.02
492.66	20313.51
492.84	19999.88
493.01	20198.82
493.19	20240.95
493.37	20585.01
493.54	20732.47
493.72	20915.03
493.90	20699.70
494.08	20695.02
494.25	21200.57
494.43	21598.46
494.61	21556.33
494.79	21413.56
494.96	21448.67
495.14	21577.40
495.32	21935.50
495.49	21757.62
495.67	22026.78
495.85	22113.38
496.02	22312.33
496.20	22455.10
496.38	22569.79
496.55	22712.56
496.73	23201.73
496.91	22803.84
497.09	23199.39
497.26	22714.90
497.44	23035.55
497.62	23105.77
497.79	23367.91
497.97	23466.21
498.14	23651.11
498.32	23702.61
498.50	23775.16
498.67	23845.38
498.85	23880.49
499.03	24416.47
499.20	24147.31
499.38	24741.80
499.56	24236.25
499.73	24257.31
499.91	24421.15
500.08	24847.13
500.26	24669.25
500.44	24795.64
500.61	24826.06
500.79	24615.41
500.97	24809.68
501.14	25277.79
501.32	25273.10
501.49	25221.61
501.67	25214.59
501.84	25539.93
502.02	25502.48
502.20	25734.19
502.37	25986.97
502.55	25905.05
502.72	25825.47
502.90	25921.43
503.07	25649.93
503.25	26485.50
503.43	26218.68
503.60	26473.80
503.78	26637.64
503.95	26412.95
504.13	26757.00
504.30	26506.57
504.48	26712.53
504.65	26544.02
504.83	26918.50
505.01	27234.47
505.18	27197.02
505.36	27281.28
505.53	27365.54
505.71	27421.72
505.88	27913.23
506.06	27271.92
506.23	27625.34
506.41	27138.51
506.58	27707.26
506.76	27754.07
506.93	27910.89
507.11	27695.56
507.28	28486.66
507.46	27751.73
507.63	27992.81
507.81	28177.71
507.98	27735.35
508.16	28465.60
508.33	28608.37
508.50	28297.08
508.68	28725.39
508.85	28898.59
509.03	28397.72
509.20	28758.16
509.38	29184.14
509.55	28936.04
509.73	29441.60
509.90	29083.50
510.08	29106.90
510.25	29340.96
510.42	29123.29
510.60	29830.13
510.77	29507.13
510.95	29923.75
511.12	29743.53
511.30	30005.67
511.47	30286.53
511.64	30228.02
511.82	30096.95
511.99	29998.65
512.17	30405.90
512.34	30211.64
512.51	30525.27
512.69	30602.50
512.86	31105.72
513.04	30988.69
513.21	30834.22
513.38	30649.32
513.56	30852.94
513.73	30754.64
513.90	30869.33
514.08	30918.48
514.25	31000.40
514.43	30806.13
514.60	31337.43
514.77	30866.98
514.95	31314.03
515.12	31604.25
515.29	31276.58
515.47	31793.84
515.64	31655.75
515.81	31992.78
515.99	31756.39
516.16	31618.30
516.33	31754.05
516.51	31758.73
516.68	31704.90
516.85	31700.22
517.03	32041.93
517.20	32203.43
517.37	32222.16
517.54	32797.93
517.72	32088.74
517.89	31950.65
518.06	32435.14
518.24	32414.08
518.41	32563.87
518.58	32460.89
518.75	32575.58
518.93	32517.06
519.10	32802.61
519.27	32865.80
519.45	33216.88
519.62	33242.63
519.79	33188.80
519.96	33141.99
520.14	33738.82
520.31	33338.59
520.48	33247.31
520.65	33237.95
520.83	33893.30
521.00	33736.48
521.17	33745.84
521.34	34017.35
521.52	33713.08
521.69	33979.90
521.86	33869.89
522.03	34597.80
522.20	34134.37
522.38	34359.06
522.55	34412.90
522.72	34452.69
522.89	33993.94
523.07	34415.24
523.24	34625.89
523.41	34628.23
523.58	34726.53
523.75	35131.44
523.92	35002.71
524.10	35103.35
524.27	35101.01
524.44	35084.63
524.61	35283.58
524.78	35672.10
524.96	35119.74
525.13	35304.64
525.30	35749.34
525.47	35758.70
525.64	35358.47
525.81	35374.86
525.98	35534.01
526.16	35353.79
526.33	35749.34
526.50	35730.62
526.67	35302.30
526.84	35653.38
527.01	35604.23
527.18	35700.19
527.36	36095.74
527.53	36098.08
527.70	36521.72
527.87	36388.31
528.04	36287.67
528.21	36189.36
528.38	35920.20
528.55	36584.91
528.72	36163.62
528.89	36744.07
529.07	36545.12
529.24	36783.86
529.41	36961.74
529.58	36821.31
529.75	36968.76
529.92	37015.57
530.09	37366.65
530.26	37097.49
530.43	37228.56
530.60	36692.58
530.77	37251.97
530.94	37193.45
531.11	36957.06
531.28	37406.44
531.46	37305.80
531.63	37081.11
531.80	37251.97
531.97	36669.17
532.14	37406.44
532.31	37589.00
532.48	37715.39
532.65	37556.24
532.82	37439.21
532.99	37724.75
533.16	37586.66
533.33	37780.93
533.50	38230.31
533.67	38431.60
533.84	37886.25
534.01	38073.49
534.18	38234.99
534.35	38471.39
534.52	38050.09
534.69	38443.30
534.86	38110.94
535.03	38148.39
535.20	38532.24
535.37	38600.12
535.54	38883.32
535.71	38122.65
535.88	38410.53
536.05	38541.60
536.22	38377.76
536.38	38710.12
536.55	38731.18
536.72	38614.16
536.89	38637.56
537.06	38511.17
537.23	39030.77
537.40	38932.47
537.57	38857.57
537.74	39145.46
537.91	39461.43
538.08	39283.55
538.25	38974.60
538.42	38998.01
538.59	39356.11
538.75	38850.55
538.92	39192.27
539.09	39426.32
539.26	39524.63
539.43	39386.54
539.60	39466.11
539.77	39264.83
539.94	39594.84
540.11	39648.68
540.28	39353.77
540.44	39419.30
540.61	39679.10
540.78	39622.93
540.95	39196.95
541.12	39505.90
541.29	39386.54
541.46	39629.95
541.62	40067.63
541.79	40135.51
541.96	39634.63
542.13	39988.05
542.30	40278.28
542.47	40100.40
542.63	40046.57
542.80	40325.09
542.97	40858.73
543.14	40442.12
543.31	40458.50
543.48	40797.88
543.64	41095.13
543.81	40713.62
543.98	40659.79
544.15	40725.32
544.32	41137.26
544.48	41212.15
544.65	40673.83
544.82	40774.47
544.99	40868.09
545.16	41081.08
545.32	40697.24
545.49	41027.25
545.66	41060.02
545.83	41134.92
546.00	41511.74
546.16	41394.71
546.33	41261.30
546.50	40910.22
546.67	41308.11
546.83	40996.82
547.00	41584.30
547.17	41521.10
547.34	41378.33
547.50	41303.43
547.67	41897.93
547.84	41783.24
548.00	41832.39
548.17	41783.24
548.34	41425.14
548.51	41881.55
548.67	42024.32
548.84	41661.54
549.01	41748.14
549.18	41738.77
549.34	42073.47
549.51	42263.05
549.68	41631.11
549.84	42082.83
550.01	41923.68
550.18	41874.52
550.34	41734.09
550.51	42059.43
550.68	42085.17
550.84	41663.88
551.01	42370.72
551.18	42333.27
551.34	42124.96
551.51	42117.94
551.68	42885.64
551.84	42815.42
552.01	42270.08
552.18	42232.63
552.34	42061.77
552.51	42733.50
552.68	42394.12
552.84	42417.53
553.01	43166.50
553.18	42462.00
553.34	42752.23
553.51	42181.13
553.67	42707.76
553.84	43035.43
554.01	43138.41
554.17	43435.66
554.34	43026.07
554.51	43051.81
554.67	43201.61
554.84	43002.66
555.00	42792.01
555.17	42838.83
555.33	42768.61
555.50	42902.02
555.67	43005.00
555.83	42937.13
556.00	43126.71
556.16	43253.10
556.33	43470.77
556.50	43400.55
556.66	43185.22
556.83	43007.34
556.99	43365.45
557.16	43264.80
557.32	43173.52
557.49	43409.92
557.65	43175.86
557.82	42960.53
557.98	43716.53
558.15	43618.22
558.32	43335.02
558.48	43283.53
558.65	43599.50
558.81	43147.78
558.98	43325.66
559.14	43803.13
559.31	43423.96
559.47	43730.57
559.64	43854.62
559.80	44046.54
559.97	43697.80
560.13	43112.67
560.30	43360.76
560.46	43599.50
560.63	43353.74
560.79	43779.72
560.96	43880.36
561.12	43622.90
561.29	44156.55
561.45	43489.49
561.61	43866.32
561.78	44254.85
561.94	43765.68
562.11	43990.37
562.27	44264.21
562.44	43966.96
562.60	44062.93
562.77	43964.62
562.93	44074.63
563.10	44128.46
563.26	43536.30
563.42	44091.01
563.59	44002.07
563.75	43812.49
563.92	43714.19
564.08	44264.21
564.24	44133.14
564.41	44217.40
564.57	43908.45
564.74	43985.69
564.90	44217.40
565.07	44406.98
565.23	44100.37
565.39	44224.42
565.56	44502.95
565.72	44126.12
565.88	44156.55
566.05	44065.27
566.21	44240.81
566.38	43973.98
566.54	44252.51
566.70	44734.66
566.87	44254.85
567.03	44032.50
567.19	44601.25
567.36	44430.39
567.52	44093.35
567.68	44306.34
567.85	44622.31
568.01	44177.61
568.17	44116.76
568.34	44570.82
568.50	44086.33
568.66	43885.04
568.83	44121.44
568.99	44304.00
569.15	44465.50
569.32	43997.39
569.48	44615.29
569.64	44577.84
569.81	44605.93
569.97	44229.10
570.13	44467.84
570.30	44009.09
570.46	44484.22
570.62	44074.63
570.78	43641.63
570.95	44137.82
571.11	44655.08
571.27	44559.12
571.43	44257.19
571.60	44776.79
571.76	44718.28
571.92	44456.14
572.09	44470.18
572.25	44566.14
572.41	44399.96
572.57	44528.69
572.74	45057.65
572.90	44535.71
573.06	44858.71
573.22	45001.48
573.38	44545.08
573.55	44186.97
573.71	44685.51
573.87	44570.82
574.03	44411.67
574.20	44655.08
574.36	44224.42
574.52	44594.23
574.68	44837.64
574.84	44823.60
575.01	44641.04
575.17	44942.97
575.33	44189.31
575.49	44619.97
575.65	44879.77
575.82	44685.51
575.98	44823.60
576.14	44655.08
576.30	44388.26
576.46	44559.12
576.62	44940.63
576.79	44521.67
576.95	44612.95
577.11	44341.45
577.27	44533.37
577.43	44701.89
577.59	44638.70
577.75	44531.03
577.92	44409.32
578.08	44591.89
578.24	44081.65
578.40	44622.31
578.56	44634.02
578.72	44549.76
578.88	45022.54
579.04	44687.85
579.21	44601.25
579.37	44442.09
579.53	44671.46
579.69	44430.39
579.85	44584.86
580.01	44786.15
580.17	44858.71
580.33	44849.35
580.49	44718.28
580.65	44996.80
580.82	44973.39
580.98	44659.76
581.14	44437.41
581.30	44928.92
581.46	45116.17
581.62	45031.91
581.78	44858.71
581.94	45453.20
582.10	44847.00
582.26	45235.53
582.42	44701.89
582.58	45139.57
582.74	44432.73
582.90	44790.83
583.06	45081.06
583.22	45008.50
583.38	45446.18
583.54	44865.73
583.70	44795.51
583.86	44954.67
584.02	44320.38
584.18	45083.40
584.34	44746.36
584.50	45095.10
584.66	44715.93
584.82	44568.48
584.98	45258.94
585.14	45027.23
585.30	44870.41
585.46	44905.52
585.62	44683.17
585.78	44486.56
585.94	44137.82
586.10	44985.10
586.26	44849.35
586.42	44961.69
586.58	44872.75
586.74	45006.16
586.90	44608.27
587.06	44722.96
587.22	44832.96
587.38	44591.89
587.54	45272.98
587.70	45118.51
587.86	44954.67
588.02	44858.71
588.18	45247.24
588.34	44666.78
588.49	44205.70
588.65	44626.99
588.81	44336.77
588.97	44605.93
589.13	44573.16
589.29	45001.48
589.45	45170.00
589.61	44790.83
589.77	45368.94
589.93	45280.00
590.08	45148.93
590.24	45155.96
