SpectraSuite Data File
++++++++++++++++++++++++++++++++++++
Date: Fri Oct 25 11:22:51 EDT 2013
User: price-jones
Dark Spectrum Present: No
Reference Spectrum Present: No
Number of Sampled Component Spectra: 1
Spectrometers: USB2+H05261
Integration Time (usec): 100000 (USB2+H05261)
Spectra Averaged: 1 (USB2+H05261)
Boxcar Smoothing: 0 (USB2+H05261)
Correct for Electrical Dark: No (USB2+H05261)
Strobe/Lamp Enabled: No (USB2+H05261)
Correct for Detector Non-linearity: No (USB2+H05261)
Correct for Stray Light: No (USB2+H05261)
Number of Pixels in Processed Spectrum: 2048
>>>>>Begin Processed Spectral Data<<<<<
365.73	241.08
365.92	241.08
366.12	241.08
366.32	56.17
366.52	65.54
366.72	126.39
366.91	112.35
367.11	175.54
367.31	124.05
367.51	98.30
367.70	102.98
367.90	49.15
368.10	102.98
368.30	180.22
368.49	28.09
368.69	168.52
368.89	65.54
369.09	149.79
369.28	133.41
369.48	196.60
369.68	210.65
369.87	236.39
370.07	250.44
370.27	210.65
370.47	322.99
370.66	568.75
370.86	603.86
371.06	678.76
371.25	716.20
371.45	620.24
371.65	624.92
371.84	718.54
372.04	662.37
372.24	711.52
372.44	711.52
372.63	727.91
372.83	695.14
373.03	751.31
373.22	657.69
373.42	777.06
373.62	791.10
373.81	709.18
374.01	723.23
374.21	791.10
374.40	751.31
374.60	854.30
374.79	821.53
374.99	788.76
375.19	858.98
375.38	863.66
375.58	814.51
375.78	868.34
375.97	826.21
376.17	870.68
376.37	816.85
376.56	910.47
376.76	858.98
376.95	840.25
377.15	866.00
377.35	887.06
377.54	908.13
377.74	896.43
377.93	880.04
378.13	901.11
378.33	999.41
378.52	849.61
378.72	908.13
378.91	910.47
379.11	889.40
379.31	854.30
379.50	966.64
379.70	903.45
379.89	1050.90
380.09	1001.75
380.28	1064.94
380.48	1055.58
380.68	950.26
380.87	992.39
381.07	952.60
381.26	1053.24
381.46	1062.60
381.65	1081.33
381.85	968.98
382.04	959.62
382.24	1121.12
382.43	1020.47
382.63	1022.81
382.83	1055.58
383.02	1074.31
383.22	1151.54
383.41	1001.75
383.61	1088.35
383.80	1048.56
384.00	1165.59
384.19	1111.75
384.39	1081.33
384.58	1130.48
384.78	1167.93
384.97	1219.42
385.17	1128.14
385.36	1160.91
385.56	1219.42
385.75	1130.48
385.95	1196.01
386.14	1184.31
386.34	1210.06
386.53	1165.59
386.72	1184.31
386.92	1196.01
387.11	1198.35
387.31	1160.91
387.50	1291.98
387.70	1144.52
387.89	1254.53
388.09	1287.29
388.28	1306.02
388.48	1366.87
388.67	1397.30
388.86	1327.08
389.06	1371.55
389.25	1313.04
389.45	1341.13
389.64	1301.34
389.84	1385.60
390.03	1352.83
390.22	1376.24
390.42	1416.02
390.61	1390.28
390.81	1437.09
391.00	1310.70
391.19	1504.96
391.39	1446.45
391.58	1371.55
391.78	1528.37
391.97	1596.25
392.16	1357.51
392.36	1561.14
392.55	1460.49
392.75	1437.09
392.94	1511.99
393.13	1507.30
393.33	1495.60
393.52	1586.88
393.71	1570.50
393.91	1570.50
394.10	1554.12
394.29	1612.63
394.49	1528.37
394.68	1640.72
394.88	1530.71
395.07	1708.59
395.26	1633.69
395.46	1666.46
395.65	1736.68
395.84	1769.44
396.04	1774.13
396.23	1750.72
396.42	1739.02
396.62	1708.59
396.81	1839.66
397.00	1764.76
397.19	1802.21
397.39	1703.91
397.58	1757.74
397.77	1804.55
397.97	1907.54
398.16	2003.50
398.35	1893.49
398.55	1893.49
398.74	1893.49
398.93	1926.26
399.12	1863.07
399.32	1851.36
399.51	1895.83
399.70	1987.11
399.90	1916.90
400.09	2047.97
400.28	1968.39
400.47	1952.01
400.67	2141.59
400.86	2010.52
401.05	2132.23
401.24	2120.53
401.44	2167.34
401.63	2260.96
401.82	2057.33
402.01	2066.69
402.21	2155.63
402.40	2249.25
402.59	2106.48
402.78	2120.53
402.97	2282.02
403.17	2291.38
403.36	2221.17
403.55	2225.85
403.74	2303.09
403.93	2232.87
404.13	2300.75
404.32	2349.90
404.51	2338.20
404.70	2424.80
404.89	2370.96
405.09	2544.16
405.28	2382.67
405.47	2485.65
405.66	2487.99
405.85	2558.21
406.05	2516.08
406.24	2506.71
406.43	2530.12
406.62	2705.66
406.81	2621.40
407.00	2724.38
407.20	2527.78
407.39	2612.04
407.58	2612.04
407.77	2593.31
407.96	2658.85
408.15	2782.90
408.34	2719.70
408.54	2876.52
408.73	2785.24
408.92	2825.03
409.11	2836.73
409.30	2810.98
409.49	2913.97
409.68	2892.90
409.87	2855.45
410.07	3066.10
410.26	2904.60
410.45	2918.65
410.64	2972.48
410.83	3084.83
411.02	3035.67
411.21	3124.62
411.40	3094.19
411.59	3251.00
411.78	3260.37
411.98	3126.96
412.17	3258.03
412.36	3314.20
412.55	3412.50
412.74	3419.52
412.93	3353.99
413.12	3375.05
413.31	3562.30
413.50	3482.72
413.69	3499.10
413.88	3665.28
414.07	3602.08
414.26	3730.81
414.45	3557.61
414.64	3623.15
414.83	3789.33
415.02	3719.11
415.22	3838.48
415.41	3761.24
415.60	3803.37
415.79	3953.16
415.98	3887.63
416.17	4128.70
416.36	3892.31
416.55	3990.61
416.74	4063.17
416.93	4133.39
417.12	4131.05
417.31	4198.92
417.50	4138.07
417.69	4337.01
417.88	4250.41
418.07	4264.46
418.26	4358.08
418.45	4418.93
418.64	4479.79
418.83	4587.45
419.02	4468.08
419.21	4720.86
419.39	4500.85
419.58	4517.23
419.77	4383.82
419.96	4557.02
420.15	4533.62
420.34	4671.71
420.53	4629.58
420.72	4620.22
420.91	4699.80
421.10	4833.21
421.29	4910.44
421.48	4823.84
421.67	4767.67
421.86	4788.74
422.05	4985.34
422.24	4924.49
422.43	4905.76
422.61	4985.34
422.80	4903.42
422.99	4919.81
423.18	5034.49
423.37	5006.41
423.56	5149.18
423.75	4931.51
423.94	4816.82
424.13	4678.73
424.32	4760.65
424.50	5053.22
424.69	5242.80
424.88	5320.04
425.07	5004.07
425.26	5074.28
425.45	5032.15
425.64	4978.32
425.83	5008.75
426.01	5088.32
426.20	5111.73
426.39	5231.10
426.58	5078.96
426.77	5015.77
426.96	5275.57
427.15	4999.38
427.33	5219.39
427.52	5139.82
427.71	5331.74
427.90	5315.36
428.09	5303.65
428.28	5331.74
428.46	5231.10
428.65	5390.25
428.84	5584.52
429.03	5486.22
429.22	5315.36
429.40	5430.04
429.59	5488.56
429.78	5383.23
429.97	5184.29
430.16	5561.11
430.34	5643.03
430.53	5600.90
430.72	5781.12
430.91	5605.58
431.10	5621.97
431.28	5757.72
431.47	5760.06
431.66	5825.59
431.85	5813.89
432.03	5940.28
432.22	5963.68
432.41	5970.71
432.60	5891.13
432.79	6064.33
432.97	6204.76
433.16	5975.39
433.35	5959.00
433.54	6033.90
433.72	6118.16
433.91	6150.93
434.10	6160.29
434.28	6139.23
434.47	6380.30
434.66	6317.11
434.85	6200.08
435.03	6438.81
435.22	6267.95
435.41	6555.84
435.59	6429.45
435.78	6476.26
435.97	6562.86
436.16	6516.05
436.34	6553.50
436.53	6539.46
436.72	6612.01
436.90	6413.07
437.09	6607.33
437.28	6637.76
437.46	6829.68
437.65	6562.86
437.84	6878.83
438.02	6761.81
438.21	6785.21
438.40	6691.59
438.58	6906.92
438.77	6984.16
438.96	7096.50
439.14	7040.33
439.33	7363.33
439.52	7250.98
439.70	7272.04
439.89	7468.65
440.08	7414.82
440.26	7487.37
440.45	7478.01
440.63	7499.08
440.82	7695.68
441.01	7571.63
441.19	7782.28
441.38	7606.74
441.57	7793.98
441.75	7758.88
441.94	8079.53
442.12	8018.68
442.31	8119.32
442.50	7948.46
442.68	8105.28
442.87	8009.31
443.05	8170.81
443.24	8180.17
443.43	8292.52
443.61	8318.26
443.80	8526.57
443.98	8124.00
444.17	7906.33
444.35	8322.94
444.54	8175.49
444.73	8341.67
444.91	8273.79
445.10	8196.56
445.28	8512.53
445.47	8411.89
445.65	8528.91
445.84	8610.83
446.02	8498.49
446.21	8458.70
446.39	8306.56
446.58	8615.51
446.77	8512.53
446.95	8280.82
447.14	8376.78
447.32	8636.58
447.51	8601.47
447.69	8512.53
447.88	8557.00
448.06	8435.29
448.25	8528.91
448.43	8664.66
448.62	8575.72
448.80	8603.81
448.99	8713.81
449.17	8896.38
449.36	8709.13
449.54	8781.69
449.73	9163.20
449.91	9366.82
450.10	8919.78
450.28	9193.62
450.46	9149.15
450.65	9231.07
450.83	9118.73
451.02	9221.71
451.20	9224.05
451.39	9329.38
451.57	9195.96
451.76	9022.77
451.94	9324.69
452.13	9336.40
452.31	9502.58
452.49	9210.01
452.68	9556.41
452.86	9320.01
453.05	9331.72
453.23	9509.60
453.42	9401.93
453.60	9617.26
453.78	9736.63
453.97	9373.85
454.15	9626.62
454.34	9441.72
454.52	9839.61
454.70	9596.20
454.89	9650.03
455.07	9886.42
455.26	9771.74
455.44	9982.38
455.62	9947.28
455.81	10125.16
455.99	9954.30
456.17	10141.54
456.36	10078.35
456.54	10384.96
456.73	10277.29
456.91	10359.21
457.09	10544.11
457.28	10537.09
457.46	10492.62
457.64	10588.58
457.83	10661.14
458.01	10492.62
458.19	10686.89
458.38	10527.73
458.56	10832.00
458.74	10537.09
458.93	10806.25
459.11	10892.85
459.29	10782.85
459.48	10810.93
459.66	10972.43
459.84	10970.09
460.03	11164.36
460.21	11138.61
460.39	11068.39
460.57	11166.70
460.76	11154.99
460.94	11255.64
461.12	11353.94
461.31	11183.08
461.49	11176.06
461.67	11225.21
461.85	11335.21
462.04	11382.03
462.22	11967.16
462.40	11655.87
462.59	11627.78
462.77	11536.50
462.95	11442.88
463.13	11660.55
463.32	11686.29
463.50	11777.58
463.68	12072.48
463.86	11964.82
464.05	11918.01
464.23	11580.97
464.41	12065.46
464.59	11784.60
464.78	12290.15
464.96	11866.52
465.14	12116.95
465.32	12196.53
465.50	12196.53
465.69	12191.85
465.87	12233.98
466.05	12093.55
466.23	12056.10
466.41	12266.75
466.60	12634.21
466.78	12037.38
466.96	12222.28
467.14	12461.01
467.32	12283.13
467.51	12587.40
467.69	12226.96
467.87	12423.56
468.05	12720.81
468.23	12383.77
468.41	12533.57
468.60	12666.98
468.78	12765.28
468.96	12746.56
469.14	12800.39
469.32	13224.03
469.50	12608.47
469.69	12861.24
469.87	13125.72
470.05	13076.57
470.23	13165.51
470.41	13128.06
470.59	13334.03
470.77	13331.69
470.95	13451.06
471.14	13495.53
471.32	13013.38
471.50	13483.83
471.68	13701.50
471.86	13647.66
472.04	13570.43
472.22	14099.39
472.40	13942.57
472.58	13973.00
472.77	14099.39
472.95	14527.71
473.13	14656.43
473.31	14265.57
473.49	14265.57
473.67	14335.78
473.85	14518.34
474.03	14736.01
474.21	14733.67
474.39	14785.16
474.57	14782.82
474.75	14932.62
474.93	14958.36
475.12	15021.56
475.30	15129.22
475.48	15150.29
475.66	15337.53
475.84	15332.85
476.02	15363.28
476.20	15770.53
476.38	15978.84
476.56	16226.93
476.74	15913.30
476.92	16121.61
477.10	15866.49
477.28	16205.87
477.46	16231.62
477.64	16182.46
477.82	16734.83
478.00	17188.89
478.18	16957.18
478.36	16924.41
478.54	17422.95
478.72	17303.58
478.90	17628.92
479.08	17713.17
479.26	18050.21
479.44	17811.48
479.62	18087.66
479.80	18192.98
479.98	18176.60
480.16	18796.84
480.34	18190.64
480.52	18691.52
480.70	18637.69
480.88	18679.82
481.06	18988.77
481.24	19023.87
481.41	19157.28
481.59	19704.97
481.77	19814.98
481.95	19658.16
482.13	20063.07
482.31	19840.72
482.49	20341.60
482.67	20472.67
482.85	20650.55
483.03	20585.01
483.21	20793.32
483.39	21074.18
483.57	20814.38
483.74	21661.66
483.92	21671.02
484.10	21364.41
484.28	21778.68
484.46	22101.68
484.64	22398.93
484.82	22204.66
485.00	22487.87
485.18	22632.98
485.35	23199.39
485.53	22953.63
485.71	23379.61
485.89	23625.37
486.07	23690.90
486.25	23653.45
486.43	23522.38
486.61	24107.52
486.78	24126.24
486.96	24306.46
487.14	24851.81
487.32	25017.99
487.50	24947.77
487.68	25205.23
487.85	25607.80
488.03	25872.28
488.21	26113.36
488.39	26211.66
488.57	26267.83
488.75	26153.15
488.92	26665.72
489.10	26984.04
489.28	26817.86
489.46	27290.65
489.64	27082.34
489.81	27817.27
489.99	28037.28
490.17	27784.50
490.35	28243.24
490.53	28769.86
490.70	28496.02
490.88	28863.49
491.06	29364.36
491.24	28898.59
491.41	29340.96
491.59	29373.72
491.77	29532.88
491.95	29837.15
492.13	29502.45
492.30	30150.78
492.48	30494.84
492.66	30490.16
492.84	30274.83
493.01	30981.67
493.19	30611.87
493.37	31049.55
493.54	31641.70
493.72	31887.46
493.90	31463.82
494.08	32203.43
494.25	32175.34
494.43	32222.16
494.61	32226.84
494.79	33085.81
494.96	32985.17
495.14	33099.86
495.32	33689.67
495.49	33521.15
495.67	33701.37
495.85	33544.56
496.02	34265.44
496.20	34096.92
496.38	34370.77
496.55	34345.02
496.73	35098.67
496.91	34902.07
497.09	35351.45
497.26	35477.84
497.44	34883.34
497.62	35510.61
497.79	36533.42
497.97	35697.85
498.14	36009.14
498.32	36638.75
498.50	36184.68
498.67	36727.69
498.85	36676.19
499.03	36900.89
499.20	36935.99
499.38	37305.80
499.56	36954.72
499.73	37294.10
499.91	37303.46
500.08	38038.39
500.26	37851.14
500.44	38085.20
500.61	38817.78
500.79	38312.23
500.97	38354.36
501.14	38988.64
501.32	38792.04
501.49	38803.74
501.67	38754.59
501.84	38794.38
502.02	38981.62
502.20	39641.65
502.37	39438.03
502.55	39423.98
502.72	40020.82
502.90	39854.64
503.07	39786.77
503.25	40362.54
503.43	40196.36
503.60	40519.35
503.78	40533.40
503.95	40498.29
504.13	40720.64
504.30	40505.31
504.48	40634.04
504.65	40907.88
504.83	41024.91
505.01	41380.67
505.18	41743.45
505.36	41928.36
505.53	41638.13
505.71	41860.48
505.88	42211.56
506.06	41811.33
506.23	42176.45
506.41	42174.11
506.58	42174.11
506.76	42981.60
506.93	42988.62
507.11	42490.09
507.28	42873.93
507.46	42862.23
507.63	42967.55
507.81	43349.06
507.98	43407.58
508.16	43770.36
508.33	43533.96
508.50	43981.01
508.68	44374.22
508.85	44336.77
509.03	43770.36
509.20	44336.77
509.38	44666.78
509.55	45006.16
509.73	44414.01
509.90	44626.99
510.08	44832.96
510.25	44985.10
510.42	45153.62
510.60	45361.92
510.77	45104.46
510.95	45347.88
511.12	45193.40
511.30	45614.70
511.47	45591.30
511.64	45965.78
511.82	46342.61
511.99	45972.80
512.17	46419.84
512.34	46148.34
512.51	46684.33
512.69	46391.76
512.86	46637.51
513.04	47196.90
513.21	46649.22
513.38	47035.41
513.56	47367.76
513.73	47292.86
513.90	47367.76
514.08	47016.68
514.25	47248.39
514.43	47683.73
514.60	47517.56
514.77	47744.59
514.95	48006.73
515.12	47767.99
515.29	47625.22
515.47	47999.71
515.64	48493.56
515.81	48362.49
515.99	48612.93
516.16	48615.27
516.33	49027.20
516.51	49038.90
516.68	48732.29
516.85	48561.44
517.03	49001.46
517.20	49228.49
517.37	49048.27
517.54	48849.32
517.72	49090.40
517.89	49221.47
518.06	49514.03
518.24	49759.79
518.41	49272.96
518.58	49635.74
518.75	49766.81
518.93	49837.03
519.10	49605.31
519.27	50136.62
519.45	50155.34
519.62	50117.89
519.79	50337.90
519.96	50316.84
520.14	50417.48
520.31	50237.26
520.48	50667.92
520.65	50471.31
520.83	50637.49
521.00	50990.91
521.17	51152.41
521.34	50745.15
521.52	50810.69
521.69	50997.93
521.86	51255.39
522.03	51447.32
522.20	51807.76
522.38	51969.26
522.55	51845.21
522.72	51597.11
522.89	51824.14
523.07	52023.09
523.24	51728.18
523.41	51842.87
523.58	51880.31
523.75	52200.97
523.92	52102.67
524.10	52217.35
524.27	52315.65
524.44	52346.08
524.61	52563.75
524.78	52549.71
524.96	52179.90
525.13	52917.17
525.30	52442.04
525.47	52500.56
525.64	52617.58
525.81	52912.49
525.98	53059.94
526.16	52748.65
526.33	52772.06
526.50	53198.04
526.67	52788.44
526.84	53418.05
527.01	52956.96
527.18	53048.24
527.36	52959.30
527.53	53366.55
527.70	53586.57
527.87	53827.64
528.04	53570.18
528.21	53766.79
528.38	53490.60
528.55	53886.15
528.72	53689.55
528.89	53673.16
529.07	53511.67
529.24	53921.26
529.41	54019.56
529.58	53719.98
529.75	53907.22
529.92	54120.21
530.09	53949.35
530.26	54059.35
530.43	54248.94
530.60	53972.75
530.77	53918.92
530.94	54656.19
531.11	54211.49
531.28	54356.60
531.46	54251.28
531.63	54412.77
531.80	54255.96
531.97	54623.42
532.14	54817.69
532.31	54635.13
532.48	54901.95
532.65	54934.71
532.82	54611.72
532.99	54930.03
533.16	54843.43
533.33	55023.65
533.50	54972.16
533.67	54955.78
533.84	54670.23
534.01	55110.25
534.18	55400.48
534.35	55557.30
534.52	55262.39
534.69	55461.33
534.86	55449.63
535.03	55217.92
535.20	55484.74
535.37	55517.51
535.54	55578.36
535.71	55430.91
535.88	55531.55
536.05	55842.84
536.22	55732.84
536.38	55971.57
536.55	55882.63
536.72	55767.94
536.89	55793.69
537.06	56030.08
537.23	55957.53
537.40	55807.73
537.57	55952.85
537.74	55973.91
537.91	56282.86
538.08	56226.69
538.25	55870.93
538.42	56257.12
538.59	56294.56
538.75	55943.48
538.92	56240.73
539.09	56378.82
539.26	56130.73
539.43	56294.56
539.60	56156.47
539.77	56329.67
539.94	56612.88
540.11	56638.62
540.28	56617.56
540.44	56748.63
540.61	56669.05
540.78	56327.33
540.95	56615.22
541.12	56615.22
541.29	56626.92
541.46	56587.13
541.62	56652.67
541.79	56924.17
541.96	56863.32
542.13	56788.42
542.30	56638.62
542.47	57209.71
542.63	57158.22
542.80	56938.21
542.97	57127.80
543.14	57076.30
543.31	57226.10
543.48	57340.78
543.64	57560.79
543.81	57310.36
543.98	57628.67
544.15	57380.57
544.32	57719.95
544.48	57673.14
544.65	57591.22
544.82	57378.23
544.99	57406.32
545.16	57607.61
545.32	57628.67
545.49	57846.34
545.66	58026.56
545.83	57923.58
546.00	57865.06
546.16	58010.18
546.33	57764.42
546.50	57574.84
546.67	57932.94
546.83	57804.21
547.00	58028.90
547.17	58108.48
547.34	57827.62
547.50	58155.29
547.67	58192.74
547.84	58330.83
548.00	58260.62
548.17	58389.34
548.34	58361.26
548.51	58351.90
548.67	58321.47
548.84	58286.36
549.01	58349.56
549.18	58300.40
549.34	58497.01
549.51	58487.65
549.68	58480.63
549.84	58457.22
550.01	58614.04
550.18	58426.79
550.34	58590.63
550.51	58590.63
550.68	58330.83
550.84	58347.21
551.01	58597.65
551.18	58710.00
551.34	58710.00
551.51	58639.78
551.68	58829.37
551.84	58761.49
552.01	58485.31
552.18	58789.58
552.34	58707.66
552.51	58803.62
552.68	58768.51
552.84	58880.86
553.01	59061.08
553.18	59009.59
553.34	59084.48
553.51	58845.75
553.67	58962.78
553.84	58920.65
554.01	59140.66
554.17	59077.46
554.34	59236.62
554.51	59185.13
554.67	59180.45
554.84	59063.42
555.00	59047.04
555.17	59077.46
555.33	59217.89
555.50	59028.31
555.67	59428.54
555.83	59105.55
556.00	59299.81
556.16	59494.08
556.33	59274.07
556.50	59393.43
556.66	59524.50
556.83	59260.02
556.99	59421.52
557.16	59599.40
557.32	59578.34
557.49	59655.57
557.65	59791.33
557.82	59657.91
557.98	59484.72
558.15	59531.53
558.32	59690.68
558.48	59407.48
558.65	59655.57
558.81	59678.98
558.98	59648.55
559.14	59838.14
559.31	59868.56
559.47	59873.24
559.64	59859.20
559.80	59859.20
559.97	59674.30
560.13	59784.30
560.30	59833.46
560.46	60090.91
560.63	60067.51
560.79	60095.60
560.96	60245.39
561.12	59959.84
561.29	59962.18
561.45	59887.29
561.61	60055.81
561.78	60032.40
561.94	60062.83
562.11	60009.00
562.27	60011.34
562.44	59992.61
562.60	60104.96
562.77	60149.43
562.93	60306.24
563.10	60264.11
563.26	60114.32
563.42	60402.21
563.59	60280.50
563.75	60161.13
563.92	60046.44
564.08	60102.62
564.24	60278.16
564.41	60264.11
564.57	60285.18
564.74	60226.66
564.90	60418.59
565.07	60107.30
565.23	60324.97
565.39	60186.88
565.56	60097.94
565.72	60268.79
565.88	60425.61
566.05	60322.63
566.21	60341.35
566.38	60189.22
566.54	60336.67
566.70	60374.12
566.87	60465.40
567.03	60289.86
567.19	60617.53
567.36	60516.89
567.52	60404.55
567.68	60598.81
567.85	60521.57
568.01	60624.56
568.17	60516.89
568.34	60423.27
568.50	60580.09
568.66	60423.27
568.83	60472.42
568.99	60458.38
569.15	60566.04
569.32	60760.31
569.48	60530.93
569.64	60753.29
569.81	60519.23
569.97	60411.57
570.13	60575.40
570.30	60406.89
570.46	60741.58
570.62	60552.00
570.78	60601.15
570.95	60804.78
571.11	60926.49
571.27	60676.05
571.43	60683.07
571.60	60802.44
571.76	60612.85
571.92	60591.79
572.09	60795.42
572.25	60767.33
572.41	60748.60
572.57	60809.46
572.74	60814.14
572.90	60612.85
573.06	60849.25
573.22	60823.50
573.38	60846.91
573.55	60828.18
573.71	61027.13
573.87	60849.25
574.03	60449.02
574.20	60959.25
574.36	60650.30
574.52	60886.70
574.68	60790.73
574.84	61073.94
575.01	60748.60
575.17	61052.87
575.33	60912.44
575.49	60884.36
575.65	60956.91
575.82	61003.72
575.98	60973.30
576.14	61111.39
576.30	61148.84
576.46	60867.97
576.62	60839.89
576.79	60942.87
576.95	60823.50
577.11	60903.08
577.27	60879.67
577.43	60975.64
577.59	60931.17
577.75	60659.66
577.92	60844.57
578.08	60790.73
578.24	61102.03
578.40	61221.39
578.56	61099.68
578.72	60933.51
578.88	60966.27
579.04	61247.14
579.21	60992.02
579.37	61174.58
579.53	61095.00
579.69	60945.21
579.85	61116.07
580.01	61059.90
580.17	60879.67
580.33	61095.00
580.49	61127.77
580.65	60963.93
580.82	60977.98
580.98	60982.66
581.14	60816.48
581.30	61050.53
581.46	61034.15
581.62	61125.43
581.78	61104.37
581.94	61125.43
582.10	61090.32
582.26	61137.13
582.42	61013.08
582.58	61085.64
582.74	60992.02
582.90	61153.52
583.06	61207.35
583.22	61045.85
583.38	61085.64
583.54	61219.05
583.70	61132.45
583.86	61315.01
584.02	60853.93
584.18	61277.57
584.34	61331.40
584.50	61132.45
584.66	61078.62
584.82	61085.64
584.98	61298.63
585.14	61059.90
585.30	61059.90
585.46	61097.34
585.62	61080.96
585.78	61371.19
585.94	61034.15
586.10	61186.28
586.26	61132.45
586.42	61155.86
586.58	61340.76
586.74	61174.58
586.90	61226.07
587.06	60996.70
587.22	61345.44
587.38	61006.06
587.54	61317.35
587.70	61413.32
587.86	61244.80
588.02	61080.96
588.18	61118.41
588.34	61242.46
588.49	61333.74
