SpectraSuite Data File
++++++++++++++++++++++++++++++++++++
Date: Fri Oct 25 11:26:13 EDT 2013
User: price-jones
Dark Spectrum Present: No
Reference Spectrum Present: No
Number of Sampled Component Spectra: 1
Spectrometers: USB2+H05261
Integration Time (usec): 100000 (USB2+H05261)
Spectra Averaged: 1 (USB2+H05261)
Boxcar Smoothing: 0 (USB2+H05261)
Correct for Electrical Dark: No (USB2+H05261)
Strobe/Lamp Enabled: No (USB2+H05261)
Correct for Detector Non-linearity: No (USB2+H05261)
Correct for Stray Light: No (USB2+H05261)
Number of Pixels in Processed Spectrum: 2048
>>>>>Begin Processed Spectral Data<<<<<
365.73	224.69
365.92	224.69
366.12	224.69
366.32	180.22
366.52	161.50
366.72	264.48
366.91	70.22
367.11	168.52
367.31	119.37
367.51	93.62
367.70	177.88
367.90	163.84
368.10	119.37
368.30	156.82
368.49	156.82
368.69	168.52
368.89	147.45
369.09	86.60
369.28	140.43
369.48	173.20
369.68	166.18
369.87	196.60
370.07	271.50
370.27	194.26
370.47	365.12
370.66	587.47
370.86	636.63
371.06	620.24
371.25	732.59
371.45	650.67
371.65	725.57
371.84	737.27
372.04	669.39
372.24	704.50
372.44	690.46
372.63	697.48
372.83	842.59
373.03	739.61
373.22	840.25
373.42	732.59
373.62	765.36
373.81	856.64
374.01	753.65
374.21	821.53
374.40	800.46
374.60	903.45
374.79	842.59
374.99	856.64
375.19	891.74
375.38	931.53
375.58	926.85
375.78	866.00
375.97	866.00
376.17	908.13
376.37	901.11
376.56	896.43
376.76	915.15
376.95	917.49
377.15	889.40
377.35	880.04
377.54	985.37
377.74	903.45
377.93	877.70
378.13	985.37
378.33	1011.11
378.52	987.71
378.72	929.19
378.91	1011.11
379.11	1013.45
379.31	917.49
379.50	875.36
379.70	957.28
379.89	976.00
380.09	875.36
380.28	1043.88
380.48	1071.97
380.68	983.02
380.87	933.87
381.07	1027.50
381.26	938.55
381.46	1050.90
381.65	1095.37
381.85	1048.56
382.04	1086.01
382.24	1057.92
382.43	1004.09
382.63	1083.67
382.83	1027.50
383.02	1107.07
383.22	1203.04
383.41	1025.15
383.61	1111.75
383.80	1102.39
384.00	1125.80
384.19	1149.20
384.39	1226.44
384.58	1217.08
384.78	1193.67
384.97	1170.27
385.17	1135.16
385.36	1135.16
385.56	1174.95
385.75	1125.80
385.95	1238.14
386.14	1121.12
386.34	1228.78
386.53	1221.76
386.72	1156.22
386.92	1109.41
387.11	1233.46
387.31	1284.95
387.50	1313.04
387.70	1196.01
387.89	1301.34
388.09	1217.08
388.28	1343.47
388.48	1296.66
388.67	1291.98
388.86	1263.89
389.06	1334.11
389.25	1392.62
389.45	1404.32
389.64	1252.19
389.84	1394.96
390.03	1394.96
390.22	1439.43
390.42	1423.05
390.61	1362.19
390.81	1294.32
391.00	1413.68
391.19	1432.41
391.39	1490.92
391.58	1502.62
391.78	1364.53
391.97	1437.09
392.16	1420.71
392.36	1547.09
392.55	1509.65
392.75	1626.67
392.94	1460.49
393.13	1493.26
393.33	1547.09
393.52	1521.35
393.71	1561.14
393.91	1582.20
394.10	1490.92
394.29	1657.10
394.49	1547.09
394.68	1619.65
394.88	1586.88
395.07	1666.46
395.26	1654.76
395.46	1610.29
395.65	1699.23
395.84	1694.55
396.04	1760.08
396.23	1785.83
396.42	1710.93
396.62	1771.79
396.81	1802.21
397.00	1783.49
397.19	1795.19
397.39	1881.79
397.58	1809.23
397.77	1739.02
397.97	1797.53
398.16	1790.51
398.35	1968.39
398.55	1792.85
398.74	1872.43
398.93	2019.88
399.12	1837.32
399.32	1987.11
399.51	1923.92
399.70	2019.88
399.90	1984.77
400.09	1989.46
400.28	1994.14
400.47	2062.01
400.67	2045.63
400.86	1994.14
401.05	2024.56
401.24	2106.48
401.44	2176.70
401.63	2125.21
401.82	2216.49
402.01	2045.63
402.21	2160.31
402.40	2111.16
402.59	2132.23
402.78	2150.95
402.97	2139.25
403.17	2251.60
403.36	2277.34
403.55	2284.36
403.74	2359.26
403.93	2457.56
404.13	2480.97
404.32	2291.38
404.51	2377.98
404.70	2450.54
404.89	2314.79
405.09	2415.43
405.28	2459.90
405.47	2455.22
405.66	2485.65
405.85	2497.35
406.05	2537.14
406.24	2485.65
406.43	2640.12
406.62	2682.25
406.81	2703.32
407.00	2670.55
407.20	2628.42
407.39	2565.23
407.58	2710.34
407.77	2658.85
407.96	2780.56
408.15	2724.38
408.34	2801.62
408.54	2799.28
408.73	2888.22
408.92	2909.29
409.11	2857.79
409.30	2813.32
409.49	2839.07
409.68	2745.45
409.87	2960.78
410.07	3005.25
410.26	3059.08
410.45	2960.78
410.64	2946.73
410.83	3073.12
411.02	3091.85
411.21	3166.74
411.40	3176.11
411.59	3241.64
411.78	3197.17
411.98	3190.15
412.17	3171.43
412.36	3166.74
412.55	3325.90
412.74	3447.61
412.93	3407.82
413.12	3421.86
413.31	3487.40
413.50	3391.44
413.69	3459.31
413.88	3588.04
414.07	3559.95
414.26	3503.78
414.45	3644.21
414.64	3681.66
414.83	3819.75
415.02	3707.41
415.22	3826.78
415.41	3810.39
415.60	3763.58
415.79	3960.19
415.98	3964.87
416.17	3943.80
416.36	3889.97
416.55	4025.72
416.74	4147.43
416.93	4009.34
417.12	4124.02
417.31	4112.32
417.50	4259.78
417.69	4346.37
417.88	4077.21
418.07	4203.60
418.26	4278.50
418.45	4201.26
418.64	4332.33
418.83	4414.25
419.02	4440.00
419.21	4521.92
419.39	4430.63
419.58	4358.08
419.77	4524.26
419.96	4475.10
420.15	4657.67
420.34	4671.71
420.53	4620.22
420.72	4660.01
420.91	4641.28
421.10	4678.73
421.29	4875.34
421.48	4833.21
421.67	4851.93
421.86	4725.54
422.05	4774.69
422.24	4681.07
422.43	4828.53
422.61	4781.71
422.80	4919.81
422.99	4910.44
423.18	4922.15
423.37	5004.07
423.56	4898.74
423.75	4842.57
423.94	4798.10
424.13	4447.02
424.32	4645.96
424.50	4863.63
424.69	5027.47
424.88	5132.79
425.07	4915.12
425.26	4812.14
425.45	4971.30
425.64	4936.19
425.83	4959.60
426.01	4924.49
426.20	4971.30
426.39	5125.77
426.58	5013.43
426.77	5022.79
426.96	5174.92
427.15	5238.12
427.33	5198.33
427.52	5100.03
427.71	5242.80
427.90	5273.23
428.09	5378.55
428.28	5252.16
428.46	5416.00
428.65	5263.86
428.84	5521.32
429.03	5411.32
429.22	5277.91
429.40	5380.89
429.59	5504.94
429.78	5170.24
429.97	5177.26
430.16	5511.96
430.34	5444.09
430.53	5453.45
430.72	5600.90
430.91	5713.25
431.10	5643.03
431.28	5710.91
431.47	5694.52
431.66	5916.87
431.85	5888.79
432.03	6071.35
432.22	5963.68
432.41	6026.88
432.60	5827.93
432.79	5923.90
432.97	5870.06
433.16	5926.24
433.35	5830.27
433.54	6108.80
433.72	6111.14
433.91	6050.28
434.10	6223.48
434.28	6120.50
434.47	6342.85
434.66	6171.99
434.85	6293.70
435.03	6228.17
435.22	6342.85
435.41	6504.35
435.59	6291.36
435.78	6443.49
435.97	6401.37
436.16	6413.07
436.34	6427.11
436.53	6354.55
436.72	6551.16
436.90	6406.05
437.09	6551.16
437.28	6464.56
437.46	6637.76
437.65	6609.67
437.84	6621.38
438.02	6698.61
438.21	6792.23
438.40	6572.22
438.58	6991.18
438.77	6855.43
438.96	6972.46
439.14	7091.82
439.33	6974.80
439.52	7243.96
439.70	7241.62
439.89	7379.71
440.08	7234.60
440.26	7330.56
440.45	7225.23
440.63	7281.41
440.82	7585.68
441.01	7316.51
441.19	7625.47
441.38	7665.25
441.57	7557.59
441.75	7840.79
441.94	7946.12
442.12	7749.51
442.31	8060.80
442.50	8016.33
442.68	8086.55
442.87	8163.79
443.05	8283.16
443.24	8161.45
443.43	8065.49
443.61	8086.55
443.80	8299.54
443.98	8060.80
444.17	7854.84
444.35	8011.65
444.54	8280.82
444.73	8229.32
444.91	8173.15
445.10	8217.62
445.28	8234.00
445.47	8393.16
445.65	8395.50
445.84	8521.89
446.02	8528.91
446.21	8456.36
446.39	8322.94
446.58	8379.12
446.77	8360.39
446.95	8149.75
447.14	8339.33
447.32	8636.58
447.51	8411.89
447.69	8449.33
447.88	8449.33
448.06	8587.43
448.25	8484.44
448.43	8482.10
448.62	8552.32
448.80	8411.89
448.99	8526.57
449.17	8610.83
449.36	8512.53
449.54	9022.77
449.73	8961.91
449.91	8889.35
450.10	8837.86
450.28	8936.17
450.46	9015.74
450.65	8858.93
450.83	8978.30
451.02	9167.88
451.20	9029.79
451.39	9022.77
451.57	9088.30
451.76	8800.41
451.94	9121.07
452.13	9263.84
452.31	9261.50
452.49	9254.48
452.68	9441.72
452.86	9228.73
453.05	9387.89
453.23	9497.89
453.42	9284.91
453.60	9291.93
453.78	9460.45
453.97	9371.50
454.15	9348.10
454.34	9441.72
454.52	9685.14
454.70	9575.13
454.89	9628.96
455.07	9495.55
455.26	9797.48
455.44	10033.88
455.62	9610.24
455.81	9834.93
455.99	9916.85
456.17	10101.75
456.36	9944.94
456.54	10101.75
456.73	9984.73
456.91	10494.96
457.09	10291.34
457.28	10670.50
457.46	10260.91
457.64	10303.04
457.83	10452.83
458.01	10335.81
458.19	10665.82
458.38	10296.02
458.56	10710.29
458.74	10775.83
458.93	10771.15
459.11	10850.72
459.29	10750.08
459.48	10717.31
459.66	10616.67
459.84	10855.40
460.03	11103.50
460.21	10927.96
460.39	10855.40
460.57	10944.34
460.76	10995.84
460.94	11225.21
461.12	11066.05
461.31	11185.42
461.49	11110.52
461.67	11211.17
461.85	11651.19
462.04	11154.99
462.22	11700.34
462.40	11489.69
462.59	11463.94
462.77	11171.38
462.95	11190.10
463.13	11730.76
463.32	11580.97
463.50	11709.70
463.68	11683.95
463.86	11784.60
464.05	11775.24
464.23	11571.61
464.41	11878.22
464.59	11370.32
464.78	12098.23
464.96	11871.20
465.14	11667.57
465.32	12138.02
465.50	11885.24
465.69	11976.52
465.87	12032.69
466.05	12086.53
466.23	11920.35
466.41	12304.20
466.60	12334.62
466.78	12149.72
466.96	12180.15
467.14	11997.59
467.32	12219.94
467.51	12250.36
467.69	12032.69
467.87	12259.73
468.05	12671.66
468.23	12568.68
468.41	12484.42
468.60	12634.21
468.78	12681.02
468.96	12446.97
469.14	12681.02
469.32	13118.70
469.50	12659.96
469.69	12915.08
469.87	13191.26
470.05	13130.41
470.23	13238.07
470.41	12966.57
470.59	13254.45
470.77	13102.32
470.95	13217.01
471.14	13638.30
471.32	13198.28
471.50	13376.16
471.68	13439.36
471.86	13575.11
472.04	13610.22
472.22	13923.85
472.40	13600.85
472.58	13858.31
472.77	13944.91
472.95	14139.18
473.13	14511.32
473.31	14104.07
473.49	14066.62
473.67	14085.34
473.85	14178.97
474.03	14581.54
474.21	14469.19
474.39	14839.00
474.57	14586.22
474.75	14925.60
474.93	14892.83
475.12	14977.09
475.30	15077.73
475.48	14853.04
475.66	15030.92
475.84	15133.90
476.02	15297.74
476.20	15204.12
476.38	15695.63
476.56	15836.06
476.74	15857.13
476.92	15901.60
477.10	15557.54
477.28	16060.76
477.46	16027.99
477.64	16585.04
477.82	16503.12
478.00	17006.33
478.18	16683.34
478.36	16709.08
478.54	16849.52
478.72	16931.44
478.90	17254.43
479.08	17453.37
479.26	17502.53
479.44	17488.48
479.62	17855.95
479.80	18024.47
479.98	18068.94
480.16	18541.72
480.34	18178.94
480.52	18537.04
480.70	18576.83
480.88	18066.60
481.06	18888.12
481.24	18700.88
481.41	19033.24
481.59	19199.41
481.77	19103.45
481.95	19435.81
482.13	19627.73
482.31	19667.52
482.49	20325.21
482.67	20037.33
482.85	20580.33
483.03	20388.41
483.21	20861.19
483.39	20540.54
483.57	20624.80
483.74	21053.12
483.92	20922.05
484.10	21104.61
484.28	21750.60
484.46	21771.66
484.64	22005.72
484.82	21902.73
485.00	22307.65
485.18	22497.23
485.35	22890.44
485.53	22904.48
485.71	22946.61
485.89	23248.54
486.07	23545.79
486.25	23260.24
486.43	23400.68
486.61	23868.78
486.78	23896.87
486.96	23969.43
487.14	24285.40
487.32	24606.05
487.50	24737.12
487.68	25029.69
487.85	25233.32
488.03	25575.03
488.21	25951.86
488.39	25717.81
488.57	25949.52
488.75	26267.83
488.92	26525.29
489.10	26625.93
489.28	26602.53
489.46	27009.78
489.64	26693.81
489.81	27124.47
489.99	27597.26
490.17	27274.26
490.35	27922.59
490.53	28180.05
490.70	27929.61
490.88	28287.71
491.06	28814.34
491.24	28870.51
491.41	29139.67
491.59	29202.86
491.77	29132.65
491.95	29413.51
492.13	29656.93
492.30	29724.80
492.48	29975.24
492.66	29802.04
492.84	30024.39
493.01	30375.47
493.19	30345.05
493.37	30635.27
493.54	31140.83
493.72	31037.84
493.90	30969.97
494.08	30862.30
494.25	31728.30
494.43	31938.95
494.61	32170.66
494.79	32400.04
494.96	32407.06
495.14	32002.14
495.32	32652.81
495.49	32914.95
495.67	33357.32
495.85	33525.83
496.02	33453.28
496.20	33537.54
496.38	33916.70
496.55	34015.01
496.73	34740.57
496.91	34382.47
497.09	34532.26
497.26	34462.05
497.44	34740.57
497.62	35229.74
497.79	35782.11
497.97	35124.42
498.14	36002.12
498.32	35419.33
498.50	35763.39
498.67	36194.04
498.85	36416.40
499.03	36360.22
499.20	36603.64
499.38	36652.79
499.56	37343.25
499.73	37244.94
499.91	37195.79
500.08	37350.27
500.26	37055.36
500.44	37661.56
500.61	37174.73
500.79	37682.62
500.97	37869.87
501.14	38611.82
501.32	38113.28
501.49	38066.47
501.67	38565.01
501.84	38417.55
502.02	38553.30
502.20	38672.67
502.37	39299.94
502.55	38892.68
502.72	39313.98
502.90	39651.02
503.07	39459.09
503.25	39749.32
503.43	39639.31
503.60	39835.92
503.78	40156.57
503.95	39859.32
504.13	40390.62
504.30	40346.15
504.48	40060.61
504.65	40687.87
504.83	40559.14
505.01	41048.32
505.18	41139.60
505.36	40669.15
505.53	41181.73
505.71	41455.57
505.88	41787.92
506.06	41045.97
506.23	41773.88
506.41	41787.92
506.58	41701.32
506.76	42078.15
506.93	42405.83
507.11	41947.08
507.28	42522.85
507.46	42417.53
507.63	42714.78
507.81	42852.87
507.98	42674.99
508.16	42553.28
508.33	43138.41
508.50	43159.48
508.68	42951.17
508.85	43903.77
509.03	43430.98
509.20	43711.84
509.38	44343.79
509.55	43936.54
509.73	44465.50
509.90	44275.91
510.08	44147.18
510.25	44285.28
510.42	44531.03
510.60	45022.54
510.77	45118.51
510.95	45382.99
511.12	44947.65
511.30	45055.31
511.47	44938.29
511.64	45687.26
511.82	45621.72
511.99	45041.27
512.17	45961.10
512.34	45528.10
512.51	45968.12
512.69	46143.66
512.86	46000.89
513.04	46401.12
513.21	46120.26
513.38	46454.95
513.56	46480.70
513.73	46871.57
513.90	46920.72
514.08	46944.12
514.25	47248.39
514.43	47269.46
514.60	47072.85
514.77	47082.22
514.95	47639.26
515.12	47636.92
515.29	47482.45
515.47	47552.66
515.64	47735.23
515.81	47831.19
515.99	47833.53
516.16	48308.66
516.33	48025.45
516.51	47950.56
516.68	48208.01
516.85	48591.86
517.03	48870.39
517.20	48629.31
517.37	48575.48
517.54	48673.78
517.72	48505.26
517.89	48891.45
518.06	49088.06
518.24	48865.70
518.41	48905.49
518.58	49137.21
518.75	49191.04
518.93	49102.10
519.10	49272.96
519.27	49736.38
519.45	49628.72
519.62	49762.13
519.79	49830.01
519.96	49961.08
520.14	50127.25
520.31	49553.82
520.48	50286.41
520.65	50108.53
520.83	50642.17
521.00	50454.93
521.17	50263.00
521.34	50398.76
521.52	50536.85
521.69	50859.84
521.86	50745.15
522.03	50536.85
522.20	51182.84
522.38	51419.23
522.55	51292.84
522.72	51072.83
522.89	51231.99
523.07	51643.92
523.24	51405.19
523.41	51384.12
523.58	51395.82
523.75	51870.95
523.92	51414.55
524.10	51695.41
524.27	51973.94
524.44	51793.71
524.61	51805.42
524.78	52032.45
524.96	52140.11
525.13	52296.93
525.30	52112.03
525.47	52296.93
525.64	52495.88
525.81	52512.26
525.98	52561.41
526.16	52357.78
526.33	52542.69
526.50	52931.22
526.67	52734.61
526.84	52734.61
527.01	52767.38
527.18	52748.65
527.36	52739.29
527.53	52575.45
527.70	53345.49
527.87	53265.91
528.04	52949.94
528.21	53195.70
528.38	53165.27
528.55	53361.87
528.72	53404.00
528.89	53347.83
529.07	53057.60
529.24	53282.30
529.41	53303.36
529.58	53574.86
529.75	53389.96
529.92	53661.46
530.09	53731.68
530.26	53570.18
530.43	53829.98
530.60	53668.48
530.77	53626.35
530.94	54106.16
531.11	54010.20
531.28	53890.83
531.46	53729.34
531.63	53916.58
531.80	54073.40
531.97	54071.06
532.14	54333.20
532.31	54239.57
532.48	54244.26
532.65	54401.07
532.82	54391.71
532.99	54979.18
533.16	54405.75
533.33	54667.89
533.50	54672.57
533.67	54438.52
533.84	54534.48
534.01	54773.22
534.18	54749.81
534.35	55164.09
534.52	54852.80
534.69	54901.95
534.86	55330.26
535.03	54656.19
535.20	55051.74
535.37	55388.78
535.54	55136.00
535.71	54974.50
535.88	55091.53
536.05	55164.09
536.22	55407.50
536.38	55421.55
536.55	55484.74
536.72	55346.65
536.89	55320.90
537.06	55360.69
537.23	55613.47
537.40	55444.95
537.57	55573.68
537.74	55400.48
537.91	55854.54
538.08	55657.94
538.25	55608.79
538.42	55606.45
538.59	56135.41
538.75	55894.33
538.92	55889.65
539.09	55660.28
539.26	55994.98
539.43	55922.42
539.60	55964.55
539.77	56088.60
539.94	56236.05
540.11	55978.59
540.28	56222.01
540.44	56329.67
540.61	56404.57
540.78	56109.66
540.95	56034.77
541.12	56371.80
541.29	56406.91
541.46	56130.73
541.62	56479.47
541.79	56631.60
541.96	56324.99
542.13	56629.26
542.30	56479.47
542.47	56694.80
542.63	56966.30
542.80	56718.20
542.97	57167.58
543.14	56961.62
543.31	57205.03
543.48	57132.48
543.64	57116.09
543.81	57223.76
543.98	57031.83
544.15	57308.02
544.32	57305.68
544.48	57556.11
544.65	57345.47
544.82	57233.12
544.99	57298.65
545.16	57385.25
545.32	57160.56
545.49	57516.32
545.66	57537.39
545.83	57375.89
546.00	57631.01
546.16	57710.59
546.33	57389.94
546.50	57495.26
546.67	57462.49
546.83	57312.70
547.00	57738.68
547.17	57682.50
547.34	57883.79
547.50	57633.35
547.67	57869.75
547.84	57851.02
548.00	57921.24
548.17	58075.71
548.34	57979.75
548.51	58148.27
548.67	58080.39
548.84	57897.83
549.01	58017.20
549.18	57946.98
549.34	58106.14
549.51	58164.65
549.68	58258.27
549.84	58131.89
550.01	58129.54
550.18	58024.22
550.34	58267.64
550.51	58300.40
550.68	58323.81
550.84	58309.77
551.01	58471.26
551.18	58429.13
551.34	58337.85
551.51	58546.16
551.68	58515.73
551.84	58372.96
552.01	58326.15
552.18	58494.67
552.34	58262.96
552.51	58550.84
552.68	58574.25
552.84	58506.37
553.01	58836.39
553.18	58691.27
553.34	58794.26
553.51	58707.66
553.67	58733.40
553.84	58808.30
554.01	58726.38
554.17	58972.14
554.34	58873.84
554.51	58707.66
554.67	59004.91
554.84	58838.73
555.00	58695.95
555.17	58841.07
555.33	58632.76
555.50	58724.04
555.67	58798.94
555.83	58855.11
556.00	58962.78
556.16	59271.73
556.33	59110.23
556.50	59217.89
556.66	59152.36
556.83	59119.59
556.99	59384.07
557.16	59461.31
557.32	59229.60
557.49	59587.70
557.65	59234.28
557.82	59367.69
557.98	59297.47
558.15	59313.86
558.32	59426.20
558.48	59241.30
558.65	59393.43
558.81	59468.33
558.98	59316.20
559.14	59648.55
559.31	59545.57
559.47	59585.36
559.64	59561.95
559.80	59524.50
559.97	59739.83
560.13	59456.63
560.30	59564.29
560.46	59449.61
560.63	59449.61
560.79	59770.26
560.96	59732.81
561.12	59721.11
561.29	59814.73
561.45	59625.15
561.61	59657.91
561.78	59571.32
561.94	59753.88
562.11	59678.98
562.27	59669.62
562.44	59824.09
562.60	60095.60
562.77	59760.90
562.93	59519.82
563.10	60072.19
563.26	59702.38
563.42	59796.01
563.59	59683.66
563.75	59929.42
563.92	59772.60
564.08	59868.56
564.24	60076.87
564.41	60041.76
564.57	59978.57
564.74	59807.71
564.90	59927.08
565.07	60172.83
565.23	60048.78
565.39	60074.53
565.56	60170.49
565.72	60027.72
565.88	60114.32
566.05	59985.59
566.21	60023.04
566.38	60032.40
566.54	60172.83
566.70	60137.72
566.87	60404.55
567.03	60257.09
567.19	60348.37
567.36	60280.50
567.52	60086.23
567.68	60554.34
567.85	60128.36
568.01	60418.59
568.17	60095.60
568.34	60329.65
568.50	60287.52
568.66	60243.05
568.83	60331.99
568.99	60207.94
569.15	60392.84
569.32	60168.15
569.48	60062.83
569.64	60331.99
569.81	60191.56
569.97	60257.09
570.13	60402.21
570.30	60203.26
570.46	60472.42
570.62	60324.97
570.78	60406.89
570.95	60261.77
571.11	60463.06
571.27	60282.84
571.43	60465.40
571.60	60299.22
571.76	60357.74
571.92	60441.99
572.09	60556.68
572.25	60437.31
572.41	60376.46
572.57	60587.11
572.74	60643.28
572.90	60395.18
573.06	60430.29
573.22	60699.45
573.38	60392.84
573.55	60582.43
573.71	60818.82
573.87	60566.04
574.03	60449.02
574.20	60575.40
574.36	60484.12
574.52	60612.85
574.68	60762.65
574.84	60652.64
575.01	60591.79
575.17	60570.72
575.33	60341.35
575.49	60556.68
575.65	60736.90
575.82	60704.13
575.98	60837.54
576.14	60870.31
576.30	60746.26
576.46	60622.22
576.62	60619.88
576.79	60638.60
576.95	60598.81
577.11	60701.79
577.27	60685.41
577.43	60711.16
577.59	60711.16
577.75	60617.53
577.92	60575.40
578.08	60591.79
578.24	60753.29
578.40	60921.80
578.56	60907.76
578.72	60732.22
578.88	60734.56
579.04	60694.77
579.21	60626.90
579.37	60762.65
579.53	60715.84
579.69	60488.80
579.85	60629.24
580.01	60626.90
580.17	60601.15
580.33	60793.07
580.49	60732.22
580.65	60844.57
580.82	60741.58
580.98	60624.56
581.14	60715.84
581.30	60823.50
581.46	60584.77
581.62	60748.60
581.78	60739.24
581.94	60835.20
582.10	60767.33
582.26	60694.77
582.42	60879.67
582.58	60825.84
582.74	60729.88
582.90	60626.90
583.06	60760.31
583.22	60537.96
583.38	60444.33
583.54	60779.03
583.70	61001.38
583.86	60886.70
584.02	60636.26
584.18	60926.49
584.34	60795.42
584.50	60828.18
584.66	61010.74
584.82	60741.58
584.98	60795.42
585.14	60587.11
585.30	60867.97
585.46	60760.31
585.62	61010.74
585.78	61057.56
585.94	60753.29
586.10	60999.04
586.26	60903.08
586.42	60917.12
586.58	60996.70
586.74	61038.83
586.90	60903.08
587.06	60844.57
587.22	61064.58
587.38	60914.78
587.54	61013.08
587.70	61097.34
587.86	61013.08
588.02	60905.42
588.18	61073.94
588.34	60886.70
588.49	61006.06
