SpectraSuite Data File
++++++++++++++++++++++++++++++++++++
Date: Fri Oct 25 11:26:16 EDT 2013
User: price-jones
Dark Spectrum Present: No
Reference Spectrum Present: No
Number of Sampled Component Spectra: 1
Spectrometers: USB2+H05261
Integration Time (usec): 100000 (USB2+H05261)
Spectra Averaged: 1 (USB2+H05261)
Boxcar Smoothing: 0 (USB2+H05261)
Correct for Electrical Dark: No (USB2+H05261)
Strobe/Lamp Enabled: No (USB2+H05261)
Correct for Detector Non-linearity: No (USB2+H05261)
Correct for Stray Light: No (USB2+H05261)
Number of Pixels in Processed Spectrum: 2048
>>>>>Begin Processed Spectral Data<<<<<
365.73	262.14
365.92	262.14
366.12	262.14
366.32	138.09
366.52	173.20
366.72	163.84
366.91	110.01
367.11	133.41
367.31	121.71
367.51	152.13
367.70	114.69
367.90	184.90
368.10	100.64
368.30	110.01
368.49	152.13
368.69	224.69
368.89	140.43
369.09	177.88
369.28	161.50
369.48	166.18
369.68	205.97
369.87	238.73
370.07	205.97
370.27	259.80
370.47	362.78
370.66	641.31
370.86	631.94
371.06	692.80
371.25	741.95
371.45	676.41
371.65	669.39
371.84	648.33
372.04	720.88
372.24	725.57
372.44	718.54
372.63	720.88
372.83	704.50
373.03	746.63
373.22	767.70
373.42	777.06
373.62	755.99
373.81	793.44
374.01	805.14
374.21	767.70
374.40	807.48
374.60	858.98
374.79	791.10
374.99	758.33
375.19	875.36
375.38	833.23
375.58	851.96
375.78	891.74
375.97	854.30
376.17	936.21
376.37	840.25
376.56	826.21
376.76	851.96
376.95	830.89
377.15	863.66
377.35	912.81
377.54	896.43
377.74	875.36
377.93	943.24
378.13	882.38
378.33	966.64
378.52	957.28
378.72	959.62
378.91	884.72
379.11	917.49
379.31	926.85
379.50	924.51
379.70	973.66
379.89	1020.47
380.09	1004.09
380.28	976.00
380.48	1029.84
380.68	1013.45
380.87	959.62
381.07	1006.43
381.26	1039.20
381.46	1020.47
381.65	959.62
381.85	971.32
382.04	980.68
382.24	1069.62
382.43	1104.73
382.63	1069.62
382.83	1055.58
383.02	1149.20
383.22	1135.16
383.41	1041.54
383.61	987.71
383.80	1144.52
384.00	1179.63
384.19	1151.54
384.39	1090.69
384.58	1146.86
384.78	1172.61
384.97	1151.54
385.17	1235.80
385.36	1167.93
385.56	1207.72
385.75	1156.22
385.95	1151.54
386.14	1130.48
386.34	1226.44
386.53	1165.59
386.72	1217.08
386.92	1249.85
387.11	1376.24
387.31	1219.42
387.50	1266.23
387.70	1247.51
387.89	1306.02
388.09	1327.08
388.28	1235.80
388.48	1231.12
388.67	1329.42
388.86	1275.59
389.06	1383.26
389.25	1387.94
389.45	1289.64
389.64	1348.15
389.84	1390.28
390.03	1308.36
390.22	1376.24
390.42	1413.68
390.61	1404.32
390.81	1418.36
391.00	1467.52
391.19	1423.05
391.39	1411.34
391.58	1533.05
391.78	1458.15
391.97	1537.73
392.16	1516.67
392.36	1509.65
392.55	1526.03
392.75	1493.26
392.94	1535.39
393.13	1598.59
393.33	1605.61
393.52	1577.52
393.71	1589.22
393.91	1640.72
394.10	1568.16
394.29	1586.88
394.49	1582.20
394.68	1680.50
394.88	1643.06
395.07	1610.29
395.26	1582.20
395.46	1652.42
395.65	1701.57
395.84	1722.63
396.04	1858.39
396.23	1584.54
396.42	1706.25
396.62	1750.72
396.81	1783.49
397.00	1746.04
397.19	1806.89
397.39	1701.57
397.58	1881.79
397.77	1736.68
397.97	1860.73
398.16	1804.55
398.35	1870.09
398.55	1891.15
398.74	1905.20
398.93	1898.17
399.12	1902.86
399.32	1926.26
399.51	1893.49
399.70	2085.42
399.90	1977.75
400.09	1930.94
400.28	2085.42
400.47	2031.58
400.67	2062.01
400.86	2033.93
401.05	1982.43
401.24	2186.06
401.44	2157.97
401.63	2157.97
401.82	2155.63
402.01	2122.87
402.21	2064.35
402.40	2136.91
402.59	2284.36
402.78	2179.04
402.97	2211.81
403.17	2230.53
403.36	2303.09
403.55	2239.89
403.74	2403.73
403.93	2375.64
404.13	2406.07
404.32	2434.16
404.51	2305.43
404.70	2413.09
404.89	2272.66
405.09	2450.54
405.28	2487.99
405.47	2583.95
405.66	2483.31
405.85	2546.50
406.05	2417.77
406.24	2516.08
406.43	2466.92
406.62	2579.27
406.81	2799.28
407.00	2651.83
407.20	2626.08
407.39	2614.38
407.58	2637.78
407.77	2560.55
407.96	2715.02
408.15	2740.77
408.34	2757.15
408.54	2658.85
408.73	2771.19
408.92	2850.77
409.11	2832.05
409.30	2960.78
409.49	2860.13
409.68	2928.01
409.87	2960.78
410.07	2871.84
410.26	2995.89
410.45	2988.86
410.64	2995.89
410.83	3047.38
411.02	2988.86
411.21	3133.98
411.40	3049.72
411.59	3283.77
411.78	3211.22
411.98	3098.87
412.17	3300.16
412.36	3314.20
412.55	3421.86
412.74	3407.82
412.93	3293.13
413.12	3349.31
413.31	3585.70
413.50	3438.25
413.69	3524.85
413.88	3452.29
414.07	3609.11
414.26	3588.04
414.45	3684.00
414.64	3641.87
414.83	3758.90
415.02	3852.52
415.22	3904.01
415.41	3999.98
415.60	3868.91
415.79	3805.71
415.98	3941.46
416.17	3852.52
416.36	3871.25
416.55	4046.79
416.74	4091.26
416.93	3896.99
417.12	4119.34
417.31	4156.79
417.50	4166.15
417.69	4285.52
417.88	4215.30
418.07	4250.41
418.26	4252.75
418.45	4365.10
418.64	4407.23
418.83	4395.53
419.02	4266.80
419.21	4440.00
419.39	4564.04
419.58	4596.81
419.77	4409.57
419.96	4407.23
420.15	4397.87
420.34	4533.62
420.53	4758.31
420.72	4725.54
420.91	4760.65
421.10	4697.46
421.29	4713.84
421.48	4660.01
421.67	4648.30
421.86	4613.20
422.05	4683.41
422.24	4774.69
422.43	4837.89
422.61	4844.91
422.80	4938.53
422.99	4856.61
423.18	4957.25
423.37	5067.26
423.56	4943.21
423.75	4833.21
423.94	4690.43
424.13	4613.20
424.32	4791.08
424.50	4896.40
424.69	5149.18
424.88	4931.51
425.07	4980.66
425.26	5015.77
425.45	5221.74
425.64	5013.43
425.83	5081.30
426.01	5097.69
426.20	4978.32
426.39	5074.28
426.58	5008.75
426.77	5069.60
426.96	4912.78
427.15	5132.79
427.33	5149.18
427.52	5104.71
427.71	5139.82
427.90	5259.18
428.09	5277.91
428.28	5366.85
428.46	5509.62
428.65	5270.89
428.84	5479.19
429.03	5551.75
429.22	5383.23
429.40	5556.43
429.59	5397.28
429.78	5235.78
429.97	5137.48
430.16	5270.89
430.34	5570.48
430.53	5528.35
430.72	5481.53
430.91	5530.69
431.10	5617.29
431.28	5652.39
431.47	5753.04
431.66	5832.62
431.85	5682.82
432.03	5792.83
432.22	6033.90
432.41	5916.87
432.60	5865.38
432.79	5860.70
432.97	5987.09
433.16	5989.43
433.35	5874.74
433.54	5914.53
433.72	5926.24
433.91	6061.99
434.10	5959.00
434.28	6045.60
434.47	6122.84
434.66	6263.27
434.85	6157.95
435.03	6263.27
435.22	6270.30
435.41	6401.37
435.59	6333.49
435.78	6317.11
435.97	6333.49
436.16	6303.06
436.34	6389.66
436.53	6466.90
436.72	6569.88
436.90	6246.89
437.09	6494.99
437.28	6377.96
437.46	6595.63
437.65	6476.26
437.84	6864.79
438.02	6752.45
438.21	6747.76
438.40	6771.17
438.58	6860.11
438.77	6853.09
438.96	6817.98
439.14	6883.52
439.33	7176.08
439.52	7082.46
439.70	7145.66
439.89	7398.43
440.08	7339.92
440.26	7194.81
440.45	7229.91
440.63	7349.28
440.82	7506.10
441.01	7456.95
441.19	7503.76
441.38	7681.64
441.57	7723.77
441.75	7892.29
441.94	8018.68
442.12	7885.26
442.31	7997.61
442.50	8018.68
442.68	7868.88
442.87	7864.20
443.05	7985.91
443.24	8257.41
443.43	8086.55
443.61	8159.11
443.80	8304.22
443.98	7953.14
444.17	7812.71
444.35	8093.57
444.54	8334.65
444.73	8250.39
444.91	8201.24
445.10	8161.45
445.28	8203.58
445.47	8170.81
445.65	8407.20
445.84	8395.50
446.02	8615.51
446.21	8376.78
446.39	8285.50
446.58	8458.70
446.77	8475.08
446.95	8271.45
447.14	8273.79
447.32	8514.87
447.51	8592.11
447.69	8416.57
447.88	8407.20
448.06	8362.73
448.25	8575.72
448.43	8716.16
448.62	8507.85
448.80	8439.97
448.99	8671.68
449.17	8720.84
449.36	8374.44
449.54	8812.12
449.73	8882.33
449.91	8964.25
450.10	8982.98
450.28	9156.18
450.46	9060.21
450.65	9317.67
450.83	9060.21
451.02	9107.02
451.20	9114.05
451.39	9280.22
451.57	8992.34
451.76	9013.40
451.94	9200.65
452.13	9275.54
452.31	9287.25
452.49	8954.89
452.68	9181.92
452.86	9242.78
453.05	9308.31
453.23	9322.35
453.42	9399.59
453.60	9284.91
453.78	9633.64
453.97	9397.25
454.15	9521.30
454.34	9327.03
454.52	9425.34
454.70	9804.50
454.89	9708.54
455.07	9703.86
455.26	9863.02
455.44	9877.06
455.62	9902.81
455.81	9912.17
455.99	9963.66
456.17	9947.28
456.36	9832.59
456.54	10094.73
456.73	10066.64
456.91	10485.60
457.09	10186.01
457.28	10492.62
457.46	10258.57
457.64	10572.20
457.83	10576.88
458.01	10466.88
458.19	10527.73
458.38	10586.24
458.56	10738.38
458.74	10504.32
458.93	10750.08
459.11	10672.84
459.29	10740.72
459.48	10721.99
459.66	10497.30
459.84	10817.96
460.03	11096.48
460.21	10883.49
460.39	10850.72
460.57	10949.03
460.76	11037.97
460.94	11061.37
461.12	10934.98
461.31	10878.81
461.49	10937.32
461.67	11063.71
461.85	11307.13
462.04	11192.44
462.22	11742.47
462.40	11421.81
462.59	11400.75
462.77	11543.52
462.95	11754.17
463.13	11510.75
463.32	11590.33
463.50	11452.24
463.68	11838.43
463.86	11840.77
464.05	11559.91
464.23	11634.80
464.41	11756.51
464.59	11712.04
464.78	12091.21
464.96	12044.40
465.14	11487.35
465.32	11999.93
465.50	12100.57
465.69	12091.21
465.87	12152.06
466.05	12102.91
466.23	11910.99
466.41	12063.12
466.60	12381.43
466.78	12306.54
466.96	12060.78
467.14	12285.47
467.32	12339.30
467.51	12194.19
467.69	12180.15
467.87	12388.46
468.05	12676.34
468.23	12257.39
468.41	12573.36
468.60	12601.44
468.78	12781.67
468.96	12664.64
469.14	12685.70
469.32	12758.26
469.50	12681.02
469.69	12868.27
469.87	12982.95
470.05	13144.45
470.23	12964.23
470.41	13209.98
470.59	13235.73
470.77	13013.38
470.95	13273.18
471.14	13605.53
471.32	13224.03
471.50	13797.46
471.68	13626.60
471.86	13610.22
472.04	13757.67
472.22	13862.99
472.40	13554.04
472.58	13715.54
472.77	13816.18
472.95	14101.73
473.13	14492.60
473.31	14125.13
473.49	13991.72
473.67	13951.93
473.85	14108.75
474.03	14380.25
474.21	14546.43
474.39	14525.36
474.57	14558.13
474.75	14806.23
474.93	15115.18
475.12	15005.17
475.30	14892.83
475.48	14871.76
475.66	15136.24
475.84	15044.96
476.02	15384.34
476.20	15192.42
476.38	15639.46
476.56	15971.82
476.74	15531.80
476.92	15775.21
477.10	15693.29
477.28	16187.14
477.46	16189.49
477.64	16411.84
477.82	16446.94
478.00	16580.36
478.18	16542.91
478.36	16561.63
478.54	17104.64
478.72	17106.98
478.90	17284.86
479.08	17390.18
479.26	17799.77
479.44	17486.14
479.62	17781.05
479.80	17905.10
479.98	18099.36
480.16	18574.49
480.34	18010.42
480.52	18501.93
480.70	18607.26
480.88	18368.52
481.06	18640.03
481.24	18719.60
481.41	18845.99
481.59	19346.87
481.77	19459.21
481.95	19274.31
482.13	19672.20
482.31	19513.05
482.49	20053.71
482.67	20065.41
482.85	20194.14
483.03	20332.23
483.21	20418.83
483.39	21055.46
483.57	20912.69
483.74	21032.05
483.92	21357.39
484.10	21261.43
484.28	21507.18
484.46	22249.13
484.64	22328.71
484.82	21493.14
485.00	22033.80
485.18	22478.50
485.35	22675.11
485.53	22518.29
485.71	23108.11
485.89	23054.28
486.07	23204.07
486.25	23208.75
486.43	23702.61
486.61	23726.01
486.78	23852.40
486.96	24229.23
487.14	24706.70
487.32	24299.44
487.50	24725.42
487.68	24795.64
487.85	25184.16
488.03	25446.30
488.21	25773.98
488.39	25797.38
488.57	25743.55
488.75	25879.30
488.92	26242.09
489.10	26546.36
489.28	26429.33
489.46	27094.04
489.64	27166.60
489.81	27714.28
489.99	27292.99
490.17	27440.44
490.35	27934.29
490.53	27929.61
490.70	28299.42
490.88	28072.39
491.06	28840.08
491.24	28776.89
491.41	29125.63
491.59	29046.05
491.77	28950.09
491.95	29324.57
492.13	29209.89
492.30	30050.14
492.48	29572.67
492.66	30209.29
492.84	29692.04
493.01	30562.72
493.19	30785.07
493.37	30719.53
493.54	31241.47
493.72	31508.29
493.90	30845.92
494.08	31480.21
494.25	31997.46
494.43	31850.01
494.61	32093.43
494.79	32458.55
494.96	32617.71
495.14	32390.67
495.32	32840.06
495.49	33200.50
495.67	33006.23
495.85	33429.87
496.02	34029.05
496.20	34015.01
496.38	34256.08
496.55	34106.29
496.73	34623.54
496.91	34382.47
497.09	34904.41
497.26	34864.62
497.44	34553.33
497.62	35449.75
497.79	35566.78
497.97	34775.68
498.14	35924.88
498.32	36030.21
498.50	36149.57
498.67	36313.41
498.85	36388.31
499.03	36444.48
499.20	36601.30
499.38	37015.57
499.56	36912.59
499.73	37415.80
499.91	36835.35
500.08	37663.90
500.26	36978.12
500.44	37581.98
500.61	37296.44
500.79	37694.33
500.97	37673.26
501.14	38340.32
501.32	38150.73
501.49	38457.34
501.67	38319.25
501.84	38405.85
502.02	38466.70
502.20	38731.18
502.37	38998.01
502.55	39255.46
502.72	39332.70
502.90	39365.47
503.07	39674.42
503.25	39421.64
503.43	39517.60
503.60	40048.91
503.78	39847.62
503.95	40051.25
504.13	40287.64
504.30	40472.54
504.48	40224.45
504.65	40568.51
504.83	40690.21
505.01	41177.04
505.18	40957.03
505.36	41315.14
505.53	40917.25
505.71	41415.78
505.88	41340.88
506.06	40921.93
506.23	41928.36
506.41	41486.00
506.58	42157.73
506.76	41979.85
506.93	42445.62
507.11	42178.79
507.28	42473.70
507.46	42340.29
507.63	42745.20
507.81	43075.22
507.98	42646.90
508.16	42902.02
508.33	43409.92
508.50	43540.99
508.68	43178.20
508.85	43667.37
509.03	43775.04
509.20	43510.56
509.38	44325.07
509.55	44308.68
509.73	44233.78
509.90	44474.86
510.08	44516.99
510.25	44179.95
510.42	44692.53
510.60	44715.93
510.77	44790.83
510.95	45221.49
511.12	45102.12
511.30	45265.96
511.47	45429.80
511.64	45689.60
511.82	45139.57
511.99	45350.22
512.17	45595.98
512.34	45624.06
512.51	46024.29
512.69	46426.87
512.86	46337.93
513.04	46389.42
513.21	46358.99
513.38	46571.98
513.56	46567.30
513.73	46656.24
513.90	46944.12
514.08	46642.20
514.25	47098.60
514.43	47138.39
514.60	47065.83
514.77	46892.63
514.95	47540.96
515.12	47421.59
515.29	47709.48
515.47	47557.35
515.64	47931.83
515.81	47941.19
515.99	47938.85
516.16	48020.77
516.33	48170.57
516.51	48488.88
516.68	48250.14
516.85	47976.30
517.03	48652.72
517.20	48355.47
517.37	48545.05
517.54	48348.45
517.72	48837.62
517.89	49090.40
518.06	49099.76
518.24	48933.58
518.41	49097.42
518.58	49497.65
518.75	49041.24
518.93	49223.81
519.10	49195.72
519.27	49705.96
519.45	49546.80
519.62	49523.40
519.79	49799.58
519.96	49797.24
520.14	49991.50
520.31	49783.19
520.48	50075.76
520.65	50024.27
520.83	50562.59
521.00	50602.38
521.17	50291.09
521.34	50595.36
521.52	50916.01
521.69	50927.72
521.86	50272.37
522.03	50742.81
522.20	50731.11
522.38	51276.46
522.55	51009.64
522.72	50960.48
522.89	51316.25
523.07	51510.51
523.24	51150.07
523.41	51423.91
523.58	51580.73
523.75	51356.03
523.92	51491.79
524.10	51765.63
524.27	51845.21
524.44	51707.12
524.61	51910.74
524.78	52109.69
524.96	51887.34
525.13	52343.74
525.30	52238.42
525.47	52149.48
525.64	52435.02
525.81	52395.23
525.98	52542.69
526.16	52584.82
526.33	52772.06
526.50	52947.60
526.67	52474.81
526.84	52992.07
527.01	52516.94
527.18	52811.85
527.36	52835.25
527.53	52814.19
527.70	53467.20
527.87	53394.64
528.04	52968.66
528.21	53296.34
528.38	53111.44
528.55	53523.37
528.72	53385.28
528.89	53134.84
529.07	53275.27
529.24	53338.47
529.41	53441.45
529.58	53331.45
529.75	53577.20
529.92	53778.49
530.09	53567.84
530.26	53518.69
530.43	54092.12
530.60	53450.81
530.77	53638.06
530.94	53773.81
531.11	53937.65
531.28	53916.58
531.46	53932.96
531.63	53862.75
531.80	54237.23
531.97	53939.99
532.14	54160.00
532.31	54176.38
532.48	54438.52
532.65	54405.75
532.82	54431.50
532.99	54267.66
533.16	54209.15
533.33	54497.03
533.50	54822.37
533.67	54691.30
533.84	54405.75
534.01	54529.80
534.18	55018.97
534.35	54761.51
534.52	54855.14
534.69	55105.57
534.86	55182.81
535.03	54834.07
535.20	55304.52
535.37	55203.88
535.54	54974.50
535.71	55107.91
535.88	55257.71
536.05	55119.62
536.22	55412.18
536.38	55398.14
536.55	55260.05
536.72	55433.25
536.89	55529.21
537.06	55412.18
537.23	55578.36
537.40	55639.22
537.57	55557.30
537.74	55543.25
537.91	55838.16
538.08	55671.98
538.25	55779.65
538.42	55779.65
538.59	55948.17
538.75	55646.24
538.92	55852.20
539.09	56189.24
539.26	55931.78
539.43	55725.81
539.60	56224.35
539.77	56112.00
539.94	56493.51
540.11	55971.57
540.28	56133.07
540.44	56128.39
540.61	56310.95
540.78	56149.45
540.95	56378.82
541.12	56030.08
541.29	56114.34
541.46	56547.34
541.62	56413.93
541.79	56741.61
541.96	56334.35
542.13	56533.30
542.30	56411.59
542.47	56680.75
542.63	56741.61
542.80	56896.08
542.97	57029.49
543.14	57071.62
543.31	57017.79
543.48	56963.96
543.64	57368.87
543.81	57069.28
543.98	56942.89
544.15	57125.46
544.32	57104.39
544.48	57256.53
544.65	57361.85
544.82	57726.97
544.99	57078.64
545.16	57635.69
545.32	57469.51
545.49	57413.34
545.66	57827.62
545.83	57633.35
546.00	57593.56
546.16	57598.24
546.33	57649.74
546.50	57249.50
546.67	57609.95
546.83	57392.28
547.00	57525.69
547.17	57439.09
547.34	57717.61
547.50	57778.46
547.67	57916.56
547.84	57858.04
548.00	57867.40
548.17	58059.33
548.34	58024.22
548.51	58064.01
548.67	57949.32
548.84	58110.82
549.01	57839.32
549.18	58253.59
549.34	58003.16
549.51	58316.79
549.68	58272.32
549.84	58248.91
550.01	58330.83
550.18	58092.10
550.34	58372.96
550.51	58321.47
550.68	58253.59
550.84	58216.14
551.01	58599.99
551.18	58319.13
551.34	58417.43
551.51	58466.58
551.68	58560.20
551.84	58644.46
552.01	58241.89
552.18	58681.91
552.34	58379.98
552.51	58553.18
552.68	58424.45
552.84	58567.23
553.01	58827.02
553.18	58838.73
553.34	58667.87
553.51	58499.35
553.67	58623.40
553.84	58761.49
554.01	58988.52
554.17	58801.28
554.34	58918.31
554.51	58897.24
554.67	58892.56
554.84	59009.59
555.00	58894.90
555.17	59100.87
555.33	59009.59
555.50	58742.77
555.67	58892.56
555.83	58834.05
556.00	59082.14
556.16	59196.83
556.33	59217.89
556.50	58930.01
556.66	59143.00
556.83	58930.01
556.99	59510.46
557.16	59358.33
557.32	59302.15
557.49	59529.19
557.65	59138.32
557.82	59213.21
557.98	59363.01
558.15	59220.23
558.32	59388.75
558.48	59292.79
558.65	59260.02
558.81	59288.11
558.98	59451.95
559.14	59330.24
559.31	59611.10
559.47	59440.24
559.64	59601.74
559.80	59477.69
559.97	59667.28
560.13	59358.33
560.30	59627.49
560.46	59697.70
560.63	59508.12
560.79	59657.91
560.96	59838.14
561.12	59845.16
561.29	59803.03
561.45	59613.44
561.61	59875.58
561.78	59625.15
561.94	59566.63
562.11	59693.02
562.27	59812.39
562.44	59896.65
562.60	59997.29
562.77	59962.18
562.93	59629.83
563.10	59971.55
563.26	59814.73
563.42	60177.51
563.59	59819.41
563.75	59936.44
563.92	59847.50
564.08	60004.31
564.24	60123.68
564.41	60053.47
564.57	60104.96
564.74	59906.01
564.90	59833.46
565.07	59880.27
565.23	59828.77
565.39	60062.83
565.56	60170.49
565.72	59875.58
565.88	60299.22
566.05	60097.94
566.21	60044.10
566.38	60175.17
566.54	59985.59
566.70	60193.90
566.87	60236.03
567.03	60069.85
567.19	60275.82
567.36	60238.37
567.52	59999.63
567.68	60289.86
567.85	60086.23
568.01	60360.08
568.17	60207.94
568.34	60315.61
568.50	60296.88
568.66	60175.17
568.83	60266.45
568.99	60149.43
569.15	60296.88
569.32	60266.45
569.48	60217.30
569.64	60308.58
569.81	60409.23
569.97	60221.98
570.13	60500.51
570.30	60214.96
570.46	60495.83
570.62	60240.71
570.78	60329.65
570.95	60226.66
571.11	60446.68
571.27	60287.52
571.43	60336.67
571.60	60645.62
571.76	60404.55
571.92	60474.76
572.09	60481.78
572.25	60409.23
572.41	60341.35
572.57	60310.92
572.74	60580.09
572.90	60598.81
573.06	60481.78
573.22	60542.64
573.38	60477.10
573.55	60374.12
573.71	60645.62
573.87	60406.89
574.03	60521.57
574.20	60610.51
574.36	60615.19
574.52	60589.45
574.68	60500.51
574.84	60582.43
575.01	60743.92
575.17	60568.38
575.33	60348.37
575.49	60514.55
575.65	60669.03
575.82	60732.22
575.98	60612.85
576.14	60844.57
576.30	60587.11
576.46	60685.41
576.62	60547.32
576.79	60432.63
576.95	60610.51
577.11	60601.15
577.27	60633.92
577.43	60760.31
577.59	60640.94
577.75	60390.50
577.92	60662.00
578.08	60692.43
578.24	60680.73
578.40	60954.57
578.56	60795.42
578.72	60790.73
578.88	60893.72
579.04	60867.97
579.21	60818.82
579.37	60788.39
579.53	60882.02
579.69	60605.83
579.85	60772.01
580.01	60671.37
580.17	60584.77
580.33	60711.16
580.49	61015.43
580.65	60795.42
580.82	60673.71
580.98	60645.62
581.14	60816.48
581.30	60860.95
581.46	60879.67
581.62	60626.90
581.78	60467.74
581.94	60809.46
582.10	60900.74
582.26	60795.42
582.42	60722.86
582.58	60790.73
582.74	60832.86
582.90	60793.07
583.06	60877.33
583.22	60741.58
583.38	60809.46
583.54	61087.98
583.70	60753.29
583.86	61017.77
584.02	60715.84
584.18	60767.33
584.34	60715.84
584.50	60938.19
584.66	60652.64
584.82	60842.23
584.98	60996.70
585.14	61062.24
585.30	60666.69
585.46	60882.02
585.62	60795.42
585.78	60999.04
585.94	60638.60
586.10	61066.92
586.26	60790.73
586.42	60977.98
586.58	61078.62
586.74	60973.30
586.90	60898.40
587.06	60769.67
587.22	60968.61
587.38	60823.50
587.54	60907.76
587.70	60982.66
587.86	60926.49
588.02	60860.95
588.18	61099.68
588.34	60797.76
588.49	60966.27
