SpectraSuite Data File
++++++++++++++++++++++++++++++++++++
Date: Fri Oct 25 10:47:52 EDT 2013
User: price-jones
Dark Spectrum Present: No
Reference Spectrum Present: No
Number of Sampled Component Spectra: 1
Spectrometers: USB2+H05261
Integration Time (usec): 100000 (USB2+H05261)
Spectra Averaged: 1 (USB2+H05261)
Boxcar Smoothing: 0 (USB2+H05261)
Correct for Electrical Dark: No (USB2+H05261)
Strobe/Lamp Enabled: No (USB2+H05261)
Correct for Detector Non-linearity: No (USB2+H05261)
Correct for Stray Light: No (USB2+H05261)
Number of Pixels in Processed Spectrum: 2048
>>>>>Begin Processed Spectral Data<<<<<
365.73	173.20
365.92	173.20
366.12	173.20
366.32	77.24
366.52	42.13
366.72	46.81
366.91	0.00
367.11	0.00
367.31	11.70
367.51	100.64
367.70	72.56
367.90	72.56
368.10	42.13
368.30	21.06
368.49	9.36
368.69	35.11
368.89	81.92
369.09	18.72
369.28	84.26
369.48	46.81
369.68	114.69
369.87	159.16
370.07	147.45
370.27	145.11
370.47	138.09
370.66	330.02
370.86	416.62
371.06	423.64
371.25	517.26
371.45	414.27
371.65	545.34
371.84	486.83
372.04	475.13
372.24	514.92
372.44	514.92
372.63	500.87
372.83	437.68
373.03	510.24
373.22	521.94
373.42	507.90
373.62	545.34
373.81	500.87
374.01	559.39
374.21	540.66
374.40	580.45
374.60	603.86
374.79	578.11
374.99	500.87
375.19	622.58
375.38	571.09
375.58	517.26
375.78	596.84
375.97	543.00
376.17	653.01
376.37	615.56
376.56	613.22
376.76	594.50
376.95	636.63
377.15	524.28
377.35	648.33
377.54	599.18
377.74	702.16
377.93	601.52
378.13	627.26
378.33	634.29
378.52	610.88
378.72	643.65
378.91	617.90
379.11	550.03
379.31	613.22
379.50	636.63
379.70	692.80
379.89	608.54
380.09	650.67
380.28	592.16
380.48	667.05
380.68	683.44
380.87	636.63
381.07	669.39
381.26	688.12
381.46	683.44
381.65	683.44
381.85	627.26
382.04	704.50
382.24	702.16
382.43	674.07
382.63	601.52
382.83	748.97
383.02	697.48
383.22	699.82
383.41	713.86
383.61	758.33
383.80	699.82
384.00	727.91
384.19	849.61
384.39	765.36
384.58	631.94
384.78	770.04
384.97	791.10
385.17	784.08
385.36	823.87
385.56	784.08
385.75	737.27
385.95	835.57
386.14	767.70
386.34	793.44
386.53	800.46
386.72	798.12
386.92	868.34
387.11	807.48
387.31	823.87
387.50	788.76
387.70	880.04
387.89	795.78
388.09	844.93
388.28	809.83
388.48	800.46
388.67	875.36
388.86	863.66
389.06	861.32
389.25	938.55
389.45	915.15
389.64	945.58
389.84	901.11
390.03	915.15
390.22	873.02
390.42	952.60
390.61	868.34
390.81	898.77
391.00	912.81
391.19	926.85
391.39	994.73
391.58	954.94
391.78	1022.81
391.97	912.81
392.16	961.96
392.36	1025.15
392.55	947.92
392.75	905.79
392.94	905.79
393.13	973.66
393.33	954.94
393.52	992.39
393.71	1041.54
393.91	1083.67
394.10	1048.56
394.29	1076.65
394.49	1116.44
394.68	1088.35
394.88	1107.07
395.07	1057.92
395.26	1200.69
395.46	1055.58
395.65	1114.10
395.84	1083.67
396.04	1184.31
396.23	1167.93
396.42	1043.88
396.62	1100.05
396.81	1221.76
397.00	1090.69
397.19	1142.18
397.39	1200.69
397.58	1329.42
397.77	1135.16
397.97	1320.06
398.16	1303.68
398.35	1327.08
398.55	1322.40
398.74	1294.32
398.93	1352.83
399.12	1256.87
399.32	1329.42
399.51	1401.98
399.70	1362.19
399.90	1331.76
400.09	1409.00
400.28	1497.94
400.47	1383.26
400.67	1453.47
400.86	1497.94
401.05	1460.49
401.24	1430.07
401.44	1509.65
401.63	1507.30
401.82	1474.54
402.01	1547.09
402.21	1472.20
402.40	1486.24
402.59	1523.69
402.78	1500.28
402.97	1535.39
403.17	1523.69
403.36	1556.46
403.55	1591.56
403.74	1614.97
403.93	1631.35
404.13	1668.80
404.32	1556.46
404.51	1640.72
404.70	1851.36
404.89	1715.61
405.09	1673.48
405.28	1732.00
405.47	1715.61
405.66	1746.04
405.85	1795.19
406.05	1687.53
406.24	1717.95
406.43	1867.75
406.62	1832.64
406.81	1844.34
407.00	1820.94
407.20	1720.29
407.39	1837.32
407.58	1853.70
407.77	1846.68
407.96	1930.94
408.15	2024.56
408.34	1973.07
408.54	1959.03
408.73	1902.86
408.92	1989.46
409.11	1994.14
409.30	1984.77
409.49	2054.99
409.68	2059.67
409.87	2143.93
410.07	2111.16
410.26	2008.18
410.45	2202.44
410.64	2179.04
410.83	2115.84
411.02	2066.69
411.21	2260.96
411.40	2319.47
411.59	2289.04
411.78	2256.28
411.98	2349.90
412.17	2293.72
412.36	2312.45
412.55	2366.28
412.74	2387.35
412.93	2434.16
413.12	2356.92
413.31	2483.31
413.50	2452.88
413.69	2490.33
413.88	2403.73
414.07	2518.42
414.26	2560.55
414.45	2558.21
414.64	2754.81
414.83	2729.06
415.02	2651.83
415.22	2747.79
415.41	2841.41
415.60	2738.43
415.79	2832.05
415.98	2881.20
416.17	2813.32
416.36	2883.54
416.55	2881.20
416.74	2970.14
416.93	2792.26
417.12	2836.73
417.31	3049.72
417.50	2918.65
417.69	3098.87
417.88	3000.57
418.07	3059.08
418.26	3084.83
418.45	3038.02
418.64	3206.53
418.83	3131.64
419.02	3176.11
419.21	3213.56
419.39	3187.81
419.58	3236.96
419.77	3073.12
419.96	3279.09
420.15	3398.46
420.34	3283.77
420.53	3166.74
420.72	3297.81
420.91	3389.10
421.10	3400.80
421.29	3480.38
421.48	3314.20
421.67	3318.88
421.86	3276.75
422.05	3414.84
422.24	3267.39
422.43	3506.12
422.61	3368.03
422.80	3428.88
422.99	3435.91
423.18	3442.93
423.37	3424.20
423.56	3435.91
423.75	3543.57
423.94	3375.05
424.13	3234.62
424.32	3246.32
424.50	3419.52
424.69	3695.71
424.88	3543.57
425.07	3515.48
425.26	3494.42
425.45	3576.34
425.64	3559.95
425.83	3534.21
426.01	3641.87
426.20	3609.11
426.39	3578.68
426.58	3508.46
426.77	3548.25
426.96	3590.38
427.15	3559.95
427.33	3712.09
427.52	3684.00
427.71	3723.79
427.90	3672.30
428.09	3712.09
428.28	3772.94
428.46	3679.32
428.65	3779.97
428.84	3988.27
429.03	3892.31
429.22	3709.75
429.40	3810.39
429.59	3875.93
429.78	3644.21
429.97	3632.51
430.16	3840.82
430.34	3857.20
430.53	3852.52
430.72	3889.97
430.91	3854.86
431.10	3943.80
431.28	4060.83
431.47	4145.09
431.66	4126.36
431.85	4074.87
432.03	4128.70
432.22	4292.54
432.41	4161.47
432.60	4149.77
432.79	4088.92
432.97	4264.46
433.16	4231.69
433.35	4112.32
433.54	4222.33
433.72	4159.13
433.91	4442.34
434.10	4271.48
434.28	4308.93
434.47	4283.18
434.66	4428.29
434.85	4318.29
435.03	4531.28
435.22	4423.61
435.41	4674.05
435.59	4510.21
435.78	4606.17
435.97	4603.83
436.16	4475.10
436.34	4755.97
436.53	4702.14
436.72	4681.07
436.90	4571.07
437.09	4470.42
437.28	4578.09
437.46	4554.68
437.65	4596.81
437.84	4695.11
438.02	4540.64
438.21	4683.41
438.40	4702.14
438.58	4727.88
438.77	4873.00
438.96	4957.25
439.14	4905.76
439.33	5118.75
439.52	5064.92
439.70	4945.55
439.89	4887.04
440.08	4961.94
440.26	5214.71
440.45	5109.39
440.63	5214.71
440.82	5252.16
441.01	5242.80
441.19	5095.35
441.38	5350.46
441.57	5460.47
441.75	5467.49
441.94	5650.05
442.12	5516.64
442.31	5575.16
442.50	5610.26
442.68	5586.86
442.87	5806.87
443.05	5624.31
443.24	5818.57
443.43	5603.24
443.61	5844.32
443.80	5991.77
443.98	5526.00
444.17	5591.54
444.35	5666.44
444.54	5933.26
444.73	5734.31
444.91	5839.64
445.10	5741.33
445.28	5795.17
445.47	5806.87
445.65	5767.08
445.84	5933.26
446.02	5966.03
446.21	5895.81
446.39	5879.43
446.58	5940.28
446.77	5930.92
446.95	5881.77
447.14	6101.78
447.32	6157.95
447.51	5982.41
447.69	5961.34
447.88	6017.52
448.06	6134.54
448.25	5947.30
448.43	6026.88
448.62	6076.03
448.80	5947.30
448.99	6033.90
449.17	6094.76
449.36	6132.20
449.54	6277.32
449.73	6160.29
449.91	6293.70
450.10	6279.66
450.28	6296.04
450.46	6434.13
450.65	6525.41
450.83	6476.26
451.02	6424.77
451.20	6361.58
451.39	6406.05
451.57	6518.39
451.76	6389.66
451.94	6265.61
452.13	6448.18
452.31	6389.66
452.49	6504.35
452.68	6480.94
452.86	6408.39
453.05	6464.56
453.23	6602.65
453.42	6382.64
453.60	6382.64
453.78	6729.04
453.97	6537.12
454.15	6576.91
454.34	6675.21
454.52	6724.36
454.70	6724.36
454.89	6848.41
455.07	6731.38
455.26	6782.87
455.44	6920.96
455.62	6817.98
455.81	6916.28
455.99	6927.99
456.17	7152.68
456.36	6953.73
456.54	7054.37
456.73	7236.94
456.91	7349.28
457.09	7255.66
457.28	7499.08
457.46	7148.00
457.64	7344.60
457.83	7274.38
458.01	7171.40
458.19	7281.41
458.38	7396.09
458.56	7508.44
458.74	7398.43
458.93	7346.94
459.11	7550.57
459.29	7377.37
459.48	7389.07
459.66	7641.85
459.84	7604.40
460.03	7747.17
460.21	7660.57
460.39	7789.30
460.57	7590.36
460.76	7611.42
460.94	7700.36
461.12	7777.60
461.31	7803.35
461.49	7721.43
461.67	7609.08
461.85	7967.18
462.04	7969.52
462.22	8334.65
462.40	8002.29
462.59	8023.36
462.77	7962.50
462.95	7946.12
463.13	7852.50
463.32	7955.48
463.50	8053.78
463.68	7932.08
463.86	8231.66
464.05	8013.99
464.23	7967.18
464.41	8086.55
464.59	7822.07
464.78	8388.48
464.96	8138.04
465.14	8039.74
465.32	8266.77
465.50	8325.29
465.69	8351.03
465.87	8454.02
466.05	8346.35
466.23	8226.98
466.41	8266.77
466.60	8648.28
466.78	8180.17
466.96	8458.70
467.14	8444.65
467.32	8446.99
467.51	8617.85
467.69	8072.51
467.87	8334.65
468.05	8362.73
468.23	8512.53
468.41	8423.59
468.60	8503.17
468.78	8439.97
468.96	8664.66
469.14	8671.68
469.32	8891.70
469.50	8650.62
469.69	8894.04
469.87	8870.63
470.05	8931.48
470.23	8762.97
470.41	8924.46
470.59	8973.61
470.77	8980.64
470.95	9142.13
471.14	9317.67
471.32	9146.81
471.50	9224.05
471.68	9149.15
471.86	9341.08
472.04	9556.41
472.22	9582.15
472.40	9296.61
472.58	9210.01
472.77	9628.96
472.95	9467.47
473.13	9947.28
473.31	9628.96
473.49	9542.36
473.67	9537.68
473.85	9699.18
474.03	9760.03
474.21	10015.15
474.39	10059.62
474.57	9994.09
474.75	10043.24
474.93	10061.96
475.12	10162.61
475.30	10122.82
475.48	10251.55
475.66	10209.42
475.84	10190.69
476.02	10506.66
476.20	10485.60
476.38	10637.73
476.56	10714.97
476.74	10656.46
476.92	10895.19
477.10	10656.46
477.28	10876.47
477.46	10902.22
477.64	10960.73
477.82	11229.89
478.00	11211.17
478.18	11454.58
478.36	11239.25
478.54	11428.84
478.72	11459.26
478.90	11613.74
479.08	11719.06
479.26	11995.25
479.44	11812.68
479.62	11967.16
479.80	12018.65
479.98	12259.73
480.16	12231.64
480.34	12372.07
480.52	12409.52
480.70	12524.21
480.88	12182.49
481.06	12465.69
481.24	12641.23
481.41	12662.30
481.59	12903.37
481.77	13177.22
481.95	13305.95
482.13	13420.63
482.31	13184.24
482.49	13390.20
482.67	13331.69
482.85	13572.77
483.03	13846.61
483.21	13741.29
483.39	14099.39
483.57	13982.36
483.74	14157.90
483.92	14307.69
484.10	13961.30
484.28	14466.85
484.46	14707.93
484.64	14981.77
484.82	14553.45
485.00	14717.29
485.18	14803.89
485.35	14991.13
485.53	14878.79
485.71	15339.87
485.89	15073.05
486.07	15169.01
486.25	15747.12
486.43	15513.07
486.61	15709.68
486.78	15939.05
486.96	16051.39
487.14	16114.59
487.32	16123.95
487.50	16407.16
487.68	16439.92
487.85	16713.77
488.03	17090.59
488.21	17177.19
488.39	16748.87
488.57	17249.75
488.75	17647.64
488.92	17764.67
489.10	17851.27
489.28	17722.54
489.46	17994.04
489.64	18122.77
489.81	18389.59
489.99	18422.36
490.17	18232.77
490.35	18466.83
490.53	18445.76
490.70	19054.30
490.88	18773.44
491.06	19033.24
491.24	18984.09
491.41	19126.86
491.59	19297.72
491.77	19105.79
491.95	19513.05
492.13	19311.76
492.30	19660.50
492.48	19875.83
492.66	19857.10
492.84	20072.43
493.01	20128.61
493.19	20622.46
493.37	20477.35
493.54	20617.78
493.72	20723.10
493.90	20793.32
494.08	20982.90
494.25	21266.11
494.43	21289.51
494.61	21268.45
494.79	21509.52
494.96	21266.11
495.14	21965.93
495.32	21661.66
495.49	21668.68
495.67	21846.56
495.85	22071.25
496.02	22199.98
496.20	22380.20
496.38	22389.56
496.55	22609.58
496.73	22883.42
496.91	22874.06
497.09	22593.19
497.26	22869.37
497.44	22991.08
497.62	23033.21
497.79	23484.94
497.97	23068.32
498.14	23346.84
498.32	23536.43
498.50	23480.25
498.67	23740.05
498.85	23948.36
499.03	24238.59
499.20	23955.38
499.38	24353.27
499.56	24409.45
499.73	24606.05
499.91	24304.12
500.08	24372.00
500.26	24435.19
500.44	24435.19
500.61	24912.66
500.79	24858.83
500.97	24561.58
501.14	25233.32
501.32	24917.34
501.49	25172.46
501.67	25259.06
501.84	25137.35
502.02	25317.57
502.20	25806.75
502.37	25532.90
502.55	25406.52
502.72	26265.49
502.90	25977.61
503.07	25741.21
503.25	25781.00
503.43	25991.65
503.60	26010.37
503.78	26265.49
503.95	26106.34
504.13	26267.83
504.30	26801.47
504.48	26553.38
504.65	26700.83
504.83	26988.72
505.01	26937.23
505.18	26904.46
505.36	27402.99
505.53	26984.04
505.71	27438.10
505.88	27297.67
506.06	27384.27
506.23	27009.78
506.41	27557.47
506.58	27440.44
506.76	27639.39
506.93	27868.76
507.11	27887.48
507.28	27615.98
507.46	27793.86
507.63	27641.73
507.81	28034.94
507.98	27838.33
508.16	28105.15
508.33	28367.29
508.50	28332.18
508.68	28797.95
508.85	28912.64
509.03	28561.56
509.20	28610.71
509.38	28739.44
509.55	28694.97
509.73	28800.29
509.90	29315.21
510.08	28989.88
510.25	29371.38
510.42	29249.67
510.60	29298.83
510.77	29394.79
510.95	29933.11
511.12	29668.63
511.30	29769.27
511.47	29869.92
511.64	29928.43
511.82	30122.69
511.99	30068.86
512.17	30288.87
512.34	30288.87
512.51	30478.46
512.69	30431.65
512.86	30354.41
513.04	30895.07
513.21	30630.59
513.38	30433.99
513.56	30597.82
513.73	30691.44
513.90	30831.88
514.08	30747.62
514.25	31197.00
514.43	31115.08
514.60	30693.79
514.77	30939.54
514.95	31690.85
515.12	31337.43
515.29	31290.62
515.47	31599.57
515.64	31988.10
515.81	31534.04
515.99	31199.34
516.16	31842.99
516.33	31697.88
516.51	32032.57
516.68	31592.55
516.85	31564.46
517.03	31634.68
517.20	31805.54
517.37	31803.20
517.54	32025.55
517.72	32102.79
517.89	31805.54
518.06	31700.22
518.24	32121.51
518.41	32271.31
518.58	32385.99
518.75	32575.58
518.93	33120.92
519.10	32781.54
519.27	32734.73
519.45	32748.78
519.62	33275.40
519.79	33172.41
519.96	32875.16
520.14	33195.82
520.31	32849.42
520.48	33752.87
520.65	33366.68
520.83	33734.14
521.00	33553.92
521.17	33991.60
521.34	33738.82
521.52	33574.98
521.69	34141.39
521.86	33755.21
522.03	33907.34
522.20	34103.95
522.38	34211.61
522.55	34508.86
522.72	33785.63
522.89	33844.15
523.07	34452.69
523.24	34396.51
523.41	34646.95
523.58	34459.71
523.75	35189.95
523.92	34953.56
524.10	34845.90
524.27	35037.82
524.44	35346.77
524.61	35206.34
524.78	35119.74
524.96	35281.24
525.13	35424.01
525.30	35517.63
525.47	35440.39
525.64	35416.99
525.81	35208.68
525.98	35452.09
526.16	35241.45
526.33	35709.55
526.50	35531.67
526.67	35412.31
526.84	35405.28
527.01	35391.24
527.18	35377.20
527.36	36203.41
527.53	35913.18
527.70	36161.28
527.87	36561.51
528.04	35915.52
528.21	36013.82
528.38	35761.05
528.55	36442.14
528.72	36273.62
528.89	36589.59
529.07	36491.29
529.24	36348.52
529.41	36776.84
529.58	36580.23
529.75	36769.82
529.92	36800.24
530.09	36830.67
530.26	37118.56
530.43	36982.80
530.60	36907.91
530.77	36802.58
530.94	37535.17
531.11	37324.52
531.28	37366.65
531.46	37331.54
531.63	37287.07
531.80	36999.19
531.97	36980.46
532.14	37139.62
532.31	37214.52
532.48	37799.65
532.65	37769.22
532.82	37535.17
532.99	38057.11
533.16	37563.26
533.33	37663.90
533.50	37603.05
533.67	37940.08
533.84	37603.05
534.01	38192.86
534.18	37839.44
534.35	38110.94
534.52	38019.66
534.69	38260.74
534.86	38124.99
535.03	38174.14
535.20	38377.76
535.37	38553.30
535.54	38714.80
535.71	38330.95
535.88	38373.08
536.05	38682.03
536.22	38675.01
536.38	38586.07
536.55	38651.61
536.72	38623.52
536.89	38394.15
537.06	38595.43
537.23	38630.54
537.40	38225.63
537.57	38689.06
537.74	38866.94
537.91	39229.72
538.08	39288.23
538.25	38567.35
538.42	39033.11
538.59	39491.86
538.75	38689.06
538.92	39246.10
539.09	39079.92
539.26	38955.88
539.43	38878.64
539.60	39709.53
539.77	39271.85
539.94	39470.79
540.11	39648.68
540.28	39285.89
540.44	39161.84
540.61	39283.55
540.78	39412.28
540.95	39599.52
541.12	39491.86
541.29	39620.59
541.46	39473.13
541.62	39957.63
541.79	39959.97
541.96	39536.33
542.13	39243.76
542.30	40140.19
542.47	40037.20
542.63	40123.80
542.80	39978.69
542.97	40229.13
543.14	40493.61
543.31	40484.25
543.48	40191.68
543.64	40451.48
543.81	40636.38
543.98	41151.30
544.15	40767.45
544.32	40559.14
544.48	41240.24
544.65	40844.69
544.82	40994.48
544.99	40327.43
545.16	41233.22
545.32	40840.01
545.49	41366.63
545.66	41181.73
545.83	41301.09
546.00	41390.03
546.16	41310.46
546.33	40935.97
546.50	40912.56
546.67	40938.31
546.83	40751.07
547.00	41277.69
547.17	41008.53
547.34	41282.37
547.50	41324.50
547.67	41509.40
547.84	41242.58
548.00	41553.87
548.17	41762.18
548.34	41521.10
548.51	42064.11
548.67	42110.92
548.84	41965.81
549.01	41844.10
549.18	41614.72
549.34	41691.96
549.51	42328.59
549.68	42241.99
549.84	41605.36
550.01	42380.08
550.18	41813.67
550.34	42024.32
550.51	42178.79
550.68	41993.89
550.84	41710.69
551.01	41584.30
551.18	42052.41
551.34	41916.65
551.51	42286.46
551.68	41902.61
551.84	42459.66
552.01	41991.55
552.18	42249.01
552.34	42323.91
552.51	42583.71
552.68	42684.35
552.84	42363.70
553.01	42904.36
553.18	42068.79
553.34	42532.22
553.51	42579.03
553.67	42272.42
553.84	42817.76
554.01	42621.16
554.17	43021.39
554.34	42862.23
554.51	42904.36
554.67	42913.72
554.84	42784.99
555.00	42794.36
555.17	42787.33
555.33	42546.26
555.50	42658.60
555.67	43122.03
555.83	42834.14
556.00	43246.08
556.16	43194.59
556.33	43222.67
556.50	43000.32
556.66	43124.37
556.83	42557.96
556.99	42909.04
557.16	43545.67
557.32	43246.08
557.49	43728.23
557.65	43129.05
557.82	43100.97
557.98	43082.24
558.15	43498.86
558.32	43580.78
558.48	43332.68
558.65	43292.89
558.81	43641.63
558.98	43274.16
559.14	43583.12
559.31	43035.43
559.47	43318.64
559.64	43236.72
559.80	43585.46
559.97	43978.67
560.13	43571.41
560.30	43721.21
560.46	43718.87
560.63	43576.09
560.79	43442.68
560.96	44147.18
561.12	43660.35
561.29	43704.82
561.45	43690.78
561.61	43466.09
561.78	43732.91
561.94	43569.07
562.11	43751.63
562.27	43548.01
562.44	43367.79
562.60	43524.60
562.77	43962.28
562.93	44100.37
563.10	43634.61
563.26	43711.84
563.42	43805.47
563.59	43732.91
563.75	43721.21
563.92	44006.75
564.08	44240.81
564.24	43922.49
564.41	43779.72
564.57	43922.49
564.74	43878.02
564.90	44067.61
565.07	43887.39
565.23	43927.17
565.39	44514.65
565.56	43779.72
565.72	44217.40
565.88	43955.26
566.05	44128.46
566.21	43966.96
566.38	43744.61
566.54	43583.12
566.70	43955.26
566.87	44418.69
567.03	44128.46
567.19	44580.18
567.36	44439.75
567.52	44121.44
567.68	44123.78
567.85	44289.96
568.01	44109.74
568.17	44346.13
568.34	44191.65
568.50	44282.94
568.66	44512.31
568.83	44474.86
568.99	44289.96
569.15	44083.99
569.32	44385.92
569.48	44168.25
569.64	44662.10
569.81	44711.25
569.97	44137.82
570.13	43927.17
570.30	44168.25
570.46	43807.81
570.62	44018.46
570.78	44374.22
570.95	44025.48
571.11	44268.89
571.27	44526.35
571.43	44350.81
571.60	44914.88
571.76	44549.76
571.92	44655.08
572.09	44435.07
572.25	43962.28
572.41	44191.65
572.57	44362.51
572.74	44804.88
572.90	44877.43
573.06	44722.96
573.22	44603.59
573.38	44406.98
573.55	44465.50
573.71	44816.58
573.87	44662.10
574.03	44238.47
574.20	44418.69
574.36	44392.94
574.52	45003.82
574.68	44406.98
574.84	44467.84
575.01	44016.11
575.17	44538.05
575.33	44481.88
575.49	44137.82
575.65	44781.47
575.82	44823.60
575.98	44760.40
576.14	44818.92
576.30	44385.92
576.46	44631.68
576.62	44479.54
576.79	44168.25
576.95	44058.24
577.11	44259.53
577.27	44378.90
577.43	44194.00
577.59	44648.06
577.75	44563.80
577.92	44430.39
578.08	44163.57
578.24	43997.39
578.40	44348.47
578.56	44516.99
578.72	44215.06
578.88	44800.19
579.04	44870.41
579.21	44673.81
579.37	44718.28
579.53	44650.40
579.69	44563.80
579.85	44851.69
580.01	44947.65
580.17	44725.30
580.33	45277.66
580.49	44973.39
580.65	44898.50
580.82	44802.53
580.98	44704.23
581.14	44594.23
581.30	45034.25
581.46	44933.60
581.62	44797.85
581.78	44296.98
581.94	45069.36
582.10	44610.61
582.26	45418.10
582.42	44662.10
582.58	44725.30
582.74	44708.91
582.90	44671.46
583.06	45200.43
583.22	44678.49
583.38	44879.77
583.54	44779.13
583.70	44278.25
583.86	44832.96
584.02	44570.82
584.18	44767.43
584.34	44692.53
584.50	45027.23
584.66	44793.17
584.82	44233.78
584.98	44687.85
585.14	44746.36
585.30	44641.04
585.46	44650.40
585.62	44392.94
585.78	44561.46
585.94	44701.89
586.10	44769.77
586.26	44854.03
586.42	44952.33
586.58	44884.45
586.74	44978.07
586.90	45113.83
587.06	44828.28
587.22	45027.23
587.38	44495.92
587.54	44889.13
587.70	45165.32
587.86	44985.10
588.02	44737.00
588.18	45247.24
588.34	44896.16
588.49	44601.25
588.65	44421.03
588.81	44498.26
588.97	44610.61
589.13	44650.40
589.29	44811.90
589.45	44982.76
589.61	45146.59
589.77	44884.45
589.93	44980.42
590.08	45305.75
590.24	45050.63
