SpectraSuite Data File
++++++++++++++++++++++++++++++++++++
Date: Fri Oct 25 10:47:36 EDT 2013
User: price-jones
Dark Spectrum Present: No
Reference Spectrum Present: No
Number of Sampled Component Spectra: 1
Spectrometers: USB2+H05261
Integration Time (usec): 100000 (USB2+H05261)
Spectra Averaged: 1 (USB2+H05261)
Boxcar Smoothing: 0 (USB2+H05261)
Correct for Electrical Dark: No (USB2+H05261)
Strobe/Lamp Enabled: No (USB2+H05261)
Correct for Detector Non-linearity: No (USB2+H05261)
Correct for Stray Light: No (USB2+H05261)
Number of Pixels in Processed Spectrum: 2048
>>>>>Begin Processed Spectral Data<<<<<
365.73	100.64
365.92	100.64
366.12	100.64
366.32	74.90
366.52	44.47
366.72	65.54
366.91	16.38
367.11	0.00
367.31	25.75
367.51	42.13
367.70	91.28
367.90	42.13
368.10	70.22
368.30	0.00
368.49	63.19
368.69	121.71
368.89	16.38
369.09	9.36
369.28	51.49
369.48	100.64
369.68	100.64
369.87	149.79
370.07	126.39
370.27	126.39
370.47	229.37
370.66	383.85
370.86	458.74
371.06	400.23
371.25	519.60
371.45	465.77
371.65	535.98
371.84	507.90
372.04	402.57
372.24	454.06
372.44	477.47
372.63	447.04
372.83	486.83
373.03	517.26
373.22	547.69
373.42	601.52
373.62	484.49
373.81	615.56
374.01	566.41
374.21	521.94
374.40	507.90
374.60	489.17
374.79	468.11
374.99	535.98
375.19	554.71
375.38	486.83
375.58	587.47
375.78	559.39
375.97	568.75
376.17	589.82
376.37	564.07
376.56	571.09
376.76	601.52
376.95	585.13
377.15	645.99
377.35	535.98
377.54	575.77
377.74	608.54
377.93	543.00
378.13	636.63
378.33	613.22
378.52	706.84
378.72	676.41
378.91	688.12
379.11	674.07
379.31	725.57
379.50	606.20
379.70	648.33
379.89	718.54
380.09	683.44
380.28	655.35
380.48	627.26
380.68	615.56
380.87	636.63
381.07	664.71
381.26	622.58
381.46	653.01
381.65	669.39
381.85	643.65
382.04	713.86
382.24	688.12
382.43	655.35
382.63	683.44
382.83	737.27
383.02	763.01
383.22	748.97
383.41	786.42
383.61	739.61
383.80	732.59
384.00	709.18
384.19	739.61
384.39	683.44
384.58	725.57
384.78	767.70
384.97	720.88
385.17	751.31
385.36	655.35
385.56	777.06
385.75	709.18
385.95	863.66
386.14	828.55
386.34	809.83
386.53	858.98
386.72	798.12
386.92	800.46
387.11	861.32
387.31	826.21
387.50	713.86
387.70	851.96
387.89	835.57
388.09	882.38
388.28	849.61
388.48	821.53
388.67	894.08
388.86	884.72
389.06	840.25
389.25	959.62
389.45	950.26
389.64	947.92
389.84	936.21
390.03	964.30
390.22	938.55
390.42	1022.81
390.61	954.94
390.81	851.96
391.00	1013.45
391.19	1048.56
391.39	1008.77
391.58	992.39
391.78	1020.47
391.97	959.62
392.16	950.26
392.36	1013.45
392.55	1004.09
392.75	997.07
392.94	968.98
393.13	1013.45
393.33	858.98
393.52	966.64
393.71	990.05
393.91	1104.73
394.10	999.41
394.29	1064.94
394.49	1081.33
394.68	1081.33
394.88	1123.46
395.07	1149.20
395.26	1086.01
395.46	1088.35
395.65	1186.65
395.84	1151.54
396.04	1196.01
396.23	1048.56
396.42	1055.58
396.62	1067.28
396.81	1067.28
397.00	1135.16
397.19	1184.31
397.39	1221.76
397.58	1247.51
397.77	1210.06
397.97	1296.66
398.16	1205.38
398.35	1310.70
398.55	1329.42
398.74	1263.89
398.93	1397.30
399.12	1385.60
399.32	1322.40
399.51	1383.26
399.70	1458.15
399.90	1355.17
400.09	1418.36
400.28	1483.90
400.47	1409.00
400.67	1472.20
400.86	1420.71
401.05	1500.28
401.24	1500.28
401.44	1453.47
401.63	1481.56
401.82	1460.49
402.01	1497.94
402.21	1521.35
402.40	1563.48
402.59	1551.78
402.78	1654.76
402.97	1596.25
403.17	1664.12
403.36	1638.38
403.55	1605.61
403.74	1682.85
403.93	1675.82
404.13	1694.55
404.32	1657.10
404.51	1600.93
404.70	1612.63
404.89	1657.10
405.09	1743.70
405.28	1856.04
405.47	1692.21
405.66	1832.64
405.85	1802.21
406.05	1739.02
406.24	1762.42
406.43	1804.55
406.62	1820.94
406.81	1930.94
407.00	1870.09
407.20	1823.28
407.39	1825.62
407.58	1923.92
407.77	1954.35
407.96	2120.53
408.15	1987.11
408.34	1949.67
408.54	2094.78
408.73	1933.28
408.92	2022.22
409.11	2078.40
409.30	2005.84
409.49	2108.82
409.68	2073.71
409.87	2104.14
410.07	2120.53
410.26	2160.31
410.45	2272.66
410.64	2183.72
410.83	2342.88
411.02	2230.53
411.21	2314.79
411.40	2277.34
411.59	2303.09
411.78	2291.38
411.98	2338.20
412.17	2333.51
412.36	2340.54
412.55	2448.20
412.74	2471.61
412.93	2537.14
413.12	2434.16
413.31	2548.84
413.50	2576.93
413.69	2574.59
413.88	2630.76
414.07	2726.72
414.26	2649.49
414.45	2600.34
414.64	2651.83
414.83	2731.41
415.02	2724.38
415.22	2810.98
415.41	2731.41
415.60	2698.64
415.79	2813.32
415.98	3016.95
416.17	2850.77
416.36	2874.18
416.55	2981.84
416.74	2977.16
416.93	2937.37
417.12	2874.18
417.31	2998.23
417.50	3028.65
417.69	3070.78
417.88	3133.98
418.07	3075.46
418.26	3255.69
418.45	3164.40
418.64	3192.49
418.83	3272.07
419.02	3220.58
419.21	3300.16
419.39	3234.62
419.58	3234.62
419.77	3269.73
419.96	3187.81
420.15	3281.43
420.34	3358.67
420.53	3468.67
420.72	3485.06
420.91	3391.44
421.10	3410.16
421.29	3358.67
421.48	3454.63
421.67	3520.17
421.86	3461.65
422.05	3482.72
422.24	3454.63
422.43	3524.85
422.61	3478.04
422.80	3524.85
422.99	3588.04
423.18	3602.08
423.37	3548.25
423.56	3695.71
423.75	3637.19
423.94	3562.30
424.13	3363.35
424.32	3339.94
424.50	3634.85
424.69	3634.85
424.88	3742.52
425.07	3574.00
425.26	3541.23
425.45	3581.02
425.64	3588.04
425.83	3721.45
426.01	3639.53
426.20	3695.71
426.39	3655.92
426.58	3571.66
426.77	3779.97
426.96	3815.07
427.15	3801.03
427.33	3723.79
427.52	3742.52
427.71	3808.05
427.90	3852.52
428.09	3812.73
428.28	3817.41
428.46	3946.14
428.65	3733.15
428.84	3929.76
429.03	3981.25
429.22	3831.46
429.40	3798.69
429.59	3796.35
429.78	3681.66
429.97	3583.36
430.16	3840.82
430.34	3925.08
430.53	4107.64
430.72	3974.23
430.91	3859.54
431.10	3904.01
431.28	4037.42
431.47	4210.62
431.66	4227.01
431.85	4201.26
432.03	4210.62
432.22	4203.60
432.41	4210.62
432.60	4098.28
432.79	4245.73
432.97	4299.56
433.16	4320.63
433.35	4327.65
433.54	4276.16
433.72	4255.09
433.91	4280.84
434.10	4404.89
434.28	4374.46
434.47	4353.40
434.66	4568.73
434.85	4540.64
435.03	4442.34
435.22	4411.91
435.41	4617.88
435.59	4533.62
435.78	4582.77
435.97	4617.88
436.16	4837.89
436.34	4629.58
436.53	4594.47
436.72	4720.86
436.90	4641.28
437.09	4772.35
437.28	4716.18
437.46	4791.08
437.65	4676.39
437.84	4762.99
438.02	4758.31
438.21	4727.88
438.40	4706.82
438.58	5008.75
438.77	4992.36
438.96	4915.12
439.14	5043.85
439.33	5160.88
439.52	5160.88
439.70	5048.54
439.89	5177.26
440.08	5114.07
440.26	5266.21
440.45	5305.99
440.63	5357.49
440.82	5401.96
441.01	5427.70
441.19	5523.66
441.38	5535.37
441.57	5413.66
441.75	5568.13
441.94	5643.03
442.12	5734.31
442.31	5727.29
442.50	5696.86
442.68	5830.27
442.87	5774.10
443.05	5844.32
443.24	6045.60
443.43	5947.30
443.61	5713.25
443.80	6090.07
443.98	5720.27
444.17	5582.18
444.35	5909.85
444.54	5991.77
444.73	6001.13
444.91	5975.39
445.10	5996.45
445.28	5933.26
445.47	5865.38
445.65	5937.94
445.84	6024.54
446.02	5919.21
446.21	5888.79
446.39	5947.30
446.58	5961.34
446.77	6146.25
446.95	6064.33
447.14	6061.99
447.32	6265.61
447.51	6064.33
447.69	6106.46
447.88	6202.42
448.06	6127.52
448.25	6054.97
448.43	6218.80
448.62	6179.01
448.80	6069.01
448.99	6223.48
449.17	6251.57
449.36	6235.19
449.54	6328.81
449.73	6312.42
449.91	6623.72
450.10	6600.31
450.28	6490.31
450.46	6626.06
450.65	6387.32
450.83	6502.01
451.02	6513.71
451.20	6698.61
451.39	6424.77
451.57	6520.73
451.76	6429.45
451.94	6633.08
452.13	6537.12
452.31	6588.61
452.49	6637.76
452.68	6693.93
452.86	6686.91
453.05	6796.92
453.23	6766.49
453.42	6698.61
453.60	6553.50
453.78	6810.96
453.97	6757.13
454.15	6778.19
454.34	6661.16
454.52	6803.94
454.70	6832.02
454.89	6848.41
455.07	6946.71
455.26	7089.48
455.44	6878.83
455.62	6951.39
455.81	7098.84
455.99	7250.98
456.17	7148.00
456.36	7206.51
456.54	7136.29
456.73	7276.73
456.91	7466.31
457.09	7281.41
457.28	7501.42
457.46	7262.68
457.64	7531.84
457.83	7496.74
458.01	7229.91
458.19	7599.72
458.38	7382.05
458.56	7705.04
458.74	7475.67
458.93	7440.56
459.11	7557.59
459.29	7510.78
459.48	7660.57
459.66	7576.31
459.84	7679.30
460.03	7878.24
460.21	7777.60
460.39	7896.97
460.57	7721.43
460.76	7875.90
460.94	7784.62
461.12	7978.89
461.31	7873.56
461.49	7913.35
461.67	7698.02
461.85	8004.63
462.04	8025.70
462.22	8549.98
462.40	8100.59
462.59	8145.06
462.77	8205.92
462.95	8229.32
463.13	8154.43
463.32	8198.90
463.50	8325.29
463.68	8255.07
463.86	8140.38
464.05	8154.43
464.23	8269.11
464.41	8379.12
464.59	8100.59
464.78	8557.00
464.96	8510.19
465.14	8102.93
465.32	8594.45
465.50	8435.29
465.69	8603.81
465.87	8390.82
466.05	8465.72
466.23	8489.12
466.41	8631.90
466.60	8842.54
466.78	8355.71
466.96	8676.37
467.14	8613.17
467.32	8659.98
467.51	8865.95
467.69	8329.97
467.87	8463.38
468.05	8905.74
468.23	8840.20
468.41	8664.66
468.60	8805.10
468.78	8788.71
468.96	8720.84
469.14	8992.34
469.32	8945.53
469.50	8755.94
469.69	9118.73
469.87	8975.95
470.05	9062.55
470.23	9050.85
470.41	8954.89
470.59	9057.87
470.77	9008.72
470.95	9200.65
471.14	9235.75
471.32	9156.18
471.50	9446.40
471.68	9310.65
471.86	9568.11
472.04	9565.77
472.22	9659.39
472.40	9504.92
472.58	9542.36
472.77	9469.81
472.95	9741.31
473.13	10040.90
473.31	9600.88
473.49	9851.31
473.67	9879.40
473.85	9809.19
474.03	10115.80
474.21	10129.84
474.39	10106.43
474.57	10122.82
474.75	10164.95
474.93	10387.30
475.12	10038.56
475.30	10513.69
475.48	10251.55
475.66	10389.64
475.84	10438.79
476.02	10429.43
476.20	10775.83
476.38	10906.90
476.56	11023.92
476.74	10827.32
476.92	10782.85
477.10	10824.98
477.28	11091.80
477.46	11110.52
477.64	11035.63
477.82	11485.01
478.00	11611.40
478.18	11552.88
478.36	11669.91
478.54	11679.27
478.72	11620.76
478.90	11948.43
479.08	12074.82
479.26	12060.78
479.44	12093.55
479.62	12297.17
479.80	12126.32
479.98	12437.61
480.16	12554.63
480.34	12547.61
480.52	12982.95
480.70	12718.47
480.88	12641.23
481.06	12868.27
481.24	12943.16
481.41	12882.31
481.59	13277.86
481.77	13294.24
481.95	13163.17
482.13	13411.27
482.31	13352.76
482.49	13748.31
482.67	13565.74
482.85	13923.85
483.03	14190.67
483.21	14010.45
483.39	14120.45
483.57	14127.47
483.74	14345.14
483.92	14331.10
484.10	14274.93
484.28	14745.38
484.46	14906.87
484.64	15215.82
484.82	14682.18
485.00	15199.44
485.18	15068.37
485.35	15136.24
485.53	15206.46
485.71	15063.69
485.89	15543.50
486.07	15686.27
486.25	15279.02
486.43	15843.09
486.61	15597.33
486.78	16013.95
486.96	16269.06
487.14	16191.83
487.32	16381.41
487.50	16594.40
487.68	16908.03
487.85	17067.19
488.03	17036.76
488.21	17224.00
488.39	17305.92
488.57	17247.41
488.75	17659.34
488.92	17837.22
489.10	17914.46
489.28	18050.21
489.46	18349.80
489.64	18244.48
489.81	18483.21
489.99	18686.84
490.17	18513.64
490.35	19037.92
490.53	18977.06
490.70	19136.22
490.88	18958.34
491.06	19461.55
491.24	19199.41
491.41	19487.30
491.59	19562.20
491.77	19381.98
491.95	19721.35
492.13	20177.76
492.30	20149.67
492.48	20201.16
492.66	20238.61
492.84	20154.35
493.01	20526.50
493.19	20435.22
493.37	20547.56
493.54	20905.66
493.72	21188.87
493.90	20741.83
494.08	21352.71
494.25	21542.29
494.43	21598.46
494.61	21958.91
494.79	21689.74
494.96	21420.58
495.14	21912.10
495.32	22139.13
495.49	22295.94
495.67	22108.70
495.85	22347.44
496.02	22651.70
496.20	22801.50
496.38	22831.93
496.55	22951.29
496.73	23187.69
496.91	23122.15
497.09	23143.22
497.26	23405.36
497.44	22993.42
497.62	23367.91
497.79	23730.69
497.97	23611.32
498.14	23931.98
498.32	24226.89
498.50	24086.45
498.67	24226.89
498.85	24030.28
499.03	24332.21
499.20	24020.92
499.38	24683.29
499.56	24493.71
499.73	24601.37
499.91	24926.71
500.08	24959.47
500.26	24638.82
500.44	24968.84
500.61	25357.36
500.79	25207.57
500.97	25034.37
501.14	25502.48
501.32	25759.94
501.49	25572.69
501.67	25654.61
501.84	25783.34
502.02	25830.15
502.20	25607.80
502.37	26235.06
502.55	26036.12
502.72	25963.56
502.90	26504.23
503.07	25853.56
503.25	26539.33
503.43	26148.46
503.60	26672.74
503.78	26637.64
503.95	26625.93
504.13	26806.16
504.30	26897.44
504.48	26780.41
504.65	26941.91
504.83	26974.67
505.01	27271.92
505.18	27187.66
505.36	27601.94
505.53	27468.53
505.71	27887.48
505.88	28041.96
506.06	27840.67
506.23	28020.89
506.41	27683.86
506.58	27784.50
506.76	27693.22
506.93	28166.01
507.11	28119.20
507.28	28315.80
507.46	28135.58
507.63	28301.76
507.81	28514.75
507.98	28371.97
508.16	28776.89
508.33	28762.84
508.50	28893.91
508.68	28755.82
508.85	29207.55
509.03	29027.32
509.20	29256.70
509.38	29355.00
509.55	29233.29
509.73	29696.72
509.90	29336.27
510.08	29575.01
510.25	29553.94
510.42	29619.48
510.60	29968.22
510.77	30150.78
510.95	30125.04
511.12	29722.46
511.30	30078.22
511.47	30649.32
511.64	30525.27
511.82	30485.48
511.99	29874.60
512.17	30141.42
512.34	30412.92
512.51	30373.13
512.69	30937.20
512.86	30871.67
513.04	31159.55
513.21	30761.66
513.38	30937.20
513.56	31152.53
513.73	30979.33
513.90	31084.65
514.08	31281.26
514.25	31241.47
514.43	31461.48
514.60	31374.88
514.77	31440.42
514.95	31510.63
515.12	31772.77
515.29	31964.70
515.47	31997.46
515.64	31901.50
515.81	31826.60
515.99	31864.05
516.16	31943.63
516.33	31660.43
516.51	32060.66
516.68	31854.69
516.85	32018.53
517.03	32402.38
517.20	32041.93
517.37	32418.76
517.54	32854.10
517.72	32577.92
517.89	32636.43
518.06	32474.93
518.24	32514.72
518.41	32535.79
518.58	32725.37
518.75	33020.28
518.93	33219.22
519.10	33092.83
519.27	33319.87
519.45	33490.73
519.62	33738.82
519.79	33418.17
519.96	33298.80
520.14	33699.03
520.31	33584.35
520.48	33818.40
520.65	33806.70
520.83	34590.78
521.00	34024.37
521.17	34012.66
521.34	34117.99
521.52	34469.07
521.69	34281.83
521.86	34473.75
522.03	34459.71
522.20	34588.44
522.38	34419.92
522.55	34869.30
522.72	34464.39
522.89	34490.13
523.07	34665.67
523.24	35136.12
523.41	34955.90
523.58	34824.83
523.75	35072.93
523.92	35075.27
524.10	35742.32
524.27	35030.80
524.44	35274.21
524.61	35395.92
524.78	35824.24
524.96	35913.18
525.13	35690.83
525.30	35667.42
525.47	36051.27
525.64	35910.84
525.81	36165.96
525.98	35679.13
526.16	35896.80
526.33	35810.20
526.50	36062.97
526.67	35658.06
526.84	36184.68
527.01	35639.34
527.18	35885.09
527.36	36407.03
527.53	36531.08
527.70	36521.72
527.87	36641.09
528.04	36409.37
528.21	36339.16
528.38	36699.60
528.55	36346.18
528.72	36760.45
528.89	36730.03
529.07	36870.46
529.24	36547.47
529.41	36954.72
529.58	36627.04
529.75	37027.28
529.92	36982.80
530.09	36837.69
530.26	37331.54
530.43	37226.22
530.60	36863.44
530.77	37453.25
530.94	37565.60
531.11	37146.64
531.28	37682.62
531.46	37790.29
531.63	37481.34
531.80	37832.42
531.97	37792.63
532.14	37429.85
532.31	37509.43
532.48	37361.97
532.65	37940.08
532.82	37972.85
532.99	37956.47
533.16	37617.09
533.33	37516.45
533.50	38227.97
533.67	37928.38
533.84	38120.31
534.01	37970.51
534.18	38380.10
534.35	38529.90
534.52	38426.92
534.69	38380.10
534.86	38485.43
535.03	38057.11
535.20	38916.09
535.37	38829.49
535.54	39330.36
535.71	38532.24
535.88	38986.30
536.05	38843.53
536.22	39056.52
536.38	39037.80
536.55	39077.58
536.72	39239.08
536.89	38689.06
537.06	39257.81
537.23	38904.38
537.40	39133.76
537.57	39180.57
537.74	39332.70
537.91	39599.52
538.08	39360.79
538.25	38700.76
538.42	39313.98
538.59	39442.71
538.75	39122.05
538.92	39456.75
539.09	39882.73
539.26	39461.43
539.43	39742.30
539.60	39922.52
539.77	39573.78
539.94	39440.37
540.11	39777.40
540.28	39798.47
540.44	39761.02
540.61	39768.04
540.78	39590.16
540.95	39416.96
541.12	39875.71
541.29	39927.20
541.46	40072.31
541.62	40016.14
541.79	40470.20
541.96	40060.61
542.13	40201.04
542.30	40397.65
542.47	40514.67
542.63	40577.87
542.80	39964.65
542.97	40741.71
543.14	41174.70
543.31	40636.38
543.48	41095.13
543.64	41359.61
543.81	41163.00
543.98	41301.09
544.15	41111.51
544.32	40964.06
544.48	41579.62
544.65	41242.58
544.82	41338.54
544.99	40954.69
545.16	41017.89
545.32	41036.61
545.49	41427.48
545.66	41242.58
545.83	41291.73
546.00	41755.16
546.16	41340.88
546.33	41141.94
546.50	40921.93
546.67	41675.58
546.83	41071.72
547.00	41652.17
547.17	41572.60
547.34	41394.71
547.50	41926.02
547.67	41998.57
547.84	42113.26
548.00	42220.92
548.17	41996.23
548.34	42005.59
548.51	42213.90
548.67	42103.90
548.84	41830.05
549.01	42050.06
549.18	42106.24
549.34	42164.75
549.51	42548.60
549.68	42326.25
549.84	42431.57
550.01	42447.96
550.18	42199.86
550.34	42234.97
550.51	41933.04
550.68	42209.22
550.84	41989.21
551.01	42375.40
551.18	42211.56
551.34	42288.80
551.51	42258.37
551.68	42555.62
551.84	42333.27
552.01	42071.13
552.18	42253.69
552.34	42295.82
552.51	42752.23
552.68	42459.66
552.84	43021.39
553.01	42721.80
553.18	43037.77
553.34	42923.08
553.51	42607.11
553.67	42848.19
553.84	42934.79
554.01	43110.33
554.17	43409.92
554.34	43222.67
554.51	43360.76
554.67	43086.92
554.84	43243.74
555.00	43182.88
555.17	42939.47
555.33	43105.65
555.50	43384.17
555.67	43210.97
555.83	43269.48
556.00	42995.64
556.16	43803.13
556.33	43477.79
556.50	43480.13
556.66	43454.39
556.83	43454.39
556.99	43639.29
557.16	43538.65
557.32	43749.29
557.49	43882.70
557.65	43569.07
557.82	43613.54
557.98	43416.94
558.15	43468.43
558.32	43812.49
558.48	43402.89
558.65	43402.89
558.81	43407.58
558.98	43564.39
559.14	43365.45
559.31	43861.64
559.47	43585.46
559.64	43838.23
559.80	43814.83
559.97	44142.50
560.13	43601.84
560.30	43676.74
560.46	43274.16
560.63	44144.84
560.79	44102.71
560.96	44102.71
561.12	43796.10
561.29	44020.80
561.45	44264.21
561.61	44069.95
561.78	43779.72
561.94	43833.55
562.11	43826.53
562.27	44086.33
562.44	43938.88
562.60	44161.23
562.77	44416.35
562.93	44264.21
563.10	44456.14
563.26	43793.76
563.42	44512.31
563.59	44009.09
563.75	44334.43
563.92	43871.00
564.08	44598.91
564.24	44442.09
564.41	44655.08
564.57	44196.34
564.74	44119.10
564.90	44119.10
565.07	44203.36
565.23	44023.14
565.39	43941.22
565.56	44624.65
565.72	44161.23
565.88	44282.94
566.05	44133.14
566.21	44334.43
566.38	44404.64
566.54	44182.29
566.70	44662.10
566.87	44540.39
567.03	44631.68
567.19	44868.07
567.36	44388.26
567.52	44605.93
567.68	44999.14
567.85	44762.75
568.01	44666.78
568.17	44301.66
568.34	44821.26
568.50	44442.09
568.66	44516.99
568.83	44495.92
568.99	44158.89
569.15	44540.39
569.32	44418.69
569.48	44236.12
569.64	44776.79
569.81	44706.57
569.97	44383.58
570.13	44718.28
570.30	44662.10
570.46	44226.76
570.62	44243.15
570.78	44591.89
570.95	44439.75
571.11	44435.07
571.27	44610.61
571.43	44807.22
571.60	44636.36
571.76	44886.79
571.92	44760.40
572.09	44638.70
572.25	44601.25
572.41	44477.20
572.57	44720.62
572.74	44800.19
572.90	44690.19
573.06	44549.76
573.22	44868.07
573.38	45195.74
573.55	44666.78
573.71	44781.47
573.87	44313.36
574.03	44456.14
574.20	44399.96
574.36	44931.26
574.52	45041.27
574.68	44914.88
574.84	45090.42
575.01	44772.11
575.17	44942.97
575.33	44755.72
575.49	44741.68
575.65	45404.05
575.82	44973.39
575.98	44882.11
576.14	45195.74
576.30	44737.00
576.46	44776.79
576.62	44505.29
576.79	44612.95
576.95	44163.57
577.11	44414.01
577.27	45069.36
577.43	44835.30
577.59	44542.74
577.75	45186.38
577.92	44568.48
578.08	44968.71
578.24	44601.25
578.40	44463.16
578.56	44921.90
578.72	45162.98
578.88	45432.14
579.04	44933.60
579.21	45090.42
579.37	44170.59
579.53	45095.10
579.69	44236.12
579.85	44877.43
580.01	45001.48
580.17	45102.12
580.33	44935.95
580.49	45010.84
580.65	45336.18
580.82	45354.90
580.98	44905.52
581.14	44634.02
581.30	44966.37
581.46	44713.59
581.62	44931.26
581.78	45074.04
581.94	45170.00
582.10	44935.95
582.26	45064.67
582.42	44832.96
582.58	45275.32
582.74	44912.54
582.90	45137.23
583.06	45109.14
583.22	45223.83
583.38	45467.25
583.54	45155.96
583.70	44931.26
583.86	44758.06
584.02	44612.95
584.18	44835.30
584.34	45024.89
584.50	45118.51
584.66	45294.05
584.82	44825.94
584.98	45109.14
585.14	45230.85
585.30	44676.15
585.46	45045.95
585.62	44987.44
585.78	44825.94
585.94	44671.46
586.10	45074.04
586.26	44652.74
586.42	45144.25
586.58	45333.84
586.74	45076.38
586.90	45095.10
587.06	44982.76
587.22	45067.02
587.38	45062.33
587.54	45621.72
587.70	44978.07
587.86	45432.14
588.02	44926.58
588.18	45324.47
588.34	45043.61
588.49	44865.73
588.65	44711.25
588.81	44800.19
588.97	45055.31
589.13	44390.60
589.29	45193.40
589.45	45052.97
589.61	45041.27
589.77	45109.14
589.93	45380.65
590.08	45741.09
590.24	45329.16
