SpectraSuite Data File
++++++++++++++++++++++++++++++++++++
Date: Fri Oct 25 10:43:35 EDT 2013
User: price-jones
Dark Spectrum Present: No
Reference Spectrum Present: No
Number of Sampled Component Spectra: 1
Spectrometers: USB2+H05261
Integration Time (usec): 100000 (USB2+H05261)
Spectra Averaged: 1 (USB2+H05261)
Boxcar Smoothing: 0 (USB2+H05261)
Correct for Electrical Dark: No (USB2+H05261)
Strobe/Lamp Enabled: No (USB2+H05261)
Correct for Detector Non-linearity: No (USB2+H05261)
Correct for Stray Light: No (USB2+H05261)
Number of Pixels in Processed Spectrum: 2048
>>>>>Begin Processed Spectral Data<<<<<
365.73	88.94
365.92	88.94
366.12	88.94
366.32	77.24
366.52	63.19
366.72	70.22
366.91	32.77
367.11	44.47
367.31	18.72
367.51	0.00
367.70	28.09
367.90	79.58
368.10	0.00
368.30	53.83
368.49	74.90
368.69	175.54
368.89	0.00
369.09	21.06
369.28	23.41
369.48	25.75
369.68	95.96
369.87	98.30
370.07	58.51
370.27	42.13
370.47	248.10
370.66	472.79
370.86	435.34
371.06	458.74
371.25	498.53
371.45	447.04
371.65	475.13
371.84	444.70
372.04	421.30
372.24	440.02
372.44	496.19
372.63	517.26
372.83	512.58
373.03	561.73
373.22	514.92
373.42	524.28
373.62	571.09
373.81	578.11
374.01	496.19
374.21	554.71
374.40	564.07
374.60	550.03
374.79	554.71
374.99	592.16
375.19	606.20
375.38	531.30
375.58	533.64
375.78	606.20
375.97	606.20
376.17	704.50
376.37	643.65
376.56	638.97
376.76	667.05
376.95	575.77
377.15	688.12
377.35	760.67
377.54	690.46
377.74	688.12
377.93	620.24
378.13	636.63
378.33	547.69
378.52	650.67
378.72	601.52
378.91	655.35
379.11	681.10
379.31	603.86
379.50	706.84
379.70	706.84
379.89	737.27
380.09	702.16
380.28	763.01
380.48	664.71
380.68	676.41
380.87	685.78
381.07	713.86
381.26	800.46
381.46	819.19
381.65	730.25
381.85	723.23
382.04	753.65
382.24	671.73
382.43	716.20
382.63	739.61
382.83	737.27
383.02	624.92
383.22	734.93
383.41	678.76
383.61	751.31
383.80	770.04
384.00	746.63
384.19	746.63
384.39	854.30
384.58	748.97
384.78	807.48
384.97	746.63
385.17	765.36
385.36	835.57
385.56	802.80
385.75	760.67
385.95	844.93
386.14	915.15
386.34	826.21
386.53	760.67
386.72	854.30
386.92	873.02
387.11	849.61
387.31	873.02
387.50	816.85
387.70	807.48
387.89	840.25
388.09	940.90
388.28	889.40
388.48	849.61
388.67	973.66
388.86	971.32
389.06	959.62
389.25	1156.22
389.45	990.05
389.64	926.85
389.84	978.34
390.03	1039.20
390.22	980.68
390.42	971.32
390.61	1090.69
390.81	1027.50
391.00	1151.54
391.19	1111.75
391.39	1046.22
391.58	1097.71
391.78	980.68
391.97	1048.56
392.16	968.98
392.36	1100.05
392.55	1048.56
392.75	987.71
392.94	1074.31
393.13	957.28
393.33	1011.11
393.52	990.05
393.71	1104.73
393.91	1104.73
394.10	1109.41
394.29	1233.46
394.49	1219.42
394.68	1142.18
394.88	1193.67
395.07	1205.38
395.26	1228.78
395.46	1196.01
395.65	1322.40
395.84	1299.00
396.04	1282.61
396.23	1174.95
396.42	1125.80
396.62	1210.06
396.81	1156.22
397.00	1188.99
397.19	1296.66
397.39	1294.32
397.58	1409.00
397.77	1324.74
397.97	1540.07
398.16	1387.94
398.35	1533.05
398.55	1514.33
398.74	1462.83
398.93	1579.86
399.12	1465.18
399.32	1432.41
399.51	1631.35
399.70	1619.65
399.90	1633.69
400.09	1593.90
400.28	1633.69
400.47	1673.48
400.67	1657.10
400.86	1680.50
401.05	1727.32
401.24	1696.89
401.44	1706.25
401.63	1755.40
401.82	1743.70
402.01	1771.79
402.21	1776.47
402.40	1699.23
402.59	1769.44
402.78	1689.87
402.97	1856.04
403.17	1834.98
403.36	1891.15
403.55	1849.02
403.74	1867.75
403.93	2022.22
404.13	1919.24
404.32	1966.05
404.51	1926.26
404.70	1942.64
404.89	1930.94
405.09	2022.22
405.28	2015.20
405.47	1991.80
405.66	2033.93
405.85	1996.48
406.05	2008.18
406.24	1987.11
406.43	2040.95
406.62	2153.29
406.81	2228.19
407.00	2071.37
407.20	2120.53
407.39	2106.48
407.58	2193.08
407.77	2225.85
407.96	2277.34
408.15	2326.49
408.34	2319.47
408.54	2413.09
408.73	2267.98
408.92	2422.45
409.11	2305.43
409.30	2314.79
409.49	2249.25
409.68	2305.43
409.87	2324.15
410.07	2186.06
410.26	2436.50
410.45	2544.16
410.64	2469.27
410.83	2544.16
411.02	2551.18
411.21	2708.00
411.40	2649.49
411.59	2654.17
411.78	2640.12
411.98	2572.25
412.17	2747.79
412.36	2663.53
412.55	2864.82
412.74	2789.92
412.93	2829.71
413.12	2747.79
413.31	2904.60
413.50	2829.71
413.69	2913.97
413.88	2892.90
414.07	2846.09
414.26	2920.99
414.45	3019.29
414.64	2888.22
414.83	3124.62
415.02	3117.59
415.22	3101.21
415.41	3185.47
415.60	3091.85
415.79	3103.55
415.98	3124.62
416.17	3265.05
416.36	3311.86
416.55	3356.33
416.74	3361.01
416.93	3290.79
417.12	3353.99
417.31	3363.35
417.50	3417.18
417.69	3452.29
417.88	3604.42
418.07	3445.27
418.26	3485.06
418.45	3557.61
418.64	3698.05
418.83	3506.12
419.02	3557.61
419.21	3625.49
419.39	3665.28
419.58	3641.87
419.77	3559.95
419.96	3681.66
420.15	3763.58
420.34	3730.81
420.53	3847.84
420.72	4011.68
420.91	3990.61
421.10	3838.48
421.29	4030.40
421.48	3845.50
421.67	3892.31
421.86	3918.06
422.05	3782.31
422.24	3721.45
422.43	3854.86
422.61	3960.19
422.80	4016.36
422.99	4037.42
423.18	3997.64
423.37	4241.05
423.56	4074.87
423.75	4018.70
423.94	3901.67
424.13	3840.82
424.32	3904.01
424.50	3927.42
424.69	4004.66
424.88	4184.88
425.07	4093.60
425.26	3988.27
425.45	4112.32
425.64	3950.82
425.83	4032.74
426.01	4091.26
426.20	4095.94
426.39	4121.68
426.58	3918.06
426.77	3988.27
426.96	4060.83
427.15	4128.70
427.33	4091.26
427.52	4095.94
427.71	4084.23
427.90	4210.62
428.09	4219.99
428.28	4077.21
428.46	4308.93
428.65	4154.45
428.84	4313.61
429.03	4329.99
429.22	3941.46
429.40	4147.43
429.59	4255.09
429.78	4063.17
429.97	4002.32
430.16	3999.98
430.34	4212.96
430.53	4102.96
430.72	4299.56
430.91	4208.28
431.10	4472.76
431.28	4688.09
431.47	4851.93
431.66	4667.03
431.85	4610.86
432.03	4657.67
432.22	4748.95
432.41	4645.96
432.60	4758.31
432.79	4784.06
432.97	4730.22
433.16	4816.82
433.35	4751.29
433.54	4826.18
433.72	4741.93
433.91	4891.72
434.10	4725.54
434.28	4814.48
434.47	4873.00
434.66	5093.01
434.85	5041.51
435.03	5046.20
435.22	4947.89
435.41	5135.14
435.59	5146.84
435.78	5188.97
435.97	5275.57
436.16	5177.26
436.34	5406.64
436.53	5261.52
436.72	5392.59
436.90	5284.93
437.09	5114.07
437.28	5291.95
437.46	5071.94
437.65	5123.43
437.84	5277.91
438.02	5205.35
438.21	5334.08
438.40	5416.00
438.58	5486.22
438.77	5423.02
438.96	5416.00
439.14	5610.26
439.33	5708.57
439.52	5755.38
439.70	5849.00
439.89	5837.30
440.08	5813.89
440.26	5795.17
440.45	5860.70
440.63	5940.28
440.82	6200.08
441.01	6017.52
441.19	6066.67
441.38	6244.55
441.57	6237.53
441.75	6272.64
441.94	6387.32
442.12	6511.37
442.31	6319.45
442.50	6408.39
442.68	6246.89
442.87	6420.09
443.05	6562.86
443.24	6630.74
443.43	6541.80
443.61	6588.61
443.80	6745.42
443.98	6445.84
444.17	6354.55
444.35	6651.80
444.54	6750.10
444.73	6623.72
444.91	6600.31
445.10	6600.31
445.28	6567.54
445.47	6424.77
445.65	6469.24
445.84	6441.15
446.02	6663.51
446.21	6757.13
446.39	6555.84
446.58	6799.26
446.77	6754.79
446.95	6656.48
447.14	6862.45
447.32	6913.94
447.51	6860.11
447.69	6820.32
447.88	6927.99
448.06	6864.79
448.25	6923.30
448.43	6874.15
448.62	6855.43
448.80	6836.70
448.99	6825.00
449.17	6920.96
449.36	6942.03
449.54	7119.91
449.73	7059.06
449.91	7211.19
450.10	7166.72
450.28	7492.05
450.46	7396.09
450.65	7400.77
450.83	7410.14
451.02	7248.64
451.20	7386.73
451.39	7449.93
451.57	7384.39
451.76	7293.11
451.94	7300.13
452.13	7311.83
452.31	7272.04
452.49	7339.92
452.68	7335.24
452.86	7262.68
453.05	7414.82
453.23	7391.41
453.42	7342.26
453.60	7609.08
453.78	7480.35
453.97	7382.05
454.15	7328.22
454.34	7424.18
454.52	7808.03
454.70	7779.94
454.89	7616.10
455.07	7648.87
455.26	7915.69
455.44	7950.80
455.62	7786.96
455.81	7857.18
455.99	7946.12
456.17	8145.06
456.36	7922.71
456.54	7988.25
456.73	8163.79
456.91	8365.07
457.09	8280.82
457.28	8512.53
457.46	8236.35
457.64	8332.31
457.83	8196.56
458.01	8006.97
458.19	8395.50
458.38	8339.33
458.56	8365.07
458.74	8311.24
458.93	8416.57
459.11	8430.61
459.29	8418.91
459.48	8540.61
459.66	8681.05
459.84	8404.86
460.03	8706.79
460.21	8681.05
460.39	8671.68
460.57	8566.36
460.76	8849.57
460.94	8772.33
461.12	8730.20
461.31	8777.01
461.49	8856.59
461.67	8575.72
461.85	9057.87
462.04	8777.01
462.22	9256.82
462.40	9128.09
462.59	9022.77
462.77	9130.43
462.95	9036.81
463.13	9167.88
463.32	8940.85
463.50	9062.55
463.68	9095.32
463.86	9027.45
464.05	8769.99
464.23	9041.49
464.41	9193.62
464.59	8833.18
464.78	9371.50
464.96	9067.24
465.14	8980.64
465.32	9483.85
465.50	9549.39
465.69	9411.29
465.87	9233.41
466.05	9195.96
466.23	9193.62
466.41	9458.10
466.60	9507.26
466.78	9060.21
466.96	9310.65
467.14	9476.83
467.32	9680.46
467.51	9825.57
467.69	9380.87
467.87	9518.96
468.05	9556.41
468.23	9458.10
468.41	9549.39
468.60	9687.48
468.78	9811.53
468.96	9668.75
469.14	9708.54
469.32	10010.47
469.50	9764.72
469.69	9942.60
469.87	9860.68
470.05	9839.61
470.23	9916.85
470.41	9837.27
470.59	10197.71
470.77	9877.06
470.95	10459.85
471.14	10143.88
471.32	10218.78
471.50	10525.39
471.68	10396.66
471.86	10396.66
472.04	10455.17
472.22	10518.37
472.40	10490.28
472.58	10469.22
472.77	10649.44
472.95	10773.49
473.13	11131.59
473.31	10724.33
473.49	10747.74
473.67	10698.59
473.85	10885.83
474.03	11274.36
474.21	11227.55
474.39	11248.61
474.57	11257.98
474.75	11133.93
474.93	11133.93
475.12	11393.73
475.30	11477.99
475.48	11335.21
475.66	11508.41
475.84	11325.85
476.02	11595.01
476.20	11243.93
476.38	11899.28
476.56	11976.52
476.74	11985.88
476.92	11910.99
477.10	11981.20
477.28	12304.20
477.46	12058.44
477.64	12351.01
477.82	12538.25
478.00	12884.65
478.18	12601.44
478.36	12629.53
478.54	12926.78
478.72	12730.17
478.90	13067.21
479.08	13280.20
479.26	13535.32
479.44	13432.33
479.62	13137.43
479.80	13434.68
479.98	13855.97
480.16	13963.64
480.34	13834.91
480.52	14010.45
480.70	14047.90
480.88	13865.33
481.06	14270.25
481.24	14221.10
481.41	14602.60
481.59	14691.54
481.77	14768.78
481.95	14504.30
482.13	14883.47
482.31	14635.37
482.49	15164.33
482.67	15332.85
482.85	15124.54
483.03	15433.49
483.21	15372.64
483.39	15630.10
483.57	15510.73
483.74	15482.64
483.92	15740.10
484.10	15676.91
484.28	16077.14
484.46	16070.12
484.64	16264.38
484.82	16009.26
485.00	16547.59
485.18	16547.59
485.35	16629.51
485.53	16393.11
485.71	16379.07
485.89	16587.38
486.07	16688.02
486.25	16835.47
486.43	17029.74
486.61	17137.40
486.78	17682.75
486.96	17750.62
487.14	17862.97
487.32	17750.62
487.50	18036.17
487.68	18352.14
487.85	18518.32
488.03	18609.60
488.21	18876.42
488.39	18815.57
488.57	18728.97
488.75	19192.39
488.92	19393.68
489.10	19601.99
489.28	19770.51
489.46	19426.45
489.64	19798.59
489.81	20538.20
489.99	20575.65
490.17	20702.04
490.35	20676.29
490.53	20341.60
490.70	20908.01
490.88	20898.64
491.06	20868.22
491.24	20896.30
491.41	20943.11
491.59	21163.12
491.77	20947.79
491.95	21507.18
492.13	21619.53
492.30	21642.93
492.48	21759.96
492.66	22073.59
492.84	22527.66
493.01	22387.22
493.19	22466.80
493.37	22466.80
493.54	22838.95
493.72	22874.06
493.90	23119.81
494.08	22986.40
494.25	23239.18
494.43	23660.48
494.61	23803.25
494.79	23702.61
494.96	23735.37
495.14	23740.05
495.32	23999.85
495.49	23868.78
495.67	24184.76
495.85	24620.10
496.02	24666.91
496.20	24919.68
496.38	24430.51
496.55	25146.72
496.73	25340.98
496.91	25266.08
497.09	25570.35
497.26	25495.46
497.44	25441.62
497.62	25610.14
497.79	25715.47
497.97	25441.62
498.14	25776.32
498.32	26015.05
498.50	25624.18
498.67	26368.48
498.85	26508.91
499.03	26731.26
499.20	26382.52
499.38	26754.66
499.56	26817.86
499.73	26827.22
499.91	26740.62
500.08	27054.25
500.26	26803.82
500.44	26794.45
500.61	26965.31
500.79	26438.69
500.97	27087.02
501.14	27438.10
501.32	27321.07
501.49	27033.19
501.67	27388.95
501.84	27906.21
502.02	27894.50
502.20	27814.93
502.37	27936.63
502.55	28137.92
502.72	27894.50
502.90	28325.16
503.07	28294.74
503.25	28388.36
503.43	28276.01
503.60	28610.71
503.78	28180.05
503.95	28388.36
504.13	28774.55
504.30	29193.50
504.48	29223.93
504.65	29289.46
504.83	29160.73
505.01	29596.07
505.18	29603.10
505.36	29869.92
505.53	29851.19
505.71	30162.48
505.88	30061.84
506.06	29521.18
506.23	30146.10
506.41	30164.82
506.58	30132.06
506.76	29839.49
506.93	30209.29
507.11	30263.13
507.28	30349.73
507.46	30396.54
507.63	30628.25
507.81	30349.73
507.98	30291.21
508.16	30714.85
508.33	30733.57
508.50	31021.46
508.68	31288.28
508.85	31519.99
509.03	31370.20
509.20	31702.56
509.38	31510.63
509.55	31749.37
509.73	31887.46
509.90	31475.52
510.08	31920.23
510.25	31700.22
510.42	31676.81
510.60	31971.72
510.77	31873.42
510.95	32350.88
511.12	32140.24
511.30	32236.20
511.47	32467.91
511.64	32369.61
511.82	32898.57
511.99	32444.51
512.17	32877.51
512.34	32353.23
512.51	33263.69
512.69	33008.58
512.86	32842.40
513.04	33198.16
513.21	33106.88
513.38	33205.18
513.56	33521.15
513.73	32610.68
513.90	33284.76
514.08	33074.11
514.25	33273.06
514.43	33457.96
514.60	33340.93
514.77	33717.76
514.95	33652.22
515.12	34096.92
515.29	34017.35
515.47	34501.84
515.64	34375.45
515.81	34663.33
515.99	34082.88
516.16	33888.62
516.33	33654.56
516.51	34033.73
516.68	33727.12
516.85	33558.60
517.03	34155.44
517.20	34455.03
517.37	34918.45
517.54	34916.11
517.72	34642.27
517.89	34319.28
518.06	33998.62
518.24	34288.85
518.41	34419.92
518.58	35093.99
518.75	34897.39
518.93	35262.51
519.10	35180.59
519.27	35082.29
519.45	34902.07
519.62	35449.75
519.79	35629.98
519.96	35339.75
520.14	35681.47
520.31	35466.14
520.48	35796.15
520.65	36048.93
520.83	36070.00
521.00	36114.47
521.17	36196.38
521.34	36243.20
521.52	36531.08
521.69	36694.92
521.86	36807.26
522.03	36893.86
522.20	37053.02
522.38	36549.81
522.55	36928.97
522.72	36603.64
522.89	36648.11
523.07	36926.63
523.24	36797.90
523.41	37315.16
523.58	36889.18
523.75	37961.15
523.92	37401.76
524.10	37317.50
524.27	37443.89
524.44	37713.05
524.61	38087.54
524.78	37614.75
524.96	37455.59
525.13	37919.02
525.30	38183.50
525.47	37907.32
525.64	37713.05
525.81	38277.12
525.98	37748.16
526.16	37628.79
526.33	37366.65
526.50	37961.15
526.67	37326.86
526.84	37504.74
527.01	37628.79
527.18	38106.26
527.36	38342.66
527.53	38555.64
527.70	39012.05
527.87	38712.46
528.04	38740.55
528.21	38838.85
528.38	38745.23
528.55	39349.09
528.72	38909.07
528.89	38925.45
529.07	39164.18
529.24	39023.75
529.41	39377.17
529.58	39274.19
529.75	39229.72
529.92	39468.45
530.09	39047.16
530.26	39339.72
530.43	39599.52
530.60	39175.89
530.77	39129.08
530.94	39856.98
531.11	39686.12
531.28	39501.22
531.46	39323.34
531.63	39959.97
531.80	39688.46
531.97	39433.35
532.14	39948.26
532.31	39627.61
532.48	40172.96
532.65	40105.08
532.82	39896.77
532.99	39770.38
533.16	40137.85
533.33	40369.56
533.50	40343.81
533.67	40086.36
533.84	40058.27
534.01	40289.98
534.18	40381.26
534.35	40376.58
534.52	40247.85
534.69	40165.93
534.86	40491.27
535.03	40900.86
535.20	41078.74
535.37	40978.10
535.54	41127.89
535.71	40992.14
535.88	40999.16
536.05	40882.14
536.22	41200.45
536.38	40669.15
536.55	41212.15
536.72	40847.03
536.89	40545.10
537.06	40994.48
537.23	41593.66
537.40	40935.97
537.57	41347.90
537.74	41134.92
537.91	41593.66
538.08	41549.19
538.25	41310.46
538.42	41404.08
538.59	41333.86
538.75	41275.35
538.92	41535.15
539.09	41628.77
539.26	41640.47
539.43	41556.21
539.60	41762.18
539.77	41776.22
539.94	41326.84
540.11	41614.72
540.28	41954.10
540.44	41839.42
540.61	41968.15
540.78	41715.37
540.95	41872.18
541.12	41507.06
541.29	41808.99
541.46	42085.17
541.62	41773.88
541.79	42260.71
541.96	41993.89
542.13	42373.06
542.30	42080.49
542.47	42129.64
542.63	42616.47
542.80	42520.51
542.97	42712.44
543.14	42447.96
543.31	42719.46
543.48	42913.72
543.64	43306.93
543.81	43274.16
543.98	42831.80
544.15	42979.26
544.32	43342.04
544.48	43763.34
544.65	43171.18
544.82	43040.11
544.99	43030.75
545.16	43126.71
545.32	43189.91
545.49	43676.74
545.66	43840.57
545.83	43248.42
546.00	43906.11
546.16	43365.45
546.33	43021.39
546.50	43194.59
546.67	43981.01
546.83	43388.85
547.00	43639.29
547.17	43377.15
547.34	43487.15
547.50	43608.86
547.67	43608.86
547.84	43807.81
548.00	44083.99
548.17	44100.37
548.34	43882.70
548.51	44093.35
548.67	44130.80
548.84	44011.43
549.01	43828.87
549.18	43632.27
549.34	43669.72
549.51	44219.74
549.68	44486.56
549.84	44083.99
550.01	44453.79
550.18	43842.92
550.34	44369.54
550.51	43988.03
550.68	44194.00
550.84	44091.01
551.01	44444.43
551.18	44542.74
551.34	44296.98
551.51	44823.60
551.68	44680.83
551.84	44554.44
552.01	44149.53
552.18	44573.16
552.34	44507.63
552.51	44231.44
552.68	44729.98
552.84	44706.57
553.01	44737.00
553.18	44596.57
553.34	44650.40
553.51	44533.37
553.67	44900.84
553.84	45294.05
554.01	45055.31
554.17	45029.57
554.34	44704.23
554.51	44669.12
554.67	45226.17
554.84	45050.63
555.00	45120.85
555.17	44406.98
555.33	44966.37
555.50	45542.14
555.67	45127.87
555.83	45165.32
556.00	44884.45
556.16	45684.92
556.33	45258.94
556.50	45422.78
556.66	45331.50
556.83	44882.11
556.99	45074.04
557.16	45195.74
557.32	45069.36
557.49	45097.44
557.65	44987.44
557.82	45464.91
557.98	45139.57
558.15	45305.75
558.32	45539.80
558.48	44931.26
558.65	45277.66
558.81	44765.09
558.98	44940.63
559.14	45284.68
559.31	45006.16
559.47	45263.62
559.64	45888.54
559.80	45357.24
559.97	45787.90
560.13	45308.09
560.30	44917.22
560.46	45457.88
560.63	45666.19
560.79	45357.24
560.96	45762.15
561.12	45132.55
561.29	45537.46
561.45	45219.15
561.61	46146.00
561.78	45631.08
561.94	45546.82
562.11	45535.12
562.27	45521.08
562.44	45911.95
562.60	45986.85
562.77	45773.86
562.93	45858.12
563.10	46031.32
563.26	45612.36
563.42	45773.86
563.59	45783.22
563.75	45808.96
563.92	45776.20
564.08	46286.43
564.24	46141.32
564.41	45954.08
564.57	45743.43
564.74	45577.25
564.90	45897.91
565.07	45687.26
565.23	45656.83
565.39	45436.82
565.56	45876.84
565.72	45179.36
565.88	46211.54
566.05	45642.79
566.21	45565.55
566.38	45734.07
566.54	45998.55
566.70	46052.38
566.87	46377.72
567.03	46113.23
567.19	46595.38
567.36	46256.01
567.52	46323.88
567.68	46141.32
567.85	45750.45
568.01	46106.21
568.17	46085.15
568.34	45783.22
568.50	46216.22
568.66	45769.18
568.83	46017.27
568.99	45326.81
569.15	45656.83
569.32	46160.05
569.48	45998.55
569.64	46050.04
569.81	45958.76
569.97	46108.55
570.13	45907.27
570.30	45820.67
570.46	45509.38
570.62	46075.79
570.78	45654.49
570.95	45687.26
571.11	46129.62
571.27	45848.75
571.43	45528.10
571.60	45996.21
571.76	46045.36
571.92	46101.53
572.09	46127.28
572.25	46078.13
572.41	45958.76
572.57	46272.39
572.74	46457.29
572.90	45996.21
573.06	46241.96
573.22	46000.89
573.38	46305.16
573.55	45984.51
573.71	46450.27
573.87	45909.61
574.03	46251.33
574.20	46227.92
574.36	46059.40
574.52	46426.87
574.68	46328.56
574.84	46190.47
575.01	45661.51
575.17	45909.61
575.33	46028.98
575.49	46230.26
575.65	46117.92
575.82	46000.89
575.98	46239.62
576.14	46574.32
576.30	46436.23
576.46	45851.09
576.62	45993.87
576.79	46230.26
576.95	45745.77
577.11	46223.24
577.27	46569.64
577.43	46157.70
577.59	45539.80
577.75	46078.13
577.92	45413.41
578.08	45811.31
578.24	45610.02
578.40	46115.58
578.56	46450.27
578.72	46099.19
578.88	46513.47
579.04	46525.17
579.21	45572.57
579.37	46054.72
579.53	46307.50
579.69	46148.34
579.85	46256.01
580.01	46471.34
580.17	46153.02
580.33	46270.05
580.49	46337.93
580.65	46258.35
580.82	45907.27
580.98	45940.04
581.14	46141.32
581.30	46387.08
581.46	45979.82
581.62	46241.96
581.78	46483.04
581.94	46504.10
582.10	46251.33
582.26	46581.34
582.42	46576.66
582.58	46466.66
582.74	46291.12
582.90	46703.05
583.06	46401.12
583.22	46607.09
583.38	46698.37
583.54	46375.37
583.70	46314.52
583.86	46361.33
584.02	46103.87
584.18	46487.72
584.34	46190.47
584.50	46417.50
584.66	46263.03
584.82	46241.96
584.98	46452.61
585.14	46054.72
585.30	46344.95
585.46	46396.44
585.62	46270.05
585.78	45933.01
585.94	45825.35
586.10	46073.45
586.26	46335.59
586.42	46574.32
586.58	46307.50
586.74	46246.65
586.90	46396.44
587.06	46155.36
587.22	46148.34
587.38	46417.50
587.54	46291.12
587.70	46415.16
587.86	46094.51
588.02	46141.32
588.18	46309.84
588.34	46050.04
588.49	46012.59
588.65	45916.63
588.81	45670.87
588.97	46033.66
589.13	45350.22
589.29	45553.85
589.45	46129.62
589.61	46146.00
589.77	46698.37
589.93	46351.97
