SpectraSuite Data File
++++++++++++++++++++++++++++++++++++
Date: Fri Oct 25 11:25:17 EDT 2013
User: price-jones
Dark Spectrum Present: No
Reference Spectrum Present: No
Number of Sampled Component Spectra: 1
Spectrometers: USB2+H05261
Integration Time (usec): 100000 (USB2+H05261)
Spectra Averaged: 1 (USB2+H05261)
Boxcar Smoothing: 0 (USB2+H05261)
Correct for Electrical Dark: No (USB2+H05261)
Strobe/Lamp Enabled: No (USB2+H05261)
Correct for Detector Non-linearity: No (USB2+H05261)
Correct for Stray Light: No (USB2+H05261)
Number of Pixels in Processed Spectrum: 2048
>>>>>Begin Processed Spectral Data<<<<<
365.73	234.05
365.92	234.05
366.12	234.05
366.32	198.95
366.52	145.11
366.72	168.52
366.91	42.13
367.11	145.11
367.31	163.84
367.51	112.35
367.70	121.71
367.90	194.26
368.10	74.90
368.30	105.32
368.49	53.83
368.69	110.01
368.89	220.01
369.09	145.11
369.28	248.10
369.48	191.92
369.68	224.69
369.87	191.92
370.07	177.88
370.27	184.90
370.47	376.83
370.66	535.98
370.86	564.07
371.06	702.16
371.25	748.97
371.45	587.47
371.65	723.23
371.84	655.35
372.04	692.80
372.24	711.52
372.44	697.48
372.63	770.04
372.83	753.65
373.03	755.99
373.22	741.95
373.42	746.63
373.62	812.17
373.81	847.27
374.01	793.44
374.21	795.78
374.40	837.91
374.60	887.06
374.79	842.59
374.99	774.72
375.19	847.27
375.38	849.61
375.58	870.68
375.78	896.43
375.97	837.91
376.17	973.66
376.37	849.61
376.56	894.08
376.76	877.70
376.95	889.40
377.15	947.92
377.35	877.70
377.54	926.85
377.74	936.21
377.93	833.23
378.13	968.98
378.33	884.72
378.52	957.28
378.72	1025.15
378.91	919.83
379.11	910.47
379.31	887.06
379.50	873.02
379.70	931.53
379.89	990.05
380.09	971.32
380.28	1130.48
380.48	889.40
380.68	973.66
380.87	983.02
381.07	1088.35
381.26	1144.52
381.46	1020.47
381.65	1057.92
381.85	1008.77
382.04	997.07
382.24	1022.81
382.43	1153.88
382.63	1006.43
382.83	1093.03
383.02	1114.10
383.22	1109.41
383.41	1118.78
383.61	1083.67
383.80	1123.46
384.00	1055.58
384.19	1090.69
384.39	1242.82
384.58	1109.41
384.78	1179.63
384.97	1200.69
385.17	1177.29
385.36	1125.80
385.56	1125.80
385.75	1083.67
385.95	1128.14
386.14	1245.16
386.34	1277.93
386.53	1170.27
386.72	1177.29
386.92	1245.16
387.11	1273.25
387.31	1249.85
387.50	1284.95
387.70	1224.10
387.89	1235.80
388.09	1193.67
388.28	1249.85
388.48	1336.45
388.67	1266.23
388.86	1427.73
389.06	1315.38
389.25	1313.04
389.45	1291.98
389.64	1357.51
389.84	1444.11
390.03	1310.70
390.22	1345.81
390.42	1306.02
390.61	1420.71
390.81	1413.68
391.00	1394.96
391.19	1500.28
391.39	1437.09
391.58	1448.79
391.78	1497.94
391.97	1465.18
392.16	1519.01
392.36	1533.05
392.55	1387.94
392.75	1533.05
392.94	1519.01
393.13	1469.86
393.33	1596.25
393.52	1556.46
393.71	1652.42
393.91	1544.75
394.10	1565.82
394.29	1589.22
394.49	1568.16
394.68	1666.46
394.88	1598.59
395.07	1694.55
395.26	1703.91
395.46	1619.65
395.65	1624.33
395.84	1727.32
396.04	1820.94
396.23	1736.68
396.42	1689.87
396.62	1724.97
396.81	1743.70
397.00	1701.57
397.19	1795.19
397.39	1713.27
397.58	1851.36
397.77	1851.36
397.97	1856.04
398.16	1888.81
398.35	1975.41
398.55	1891.15
398.74	1895.83
398.93	1926.26
399.12	1942.64
399.32	1891.15
399.51	1919.24
399.70	2008.18
399.90	2047.97
400.09	2073.71
400.28	1996.48
400.47	1984.77
400.67	2101.80
400.86	2059.67
401.05	1961.37
401.24	2136.91
401.44	2111.16
401.63	2256.28
401.82	2211.81
402.01	2115.84
402.21	2176.70
402.40	2216.49
402.59	2244.57
402.78	2221.17
402.97	2307.77
403.17	2326.49
403.36	2195.42
403.55	2267.98
403.74	2331.17
403.93	2347.56
404.13	2286.70
404.32	2445.86
404.51	2272.66
404.70	2352.24
404.89	2385.01
405.09	2546.50
405.28	2499.69
405.47	2434.16
405.66	2422.45
405.85	2518.42
406.05	2518.42
406.24	2509.05
406.43	2473.95
406.62	2572.25
406.81	2539.48
407.00	2640.12
407.20	2569.91
407.39	2590.97
407.58	2764.17
407.77	2717.36
407.96	2792.26
408.15	2768.85
408.34	2710.34
408.54	2731.41
408.73	2689.28
408.92	2787.58
409.11	2871.84
409.30	2775.88
409.49	2923.33
409.68	2794.60
409.87	2806.30
410.07	2960.78
410.26	3056.74
410.45	2906.95
410.64	3056.74
410.83	3105.89
411.02	3206.53
411.21	3124.62
411.40	3038.02
411.59	3115.25
411.78	3040.36
411.98	3138.66
412.17	3213.56
412.36	3349.31
412.55	3311.86
412.74	3445.27
412.93	3410.16
413.12	3384.41
413.31	3485.06
413.50	3513.14
413.69	3482.72
413.88	3538.89
414.07	3646.55
414.26	3590.38
414.45	3730.81
414.64	3693.37
414.83	3899.33
415.02	3763.58
415.22	3679.32
415.41	3679.32
415.60	3796.35
415.79	3761.24
415.98	3904.01
416.17	3995.29
416.36	4007.00
416.55	4011.68
416.74	4084.23
416.93	4112.32
417.12	4023.38
417.31	4016.36
417.50	4194.24
417.69	4304.25
417.88	4205.94
418.07	4161.47
418.26	4131.05
418.45	4231.69
418.64	4376.80
418.83	4421.27
419.02	4463.40
419.21	4440.00
419.39	4379.14
419.58	4578.09
419.77	4517.23
419.96	4638.94
420.15	4458.72
420.34	4510.21
420.53	4479.79
420.72	4512.55
420.91	4531.28
421.10	4690.43
421.29	4667.03
421.48	4638.94
421.67	4781.71
421.86	4631.92
422.05	4638.94
422.24	4678.73
422.43	4798.10
422.61	4936.19
422.80	4891.72
422.99	4910.44
423.18	4868.31
423.37	4973.64
423.56	4924.49
423.75	4919.81
423.94	4795.76
424.13	4559.36
424.32	4760.65
424.50	5004.07
424.69	4985.34
424.88	5053.22
425.07	4912.78
425.26	4777.03
425.45	4947.89
425.64	4973.64
425.83	4917.47
426.01	4985.34
426.20	5083.64
426.39	4917.47
426.58	4971.30
426.77	5132.79
426.96	4997.04
427.15	5001.72
427.33	5093.01
427.52	5188.97
427.71	5268.55
427.90	5284.93
428.09	5247.48
428.28	5495.58
428.46	5350.46
428.65	5350.46
428.84	5427.70
429.03	5362.17
429.22	5235.78
429.40	5462.81
429.59	5385.57
429.78	5303.65
429.97	5123.43
430.16	5540.05
430.34	5380.89
430.53	5458.13
430.72	5631.33
430.91	5568.13
431.10	5446.43
431.28	5584.52
431.47	5813.89
431.66	5863.04
431.85	5523.66
432.03	5937.94
432.22	5823.25
432.41	5966.03
432.60	5959.00
432.79	5966.03
432.97	5977.73
433.16	5987.09
433.35	5891.13
433.54	6125.18
433.72	5980.07
433.91	6132.20
434.10	6225.82
434.28	6008.16
434.47	6237.53
434.66	6132.20
434.85	6333.49
435.03	6314.77
435.22	6066.67
435.41	6459.88
435.59	6356.90
435.78	6345.19
435.97	6502.01
436.16	6399.02
436.34	6319.45
436.53	6602.65
436.72	6670.53
436.90	6525.41
437.09	6569.88
437.28	6551.16
437.46	6511.37
437.65	6649.46
437.84	6717.34
438.02	6850.75
438.21	6621.38
438.40	6651.80
438.58	6810.96
438.77	7077.78
438.96	7040.33
439.14	7005.22
439.33	7068.42
439.52	7279.07
439.70	7045.01
439.89	7056.72
440.08	7269.70
440.26	7365.67
440.45	7363.33
440.63	7356.30
440.82	7611.42
441.01	7375.03
441.19	7435.88
441.38	7714.41
441.57	7709.72
441.75	7796.32
441.94	7793.98
442.12	7913.35
442.31	7932.08
442.50	7976.55
442.68	8018.68
442.87	8051.44
443.05	8191.88
443.24	8166.13
443.43	8170.81
443.61	7985.91
443.80	8287.84
443.98	8074.85
444.17	7857.18
444.35	8084.21
444.54	8390.82
444.73	8177.83
444.91	8379.12
445.10	8248.05
445.28	8135.70
445.47	8241.03
445.65	8383.80
445.84	8355.71
446.02	8393.16
446.21	8315.92
446.39	8603.81
446.58	8498.49
446.77	8411.89
446.95	8189.53
447.14	8411.89
447.32	8517.21
447.51	8573.38
447.69	8381.46
447.88	8519.55
448.06	8414.23
448.25	8418.91
448.43	8458.70
448.62	8290.18
448.80	8430.61
448.99	8791.05
449.17	8589.77
449.36	8542.96
449.54	8821.48
449.73	8929.14
449.91	8793.39
450.10	8798.07
450.28	8952.55
450.46	8896.38
450.65	8854.25
450.83	8936.17
451.02	9036.81
451.20	8966.59
451.39	9088.30
451.57	8879.99
451.76	9046.17
451.94	9172.56
452.13	9280.22
452.31	9151.49
452.49	8966.59
452.68	9254.48
452.86	9217.03
453.05	9408.95
453.23	9256.82
453.42	9294.27
453.60	9249.80
453.78	9717.90
453.97	9383.21
454.15	9387.89
454.34	9383.21
454.52	9621.94
454.70	9572.79
454.89	9549.39
455.07	9689.82
455.26	9703.86
455.44	9966.00
455.62	9816.21
455.81	9865.36
455.99	10141.54
456.17	9879.40
456.36	9778.76
456.54	10193.03
456.73	10101.75
456.91	10204.74
457.09	10422.41
457.28	10155.58
457.46	10204.74
457.64	10399.00
457.83	10436.45
458.01	10127.50
458.19	10616.67
458.38	10583.90
458.56	10429.43
458.74	10534.75
458.93	10588.58
459.11	10752.42
459.29	10560.50
459.48	10628.37
459.66	10820.30
459.84	10607.31
460.03	11023.92
460.21	10747.74
460.39	10906.90
460.57	10920.94
460.76	10988.82
460.94	10984.13
461.12	11122.23
461.31	11159.67
461.49	11279.04
461.67	11033.29
461.85	11262.66
462.04	11218.19
462.22	11597.35
462.40	11466.28
462.59	11297.77
462.77	11480.33
462.95	11609.06
463.13	11534.16
463.32	11510.75
463.50	11580.97
463.68	11662.89
463.86	11836.09
464.05	11786.94
464.23	11782.26
464.41	11672.25
464.59	11590.33
464.78	11786.94
464.96	11859.49
465.14	11606.72
465.32	11981.20
465.50	12086.53
465.69	12149.72
465.87	11871.20
466.05	11845.45
466.23	11714.38
466.41	12063.12
466.60	12276.11
466.78	12198.87
466.96	12002.27
467.14	12304.20
467.32	12236.32
467.51	12568.68
467.69	12233.98
467.87	12161.42
468.05	12613.15
468.23	12311.22
468.41	12306.54
468.60	12624.85
468.78	12669.32
468.96	12638.89
469.14	12692.73
469.32	12861.24
469.50	12711.45
469.69	12776.98
469.87	13046.15
470.05	12966.57
470.23	13048.49
470.41	13238.07
470.59	13198.28
470.77	13107.00
470.95	12971.25
471.14	13493.19
471.32	12919.76
471.50	13607.87
471.68	13664.05
471.86	13525.96
472.04	13500.21
472.22	13994.06
472.40	13638.30
472.58	13600.85
472.77	13659.37
472.95	13884.06
473.13	14520.68
473.31	13832.57
473.49	14169.60
473.67	13954.27
473.85	14193.01
474.03	14597.92
474.21	14602.60
474.39	14457.49
474.57	14579.20
474.75	14846.02
474.93	14881.13
475.12	14941.98
475.30	14984.11
475.48	15049.64
475.66	14953.68
475.84	15115.18
476.02	15311.78
476.20	15286.04
476.38	15342.21
476.56	15744.78
476.74	15648.82
476.92	16084.16
477.10	15854.79
477.28	15960.11
477.46	16147.36
477.64	16240.98
477.82	16648.23
478.00	16835.47
478.18	16723.13
478.36	16697.38
478.54	17160.81
478.72	17121.02
478.90	17216.98
479.08	17682.75
479.26	17710.83
479.44	17497.84
479.62	17589.13
479.80	17914.46
479.98	17963.61
480.16	18593.22
480.34	18068.94
480.52	18204.69
480.70	18328.74
480.88	18354.48
481.06	18778.12
481.24	18602.58
481.41	18841.31
481.59	19178.35
481.77	19473.26
481.95	19573.90
482.13	19709.65
482.31	19377.30
482.49	20009.24
482.67	20023.28
482.85	20357.98
483.03	20395.43
483.21	20865.88
483.39	20617.78
483.57	20858.85
483.74	20737.15
483.92	21266.11
484.10	21020.35
484.28	21383.13
484.46	21619.53
484.64	22052.53
484.82	21860.60
485.00	22274.88
485.18	22766.39
485.35	22590.85
485.53	22632.98
485.71	22960.66
485.89	23335.14
486.07	23073.00
486.25	23417.06
486.43	23218.11
486.61	23667.50
486.78	23826.65
486.96	24034.96
487.14	24512.43
487.32	24390.72
487.50	24596.69
487.68	24898.62
487.85	25135.01
488.03	25490.77
488.21	25731.85
488.39	26015.05
488.57	25799.73
488.75	25972.92
488.92	26387.20
489.10	26534.65
489.28	26693.81
489.46	27140.85
489.64	26895.10
489.81	27608.96
489.99	27129.15
490.17	27164.26
490.35	27761.09
490.53	27901.53
490.70	28411.76
490.88	28177.71
491.06	28788.59
491.24	28929.02
491.41	28863.49
491.59	29156.05
491.77	28938.38
491.95	29336.27
492.13	29469.69
492.30	30024.39
492.48	29972.90
492.66	30036.09
492.84	29928.43
493.01	30534.63
493.19	30504.20
493.37	30895.07
493.54	30801.45
493.72	31225.09
493.90	31063.59
494.08	31786.82
494.25	31845.33
494.43	32130.87
494.61	32268.97
494.79	32165.98
494.96	32313.44
495.14	32568.55
495.32	32950.06
495.49	33001.55
495.67	33343.27
495.85	33352.63
496.02	33399.44
496.20	33827.76
496.38	33979.90
496.55	34162.46
496.73	34747.59
496.91	34558.01
497.09	34607.16
497.26	34834.19
497.44	35033.14
497.62	35215.70
497.79	35810.20
497.97	35400.60
498.14	35681.47
498.32	35622.95
498.50	36004.46
498.67	36233.83
498.85	36259.58
499.03	36238.51
499.20	36385.97
499.38	36776.84
499.56	36734.71
499.73	36921.95
499.91	36783.86
500.08	37347.93
500.26	37067.06
500.44	37055.36
500.61	37563.26
500.79	37659.22
500.97	38115.62
501.14	38581.39
501.32	38272.44
501.49	38443.30
501.67	38560.33
501.84	38710.12
502.02	38789.70
502.20	38689.06
502.37	38836.51
502.55	38796.72
502.72	39421.64
502.90	39161.84
503.07	38965.24
503.25	39725.91
503.43	39508.24
503.60	39660.38
503.78	39910.82
503.95	40084.01
504.13	40268.92
504.30	40582.55
504.48	40100.40
504.65	40467.86
504.83	40346.15
505.01	41165.34
505.18	40378.92
505.36	41139.60
505.53	41036.61
505.71	40999.16
505.88	41551.53
506.06	41301.09
506.23	41268.33
506.41	41612.38
506.58	41816.01
506.76	41677.92
506.93	42017.30
507.11	41965.81
507.28	42401.14
507.46	42349.65
507.63	42923.08
507.81	42848.19
507.98	42511.15
508.16	42871.59
508.33	43042.45
508.50	43206.29
508.68	43330.34
508.85	43611.20
509.03	43407.58
509.20	43997.39
509.38	43655.67
509.55	44236.12
509.73	44577.84
509.90	44671.46
510.08	44547.42
510.25	44346.13
510.42	44306.34
510.60	44610.61
510.77	44538.05
510.95	45195.74
511.12	44713.59
511.30	44971.05
511.47	45162.98
511.64	44978.07
511.82	45652.15
511.99	45322.13
512.17	45378.31
512.34	45504.70
512.51	46429.21
512.69	45937.69
512.86	45759.81
513.04	46391.76
513.21	46401.12
513.38	46340.27
513.56	46438.57
513.73	46590.70
513.90	46649.22
514.08	46541.55
514.25	47262.44
514.43	47072.85
514.60	47075.19
514.77	47107.96
514.95	46916.04
515.12	46944.12
515.29	47583.09
515.47	47739.91
515.64	47906.08
515.81	47405.21
515.99	48205.67
516.16	48222.06
516.33	48039.50
516.51	48404.62
516.68	48313.34
516.85	47988.00
517.03	48566.12
517.20	48736.98
517.37	48673.78
517.54	48851.66
517.72	48774.42
517.89	48952.30
518.06	49118.48
518.24	48809.53
518.41	49169.97
518.58	49113.80
518.75	49247.21
518.93	49387.64
519.10	49464.88
519.27	49155.93
519.45	49202.74
519.62	49790.22
519.79	49876.82
519.96	49715.32
520.14	50094.49
520.31	49858.09
520.48	49998.52
520.65	50115.55
520.83	50555.57
521.00	50220.87
521.17	50293.43
521.34	50616.43
521.52	50670.26
521.69	50574.30
521.86	50642.17
522.03	50614.08
522.20	51138.36
522.38	51222.62
522.55	51168.79
522.72	51250.71
522.89	51068.15
523.07	51210.92
523.24	51107.94
523.41	51384.12
523.58	51484.76
523.75	51847.55
523.92	51440.29
524.10	51650.94
524.27	51494.13
524.44	51545.62
524.61	51859.25
524.78	51880.31
524.96	51943.51
525.13	51889.68
525.30	52149.48
525.47	52306.29
525.64	52130.75
525.81	52271.18
525.98	52320.34
526.16	52406.94
526.33	52332.04
526.50	52772.06
526.67	52453.75
526.84	52535.66
527.01	52718.23
527.18	52608.22
527.36	52514.60
527.53	53059.94
527.70	53151.23
527.87	53188.67
528.04	52753.33
528.21	52982.71
528.38	53139.52
528.55	53277.61
528.72	53055.26
528.89	53322.08
529.07	53291.66
529.24	53331.45
529.41	53425.07
529.58	53724.66
529.75	53408.68
529.92	53551.46
530.09	53406.34
530.26	53577.20
530.43	53888.49
530.60	53329.11
530.77	53635.72
530.94	54012.54
531.11	53862.75
531.28	54171.70
531.46	53947.01
531.63	53876.79
531.80	53907.22
531.97	54279.36
532.14	54155.32
532.31	54213.83
532.48	54106.16
532.65	54438.52
532.82	54543.84
532.99	54354.26
533.16	54485.33
533.33	54815.35
533.50	54649.17
533.67	54490.01
533.84	54436.18
534.01	54845.77
534.18	54752.15
534.35	54815.35
534.52	54836.41
534.69	54974.50
534.86	54969.82
535.03	54763.85
535.20	55168.77
535.37	55068.12
535.54	55210.90
535.71	54899.61
535.88	55421.55
536.05	55426.23
536.22	55536.23
536.38	55655.60
536.55	55449.63
536.72	55269.41
536.89	55379.42
537.06	55332.60
537.23	55463.67
537.40	55437.93
537.57	55536.23
537.74	55503.46
537.91	55639.22
538.08	55620.49
538.25	55655.60
538.42	55580.70
538.59	56179.88
538.75	55777.31
538.92	55789.01
539.09	55936.46
539.26	55927.10
539.43	56016.04
539.60	55957.53
539.77	56039.45
539.94	56280.52
540.11	55929.44
540.28	56306.27
540.44	56437.34
540.61	56205.62
540.78	56051.15
540.95	56357.76
541.12	56144.77
541.29	56296.91
541.46	56479.47
541.62	56409.25
541.79	56413.93
541.96	56364.78
542.13	56568.41
542.30	56444.36
542.47	56685.43
542.63	56685.43
542.80	56818.84
542.97	57034.17
543.14	57123.11
543.31	56940.55
543.48	57282.27
543.64	57113.75
543.81	57172.27
543.98	57308.02
544.15	57120.77
544.32	57120.77
544.48	57308.02
544.65	57226.10
544.82	57029.49
544.99	57010.77
545.16	57221.42
545.32	57272.91
545.49	57467.17
545.66	57614.63
545.83	57317.38
546.00	57474.20
546.16	57226.10
546.33	57116.09
546.50	57289.29
546.67	57462.49
546.83	57525.69
547.00	57528.03
547.17	57642.71
547.34	57499.94
547.50	57666.12
547.67	57818.25
547.84	57954.00
548.00	58075.71
548.17	57879.11
548.34	57787.83
548.51	57808.89
548.67	57949.32
548.84	57998.48
549.01	57855.70
549.18	58026.56
549.34	58148.27
549.51	57904.85
549.68	58206.78
549.84	58047.63
550.01	58075.71
550.18	58071.03
550.34	58169.33
550.51	58607.01
550.68	58115.50
550.84	58312.11
551.01	58431.47
551.18	58330.83
551.34	58216.14
551.51	58333.17
551.68	58284.02
551.84	58611.70
552.01	58279.34
552.18	58569.57
552.34	58534.46
552.51	58459.56
552.68	58284.02
552.84	58494.67
553.01	58728.72
553.18	58548.50
553.34	58848.09
553.51	58422.11
553.67	58796.60
553.84	58857.45
554.01	58752.13
554.17	58637.44
554.34	59063.42
554.51	58728.72
554.67	58812.98
554.84	58906.60
555.00	58887.88
555.17	58915.96
555.33	58857.45
555.50	58754.47
555.67	58848.09
555.83	58801.28
556.00	59084.48
556.16	59171.08
556.33	59079.80
556.50	59241.30
556.66	59245.98
556.83	58927.67
556.99	59238.96
557.16	59255.34
557.32	59309.18
557.49	59501.10
557.65	59196.83
557.82	59248.32
557.98	58995.54
558.15	59339.60
558.32	59325.56
558.48	59192.15
558.65	59332.58
558.81	59243.64
558.98	59253.00
559.14	59613.44
559.31	59512.80
559.47	59458.97
559.64	59388.75
559.80	59512.80
559.97	59538.55
560.13	59526.84
560.30	59475.35
560.46	59695.36
560.63	59519.82
560.79	59650.89
560.96	59608.76
561.12	59660.26
561.29	59739.83
561.45	59693.02
561.61	59465.99
561.78	59803.03
561.94	59749.20
562.11	59812.39
562.27	59536.21
562.44	59557.27
562.60	59749.20
562.77	59814.73
562.93	59653.23
563.10	59859.20
563.26	59615.79
563.42	60086.23
563.59	59693.02
563.75	59788.98
563.92	60072.19
564.08	59791.33
564.24	59936.44
564.41	59891.97
564.57	59891.97
564.74	60090.91
564.90	59955.16
565.07	59931.76
565.23	59903.67
565.39	59800.69
565.56	59945.80
565.72	59966.87
565.88	59927.08
566.05	59824.09
566.21	60065.17
566.38	60030.06
566.54	60095.60
566.70	60126.02
566.87	60317.95
567.03	59938.78
567.19	60350.71
567.36	60004.31
567.52	60147.09
567.68	60460.72
567.85	60100.28
568.01	60032.40
568.17	60353.05
568.34	60247.73
568.50	60212.62
568.66	60236.03
568.83	60519.23
568.99	60315.61
569.15	60399.86
569.32	60207.94
569.48	60236.03
569.64	60367.10
569.81	60182.19
569.97	60161.13
570.13	60346.03
570.30	60140.07
570.46	60282.84
570.62	60301.56
570.78	60158.79
570.95	60121.34
571.11	60453.70
571.27	60165.81
571.43	60336.67
571.60	60446.68
571.76	60441.99
571.92	60486.46
572.09	60254.75
572.25	60210.28
572.41	60540.30
572.57	60528.59
572.74	60575.40
572.90	60259.43
573.06	60348.37
573.22	60360.08
573.38	60395.18
573.55	60596.47
573.71	60622.22
573.87	60556.68
574.03	60292.20
574.20	60561.36
574.36	60533.28
574.52	60584.77
574.68	60491.15
574.84	60598.81
575.01	60477.10
575.17	60423.27
575.33	60434.97
575.49	60364.76
575.65	60617.53
575.82	60645.62
575.98	60706.47
576.14	60961.59
576.30	60523.91
576.46	60516.89
576.62	60741.58
576.79	60608.17
576.95	60481.78
577.11	60486.46
577.27	60842.23
577.43	60701.79
577.59	60757.97
577.75	60687.75
577.92	60683.07
578.08	60764.99
578.24	60786.05
578.40	60846.91
578.56	60811.80
578.72	60652.64
578.88	60825.84
579.04	60790.73
579.21	60619.88
579.37	61048.19
579.53	60898.40
579.69	60622.22
579.85	60601.15
580.01	60640.94
580.17	60544.98
580.33	60727.54
580.49	60772.01
580.65	60629.24
580.82	60697.11
580.98	60619.88
581.14	60678.39
581.30	60889.04
581.46	60767.33
581.62	60917.12
581.78	60654.98
581.94	61003.72
582.10	60722.86
582.26	60746.26
582.42	60762.65
582.58	60734.56
582.74	60736.90
582.90	60708.82
583.06	61015.43
583.22	60589.45
583.38	60900.74
583.54	60830.52
583.70	60823.50
583.86	60722.86
584.02	60725.20
584.18	60992.02
584.34	60809.46
584.50	60797.76
584.66	60594.13
584.82	60570.72
584.98	60800.10
585.14	60783.71
585.30	60650.30
585.46	60907.76
585.62	60931.17
585.78	60940.53
585.94	60596.47
586.10	60849.25
586.26	60889.04
586.42	61003.72
586.58	60905.42
586.74	60877.33
586.90	61062.24
587.06	60842.23
587.22	60970.96
587.38	60797.76
587.54	61013.08
587.70	60996.70
587.86	61153.52
588.02	60795.42
588.18	61006.06
588.34	60956.91
588.49	60795.42
