SpectraSuite Data File
++++++++++++++++++++++++++++++++++++
Date: Fri Oct 25 11:33:54 EDT 2013
User: price-jones
Dark Spectrum Present: No
Reference Spectrum Present: No
Number of Sampled Component Spectra: 1
Spectrometers: USB2+H05261
Integration Time (usec): 100000 (USB2+H05261)
Spectra Averaged: 1 (USB2+H05261)
Boxcar Smoothing: 0 (USB2+H05261)
Correct for Electrical Dark: No (USB2+H05261)
Strobe/Lamp Enabled: No (USB2+H05261)
Correct for Detector Non-linearity: No (USB2+H05261)
Correct for Stray Light: No (USB2+H05261)
Number of Pixels in Processed Spectrum: 2048
>>>>>Begin Processed Spectral Data<<<<<
365.73	280.86
365.92	280.86
366.12	280.86
366.32	170.86
366.52	166.18
366.72	191.92
366.91	152.13
367.11	229.37
367.31	145.11
367.51	173.20
367.70	203.63
367.90	152.13
368.10	126.39
368.30	145.11
368.49	184.90
368.69	194.26
368.89	191.92
369.09	248.10
369.28	241.08
369.48	238.73
369.68	220.01
369.87	285.55
370.07	311.29
370.27	308.95
370.47	397.89
370.66	484.49
370.86	493.85
371.06	500.87
371.25	554.71
371.45	524.28
371.65	571.09
371.84	503.22
372.04	463.43
372.24	592.16
372.44	622.58
372.63	641.31
372.83	540.66
373.03	535.98
373.22	543.00
373.42	636.63
373.62	526.62
373.81	638.97
374.01	631.94
374.21	660.03
374.40	660.03
374.60	615.56
374.79	681.10
374.99	690.46
375.19	699.82
375.38	622.58
375.58	695.14
375.78	634.29
375.97	636.63
376.17	695.14
376.37	662.37
376.56	697.48
376.76	627.26
376.95	653.01
377.15	779.40
377.35	671.73
377.54	669.39
377.74	739.61
377.93	669.39
378.13	685.78
378.33	763.01
378.52	681.10
378.72	699.82
378.91	713.86
379.11	667.05
379.31	678.76
379.50	695.14
379.70	795.78
379.89	807.48
380.09	737.27
380.28	671.73
380.48	755.99
380.68	695.14
380.87	692.80
381.07	730.25
381.26	744.29
381.46	774.72
381.65	816.85
381.85	842.59
382.04	734.93
382.24	767.70
382.43	774.72
382.63	758.33
382.83	678.76
383.02	816.85
383.22	819.19
383.41	840.25
383.61	802.80
383.80	774.72
384.00	807.48
384.19	805.14
384.39	875.36
384.58	779.40
384.78	856.64
384.97	875.36
385.17	840.25
385.36	791.10
385.56	844.93
385.75	854.30
385.95	873.02
386.14	873.02
386.34	861.32
386.53	856.64
386.72	814.51
386.92	896.43
387.11	875.36
387.31	917.49
387.50	905.79
387.70	945.58
387.89	915.15
388.09	905.79
388.28	910.47
388.48	870.68
388.67	978.34
388.86	922.17
389.06	898.77
389.25	898.77
389.45	966.64
389.64	884.72
389.84	940.90
390.03	959.62
390.22	994.73
390.42	912.81
390.61	954.94
390.81	945.58
391.00	973.66
391.19	980.68
391.39	1036.86
391.58	950.26
391.78	1022.81
391.97	1008.77
392.16	992.39
392.36	1055.58
392.55	1097.71
392.75	1083.67
392.94	1111.75
393.13	1086.01
393.33	1088.35
393.52	1109.41
393.71	1041.54
393.91	1086.01
394.10	1111.75
394.29	1050.90
394.49	1198.35
394.68	1146.86
394.88	1053.24
395.07	1135.16
395.26	1165.59
395.46	1139.84
395.65	1158.57
395.84	1158.57
396.04	1146.86
396.23	1135.16
396.42	1135.16
396.62	1188.99
396.81	1219.42
397.00	1156.22
397.19	1200.69
397.39	1228.78
397.58	1252.19
397.77	1214.74
397.97	1198.35
398.16	1270.91
398.35	1275.59
398.55	1266.23
398.74	1282.61
398.93	1273.25
399.12	1287.29
399.32	1313.04
399.51	1299.00
399.70	1350.49
399.90	1268.57
400.09	1369.21
400.28	1376.24
400.47	1364.53
400.67	1528.37
400.86	1320.06
401.05	1380.92
401.24	1406.66
401.44	1490.92
401.63	1399.64
401.82	1413.68
402.01	1385.60
402.21	1390.28
402.40	1486.24
402.59	1540.07
402.78	1542.41
402.97	1509.65
403.17	1614.97
403.36	1556.46
403.55	1589.22
403.74	1638.38
403.93	1586.88
404.13	1650.08
404.32	1535.39
404.51	1612.63
404.70	1586.88
404.89	1490.92
405.09	1769.44
405.28	1708.59
405.47	1713.27
405.66	1678.16
405.85	1717.95
406.05	1760.08
406.24	1720.29
406.43	1696.89
406.62	1858.39
406.81	1830.30
407.00	1858.39
407.20	1717.95
407.39	1827.96
407.58	1856.04
407.77	1774.13
407.96	1851.36
408.15	1881.79
408.34	1823.28
408.54	1860.73
408.73	1881.79
408.92	2019.88
409.11	1982.43
409.30	1914.56
409.49	1968.39
409.68	1916.90
409.87	1954.35
410.07	2080.74
410.26	2038.61
410.45	2019.88
410.64	2066.69
410.83	2097.12
411.02	2141.59
411.21	2120.53
411.40	2237.55
411.59	2195.42
411.78	2115.84
411.98	2296.07
412.17	2265.64
412.36	2204.78
412.55	2385.01
412.74	2361.60
412.93	2256.28
413.12	2293.72
413.31	2513.74
413.50	2373.30
413.69	2413.09
413.88	2544.16
414.07	2413.09
414.26	2476.29
414.45	2424.80
414.64	2511.39
414.83	2693.96
415.02	2583.95
415.22	2789.92
415.41	2651.83
415.60	2698.64
415.79	2782.90
415.98	2600.34
416.17	2736.09
416.36	2710.34
416.55	2708.00
416.74	2782.90
416.93	2806.30
417.12	2693.96
417.31	2871.84
417.50	2801.62
417.69	2949.08
417.88	2937.37
418.07	2862.48
418.26	3007.59
418.45	2946.73
418.64	3012.27
418.83	2967.80
419.02	2937.37
419.21	3096.53
419.39	3063.76
419.58	3101.21
419.77	2958.44
419.96	3068.44
420.15	3133.98
420.34	3197.17
420.53	3173.77
420.72	3199.51
420.91	3309.52
421.10	3243.98
421.29	3318.88
421.48	3155.04
421.67	3400.80
421.86	3225.26
422.05	3222.92
422.24	3208.87
422.43	3255.69
422.61	3279.09
422.80	3288.45
422.99	3300.16
423.18	3323.56
423.37	3405.48
423.56	3325.90
423.75	3496.76
423.94	3358.67
424.13	3185.47
424.32	3290.79
424.50	3426.54
424.69	3485.06
424.88	3447.61
425.07	3295.47
425.26	3435.91
425.45	3379.73
425.64	3318.88
425.83	3485.06
426.01	3365.69
426.20	3463.99
426.39	3452.29
426.58	3325.90
426.77	3527.19
426.96	3557.61
427.15	3499.10
427.33	3485.06
427.52	3564.64
427.71	3634.85
427.90	3555.27
428.09	3672.30
428.28	3606.77
428.46	3623.15
428.65	3669.96
428.84	3728.47
429.03	3735.50
429.22	3527.19
429.40	3786.99
429.59	3801.03
429.78	3733.15
429.97	3613.79
430.16	3712.09
430.34	3740.18
430.53	3747.20
430.72	3779.97
430.91	3838.48
431.10	3913.38
431.28	3896.99
431.47	3801.03
431.66	3969.55
431.85	3850.18
432.03	3920.40
432.22	4170.83
432.41	4016.36
432.60	4009.34
432.79	3911.04
432.97	4016.36
433.16	4028.06
433.35	4053.81
433.54	4140.41
433.72	4198.92
433.91	4191.90
434.10	4210.62
434.28	4039.76
434.47	4194.24
434.66	4161.47
434.85	4262.12
435.03	4358.08
435.22	4313.61
435.41	4311.27
435.59	4311.27
435.78	4470.42
435.97	4353.40
436.16	4245.73
436.34	4367.44
436.53	4287.86
436.72	4332.33
436.90	4442.34
437.09	4437.66
437.28	4376.80
437.46	4414.25
437.65	4418.93
437.84	4496.17
438.02	4631.92
438.21	4547.66
438.40	4423.61
438.58	4690.43
438.77	4685.75
438.96	4648.30
439.14	4699.80
439.33	4800.44
439.52	4814.48
439.70	4805.12
439.89	4978.32
440.08	4975.98
440.26	4975.98
440.45	4990.02
440.63	5057.90
440.82	5048.54
441.01	5097.69
441.19	5015.77
441.38	5298.97
441.57	5273.23
441.75	5296.63
441.94	5434.72
442.12	5380.89
442.31	5479.19
442.50	5392.59
442.68	5352.81
442.87	5455.79
443.05	5387.91
443.24	5453.45
443.43	5516.64
443.61	5359.83
443.80	5638.35
443.98	5329.40
444.17	5364.51
444.35	5481.53
444.54	5640.69
444.73	5643.03
444.91	5607.92
445.10	5500.26
445.28	5584.52
445.47	5540.05
445.65	5509.62
445.84	5687.50
446.02	5626.65
446.21	5664.10
446.39	5678.14
446.58	5706.23
446.77	5582.18
446.95	5488.56
447.14	5577.50
447.32	5767.08
447.51	5582.18
447.69	5816.23
447.88	5617.29
448.06	5696.86
448.25	5736.65
448.43	5830.27
448.62	5715.59
448.80	5699.20
448.99	5706.23
449.17	5769.42
449.36	5678.14
449.54	5905.17
449.73	5884.11
449.91	5996.45
450.10	6108.80
450.28	6033.90
450.46	6108.80
450.65	6157.95
450.83	6015.18
451.02	6197.74
451.20	6139.23
451.39	6033.90
451.57	6059.65
451.76	5933.26
451.94	6164.97
452.13	6314.77
452.31	6160.29
452.49	6069.01
452.68	6289.02
452.86	6195.40
453.05	6209.44
453.23	6232.85
453.42	6148.59
453.60	6193.06
453.78	6162.63
453.97	6253.91
454.15	6310.08
454.34	6375.62
454.52	6410.73
454.70	6588.61
454.89	6595.63
455.07	6600.31
455.26	6487.96
455.44	6565.20
455.62	6520.73
455.81	6509.03
455.99	6607.33
456.17	6614.35
456.36	6764.15
456.54	6846.07
456.73	6766.49
456.91	6906.92
457.09	6892.88
457.28	7033.31
457.46	6935.01
457.64	7037.99
457.83	6909.26
458.01	7009.90
458.19	7089.48
458.38	7091.82
458.56	7023.95
458.74	6918.62
458.93	6974.80
459.11	7087.14
459.29	6984.16
459.48	7176.08
459.66	7365.67
459.84	7155.02
460.03	7492.05
460.21	7379.71
460.39	7368.01
460.57	7225.23
460.76	7323.54
460.94	7267.36
461.12	7445.24
461.31	7398.43
461.49	7297.79
461.67	7517.80
461.85	7536.52
462.04	7527.16
462.22	7838.45
462.40	7606.74
462.59	7815.05
462.77	7730.79
462.95	7637.17
463.13	7627.81
463.32	7908.67
463.50	7730.79
463.68	7852.50
463.86	7688.66
464.05	7847.82
464.23	7721.43
464.41	7843.14
464.59	7894.63
464.78	8072.51
464.96	7946.12
465.14	7756.54
465.32	7901.65
465.50	8074.85
465.69	7969.52
465.87	7915.69
466.05	8203.58
466.23	8112.30
466.41	7997.61
466.60	8255.07
466.78	7962.50
466.96	7873.56
467.14	8318.26
467.32	8222.30
467.51	8292.52
467.69	8011.65
467.87	8294.86
468.05	8184.85
468.23	8163.79
468.41	8266.77
468.60	8329.97
468.78	8407.20
468.96	8503.17
469.14	8365.07
469.32	8683.39
469.50	8423.59
469.69	8585.08
469.87	8718.50
470.05	8533.59
470.23	8896.38
470.41	8723.18
470.59	8725.52
470.77	8765.31
470.95	8613.17
471.14	9004.04
471.32	8807.44
471.50	8812.12
471.68	8814.46
471.86	9121.07
472.04	8973.61
472.22	9224.05
472.40	9202.99
472.58	9212.35
472.77	9322.35
472.95	9245.12
473.13	9661.73
473.31	9376.19
473.49	9198.31
473.67	9411.29
473.85	9415.98
474.03	9685.14
474.21	9612.58
474.39	9788.12
474.57	9600.88
474.75	9593.86
474.93	9830.25
475.12	9806.84
475.30	9977.70
475.48	9781.10
475.66	9778.76
475.84	10010.47
476.02	10164.95
476.20	10162.61
476.38	10211.76
476.56	10249.21
476.74	10317.08
476.92	10523.05
477.10	10401.34
477.28	10436.45
477.46	10721.99
477.64	10675.18
477.82	10682.20
478.00	11033.29
478.18	10981.79
478.36	10932.64
478.54	11070.73
478.72	11133.93
478.90	11449.90
479.08	11562.25
479.26	11541.18
479.44	11735.45
479.62	11843.11
479.80	11737.79
479.98	11789.28
480.16	12229.30
480.34	11988.22
480.52	12035.03
480.70	12219.94
480.88	12194.19
481.06	12191.85
481.24	12142.70
481.41	12507.82
481.59	12627.19
481.77	12765.28
481.95	12587.40
482.13	12849.54
482.31	12725.49
482.49	13090.62
482.67	13327.01
482.85	13357.44
483.03	13336.37
483.21	13540.00
483.39	13603.19
483.57	13451.06
483.74	13626.60
483.92	13785.76
484.10	13991.72
484.28	14204.71
484.46	14366.21
484.64	14342.80
484.82	14298.33
485.00	14420.04
485.18	14705.59
485.35	14967.73
485.53	14913.89
485.71	15023.90
485.89	15267.31
486.07	15140.93
486.25	15133.90
486.43	15625.42
486.61	15391.36
486.78	15632.44
486.96	16016.29
487.14	15978.84
487.32	15819.68
487.50	16039.69
487.68	16269.06
487.85	16285.45
488.03	16549.93
488.21	16575.67
488.39	16695.04
488.57	16865.90
488.75	16985.27
488.92	17259.11
489.10	17331.67
489.28	17436.99
489.46	17717.86
489.64	17371.46
489.81	17963.61
489.99	17792.75
490.17	18202.35
490.35	18373.21
490.53	18401.29
490.70	18370.86
490.88	18211.71
491.06	18712.58
491.24	18555.77
491.41	18981.74
491.59	18963.02
491.77	18948.98
491.95	19159.63
492.13	19363.25
492.30	19304.74
492.48	19742.42
492.66	19756.46
492.84	19693.27
493.01	20051.37
493.19	19934.34
493.37	20231.59
493.54	19936.68
493.72	20381.38
493.90	20566.29
494.08	20496.07
494.25	20704.38
494.43	20727.78
494.61	20994.61
494.79	21071.84
494.96	20964.18
495.14	21458.03
495.32	21378.45
495.49	21350.37
495.67	21511.86
495.85	21752.94
496.02	21745.92
496.20	22003.38
496.38	22066.57
496.55	21848.90
496.73	22455.10
496.91	22375.52
497.09	22537.02
497.26	22663.41
497.44	22782.77
497.62	22682.13
497.79	23042.57
497.97	22864.69
498.14	23293.01
498.32	23587.92
498.50	23278.97
498.67	23400.68
498.85	23353.87
499.03	23323.44
499.20	23658.14
499.38	23929.64
499.56	24051.34
499.73	24325.19
499.91	24039.64
500.08	24364.98
500.26	24030.28
500.44	24528.81
500.61	24582.65
500.79	24652.86
500.97	24774.57
501.14	25027.35
501.32	24982.88
501.49	25193.53
501.67	25097.56
501.84	25263.74
502.02	25408.86
502.20	25408.86
502.37	25544.61
502.55	25359.70
502.72	25759.94
502.90	25579.71
503.07	25455.67
503.25	25944.84
503.43	26190.59
503.60	25799.73
503.78	26225.70
503.95	26024.42
504.13	26274.85
504.30	26204.64
504.48	26307.62
504.65	26581.46
504.83	26373.16
505.01	26665.72
505.18	26618.91
505.36	27087.02
505.53	27054.25
505.71	27070.64
505.88	27026.17
506.06	27372.57
506.23	27040.21
506.41	26625.93
506.58	27627.68
506.76	27615.98
506.93	27608.96
507.11	28072.39
507.28	27861.74
507.46	27976.42
507.63	28056.00
507.81	28032.60
507.98	28189.41
508.16	27728.33
508.33	27953.02
508.50	28133.24
508.68	28292.40
508.85	28779.23
509.03	28439.85
509.20	28638.80
509.38	29048.39
509.55	28884.55
509.73	29055.41
509.90	29024.98
510.08	29347.98
510.25	29118.60
510.42	29289.46
510.60	29219.25
510.77	29310.53
510.95	29626.50
511.12	29619.48
511.30	29689.70
511.47	29947.15
511.64	30162.48
511.82	29970.56
511.99	29553.94
512.17	30188.23
512.34	29993.97
512.51	30586.12
512.69	30604.84
512.86	30148.44
513.04	30515.90
513.21	30438.67
513.38	30892.73
513.56	30536.97
513.73	30766.34
513.90	30759.32
514.08	30661.02
514.25	31012.10
514.43	31087.00
514.60	31323.39
514.77	31218.07
514.95	31351.48
515.12	31180.62
515.29	31222.75
515.47	31508.29
515.64	31962.36
515.81	31449.78
515.99	31522.34
516.16	32268.97
516.33	32114.49
516.51	32266.63
516.68	32144.92
516.85	32086.40
517.03	32322.80
517.20	32243.22
517.37	32315.78
517.54	32292.37
517.72	32657.49
517.89	32470.25
518.06	32559.19
518.24	32826.01
518.41	32886.87
518.58	32734.73
518.75	32493.66
518.93	32947.72
519.10	33137.30
519.27	33235.61
519.45	33116.24
519.62	33404.13
519.79	32992.19
519.96	33266.03
520.14	33345.61
520.31	33137.30
520.48	33656.90
520.65	33795.00
520.83	33792.65
521.00	34251.40
521.17	33921.38
521.34	33827.76
521.52	33715.42
521.69	34338.00
521.86	34321.62
522.03	34429.28
522.20	34265.44
522.38	34623.54
522.55	34707.80
522.72	34686.74
522.89	34768.66
523.07	34923.13
523.24	35026.12
523.41	35112.72
523.58	34735.89
523.75	35049.52
523.92	35283.58
524.10	34801.43
524.27	35201.66
524.44	35372.52
524.61	35480.18
524.78	35566.78
524.96	35414.65
525.13	35665.08
525.30	35541.03
525.47	35519.97
525.64	36048.93
525.81	35721.26
525.98	36006.80
526.16	36020.84
526.33	36409.37
526.50	36280.64
526.67	35711.89
526.84	35915.52
527.01	35962.33
527.18	36444.48
527.36	36458.52
527.53	36282.98
527.70	36556.83
527.87	36851.73
528.04	36343.84
528.21	36353.20
528.38	36275.96
528.55	36683.22
528.72	36495.97
528.89	36694.92
529.07	36655.13
529.24	36687.90
529.41	36823.65
529.58	37097.49
529.75	36863.44
529.92	37076.43
530.09	36844.71
530.26	37074.09
530.43	37509.43
530.60	37170.05
530.77	37191.11
530.94	37598.37
531.11	37694.33
531.28	37333.89
531.46	37631.13
531.63	37518.79
531.80	37706.03
531.97	37865.19
532.14	37897.95
532.31	38171.80
532.48	38204.56
532.65	38349.68
532.82	37825.40
532.99	38003.28
533.16	37614.75
533.33	37921.36
533.50	38459.68
533.67	38038.39
533.84	37766.88
534.01	38780.34
534.18	38403.51
534.35	38621.18
534.52	38609.48
534.69	39189.93
534.86	38871.62
535.03	38691.40
535.20	38841.19
535.37	39124.40
535.54	38670.33
535.71	39028.43
535.88	39236.74
536.05	39154.82
536.22	39058.86
536.38	39281.21
536.55	39225.04
536.72	39306.96
536.89	39007.37
537.06	39522.29
537.23	39227.38
537.40	39803.15
537.57	39180.57
537.74	39454.41
537.91	39587.82
538.08	39651.02
538.25	39498.88
538.42	39440.37
538.59	40318.07
538.75	39643.99
538.92	40568.51
539.09	40271.26
539.26	40060.61
539.43	40240.83
539.60	40222.11
539.77	40175.30
539.94	40692.55
540.11	40271.26
540.28	40315.73
540.44	40421.05
540.61	39889.75
540.78	39768.04
540.95	40528.72
541.12	40444.46
541.29	40109.76
541.46	40697.24
541.62	40479.57
541.79	40641.06
541.96	40680.85
542.13	40526.38
542.30	40369.56
542.47	40854.05
542.63	40870.43
542.80	41141.94
542.97	41244.92
543.14	41621.75
543.31	41198.11
543.48	41434.50
543.64	41464.93
543.81	41638.13
543.98	41841.76
544.15	41654.51
544.32	41694.30
544.48	41635.79
544.65	41921.34
544.82	41860.48
544.99	41640.47
545.16	41851.12
545.32	41387.69
545.49	42291.14
545.66	42178.79
545.83	41907.29
546.00	42176.45
546.16	42272.42
546.33	42038.36
546.50	42108.58
546.67	42588.39
546.83	41567.91
547.00	42361.36
547.17	41675.58
547.34	42277.10
547.50	42370.72
547.67	43292.89
547.84	42368.38
548.00	42511.15
548.17	42256.03
548.34	42691.37
548.51	42932.45
548.67	42710.10
548.84	42660.94
549.01	42656.26
549.18	43021.39
549.34	42649.24
549.51	42843.51
549.68	43161.82
549.84	42801.38
550.01	43351.40
550.18	42810.74
550.34	42752.23
550.51	42972.24
550.68	42909.04
550.84	43063.52
551.01	43426.30
551.18	42904.36
551.34	43611.20
551.51	43669.72
551.68	43587.80
551.84	43103.31
552.01	43164.16
552.18	43583.12
552.34	43253.10
552.51	43402.89
552.68	43164.16
552.84	43615.88
553.01	43833.55
553.18	43704.82
553.34	43737.59
553.51	43793.76
553.67	44151.87
553.84	44268.89
554.01	44388.26
554.17	43768.02
554.34	43973.98
554.51	43943.56
554.67	43971.64
554.84	43861.64
555.00	43938.88
555.17	44006.75
555.33	43973.98
555.50	43959.94
555.67	43833.55
555.83	44268.89
556.00	44198.68
556.16	45167.66
556.33	44598.91
556.50	44577.84
556.66	44074.63
556.83	44039.52
556.99	44240.81
557.16	44369.54
557.32	44533.37
557.49	44786.15
557.65	44664.44
557.82	44811.90
557.98	44311.02
558.15	44729.98
558.32	44648.06
558.48	44444.43
558.65	44685.51
558.81	44582.52
558.98	44357.83
559.14	44460.82
559.31	44917.22
559.47	44687.85
559.64	44917.22
559.80	45394.69
559.97	45057.65
560.13	44311.02
560.30	45078.72
560.46	45251.92
560.63	45092.76
560.79	45331.50
560.96	45443.84
561.12	45226.17
561.29	45303.41
561.45	45476.61
561.61	44795.51
561.78	44839.98
561.94	44818.92
562.11	45275.32
562.27	45542.14
562.44	45076.38
562.60	45474.27
562.77	45373.63
562.93	45425.12
563.10	45453.20
563.26	45558.53
563.42	45710.66
563.59	45689.60
563.75	45567.89
563.92	45261.28
564.08	45399.37
564.24	45514.06
564.41	45247.24
564.57	45481.29
564.74	45530.44
564.90	45469.59
565.07	45734.07
565.23	45603.00
565.39	45666.19
565.56	45551.51
565.72	45350.22
565.88	45708.32
566.05	45830.03
566.21	45429.80
566.38	45703.64
566.54	45343.20
566.70	45415.76
566.87	46019.61
567.03	45970.46
567.19	45750.45
567.36	45661.51
567.52	45380.65
567.68	46422.19
567.85	46106.21
568.01	46237.28
568.17	45916.63
568.34	46047.70
568.50	45783.22
568.66	45675.55
568.83	46129.62
568.99	45883.86
569.15	45977.48
569.32	45794.92
569.48	46492.40
569.64	46337.93
569.81	46136.64
569.97	46188.13
570.13	46426.87
570.30	45748.11
570.46	46167.07
570.62	46099.19
570.78	46197.49
570.95	46061.74
571.11	46457.29
571.27	45893.22
571.43	46288.77
571.60	45855.78
571.76	45869.82
571.92	46522.83
572.09	45984.51
572.25	46136.64
572.41	45886.20
572.57	45925.99
572.74	46831.78
572.90	46483.04
573.06	46637.51
573.22	46288.77
573.38	46260.69
573.55	45996.21
573.71	46681.98
573.87	46351.97
574.03	46576.66
574.20	46431.55
574.36	46361.33
574.52	46784.97
574.68	46672.62
574.84	46759.22
575.01	46429.21
575.17	46787.31
575.33	46366.01
575.49	46492.40
575.65	46916.04
575.82	46384.74
575.98	46117.92
576.14	47023.70
576.30	46899.65
576.46	46684.33
576.62	46522.83
576.79	46534.53
576.95	46403.46
577.11	46382.40
577.27	46536.87
577.43	46398.78
577.59	46143.66
577.75	46862.21
577.92	46391.76
578.08	46813.05
578.24	46628.15
578.40	46536.87
578.56	46344.95
578.72	46794.33
578.88	46763.90
579.04	46693.69
579.21	46525.17
579.37	46384.74
579.53	46719.43
579.69	46536.87
579.85	46784.97
580.01	46735.82
580.17	46801.35
580.33	47004.98
580.49	47004.98
580.65	46768.58
580.82	46635.17
580.98	46410.48
581.14	46536.87
581.30	46745.18
581.46	46590.70
581.62	46459.63
581.78	46656.24
581.94	46770.93
582.10	46459.63
582.26	47185.20
582.42	46815.40
582.58	46710.07
582.74	46937.10
582.90	46770.93
583.06	47007.32
583.22	46714.75
583.38	46810.71
583.54	47253.08
583.70	46866.89
583.86	46773.27
584.02	46841.14
584.18	47234.35
584.34	47056.47
584.50	47168.82
584.66	46939.44
584.82	46993.28
584.98	47112.64
585.14	46981.57
585.30	46674.96
585.46	46595.38
585.62	46600.07
585.78	46904.34
585.94	46323.88
586.10	47007.32
586.26	46726.46
586.42	46871.57
586.58	46859.87
586.74	46705.39
586.90	46745.18
587.06	46763.90
587.22	46941.78
587.38	46632.83
587.54	47222.65
587.70	47143.07
587.86	47185.20
588.02	46642.20
588.18	47033.07
588.34	46894.97
588.49	46817.74
588.65	47257.76
588.81	47077.54
588.97	47114.98
589.13	47093.92
589.29	47342.02
589.45	47114.98
589.61	46969.87
589.77	47538.62
589.93	46777.95
590.08	47056.47
