SpectraSuite Data File
++++++++++++++++++++++++++++++++++++
Date: Fri Oct 25 10:43:40 EDT 2013
User: price-jones
Dark Spectrum Present: No
Reference Spectrum Present: No
Number of Sampled Component Spectra: 1
Spectrometers: USB2+H05261
Integration Time (usec): 100000 (USB2+H05261)
Spectra Averaged: 1 (USB2+H05261)
Boxcar Smoothing: 0 (USB2+H05261)
Correct for Electrical Dark: No (USB2+H05261)
Strobe/Lamp Enabled: No (USB2+H05261)
Correct for Detector Non-linearity: No (USB2+H05261)
Correct for Stray Light: No (USB2+H05261)
Number of Pixels in Processed Spectrum: 2048
>>>>>Begin Processed Spectral Data<<<<<
365.73	131.07
365.92	131.07
366.12	131.07
366.32	32.77
366.52	93.62
366.72	110.01
366.91	37.45
367.11	30.43
367.31	25.75
367.51	4.68
367.70	2.34
367.90	30.43
368.10	9.36
368.30	0.00
368.49	21.06
368.69	60.85
368.89	18.72
369.09	56.17
369.28	95.96
369.48	16.38
369.68	102.98
369.87	93.62
370.07	126.39
370.27	152.13
370.47	161.50
370.66	437.68
370.86	383.85
371.06	519.60
371.25	393.21
371.45	470.45
371.65	393.21
371.84	496.19
372.04	461.09
372.24	521.94
372.44	543.00
372.63	458.74
372.83	540.66
373.03	552.37
373.22	507.90
373.42	514.92
373.62	477.47
373.81	594.50
374.01	517.26
374.21	580.45
374.40	498.53
374.60	514.92
374.79	557.05
374.99	580.45
375.19	636.63
375.38	561.73
375.58	610.88
375.78	655.35
375.97	610.88
376.17	685.78
376.37	664.71
376.56	634.29
376.76	655.35
376.95	552.37
377.15	589.82
377.35	662.37
377.54	685.78
377.74	702.16
377.93	622.58
378.13	653.01
378.33	720.88
378.52	711.52
378.72	657.69
378.91	655.35
379.11	730.25
379.31	573.43
379.50	648.33
379.70	636.63
379.89	753.65
380.09	662.37
380.28	624.92
380.48	720.88
380.68	655.35
380.87	690.46
381.07	758.33
381.26	653.01
381.46	681.10
381.65	671.73
381.85	685.78
382.04	688.12
382.24	746.63
382.43	669.39
382.63	732.59
382.83	723.23
383.02	812.17
383.22	760.67
383.41	688.12
383.61	746.63
383.80	713.86
384.00	823.87
384.19	711.52
384.39	744.29
384.58	816.85
384.78	877.70
384.97	718.54
385.17	837.91
385.36	821.53
385.56	847.27
385.75	833.23
385.95	835.57
386.14	772.38
386.34	800.46
386.53	908.13
386.72	847.27
386.92	866.00
387.11	905.79
387.31	884.72
387.50	849.61
387.70	875.36
387.89	891.74
388.09	919.83
388.28	847.27
388.48	896.43
388.67	936.21
388.86	957.28
389.06	1034.52
389.25	968.98
389.45	954.94
389.64	1041.54
389.84	1013.45
390.03	1057.92
390.22	980.68
390.42	1011.11
390.61	1039.20
390.81	1050.90
391.00	1109.41
391.19	1100.05
391.39	1069.62
391.58	1078.99
391.78	985.37
391.97	999.41
392.16	1104.73
392.36	1083.67
392.55	971.32
392.75	961.96
392.94	917.49
393.13	1062.60
393.33	978.34
393.52	1121.12
393.71	1142.18
393.91	1095.37
394.10	1128.14
394.29	1069.62
394.49	1191.33
394.68	1193.67
394.88	1205.38
395.07	1343.47
395.26	1191.33
395.46	1273.25
395.65	1270.91
395.84	1151.54
396.04	1294.32
396.23	1219.42
396.42	1153.88
396.62	1277.93
396.81	1254.53
397.00	1174.95
397.19	1249.85
397.39	1320.06
397.58	1357.51
397.77	1406.66
397.97	1416.02
398.16	1455.81
398.35	1446.45
398.55	1530.71
398.74	1572.84
398.93	1600.93
399.12	1577.52
399.32	1530.71
399.51	1610.29
399.70	1563.48
399.90	1614.97
400.09	1626.67
400.28	1631.35
400.47	1626.67
400.67	1675.82
400.86	1596.25
401.05	1624.33
401.24	1734.34
401.44	1741.36
401.63	1792.85
401.82	1727.32
402.01	1645.40
402.21	1778.81
402.40	1727.32
402.59	1832.64
402.78	1839.66
402.97	1664.12
403.17	1834.98
403.36	1739.02
403.55	1839.66
403.74	1966.05
403.93	1947.33
404.13	1905.20
404.32	1867.75
404.51	1933.28
404.70	1952.01
404.89	1895.83
405.09	1982.43
405.28	2101.80
405.47	1944.99
405.66	2008.18
405.85	1989.46
406.05	1952.01
406.24	2090.10
406.43	1961.37
406.62	2059.67
406.81	2078.40
407.00	2005.84
407.20	2104.14
407.39	2157.97
407.58	2101.80
407.77	2244.57
407.96	2256.28
408.15	2321.81
408.34	2279.68
408.54	2314.79
408.73	2263.30
408.92	2223.51
409.11	2277.34
409.30	2326.49
409.49	2303.09
409.68	2331.17
409.87	2256.28
410.07	2359.26
410.26	2438.84
410.45	2424.80
410.64	2492.67
410.83	2644.81
411.02	2642.46
411.21	2597.99
411.40	2637.78
411.59	2698.64
411.78	2675.23
411.98	2712.68
412.17	2773.53
412.36	2747.79
412.55	2810.98
412.74	2841.41
412.93	2874.18
413.12	2803.96
413.31	2930.35
413.50	2972.48
413.69	2836.73
413.88	2932.69
414.07	2909.29
414.26	2930.35
414.45	3033.33
414.64	3075.46
414.83	3075.46
415.02	3141.00
415.22	3084.83
415.41	3213.56
415.60	3192.49
415.79	3302.50
415.98	3288.45
416.17	3318.88
416.36	3398.46
416.55	3396.12
416.74	3307.18
416.93	3253.34
417.12	3279.09
417.31	3489.74
417.50	3281.43
417.69	3438.25
417.88	3475.70
418.07	3456.97
418.26	3463.99
418.45	3517.83
418.64	3716.77
418.83	3632.51
419.02	3613.79
419.21	3541.23
419.39	3550.59
419.58	3674.64
419.77	3550.59
419.96	3653.58
420.15	3754.22
420.34	3581.02
420.53	3803.37
420.72	3761.24
420.91	3861.88
421.10	3852.52
421.29	3904.01
421.48	3779.97
421.67	3857.20
421.86	3775.28
422.05	3927.42
422.24	3810.39
422.43	3873.59
422.61	3899.33
422.80	3990.61
422.99	4002.32
423.18	3948.48
423.37	3943.80
423.56	4154.45
423.75	3964.87
423.94	3995.29
424.13	3763.58
424.32	3777.62
424.50	4072.53
424.69	3941.46
424.88	3981.25
425.07	4016.36
425.26	3934.44
425.45	3927.42
425.64	4007.00
425.83	4007.00
426.01	4093.60
426.20	4109.98
426.39	4056.15
426.58	3967.21
426.77	3941.46
426.96	3936.78
427.15	4056.15
427.33	4135.73
427.52	4133.39
427.71	4170.83
427.90	4086.58
428.09	4198.92
428.28	4149.77
428.46	4318.29
428.65	4124.02
428.84	4334.67
429.03	4266.80
429.22	4191.90
429.40	4142.75
429.59	4238.71
429.78	4109.98
429.97	3992.95
430.16	4170.83
430.34	4032.74
430.53	4180.20
430.72	4315.95
430.91	4290.20
431.10	4512.55
431.28	4519.57
431.47	4765.33
431.66	4812.14
431.85	4634.26
432.03	4596.81
432.22	4550.00
432.41	4748.95
432.60	4648.30
432.79	4748.95
432.97	4833.21
433.16	4772.35
433.35	4678.73
433.54	4592.13
433.72	4744.27
433.91	4697.46
434.10	4933.85
434.28	4919.81
434.47	4957.25
434.66	4882.36
434.85	4947.89
435.03	5011.09
435.22	4968.96
435.41	5116.41
435.59	5231.10
435.78	5116.41
435.97	5224.08
436.16	5207.69
436.34	5210.03
436.53	5313.02
436.72	5315.36
436.90	5310.68
437.09	5259.18
437.28	5284.93
437.46	5198.33
437.65	5156.20
437.84	5275.57
438.02	5240.46
438.21	5181.95
438.40	5125.77
438.58	5441.75
438.77	5432.38
438.96	5481.53
439.14	5776.44
439.33	5715.59
439.52	5692.18
439.70	5743.67
439.89	5844.32
440.08	5682.82
440.26	5675.80
440.45	5720.27
440.63	5984.75
440.82	6104.12
441.01	6143.91
441.19	5942.62
441.38	6134.54
441.57	6155.61
441.75	6370.94
441.94	6380.30
442.12	6408.39
442.31	6415.41
442.50	6363.92
442.68	6509.03
442.87	6363.92
443.05	6289.02
443.24	6539.46
443.43	6399.02
443.61	6380.30
443.80	6647.12
443.98	6476.26
444.17	6356.90
444.35	6614.35
444.54	6995.86
444.73	6684.57
444.91	6574.56
445.10	6738.40
445.28	6434.13
445.47	6574.56
445.65	6492.65
445.84	6647.12
446.02	6773.51
446.21	6558.18
446.39	6644.78
446.58	6506.69
446.77	6707.98
446.95	6682.23
447.14	6829.68
447.32	6822.66
447.51	6679.89
447.69	6612.01
447.88	6913.94
448.06	6803.94
448.25	6883.52
448.43	6902.24
448.62	6544.14
448.80	6773.51
448.99	6878.83
449.17	6970.12
449.36	6768.83
449.54	7059.06
449.73	7171.40
449.91	7227.57
450.10	7337.58
450.28	7274.38
450.46	7433.54
450.65	7236.94
450.83	7351.62
451.02	7269.70
451.20	7337.58
451.39	7255.66
451.57	7279.07
451.76	7323.54
451.94	7279.07
452.13	7325.88
452.31	7496.74
452.49	7302.47
452.68	7424.18
452.86	7199.49
453.05	7311.83
453.23	7442.90
453.42	7332.90
453.60	7353.96
453.78	7559.93
453.97	7342.26
454.15	7569.29
454.34	7414.82
454.52	7513.12
454.70	7571.63
454.89	7562.27
455.07	7623.12
455.26	7646.53
455.44	7889.95
455.62	7789.30
455.81	7843.14
455.99	7845.48
456.17	7852.50
456.36	7829.09
456.54	7985.91
456.73	8044.42
456.91	8093.57
457.09	8140.38
457.28	8234.00
457.46	8011.65
457.64	8196.56
457.83	8243.37
458.01	8086.55
458.19	8428.27
458.38	8121.66
458.56	8395.50
458.74	8217.62
458.93	8219.96
459.11	8341.67
459.29	8428.27
459.48	8456.36
459.66	8358.05
459.84	8526.57
460.03	8636.58
460.21	8549.98
460.39	8643.60
460.57	8664.66
460.76	8690.41
460.94	8807.44
461.12	8952.55
461.31	8840.20
461.49	8690.41
461.67	8751.26
461.85	8844.88
462.04	8863.61
462.22	9256.82
462.40	8957.23
462.59	8952.55
462.77	9029.79
462.95	9205.33
463.13	9043.83
463.32	8954.89
463.50	9275.54
463.68	9202.99
463.86	9067.24
464.05	9123.41
464.23	8898.72
464.41	9256.82
464.59	8961.91
464.78	9242.78
464.96	9275.54
465.14	9090.64
465.32	9249.80
465.50	9399.59
465.69	9448.74
465.87	9413.63
466.05	9427.68
466.23	9359.80
466.41	9242.78
466.60	9458.10
466.78	9329.38
466.96	9359.80
467.14	9371.50
467.32	9577.47
467.51	9525.98
467.69	9472.15
467.87	9584.49
468.05	9671.09
468.23	9675.77
468.41	9666.41
468.60	9675.77
468.78	9685.14
468.96	9549.39
469.14	9841.95
469.32	9804.50
469.50	9724.93
469.69	9748.33
469.87	9846.63
470.05	10057.28
470.23	9966.00
470.41	9724.93
470.59	10061.96
470.77	9961.32
470.95	10024.51
471.14	10286.65
471.32	10054.94
471.50	10396.66
471.68	10401.34
471.86	10623.69
472.04	10565.18
472.22	10677.52
472.40	10396.66
472.58	10368.57
472.77	10684.55
472.95	10560.50
473.13	11166.70
473.31	10757.10
473.49	10754.76
473.67	10663.48
473.85	10757.10
474.03	10970.09
474.21	10967.75
474.39	11009.88
474.57	11243.93
474.75	11300.11
474.93	11234.57
475.12	11241.59
475.30	11426.50
475.48	11344.58
475.66	11461.60
475.84	11442.88
476.02	11515.44
476.20	11604.38
476.38	11868.86
476.56	11969.50
476.74	11885.24
476.92	11616.08
477.10	12219.94
477.28	12208.23
477.46	12292.49
477.64	12697.41
477.82	12463.35
478.00	12936.14
478.18	12659.96
478.36	12716.13
478.54	12737.20
478.72	12842.52
478.90	12875.29
479.08	13502.55
479.26	13523.62
479.44	13146.79
479.62	13371.48
479.80	13425.31
479.98	13710.86
480.16	13738.94
480.34	13659.37
480.52	14008.11
480.70	14045.55
480.88	13930.87
481.06	14043.21
481.24	14050.24
481.41	14122.79
481.59	14314.72
481.77	14579.20
481.95	14721.97
482.13	14831.97
482.31	14827.29
482.49	15194.76
482.67	15136.24
482.85	15084.75
483.03	15365.62
483.21	15484.98
483.39	15482.64
483.57	15487.32
483.74	15723.72
483.92	15793.94
484.10	15599.67
484.28	15866.49
484.46	16514.82
484.64	16381.41
484.82	16257.36
485.00	16411.84
485.18	16486.73
485.35	16865.90
485.53	16388.43
485.71	16503.12
485.89	16407.16
486.07	16573.33
486.25	16947.82
486.43	17177.19
486.61	17329.33
486.78	17179.53
486.96	17549.34
487.14	17944.89
487.32	17841.90
487.50	17881.69
487.68	17928.50
487.85	18417.68
488.03	18560.45
488.21	18485.55
488.39	18705.56
488.57	18860.04
488.75	19002.81
488.92	19061.32
489.10	19573.90
489.28	19676.88
489.46	20130.95
489.64	19550.49
489.81	20152.01
489.99	20367.34
490.17	20418.83
490.35	20479.69
490.53	20683.31
490.70	20809.70
490.88	20585.01
491.06	20898.64
491.24	20975.88
491.41	21050.78
491.59	21039.08
491.77	20793.32
491.95	21130.36
492.13	21441.65
492.30	22022.10
492.48	21785.71
492.66	21778.68
492.84	22249.13
493.01	22342.75
493.19	22265.52
493.37	22530.00
493.54	22253.81
493.72	22733.62
493.90	22848.31
494.08	23323.44
494.25	23587.92
494.43	23403.02
494.61	23800.91
494.79	23875.80
494.96	23536.43
495.14	23332.80
495.32	23798.57
495.49	23955.38
495.67	24112.20
495.85	24374.34
496.02	24716.06
496.20	24678.61
496.38	24603.71
496.55	24854.15
496.73	25373.75
496.91	24985.22
497.09	25352.68
497.26	25312.89
497.44	25111.61
497.62	25158.42
497.79	25766.96
497.97	25198.21
498.14	25823.13
498.32	25825.47
498.50	25956.54
498.67	26073.57
498.85	26281.88
499.03	26183.57
499.20	26331.03
499.38	26506.57
499.56	26747.64
499.73	26415.29
499.91	26785.09
500.08	26927.86
500.26	26370.82
500.44	26941.91
500.61	27150.21
500.79	27297.67
500.97	26665.72
501.14	27094.04
501.32	27606.62
501.49	27096.38
501.67	27548.11
501.84	27384.27
502.02	27662.79
502.20	27871.10
502.37	28098.13
502.55	28189.41
502.72	28362.61
502.90	27978.76
503.07	28224.52
503.25	28341.55
503.43	28386.02
503.60	28683.27
503.78	28460.91
503.95	28582.62
504.13	28580.28
504.30	28975.83
504.48	28875.19
504.65	29291.80
504.83	29694.38
505.01	29675.65
505.18	29626.50
505.36	29881.62
505.53	29811.40
505.71	29876.94
505.88	29839.49
506.06	29633.52
506.23	29996.31
506.41	29722.46
506.58	30008.01
506.76	30398.88
506.93	30338.02
507.11	30141.42
507.28	30314.62
507.46	29970.56
507.63	30263.13
507.81	30211.64
507.98	30082.91
508.16	30497.18
508.33	30937.20
508.50	31391.26
508.68	30993.37
508.85	31248.49
509.03	31363.18
509.20	31150.19
509.38	31756.39
509.55	31716.60
509.73	31721.28
509.90	31625.32
510.08	31470.84
510.25	31725.96
510.42	32002.14
510.60	31885.12
510.77	32285.35
510.95	32034.91
511.12	31859.37
511.30	32453.87
511.47	32708.99
511.64	32463.23
511.82	32914.95
511.99	32779.20
512.17	32610.68
512.34	32493.66
512.51	33205.18
512.69	33415.83
512.86	32833.04
513.04	33282.42
513.21	32622.39
513.38	33434.55
513.56	33172.41
513.73	33106.88
513.90	33305.82
514.08	32989.85
514.25	33752.87
514.43	33560.94
514.60	33401.79
514.77	33472.00
514.95	33865.21
515.12	34134.37
515.29	33745.84
515.47	34139.05
515.64	34581.42
515.81	34356.72
515.99	34426.94
516.16	33832.44
516.33	33696.69
516.51	33949.47
516.68	33617.11
516.85	33525.83
517.03	33954.15
517.20	34424.60
517.37	34471.41
517.54	34923.13
517.72	34637.59
517.89	34078.20
518.06	34314.59
518.24	34277.15
518.41	34679.72
518.58	34759.30
518.75	34452.69
518.93	35351.45
519.10	35250.81
519.27	35690.83
519.45	35318.68
519.62	35754.02
519.79	35445.07
519.96	36030.21
520.14	35681.47
520.31	35957.65
520.48	35880.41
520.65	35758.70
520.83	36442.14
521.00	35859.35
521.17	35903.82
521.34	36582.57
521.52	36442.14
521.69	36690.24
521.86	36280.64
522.03	36439.80
522.20	36418.74
522.38	36463.21
522.55	36620.02
522.72	36474.91
522.89	36240.86
523.07	37095.15
523.24	36584.91
523.41	37301.12
523.58	37336.23
523.75	37591.34
523.92	37338.57
524.10	37759.86
524.27	37825.40
524.44	37589.00
524.61	37610.07
524.78	37809.01
524.96	37654.54
525.13	38010.30
525.30	37944.76
525.47	38129.67
525.64	38274.78
525.81	38040.73
525.98	37975.19
526.16	37525.81
526.33	37399.42
526.50	37722.41
526.67	37607.73
526.84	37640.50
527.01	37598.37
527.18	37820.72
527.36	38199.88
527.53	38251.38
527.70	38663.31
527.87	38590.75
528.04	38593.09
528.21	38588.41
528.38	38754.59
528.55	38836.51
528.72	38925.45
528.89	39538.67
529.07	38998.01
529.24	38838.85
529.41	39012.05
529.58	39442.71
529.75	38710.12
529.92	39428.66
530.09	39248.44
530.26	39709.53
530.43	39735.27
530.60	39402.92
530.77	39470.79
530.94	39763.36
531.11	39571.44
531.28	39447.39
531.46	39796.13
531.63	39611.23
531.80	39817.19
531.97	39629.95
532.14	39571.44
532.31	39229.72
532.48	39976.35
532.65	39632.29
532.82	39798.47
532.99	39887.41
533.16	40093.38
533.33	40084.01
533.50	40325.09
533.67	40334.45
533.84	39997.41
534.01	40348.50
534.18	39777.40
534.35	40271.26
534.52	40196.36
534.69	40484.25
534.86	40959.38
535.03	40683.19
535.20	41141.94
535.37	41312.80
535.54	41228.54
535.71	40823.62
535.88	40919.59
536.05	40933.63
536.22	40926.61
536.38	41003.85
536.55	41064.70
536.72	40664.47
536.89	40746.39
537.06	41045.97
537.23	41635.79
537.40	41099.81
537.57	41591.32
537.74	41731.75
537.91	41928.36
538.08	41251.94
538.25	41050.66
538.42	41476.63
538.59	41713.03
538.75	41312.80
538.92	41731.75
539.09	42122.62
539.26	42038.36
539.43	41696.64
539.60	41837.08
539.77	41804.31
539.94	41911.97
540.11	41673.24
540.28	41673.24
540.44	41647.49
540.61	41563.23
540.78	41443.87
540.95	41759.84
541.12	41715.37
541.29	41977.51
541.46	42342.63
541.62	42693.71
541.79	42279.44
541.96	41989.21
542.13	42401.14
542.30	42178.79
542.47	42321.57
542.63	42099.22
542.80	42813.08
542.97	42918.40
543.14	43005.00
543.31	42665.63
543.48	42761.59
543.64	43140.75
543.81	43051.81
543.98	42997.98
544.15	43098.62
544.32	43171.18
544.48	43313.95
544.65	43138.41
544.82	43386.51
544.99	43222.67
545.16	43381.83
545.32	42698.39
545.49	43672.06
545.66	43777.38
545.83	43295.23
546.00	43917.81
546.16	43503.54
546.33	43093.94
546.50	43430.98
546.67	44252.51
546.83	43353.74
547.00	43491.83
547.17	43365.45
547.34	43587.80
547.50	43482.47
547.67	43793.76
547.84	43908.45
548.00	43430.98
548.17	44268.89
548.34	43964.62
548.51	44341.45
548.67	44416.35
548.84	44013.77
549.01	43934.20
549.18	43704.82
549.34	44091.01
549.51	44069.95
549.68	44350.81
549.84	43936.54
550.01	44479.54
550.18	44390.60
550.34	44521.67
550.51	44364.85
550.68	44128.46
550.84	43751.63
551.01	44261.87
551.18	44264.21
551.34	44311.02
551.51	44364.85
551.68	44563.80
551.84	44554.44
552.01	44385.92
552.18	44409.32
552.34	44367.20
552.51	44402.30
552.68	44746.36
552.84	44676.15
553.01	44882.11
553.18	44704.23
553.34	44720.62
553.51	44765.09
553.67	44851.69
553.84	45081.06
554.01	44676.15
554.17	44751.04
554.34	44882.11
554.51	44870.41
554.67	45336.18
554.84	44739.34
555.00	44704.23
555.17	44865.73
555.33	45097.44
555.50	44804.88
555.67	44926.58
555.83	44947.65
556.00	45029.57
556.16	45373.63
556.33	44879.77
556.50	45078.72
556.66	44903.18
556.83	44741.68
556.99	45535.12
557.16	45249.58
557.32	45577.25
557.49	45165.32
557.65	45191.06
557.82	45106.80
557.98	45511.72
558.15	45102.12
558.32	45645.13
558.48	45291.71
558.65	45282.34
558.81	45153.62
558.98	45120.85
559.14	44872.75
559.31	45006.16
559.47	44987.44
559.64	45614.70
559.80	45858.12
559.97	45558.53
560.13	45132.55
560.30	45184.04
560.46	45413.41
560.63	46176.43
560.79	46134.30
560.96	46000.89
561.12	45390.01
561.29	45230.85
561.45	45588.95
561.61	45766.84
561.78	45289.37
561.94	45413.41
562.11	45336.18
562.27	45221.49
562.44	46167.07
562.60	45776.20
562.77	45940.04
562.93	45799.60
563.10	45792.58
563.26	45701.30
563.42	45717.68
563.59	45687.26
563.75	45759.81
563.92	46157.70
564.08	46080.47
564.24	46490.06
564.41	45500.01
564.57	45612.36
564.74	46007.91
564.90	46113.23
565.07	45989.19
565.23	45815.99
565.39	45605.34
565.56	45827.69
565.72	45521.08
565.88	45958.76
566.05	45705.98
566.21	45673.21
566.38	45925.99
566.54	45865.14
566.70	45890.88
566.87	46366.01
567.03	46206.86
567.19	46302.82
567.36	46162.39
567.52	45982.16
567.68	46183.45
567.85	45886.20
568.01	45762.15
568.17	45680.24
568.34	46120.26
568.50	46197.49
568.66	45996.21
568.83	46103.87
568.99	45874.50
569.15	45797.26
569.32	46405.80
569.48	45752.79
569.64	46043.02
569.81	46122.60
569.97	45930.67
570.13	46241.96
570.30	45642.79
570.46	45638.11
570.62	45682.58
570.78	46026.63
570.95	45977.48
571.11	45675.55
571.27	45907.27
571.43	45883.86
571.60	46178.77
571.76	45970.46
571.92	46696.03
572.09	46284.09
572.25	45893.22
572.41	46707.73
572.57	46478.36
572.74	46384.74
572.90	46298.14
573.06	46660.92
573.22	46183.45
573.38	46349.63
573.55	46010.25
573.71	46134.30
573.87	46412.82
574.03	46059.40
574.20	45649.81
574.36	45986.85
574.52	46344.95
574.68	46520.49
574.84	46253.67
575.01	46138.98
575.17	46424.53
575.33	45972.80
575.49	46150.68
575.65	46670.28
575.82	46267.71
575.98	45886.20
576.14	46586.02
576.30	46309.84
576.46	46258.35
576.62	45963.44
576.79	46370.69
576.95	45918.97
577.11	46583.68
577.27	46188.13
577.43	46536.87
577.59	45698.96
577.75	45879.18
577.92	46010.25
578.08	45516.40
578.24	45818.33
578.40	46202.18
578.56	46328.56
578.72	45893.22
578.88	46335.59
579.04	46307.50
579.21	46227.92
579.37	46335.59
579.53	46281.75
579.69	46234.94
579.85	46541.55
580.01	46520.49
580.17	46176.43
580.33	46763.90
580.49	46583.68
580.65	45963.44
580.82	46298.14
580.98	46330.90
581.14	46188.13
581.30	46410.48
581.46	46665.60
581.62	46476.02
581.78	46548.57
581.94	46745.18
582.10	46471.34
582.26	46759.22
582.42	46506.44
582.58	46595.38
582.74	46014.93
582.90	46138.98
583.06	46513.47
583.22	46227.92
583.38	46665.60
583.54	46717.09
583.70	46274.73
583.86	46373.03
584.02	46562.62
584.18	46440.91
584.34	46155.36
584.50	46763.90
584.66	46330.90
584.82	46298.14
584.98	46122.60
585.14	46726.46
585.30	46302.82
585.46	46199.83
585.62	45879.18
585.78	46218.56
585.94	46485.38
586.10	45881.52
586.26	46040.68
586.42	46590.70
586.58	46398.78
586.74	46733.48
586.90	46248.99
587.06	46447.93
587.22	46635.17
587.38	46368.35
587.54	46148.34
587.70	46417.50
587.86	46391.76
588.02	46515.81
588.18	46696.03
588.34	46251.33
588.49	45755.13
588.65	45808.96
588.81	45787.90
588.97	45893.22
589.13	45975.14
589.29	45825.35
589.45	45947.06
589.61	45717.68
589.77	46791.99
589.93	46340.27
