SpectraSuite Data File
++++++++++++++++++++++++++++++++++++
Date: Fri Oct 25 10:43:14 EDT 2013
User: price-jones
Dark Spectrum Present: No
Reference Spectrum Present: No
Number of Sampled Component Spectra: 1
Spectrometers: USB2+H05261
Integration Time (usec): 100000 (USB2+H05261)
Spectra Averaged: 1 (USB2+H05261)
Boxcar Smoothing: 0 (USB2+H05261)
Correct for Electrical Dark: No (USB2+H05261)
Strobe/Lamp Enabled: No (USB2+H05261)
Correct for Detector Non-linearity: No (USB2+H05261)
Correct for Stray Light: No (USB2+H05261)
Number of Pixels in Processed Spectrum: 2048
>>>>>Begin Processed Spectral Data<<<<<
365.73	128.73
365.92	128.73
366.12	128.73
366.32	11.70
366.52	44.47
366.72	49.15
366.91	14.04
367.11	42.13
367.31	30.43
367.51	42.13
367.70	102.98
367.90	14.04
368.10	67.88
368.30	4.68
368.49	2.34
368.69	138.09
368.89	42.13
369.09	0.00
369.28	70.22
369.48	42.13
369.68	53.83
369.87	39.79
370.07	67.88
370.27	121.71
370.47	166.18
370.66	348.74
370.86	369.80
371.06	409.59
371.25	477.47
371.45	463.43
371.65	444.70
371.84	435.34
372.04	437.68
372.24	479.81
372.44	482.15
372.63	491.51
372.83	531.30
373.03	407.25
373.22	440.02
373.42	500.87
373.62	566.41
373.81	505.56
374.01	528.96
374.21	559.39
374.40	500.87
374.60	568.75
374.79	559.39
374.99	606.20
375.19	547.69
375.38	624.92
375.58	624.92
375.78	606.20
375.97	617.90
376.17	627.26
376.37	617.90
376.56	585.13
376.76	627.26
376.95	547.69
377.15	641.31
377.35	571.09
377.54	631.94
377.74	573.43
377.93	629.60
378.13	664.71
378.33	552.37
378.52	585.13
378.72	660.03
378.91	688.12
379.11	674.07
379.31	608.54
379.50	613.22
379.70	674.07
379.89	685.78
380.09	608.54
380.28	720.88
380.48	725.57
380.68	678.76
380.87	676.41
381.07	716.20
381.26	805.14
381.46	702.16
381.65	720.88
381.85	779.40
382.04	755.99
382.24	770.04
382.43	678.76
382.63	610.88
382.83	795.78
383.02	765.36
383.22	760.67
383.41	617.90
383.61	788.76
383.80	858.98
384.00	676.41
384.19	779.40
384.39	798.12
384.58	833.23
384.78	758.33
384.97	725.57
385.17	763.01
385.36	849.61
385.56	723.23
385.75	812.17
385.95	791.10
386.14	748.97
386.34	835.57
386.53	819.19
386.72	837.91
386.92	947.92
387.11	875.36
387.31	856.64
387.50	812.17
387.70	851.96
387.89	933.87
388.09	807.48
388.28	931.53
388.48	891.74
388.67	929.19
388.86	898.77
389.06	863.66
389.25	1020.47
389.45	976.00
389.64	915.15
389.84	983.02
390.03	987.71
390.22	1008.77
390.42	987.71
390.61	1032.18
390.81	1034.52
391.00	1081.33
391.19	1039.20
391.39	1076.65
391.58	1095.37
391.78	1116.44
391.97	1078.99
392.16	1041.54
392.36	1015.79
392.55	896.43
392.75	976.00
392.94	1055.58
393.13	943.24
393.33	1020.47
393.52	992.39
393.71	1069.62
393.91	1128.14
394.10	1167.93
394.29	1116.44
394.49	1214.74
394.68	1186.65
394.88	1177.29
395.07	1179.63
395.26	1242.82
395.46	1313.04
395.65	1224.10
395.84	1282.61
396.04	1181.97
396.23	1184.31
396.42	1146.86
396.62	1142.18
396.81	1186.65
397.00	1224.10
397.19	1277.93
397.39	1259.21
397.58	1362.19
397.77	1399.64
397.97	1397.30
398.16	1404.32
398.35	1483.90
398.55	1575.18
398.74	1453.47
398.93	1598.59
399.12	1500.28
399.32	1488.58
399.51	1451.13
399.70	1694.55
399.90	1586.88
400.09	1570.50
400.28	1629.01
400.47	1694.55
400.67	1703.91
400.86	1645.40
401.05	1668.80
401.24	1668.80
401.44	1687.53
401.63	1736.68
401.82	1797.53
402.01	1743.70
402.21	1743.70
402.40	1769.44
402.59	1619.65
402.78	1706.25
402.97	1722.63
403.17	1776.47
403.36	1778.81
403.55	1827.96
403.74	1893.49
403.93	1893.49
404.13	1916.90
404.32	1863.07
404.51	1802.21
404.70	2033.93
404.89	1853.70
405.09	1919.24
405.28	1879.45
405.47	1937.96
405.66	1909.88
405.85	1973.07
406.05	1994.14
406.24	2076.06
406.43	2050.31
406.62	1970.73
406.81	2143.93
407.00	2108.82
407.20	2069.03
407.39	2080.74
407.58	2111.16
407.77	2062.01
407.96	2179.04
408.15	2249.25
408.34	2188.40
408.54	2239.89
408.73	2289.04
408.92	2275.00
409.11	2305.43
409.30	2335.85
409.49	2246.91
409.68	2363.94
409.87	2335.85
410.07	2286.70
410.26	2314.79
410.45	2298.41
410.64	2342.88
410.83	2513.74
411.02	2445.86
411.21	2551.18
411.40	2452.88
411.59	2532.46
411.78	2569.91
411.98	2663.53
412.17	2686.94
412.36	2700.98
412.55	2691.62
412.74	2792.26
412.93	2785.24
413.12	2708.00
413.31	2818.00
413.50	2810.98
413.69	2935.03
413.88	2972.48
414.07	2885.88
414.26	3005.25
414.45	2960.78
414.64	2916.31
414.83	3105.89
415.02	3035.67
415.22	3117.59
415.41	3143.34
415.60	3234.62
415.79	3122.27
415.98	3171.43
416.17	3300.16
416.36	3180.79
416.55	3248.66
416.74	3220.58
416.93	3286.11
417.12	3115.25
417.31	3080.14
417.50	3325.90
417.69	3442.93
417.88	3377.39
418.07	3393.78
418.26	3524.85
418.45	3311.86
418.64	3524.85
418.83	3480.38
419.02	3583.36
419.21	3637.19
419.39	3583.36
419.58	3625.49
419.77	3510.80
419.96	3824.44
420.15	3599.74
420.34	3712.09
420.53	3845.50
420.72	3733.15
420.91	3892.31
421.10	3871.25
421.29	3875.93
421.48	3836.14
421.67	4039.76
421.86	3679.32
422.05	3934.44
422.24	3810.39
422.43	3735.50
422.61	3838.48
422.80	3950.82
422.99	3904.01
423.18	3885.29
423.37	3913.38
423.56	3988.27
423.75	3920.40
423.94	3906.35
424.13	3604.42
424.32	3808.05
424.50	3826.78
424.69	3992.95
424.88	3967.21
425.07	3948.48
425.26	4063.17
425.45	3962.53
425.64	3927.42
425.83	3808.05
426.01	3904.01
426.20	4074.87
426.39	4107.64
426.58	3878.27
426.77	4072.53
426.96	3934.44
427.15	4025.72
427.33	4187.22
427.52	4077.21
427.71	3974.23
427.90	4231.69
428.09	4166.15
428.28	4126.36
428.46	3999.98
428.65	4198.92
428.84	4173.18
429.03	4304.25
429.22	4219.99
429.40	4131.05
429.59	4147.43
429.78	4053.81
429.97	3941.46
430.16	3880.61
430.34	4018.70
430.53	4070.19
430.72	4117.00
430.91	4177.86
431.10	4374.46
431.28	4437.66
431.47	4557.02
431.66	4748.95
431.85	4580.43
432.03	4533.62
432.22	4620.22
432.41	4533.62
432.60	4737.24
432.79	4706.82
432.97	4793.42
433.16	4643.62
433.35	4713.84
433.54	4634.26
433.72	4561.70
433.91	4662.35
434.10	4748.95
434.28	4730.22
434.47	4861.29
434.66	4997.04
434.85	4887.04
435.03	4891.72
435.22	5074.28
435.41	5184.29
435.59	4912.78
435.78	5055.56
435.97	5228.76
436.16	5081.30
436.34	5055.56
436.53	5144.50
436.72	5259.18
436.90	5074.28
437.09	5252.16
437.28	5062.58
437.46	5139.82
437.65	5210.03
437.84	5219.39
438.02	5217.05
438.21	5228.76
438.40	5277.91
438.58	5404.30
438.77	5193.65
438.96	5341.10
439.14	5488.56
439.33	5540.05
439.52	5479.19
439.70	5724.95
439.89	5699.20
440.08	5715.59
440.26	5816.23
440.45	5715.59
440.63	5837.30
440.82	5989.43
441.01	6125.18
441.19	6047.94
441.38	5998.79
441.57	6076.03
441.75	6209.44
441.94	6256.25
442.12	6197.74
442.31	6312.42
442.50	6445.84
442.68	6300.72
442.87	6216.46
443.05	6380.30
443.24	6502.01
443.43	6333.49
443.61	6384.98
443.80	6635.42
443.98	6321.79
444.17	6335.83
444.35	6469.24
444.54	6743.08
444.73	6616.69
444.91	6375.62
445.10	6328.81
445.28	6445.84
445.47	6352.21
445.65	6513.71
445.84	6527.75
446.02	6478.60
446.21	6534.78
446.39	6581.59
446.58	6579.25
446.77	6642.44
446.95	6389.66
447.14	6588.61
447.32	6722.02
447.51	6684.57
447.69	6499.67
447.88	6689.25
448.06	6766.49
448.25	6780.53
448.43	6677.55
448.62	6689.25
448.80	6644.78
448.99	6810.96
449.17	6853.09
449.36	6836.70
449.54	6913.94
449.73	6785.21
449.91	7164.38
450.10	7316.51
450.28	6988.84
450.46	7300.13
450.65	7220.55
450.83	7176.08
451.02	7220.55
451.20	7246.30
451.39	7211.19
451.57	6984.16
451.76	7204.17
451.94	7302.47
452.13	7166.72
452.31	7403.11
452.49	7040.33
452.68	7133.95
452.86	7119.91
453.05	7297.79
453.23	7265.02
453.42	7272.04
453.60	7318.86
453.78	7536.52
453.97	7588.02
454.15	7403.11
454.34	7463.97
454.52	7330.56
454.70	7438.22
454.89	7520.14
455.07	7372.69
455.26	7545.89
455.44	7817.39
455.62	7744.83
455.81	7754.19
455.99	7801.01
456.17	7772.92
456.36	7953.14
456.54	7974.21
456.73	7974.21
456.91	8131.02
457.09	8025.70
457.28	8088.89
457.46	7934.42
457.64	8028.04
457.83	8112.30
458.01	8021.02
458.19	8250.39
458.38	8070.17
458.56	8163.79
458.74	8224.64
458.93	8173.15
459.11	8393.16
459.29	8112.30
459.48	8339.33
459.66	8437.63
459.84	8542.96
460.03	8428.27
460.21	8432.95
460.39	8641.26
460.57	8442.31
460.76	8428.27
460.94	8568.70
461.12	8713.81
461.31	8688.07
461.49	8702.11
461.67	8566.36
461.85	8875.31
462.04	8730.20
462.22	9186.60
462.40	8945.53
462.59	8903.40
462.77	8875.31
462.95	8868.29
463.13	8711.47
463.32	8910.42
463.50	8849.57
463.68	8828.50
463.86	8901.06
464.05	8868.29
464.23	8814.46
464.41	8959.57
464.59	8784.03
464.78	9226.39
464.96	9114.05
465.14	9041.49
465.32	9277.88
465.50	9165.54
465.69	9268.52
465.87	9181.92
466.05	9270.86
466.23	9046.17
466.41	9100.00
466.60	9256.82
466.78	9081.28
466.96	9195.96
467.14	9310.65
467.32	9331.72
467.51	9362.14
467.69	9242.78
467.87	9355.12
468.05	9612.58
468.23	9305.97
468.41	9483.85
468.60	9385.55
468.78	9455.76
468.96	9542.36
469.14	9799.82
469.32	9745.99
469.50	9493.21
469.69	9575.13
469.87	9757.69
470.05	9797.48
470.23	9713.22
470.41	9811.53
470.59	10012.81
470.77	9792.80
470.95	9919.19
471.14	10139.20
471.32	9881.74
471.50	10368.57
471.68	10293.68
471.86	10200.05
472.04	10303.04
472.22	10583.90
472.40	10298.36
472.58	10356.87
472.77	10516.03
472.95	10548.79
473.13	10740.72
473.31	10527.73
473.49	10523.05
473.67	10630.71
473.85	10614.33
474.03	10932.64
474.21	10988.82
474.39	10923.28
474.57	10803.91
474.75	11183.08
474.93	11353.94
475.12	11129.25
475.30	11044.99
475.48	11117.54
475.66	11262.66
475.84	11234.57
476.02	11260.32
476.20	11162.01
476.38	11583.31
476.56	12051.42
476.74	11831.41
476.92	11609.06
477.10	12046.74
477.28	12020.99
477.46	11812.68
477.64	12248.02
477.82	12292.49
478.00	12524.21
478.18	12624.85
478.36	12383.77
478.54	12765.28
478.72	12769.96
478.90	12484.42
479.08	12957.21
479.26	13195.94
479.44	13139.77
479.62	13102.32
479.80	13376.16
479.98	13219.35
480.16	13729.58
480.34	13404.25
480.52	13291.90
480.70	13642.98
480.88	13633.62
481.06	13893.42
481.24	13973.00
481.41	14258.54
481.59	14380.25
481.77	14317.06
481.95	14403.66
482.13	14579.20
482.31	14558.13
482.49	14724.31
482.67	14607.28
482.85	14927.94
483.03	15061.35
483.21	15393.70
483.39	15133.90
483.57	15147.95
483.74	15302.42
483.92	15683.93
484.10	15358.60
484.28	15880.53
484.46	16170.76
484.64	16285.45
484.82	15721.38
485.00	16133.31
485.18	16355.66
485.35	16285.45
485.53	16088.84
485.71	16042.03
485.89	16177.78
486.07	16145.02
486.25	16432.90
486.43	16638.87
486.61	16915.05
486.78	17128.04
486.96	17020.38
487.14	17369.12
487.32	17577.42
487.50	17839.56
487.68	17799.77
487.85	18235.11
488.03	18230.43
488.21	18647.05
488.39	18412.99
488.57	18640.03
488.75	18883.44
488.92	18792.16
489.10	19243.88
489.28	19328.14
489.46	19590.28
489.64	19679.22
489.81	19878.17
489.99	20130.95
490.17	20020.94
490.35	20432.88
490.53	20126.27
490.70	20397.77
490.88	20098.18
491.06	21097.59
491.24	20524.16
491.41	20772.25
491.59	20634.16
491.77	20601.40
491.95	20769.91
492.13	21259.09
492.30	21575.06
492.48	21397.18
492.66	21603.14
492.84	21886.35
493.01	22087.64
493.19	22190.62
493.37	22085.30
493.54	22237.43
493.72	22717.24
493.90	22742.99
494.08	22712.56
494.25	22930.23
494.43	22869.37
494.61	23372.59
494.79	23400.68
494.96	23414.72
495.14	23536.43
495.32	23655.79
495.49	23861.76
495.67	23534.09
495.85	23798.57
496.02	24013.90
496.20	24034.96
496.38	24313.48
496.55	24388.38
496.73	24877.55
496.91	24767.55
497.09	24500.73
497.26	25088.20
497.44	25039.05
497.62	25097.56
497.79	25399.49
497.97	25273.10
498.14	25357.36
498.32	25378.43
498.50	25699.08
498.67	25837.17
498.85	25832.49
499.03	26089.95
499.20	25905.05
499.38	25968.24
499.56	26190.59
499.73	26232.72
499.91	26616.57
500.08	26448.05
500.26	26321.66
500.44	26464.44
500.61	26396.56
500.79	26424.65
500.97	26752.32
501.14	27023.83
501.32	27110.43
501.49	27056.59
501.67	26712.53
501.84	27168.94
502.02	27166.60
502.20	27498.95
502.37	27576.19
502.55	27505.98
502.72	27899.19
502.90	27660.45
503.07	27765.78
503.25	28128.56
503.43	27976.42
503.60	27887.48
503.78	28053.66
503.95	28306.44
504.13	28453.89
504.30	28570.92
504.48	28292.40
504.65	28739.44
504.83	29085.84
505.01	29167.76
505.18	28938.38
505.36	29266.06
505.53	29294.14
505.71	29736.51
505.88	29649.91
506.06	29598.41
506.23	29427.56
506.41	29165.42
506.58	29530.54
506.76	29907.37
506.93	29677.99
507.11	30087.59
507.28	30150.78
507.46	29890.98
507.63	29654.59
507.81	30071.20
507.98	29853.53
508.16	30361.43
508.33	30316.96
508.50	30368.45
508.68	30359.09
508.85	30522.93
509.03	30876.35
509.20	30920.82
509.38	31108.06
509.55	30988.69
509.73	31061.25
509.90	31075.29
510.08	31538.72
510.25	30862.30
510.42	31515.31
510.60	31438.08
510.77	31503.61
510.95	32060.66
511.12	31999.80
511.30	32418.76
511.47	32070.02
511.64	32374.29
511.82	32158.96
511.99	32435.14
512.17	32048.96
512.34	32297.05
512.51	32652.81
512.69	32528.77
512.86	32947.72
513.04	32893.89
513.21	32538.13
513.38	32517.06
513.56	32596.64
513.73	32266.63
513.90	32755.80
514.08	32488.98
514.25	33216.88
514.43	33331.57
514.60	32767.50
514.77	32907.93
514.95	33415.83
515.12	33380.72
515.29	33336.25
515.47	33689.67
515.64	33820.74
515.81	33509.45
515.99	33937.77
516.16	33333.91
516.33	33404.13
516.51	33607.75
516.68	33174.75
516.85	33188.80
517.03	33869.89
517.20	33862.87
517.37	33771.59
517.54	34003.30
517.72	34410.56
517.89	33830.10
518.06	33785.63
518.24	33745.84
518.41	34157.78
518.58	34480.77
518.75	34190.55
518.93	34665.67
519.10	34712.49
519.27	34689.08
519.45	34693.76
519.62	35304.64
519.79	34955.90
519.96	35337.41
520.14	34937.18
520.31	35194.64
520.48	35232.08
520.65	35054.20
520.83	35442.73
521.00	35690.83
521.17	36105.10
521.34	35819.56
521.52	35679.13
521.69	36032.55
521.86	36144.89
522.03	36119.15
522.20	36032.55
522.38	36140.21
522.55	36456.18
522.72	35885.09
522.89	36027.87
523.07	36727.69
523.24	36229.15
523.41	36903.23
523.58	37003.87
523.75	37116.22
523.92	36978.12
524.10	37186.43
524.27	36783.86
524.44	36919.61
524.61	37273.03
524.78	36774.50
524.96	37074.09
525.13	37734.12
525.30	37703.69
525.47	37340.91
525.64	37338.57
525.81	37076.43
525.98	37902.64
526.16	37256.65
526.33	37057.70
526.50	37055.36
526.67	36528.74
526.84	37420.48
527.01	37336.23
527.18	37652.20
527.36	38188.18
527.53	37766.88
527.70	38277.12
527.87	38073.49
528.04	38031.36
528.21	38120.31
528.38	38061.79
528.55	38513.52
528.72	38698.42
528.89	38862.26
529.07	38731.18
529.24	38958.22
529.41	38590.75
529.58	38342.66
529.75	38766.29
529.92	38405.85
530.09	39189.93
530.26	38852.89
530.43	39274.19
530.60	38801.40
530.77	38955.88
530.94	39260.15
531.11	39091.63
531.28	39536.33
531.46	39299.94
531.63	39559.73
531.80	38998.01
531.97	38841.19
532.14	39026.09
532.31	38850.55
532.48	39578.46
532.65	39545.69
532.82	39115.03
532.99	39683.78
533.16	39468.45
533.33	39700.17
533.50	40006.78
533.67	39810.17
533.84	39922.52
534.01	39976.35
534.18	39952.94
534.35	40399.99
534.52	40189.34
534.69	40301.68
534.86	40414.03
535.03	40404.67
535.20	40591.91
535.37	40650.42
535.54	40313.39
535.71	40669.15
535.88	40760.43
536.05	40713.62
536.22	40346.15
536.38	40720.64
536.55	40418.71
536.72	40418.71
536.89	40308.71
537.06	40402.33
537.23	40863.41
537.40	40685.53
537.57	40580.21
537.74	40982.78
537.91	41067.04
538.08	40722.98
538.25	40971.08
538.42	40886.82
538.59	41256.62
538.75	40957.03
538.92	40959.38
539.09	41104.49
539.26	41177.04
539.43	41322.16
539.60	41223.86
539.77	41233.22
539.94	41099.81
540.11	41188.75
540.28	41462.59
540.44	41160.66
540.61	41518.76
540.78	41165.34
540.95	41385.35
541.12	41352.58
541.29	41420.46
541.46	41448.55
541.62	41195.77
541.79	42110.92
541.96	41174.70
542.13	41476.63
542.30	41600.68
542.47	41523.44
542.63	41858.14
542.80	42176.45
542.97	42604.77
543.14	42394.12
543.31	41993.89
543.48	42501.79
543.64	42518.17
543.81	42670.31
543.98	42841.17
544.15	42590.73
544.32	42611.79
544.48	43187.56
544.65	42291.14
544.82	42464.34
544.99	42342.63
545.16	43033.09
545.32	42447.96
545.49	42948.83
545.66	42714.78
545.83	42740.52
546.00	42897.34
546.16	42665.63
546.33	42689.03
546.50	42604.77
546.67	43047.13
546.83	42677.33
547.00	43122.03
547.17	43126.71
547.34	42981.60
547.50	42967.55
547.67	43665.03
547.84	42948.83
548.00	43543.33
548.17	43758.66
548.34	43227.35
548.51	43592.48
548.67	43360.76
548.84	43182.88
549.01	43391.19
549.18	43227.35
549.34	43019.05
549.51	43636.95
549.68	43526.94
549.84	43873.34
550.01	43686.10
550.18	43641.63
550.34	43442.68
550.51	43842.92
550.68	43615.88
550.84	43117.35
551.01	43519.92
551.18	43995.05
551.34	44058.24
551.51	44058.24
551.68	44011.43
551.84	43800.79
552.01	44261.87
552.18	43957.60
552.34	43576.09
552.51	44449.11
552.68	43920.15
552.84	43807.81
553.01	44474.86
553.18	44013.77
553.34	44289.96
553.51	43779.72
553.67	44491.24
553.84	44985.10
554.01	44652.74
554.17	44390.60
554.34	44753.38
554.51	44367.20
554.67	44395.28
554.84	44444.43
555.00	44465.50
555.17	44165.91
555.33	44470.18
555.50	44580.18
555.67	44802.53
555.83	44463.16
556.00	44804.88
556.16	44940.63
556.33	44259.53
556.50	44442.09
556.66	44575.50
556.83	44163.57
556.99	44411.67
557.16	44596.57
557.32	44725.30
557.49	44940.63
557.65	44577.84
557.82	44680.83
557.98	44769.77
558.15	44516.99
558.32	44851.69
558.48	44598.91
558.65	44886.79
558.81	44629.34
558.98	44858.71
559.14	44884.45
559.31	44842.32
559.47	44612.95
559.64	45315.11
559.80	45287.03
559.97	44842.32
560.13	44769.77
560.30	44589.55
560.46	45214.47
560.63	45322.13
560.79	44947.65
560.96	45256.60
561.12	44926.58
561.29	44914.88
561.45	45052.97
561.61	44966.37
561.78	44921.90
561.94	44940.63
562.11	45078.72
562.27	44964.03
562.44	45277.66
562.60	45123.19
562.77	45109.14
562.93	45045.95
563.10	45317.45
563.26	45280.00
563.42	45148.93
563.59	45258.94
563.75	44961.69
563.92	45500.01
564.08	45280.00
564.24	45563.21
564.41	45305.75
564.57	45284.68
564.74	45399.37
564.90	45315.11
565.07	44886.79
565.23	45141.91
565.39	44938.29
565.56	45038.93
565.72	45118.51
565.88	45586.61
566.05	45172.34
566.21	45289.37
566.38	44865.73
566.54	45549.17
566.70	45556.19
566.87	46312.18
567.03	45708.32
567.19	46328.56
567.36	45696.62
567.52	45432.14
567.68	45443.84
567.85	45270.64
568.01	45902.59
568.17	45312.77
568.34	45682.58
568.50	45661.51
568.66	45029.57
568.83	45155.96
568.99	45282.34
569.15	45223.83
569.32	45120.85
569.48	45308.09
569.64	45944.72
569.81	45434.48
569.97	45425.12
570.13	45354.90
570.30	45675.55
570.46	45172.34
570.62	45294.05
570.78	45228.51
570.95	44996.80
571.11	45038.93
571.27	45500.01
571.43	45490.65
571.60	45790.24
571.76	45226.17
571.92	45598.32
572.09	45858.12
572.25	46141.32
572.41	45275.32
572.57	45975.14
572.74	46300.48
572.90	45776.20
573.06	45834.71
573.22	45603.00
573.38	45698.96
573.55	45708.32
573.71	46120.26
573.87	46087.49
574.03	45315.11
574.20	45956.42
574.36	45464.91
574.52	45731.73
574.68	45745.77
574.84	45717.68
575.01	45492.99
575.17	45546.82
575.33	45469.59
575.49	45478.95
575.65	46043.02
575.82	46026.63
575.98	45972.80
576.14	46244.30
576.30	45785.56
576.46	45364.26
576.62	45748.11
576.79	45935.35
576.95	45631.08
577.11	45998.55
577.27	45942.38
577.43	45830.03
577.59	45354.90
577.75	45303.41
577.92	45144.25
578.08	45212.13
578.24	45146.59
578.40	45542.14
578.56	45727.05
578.72	45666.19
578.88	46040.68
579.04	45785.56
579.21	45495.33
579.37	45790.24
579.53	45684.92
579.69	45818.33
579.85	45759.81
580.01	45371.28
580.17	45621.72
580.33	45598.32
580.49	45698.96
580.65	45858.12
580.82	45574.91
580.98	45680.24
581.14	45490.65
581.30	46124.94
581.46	46012.59
581.62	46026.63
581.78	45563.21
581.94	46192.81
582.10	46096.85
582.26	45764.49
582.42	45841.73
582.58	45979.82
582.74	45804.28
582.90	45972.80
583.06	45839.39
583.22	45872.16
583.38	45731.73
583.54	45825.35
583.70	45605.34
583.86	45794.92
584.02	45844.07
584.18	45933.01
584.34	45907.27
584.50	45970.46
584.66	46494.74
584.82	45993.87
584.98	45869.82
585.14	45872.16
585.30	45724.71
585.46	45862.80
585.62	45375.97
585.78	45750.45
585.94	45818.33
586.10	45432.14
586.26	45317.45
586.42	46127.28
586.58	46375.37
586.74	45769.18
586.90	46096.85
587.06	45972.80
587.22	45944.72
587.38	45834.71
587.54	45942.38
587.70	45532.78
587.86	45680.24
588.02	45996.21
588.18	45928.33
588.34	45333.84
588.49	45338.52
588.65	45605.34
588.81	45530.44
588.97	45289.37
589.13	45411.07
589.29	45806.62
589.45	45539.80
589.61	45542.14
589.77	45844.07
589.93	45914.29
