SpectraSuite Data File
++++++++++++++++++++++++++++++++++++
Date: Fri Oct 25 10:43:58 EDT 2013
User: price-jones
Dark Spectrum Present: No
Reference Spectrum Present: No
Number of Sampled Component Spectra: 1
Spectrometers: USB2+H05261
Integration Time (usec): 100000 (USB2+H05261)
Spectra Averaged: 1 (USB2+H05261)
Boxcar Smoothing: 0 (USB2+H05261)
Correct for Electrical Dark: No (USB2+H05261)
Strobe/Lamp Enabled: No (USB2+H05261)
Correct for Detector Non-linearity: No (USB2+H05261)
Correct for Stray Light: No (USB2+H05261)
Number of Pixels in Processed Spectrum: 2048
>>>>>Begin Processed Spectral Data<<<<<
365.73	124.05
365.92	124.05
366.12	124.05
366.32	95.96
366.52	86.60
366.72	2.34
366.91	14.04
367.11	18.72
367.31	63.19
367.51	0.00
367.70	23.41
367.90	84.26
368.10	0.00
368.30	4.68
368.49	0.00
368.69	32.77
368.89	49.15
369.09	4.68
369.28	0.00
369.48	0.00
369.68	70.22
369.87	107.66
370.07	110.01
370.27	102.98
370.47	187.24
370.66	433.00
370.86	435.34
371.06	444.70
371.25	472.79
371.45	517.26
371.65	477.47
371.84	437.68
372.04	510.24
372.24	514.92
372.44	526.62
372.63	510.24
372.83	479.81
373.03	538.32
373.22	484.49
373.42	603.86
373.62	510.24
373.81	505.56
374.01	535.98
374.21	575.77
374.40	599.18
374.60	613.22
374.79	564.07
374.99	575.77
375.19	634.29
375.38	582.79
375.58	629.60
375.78	627.26
375.97	624.92
376.17	676.41
376.37	582.79
376.56	615.56
376.76	622.58
376.95	678.76
377.15	720.88
377.35	578.11
377.54	657.69
377.74	683.44
377.93	697.48
378.13	592.16
378.33	697.48
378.52	641.31
378.72	615.56
378.91	655.35
379.11	571.09
379.31	690.46
379.50	641.31
379.70	709.18
379.89	650.67
380.09	660.03
380.28	685.78
380.48	730.25
380.68	699.82
380.87	720.88
381.07	755.99
381.26	746.63
381.46	725.57
381.65	746.63
381.85	650.67
382.04	697.48
382.24	711.52
382.43	676.41
382.63	674.07
382.83	678.76
383.02	746.63
383.22	828.55
383.41	732.59
383.61	791.10
383.80	795.78
384.00	753.65
384.19	858.98
384.39	669.39
384.58	828.55
384.78	779.40
384.97	793.44
385.17	753.65
385.36	823.87
385.56	807.48
385.75	828.55
385.95	880.04
386.14	861.32
386.34	896.43
386.53	905.79
386.72	772.38
386.92	809.83
387.11	786.42
387.31	795.78
387.50	800.46
387.70	889.40
387.89	901.11
388.09	833.23
388.28	833.23
388.48	971.32
388.67	1018.13
388.86	833.23
389.06	966.64
389.25	1104.73
389.45	976.00
389.64	994.73
389.84	1062.60
390.03	1018.13
390.22	1060.26
390.42	1008.77
390.61	1034.52
390.81	978.34
391.00	1074.31
391.19	1205.38
391.39	1102.39
391.58	1107.07
391.78	1050.90
391.97	1064.94
392.16	1064.94
392.36	1130.48
392.55	1163.25
392.75	1004.09
392.94	1067.28
393.13	908.13
393.33	1043.88
393.52	1067.28
393.71	1186.65
393.91	1107.07
394.10	1055.58
394.29	1181.97
394.49	1132.82
394.68	1291.98
394.88	1263.89
395.07	1270.91
395.26	1104.73
395.46	1240.48
395.65	1172.61
395.84	1296.66
396.04	1289.64
396.23	1167.93
396.42	1233.46
396.62	1221.76
396.81	1291.98
397.00	1266.23
397.19	1299.00
397.39	1313.04
397.58	1430.07
397.77	1409.00
397.97	1465.18
398.16	1423.05
398.35	1469.86
398.55	1481.56
398.74	1476.88
398.93	1535.39
399.12	1582.20
399.32	1432.41
399.51	1469.86
399.70	1661.78
399.90	1519.01
400.09	1657.10
400.28	1568.16
400.47	1762.42
400.67	1673.48
400.86	1713.27
401.05	1640.72
401.24	1741.36
401.44	1722.63
401.63	1748.38
401.82	1757.74
402.01	1722.63
402.21	1762.42
402.40	1813.92
402.59	1776.47
402.78	1816.26
402.97	1895.83
403.17	1743.70
403.36	1863.07
403.55	1926.26
403.74	1893.49
403.93	1846.68
404.13	1820.94
404.32	1907.54
404.51	1961.37
404.70	1970.73
404.89	1916.90
405.09	1973.07
405.28	1982.43
405.47	1952.01
405.66	1952.01
405.85	2078.40
406.05	2071.37
406.24	2108.82
406.43	2125.21
406.62	2141.59
406.81	2143.93
407.00	2101.80
407.20	2134.57
407.39	2200.10
407.58	2275.00
407.77	2342.88
407.96	2242.23
408.15	2300.75
408.34	2200.10
408.54	2209.47
408.73	2303.09
408.92	2303.09
409.11	2361.60
409.30	2356.92
409.49	2296.07
409.68	2289.04
409.87	2286.70
410.07	2370.96
410.26	2406.07
410.45	2422.45
410.64	2502.03
410.83	2551.18
411.02	2583.95
411.21	2530.12
411.40	2691.62
411.59	2693.96
411.78	2719.70
411.98	2647.15
412.17	2600.34
412.36	2724.38
412.55	2752.47
412.74	2806.30
412.93	2892.90
413.12	2771.19
413.31	2956.10
413.50	2897.58
413.69	2771.19
413.88	2993.55
414.07	3070.78
414.26	3173.77
414.45	3129.30
414.64	2944.39
414.83	3148.02
415.02	3105.89
415.22	3133.98
415.41	3169.09
415.60	3248.66
415.79	3349.31
415.98	3302.50
416.17	3220.58
416.36	3204.19
416.55	3323.56
416.74	3379.73
416.93	3258.03
417.12	3356.33
417.31	3346.97
417.50	3346.97
417.69	3588.04
417.88	3379.73
418.07	3522.51
418.26	3412.50
418.45	3531.87
418.64	3667.62
418.83	3623.15
419.02	3627.83
419.21	3653.58
419.39	3599.74
419.58	3749.54
419.77	3782.31
419.96	3754.22
420.15	3861.88
420.34	3777.62
420.53	3791.67
420.72	3922.74
420.91	3845.50
421.10	3922.74
421.29	4002.32
421.48	3990.61
421.67	3920.40
421.86	3941.46
422.05	3861.88
422.24	3740.18
422.43	3756.56
422.61	3981.25
422.80	3960.19
422.99	3988.27
423.18	3960.19
423.37	4002.32
423.56	3995.29
423.75	3946.14
423.94	3894.65
424.13	3784.65
424.32	3805.71
424.50	3946.14
424.69	3875.93
424.88	4004.66
425.07	4009.34
425.26	3896.99
425.45	3866.56
425.64	3889.97
425.83	4023.38
426.01	4231.69
426.20	4025.72
426.39	4184.88
426.58	3906.35
426.77	4070.19
426.96	3974.23
427.15	3978.91
427.33	4109.98
427.52	4049.13
427.71	4236.37
427.90	4107.64
428.09	4215.30
428.28	4201.26
428.46	4231.69
428.65	4109.98
428.84	4444.68
429.03	4402.55
429.22	4217.65
429.40	4114.66
429.59	4250.41
429.78	4084.23
429.97	4053.81
430.16	4028.06
430.34	4070.19
430.53	4154.45
430.72	4322.97
430.91	4351.06
431.10	4411.91
431.28	4643.62
431.47	4674.05
431.66	4732.56
431.85	4578.09
432.03	4622.56
432.22	4887.04
432.41	4755.97
432.60	4685.75
432.79	4704.48
432.97	4716.18
433.16	4720.86
433.35	4697.46
433.54	4732.56
433.72	4777.03
433.91	4641.28
434.10	4819.16
434.28	4901.08
434.47	5011.09
434.66	4940.87
434.85	4870.65
435.03	4966.62
435.22	4994.70
435.41	5249.82
435.59	5039.17
435.78	5219.39
435.97	5210.03
436.16	5195.99
436.34	5212.37
436.53	5352.81
436.72	5511.96
436.90	5191.31
437.09	5334.08
437.28	5315.36
437.46	5231.10
437.65	5399.62
437.84	5376.21
438.02	5149.18
438.21	5224.08
438.40	5263.86
438.58	5490.90
438.77	5423.02
438.96	5570.48
439.14	5741.33
439.33	5657.07
439.52	5722.61
439.70	5748.36
439.89	5628.99
440.08	5898.15
440.26	5769.42
440.45	5820.91
440.63	5998.79
440.82	5989.43
441.01	5827.93
441.19	6064.33
441.38	6263.27
441.57	6214.12
441.75	6282.00
441.94	6450.52
442.12	6403.71
442.31	6532.44
442.50	6399.02
442.68	6422.43
442.87	6441.15
443.05	6394.34
443.24	6722.02
443.43	6532.44
443.61	6420.09
443.80	6679.89
443.98	6469.24
444.17	6244.55
444.35	6717.34
444.54	6729.04
444.73	6658.82
444.91	6555.84
445.10	6628.40
445.28	6445.84
445.47	6520.73
445.65	6560.52
445.84	6532.44
446.02	6626.06
446.21	6499.67
446.39	6602.65
446.58	6808.62
446.77	6665.85
446.95	6707.98
447.14	6719.68
447.32	6846.07
447.51	6626.06
447.69	6911.60
447.88	6803.94
448.06	6895.22
448.25	6841.39
448.43	6736.06
448.62	6633.08
448.80	6848.41
448.99	6874.15
449.17	6890.54
449.36	6956.07
449.54	7213.53
449.73	7349.28
449.91	7199.49
450.10	7176.08
450.28	7328.22
450.46	7410.14
450.65	7447.58
450.83	7318.86
451.02	7337.58
451.20	7489.71
451.39	7321.20
451.57	7309.49
451.76	7311.83
451.94	7339.92
452.13	7339.92
452.31	7389.07
452.49	7206.51
452.68	7297.79
452.86	7307.15
453.05	7410.14
453.23	7595.04
453.42	7515.46
453.60	7384.39
453.78	7726.11
453.97	7358.64
454.15	7597.38
454.34	7489.71
454.52	7695.68
454.70	7651.21
454.89	7943.78
455.07	7852.50
455.26	7669.94
455.44	7946.12
455.62	7826.75
455.81	7805.69
455.99	8002.29
456.17	7925.05
456.36	8119.32
456.54	7955.48
456.73	8159.11
456.91	8241.03
457.09	8236.35
457.28	8376.78
457.46	8196.56
457.64	8353.37
457.83	8248.05
458.01	8114.64
458.19	8278.47
458.38	8348.69
458.56	8458.70
458.74	8388.48
458.93	8315.92
459.11	8437.63
459.29	8510.19
459.48	8470.40
459.66	8423.59
459.84	8798.07
460.03	8870.63
460.21	8713.81
460.39	8575.72
460.57	8552.32
460.76	8552.32
460.94	8669.34
461.12	8599.13
461.31	8931.48
461.49	8795.73
461.67	8840.20
461.85	8980.64
462.04	8777.01
462.22	9088.30
462.40	9034.47
462.59	9212.35
462.77	8945.53
462.95	9020.42
463.13	9111.71
463.32	8865.95
463.50	9156.18
463.68	9139.79
463.86	9062.55
464.05	8978.30
464.23	9074.26
464.41	9277.88
464.59	9165.54
464.78	9334.06
464.96	9214.69
465.14	9125.75
465.32	9167.88
465.50	9427.68
465.69	9481.51
465.87	9451.08
466.05	9259.16
466.23	9310.65
466.41	9401.93
466.60	9530.66
466.78	9238.09
466.96	9474.49
467.14	9469.81
467.32	9481.51
467.51	9664.07
467.69	9514.28
467.87	9626.62
468.05	9696.84
468.23	9738.97
468.41	9671.09
468.60	9579.81
468.78	9785.78
468.96	9724.93
469.14	9825.57
469.32	9729.61
469.50	9600.88
469.69	9717.90
469.87	10022.17
470.05	9905.15
470.23	9987.07
470.41	9848.97
470.59	10005.79
470.77	10115.80
470.95	10012.81
471.14	10230.48
471.32	10359.21
471.50	10691.57
471.68	10614.33
471.86	10377.94
472.04	10455.17
472.22	10988.82
472.40	10321.76
472.58	10382.62
472.77	10558.16
472.95	10752.42
473.13	10892.85
473.31	10724.33
473.49	10647.10
473.67	10808.59
473.85	10824.98
474.03	11162.01
474.21	11236.91
474.39	11178.40
474.57	11150.31
474.75	11438.20
474.93	11548.20
475.12	11229.89
475.30	11496.71
475.48	11335.21
475.66	11428.84
475.84	11360.96
476.02	11480.33
476.20	11747.15
476.38	11918.01
476.56	12173.13
476.74	12032.69
476.92	12009.29
477.10	11939.07
477.28	12280.79
477.46	12369.73
477.64	12336.96
477.82	12603.78
478.00	12879.97
478.18	12856.56
478.36	12776.98
478.54	12821.45
478.72	12910.40
478.90	13125.72
479.08	13376.16
479.26	13378.50
479.44	13359.78
479.62	13399.57
479.80	13458.08
479.98	13731.92
480.16	14022.15
480.34	13954.27
480.52	13975.34
480.70	14178.97
480.88	14045.55
481.06	14036.19
481.24	14328.76
481.41	14506.64
481.59	14635.37
481.77	14611.96
481.95	14703.25
482.13	15009.86
482.31	14750.06
482.49	15122.20
482.67	15096.46
482.85	15459.24
483.03	15272.00
483.21	15417.11
483.39	15749.46
483.57	15545.84
483.74	15571.58
483.92	15908.62
484.10	15765.85
484.28	15974.16
484.46	16369.71
484.64	16573.33
484.82	16203.53
485.00	16526.52
485.18	16493.76
485.35	16851.86
485.53	16374.39
485.71	16608.44
485.89	16540.57
486.07	16575.67
486.25	16798.02
486.43	17156.13
486.61	17467.42
486.78	17338.69
486.96	17586.79
487.14	18026.81
487.32	18225.75
487.50	18314.69
487.68	18302.99
487.85	18740.67
488.03	18757.05
488.21	19124.52
488.39	18789.82
488.57	19140.90
488.75	19009.83
488.92	19487.30
489.10	19658.16
489.28	19889.87
489.46	20271.38
489.64	19775.19
489.81	20390.75
489.99	20372.02
490.17	20521.82
490.35	20634.16
490.53	20643.52
490.70	20762.89
490.88	20751.19
491.06	21228.66
491.24	20999.29
491.41	21109.29
491.59	20973.54
491.77	21256.75
491.95	21326.96
492.13	21537.61
492.30	21771.66
492.48	22005.72
492.66	22169.55
492.84	22356.80
493.01	22728.94
493.19	22228.07
493.37	22445.74
493.54	22616.60
493.72	22960.66
493.90	23115.13
494.08	23276.63
494.25	23620.69
494.43	23824.31
494.61	23828.99
494.79	23679.20
494.96	24114.54
495.14	23857.08
495.32	24280.72
495.49	24269.01
495.67	24180.07
495.85	24697.33
496.02	24807.34
496.20	24606.05
496.38	24463.28
496.55	24917.34
496.73	25324.60
496.91	25099.90
497.09	25078.84
497.26	25273.10
497.44	25373.75
497.62	25453.33
497.79	25820.79
497.97	25570.35
498.14	25757.60
498.32	26120.38
498.50	26085.27
498.67	26527.63
498.85	26309.96
499.03	26632.96
499.20	26717.22
499.38	26712.53
499.56	27089.36
499.73	26614.23
499.91	26682.11
500.08	26995.74
500.26	26686.79
500.44	27129.15
500.61	27253.20
500.79	27012.12
500.97	27290.65
501.14	27260.22
501.32	27353.84
501.49	27625.34
501.67	27615.98
501.84	27749.39
502.02	27861.74
502.20	28411.76
502.37	28533.47
502.55	28306.44
502.72	28528.79
502.90	28332.18
503.07	28072.39
503.25	28659.86
503.43	28268.99
503.60	28671.56
503.78	28496.02
503.95	28657.52
504.13	28739.44
504.30	28959.45
504.48	29069.45
504.65	29097.54
504.83	29270.74
505.01	29724.80
505.18	29441.60
505.36	29916.73
505.53	29986.94
505.71	29907.37
505.88	30153.12
506.06	29930.77
506.23	29902.68
506.41	30061.84
506.58	30490.16
506.76	30703.15
506.93	30632.93
507.11	30403.56
507.28	30441.01
507.46	30419.94
507.63	30553.35
507.81	30850.60
507.98	30405.90
508.16	30888.05
508.33	30976.99
508.50	30960.61
508.68	31335.09
508.85	31793.84
509.03	31555.10
509.20	31498.93
509.38	31814.90
509.55	31601.91
509.73	31512.97
509.90	32077.04
510.08	31674.47
510.25	31550.42
510.42	32584.94
510.60	32306.41
510.77	32444.51
510.95	32081.72
511.12	32493.66
511.30	32385.99
511.47	33013.26
511.64	33090.49
511.82	33095.18
511.99	32634.09
512.17	32629.41
512.34	32556.85
512.51	32884.53
512.69	33039.00
512.86	32903.25
513.04	33369.02
513.21	33413.49
513.38	33015.60
513.56	33322.21
513.73	33116.24
513.90	33638.18
514.08	33483.70
514.25	33912.02
514.43	33668.61
514.60	33907.34
514.77	34089.90
514.95	34242.04
515.12	34064.16
515.29	34239.70
515.47	34227.99
515.64	34579.07
515.81	34108.63
515.99	34347.36
516.16	34181.18
516.33	34066.50
516.51	34298.21
516.68	33694.35
516.85	33567.96
517.03	33701.37
517.20	34452.69
517.37	34721.85
517.54	34841.21
517.72	34668.02
517.89	34417.58
518.06	34410.56
518.24	34309.91
518.41	34824.83
518.58	34892.71
518.75	35023.78
518.93	35271.87
519.10	35306.98
519.27	35349.11
519.45	35484.86
519.62	35693.17
519.79	35716.58
519.96	35679.13
520.14	35981.06
520.31	35655.72
520.48	35852.33
520.65	35896.80
520.83	36271.28
521.00	36353.20
521.17	36666.83
521.34	36264.26
521.52	36488.95
521.69	36577.89
521.86	36371.92
522.03	36711.30
522.20	36519.38
522.38	37006.21
522.55	37160.69
522.72	36830.67
522.89	36935.99
523.07	36769.82
523.24	37312.82
523.41	37471.98
523.58	37507.08
523.75	37640.50
523.92	37364.31
524.10	37635.81
524.27	37521.13
524.44	37928.38
524.61	37965.83
524.78	38192.86
524.96	37720.07
525.13	38431.60
525.30	38490.11
525.47	38675.01
525.64	38445.64
525.81	38068.81
525.98	38047.75
526.16	37907.32
526.33	37708.37
526.50	37890.93
526.67	37965.83
526.84	37792.63
527.01	37916.68
527.18	38576.71
527.36	38675.01
527.53	38747.57
527.70	39012.05
527.87	38614.16
528.04	38738.21
528.21	38876.30
528.38	38836.51
528.55	38979.28
528.72	39042.48
528.89	39641.65
529.07	39091.63
529.24	39154.82
529.41	39239.08
529.58	39023.75
529.75	39077.58
529.92	39292.91
530.09	39580.80
530.26	39395.90
530.43	40011.46
530.60	39559.73
530.77	40025.50
530.94	40275.94
531.11	39765.70
531.28	39957.63
531.46	40093.38
531.63	40034.86
531.80	39833.58
531.97	40074.65
532.14	40044.23
532.31	39208.65
532.48	39828.90
532.65	39997.41
532.82	39892.09
532.99	40264.24
533.16	40580.21
533.33	40540.42
533.50	40706.60
533.67	40425.73
533.84	40226.79
534.01	40339.13
534.18	40545.10
534.35	40641.06
534.52	40942.99
534.69	40683.19
534.86	41490.68
535.03	41022.57
535.20	41078.74
535.37	41347.90
535.54	41373.65
535.71	40823.62
535.88	41045.97
536.05	41514.08
536.22	41450.89
536.38	41249.60
536.55	41347.90
536.72	41010.87
536.89	41216.83
537.06	41071.72
537.23	41441.53
537.40	41081.08
537.57	41497.70
537.74	41830.05
537.91	41893.25
538.08	41603.02
538.25	41563.23
538.42	41893.25
538.59	41958.78
538.75	41446.21
538.92	41715.37
539.09	41916.65
539.26	41837.08
539.43	42078.15
539.60	41483.66
539.77	41951.76
539.94	42061.77
540.11	41888.57
540.28	41991.55
540.44	42188.16
540.61	41645.15
540.78	41748.14
540.95	42148.37
541.12	41888.57
541.29	42085.17
541.46	41956.44
541.62	42403.49
541.79	42604.77
541.96	42043.04
542.13	41771.54
542.30	42698.39
542.47	42724.14
542.63	42440.93
542.80	42366.04
542.97	42784.99
543.14	43384.17
543.31	43304.59
543.48	43084.58
543.64	43311.61
543.81	43695.46
543.98	43337.36
544.15	43353.74
544.32	43349.06
544.48	43973.98
544.65	43304.59
544.82	44018.46
544.99	43498.86
545.16	43019.05
545.32	43438.00
545.49	43812.49
545.66	43838.23
545.83	43924.83
546.00	43718.87
546.16	43653.33
546.33	43587.80
546.50	42988.62
546.67	44020.80
546.83	43927.17
547.00	44161.23
547.17	43803.13
547.34	43519.92
547.50	44006.75
547.67	44011.43
547.84	44165.91
548.00	44107.40
548.17	44299.32
548.34	44060.58
548.51	44425.71
548.67	44210.38
548.84	44542.74
549.01	44128.46
549.18	43950.58
549.34	44091.01
549.51	44367.20
549.68	44409.32
549.84	44243.15
550.01	44793.17
550.18	44402.30
550.34	44395.28
550.51	44481.88
550.68	44643.38
550.84	43922.49
551.01	44608.27
551.18	44282.94
551.34	44526.35
551.51	44935.95
551.68	45071.70
551.84	44989.78
552.01	44357.83
552.18	44659.76
552.34	44683.17
552.51	44954.67
552.68	44355.49
552.84	44788.49
553.01	45340.86
553.18	44706.57
553.34	44704.23
553.51	44734.66
553.67	44739.34
553.84	45153.62
554.01	45167.66
554.17	45345.54
554.34	45022.54
554.51	45315.11
554.67	45326.81
554.84	45141.91
555.00	45254.26
555.17	45237.87
555.33	45287.03
555.50	45315.11
555.67	44966.37
555.83	45553.85
556.00	45207.45
556.16	45565.55
556.33	45226.17
556.50	45151.27
556.66	45595.98
556.83	45457.88
556.99	45418.10
557.16	45287.03
557.32	45284.68
557.49	45530.44
557.65	45221.49
557.82	45270.64
557.98	45340.86
558.15	45881.52
558.32	45820.67
558.48	45720.02
558.65	45406.39
558.81	45399.37
558.98	45350.22
559.14	45563.21
559.31	45537.46
559.47	45631.08
559.64	45516.40
559.80	45797.26
559.97	45628.74
560.13	45326.81
560.30	45741.09
560.46	46026.63
560.63	46066.42
560.79	45921.31
560.96	46190.47
561.12	45825.35
561.29	45720.02
561.45	45666.19
561.61	45675.55
561.78	45687.26
561.94	45698.96
562.11	45603.00
562.27	45713.00
562.44	45837.05
562.60	46073.45
562.77	46028.98
562.93	45872.16
563.10	46054.72
563.26	45673.21
563.42	46012.59
563.59	45827.69
563.75	45677.90
563.92	46150.68
564.08	46604.75
564.24	46183.45
564.41	45818.33
564.57	46239.62
564.74	46071.10
564.90	46143.66
565.07	46225.58
565.23	45872.16
565.39	46270.05
565.56	45972.80
565.72	45815.99
565.88	45769.18
566.05	45825.35
566.21	46272.39
566.38	46014.93
566.54	46064.08
566.70	46398.78
566.87	46504.10
567.03	46181.11
567.19	46534.53
567.36	46211.54
567.52	46415.16
567.68	46337.93
567.85	46195.15
568.01	46270.05
568.17	46026.63
568.34	46454.95
568.50	46436.23
568.66	46258.35
568.83	46298.14
568.99	46501.76
569.15	46344.95
569.32	46625.81
569.48	45708.32
569.64	46160.05
569.81	46377.72
569.97	46295.80
570.13	46401.12
570.30	46021.95
570.46	45867.48
570.62	46143.66
570.78	46000.89
570.95	45848.75
571.11	46045.36
571.27	46335.59
571.43	46408.14
571.60	46197.49
571.76	46078.13
571.92	46810.71
572.09	46471.34
572.25	46234.94
572.41	46513.47
572.57	46834.12
572.74	46838.80
572.90	46295.80
573.06	46354.31
573.22	46370.69
573.38	46630.49
573.55	46513.47
573.71	46600.07
573.87	46445.59
574.03	46387.08
574.20	46522.83
574.36	46246.65
574.52	46452.61
574.68	46569.64
574.84	46534.53
575.01	46272.39
575.17	46263.03
575.33	46195.15
575.49	46347.29
575.65	46270.05
575.82	46443.25
575.98	46520.49
576.14	46333.24
576.30	46691.35
576.46	46117.92
576.62	46237.28
576.79	46440.91
576.95	46443.25
577.11	46483.04
577.27	46335.59
577.43	46466.66
577.59	46230.26
577.75	46326.22
577.92	46024.29
578.08	46080.47
578.24	45998.55
578.40	46340.27
578.56	47012.00
578.72	46674.96
578.88	46672.62
579.04	46700.71
579.21	46560.28
579.37	46138.98
579.53	47004.98
579.69	46595.38
579.85	46389.42
580.01	46232.60
580.17	46700.71
580.33	46635.17
580.49	46944.12
580.65	46457.29
580.82	46529.85
580.98	46319.20
581.14	46307.50
581.30	47030.72
581.46	46707.73
581.62	46845.82
581.78	46438.57
581.94	46817.74
582.10	46569.64
582.26	46579.00
582.42	46398.78
582.58	46834.12
582.74	46499.42
582.90	46541.55
583.06	46941.78
583.22	46724.11
583.38	46513.47
583.54	46890.29
583.70	46667.94
583.86	46841.14
584.02	46312.18
584.18	46408.14
584.34	46330.90
584.50	46520.49
584.66	46384.74
584.82	46749.86
584.98	46300.48
585.14	46670.28
585.30	46712.41
585.46	46618.79
585.62	46270.05
585.78	46312.18
585.94	46246.65
586.10	46363.67
586.26	46096.85
586.42	46639.86
586.58	46700.71
586.74	46653.90
586.90	46351.97
587.06	46436.23
587.22	46820.08
587.38	46424.53
587.54	46590.70
587.70	46546.23
587.86	46632.83
588.02	46674.96
588.18	46674.96
588.34	46415.16
588.49	46281.75
588.65	46124.94
588.81	46321.54
588.97	45965.78
589.13	46293.46
589.29	46246.65
589.45	46279.41
589.61	46396.44
589.77	46719.43
589.93	47171.16
