SpectraSuite Data File
++++++++++++++++++++++++++++++++++++
Date: Fri Oct 25 10:43:23 EDT 2013
User: price-jones
Dark Spectrum Present: No
Reference Spectrum Present: No
Number of Sampled Component Spectra: 1
Spectrometers: USB2+H05261
Integration Time (usec): 100000 (USB2+H05261)
Spectra Averaged: 1 (USB2+H05261)
Boxcar Smoothing: 0 (USB2+H05261)
Correct for Electrical Dark: No (USB2+H05261)
Strobe/Lamp Enabled: No (USB2+H05261)
Correct for Detector Non-linearity: No (USB2+H05261)
Correct for Stray Light: No (USB2+H05261)
Number of Pixels in Processed Spectrum: 2048
>>>>>Begin Processed Spectral Data<<<<<
365.73	112.35
365.92	112.35
366.12	112.35
366.32	39.79
366.52	72.56
366.72	28.09
366.91	46.81
367.11	9.36
367.31	0.00
367.51	42.13
367.70	0.00
367.90	42.13
368.10	67.88
368.30	95.96
368.49	0.00
368.69	42.13
368.89	21.06
369.09	46.81
369.28	63.19
369.48	21.06
369.68	79.58
369.87	9.36
370.07	93.62
370.27	128.73
370.47	168.52
370.66	444.70
370.86	454.06
371.06	461.09
371.25	486.83
371.45	451.72
371.65	500.87
371.84	435.34
372.04	573.43
372.24	531.30
372.44	451.72
372.63	540.66
372.83	493.85
373.03	533.64
373.22	402.57
373.42	512.58
373.62	533.64
373.81	528.96
374.01	547.69
374.21	615.56
374.40	540.66
374.60	521.94
374.79	582.79
374.99	594.50
375.19	650.67
375.38	716.20
375.58	580.45
375.78	594.50
375.97	587.47
376.17	648.33
376.37	601.52
376.56	669.39
376.76	617.90
376.95	648.33
377.15	660.03
377.35	685.78
377.54	688.12
377.74	627.26
377.93	653.01
378.13	613.22
378.33	671.73
378.52	638.97
378.72	669.39
378.91	599.18
379.11	660.03
379.31	645.99
379.50	645.99
379.70	741.95
379.89	653.01
380.09	650.67
380.28	650.67
380.48	809.83
380.68	629.60
380.87	657.69
381.07	648.33
381.26	643.65
381.46	718.54
381.65	699.82
381.85	699.82
382.04	713.86
382.24	716.20
382.43	629.60
382.63	706.84
382.83	688.12
383.02	765.36
383.22	786.42
383.41	739.61
383.61	791.10
383.80	755.99
384.00	758.33
384.19	746.63
384.39	737.27
384.58	760.67
384.78	835.57
384.97	823.87
385.17	802.80
385.36	816.85
385.56	788.76
385.75	828.55
385.95	770.04
386.14	851.96
386.34	802.80
386.53	791.10
386.72	781.74
386.92	908.13
387.11	837.91
387.31	809.83
387.50	823.87
387.70	828.55
387.89	847.27
388.09	828.55
388.28	887.06
388.48	849.61
388.67	856.64
388.86	873.02
389.06	950.26
389.25	924.51
389.45	997.07
389.64	976.00
389.84	1041.54
390.03	976.00
390.22	1048.56
390.42	1043.88
390.61	1083.67
390.81	987.71
391.00	1025.15
391.19	1118.78
391.39	1060.26
391.58	1100.05
391.78	1046.22
391.97	1041.54
392.16	1050.90
392.36	1043.88
392.55	966.64
392.75	1018.13
392.94	992.39
393.13	957.28
393.33	964.30
393.52	1008.77
393.71	1095.37
393.91	1179.63
394.10	1081.33
394.29	1142.18
394.49	1090.69
394.68	1097.71
394.88	1193.67
395.07	1296.66
395.26	1261.55
395.46	1275.59
395.65	1268.57
395.84	1207.72
396.04	1228.78
396.23	1132.82
396.42	1240.48
396.62	1188.99
396.81	1212.40
397.00	1210.06
397.19	1238.14
397.39	1362.19
397.58	1413.68
397.77	1409.00
397.97	1401.98
398.16	1444.11
398.35	1423.05
398.55	1476.88
398.74	1493.26
398.93	1526.03
399.12	1472.20
399.32	1490.92
399.51	1488.58
399.70	1589.22
399.90	1486.24
400.09	1530.71
400.28	1640.72
400.47	1682.85
400.67	1657.10
400.86	1678.16
401.05	1640.72
401.24	1715.61
401.44	1703.91
401.63	1596.25
401.82	1799.87
402.01	1732.00
402.21	1692.21
402.40	1717.95
402.59	1771.79
402.78	1834.98
402.97	1804.55
403.17	1792.85
403.36	1823.28
403.55	1867.75
403.74	1921.58
403.93	1926.26
404.13	1942.64
404.32	1874.77
404.51	1940.30
404.70	1919.24
404.89	1968.39
405.09	1977.75
405.28	2092.44
405.47	2012.86
405.66	1937.96
405.85	1970.73
406.05	1954.35
406.24	1919.24
406.43	2092.44
406.62	2085.42
406.81	2139.25
407.00	2146.27
407.20	2113.50
407.39	2038.61
407.58	2174.36
407.77	2279.68
407.96	2167.34
408.15	2251.60
408.34	2169.68
408.54	2335.85
408.73	2310.11
408.92	2303.09
409.11	2296.07
409.30	2270.32
409.49	2305.43
409.68	2239.89
409.87	2363.94
410.07	2431.82
410.26	2373.30
410.45	2448.20
410.64	2504.37
410.83	2504.37
411.02	2635.44
411.21	2579.27
411.40	2562.89
411.59	2672.89
411.78	2597.99
411.98	2651.83
412.17	2576.93
412.36	2719.70
412.55	2647.15
412.74	2705.66
412.93	2808.64
413.12	2724.38
413.31	2843.75
413.50	2789.92
413.69	2743.11
413.88	2965.46
414.07	2843.75
414.26	2815.66
414.45	2902.26
414.64	2899.92
414.83	3126.96
415.02	2984.18
415.22	3054.40
415.41	3112.91
415.60	3059.08
415.79	3288.45
415.98	3339.94
416.17	3190.15
416.36	3283.77
416.55	3290.79
416.74	3232.28
416.93	3361.01
417.12	3342.28
417.31	3304.84
417.50	3281.43
417.69	3471.01
417.88	3393.78
418.07	3449.95
418.26	3581.02
418.45	3522.51
418.64	3639.53
418.83	3538.89
419.02	3588.04
419.21	3609.11
419.39	3564.64
419.58	3515.48
419.77	3534.21
419.96	3669.96
420.15	3798.69
420.34	3756.56
420.53	3845.50
420.72	3803.37
420.91	3716.77
421.10	3761.24
421.29	3925.08
421.48	3845.50
421.67	3852.52
421.86	3854.86
422.05	3744.86
422.24	3831.46
422.43	3749.54
422.61	3932.10
422.80	3889.97
422.99	3892.31
423.18	3971.89
423.37	3927.42
423.56	3864.22
423.75	3878.27
423.94	3852.52
424.13	3700.39
424.32	3712.09
424.50	4051.47
424.69	3927.42
424.88	3908.69
425.07	3948.48
425.26	3976.57
425.45	3941.46
425.64	4011.68
425.83	3868.91
426.01	4004.66
426.20	4205.94
426.39	3992.95
426.58	3946.14
426.77	3964.87
426.96	3925.08
427.15	4124.02
427.33	4037.42
427.52	4124.02
427.71	4252.75
427.90	4212.96
428.09	4081.89
428.28	4142.75
428.46	4269.14
428.65	4273.82
428.84	4152.11
429.03	4138.07
429.22	4044.45
429.40	4187.22
429.59	4219.99
429.78	4063.17
429.97	3981.25
430.16	4002.32
430.34	4252.75
430.53	4074.87
430.72	4198.92
430.91	4248.07
431.10	4365.10
431.28	4594.47
431.47	4634.26
431.66	4655.33
431.85	4645.96
432.03	4723.20
432.22	4641.28
432.41	4692.77
432.60	4758.31
432.79	4807.46
432.97	4858.95
433.16	4699.80
433.35	4706.82
433.54	4767.67
433.72	4575.75
433.91	4770.01
434.10	4652.98
434.28	4732.56
434.47	4624.90
434.66	4929.17
434.85	4891.72
435.03	5018.11
435.22	5095.35
435.41	5053.22
435.59	5179.61
435.78	5006.41
435.97	5097.69
436.16	5170.24
436.34	5071.94
436.53	5144.50
436.72	5191.31
436.90	5146.84
437.09	5221.74
437.28	5060.24
437.46	5282.59
437.65	5104.71
437.84	5207.69
438.02	5191.31
438.21	5186.63
438.40	5142.16
438.58	5289.61
438.77	5462.81
438.96	5427.70
439.14	5474.51
439.33	5589.20
439.52	5596.22
439.70	5605.58
439.89	5694.52
440.08	5724.95
440.26	5673.46
440.45	5668.78
440.63	5902.83
440.82	5863.04
441.01	5898.15
441.19	6022.20
441.38	6188.38
441.57	6223.48
441.75	6193.06
441.94	6396.68
442.12	6361.58
442.31	6483.28
442.50	6441.15
442.68	6305.40
442.87	6513.71
443.05	6483.28
443.24	6539.46
443.43	6530.09
443.61	6464.56
443.80	6607.33
443.98	6347.53
444.17	6282.00
444.35	6579.25
444.54	6614.35
444.73	6595.63
444.91	6562.86
445.10	6459.88
445.28	6487.96
445.47	6366.26
445.65	6469.24
445.84	6504.35
446.02	6628.40
446.21	6511.37
446.39	6497.33
446.58	6633.08
446.77	6661.16
446.95	6509.03
447.14	6679.89
447.32	6918.62
447.51	6939.69
447.69	6602.65
447.88	6834.36
448.06	6729.04
448.25	6883.52
448.43	6745.42
448.62	6808.62
448.80	6738.40
448.99	7075.44
449.17	6719.68
449.36	6817.98
449.54	7052.03
449.73	6979.48
449.91	7187.79
450.10	7122.25
450.28	7330.56
450.46	7166.72
450.65	7176.08
450.83	7328.22
451.02	7098.84
451.20	7349.28
451.39	7400.77
451.57	7218.21
451.76	7293.11
451.94	7428.86
452.13	7342.26
452.31	7211.19
452.49	7138.63
452.68	7293.11
452.86	7155.02
453.05	7391.41
453.23	7534.18
453.42	7344.60
453.60	7309.49
453.78	7445.24
453.97	7410.14
454.15	7426.52
454.34	7506.10
454.52	7571.63
454.70	7492.05
454.89	7655.89
455.07	7641.85
455.26	7597.38
455.44	7786.96
455.62	7829.09
455.81	7887.61
455.99	7765.90
456.17	7936.76
456.36	7957.82
456.54	8109.96
456.73	8074.85
456.91	8145.06
457.09	8152.09
457.28	8407.20
457.46	8077.19
457.64	8219.96
457.83	8072.51
458.01	8243.37
458.19	8379.12
458.38	8252.73
458.56	8538.27
458.74	8262.09
458.93	8423.59
459.11	8215.28
459.29	8205.92
459.48	8524.23
459.66	8318.26
459.84	8400.18
460.03	8695.09
460.21	8688.07
460.39	8737.22
460.57	8557.00
460.76	8512.53
460.94	8931.48
461.12	8545.30
461.31	8842.54
461.49	8795.73
461.67	8727.86
461.85	8816.80
462.04	8882.33
462.22	9228.73
462.40	8957.23
462.59	8894.04
462.77	8922.12
462.95	9217.03
463.13	9146.81
463.32	8971.27
463.50	8975.95
463.68	8889.35
463.86	9160.86
464.05	8908.08
464.23	9071.92
464.41	9071.92
464.59	8816.80
464.78	9102.34
464.96	9111.71
465.14	8973.61
465.32	9109.36
465.50	9324.69
465.69	9303.63
465.87	9298.95
466.05	9502.58
466.23	9247.46
466.41	9252.14
466.60	9369.16
466.78	9153.84
466.96	9481.51
467.14	9425.34
467.32	9547.05
467.51	9675.77
467.69	9198.31
467.87	9413.63
468.05	9551.73
468.23	9692.16
468.41	9437.04
468.60	9387.89
468.78	9694.50
468.96	9643.01
469.14	9703.86
469.32	9980.04
469.50	9605.56
469.69	9694.50
469.87	9818.55
470.05	10054.94
470.23	9961.32
470.41	9699.18
470.59	10202.40
470.77	9879.40
470.95	9881.74
471.14	10169.63
471.32	10076.01
471.50	10473.90
471.68	10073.67
471.86	10272.61
472.04	10448.15
472.22	10534.75
472.40	10403.68
472.58	10567.52
472.77	10501.98
472.95	10867.11
473.13	10817.96
473.31	10546.45
473.49	10597.95
473.67	10630.71
473.85	10619.01
474.03	11103.50
474.21	10951.37
474.39	11197.12
474.57	11253.30
474.75	11300.11
474.93	11316.49
475.12	11096.48
475.30	11253.30
475.48	11508.41
475.66	11302.45
475.84	11267.34
476.02	11487.35
476.20	11520.12
476.38	11805.66
476.56	11988.22
476.74	12140.36
476.92	11908.65
477.10	11896.94
477.28	12238.66
477.46	12243.34
477.64	12285.47
477.82	12379.09
478.00	12374.41
478.18	12664.64
478.36	12805.07
478.54	12762.94
478.72	12945.50
478.90	13034.44
479.08	13055.51
479.26	13469.78
479.44	13296.58
479.62	13170.19
479.80	13514.25
479.98	13495.53
480.16	13664.05
480.34	13549.36
480.52	13795.12
480.70	13884.06
480.88	13839.59
481.06	14052.58
481.24	13987.04
481.41	14295.99
481.59	14253.86
481.77	14207.05
481.95	14429.40
482.13	14478.55
482.31	14370.89
482.49	14944.32
482.67	14988.79
482.85	15112.84
483.03	15047.30
483.21	15391.36
483.39	15571.58
483.57	15302.42
483.74	15405.41
483.92	15569.24
484.10	15541.16
484.28	15899.26
484.46	16086.50
484.64	16304.17
484.82	16201.19
485.00	15967.13
485.18	16615.46
485.35	16592.06
485.53	16388.43
485.71	16020.97
485.89	16716.11
486.07	16594.40
486.25	16556.95
486.43	17074.21
486.61	17034.42
486.78	17181.87
486.96	17406.56
487.14	17848.93
487.32	17757.64
487.50	17755.30
487.68	18375.55
487.85	18321.71
488.03	18590.88
488.21	18785.14
488.39	18897.49
488.57	18698.54
488.75	18869.40
488.92	19054.30
489.10	19503.68
489.28	19215.80
489.46	19845.40
489.64	19520.07
489.81	20212.87
489.99	20428.20
490.17	20386.07
490.35	20706.72
490.53	20428.20
490.70	20383.73
490.88	20599.05
491.06	20929.07
491.24	20760.55
491.41	20514.80
491.59	20833.11
491.77	20987.58
491.95	21343.35
492.13	21603.14
492.30	21823.16
492.48	21788.05
492.66	22029.12
492.84	22169.55
493.01	22071.25
493.19	21708.47
493.37	22499.57
493.54	22443.40
493.72	22642.34
493.90	22693.83
494.08	22934.91
494.25	23009.81
494.43	23037.89
494.61	23887.51
494.79	23515.36
494.96	23489.62
495.14	23630.05
495.32	23859.42
495.49	23751.76
495.67	24091.13
495.85	24226.89
496.02	24416.47
496.20	24526.47
496.38	24531.15
496.55	24517.11
496.73	25179.48
496.91	24758.19
497.09	25085.86
497.26	25511.84
497.44	25090.54
497.62	25280.13
497.79	25666.31
497.97	25493.12
498.14	25329.28
498.32	26012.71
498.50	25528.22
498.67	26185.91
498.85	25848.88
499.03	26738.28
499.20	26419.97
499.38	26382.52
499.56	26415.29
499.73	26515.93
499.91	26796.79
500.08	26855.31
500.26	26284.22
500.44	26555.72
500.61	26625.93
500.79	26642.32
500.97	26712.53
501.14	27283.62
501.32	26876.37
501.49	27276.60
501.67	27091.70
501.84	27515.34
502.02	27545.76
502.20	27590.24
502.37	27906.21
502.55	27711.94
502.72	27931.95
502.90	28283.03
503.07	27864.08
503.25	28737.10
503.43	27843.01
503.60	28154.30
503.78	27850.03
503.95	28278.35
504.13	28549.85
504.30	28631.77
504.48	29003.92
504.65	29111.58
504.83	29188.82
505.01	29261.38
505.18	29315.21
505.36	29986.94
505.53	29450.96
505.71	29717.78
505.88	29769.27
506.06	29731.83
506.23	29940.13
506.41	29743.53
506.58	29890.98
506.76	30244.40
506.93	29979.92
507.11	30251.42
507.28	30045.46
507.46	30003.33
507.63	30129.72
507.81	30326.32
507.98	30242.06
508.16	30487.82
508.33	31028.48
508.50	30803.79
508.68	30749.96
508.85	30986.35
509.03	30759.32
509.20	31428.71
509.38	31182.96
509.55	31311.69
509.73	31157.21
509.90	31339.77
510.08	31442.76
510.25	31564.46
510.42	31716.60
510.60	31477.86
510.77	32060.66
510.95	32046.62
511.12	31842.99
511.30	32334.50
511.47	32198.75
511.64	32259.60
511.82	32535.79
511.99	32446.85
512.17	32458.55
512.34	32463.23
512.51	32720.69
512.69	32989.85
512.86	32772.18
513.04	32959.42
513.21	33296.46
513.38	32957.08
513.56	32828.35
513.73	32648.13
513.90	33067.09
514.08	33041.34
514.25	33380.72
514.43	33303.48
514.60	33359.66
514.77	33518.81
514.95	33598.39
515.12	33560.94
515.29	33488.38
515.47	33921.38
515.64	34455.03
515.81	33834.78
515.99	33603.07
516.16	33785.63
516.33	33450.94
516.51	33832.44
516.68	33034.32
516.85	33174.75
517.03	33741.16
517.20	33893.30
517.37	34471.41
517.54	34597.80
517.72	34295.87
517.89	34162.46
518.06	33977.56
518.24	34487.79
518.41	34433.96
518.58	34270.12
518.75	34239.70
518.93	35040.16
519.10	34930.16
519.27	35112.72
519.45	35400.60
519.62	35253.15
519.79	35489.54
519.96	35082.29
520.14	35847.64
520.31	34885.68
520.48	35658.06
520.65	35426.35
520.83	36229.15
521.00	35934.24
521.17	35569.12
521.34	35955.31
521.52	36088.72
521.69	36081.70
521.86	36334.48
522.03	36079.36
522.20	36271.28
522.38	36203.41
522.55	36879.82
522.72	36264.26
522.89	36357.88
523.07	36732.37
523.24	36664.49
523.41	37163.03
523.58	36591.94
523.75	37144.30
523.92	37291.76
524.10	37294.10
524.27	37364.31
524.44	37223.88
524.61	37434.53
524.78	37240.26
524.96	37752.84
525.13	37610.07
525.30	38050.09
525.47	38103.92
525.64	37661.56
525.81	37827.74
525.98	37539.85
526.16	37481.34
526.33	37511.77
526.50	37408.78
526.67	37324.52
526.84	37579.64
527.01	37635.81
527.18	37872.21
527.36	38440.96
527.53	38597.77
527.70	38602.46
527.87	38092.22
528.04	37940.08
528.21	38354.36
528.38	38611.82
528.55	38869.28
528.72	39110.35
528.89	39007.37
529.07	39047.16
529.24	38792.04
529.41	38785.02
529.58	38593.09
529.75	38593.09
529.92	39227.38
530.09	39435.69
530.26	39555.05
530.43	39445.05
530.60	38635.22
530.77	39321.00
530.94	39042.48
531.11	39812.51
531.28	39690.80
531.46	39384.19
531.63	39442.71
531.80	39824.22
531.97	39505.90
532.14	39489.52
532.31	38756.93
532.48	39189.93
532.65	39831.24
532.82	39730.59
532.99	40093.38
533.16	40184.66
533.33	39578.46
533.50	39924.86
533.67	39981.03
533.84	39966.99
534.01	40018.48
534.18	40189.34
534.35	40388.28
534.52	40231.47
534.69	40168.27
534.86	40701.92
535.03	40385.94
535.20	41139.60
535.37	41123.21
535.54	40720.64
535.71	40388.28
535.88	40825.96
536.05	40547.44
536.22	40840.01
536.38	40570.85
536.55	40802.56
536.72	40851.71
536.89	40360.20
537.06	41001.50
537.23	41102.15
537.40	40875.12
537.57	41586.64
537.74	41078.74
537.91	41158.32
538.08	41249.60
538.25	40832.99
538.42	41123.21
538.59	41450.89
538.75	41273.01
538.92	41514.08
539.09	41488.34
539.26	41083.42
539.43	41958.78
539.60	41640.47
539.77	41287.05
539.94	41258.96
540.11	41258.96
540.28	41092.79
540.44	41081.08
540.61	41399.40
540.78	41825.37
540.95	41935.38
541.12	41446.21
541.29	41680.26
541.46	42249.01
541.62	41514.08
541.79	42131.98
541.96	41490.68
542.13	41614.72
542.30	42316.89
542.47	41645.15
542.63	42155.39
542.80	42029.00
542.97	42316.89
543.14	42787.33
543.31	42408.17
543.48	42410.51
543.64	42843.51
543.81	42660.94
543.98	42817.76
544.15	42710.10
544.32	42916.06
544.48	43285.87
544.65	42794.36
544.82	43091.60
544.99	42548.60
545.16	42902.02
545.32	43077.56
545.49	43412.26
545.66	43395.87
545.83	43449.70
546.00	43421.62
546.16	43335.02
546.33	43103.31
546.50	42918.40
546.67	43260.12
546.83	42951.17
547.00	43344.38
547.17	43096.28
547.34	43213.31
547.50	43225.01
547.67	43325.66
547.84	43332.68
548.00	43388.85
548.17	43761.00
548.34	44194.00
548.51	43962.28
548.67	43885.04
548.84	43938.88
549.01	43842.92
549.18	43878.02
549.34	43629.93
549.51	43639.29
549.68	43775.04
549.84	43709.50
550.01	44170.59
550.18	43737.59
550.34	44048.88
550.51	43969.30
550.68	43798.44
550.84	43332.68
551.01	43924.83
551.18	43859.30
551.34	44037.18
551.51	44322.72
551.68	44076.97
551.84	43992.71
552.01	43871.00
552.18	44388.26
552.34	44119.10
552.51	44238.47
552.68	43995.05
552.84	44643.38
553.01	44594.23
553.18	44280.60
553.34	44638.70
553.51	44512.31
553.67	44404.64
553.84	44830.62
554.01	44760.40
554.17	44790.83
554.34	44676.15
554.51	44601.25
554.67	44772.11
554.84	44666.78
555.00	44772.11
555.17	44779.13
555.33	44889.13
555.50	44783.81
555.67	44807.22
555.83	44355.49
556.00	44727.64
556.16	45111.49
556.33	44744.02
556.50	44746.36
556.66	45043.61
556.83	44676.15
556.99	44940.63
557.16	45029.57
557.32	44872.75
557.49	45390.01
557.65	44765.09
557.82	45052.97
557.98	45153.62
558.15	44893.82
558.32	45212.13
558.48	44612.95
558.65	44910.20
558.81	45137.23
558.98	45031.91
559.14	45043.61
559.31	45052.97
559.47	45074.04
559.64	45256.60
559.80	45088.08
559.97	45441.50
560.13	45085.74
560.30	45097.44
560.46	45399.37
560.63	45530.44
560.79	45371.28
560.96	45687.26
561.12	45193.40
561.29	45172.34
561.45	45474.27
561.61	45251.92
561.78	45411.07
561.94	45174.68
562.11	45310.43
562.27	45567.89
562.44	45478.95
562.60	45691.94
562.77	45567.89
562.93	45385.33
563.10	45837.05
563.26	45514.06
563.42	45895.56
563.59	45441.50
563.75	45322.13
563.92	46010.25
564.08	45631.08
564.24	45478.95
564.41	45638.11
564.57	45626.40
564.74	45160.64
564.90	45705.98
565.07	45858.12
565.23	45560.87
565.39	45766.84
565.56	45986.85
565.72	45483.63
565.88	45298.73
566.05	45343.20
566.21	45343.20
566.38	45006.16
566.54	45808.96
566.70	46108.55
566.87	46068.76
567.03	45624.06
567.19	45998.55
567.36	46103.87
567.52	45792.58
567.68	46019.61
567.85	45954.08
568.01	45811.31
568.17	45787.90
568.34	45949.40
568.50	45413.41
568.66	45808.96
568.83	45624.06
568.99	45544.48
569.15	45820.67
569.32	46101.53
569.48	45617.04
569.64	46356.65
569.81	45930.67
569.97	45624.06
570.13	45722.37
570.30	45186.38
570.46	45593.64
570.62	45544.48
570.78	45476.61
570.95	45193.40
571.11	45617.04
571.27	45783.22
571.43	45727.05
571.60	45900.25
571.76	45645.13
571.92	45617.04
572.09	46286.43
572.25	46164.73
572.41	46464.32
572.57	46113.23
572.74	46155.36
572.90	46291.12
573.06	46209.20
573.22	45595.98
573.38	45689.60
573.55	45757.47
573.71	46220.90
573.87	46047.70
574.03	45783.22
574.20	45911.95
574.36	45837.05
574.52	46014.93
574.68	46342.61
574.84	46064.08
575.01	45778.54
575.17	46031.32
575.33	45717.68
575.49	45696.62
575.65	46438.57
575.82	45787.90
575.98	45764.49
576.14	46005.57
576.30	46298.14
576.46	45832.37
576.62	45762.15
576.79	45808.96
576.95	45815.99
577.11	45904.93
577.27	46176.43
577.43	46085.15
577.59	45705.98
577.75	46033.66
577.92	45305.75
578.08	45347.88
578.24	45422.78
578.40	45815.99
578.56	45668.53
578.72	45895.56
578.88	46532.19
579.04	46012.59
579.21	45759.81
579.37	45673.21
579.53	46036.00
579.69	45832.37
579.85	46003.23
580.01	46185.79
580.17	45713.00
580.33	46424.53
580.49	46258.35
580.65	46415.16
580.82	46351.97
580.98	46085.15
581.14	45462.57
581.30	46115.58
581.46	46260.69
581.62	45858.12
581.78	45614.70
581.94	46293.46
582.10	46209.20
582.26	46089.83
582.42	46429.21
582.58	46087.49
582.74	46129.62
582.90	46333.24
583.06	46330.90
583.22	46057.06
583.38	46576.66
583.54	45904.93
583.70	46115.58
583.86	46005.57
584.02	46047.70
584.18	46010.25
584.34	45951.74
584.50	46621.13
584.66	46272.39
584.82	46274.73
584.98	46553.26
585.14	45872.16
585.30	45844.07
585.46	45925.99
585.62	45425.12
585.78	46019.61
585.94	45867.48
586.10	46218.56
586.26	46358.99
586.42	45993.87
586.58	46354.31
586.74	46000.89
586.90	46375.37
587.06	46103.87
587.22	46136.64
587.38	46115.58
587.54	46183.45
587.70	46391.76
587.86	46101.53
588.02	46366.01
588.18	46033.66
588.34	45968.12
588.49	45631.08
588.65	45265.96
588.81	45507.04
588.97	45769.18
589.13	45570.23
589.29	45951.74
589.45	46007.91
589.61	45404.05
589.77	46012.59
589.93	46211.54
