SpectraSuite Data File
++++++++++++++++++++++++++++++++++++
Date: Fri Oct 25 10:48:03 EDT 2013
User: price-jones
Dark Spectrum Present: No
Reference Spectrum Present: No
Number of Sampled Component Spectra: 1
Spectrometers: USB2+H05261
Integration Time (usec): 100000 (USB2+H05261)
Spectra Averaged: 1 (USB2+H05261)
Boxcar Smoothing: 0 (USB2+H05261)
Correct for Electrical Dark: No (USB2+H05261)
Strobe/Lamp Enabled: No (USB2+H05261)
Correct for Detector Non-linearity: No (USB2+H05261)
Correct for Stray Light: No (USB2+H05261)
Number of Pixels in Processed Spectrum: 2048
>>>>>Begin Processed Spectral Data<<<<<
365.73	163.84
365.92	163.84
366.12	163.84
366.32	53.83
366.52	74.90
366.72	51.49
366.91	67.88
367.11	21.06
367.31	86.60
367.51	72.56
367.70	63.19
367.90	102.98
368.10	72.56
368.30	58.51
368.49	35.11
368.69	114.69
368.89	79.58
369.09	49.15
369.28	0.00
369.48	58.51
369.68	84.26
369.87	138.09
370.07	154.48
370.27	175.54
370.47	259.80
370.66	360.44
370.86	355.76
371.06	465.77
371.25	482.15
371.45	517.26
371.65	411.93
371.84	463.43
372.04	472.79
372.24	475.13
372.44	442.36
372.63	484.49
372.83	463.43
373.03	470.45
373.22	531.30
373.42	533.64
373.62	514.92
373.81	489.17
374.01	634.29
374.21	559.39
374.40	521.94
374.60	517.26
374.79	512.58
374.99	554.71
375.19	575.77
375.38	564.07
375.58	596.84
375.78	594.50
375.97	580.45
376.17	624.92
376.37	547.69
376.56	566.41
376.76	533.64
376.95	594.50
377.15	545.34
377.35	615.56
377.54	606.20
377.74	683.44
377.93	533.64
378.13	559.39
378.33	641.31
378.52	547.69
378.72	636.63
378.91	638.97
379.11	594.50
379.31	592.16
379.50	582.79
379.70	645.99
379.89	568.75
380.09	624.92
380.28	723.23
380.48	615.56
380.68	725.57
380.87	620.24
381.07	641.31
381.26	624.92
381.46	645.99
381.65	594.50
381.85	676.41
382.04	676.41
382.24	734.93
382.43	638.97
382.63	751.31
382.83	669.39
383.02	741.95
383.22	706.84
383.41	725.57
383.61	725.57
383.80	725.57
384.00	695.14
384.19	702.16
384.39	730.25
384.58	690.46
384.78	732.59
384.97	730.25
385.17	777.06
385.36	770.04
385.56	697.48
385.75	772.38
385.95	779.40
386.14	706.84
386.34	699.82
386.53	793.44
386.72	704.50
386.92	835.57
387.11	866.00
387.31	849.61
387.50	788.76
387.70	765.36
387.89	851.96
388.09	795.78
388.28	777.06
388.48	784.08
388.67	898.77
388.86	826.21
389.06	833.23
389.25	800.46
389.45	882.38
389.64	770.04
389.84	880.04
390.03	917.49
390.22	880.04
390.42	828.55
390.61	875.36
390.81	861.32
391.00	1018.13
391.19	898.77
391.39	938.55
391.58	894.08
391.78	894.08
391.97	950.26
392.16	943.24
392.36	1069.62
392.55	929.19
392.75	1050.90
392.94	1004.09
393.13	987.71
393.33	936.21
393.52	994.73
393.71	1008.77
393.91	1060.26
394.10	1062.60
394.29	1088.35
394.49	1041.54
394.68	1018.13
394.88	1067.28
395.07	1074.31
395.26	1081.33
395.46	1078.99
395.65	1165.59
395.84	1097.71
396.04	1184.31
396.23	1146.86
396.42	1107.07
396.62	1114.10
396.81	1191.33
397.00	1137.50
397.19	1137.50
397.39	1200.69
397.58	1156.22
397.77	1139.84
397.97	1191.33
398.16	1221.76
398.35	1268.57
398.55	1277.93
398.74	1240.48
398.93	1310.70
399.12	1320.06
399.32	1240.48
399.51	1430.07
399.70	1362.19
399.90	1296.66
400.09	1336.45
400.28	1390.28
400.47	1446.45
400.67	1453.47
400.86	1380.92
401.05	1355.17
401.24	1409.00
401.44	1495.60
401.63	1376.24
401.82	1497.94
402.01	1554.12
402.21	1416.02
402.40	1511.99
402.59	1511.99
402.78	1448.79
402.97	1483.90
403.17	1460.49
403.36	1570.50
403.55	1507.30
403.74	1629.01
403.93	1692.21
404.13	1624.33
404.32	1568.16
404.51	1657.10
404.70	1659.44
404.89	1603.27
405.09	1680.50
405.28	1729.66
405.47	1682.85
405.66	1823.28
405.85	1753.06
406.05	1736.68
406.24	1842.00
406.43	1722.63
406.62	1809.23
406.81	1811.57
407.00	1860.73
407.20	1713.27
407.39	1785.83
407.58	1912.22
407.77	1858.39
407.96	1937.96
408.15	1874.77
408.34	1984.77
408.54	1905.20
408.73	1860.73
408.92	1984.77
409.11	1989.46
409.30	1975.41
409.49	1959.03
409.68	2026.90
409.87	2097.12
410.07	2097.12
410.26	2143.93
410.45	2005.84
410.64	2005.84
410.83	2174.36
411.02	2111.16
411.21	2239.89
411.40	2235.21
411.59	2195.42
411.78	2195.42
411.98	2361.60
412.17	2249.25
412.36	2265.64
412.55	2270.32
412.74	2420.11
412.93	2363.94
413.12	2291.38
413.31	2539.48
413.50	2455.22
413.69	2410.75
413.88	2513.74
414.07	2530.12
414.26	2626.08
414.45	2605.02
414.64	2532.46
414.83	2525.44
415.02	2623.74
415.22	2715.02
415.41	2803.96
415.60	2733.75
415.79	2789.92
415.98	2717.36
416.17	2834.39
416.36	2771.19
416.55	2708.00
416.74	2862.48
416.93	2799.28
417.12	2937.37
417.31	2911.63
417.50	2888.22
417.69	3014.61
417.88	2979.50
418.07	3009.93
418.26	3075.46
418.45	3152.70
418.64	3206.53
418.83	3166.74
419.02	3178.45
419.21	3265.05
419.39	3124.62
419.58	3094.19
419.77	3080.14
419.96	3246.32
420.15	3274.41
420.34	3190.15
420.53	3185.47
420.72	3325.90
420.91	3463.99
421.10	3435.91
421.29	3522.51
421.48	3286.11
421.67	3368.03
421.86	3300.16
422.05	3204.19
422.24	3321.22
422.43	3351.65
422.61	3524.85
422.80	3503.78
422.99	3412.50
423.18	3487.40
423.37	3581.02
423.56	3452.29
423.75	3339.94
423.94	3328.24
424.13	3218.24
424.32	3370.37
424.50	3522.51
424.69	3499.10
424.88	3618.47
425.07	3426.54
425.26	3398.46
425.45	3370.37
425.64	3417.18
425.83	3480.38
426.01	3482.72
426.20	3555.27
426.39	3407.82
426.58	3566.98
426.77	3496.76
426.96	3492.08
427.15	3592.72
427.33	3527.19
427.52	3555.27
427.71	3606.77
427.90	3676.98
428.09	3557.61
428.28	3536.55
428.46	3623.15
428.65	3597.40
428.84	3922.74
429.03	3822.09
429.22	3674.64
429.40	3641.87
429.59	3847.84
429.78	3648.90
429.97	3662.94
430.16	3861.88
430.34	3934.44
430.53	3845.50
430.72	3754.22
430.91	3761.24
431.10	3840.82
431.28	3906.35
431.47	4063.17
431.66	4084.23
431.85	3978.91
432.03	4098.28
432.22	4269.14
432.41	4095.94
432.60	4117.00
432.79	4194.24
432.97	4231.69
433.16	4028.06
433.35	4329.99
433.54	4241.05
433.72	4208.28
433.91	4208.28
434.10	4315.95
434.28	4222.33
434.47	4294.88
434.66	4341.69
434.85	4489.15
435.03	4325.31
435.22	4243.39
435.41	4486.81
435.59	4414.25
435.78	4498.51
435.97	4479.79
436.16	4482.13
436.34	4376.80
436.53	4339.35
436.72	4627.24
436.90	4451.70
437.09	4650.64
437.28	4585.11
437.46	4624.90
437.65	4645.96
437.84	4816.82
438.02	4585.11
438.21	4603.83
438.40	4559.36
438.58	4727.88
438.77	4882.36
438.96	4737.24
439.14	4868.31
439.33	4980.66
439.52	5008.75
439.70	4968.96
439.89	4964.28
440.08	5130.45
440.26	4999.38
440.45	5020.45
440.63	5109.39
440.82	5287.27
441.01	5303.65
441.19	5242.80
441.38	5427.70
441.57	5221.74
441.75	5259.18
441.94	5462.81
442.12	5509.62
442.31	5518.98
442.50	5408.98
442.68	5439.40
442.87	5675.80
443.05	5605.58
443.24	5706.23
443.43	5694.52
443.61	5830.27
443.80	5811.55
443.98	5507.28
444.17	5334.08
444.35	5549.41
444.54	5802.19
444.73	5746.02
444.91	5682.82
445.10	5624.31
445.28	5738.99
445.47	5668.78
445.65	5558.77
445.84	5834.96
446.02	5949.64
446.21	5792.83
446.39	5736.65
446.58	5827.93
446.77	5837.30
446.95	5806.87
447.14	5818.57
447.32	5891.13
447.51	5870.06
447.69	5699.20
447.88	5851.34
448.06	6024.54
448.25	5706.23
448.43	6015.18
448.62	6054.97
448.80	6026.88
448.99	6017.52
449.17	6080.71
449.36	5982.41
449.54	6106.46
449.73	6179.01
449.91	6272.64
450.10	6253.91
450.28	6303.06
450.46	6307.74
450.65	6160.29
450.83	6354.55
451.02	6181.35
451.20	6347.53
451.39	6420.09
451.57	6277.32
451.76	6408.39
451.94	6303.06
452.13	6448.18
452.31	6445.84
452.49	6396.68
452.68	6361.58
452.86	6499.67
453.05	6494.99
453.23	6359.24
453.42	6340.51
453.60	6347.53
453.78	6574.56
453.97	6649.46
454.15	6525.41
454.34	6462.22
454.52	6565.20
454.70	6750.10
454.89	6684.57
455.07	6803.94
455.26	6593.29
455.44	6799.26
455.62	6874.15
455.81	6729.04
455.99	6967.77
456.17	6932.67
456.36	6984.16
456.54	6937.35
456.73	7002.88
456.91	7012.24
457.09	7222.89
457.28	7321.20
457.46	6878.83
457.64	7255.66
457.83	7009.90
458.01	7035.65
458.19	7358.64
458.38	7178.42
458.56	7255.66
458.74	7159.70
458.93	7349.28
459.11	7295.45
459.29	7272.04
459.48	7309.49
459.66	7405.46
459.84	7470.99
460.03	7414.82
460.21	7550.57
460.39	7573.97
460.57	7377.37
460.76	7449.93
460.94	7548.23
461.12	7613.76
461.31	7648.87
461.49	7772.92
461.67	7695.68
461.85	7791.64
462.04	7744.83
462.22	8142.72
462.40	7901.65
462.59	7901.65
462.77	7875.90
462.95	7936.76
463.13	7845.48
463.32	7819.73
463.50	7918.03
463.68	8126.34
463.86	7756.54
464.05	7826.75
464.23	7948.46
464.41	8112.30
464.59	7878.24
464.78	8116.98
464.96	8105.28
465.14	8147.40
465.32	8229.32
465.50	8177.83
465.69	8355.71
465.87	8210.60
466.05	8266.77
466.23	8170.81
466.41	8156.77
466.60	8456.36
466.78	8182.51
466.96	8348.69
467.14	8283.16
467.32	8344.01
467.51	8596.79
467.69	8149.75
467.87	8538.27
468.05	8531.25
468.23	8252.73
468.41	8292.52
468.60	8657.64
468.78	8624.87
468.96	8580.40
469.14	8608.49
469.32	8732.54
469.50	8484.44
469.69	8798.07
469.87	8812.12
470.05	8688.07
470.23	8968.93
470.41	8837.86
470.59	9004.04
470.77	8755.94
470.95	9011.06
471.14	8966.59
471.32	9074.26
471.50	9214.69
471.68	9240.44
471.86	9327.03
472.04	9303.63
472.22	9523.64
472.40	9195.96
472.58	9322.35
472.77	9144.47
472.95	9415.98
473.13	9776.42
473.31	9376.19
473.49	9628.96
473.67	9331.72
473.85	9661.73
474.03	9565.77
474.21	9582.15
474.39	9825.57
474.57	9727.27
474.75	9987.07
474.93	9799.82
475.12	10029.20
475.30	9942.60
475.48	10134.52
475.66	10094.73
475.84	10305.38
476.02	10043.24
476.20	10104.09
476.38	10387.30
476.56	10569.86
476.74	10544.11
476.92	10473.90
477.10	10555.82
477.28	10693.91
477.46	10747.74
477.64	10785.19
477.82	11197.12
478.00	11246.27
478.18	11257.98
478.36	11147.97
478.54	11234.57
478.72	11297.77
478.90	11337.56
479.08	11777.58
479.26	11569.27
479.44	11932.05
479.62	11868.86
479.80	11817.36
479.98	11751.83
480.16	12189.51
480.34	12042.06
480.52	12233.98
480.70	12203.55
480.88	12205.89
481.06	12685.70
481.24	12470.37
481.41	12575.70
481.59	12950.18
481.77	12936.14
481.95	12919.76
482.13	13060.19
482.31	12903.37
482.49	13270.84
482.67	13399.57
482.85	13415.95
483.03	13518.93
483.21	13703.84
483.39	13912.14
483.57	13666.39
483.74	13827.88
483.92	14026.83
484.10	13598.51
484.28	14291.31
484.46	14370.89
484.64	14691.54
484.82	14476.21
485.00	14633.03
485.18	14885.81
485.35	14944.32
485.53	14728.99
485.71	14869.42
485.89	15091.77
486.07	14977.09
486.25	15346.89
486.43	15159.65
486.61	15599.67
486.78	15878.19
486.96	15550.52
487.14	16306.51
487.32	16133.31
487.50	16245.66
487.68	16224.59
487.85	16673.98
488.03	16554.61
488.21	16973.56
488.39	16517.16
488.57	16933.78
488.75	17003.99
488.92	17090.59
489.10	17383.16
489.28	17600.83
489.46	17884.03
489.64	17649.98
489.81	18169.58
489.99	18017.44
490.17	18274.90
490.35	18370.86
490.53	18195.32
490.70	18555.77
490.88	18551.09
491.06	18857.70
491.24	18609.60
491.41	18916.21
491.59	18977.06
491.77	18693.86
491.95	18862.38
492.13	19461.55
492.30	19096.43
492.48	20011.58
492.66	19501.34
492.84	19793.91
493.01	20121.59
493.19	19744.76
493.37	20006.90
493.54	20046.69
493.72	20315.85
493.90	20610.76
494.08	20769.91
494.25	21034.39
494.43	20737.15
494.61	21106.95
494.79	21109.29
494.96	21102.27
495.14	21195.89
495.32	21462.71
495.49	21502.50
495.67	21759.96
495.85	21687.40
496.02	22305.31
496.20	22080.61
496.38	22031.46
496.55	22525.32
496.73	22717.24
496.91	22221.05
497.09	22057.21
497.26	22909.16
497.44	22733.62
497.62	22742.99
497.79	23084.70
497.97	22806.18
498.14	23321.10
498.32	23014.49
498.50	23234.50
498.67	23765.80
498.85	23173.64
499.03	23587.92
499.20	23578.56
499.38	24224.54
499.56	24151.99
499.73	24072.41
499.91	23990.49
500.08	24212.84
500.26	24257.31
500.44	24596.69
500.61	24854.15
500.79	24493.71
500.97	24643.50
501.14	25001.60
501.32	24680.95
501.49	24858.83
501.67	24893.94
501.84	24840.11
502.02	25013.31
502.20	24879.89
502.37	25479.07
502.55	25507.16
502.72	25624.18
502.90	25654.61
503.07	25694.40
503.25	25511.84
503.43	25532.90
503.60	25797.38
503.78	25937.82
503.95	25769.30
504.13	26288.90
504.30	26183.57
504.48	25921.43
504.65	26548.70
504.83	26485.50
505.01	26637.64
505.18	26551.04
505.36	26955.95
505.53	26850.63
505.71	27051.91
505.88	26979.36
506.06	26855.31
506.23	27239.15
506.41	27077.66
506.58	27211.07
506.76	27281.28
506.93	27714.28
507.11	27484.91
507.28	27660.45
507.46	27550.45
507.63	27707.26
507.81	27711.94
507.98	27737.69
508.16	27592.58
508.33	27793.86
508.50	28116.86
508.68	27885.14
508.85	28737.10
509.03	28554.54
509.20	28130.90
509.38	28790.93
509.55	28641.14
509.73	28418.78
509.90	28776.89
510.08	28755.82
510.25	29118.60
510.42	28748.80
510.60	29127.97
510.77	29392.45
510.95	29355.00
511.12	29371.38
511.30	29446.28
511.47	29617.14
511.64	29659.27
511.82	29895.66
511.99	29649.91
512.17	29865.24
512.34	29390.11
512.51	29900.34
512.69	30356.75
512.86	30183.55
513.04	30108.65
513.21	30469.09
513.38	30125.04
513.56	30623.57
513.73	30029.07
513.90	30670.38
514.08	30096.95
514.25	30721.87
514.43	30541.65
514.60	30953.58
514.77	30969.97
514.95	31087.00
515.12	31012.10
515.29	30974.65
515.47	31618.30
515.64	31630.00
515.81	31232.11
515.99	31297.64
516.16	31012.10
516.33	31089.34
516.51	31307.01
516.68	31229.77
516.85	31253.17
517.03	31246.15
517.20	31840.65
517.37	31896.82
517.54	32161.30
517.72	31915.54
517.89	32006.83
518.06	31866.39
518.24	31955.33
518.41	32285.35
518.58	32084.06
518.75	31908.52
518.93	32589.62
519.10	32224.50
519.27	32353.23
519.45	32472.59
519.62	32414.08
519.79	32758.14
519.96	32823.67
520.14	33132.62
520.31	32936.02
520.48	33106.88
520.65	32912.61
520.83	33481.36
521.00	33408.81
521.17	33092.83
521.34	33141.99
521.52	33525.83
521.69	33806.70
521.86	33792.65
522.03	33731.80
522.20	33603.07
522.38	33729.46
522.55	34122.67
522.72	33881.60
522.89	33790.31
523.07	33546.90
523.24	33970.54
523.41	34167.14
523.58	33970.54
523.75	33909.68
523.92	34286.51
524.10	34653.97
524.27	34422.26
524.44	34843.56
524.61	34677.38
524.78	34969.94
524.96	35070.59
525.13	35056.54
525.30	35314.00
525.47	35578.48
525.64	35002.71
525.81	34836.53
525.98	35051.86
526.16	35147.82
526.33	35112.72
526.50	35379.54
526.67	35351.45
526.84	35299.96
527.01	34960.58
527.18	35124.42
527.36	35842.96
527.53	35754.02
527.70	35983.40
527.87	36231.49
528.04	35952.97
528.21	35679.13
528.38	35744.66
528.55	35892.12
528.72	36343.84
528.89	36180.00
529.07	36093.40
529.24	36360.22
529.41	36418.74
529.58	36133.19
529.75	36353.20
529.92	35997.44
530.09	36184.68
530.26	36629.38
530.43	36381.29
530.60	36608.32
530.77	36463.21
530.94	36634.06
531.11	36769.82
531.28	36861.10
531.46	36767.48
531.63	37015.57
531.80	36795.56
531.97	36987.49
532.14	37202.82
532.31	37048.34
532.48	37144.30
532.65	37289.42
532.82	37111.53
532.99	37551.56
533.16	37013.23
533.33	37205.16
533.50	37326.86
533.67	37125.58
533.84	37010.89
534.01	37172.39
534.18	37308.14
534.35	37869.87
534.52	38176.48
534.69	37977.53
534.86	37890.93
535.03	37780.93
535.20	37804.33
535.37	38345.00
535.54	38562.67
535.71	38113.28
535.88	37944.76
536.05	38031.36
536.22	38178.82
536.38	38192.86
536.55	38508.83
536.72	38164.78
536.89	38286.48
537.06	38532.24
537.23	38038.39
537.40	38429.26
537.57	38490.11
537.74	38258.40
537.91	38813.10
538.08	38611.82
538.25	38972.26
538.42	38801.40
538.59	38927.79
538.75	38450.32
538.92	38644.59
539.09	39208.65
539.26	39030.77
539.43	39047.16
539.60	39187.59
539.77	38644.59
539.94	39103.33
540.11	38581.39
540.28	38644.59
540.44	38857.57
540.61	39016.73
540.78	39112.69
540.95	39159.50
541.12	39505.90
541.29	39033.11
541.46	39117.37
541.62	39281.21
541.79	39739.96
541.96	38958.22
542.13	39239.08
542.30	39421.64
542.47	39686.12
542.63	39512.92
542.80	40025.50
542.97	40105.08
543.14	40109.76
543.31	39929.54
543.48	40275.94
543.64	40783.83
543.81	40968.74
543.98	40009.12
544.15	40065.29
544.32	40451.48
544.48	40844.69
544.65	40563.82
544.82	40421.05
544.99	40259.55
545.16	40559.14
545.32	40617.66
545.49	40900.86
545.66	40896.18
545.83	40903.20
546.00	41069.38
546.16	41048.32
546.33	40811.92
546.50	40362.54
546.67	40952.35
546.83	40364.88
547.00	40751.07
547.17	40573.19
547.34	41151.30
547.50	40912.56
547.67	41462.59
547.84	41055.34
548.00	41331.52
548.17	41317.48
548.34	40954.69
548.51	41265.99
548.67	41572.60
548.84	41848.78
549.01	40982.78
549.18	41106.83
549.34	41207.47
549.51	41521.10
549.68	41844.10
549.84	41867.50
550.01	41687.28
550.18	41457.91
550.34	41429.82
550.51	41603.02
550.68	41874.52
550.84	41256.62
551.01	41975.17
551.18	41846.44
551.34	41736.43
551.51	41675.58
551.68	42124.96
551.84	41839.42
552.01	41940.06
552.18	41738.77
552.34	41694.30
552.51	42094.53
552.68	41918.99
552.84	42326.25
553.01	42047.72
553.18	41780.90
553.34	42141.35
553.51	42010.28
553.67	42375.40
553.84	42525.19
554.01	42459.66
554.17	42646.90
554.34	42838.83
554.51	42447.96
554.67	42752.23
554.84	42801.38
555.00	41755.16
555.17	42314.55
555.33	42520.51
555.50	42595.41
555.67	42904.36
555.83	42834.14
556.00	42782.65
556.16	43306.93
556.33	42738.18
556.50	42588.39
556.66	43005.00
556.83	42541.58
556.99	43061.18
557.16	43335.02
557.32	43393.53
557.49	43110.33
557.65	42649.24
557.82	42735.84
557.98	42827.12
558.15	43323.32
558.32	43210.97
558.48	42600.09
558.65	43157.14
558.81	42646.90
558.98	43044.79
559.14	43002.66
559.31	42997.98
559.47	43370.13
559.64	43330.34
559.80	43285.87
559.97	43548.01
560.13	43126.71
560.30	43187.56
560.46	43131.39
560.63	42834.14
560.79	43337.36
560.96	43480.13
561.12	43459.07
561.29	43405.23
561.45	43225.01
561.61	43290.55
561.78	43526.94
561.94	43309.27
562.11	43737.59
562.27	42979.26
562.44	43405.23
562.60	43524.60
562.77	43805.47
562.93	43564.39
563.10	43889.73
563.26	43585.46
563.42	43775.04
563.59	43828.87
563.75	43686.10
563.92	43826.53
564.08	43681.42
564.24	43751.63
564.41	43533.96
564.57	43271.82
564.74	43601.84
564.90	43676.74
565.07	44006.75
565.23	43805.47
565.39	43854.62
565.56	43873.34
565.72	43475.45
565.88	43540.99
566.05	43756.32
566.21	43849.94
566.38	43803.13
566.54	43718.87
566.70	44051.22
566.87	44196.34
567.03	43639.29
567.19	43770.36
567.36	43948.24
567.52	43281.19
567.68	44402.30
567.85	43873.34
568.01	44116.76
568.17	43753.97
568.34	43744.61
568.50	43629.93
568.66	43842.92
568.83	43908.45
568.99	43145.44
569.15	43943.56
569.32	43538.65
569.48	43636.95
569.64	44194.00
569.81	44198.68
569.97	43721.21
570.13	43882.70
570.30	43873.34
570.46	43957.60
570.62	44058.24
570.78	44002.07
570.95	44116.76
571.11	43995.05
571.27	44121.44
571.43	44329.75
571.60	44514.65
571.76	43856.96
571.92	43557.37
572.09	44020.80
572.25	44619.97
572.41	44018.46
572.57	43758.66
572.74	44538.05
572.90	44500.61
573.06	43896.75
573.22	44203.36
573.38	44114.42
573.55	44137.82
573.71	44287.62
573.87	44135.48
574.03	43744.61
574.20	44381.24
574.36	43807.81
574.52	44287.62
574.68	44268.89
574.84	44151.87
575.01	44474.86
575.17	44472.52
575.33	43908.45
575.49	43875.68
575.65	44566.14
575.82	44603.59
575.98	44327.41
576.14	44556.78
576.30	44390.60
576.46	44151.87
576.62	43882.70
576.79	44191.65
576.95	44013.77
577.11	44612.95
577.27	44526.35
577.43	44182.29
577.59	43969.30
577.75	44404.64
577.92	43847.60
578.08	43950.58
578.24	43920.15
578.40	44025.48
578.56	44720.62
578.72	44453.79
578.88	44205.70
579.04	44247.83
579.21	44357.83
579.37	44100.37
579.53	44259.53
579.69	44046.54
579.85	44011.43
580.01	44509.97
580.17	44638.70
580.33	44023.14
580.49	44460.82
580.65	44196.34
580.82	44388.26
580.98	44292.30
581.14	44086.33
581.30	44690.19
581.46	44170.59
581.62	44474.86
581.78	44622.31
581.94	44203.36
582.10	44748.70
582.26	44446.77
582.42	44423.37
582.58	44931.26
582.74	44406.98
582.90	44046.54
583.06	44807.22
583.22	44725.30
583.38	44774.45
583.54	44741.68
583.70	44472.52
583.86	44245.49
584.02	44252.51
584.18	44524.01
584.34	44261.87
584.50	44570.82
584.66	44608.27
584.82	44112.08
584.98	44772.11
585.14	44591.89
585.30	44191.65
585.46	44931.26
585.62	44376.56
585.78	44619.97
585.94	44130.80
586.10	44531.03
586.26	44453.79
586.42	44444.43
586.58	44910.20
586.74	44346.13
586.90	44563.80
587.06	44205.70
587.22	44699.55
587.38	44257.19
587.54	44514.65
587.70	44893.82
587.86	44856.37
588.02	44399.96
588.18	44849.35
588.34	44341.45
588.49	44254.85
588.65	44065.27
588.81	44048.88
588.97	44135.48
589.13	44280.60
589.29	44582.52
589.45	44687.85
589.61	44863.39
589.77	44821.26
589.93	44699.55
590.08	44842.32
590.24	44914.88
