SpectraSuite Data File
++++++++++++++++++++++++++++++++++++
Date: Fri Oct 25 11:33:30 EDT 2013
User: price-jones
Dark Spectrum Present: No
Reference Spectrum Present: No
Number of Sampled Component Spectra: 1
Spectrometers: USB2+H05261
Integration Time (usec): 100000 (USB2+H05261)
Spectra Averaged: 1 (USB2+H05261)
Boxcar Smoothing: 0 (USB2+H05261)
Correct for Electrical Dark: No (USB2+H05261)
Strobe/Lamp Enabled: No (USB2+H05261)
Correct for Detector Non-linearity: No (USB2+H05261)
Correct for Stray Light: No (USB2+H05261)
Number of Pixels in Processed Spectrum: 2048
>>>>>Begin Processed Spectral Data<<<<<
365.73	266.82
365.92	266.82
366.12	266.82
366.32	159.16
366.52	177.88
366.72	149.79
366.91	128.73
367.11	117.03
367.31	175.54
367.51	138.09
367.70	51.49
367.90	112.35
368.10	81.92
368.30	182.56
368.49	180.22
368.69	196.60
368.89	145.11
369.09	180.22
369.28	191.92
369.48	187.24
369.68	203.63
369.87	273.84
370.07	255.12
370.27	250.44
370.47	318.31
370.66	465.77
370.86	585.13
371.06	517.26
371.25	601.52
371.45	528.96
371.65	575.77
371.84	554.71
372.04	622.58
372.24	578.11
372.44	561.73
372.63	575.77
372.83	627.26
373.03	615.56
373.22	601.52
373.42	547.69
373.62	690.46
373.81	596.84
374.01	615.56
374.21	615.56
374.40	603.86
374.60	631.94
374.79	671.73
374.99	662.37
375.19	655.35
375.38	681.10
375.58	725.57
375.78	613.22
375.97	631.94
376.17	699.82
376.37	692.80
376.56	723.23
376.76	713.86
376.95	622.58
377.15	678.76
377.35	667.05
377.54	683.44
377.74	631.94
377.93	692.80
378.13	634.29
378.33	655.35
378.52	667.05
378.72	730.25
378.91	711.52
379.11	755.99
379.31	643.65
379.50	755.99
379.70	784.08
379.89	812.17
380.09	671.73
380.28	720.88
380.48	636.63
380.68	720.88
380.87	720.88
381.07	720.88
381.26	777.06
381.46	755.99
381.65	814.51
381.85	664.71
382.04	667.05
382.24	704.50
382.43	826.21
382.63	732.59
382.83	791.10
383.02	877.70
383.22	868.34
383.41	758.33
383.61	851.96
383.80	791.10
384.00	819.19
384.19	744.29
384.39	854.30
384.58	805.14
384.78	816.85
384.97	884.72
385.17	784.08
385.36	877.70
385.56	861.32
385.75	814.51
385.95	858.98
386.14	894.08
386.34	903.45
386.53	844.93
386.72	833.23
386.92	866.00
387.11	870.68
387.31	814.51
387.50	926.85
387.70	891.74
387.89	873.02
388.09	873.02
388.28	924.51
388.48	870.68
388.67	912.81
388.86	945.58
389.06	901.11
389.25	917.49
389.45	915.15
389.64	980.68
389.84	1111.75
390.03	943.24
390.22	891.74
390.42	966.64
390.61	943.24
390.81	966.64
391.00	1053.24
391.19	957.28
391.39	990.05
391.58	936.21
391.78	1004.09
391.97	1025.15
392.16	999.41
392.36	1062.60
392.55	1090.69
392.75	1074.31
392.94	1118.78
393.13	1029.84
393.33	1060.26
393.52	1123.46
393.71	1071.97
393.91	1116.44
394.10	1100.05
394.29	1118.78
394.49	1041.54
394.68	1125.80
394.88	1095.37
395.07	1107.07
395.26	1158.57
395.46	1116.44
395.65	1156.22
395.84	1217.08
396.04	1233.46
396.23	1203.04
396.42	1212.40
396.62	1214.74
396.81	1277.93
397.00	1226.44
397.19	1242.82
397.39	1219.42
397.58	1299.00
397.77	1179.63
397.97	1226.44
398.16	1280.27
398.35	1296.66
398.55	1294.32
398.74	1256.87
398.93	1338.79
399.12	1341.13
399.32	1294.32
399.51	1259.21
399.70	1460.49
399.90	1390.28
400.09	1404.32
400.28	1366.87
400.47	1317.72
400.67	1385.60
400.86	1448.79
401.05	1514.33
401.24	1448.79
401.44	1416.02
401.63	1467.52
401.82	1416.02
402.01	1329.42
402.21	1441.77
402.40	1511.99
402.59	1549.43
402.78	1511.99
402.97	1511.99
403.17	1493.26
403.36	1547.09
403.55	1556.46
403.74	1619.65
403.93	1598.59
404.13	1657.10
404.32	1631.35
404.51	1563.48
404.70	1755.40
404.89	1652.42
405.09	1617.31
405.28	1748.38
405.47	1689.87
405.66	1710.93
405.85	1792.85
406.05	1680.50
406.24	1741.36
406.43	1708.59
406.62	1792.85
406.81	1867.75
407.00	1753.06
407.20	1755.40
407.39	1746.04
407.58	1825.62
407.77	1895.83
407.96	1795.19
408.15	1804.55
408.34	1891.15
408.54	1872.43
408.73	1963.71
408.92	1909.88
409.11	1961.37
409.30	1954.35
409.49	2033.93
409.68	2047.97
409.87	1954.35
410.07	1956.69
410.26	2024.56
410.45	2010.52
410.64	2069.03
410.83	2136.91
411.02	2106.48
411.21	2195.42
411.40	2111.16
411.59	2230.53
411.78	2132.23
411.98	2195.42
412.17	2239.89
412.36	2263.30
412.55	2275.00
412.74	2361.60
412.93	2305.43
413.12	2284.36
413.31	2368.62
413.50	2434.16
413.69	2401.39
413.88	2469.27
414.07	2385.01
414.26	2415.43
414.45	2499.69
414.64	2612.04
414.83	2548.84
415.02	2558.21
415.22	2600.34
415.41	2565.23
415.60	2649.49
415.79	2761.83
415.98	2612.04
416.17	2743.11
416.36	2806.30
416.55	2719.70
416.74	2747.79
416.93	2806.30
417.12	2899.92
417.31	2864.82
417.50	2789.92
417.69	2881.20
417.88	2787.58
418.07	2953.76
418.26	2930.35
418.45	2890.56
418.64	3087.17
418.83	3119.93
419.02	3096.53
419.21	3077.80
419.39	3080.14
419.58	3138.66
419.77	2991.20
419.96	3178.45
420.15	3211.22
420.34	3159.72
420.53	3201.85
420.72	3178.45
420.91	3321.22
421.10	3255.69
421.29	3281.43
421.48	3199.51
421.67	3300.16
421.86	3208.87
422.05	3229.94
422.24	3382.07
422.43	3330.58
422.61	3358.67
422.80	3480.38
422.99	3449.95
423.18	3421.86
423.37	3412.50
423.56	3349.31
423.75	3440.59
423.94	3316.54
424.13	3258.03
424.32	3346.97
424.50	3375.05
424.69	3599.74
424.88	3489.74
425.07	3398.46
425.26	3307.18
425.45	3410.16
425.64	3396.12
425.83	3449.95
426.01	3496.76
426.20	3438.25
426.39	3405.48
426.58	3454.63
426.77	3449.95
426.96	3461.65
427.15	3548.25
427.33	3613.79
427.52	3597.40
427.71	3545.91
427.90	3609.11
428.09	3618.47
428.28	3585.70
428.46	3707.41
428.65	3623.15
428.84	3742.52
429.03	3761.24
429.22	3698.05
429.40	3831.46
429.59	3833.80
429.78	3754.22
429.97	3623.15
430.16	3688.68
430.34	3925.08
430.53	3866.56
430.72	3861.88
430.91	3786.99
431.10	3747.20
431.28	3873.59
431.47	4058.49
431.66	3964.87
431.85	3915.72
432.03	4030.40
432.22	4095.94
432.41	3990.61
432.60	4121.68
432.79	3939.12
432.97	4182.54
433.16	4124.02
433.35	4063.17
433.54	4149.77
433.72	4156.79
433.91	4114.66
434.10	4105.30
434.28	4262.12
434.47	4117.00
434.66	4196.58
434.85	4285.52
435.03	4297.22
435.22	4358.08
435.41	4402.55
435.59	4278.50
435.78	4383.82
435.97	4327.65
436.16	4557.02
436.34	4337.01
436.53	4372.12
436.72	4491.49
436.90	4535.96
437.09	4554.68
437.28	4564.04
437.46	4491.49
437.65	4449.36
437.84	4627.24
438.02	4575.75
438.21	4521.92
438.40	4542.98
438.58	4681.07
438.77	4898.74
438.96	4770.01
439.14	4753.63
439.33	4943.21
439.52	4873.00
439.70	4765.33
439.89	5050.88
440.08	4975.98
440.26	5036.83
440.45	5018.11
440.63	4971.30
440.82	5247.48
441.01	5025.13
441.19	5013.43
441.38	5275.57
441.57	5177.26
441.75	5369.19
441.94	5336.42
442.12	5392.59
442.31	5317.70
442.50	5376.21
442.68	5235.78
442.87	5509.62
443.05	5694.52
443.24	5469.83
443.43	5593.88
443.61	5593.88
443.80	5710.91
443.98	5320.04
444.17	5341.10
444.35	5659.42
444.54	5820.91
444.73	5586.86
444.91	5598.56
445.10	5675.80
445.28	5579.84
445.47	5572.82
445.65	5563.45
445.84	5729.63
446.02	5757.72
446.21	5710.91
446.39	5682.82
446.58	5881.77
446.77	5841.98
446.95	5687.50
447.14	5703.89
447.32	6003.47
447.51	5987.09
447.69	5743.67
447.88	5771.76
448.06	5914.53
448.25	5764.74
448.43	5881.77
448.62	5825.59
448.80	5746.02
448.99	5891.13
449.17	5944.96
449.36	5837.30
449.54	6008.16
449.73	6101.78
449.91	6298.38
450.10	6146.25
450.28	6134.54
450.46	5982.41
450.65	6160.29
450.83	6078.37
451.02	6113.48
451.20	6218.80
451.39	6181.35
451.57	6153.27
451.76	6164.97
451.94	6354.55
452.13	6300.72
452.31	6312.42
452.49	6179.01
452.68	6443.49
452.86	6494.99
453.05	6195.40
453.23	6452.86
453.42	6277.32
453.60	6326.47
453.78	6478.60
453.97	6331.15
454.15	6235.19
454.34	6434.13
454.52	6490.31
454.70	6541.80
454.89	6686.91
455.07	6452.86
455.26	6775.85
455.44	6672.87
455.62	6705.63
455.81	6759.47
455.99	6740.74
456.17	6628.40
456.36	6696.27
456.54	6771.17
456.73	6825.00
456.91	7042.67
457.09	6839.05
457.28	7007.56
457.46	7002.88
457.64	7002.88
457.83	7162.04
458.01	6897.56
458.19	7140.97
458.38	7042.67
458.56	7206.51
458.74	7250.98
458.93	7075.44
459.11	7150.34
459.29	7260.34
459.48	7288.43
459.66	7276.73
459.84	7398.43
460.03	7487.37
460.21	7496.74
460.39	7389.07
460.57	7288.43
460.76	7346.94
460.94	7552.91
461.12	7536.52
461.31	7489.71
461.49	7548.23
461.67	7559.93
461.85	7660.57
462.04	7456.95
462.22	8205.92
462.40	7824.41
462.59	7903.99
462.77	7822.07
462.95	7639.51
463.13	7669.94
463.32	7742.49
463.50	7920.37
463.68	7798.66
463.86	8070.17
464.05	7749.51
464.23	7712.07
464.41	7899.31
464.59	7932.08
464.78	8121.66
464.96	8112.30
465.14	7981.23
465.32	8065.49
465.50	8269.11
465.69	8210.60
465.87	7999.95
466.05	8121.66
466.23	8170.81
466.41	8161.45
466.60	8336.99
466.78	8131.02
466.96	8138.04
467.14	8219.96
467.32	8255.07
467.51	8505.51
467.69	8070.17
467.87	8109.96
468.05	8592.11
468.23	8362.73
468.41	8344.01
468.60	8472.74
468.78	8524.23
468.96	8201.24
469.14	8322.94
469.32	8589.77
469.50	8400.18
469.69	8627.21
469.87	8676.37
470.05	8711.47
470.23	8720.84
470.41	8863.61
470.59	8772.33
470.77	8858.93
470.95	8879.99
471.14	9022.77
471.32	8868.29
471.50	8875.31
471.68	9121.07
471.86	9071.92
472.04	8908.08
472.22	9270.86
472.40	9174.90
472.58	9291.93
472.77	9055.53
472.95	9315.33
473.13	9846.63
473.31	9364.48
473.49	9408.95
473.67	9256.82
473.85	9603.22
474.03	9657.05
474.21	9830.25
474.39	9839.61
474.57	9907.49
474.75	9846.63
474.93	10017.49
475.12	9851.31
475.30	9905.15
475.48	9940.26
475.66	10139.20
475.84	9989.41
476.02	10242.18
476.20	10160.27
476.38	10520.71
476.56	10684.55
476.74	10614.33
476.92	10518.37
477.10	10743.06
477.28	10839.02
477.46	10789.87
477.64	11028.60
477.82	10967.75
478.00	11096.48
478.18	11068.39
478.36	11229.89
478.54	11295.43
478.72	11232.23
478.90	11339.90
479.08	11513.10
479.26	11690.98
479.44	11775.24
479.62	11679.27
479.80	11962.48
479.98	12084.19
480.16	12042.06
480.34	11936.73
480.52	12325.26
480.70	12093.55
480.88	11943.75
481.06	12411.86
481.24	12435.27
481.41	12643.57
481.59	12807.41
481.77	12926.78
481.95	12875.29
482.13	12732.51
482.31	12767.62
482.49	13509.57
482.67	13165.51
482.85	13631.28
483.03	13774.05
483.21	13715.54
483.39	13823.20
483.57	13685.11
483.74	13743.63
483.92	14108.75
484.10	13886.40
484.28	14274.93
484.46	14726.65
484.64	14686.86
484.82	14494.94
485.00	14635.37
485.18	14890.49
485.35	15405.41
485.53	15068.37
485.71	15229.87
485.89	15470.94
486.07	15445.20
486.25	15159.65
486.43	15503.71
486.61	15585.63
486.78	15885.22
486.96	15943.73
487.14	16039.69
487.32	16027.99
487.50	16180.12
487.68	16444.60
487.85	16776.96
488.03	16868.24
488.21	16996.97
488.39	16793.34
488.57	16898.67
488.75	17106.98
488.92	17317.62
489.10	17502.53
489.28	17493.16
489.46	17776.37
489.64	17825.52
489.81	18066.60
489.99	18324.05
490.17	18181.28
490.35	18633.00
490.53	18607.26
490.70	18792.16
490.88	18331.08
491.06	18799.18
491.24	19213.46
491.41	18991.11
491.59	19232.18
491.77	19431.13
491.95	19594.96
492.13	19660.50
492.30	19644.12
492.48	19234.52
492.66	19953.07
492.84	19772.85
493.01	20184.78
493.19	20226.91
493.37	20409.47
493.54	20327.55
493.72	20615.44
493.90	20844.81
494.08	20910.35
494.25	20943.11
494.43	20980.56
494.61	21015.67
494.79	21415.90
494.96	21238.02
495.14	21280.15
495.32	21771.66
495.49	21809.11
495.67	21902.73
495.85	21912.10
496.02	22302.96
496.20	22246.79
496.38	21956.57
496.55	22185.94
496.73	22759.37
496.91	22803.84
497.09	23049.60
497.26	22679.79
497.44	22389.56
497.62	23101.09
497.79	23356.21
497.97	23459.19
498.14	23562.17
498.32	23796.23
498.50	23988.15
498.67	24140.29
498.85	24041.98
499.03	24383.70
499.20	24191.78
499.38	24121.56
499.56	24463.28
499.73	24554.56
499.91	24491.37
500.08	24428.17
500.26	24613.07
500.44	24816.70
500.61	25193.53
500.79	24540.52
500.97	24936.07
501.14	25385.45
501.32	25635.89
501.49	25127.99
501.67	25188.85
501.84	25429.92
502.02	25528.22
502.20	25584.40
502.37	25621.84
502.55	25874.62
502.72	26031.44
502.90	26078.25
503.07	25865.26
503.25	26089.95
503.43	26265.49
503.60	26721.90
503.78	26338.05
503.95	26274.85
504.13	26677.43
504.30	26794.45
504.48	26649.34
504.65	26829.56
504.83	26974.67
505.01	27267.24
505.18	27601.94
505.36	27187.66
505.53	26878.71
505.71	27344.48
505.88	27744.71
506.06	27241.50
506.23	27749.39
506.41	27735.35
506.58	27817.27
506.76	27571.51
506.93	28379.00
507.11	27936.63
507.28	28283.03
507.46	28034.94
507.63	28259.63
507.81	28470.28
507.98	28191.75
508.16	28048.98
508.33	28779.23
508.50	28816.68
508.68	28570.92
508.85	29165.42
509.03	28563.90
509.20	29310.53
509.38	29598.41
509.55	29291.80
509.73	29563.31
509.90	29493.09
510.08	29261.38
510.25	29188.82
510.42	29928.43
510.60	29818.42
510.77	30141.42
510.95	30178.87
511.12	29905.02
511.30	30242.06
511.47	30120.35
511.64	29984.60
511.82	30445.69
511.99	30316.96
512.17	30195.25
512.34	30445.69
512.51	30827.20
512.69	30593.14
512.86	30955.93
513.04	30764.00
513.21	30761.66
513.38	31337.43
513.56	31215.72
513.73	30916.14
513.90	31314.03
514.08	31227.43
514.25	31487.23
514.43	31309.35
514.60	31342.11
514.77	31704.90
514.95	32341.52
515.12	31419.35
515.29	31625.32
515.47	31974.06
515.64	31718.94
515.81	31917.89
515.99	32217.47
516.16	32353.23
516.33	32519.40
516.51	32666.86
516.68	32180.03
516.85	32807.29
517.03	32304.07
517.20	33097.52
517.37	33010.92
517.54	32573.24
517.72	32952.40
517.89	32877.51
518.06	32762.82
518.24	32985.17
518.41	33165.39
518.58	33090.49
518.75	33046.02
518.93	33488.38
519.10	33369.02
519.27	33329.23
519.45	33298.80
519.62	33780.95
519.79	34125.01
519.96	33895.64
520.14	34061.82
520.31	33792.65
520.48	34338.00
520.65	33883.94
520.83	34663.33
521.00	34539.29
521.17	34202.25
521.34	34541.63
521.52	35019.10
521.69	34728.87
521.86	34705.46
522.03	34822.49
522.20	34712.49
522.38	34972.28
522.55	35154.85
522.72	34979.31
522.89	35178.25
523.07	35580.82
523.24	35236.77
523.41	35498.91
523.58	35419.33
523.75	35660.40
523.92	35250.81
524.10	35927.22
524.27	35648.70
524.44	35695.51
524.61	36018.50
524.78	35871.05
524.96	36011.48
525.13	36065.31
525.30	36311.07
525.47	36297.03
525.64	36112.13
525.81	36531.08
525.98	36362.56
526.16	36233.83
526.33	36088.72
526.50	36971.10
526.67	36594.28
526.84	36907.91
527.01	36964.08
527.18	36474.91
527.36	36678.54
527.53	37085.79
527.70	36680.88
527.87	37038.98
528.04	37289.42
528.21	37013.23
528.38	37530.49
528.55	37823.06
528.72	36945.36
528.89	37148.98
529.07	36999.19
529.24	36900.89
529.41	37404.10
529.58	37303.46
529.75	37703.69
529.92	38136.69
530.09	37607.73
530.26	37633.47
530.43	38057.11
530.60	37434.53
530.77	37497.72
530.94	38157.75
531.11	37621.77
531.28	37926.04
531.46	38029.02
531.63	38494.79
531.80	38455.00
531.97	38440.96
532.14	38242.01
532.31	38494.79
532.48	38658.63
532.65	38450.32
532.82	38139.03
532.99	38958.22
533.16	38536.92
533.33	38752.25
533.50	39054.18
533.67	38981.62
533.84	38675.01
534.01	39360.79
534.18	38866.94
534.35	39323.34
534.52	39178.23
534.69	39208.65
534.86	39091.63
535.03	39030.77
535.20	39232.06
535.37	39590.16
535.54	39716.55
535.71	39449.73
535.88	39309.30
536.05	39351.43
536.22	40121.46
536.38	39978.69
536.55	39777.40
536.72	39651.02
536.89	39777.40
537.06	39683.78
537.23	40495.95
537.40	39707.19
537.57	40409.35
537.74	39983.37
537.91	40273.60
538.08	40236.15
538.25	39938.90
538.42	40144.87
538.59	40329.77
538.75	40350.84
538.92	40704.26
539.09	40603.61
539.26	40390.62
539.43	40858.73
539.60	40645.74
539.77	40559.14
539.94	41036.61
540.11	41074.06
540.28	40985.12
540.44	41174.70
540.61	41125.55
540.78	40861.07
540.95	40928.95
541.12	41041.29
541.29	40900.86
541.46	41219.17
541.62	41195.77
541.79	41401.74
541.96	41207.47
542.13	41034.27
542.30	41565.57
542.47	41596.00
542.63	41380.67
542.80	41652.17
542.97	41675.58
543.14	42071.13
543.31	41991.55
543.48	41935.38
543.64	42450.30
543.81	42546.26
543.98	42127.30
544.15	41881.55
544.32	41801.97
544.48	42415.19
544.65	42471.36
544.82	42220.92
544.99	42211.56
545.16	42295.82
545.32	42059.43
545.49	42913.72
545.66	42616.47
545.83	42459.66
546.00	42387.10
546.16	42682.01
546.33	42572.00
546.50	41900.27
546.67	42686.69
546.83	42359.02
547.00	42801.38
547.17	42892.66
547.34	42569.66
547.50	43145.44
547.67	43433.32
547.84	43051.81
548.00	43456.73
548.17	43756.32
548.34	43288.21
548.51	43505.88
548.67	43168.84
548.84	42983.94
549.01	43192.25
549.18	43281.19
549.34	43409.92
549.51	43849.94
549.68	43887.39
549.84	43618.22
550.01	43777.38
550.18	43430.98
550.34	43758.66
550.51	43831.21
550.68	44186.97
550.84	43433.32
551.01	43761.00
551.18	43835.89
551.34	44039.52
551.51	44154.21
551.68	44065.27
551.84	43941.22
552.01	44002.07
552.18	43709.50
552.34	43981.01
552.51	44266.55
552.68	43461.41
552.84	44093.35
553.01	43730.57
553.18	44168.25
553.34	44322.72
553.51	44018.46
553.67	44404.64
553.84	44334.43
554.01	44575.50
554.17	44676.15
554.34	44786.15
554.51	44802.53
554.67	44872.75
554.84	44753.38
555.00	44245.49
555.17	44538.05
555.33	44973.39
555.50	44540.39
555.67	44390.60
555.83	45160.64
556.00	44790.83
556.16	45223.83
556.33	45303.41
556.50	44807.22
556.66	44886.79
556.83	44818.92
556.99	45165.32
557.16	45188.72
557.32	45336.18
557.49	45434.48
557.65	45165.32
557.82	45359.58
557.98	44797.85
558.15	45261.28
558.32	45048.29
558.48	44807.22
558.65	44732.32
558.81	45324.47
558.98	45144.25
559.14	45258.94
559.31	45230.85
559.47	45357.24
559.64	45443.84
559.80	45268.30
559.97	45469.59
560.13	45549.17
560.30	45467.25
560.46	45736.41
560.63	45645.13
560.79	45694.28
560.96	45940.04
561.12	46003.23
561.29	45617.04
561.45	45832.37
561.61	45659.17
561.78	45532.78
561.94	45448.52
562.11	45909.61
562.27	45773.86
562.44	45773.86
562.60	46153.02
562.77	45792.58
562.93	45598.32
563.10	46057.06
563.26	46164.73
563.42	46174.09
563.59	45984.51
563.75	45659.17
563.92	46347.29
564.08	46394.10
564.24	46366.01
564.41	45958.76
564.57	46160.05
564.74	46138.98
564.90	46192.81
565.07	46389.42
565.23	45916.63
565.39	46108.55
565.56	46628.15
565.72	46160.05
565.88	46284.09
566.05	46471.34
566.21	46342.61
566.38	46003.23
566.54	46134.30
566.70	46300.48
566.87	46246.65
567.03	46202.18
567.19	46391.76
567.36	46548.57
567.52	46459.63
567.68	46309.84
567.85	46333.24
568.01	46710.07
568.17	46370.69
568.34	46337.93
568.50	46733.48
568.66	46197.49
568.83	46497.08
568.99	46864.55
569.15	46511.13
569.32	46550.91
569.48	47058.81
569.64	46876.25
569.81	46824.76
569.97	46670.28
570.13	46799.01
570.30	46394.10
570.46	46946.47
570.62	46256.01
570.78	46342.61
570.95	46951.15
571.11	46745.18
571.27	47012.00
571.43	46770.93
571.60	46962.85
571.76	46667.94
571.92	46773.27
572.09	46611.77
572.25	46707.73
572.41	46611.77
572.57	46717.09
572.74	47402.87
572.90	46976.89
573.06	47089.24
573.22	46972.21
573.38	47145.41
573.55	47264.78
573.71	47274.14
573.87	46848.16
574.03	47077.54
574.20	47222.65
574.36	46693.69
574.52	46843.48
574.68	47150.09
574.84	46923.06
575.01	47339.68
575.17	47185.20
575.33	47173.50
575.49	47178.18
575.65	47089.24
575.82	47234.35
575.98	47290.52
576.14	47484.79
576.30	47416.91
576.46	47180.52
576.62	46906.68
576.79	46960.51
576.95	47007.32
577.11	47096.26
577.27	47255.42
577.43	46925.40
577.59	47000.30
577.75	46906.68
577.92	47077.54
578.08	47168.82
578.24	47391.17
578.40	47220.31
578.56	47526.92
578.72	47627.56
578.88	47318.61
579.04	47332.65
579.21	47217.97
579.37	47662.67
579.53	46909.02
579.69	46777.95
579.85	47201.58
580.01	47283.50
580.17	47182.86
580.33	47461.38
580.49	46944.12
580.65	47250.74
580.82	47061.15
580.98	47056.47
581.14	47093.92
581.30	47459.04
581.46	47440.32
581.62	47302.23
581.78	46885.61
581.94	47187.54
582.10	47421.59
582.26	47639.26
582.42	47157.11
582.58	47402.87
582.74	47260.10
582.90	47122.01
583.06	47901.40
583.22	47433.30
583.38	47203.92
583.54	47342.02
583.70	47206.26
583.86	47496.49
584.02	47402.87
584.18	47559.69
584.34	47271.80
584.50	47777.36
584.66	47599.47
584.82	47365.42
584.98	47782.04
585.14	47241.37
585.30	47683.73
585.46	47543.30
585.62	47419.25
585.78	47360.74
585.94	47103.28
586.10	47606.50
586.26	47229.67
586.42	47400.53
586.58	47693.10
586.74	47526.92
586.90	47543.30
587.06	47409.89
587.22	47480.11
587.38	47318.61
587.54	47688.42
587.70	47679.05
587.86	47826.51
588.02	47402.87
588.18	47363.08
588.34	47559.69
588.49	47683.73
588.65	47597.13
588.81	47562.03
588.97	47325.63
589.13	47395.85
589.29	47599.47
589.45	47945.87
589.61	47653.31
589.77	47419.25
589.93	47449.68
590.08	48025.45
