SpectraSuite Data File
++++++++++++++++++++++++++++++++++++
Date: Fri Oct 25 11:23:48 EDT 2013
User: price-jones
Dark Spectrum Present: No
Reference Spectrum Present: No
Number of Sampled Component Spectra: 1
Spectrometers: USB2+H05261
Integration Time (usec): 100000 (USB2+H05261)
Spectra Averaged: 1 (USB2+H05261)
Boxcar Smoothing: 0 (USB2+H05261)
Correct for Electrical Dark: No (USB2+H05261)
Strobe/Lamp Enabled: No (USB2+H05261)
Correct for Detector Non-linearity: No (USB2+H05261)
Correct for Stray Light: No (USB2+H05261)
Number of Pixels in Processed Spectrum: 2048
>>>>>Begin Processed Spectral Data<<<<<
365.73	271.50
365.92	271.50
366.12	271.50
366.32	126.39
366.52	205.97
366.72	168.52
366.91	131.07
367.11	128.73
367.31	135.75
367.51	93.62
367.70	208.31
367.90	140.43
368.10	149.79
368.30	67.88
368.49	84.26
368.69	154.48
368.89	142.77
369.09	53.83
369.28	128.73
369.48	170.86
369.68	168.52
369.87	152.13
370.07	145.11
370.27	243.42
370.47	409.59
370.66	622.58
370.86	620.24
371.06	669.39
371.25	685.78
371.45	739.61
371.65	587.47
371.84	641.31
372.04	617.90
372.24	688.12
372.44	730.25
372.63	723.23
372.83	784.08
373.03	788.76
373.22	781.74
373.42	772.38
373.62	702.16
373.81	758.33
374.01	802.80
374.21	844.93
374.40	903.45
374.60	809.83
374.79	821.53
374.99	821.53
375.19	770.04
375.38	819.19
375.58	788.76
375.78	905.79
375.97	866.00
376.17	1008.77
376.37	959.62
376.56	802.80
376.76	985.37
376.95	891.74
377.15	933.87
377.35	880.04
377.54	931.53
377.74	924.51
377.93	889.40
378.13	933.87
378.33	919.83
378.52	945.58
378.72	866.00
378.91	938.55
379.11	929.19
379.31	985.37
379.50	976.00
379.70	1008.77
379.89	985.37
380.09	983.02
380.28	1034.52
380.48	940.90
380.68	1004.09
380.87	959.62
381.07	994.73
381.26	1041.54
381.46	1001.75
381.65	1008.77
381.85	1088.35
382.04	1008.77
382.24	1018.13
382.43	978.34
382.63	1137.50
382.83	1029.84
383.02	1107.07
383.22	1153.88
383.41	1109.41
383.61	1090.69
383.80	1139.84
384.00	1069.62
384.19	1184.31
384.39	1172.61
384.58	1149.20
384.78	1177.29
384.97	1064.94
385.17	1170.27
385.36	1118.78
385.56	1198.35
385.75	1160.91
385.95	1179.63
386.14	1235.80
386.34	1245.16
386.53	1186.65
386.72	1151.54
386.92	1256.87
387.11	1219.42
387.31	1167.93
387.50	1179.63
387.70	1266.23
387.89	1242.82
388.09	1296.66
388.28	1226.44
388.48	1320.06
388.67	1341.13
388.86	1338.79
389.06	1284.95
389.25	1301.34
389.45	1366.87
389.64	1423.05
389.84	1371.55
390.03	1352.83
390.22	1432.41
390.42	1380.92
390.61	1291.98
390.81	1341.13
391.00	1423.05
391.19	1385.60
391.39	1481.56
391.58	1434.75
391.78	1467.52
391.97	1455.81
392.16	1385.60
392.36	1455.81
392.55	1554.12
392.75	1474.54
392.94	1540.07
393.13	1479.22
393.33	1582.20
393.52	1586.88
393.71	1675.82
393.91	1600.93
394.10	1497.94
394.29	1610.29
394.49	1476.88
394.68	1654.76
394.88	1626.67
395.07	1610.29
395.26	1633.69
395.46	1659.44
395.65	1647.74
395.84	1633.69
396.04	1741.36
396.23	1727.32
396.42	1863.07
396.62	1774.13
396.81	1827.96
397.00	1788.17
397.19	1741.36
397.39	1837.32
397.58	1860.73
397.77	1776.47
397.97	1778.81
398.16	1865.41
398.35	1881.79
398.55	1867.75
398.74	2047.97
398.93	2076.06
399.12	1921.58
399.32	1881.79
399.51	1891.15
399.70	1994.14
399.90	2064.35
400.09	2045.63
400.28	2118.18
400.47	1996.48
400.67	2160.31
400.86	2043.29
401.05	2050.31
401.24	2129.89
401.44	2157.97
401.63	2230.53
401.82	2169.68
402.01	2160.31
402.21	2211.81
402.40	2209.47
402.59	2183.72
402.78	2244.57
402.97	2305.43
403.17	2265.64
403.36	2361.60
403.55	2246.91
403.74	2335.85
403.93	2256.28
404.13	2422.45
404.32	2459.90
404.51	2406.07
404.70	2497.35
404.89	2413.09
405.09	2572.25
405.28	2445.86
405.47	2541.82
405.66	2534.80
405.85	2511.39
406.05	2551.18
406.24	2635.44
406.43	2609.70
406.62	2682.25
406.81	2712.68
407.00	2569.91
407.20	2562.89
407.39	2640.12
407.58	2708.00
407.77	2689.28
407.96	2696.30
408.15	2846.09
408.34	2754.81
408.54	2820.35
408.73	2761.83
408.92	2806.30
409.11	2841.41
409.30	2909.29
409.49	2871.84
409.68	2792.26
409.87	2827.37
410.07	2960.78
410.26	2991.20
410.45	3005.25
410.64	3150.36
410.83	3016.95
411.02	3138.66
411.21	3201.85
411.40	3138.66
411.59	3194.83
411.78	3199.51
411.98	3248.66
412.17	3288.45
412.36	3258.03
412.55	3403.14
412.74	3321.22
412.93	3389.10
413.12	3389.10
413.31	3531.87
413.50	3529.53
413.69	3538.89
413.88	3597.40
414.07	3592.72
414.26	3632.51
414.45	3791.67
414.64	3674.64
414.83	3723.79
415.02	3606.77
415.22	3707.41
415.41	3826.78
415.60	3850.18
415.79	3852.52
415.98	4142.75
416.17	4009.34
416.36	4025.72
416.55	4072.53
416.74	4152.11
416.93	4042.11
417.12	4117.00
417.31	4149.77
417.50	4210.62
417.69	4175.52
417.88	4304.25
418.07	4393.19
418.26	4404.89
418.45	4430.63
418.64	4463.40
418.83	4510.21
419.02	4425.95
419.21	4437.66
419.39	4451.70
419.58	4360.42
419.77	4437.66
419.96	4557.02
420.15	4542.98
420.34	4629.58
420.53	4599.15
420.72	4683.41
420.91	4730.22
421.10	4620.22
421.29	4760.65
421.48	4713.84
421.67	4798.10
421.86	4744.27
422.05	4800.44
422.24	4905.76
422.43	4957.25
422.61	5111.73
422.80	4957.25
422.99	5074.28
423.18	4980.66
423.37	5137.48
423.56	4931.51
423.75	4880.02
423.94	4884.70
424.13	4674.05
424.32	4704.48
424.50	5034.49
424.69	5177.26
424.88	5135.14
425.07	5029.81
425.26	4912.78
425.45	5093.01
425.64	4947.89
425.83	5057.90
426.01	5053.22
426.20	5193.65
426.39	5207.69
426.58	5076.62
426.77	5102.37
426.96	5067.26
427.15	5170.24
427.33	5188.97
427.52	5249.82
427.71	5305.99
427.90	5146.84
428.09	5313.02
428.28	5439.40
428.46	5385.57
428.65	5467.49
428.84	5441.75
429.03	5575.16
429.22	5387.91
429.40	5390.25
429.59	5446.43
429.78	5413.66
429.97	5336.42
430.16	5612.60
430.34	5631.33
430.53	5769.42
430.72	5537.71
430.91	5778.78
431.10	5558.77
431.28	5636.01
431.47	5844.32
431.66	5940.28
431.85	5729.63
432.03	5975.39
432.22	6040.92
432.41	5987.09
432.60	5959.00
432.79	6003.47
432.97	6139.23
433.16	5984.75
433.35	6010.50
433.54	6186.04
433.72	6195.40
433.91	6160.29
434.10	6031.56
434.28	6291.36
434.47	6251.57
434.66	6347.53
434.85	6326.47
435.03	6326.47
435.22	6293.70
435.41	6497.33
435.59	6483.28
435.78	6523.07
435.97	6450.52
436.16	6413.07
436.34	6581.59
436.53	6609.67
436.72	6668.19
436.90	6530.09
437.09	6684.57
437.28	6380.30
437.46	6633.08
437.65	6647.12
437.84	6773.51
438.02	6651.80
438.21	6803.94
438.40	6843.73
438.58	7108.21
438.77	6925.65
438.96	7096.50
439.14	7054.37
439.33	7211.19
439.52	7332.90
439.70	7501.42
439.89	7468.65
440.08	7302.47
440.26	7454.61
440.45	7466.31
440.63	7475.67
440.82	7658.23
441.01	7712.07
441.19	7674.62
441.38	7730.79
441.57	7901.65
441.75	7850.16
441.94	7978.89
442.12	7948.46
442.31	8142.72
442.50	8168.47
442.68	8102.93
442.87	7927.39
443.05	8058.46
443.24	8358.05
443.43	8205.92
443.61	8372.10
443.80	8341.67
443.98	7974.21
444.17	7843.14
444.35	8243.37
444.54	8458.70
444.73	8400.18
444.91	8156.77
445.10	8313.58
445.28	8388.48
445.47	8236.35
445.65	8325.29
445.84	8463.38
446.02	8531.25
446.21	8477.42
446.39	8470.40
446.58	8629.56
446.77	8470.40
446.95	8332.31
447.14	8379.12
447.32	8671.68
447.51	8456.36
447.69	8446.99
447.88	8627.21
448.06	8655.30
448.25	8659.98
448.43	8568.70
448.62	8535.93
448.80	8664.66
448.99	8702.11
449.17	8599.13
449.36	8549.98
449.54	8767.65
449.73	8844.88
449.91	9083.62
450.10	8999.36
450.28	9055.53
450.46	9205.33
450.65	9041.49
450.83	9177.24
451.02	9064.89
451.20	9317.67
451.39	9160.86
451.57	8992.34
451.76	9334.06
451.94	9214.69
452.13	9467.47
452.31	9305.97
452.49	9312.99
452.68	9390.23
452.86	9376.19
453.05	9533.00
453.23	9528.32
453.42	9392.57
453.60	9355.12
453.78	9584.49
453.97	9336.40
454.15	9657.05
454.34	9682.80
454.52	9699.18
454.70	9568.11
454.89	9851.31
455.07	9731.95
455.26	9921.53
455.44	10134.52
455.62	9848.97
455.81	9947.28
455.99	10092.39
456.17	10132.18
456.36	9984.73
456.54	10047.92
456.73	10218.78
456.91	10328.78
457.09	10359.21
457.28	10490.28
457.46	10235.16
457.64	10466.88
457.83	10485.60
458.01	10422.41
458.19	10878.81
458.38	10555.82
458.56	10661.14
458.74	10815.62
458.93	10670.50
459.11	10803.91
459.29	10684.55
459.48	10768.80
459.66	10848.38
459.84	10820.30
460.03	11136.27
460.21	11042.65
460.39	11061.37
460.57	10696.25
460.76	11234.57
460.94	11183.08
461.12	11183.08
461.31	11204.14
461.49	11400.75
461.67	11279.04
461.85	11585.65
462.04	11426.50
462.22	11564.59
462.40	11672.25
462.59	11522.46
462.77	11503.73
462.95	11847.79
463.13	11887.58
463.32	11700.34
463.50	11805.66
463.68	11674.59
463.86	11875.88
464.05	11676.93
464.23	11747.15
464.41	11981.20
464.59	11941.41
464.78	12306.54
464.96	12149.72
465.14	11829.07
465.32	12133.34
465.50	12173.13
465.69	12285.47
465.87	12126.32
466.05	12037.38
466.23	12308.88
466.41	12105.25
466.60	12437.61
466.78	12224.62
466.96	12325.26
467.14	12189.51
467.32	12255.04
467.51	12744.22
467.69	12470.37
467.87	12872.95
468.05	12704.43
468.23	12643.57
468.41	12456.33
468.60	12418.88
468.78	12933.80
468.96	12648.26
469.14	13022.74
469.32	13029.76
469.50	12659.96
469.69	13324.67
469.87	13214.66
470.05	13338.71
470.23	13144.45
470.41	13242.75
470.59	13341.05
470.77	13451.06
470.95	13369.14
471.14	13720.22
471.32	13228.71
471.50	13673.41
471.68	13589.15
471.86	13593.83
472.04	13762.35
472.22	13949.59
472.40	13717.88
472.58	14022.15
472.77	14239.82
472.95	14202.37
473.13	14707.93
473.31	14087.68
473.49	13958.96
473.67	14143.86
473.85	14714.95
474.03	14595.58
474.21	14590.90
474.39	14719.63
474.57	14696.22
474.75	15241.57
474.93	15180.71
475.12	14995.81
475.30	15133.90
475.48	15356.25
475.66	15475.62
475.84	15323.49
476.02	15433.49
476.20	15548.18
476.38	15981.18
476.56	16240.98
476.74	15990.54
476.92	15824.36
477.10	15728.40
477.28	16074.80
477.46	16404.81
477.64	16482.05
477.82	16570.99
478.00	16905.69
478.18	16943.14
478.36	17240.39
478.54	17242.73
478.72	17348.05
478.90	17673.39
479.08	17584.44
479.26	17703.81
479.44	18003.40
479.62	17832.54
479.80	18216.39
479.98	18295.97
480.16	18633.00
480.34	18609.60
480.52	18595.56
480.70	18558.11
480.88	18366.18
481.06	19002.81
481.24	18827.27
481.41	19384.32
481.59	19452.19
481.77	19674.54
481.95	19550.49
482.13	19665.18
482.31	19957.75
482.49	20510.11
482.67	20226.91
482.85	20659.91
483.03	20748.85
483.21	21144.40
483.39	20982.90
483.57	20854.17
483.74	21102.27
483.92	21298.88
484.10	21558.67
484.28	21759.96
484.46	22113.38
484.64	22567.45
484.82	22122.74
485.00	22562.76
485.18	22995.76
485.35	23168.96
485.53	23063.64
485.71	23000.44
485.89	23714.31
486.07	23683.88
486.25	23365.57
486.43	23569.19
486.61	23908.57
486.78	24425.83
486.96	24456.26
487.14	24702.01
487.32	24479.66
487.50	24793.29
487.68	25387.79
487.85	25474.39
488.03	25692.06
488.21	25912.07
488.39	25895.69
488.57	26174.21
488.75	26342.73
488.92	26527.63
489.10	26951.27
489.28	26714.87
489.46	27288.31
489.64	27049.57
489.81	28198.77
489.99	27367.88
490.17	27843.01
490.35	28294.74
490.53	28521.77
490.70	28819.02
490.88	28348.57
491.06	29043.71
491.24	28898.59
491.41	29149.03
491.59	29575.01
491.77	29296.49
491.95	30211.64
492.13	29970.56
492.30	30323.98
492.48	30022.05
492.66	30412.92
492.84	30504.20
493.01	30916.14
493.19	31002.74
493.37	31047.21
493.54	31187.64
493.72	31517.65
493.90	31938.95
494.08	31859.37
494.25	32521.74
494.43	31864.05
494.61	32341.52
494.79	32912.61
494.96	32474.93
495.14	32720.69
495.32	33345.61
495.49	33518.81
495.67	33291.78
495.85	33490.73
496.02	33998.62
496.20	33951.81
496.38	34501.84
496.55	34293.53
496.73	34852.92
496.91	34934.84
497.09	35126.76
497.26	34920.79
497.44	34946.54
497.62	35309.32
497.79	35936.59
497.97	35651.04
498.14	36250.22
498.32	36208.09
498.50	36690.24
498.67	36825.99
498.85	36580.23
499.03	36730.03
499.20	36968.76
499.38	37167.71
499.56	37376.01
499.73	37439.21
499.91	37659.22
500.08	38188.18
500.26	37823.06
500.44	37780.93
500.61	37890.93
500.79	37631.13
500.97	38361.38
501.14	38993.32
501.32	38855.23
501.49	38916.09
501.67	38562.67
501.84	39140.78
502.02	39159.50
502.20	39030.77
502.37	39313.98
502.55	39754.00
502.72	39501.22
502.90	40142.53
503.07	40147.21
503.25	40016.14
503.43	39632.29
503.60	40198.70
503.78	40502.97
503.95	40404.67
504.13	40701.92
504.30	41020.23
504.48	40767.45
504.65	40830.65
504.83	41448.55
505.01	42234.97
505.18	41759.84
505.36	41703.67
505.53	41504.72
505.71	41347.90
505.88	42099.22
506.06	41935.38
506.23	41916.65
506.41	41818.35
506.58	42103.90
506.76	42312.20
506.93	42857.55
507.11	42553.28
507.28	43007.34
507.46	42684.35
507.63	43152.46
507.81	43356.08
507.98	42979.26
508.16	43629.93
508.33	43739.93
508.50	43859.30
508.68	43725.89
508.85	43737.59
509.03	43800.79
509.20	44357.83
509.38	44891.48
509.55	44381.24
509.73	44772.11
509.90	44715.93
510.08	44966.37
510.25	44940.63
510.42	44947.65
510.60	45294.05
510.77	45390.01
510.95	45638.11
511.12	45556.19
511.30	45289.37
511.47	46010.25
511.64	45787.90
511.82	45858.12
511.99	45834.71
512.17	46342.61
512.34	46036.00
512.51	46801.35
512.69	46637.51
512.86	46817.74
513.04	47264.78
513.21	46796.67
513.38	46993.28
513.56	47337.33
513.73	46780.29
513.90	47072.85
514.08	47040.09
514.25	47772.67
514.43	47559.69
514.60	47812.46
514.77	47791.40
514.95	47711.82
515.12	47997.37
515.29	47498.83
515.47	48088.65
515.64	48367.17
515.81	48041.84
515.99	48535.69
516.16	48545.05
516.33	48060.56
516.51	48584.84
516.68	48751.02
516.85	48694.85
517.03	48736.98
517.20	49085.72
517.37	48708.89
517.54	49055.29
517.72	48896.13
517.89	49485.95
518.06	49614.68
518.24	49792.56
518.41	49492.97
518.58	49689.57
518.75	49373.60
518.93	49750.43
519.10	49659.15
519.27	49818.30
519.45	50042.99
519.62	50267.69
519.79	50195.13
519.96	49890.86
520.14	50050.02
520.31	50213.85
520.48	50396.42
520.65	50618.77
520.83	50731.11
521.00	50932.40
521.17	50677.28
521.34	50951.12
521.52	50997.93
521.69	51061.13
521.86	50841.12
522.03	51276.46
522.20	51456.68
522.38	51604.13
522.55	51559.66
522.72	51491.79
522.89	51585.41
523.07	51695.41
523.24	51908.40
523.41	52275.87
523.58	51463.70
523.75	52168.20
523.92	52294.59
524.10	52016.07
524.27	52161.18
524.44	52247.78
524.61	52250.12
524.78	52299.27
524.96	52172.88
525.13	52332.04
525.30	52676.10
525.47	52830.57
525.64	52725.25
525.81	52484.17
525.98	53240.17
526.16	52844.62
526.33	52963.98
526.50	53212.08
526.67	52664.39
526.84	52868.02
527.01	53013.13
527.18	53237.83
527.36	53315.06
527.53	53214.42
527.70	53708.27
527.87	53834.66
528.04	53319.74
528.21	53432.09
528.38	53542.10
528.55	53867.43
528.72	53572.52
528.89	53727.00
529.07	53563.16
529.24	53357.19
529.41	53958.71
529.58	53724.66
529.75	53752.74
529.92	53715.29
530.09	54078.08
530.26	53970.41
530.43	54099.14
530.60	53773.81
530.77	54171.70
530.94	54302.77
531.11	54192.76
531.28	54384.69
531.46	54340.22
531.63	54351.92
531.80	54349.58
531.97	54632.78
532.14	54625.76
532.31	54571.93
532.48	54805.98
532.65	54965.14
532.82	54665.55
532.99	54731.09
533.16	54583.63
533.33	55000.25
533.50	54990.89
533.67	54981.52
533.84	54932.37
534.01	55037.70
534.18	55358.35
534.35	55606.45
534.52	55210.90
534.69	55318.56
534.86	55561.98
535.03	55384.10
535.20	55213.24
535.37	55526.87
535.54	55648.58
535.71	55444.95
535.88	55393.46
536.05	55833.48
536.22	55693.05
536.38	55653.26
536.55	55686.03
536.72	55845.18
536.89	55793.69
537.06	55969.23
537.23	55899.01
537.40	55688.37
537.57	55901.36
537.74	55854.54
537.91	56065.19
538.08	56030.08
538.25	55814.76
538.42	56217.33
538.59	56381.16
538.75	56072.21
538.92	56388.19
539.09	56229.03
539.26	56355.42
539.43	56268.82
539.60	56210.31
539.77	56425.64
539.94	56645.65
540.11	56533.30
540.28	56481.81
540.44	56556.70
540.61	56591.81
540.78	56563.73
540.95	56694.80
541.12	56435.00
541.29	56591.81
541.46	56594.15
541.62	56839.91
541.79	56598.83
541.96	56566.07
542.13	56816.50
542.30	56676.07
542.47	56664.37
542.63	56914.81
542.80	57092.69
542.97	57403.98
543.14	57455.47
543.31	57139.50
543.48	57511.64
543.64	57542.07
543.81	57364.19
543.98	57516.32
544.15	57361.85
544.32	57556.11
544.48	57989.11
544.65	57340.78
544.82	57542.07
544.99	57439.09
545.16	57755.06
545.32	57392.28
545.49	57939.96
545.66	57776.12
545.83	57979.75
546.00	57865.06
546.16	57916.56
546.33	57551.43
546.50	57614.63
546.67	57769.10
546.83	57570.16
547.00	57946.98
547.17	57972.73
547.34	57808.89
547.50	58188.06
547.67	58220.83
547.84	58059.33
548.00	58141.25
548.17	58450.20
548.34	58316.79
548.51	58377.64
548.67	58504.03
548.84	58204.44
549.01	58213.80
549.18	58382.32
549.34	58471.26
549.51	58691.27
549.68	58461.90
549.84	58494.67
550.01	58539.14
550.18	58286.36
550.34	58576.59
550.51	58635.10
550.68	58422.11
550.84	58550.84
551.01	58660.85
551.18	58707.66
551.34	58637.44
551.51	58749.79
551.68	58534.46
551.84	58557.86
552.01	58707.66
552.18	58742.77
552.34	58906.60
552.51	58939.37
552.68	58674.89
552.84	58761.49
553.01	59323.22
553.18	58906.60
553.34	59150.02
553.51	58841.07
553.67	58965.12
553.84	59058.74
554.01	59145.34
554.17	59143.00
554.34	59084.48
554.51	59260.02
554.67	59164.06
554.84	59000.22
555.00	58995.54
555.17	59054.06
555.33	59222.58
555.50	59077.46
555.67	59011.93
555.83	59093.85
556.00	59288.11
556.16	59391.09
556.33	59367.69
556.50	59260.02
556.66	59554.93
556.83	59194.49
556.99	59285.77
557.16	59487.06
557.32	59545.57
557.49	59643.87
557.65	59451.95
557.82	59487.06
557.98	59482.37
558.15	59430.88
558.32	59863.88
558.48	59468.33
558.65	59590.04
558.81	59573.66
558.98	59800.69
559.14	59760.90
559.31	59735.15
559.47	59690.68
559.64	59870.90
559.80	59962.18
559.97	59845.16
560.13	59742.17
560.30	59805.37
560.46	59847.50
560.63	59936.44
560.79	59854.52
560.96	60013.68
561.12	60079.21
561.29	60037.08
561.45	59950.48
561.61	59929.42
561.78	60018.36
561.94	60041.76
562.11	60009.00
562.27	59831.11
562.44	60278.16
562.60	60072.19
562.77	60001.97
562.93	59868.56
563.10	60367.10
563.26	60023.04
563.42	60446.68
563.59	60198.58
563.75	60278.16
563.92	60278.16
564.08	60039.42
564.24	60280.50
564.41	60135.38
564.57	60093.25
564.74	60189.22
564.90	60214.96
565.07	60081.55
565.23	60023.04
565.39	60289.86
565.56	60257.09
565.72	60362.42
565.88	60186.88
566.05	60266.45
566.21	60320.29
566.38	60404.55
566.54	60285.18
566.70	60537.96
566.87	60355.39
567.03	60184.54
567.19	60764.99
567.36	60313.26
567.52	60561.36
567.68	60654.98
567.85	60446.68
568.01	60605.83
568.17	60526.25
568.34	60535.62
568.50	60512.21
568.66	60446.68
568.83	60509.87
568.99	60238.37
569.15	60547.32
569.32	60486.46
569.48	60449.02
569.64	60671.37
569.81	60530.93
569.97	60404.55
570.13	60603.49
570.30	60598.81
570.46	60594.13
570.62	60673.71
570.78	60643.28
570.95	60547.32
571.11	60680.73
571.27	60582.43
571.43	60704.13
571.60	60711.16
571.76	60800.10
571.92	60680.73
572.09	60764.99
572.25	60654.98
572.41	60659.66
572.57	60732.22
572.74	60982.66
572.90	60633.92
573.06	60715.84
573.22	60734.56
573.38	60802.44
573.55	60654.98
573.71	60970.96
573.87	60809.46
574.03	60589.45
574.20	60828.18
574.36	60601.15
574.52	60853.93
574.68	60835.20
574.84	61095.00
575.01	60680.73
575.17	60732.22
575.33	60666.69
575.49	60669.03
575.65	60987.34
575.82	61111.39
575.98	60985.00
576.14	61052.87
576.30	60879.67
576.46	60961.59
576.62	60750.94
576.79	61022.45
576.95	60439.65
577.11	60816.48
577.27	60940.53
577.43	60786.05
577.59	60849.25
577.75	60928.83
577.92	60821.16
578.08	60891.38
578.24	60835.20
578.40	61069.26
578.56	61029.47
578.72	61010.74
578.88	61029.47
579.04	61205.01
579.21	61076.28
579.37	61141.81
579.53	61151.18
579.69	60910.10
579.85	60900.74
580.01	60809.46
580.17	60889.04
580.33	61153.52
580.49	61172.24
580.65	61076.28
580.82	60961.59
580.98	60992.02
581.14	61043.51
581.30	60968.61
581.46	61183.94
581.62	61153.52
581.78	61076.28
581.94	61041.17
582.10	61031.81
582.26	60926.49
582.42	61020.11
582.58	61085.64
582.74	61169.90
582.90	61041.17
583.06	61188.63
583.22	60989.68
583.38	61186.28
583.54	61076.28
583.70	61279.91
583.86	60907.76
584.02	61013.08
584.18	61052.87
584.34	60996.70
584.50	60977.98
584.66	61064.58
584.82	60825.84
584.98	61113.73
585.14	61221.39
585.30	60921.80
585.46	61233.10
585.62	61153.52
585.78	61120.75
585.94	61055.21
586.10	61188.63
586.26	61357.14
586.42	61118.41
586.58	61324.38
586.74	61209.69
586.90	61137.13
587.06	61155.86
587.22	61071.60
587.38	61132.45
587.54	61572.47
587.70	61427.36
587.86	61099.68
588.02	61202.67
588.18	61366.51
588.34	61155.86
588.49	61055.21
