SpectraSuite Data File
++++++++++++++++++++++++++++++++++++
Date: Fri Oct 25 10:48:16 EDT 2013
User: price-jones
Dark Spectrum Present: No
Reference Spectrum Present: No
Number of Sampled Component Spectra: 1
Spectrometers: USB2+H05261
Integration Time (usec): 100000 (USB2+H05261)
Spectra Averaged: 1 (USB2+H05261)
Boxcar Smoothing: 0 (USB2+H05261)
Correct for Electrical Dark: No (USB2+H05261)
Strobe/Lamp Enabled: No (USB2+H05261)
Correct for Detector Non-linearity: No (USB2+H05261)
Correct for Stray Light: No (USB2+H05261)
Number of Pixels in Processed Spectrum: 2048
>>>>>Begin Processed Spectral Data<<<<<
365.73	98.30
365.92	98.30
366.12	98.30
366.32	32.77
366.52	30.43
366.72	72.56
366.91	74.90
367.11	79.58
367.31	2.34
367.51	9.36
367.70	102.98
367.90	117.03
368.10	63.19
368.30	11.70
368.49	35.11
368.69	42.13
368.89	145.11
369.09	119.37
369.28	102.98
369.48	46.81
369.68	0.00
369.87	133.41
370.07	93.62
370.27	154.48
370.47	203.63
370.66	442.36
370.86	491.51
371.06	554.71
371.25	503.22
371.45	526.62
371.65	535.98
371.84	465.77
372.04	545.34
372.24	475.13
372.44	547.69
372.63	608.54
372.83	564.07
373.03	442.36
373.22	512.58
373.42	540.66
373.62	559.39
373.81	526.62
374.01	599.18
374.21	631.94
374.40	561.73
374.60	596.84
374.79	519.60
374.99	524.28
375.19	554.71
375.38	615.56
375.58	573.43
375.78	627.26
375.97	568.75
376.17	641.31
376.37	631.94
376.56	662.37
376.76	674.07
376.95	685.78
377.15	657.69
377.35	667.05
377.54	706.84
377.74	685.78
377.93	655.35
378.13	688.12
378.33	699.82
378.52	671.73
378.72	617.90
378.91	641.31
379.11	645.99
379.31	662.37
379.50	643.65
379.70	688.12
379.89	671.73
380.09	615.56
380.28	620.24
380.48	683.44
380.68	681.10
380.87	617.90
381.07	793.44
381.26	695.14
381.46	648.33
381.65	688.12
381.85	685.78
382.04	727.91
382.24	746.63
382.43	720.88
382.63	711.52
382.83	709.18
383.02	788.76
383.22	779.40
383.41	664.71
383.61	692.80
383.80	748.97
384.00	819.19
384.19	772.38
384.39	763.01
384.58	716.20
384.78	868.34
384.97	774.72
385.17	800.46
385.36	781.74
385.56	781.74
385.75	772.38
385.95	861.32
386.14	823.87
386.34	819.19
386.53	849.61
386.72	837.91
386.92	791.10
387.11	837.91
387.31	847.27
387.50	807.48
387.70	901.11
387.89	835.57
388.09	800.46
388.28	999.41
388.48	847.27
388.67	938.55
388.86	978.34
389.06	870.68
389.25	915.15
389.45	936.21
389.64	983.02
389.84	1069.62
390.03	966.64
390.22	1071.97
390.42	905.79
390.61	1046.22
390.81	1036.86
391.00	966.64
391.19	1036.86
391.39	1104.73
391.58	1050.90
391.78	1032.18
391.97	1046.22
392.16	994.73
392.36	966.64
392.55	978.34
392.75	959.62
392.94	1025.15
393.13	938.55
393.33	1062.60
393.52	959.62
393.71	1156.22
393.91	1123.46
394.10	1128.14
394.29	1107.07
394.49	1224.10
394.68	1196.01
394.88	1266.23
395.07	1188.99
395.26	1196.01
395.46	1137.50
395.65	1275.59
395.84	1128.14
396.04	1207.72
396.23	1170.27
396.42	1188.99
396.62	1177.29
396.81	1224.10
397.00	1284.95
397.19	1287.29
397.39	1282.61
397.58	1427.73
397.77	1392.62
397.97	1348.15
398.16	1434.75
398.35	1423.05
398.55	1338.79
398.74	1355.17
398.93	1430.07
399.12	1432.41
399.32	1392.62
399.51	1509.65
399.70	1451.13
399.90	1411.34
400.09	1549.43
400.28	1617.31
400.47	1462.83
400.67	1643.06
400.86	1593.90
401.05	1657.10
401.24	1638.38
401.44	1612.63
401.63	1598.59
401.82	1593.90
402.01	1647.74
402.21	1654.76
402.40	1621.99
402.59	1729.66
402.78	1675.82
402.97	1732.00
403.17	1673.48
403.36	1647.74
403.55	1675.82
403.74	1734.34
403.93	1767.10
404.13	1774.13
404.32	1888.81
404.51	1916.90
404.70	1846.68
404.89	1891.15
405.09	1952.01
405.28	1851.36
405.47	1933.28
405.66	1963.71
405.85	1856.04
406.05	1844.34
406.24	1895.83
406.43	1844.34
406.62	2012.86
406.81	1989.46
407.00	1970.73
407.20	1989.46
407.39	1989.46
407.58	2064.35
407.77	2038.61
407.96	2139.25
408.15	2176.70
408.34	2150.95
408.54	2195.42
408.73	2195.42
408.92	2167.34
409.11	2190.74
409.30	2183.72
409.49	2139.25
409.68	2087.76
409.87	2090.10
410.07	2272.66
410.26	2251.60
410.45	2340.54
410.64	2345.22
410.83	2237.55
411.02	2410.75
411.21	2345.22
411.40	2473.95
411.59	2478.63
411.78	2448.20
411.98	2495.01
412.17	2495.01
412.36	2553.52
412.55	2504.37
412.74	2630.76
412.93	2614.38
413.12	2668.21
413.31	2796.94
413.50	2698.64
413.69	2825.03
413.88	3007.59
414.07	2747.79
414.26	2799.28
414.45	2829.71
414.64	2951.42
414.83	2864.82
415.02	2874.18
415.22	3016.95
415.41	3026.31
415.60	2883.54
415.79	2991.20
415.98	3112.91
416.17	3227.60
416.36	2993.55
416.55	3110.57
416.74	3222.92
416.93	3159.72
417.12	3206.53
417.31	3122.27
417.50	3239.30
417.69	3307.18
417.88	3279.09
418.07	3124.62
418.26	3328.24
418.45	3335.26
418.64	3396.12
418.83	3344.63
419.02	3400.80
419.21	3410.16
419.39	3576.34
419.58	3459.31
419.77	3386.76
419.96	3494.42
420.15	3571.66
420.34	3545.91
420.53	3679.32
420.72	3557.61
420.91	3679.32
421.10	3569.32
421.29	3676.98
421.48	3538.89
421.67	3728.47
421.86	3632.51
422.05	3487.40
422.24	3691.02
422.43	3789.33
422.61	3789.33
422.80	3702.73
422.99	3644.21
423.18	3756.56
423.37	3768.26
423.56	3751.88
423.75	3763.58
423.94	3730.81
424.13	3417.18
424.32	3646.55
424.50	3791.67
424.69	3854.86
424.88	3817.41
425.07	3728.47
425.26	3838.48
425.45	3810.39
425.64	3887.63
425.83	3798.69
426.01	3866.56
426.20	3782.31
426.39	3948.48
426.58	3728.47
426.77	3836.14
426.96	3742.52
427.15	3899.33
427.33	3871.25
427.52	3859.54
427.71	3983.59
427.90	3927.42
428.09	4114.66
428.28	3904.01
428.46	4002.32
428.65	4016.36
428.84	4112.32
429.03	4292.54
429.22	3997.64
429.40	4105.30
429.59	4030.40
429.78	3925.08
429.97	3934.44
430.16	3960.19
430.34	3950.82
430.53	4004.66
430.72	4156.79
430.91	4198.92
431.10	4142.75
431.28	4322.97
431.47	4407.23
431.66	4514.89
431.85	4224.67
432.03	4449.36
432.22	4299.56
432.41	4535.96
432.60	4657.67
432.79	4447.02
432.97	4645.96
433.16	4608.51
433.35	4585.11
433.54	4521.92
433.72	4472.76
433.91	4589.79
434.10	4683.41
434.28	4540.64
434.47	4678.73
434.66	4716.18
434.85	4826.18
435.03	4882.36
435.22	4880.02
435.41	4922.15
435.59	4971.30
435.78	4795.76
435.97	4924.49
436.16	4905.76
436.34	4821.50
436.53	5001.72
436.72	5210.03
436.90	4950.23
437.09	5153.86
437.28	4882.36
437.46	5027.47
437.65	5060.24
437.84	5041.51
438.02	4908.10
438.21	4931.51
438.40	4968.96
438.58	5123.43
438.77	5125.77
438.96	5064.92
439.14	5266.21
439.33	5437.06
439.52	5406.64
439.70	5404.30
439.89	5418.34
440.08	5565.79
440.26	5584.52
440.45	5631.33
440.63	5568.13
440.82	5748.36
441.01	5799.85
441.19	5783.46
441.38	5823.25
441.57	5783.46
441.75	6008.16
441.94	6045.60
442.12	6022.20
442.31	6239.87
442.50	5895.81
442.68	6092.41
442.87	5989.43
443.05	6040.92
443.24	6139.23
443.43	6064.33
443.61	6225.82
443.80	6310.08
443.98	6150.93
444.17	6183.70
444.35	6296.04
444.54	6300.72
444.73	6300.72
444.91	6270.30
445.10	6284.34
445.28	6359.24
445.47	6139.23
445.65	6150.93
445.84	6197.74
446.02	6256.25
446.21	6270.30
446.39	6375.62
446.58	6340.51
446.77	6349.87
446.95	6125.18
447.14	6551.16
447.32	6492.65
447.51	6331.15
447.69	6403.71
447.88	6457.54
448.06	6530.09
448.25	6504.35
448.43	6595.63
448.62	6675.21
448.80	6497.33
448.99	6619.04
449.17	6576.91
449.36	6551.16
449.54	6740.74
449.73	6815.64
449.91	6717.34
450.10	6864.79
450.28	7035.65
450.46	6801.60
450.65	6883.52
450.83	7037.99
451.02	6984.16
451.20	7045.01
451.39	6935.01
451.57	7119.91
451.76	6757.13
451.94	7000.54
452.13	7096.50
452.31	7030.97
452.49	6822.66
452.68	7019.27
452.86	6799.26
453.05	6906.92
453.23	7056.72
453.42	6967.77
453.60	6895.22
453.78	7213.53
453.97	7274.38
454.15	7014.59
454.34	7091.82
454.52	7250.98
454.70	7150.34
454.89	7300.13
455.07	7037.99
455.26	7157.36
455.44	7248.64
455.62	7454.61
455.81	7424.18
455.99	7517.80
456.17	7557.59
456.36	7489.71
456.54	7431.20
456.73	7707.38
456.91	7758.88
457.09	7742.49
457.28	7866.54
457.46	7698.02
457.64	7861.86
457.83	7803.35
458.01	7735.47
458.19	8011.65
458.38	7824.41
458.56	7920.37
458.74	7988.25
458.93	7698.02
459.11	7934.42
459.29	7964.84
459.48	8093.57
459.66	7861.86
459.84	8070.17
460.03	8135.70
460.21	8152.09
460.39	8334.65
460.57	8140.38
460.76	8224.64
460.94	8423.59
461.12	8292.52
461.31	8255.07
461.49	8168.47
461.67	8278.47
461.85	8617.85
462.04	8205.92
462.22	9015.74
462.40	8716.16
462.59	8564.02
462.77	8727.86
462.95	8713.81
463.13	8514.87
463.32	8624.87
463.50	8540.61
463.68	8631.90
463.86	8730.20
464.05	8585.08
464.23	8545.30
464.41	8624.87
464.59	8613.17
464.78	8840.20
464.96	8943.19
465.14	8627.21
465.32	8772.33
465.50	9039.15
465.69	9067.24
465.87	8905.74
466.05	8945.53
466.23	8954.89
466.41	8863.61
466.60	9291.93
466.78	8812.12
466.96	9008.72
467.14	9015.74
467.32	9100.00
467.51	9064.89
467.69	8833.18
467.87	9137.45
468.05	9125.75
468.23	9015.74
468.41	9151.49
468.60	9268.52
468.78	9287.25
468.96	9263.84
469.14	9544.70
469.32	9401.93
469.50	9114.05
469.69	9329.38
469.87	9544.70
470.05	9479.17
470.23	9610.24
470.41	9352.78
470.59	9884.08
470.77	9423.00
470.95	9603.22
471.14	9891.10
471.32	9628.96
471.50	9729.61
471.68	9806.84
471.86	9984.73
472.04	9963.66
472.22	10129.84
472.40	9956.64
472.58	10094.73
472.77	10289.00
472.95	10190.69
473.13	10487.94
473.31	10324.10
473.49	10167.29
473.67	10277.29
473.85	10410.70
474.03	10583.90
474.21	10548.79
474.39	10616.67
474.57	10539.43
474.75	10642.42
474.93	10932.64
475.12	10593.26
475.30	10815.62
475.48	10672.84
475.66	10796.89
475.84	10888.17
476.02	10799.23
476.20	10972.43
476.38	11243.93
476.56	11414.79
476.74	11353.94
476.92	11325.85
477.10	11587.99
477.28	11580.97
477.46	11597.35
477.64	11728.42
477.82	11831.41
478.00	11988.22
478.18	12177.81
478.36	12315.90
478.54	12208.23
478.72	12236.32
478.90	12503.14
479.08	12765.28
479.26	12538.25
479.44	12702.09
479.62	12877.63
479.80	12809.75
479.98	12924.44
480.16	13284.88
480.34	13069.55
480.52	13179.56
480.70	13233.39
480.88	13392.55
481.06	13507.23
481.24	13664.05
481.41	13879.38
481.59	13858.31
481.77	14211.73
481.95	14155.56
482.13	14478.55
482.31	14010.45
482.49	14462.17
482.67	14080.66
482.85	14813.25
483.03	14686.86
483.21	14590.90
483.39	14787.50
483.57	14696.22
483.74	14899.85
483.92	15264.97
484.10	15339.87
484.28	15211.14
484.46	15482.64
484.64	15761.17
484.82	15536.48
485.00	15651.16
485.18	15807.98
485.35	16053.73
485.53	15826.70
485.71	15861.81
485.89	16262.04
486.07	16025.65
486.25	16416.52
486.43	16578.01
486.61	16547.59
486.78	16652.91
486.96	16973.56
487.14	16872.92
487.32	17336.35
487.50	17399.54
487.68	17717.86
487.85	17853.61
488.03	17923.82
488.21	17879.35
488.39	18026.81
488.57	18040.85
488.75	18202.35
488.92	18551.09
489.10	18630.66
489.28	18621.30
489.46	18948.98
489.64	19075.37
489.81	19477.94
489.99	19587.94
490.17	19407.72
490.35	19702.63
490.53	19903.92
490.70	19513.05
490.88	19955.41
491.06	20313.51
491.24	20081.80
491.41	20002.22
491.59	20336.91
491.77	20276.06
491.95	20512.46
492.13	20362.66
492.30	20898.64
492.48	20861.19
492.66	21273.13
492.84	21085.89
493.01	21223.98
493.19	21333.98
493.37	21497.82
493.54	21741.24
493.72	22010.40
493.90	22017.42
494.08	21956.57
494.25	22195.30
494.43	22836.61
494.61	22363.82
494.79	22895.12
494.96	22806.18
495.14	22761.71
495.32	23030.87
495.49	22979.38
495.67	23250.88
495.85	23356.21
496.02	23466.21
496.20	23768.14
496.38	23620.69
496.55	23878.15
496.73	24496.05
496.91	23880.49
497.09	24128.58
497.26	24540.52
497.44	24510.09
497.62	24372.00
497.79	24758.19
497.97	24308.80
498.14	24847.13
498.32	24842.45
498.50	25025.01
498.67	25607.80
498.85	25305.87
499.03	25348.00
499.20	25460.35
499.38	25736.53
499.56	25432.26
499.73	25862.92
499.91	25883.98
500.08	26111.02
500.26	25502.48
500.44	25996.33
500.61	26113.36
500.79	26050.16
500.97	26281.88
501.14	26036.12
501.32	26576.78
501.49	26469.12
501.67	26284.22
501.84	26380.18
502.02	26548.70
502.20	27206.39
502.37	26731.26
502.55	26855.31
502.72	27096.38
502.90	27021.48
503.07	27534.06
503.25	27145.53
503.43	27494.27
503.60	27487.25
503.78	27679.18
503.95	27531.72
504.13	27775.14
504.30	27765.78
504.48	28121.54
504.65	28166.01
504.83	28290.06
505.01	28666.88
505.18	27974.08
505.36	28758.16
505.53	28641.14
505.71	29139.67
505.88	28865.83
506.06	28587.30
506.23	28875.19
506.41	28795.61
506.58	29214.57
506.76	28971.15
506.93	29539.90
507.11	29551.60
507.28	29139.67
507.46	29233.29
507.63	29804.38
507.81	29495.43
507.98	29390.11
508.16	29986.94
508.33	30031.41
508.50	30141.42
508.68	29940.13
508.85	30106.31
509.03	30033.75
509.20	30546.33
509.38	30611.87
509.55	30607.19
509.73	30639.95
509.90	30792.09
510.08	30450.37
510.25	30885.71
510.42	30984.01
510.60	31304.67
510.77	31311.69
510.95	31077.63
511.12	31576.17
511.30	31335.09
511.47	31732.98
511.64	31927.25
511.82	31477.86
511.99	31342.11
512.17	31686.17
512.34	31503.61
512.51	32205.77
512.69	32053.64
512.86	31929.59
513.04	32109.81
513.21	32126.19
513.38	32268.97
513.56	32208.11
513.73	32320.46
513.90	32659.84
514.08	31971.72
514.25	32556.85
514.43	32442.17
514.60	32694.94
514.77	32905.59
514.95	32875.16
515.12	32479.61
515.29	32924.32
515.47	33233.27
515.64	33411.15
515.81	33020.28
515.99	33195.82
516.16	32638.77
516.33	33041.34
516.51	33413.49
516.68	32306.41
516.85	32353.23
517.03	32959.42
517.20	33326.89
517.37	33645.20
517.54	33839.47
517.72	33771.59
517.89	33312.84
518.06	33481.36
518.24	33663.93
518.41	33900.32
518.58	33818.40
518.75	33771.59
518.93	34342.68
519.10	34064.16
519.27	34244.38
519.45	34115.65
519.62	34457.37
519.79	34431.62
519.96	34499.50
520.14	34864.62
520.31	34731.21
520.48	35138.46
520.65	34998.03
520.83	35084.63
521.00	34637.59
521.17	34843.56
521.34	35683.81
521.52	35414.65
521.69	35517.63
521.86	35693.17
522.03	35461.46
522.20	35409.96
522.38	35842.96
522.55	36156.60
522.72	35910.84
522.89	35665.08
523.07	36322.77
523.24	36077.02
523.41	36266.60
523.58	36046.59
523.75	36877.48
523.92	36156.60
524.10	36673.85
524.27	36203.41
524.44	36320.43
524.61	36900.89
524.78	36573.21
524.96	37022.59
525.13	36861.10
525.30	37509.43
525.47	37460.27
525.64	36968.76
525.81	36907.91
525.98	37010.89
526.16	36657.47
526.33	36376.61
526.50	37031.96
526.67	36631.72
526.84	36800.24
527.01	36306.39
527.18	37305.80
527.36	37441.55
527.53	37284.73
527.70	37689.65
527.87	38094.56
528.04	37750.50
528.21	37914.34
528.38	37722.41
528.55	37930.72
528.72	38302.87
528.89	38157.75
529.07	38417.55
529.24	37984.55
529.41	38153.07
529.58	37773.91
529.75	37926.04
529.92	38593.09
530.09	38518.20
530.26	38684.37
530.43	38546.28
530.60	38565.01
530.77	38525.22
530.94	39154.82
531.11	38696.08
531.28	38895.02
531.46	38979.28
531.63	38855.23
531.80	39122.05
531.97	38962.90
532.14	38981.62
532.31	38749.91
532.48	38895.02
532.65	38981.62
532.82	39079.92
532.99	39531.65
533.16	39070.56
533.33	39009.71
533.50	39468.45
533.67	39461.43
533.84	39023.75
534.01	39241.42
534.18	39306.96
534.35	39761.02
534.52	39309.30
534.69	39702.51
534.86	39798.47
535.03	39372.49
535.20	40294.66
535.37	40472.54
535.54	40561.48
535.71	40156.57
535.88	40084.01
536.05	39983.37
536.22	40182.32
536.38	40453.82
536.55	40395.31
536.72	40795.54
536.89	39854.64
537.06	39892.09
537.23	39866.34
537.40	40484.25
537.57	40233.81
537.74	40081.67
537.91	40683.19
538.08	40612.98
538.25	40318.07
538.42	40643.40
538.59	40762.77
538.75	40224.45
538.92	40472.54
539.09	40755.75
539.26	40706.60
539.43	40641.06
539.60	40783.83
539.77	41015.55
539.94	41078.74
540.11	41078.74
540.28	41160.66
540.44	40753.41
540.61	41036.61
540.78	41078.74
540.95	41184.07
541.12	40905.54
541.29	41680.26
541.46	41099.81
541.62	41467.27
541.79	41078.74
541.96	41071.72
542.13	40971.08
542.30	41291.73
542.47	41911.97
542.63	41462.59
542.80	42146.03
542.97	41895.59
543.14	42153.05
543.31	42239.65
543.48	42286.46
543.64	42504.13
543.81	42504.13
543.98	42024.32
544.15	41724.73
544.32	42630.52
544.48	42525.19
544.65	42600.09
544.82	42501.79
544.99	42330.93
545.16	42494.77
545.32	42316.89
545.49	42799.04
545.66	42965.21
545.83	42721.80
546.00	43302.25
546.16	42333.27
546.33	42415.19
546.50	42862.23
546.67	42651.58
546.83	42139.00
547.00	42389.44
547.17	42951.17
547.34	42637.54
547.50	42618.81
547.67	42703.07
547.84	43185.22
548.00	43426.30
548.17	43388.85
548.34	42880.95
548.51	43466.09
548.67	43344.38
548.84	43723.55
549.01	43129.05
549.18	43299.91
549.34	43342.04
549.51	43292.89
549.68	43456.73
549.84	43728.23
550.01	43634.61
550.18	43690.78
550.34	43016.71
550.51	43077.56
550.68	43540.99
550.84	43091.60
551.01	43913.13
551.18	43903.77
551.34	43828.87
551.51	43611.20
551.68	43988.03
551.84	44030.16
552.01	43325.66
552.18	43578.43
552.34	43606.52
552.51	43650.99
552.68	43819.51
552.84	43957.60
553.01	44147.18
553.18	43828.87
553.34	44158.89
553.51	44095.69
553.67	43878.02
553.84	44278.25
554.01	44212.72
554.17	44418.69
554.34	44481.88
554.51	44245.49
554.67	44680.83
554.84	44341.45
555.00	43985.69
555.17	43849.94
555.33	44168.25
555.50	44505.29
555.67	44704.23
555.83	44044.20
556.00	44484.22
556.16	45130.21
556.33	44500.61
556.50	44491.24
556.66	44383.58
556.83	44615.29
556.99	44341.45
557.16	44626.99
557.32	44837.64
557.49	44624.65
557.65	44406.98
557.82	44559.12
557.98	44280.60
558.15	44605.93
558.32	44713.59
558.48	44371.88
558.65	44762.75
558.81	44638.70
558.98	44793.17
559.14	44652.74
559.31	44584.86
559.47	44690.19
559.64	45045.95
559.80	44847.00
559.97	44938.29
560.13	44514.65
560.30	44931.26
560.46	45172.34
560.63	44612.95
560.79	44748.70
560.96	44942.97
561.12	44884.45
561.29	44978.07
561.45	45256.60
561.61	44823.60
561.78	45214.47
561.94	45071.70
562.11	45043.61
562.27	44758.06
562.44	44797.85
562.60	45371.28
562.77	45305.75
562.93	45034.25
563.10	45228.51
563.26	44973.39
563.42	45408.73
563.59	45549.17
563.75	45336.18
563.92	45694.28
564.08	45294.05
564.24	45553.85
564.41	45521.08
564.57	45268.30
564.74	45591.30
564.90	45572.57
565.07	44992.12
565.23	45354.90
565.39	45818.33
565.56	45703.64
565.72	45188.72
565.88	45390.01
566.05	45090.42
566.21	45371.28
566.38	45347.88
566.54	45242.56
566.70	45956.42
566.87	45677.90
567.03	45729.39
567.19	46272.39
567.36	45144.25
567.52	46167.07
567.68	45841.73
567.85	45488.31
568.01	45441.50
568.17	45530.44
568.34	45790.24
568.50	45956.42
568.66	45186.38
568.83	45958.76
568.99	45331.50
569.15	45792.58
569.32	45357.24
569.48	45595.98
569.64	45940.04
569.81	45628.74
569.97	45638.11
570.13	45462.57
570.30	45207.45
570.46	45621.72
570.62	45146.59
570.78	45478.95
570.95	45326.81
571.11	45673.21
571.27	45415.76
571.43	45418.10
571.60	45752.79
571.76	45249.58
571.92	45720.02
572.09	45530.44
572.25	45652.15
572.41	45375.97
572.57	46213.88
572.74	46073.45
572.90	45595.98
573.06	45762.15
573.22	46239.62
573.38	45862.80
573.55	45572.57
573.71	45675.55
573.87	45797.26
574.03	45375.97
574.20	45815.99
574.36	45745.77
574.52	45675.55
574.68	45680.24
574.84	45865.14
575.01	45757.47
575.17	45818.33
575.33	46019.61
575.49	45684.92
575.65	46106.21
575.82	45780.88
575.98	45886.20
576.14	46295.80
576.30	45759.81
576.46	45500.01
576.62	45670.87
576.79	45411.07
576.95	45368.94
577.11	45579.59
577.27	45640.45
577.43	46117.92
577.59	45617.04
577.75	45879.18
577.92	45200.43
578.08	45256.60
578.24	45441.50
578.40	45790.24
578.56	45923.65
578.72	45797.26
578.88	46382.40
579.04	46136.64
579.21	45942.38
579.37	45443.84
579.53	46024.29
579.69	45832.37
579.85	45666.19
580.01	45766.84
580.17	45930.67
580.33	46028.98
580.49	45773.86
580.65	45830.03
580.82	45961.10
580.98	45759.81
581.14	45593.64
581.30	46174.09
581.46	46057.06
581.62	46129.62
581.78	45684.92
581.94	46234.94
582.10	45827.69
582.26	46143.66
582.42	46293.46
582.58	45745.77
582.74	45787.90
582.90	46370.69
583.06	46164.73
583.22	46312.18
583.38	46045.36
583.54	46036.00
583.70	46321.54
583.86	46143.66
584.02	45916.63
584.18	46103.87
584.34	45947.06
584.50	45900.25
584.66	46167.07
584.82	45708.32
584.98	46244.30
585.14	46127.28
585.30	45563.21
585.46	46167.07
585.62	45968.12
585.78	46014.93
585.94	45610.02
586.10	45619.38
586.26	45858.12
586.42	46312.18
586.58	46199.83
586.74	45830.03
586.90	45790.24
587.06	46087.49
587.22	46045.36
587.38	46050.04
587.54	46316.86
587.70	46349.63
587.86	46256.01
588.02	45780.88
588.18	45839.39
588.34	45439.16
588.49	45617.04
588.65	45448.52
588.81	45605.34
588.97	45598.32
589.13	45649.81
589.29	45661.51
589.45	46131.96
589.61	46089.83
589.77	45909.61
589.93	45832.37
590.08	45823.01
