SpectraSuite Data File
++++++++++++++++++++++++++++++++++++
Date: Fri Oct 25 11:23:37 EDT 2013
User: price-jones
Dark Spectrum Present: No
Reference Spectrum Present: No
Number of Sampled Component Spectra: 1
Spectrometers: USB2+H05261
Integration Time (usec): 100000 (USB2+H05261)
Spectra Averaged: 1 (USB2+H05261)
Boxcar Smoothing: 0 (USB2+H05261)
Correct for Electrical Dark: No (USB2+H05261)
Strobe/Lamp Enabled: No (USB2+H05261)
Correct for Detector Non-linearity: No (USB2+H05261)
Correct for Stray Light: No (USB2+H05261)
Number of Pixels in Processed Spectrum: 2048
>>>>>Begin Processed Spectral Data<<<<<
365.73	187.24
365.92	187.24
366.12	187.24
366.32	117.03
366.52	114.69
366.72	105.32
366.91	170.86
367.11	170.86
367.31	77.24
367.51	124.05
367.70	128.73
367.90	152.13
368.10	128.73
368.30	119.37
368.49	88.94
368.69	133.41
368.89	168.52
369.09	152.13
369.28	119.37
369.48	177.88
369.68	98.30
369.87	201.29
370.07	264.48
370.27	201.29
370.47	299.59
370.66	535.98
370.86	573.43
371.06	671.73
371.25	657.69
371.45	592.16
371.65	690.46
371.84	732.59
372.04	720.88
372.24	807.48
372.44	748.97
372.63	716.20
372.83	725.57
373.03	720.88
373.22	730.25
373.42	741.95
373.62	777.06
373.81	765.36
374.01	812.17
374.21	837.91
374.40	837.91
374.60	798.12
374.79	819.19
374.99	849.61
375.19	851.96
375.38	844.93
375.58	795.78
375.78	821.53
375.97	912.81
376.17	877.70
376.37	908.13
376.56	933.87
376.76	896.43
376.95	950.26
377.15	910.47
377.35	912.81
377.54	987.71
377.74	922.17
377.93	884.72
378.13	889.40
378.33	858.98
378.52	861.32
378.72	903.45
378.91	926.85
379.11	943.24
379.31	978.34
379.50	957.28
379.70	983.02
379.89	950.26
380.09	877.70
380.28	987.71
380.48	1013.45
380.68	985.37
380.87	964.30
381.07	940.90
381.26	959.62
381.46	938.55
381.65	1020.47
381.85	1022.81
382.04	1128.14
382.24	1090.69
382.43	1006.43
382.63	1013.45
382.83	1039.20
383.02	1090.69
383.22	1137.50
383.41	1074.31
383.61	1071.97
383.80	1228.78
384.00	1076.65
384.19	1137.50
384.39	1013.45
384.58	1212.40
384.78	1153.88
384.97	1226.44
385.17	1151.54
385.36	1198.35
385.56	1158.57
385.75	1076.65
385.95	1137.50
386.14	1224.10
386.34	1149.20
386.53	1163.25
386.72	1163.25
386.92	1242.82
387.11	1266.23
387.31	1219.42
387.50	1144.52
387.70	1277.93
387.89	1277.93
388.09	1205.38
388.28	1270.91
388.48	1238.14
388.67	1301.34
388.86	1331.76
389.06	1359.85
389.25	1327.08
389.45	1427.73
389.64	1329.42
389.84	1434.75
390.03	1423.05
390.22	1420.71
390.42	1416.02
390.61	1390.28
390.81	1427.73
391.00	1495.60
391.19	1376.24
391.39	1373.89
391.58	1540.07
391.78	1467.52
391.97	1570.50
392.16	1416.02
392.36	1488.58
392.55	1390.28
392.75	1533.05
392.94	1446.45
393.13	1542.41
393.33	1547.09
393.52	1589.22
393.71	1547.09
393.91	1612.63
394.10	1565.82
394.29	1603.27
394.49	1645.40
394.68	1605.61
394.88	1671.14
395.07	1678.16
395.26	1701.57
395.46	1568.16
395.65	1671.14
395.84	1703.91
396.04	1802.21
396.23	1771.79
396.42	1757.74
396.62	1783.49
396.81	1783.49
397.00	1783.49
397.19	1762.42
397.39	1783.49
397.58	1790.51
397.77	1849.02
397.97	1900.52
398.16	1757.74
398.35	1837.32
398.55	1870.09
398.74	1930.94
398.93	1933.28
399.12	1923.92
399.32	1846.68
399.51	2031.58
399.70	2057.33
399.90	1975.41
400.09	2078.40
400.28	2038.61
400.47	1996.48
400.67	2193.08
400.86	2003.50
401.05	2010.52
401.24	2106.48
401.44	2017.54
401.63	2153.29
401.82	2176.70
402.01	2253.94
402.21	2062.01
402.40	2242.23
402.59	2242.23
402.78	2146.27
402.97	2270.32
403.17	2272.66
403.36	2324.15
403.55	2342.88
403.74	2392.03
403.93	2422.45
404.13	2434.16
404.32	2340.54
404.51	2399.05
404.70	2408.41
404.89	2434.16
405.09	2429.48
405.28	2581.61
405.47	2415.43
405.66	2504.37
405.85	2565.23
406.05	2417.77
406.24	2576.93
406.43	2553.52
406.62	2693.96
406.81	2808.64
407.00	2539.48
407.20	2497.35
407.39	2551.18
407.58	2780.56
407.77	2712.68
407.96	2796.94
408.15	2754.81
408.34	2710.34
408.54	2644.81
408.73	2829.71
408.92	2855.45
409.11	2935.03
409.30	2939.71
409.49	2834.39
409.68	2942.05
409.87	2949.08
410.07	2944.39
410.26	3002.91
410.45	3059.08
410.64	3117.59
410.83	2923.33
411.02	3180.79
411.21	3206.53
411.40	3152.70
411.59	3192.49
411.78	3169.09
411.98	3152.70
412.17	3307.18
412.36	3307.18
412.55	3339.94
412.74	3309.52
412.93	3440.59
413.12	3318.88
413.31	3644.21
413.50	3389.10
413.69	3597.40
413.88	3705.07
414.07	3559.95
414.26	3599.74
414.45	3665.28
414.64	3726.13
414.83	3618.47
415.02	3751.88
415.22	3852.52
415.41	3899.33
415.60	3889.97
415.79	3880.61
415.98	3857.20
416.17	4002.32
416.36	3934.44
416.55	3946.14
416.74	4070.19
416.93	4070.19
417.12	4135.73
417.31	4042.11
417.50	4156.79
417.69	4245.73
417.88	4304.25
418.07	4290.20
418.26	4287.86
418.45	4332.33
418.64	4559.36
418.83	4521.92
419.02	4442.34
419.21	4573.41
419.39	4470.42
419.58	4423.61
419.77	4414.25
419.96	4557.02
420.15	4608.51
420.34	4491.49
420.53	4573.41
420.72	4688.09
420.91	4557.02
421.10	4723.20
421.29	4887.04
421.48	4638.94
421.67	4737.24
421.86	4744.27
422.05	4842.57
422.24	4847.25
422.43	4835.55
422.61	4762.99
422.80	5034.49
422.99	4943.21
423.18	4800.44
423.37	4966.62
423.56	4929.17
423.75	4889.38
423.94	4833.21
424.13	4580.43
424.32	4725.54
424.50	4915.12
424.69	5071.94
424.88	4975.98
425.07	4985.34
425.26	4870.65
425.45	4929.17
425.64	5064.92
425.83	4931.51
426.01	5039.17
426.20	4952.57
426.39	5071.94
426.58	5039.17
426.77	5078.96
426.96	5083.64
427.15	5139.82
427.33	5294.29
427.52	5125.77
427.71	5385.57
427.90	5149.18
428.09	5320.04
428.28	5364.51
428.46	5191.31
428.65	5149.18
428.84	5296.63
429.03	5558.77
429.22	5336.42
429.40	5586.86
429.59	5497.92
429.78	5357.49
429.97	5303.65
430.16	5458.13
430.34	5579.84
430.53	5696.86
430.72	5596.22
430.91	5427.70
431.10	5476.85
431.28	5792.83
431.47	5914.53
431.66	5865.38
431.85	5701.54
432.03	6136.88
432.22	6061.99
432.41	6118.16
432.60	5867.72
432.79	5921.56
432.97	6010.50
433.16	5989.43
433.35	5837.30
433.54	6092.41
433.72	6054.97
433.91	6167.31
434.10	6162.63
434.28	6052.63
434.47	6249.23
434.66	6366.26
434.85	6441.15
435.03	6157.95
435.22	6328.81
435.41	6333.49
435.59	6331.15
435.78	6527.75
435.97	6502.01
436.16	6633.08
436.34	6354.55
436.53	6553.50
436.72	6661.16
436.90	6551.16
437.09	6565.20
437.28	6551.16
437.46	6558.18
437.65	6946.71
437.84	6841.39
438.02	6944.37
438.21	6927.99
438.40	6612.01
438.58	7007.56
438.77	7014.59
438.96	6871.81
439.14	7047.35
439.33	7112.89
439.52	7318.86
439.70	7211.19
439.89	7180.76
440.08	7403.11
440.26	7342.26
440.45	7314.17
440.63	7545.89
440.82	7566.95
441.01	7653.55
441.19	7639.51
441.38	7700.36
441.57	7822.07
441.75	7997.61
441.94	7932.08
442.12	7822.07
442.31	8168.47
442.50	8065.49
442.68	7887.61
442.87	7999.95
443.05	8191.88
443.24	8365.07
443.43	8072.51
443.61	8250.39
443.80	8451.67
443.98	7995.27
444.17	7831.43
444.35	8231.66
444.54	8528.91
444.73	8194.22
444.91	8348.69
445.10	8489.12
445.28	8329.97
445.47	8198.90
445.65	8285.50
445.84	8575.72
446.02	8484.44
446.21	8374.44
446.39	8503.17
446.58	8505.51
446.77	8519.55
446.95	8271.45
447.14	8315.92
447.32	8514.87
447.51	8479.76
447.69	8580.40
447.88	8372.10
448.06	8444.65
448.25	8531.25
448.43	8528.91
448.62	8641.26
448.80	8578.06
448.99	8634.24
449.17	8861.27
449.36	8592.11
449.54	8945.53
449.73	8978.30
449.91	8940.85
450.10	8973.61
450.28	9146.81
450.46	9212.35
450.65	8877.65
450.83	8936.17
451.02	8938.51
451.20	9217.03
451.39	8987.66
451.57	9104.68
451.76	8961.91
451.94	9231.07
452.13	9350.44
452.31	9284.91
452.49	9006.38
452.68	9439.38
452.86	9320.01
453.05	9455.76
453.23	9638.33
453.42	9420.66
453.60	9380.87
453.78	9568.11
453.97	9465.13
454.15	9626.62
454.34	9497.89
454.52	9692.16
454.70	9647.69
454.89	9724.93
455.07	9795.14
455.26	9827.91
455.44	10277.29
455.62	9891.10
455.81	10010.47
455.99	10125.16
456.17	9956.64
456.36	10122.82
456.54	10066.64
456.73	10335.81
456.91	10509.01
457.09	10342.83
457.28	10764.12
457.46	10501.98
457.64	10523.05
457.83	10541.77
458.01	10326.44
458.19	10729.02
458.38	10600.29
458.56	10705.61
458.74	10799.23
458.93	10590.92
459.11	10635.39
459.29	10775.83
459.48	10628.37
459.66	10806.25
459.84	10972.43
460.03	11133.93
460.21	11037.97
460.39	11040.31
460.57	11000.52
460.76	10897.53
460.94	11260.32
461.12	11433.52
461.31	11356.28
461.49	11108.18
461.67	11178.40
461.85	11440.54
462.04	11407.77
462.22	11534.16
462.40	11599.70
462.59	11580.97
462.77	11496.71
462.95	11749.49
463.13	11707.36
463.32	11683.95
463.50	11758.85
463.68	11772.89
463.86	11705.02
464.05	11583.31
464.23	11770.55
464.41	11939.07
464.59	11627.78
464.78	12091.21
464.96	11999.93
465.14	11922.69
465.32	12102.91
465.50	12084.19
465.69	12367.39
465.87	12381.43
466.05	12100.57
466.23	12180.15
466.41	12236.32
466.60	12500.80
466.78	12149.72
466.96	12343.99
467.14	12290.15
467.32	12500.80
467.51	12505.48
467.69	12100.57
467.87	12468.03
468.05	12601.44
468.23	12603.78
468.41	12512.50
468.60	12809.75
468.78	12938.48
468.96	12704.43
469.14	12711.45
469.32	13053.17
469.50	12826.14
469.69	13060.19
469.87	13121.04
470.05	13263.82
470.23	13149.13
470.41	13055.51
470.59	13390.20
470.77	13275.52
470.95	13336.37
471.14	13362.12
471.32	13289.56
471.50	13558.72
471.68	13556.38
471.86	13795.12
472.04	13846.61
472.22	14033.85
472.40	13977.68
472.58	13916.83
472.77	14033.85
472.95	14232.80
473.13	14733.67
473.31	13937.89
473.49	14267.91
473.67	14178.97
473.85	14506.64
474.03	14923.26
474.21	14754.74
474.39	14710.27
474.57	14792.19
474.75	14871.76
474.93	15166.67
475.12	14977.09
475.30	15192.42
475.48	15131.56
475.66	15332.85
475.84	15122.20
476.02	15197.10
476.20	15363.28
476.38	15943.73
476.56	15866.49
476.74	16037.35
476.92	15749.46
477.10	15812.66
477.28	15843.09
477.46	16126.29
477.64	16458.65
477.82	16601.42
478.00	16975.91
478.18	16844.84
478.36	17125.70
478.54	16973.56
478.72	17121.02
478.90	17317.62
479.08	17748.28
479.26	17619.55
479.44	17734.24
479.62	17734.24
479.80	18094.68
479.98	17980.00
480.16	18354.48
480.34	18452.78
480.52	18815.57
480.70	18654.07
480.88	18539.38
481.06	18766.42
481.24	18958.34
481.41	19110.47
481.59	19255.59
481.77	19583.26
481.95	19627.73
482.13	19772.85
482.31	19529.43
482.49	20266.70
482.67	20109.88
482.85	20603.74
483.03	20531.18
483.21	20666.93
483.39	20919.71
483.57	20868.22
483.74	21184.19
483.92	21200.57
484.10	21193.55
484.28	21930.82
484.46	22052.53
484.64	22185.94
484.82	21996.35
485.00	22286.58
485.18	22656.39
485.35	22967.68
485.53	22845.97
485.71	23068.32
485.89	23627.71
486.07	23634.73
486.25	23744.73
486.43	23503.66
486.61	23688.56
486.78	24336.89
486.96	24467.96
487.14	24627.12
487.32	24800.32
487.50	24872.87
487.68	25366.73
487.85	25755.26
488.03	25516.52
488.21	25621.84
488.39	26218.68
488.57	26066.55
488.75	26295.92
488.92	26698.49
489.10	26721.90
489.28	26656.36
489.46	27159.58
489.64	27344.48
489.81	27906.21
489.99	27751.73
490.17	28151.96
490.35	28156.64
490.53	28240.90
490.70	28353.25
490.88	28027.92
491.06	29139.67
491.24	28882.21
491.41	28985.19
491.59	29584.37
491.77	29275.42
491.95	29589.05
492.13	29631.18
492.30	30307.60
492.48	30045.46
492.66	30071.20
492.84	30291.21
493.01	31140.83
493.19	30764.00
493.37	31136.15
493.54	31108.06
493.72	31625.32
493.90	31594.89
494.08	31672.13
494.25	32273.65
494.43	32158.96
494.61	32774.52
494.79	32339.18
494.96	32189.39
495.14	32936.02
495.32	32973.47
495.49	33420.51
495.67	33132.62
495.85	33577.33
496.02	33965.85
496.20	33961.17
496.38	33855.85
496.55	34368.43
496.73	34829.51
496.91	34796.74
497.09	34820.15
497.26	35201.66
497.44	35580.82
497.62	35714.23
497.79	35842.96
497.97	35756.36
498.14	35653.38
498.32	36620.02
498.50	36201.07
498.67	36751.09
498.85	36730.03
499.03	37163.03
499.20	36701.94
499.38	37050.68
499.56	37298.78
499.73	37207.50
499.91	37401.76
500.08	37879.23
500.26	37331.54
500.44	37591.34
500.61	37656.88
500.79	37570.28
500.97	38291.16
501.14	38747.57
501.32	39056.52
501.49	38632.88
501.67	38639.90
501.84	39075.24
502.02	38899.70
502.20	39192.27
502.37	39136.10
502.55	39426.32
502.72	39793.79
502.90	39466.11
503.07	39672.08
503.25	40287.64
503.43	39810.17
503.60	40615.32
503.78	40250.19
503.95	40285.30
504.13	40467.86
504.30	40814.26
504.48	40187.00
504.65	40994.48
504.83	41207.47
505.01	41584.30
505.18	41626.43
505.36	41521.10
505.53	41181.73
505.71	41762.18
505.88	41773.88
506.06	41762.18
506.23	41851.12
506.41	41841.76
506.58	41813.67
506.76	42148.37
506.93	42682.01
507.11	42520.51
507.28	42911.38
507.46	43133.73
507.63	42990.96
507.81	43585.46
507.98	43007.34
508.16	43342.04
508.33	43615.88
508.50	43555.03
508.68	43964.62
508.85	44020.80
509.03	43920.15
509.20	44308.68
509.38	44278.25
509.55	44683.17
509.73	44456.14
509.90	44807.22
510.08	44804.88
510.25	45006.16
510.42	44779.13
510.60	45071.70
510.77	45523.42
510.95	45598.32
511.12	45221.49
511.30	45518.74
511.47	45420.44
511.64	45717.68
511.82	46185.79
511.99	45485.97
512.17	46010.25
512.34	46138.98
512.51	46557.94
512.69	46473.68
512.86	46487.72
513.04	46550.91
513.21	46780.29
513.38	46646.88
513.56	47068.17
513.73	46934.76
513.90	47512.88
514.08	47126.69
514.25	47224.99
514.43	47557.35
514.60	47679.05
514.77	47367.76
514.95	48018.43
515.12	47700.12
515.29	47913.11
515.47	48147.16
515.64	48566.12
515.81	48116.73
515.99	48741.66
516.16	48535.69
516.33	48594.20
516.51	48844.64
516.68	48921.88
516.85	48617.61
517.03	48823.58
517.20	48868.05
517.37	48851.66
517.54	48811.87
517.72	48966.35
517.89	49474.24
518.06	49125.50
518.24	49413.39
518.41	49495.31
518.58	49518.71
518.75	49418.07
518.93	49404.03
519.10	49872.14
519.27	49567.87
519.45	49867.45
519.62	50218.53
519.79	49691.91
519.96	50094.49
520.14	50202.15
520.31	50206.83
520.48	50478.33
520.65	50281.73
520.83	50630.47
521.00	50703.03
521.17	50347.26
521.34	50457.27
521.52	50796.65
521.69	50937.08
521.86	50908.99
522.03	51110.28
522.20	51615.83
522.38	51442.63
522.55	51601.79
522.72	51529.23
522.89	51384.12
523.07	51681.37
523.24	51686.05
523.41	51622.86
523.58	51625.20
523.75	52072.24
523.92	51447.32
524.10	52051.17
524.27	52271.18
524.44	52236.08
524.61	52229.05
524.78	52411.62
524.96	52165.86
525.13	52376.51
525.30	52364.81
525.47	52580.13
525.64	52418.64
525.81	52465.45
525.98	52809.51
526.16	52818.87
526.33	52807.17
526.50	52996.75
526.67	52640.99
526.84	53034.20
527.01	52914.83
527.18	52956.96
527.36	52851.64
527.53	53116.12
527.70	53235.48
527.87	53361.87
528.04	53247.19
528.21	53530.39
528.38	53378.26
528.55	53609.97
528.72	53605.29
528.89	53167.61
529.07	53411.02
529.24	53413.37
529.41	53776.15
529.58	53621.67
529.75	53694.23
529.92	54007.86
530.09	54099.14
530.26	53865.09
530.43	53895.52
530.60	53675.51
530.77	53911.90
530.94	54237.23
531.11	54197.44
531.28	54272.34
531.46	54183.40
531.63	54232.55
531.80	54277.02
531.97	54351.92
532.14	54401.07
532.31	54705.34
532.48	54756.83
532.65	54663.21
532.82	54426.82
532.99	54672.57
533.16	54871.52
533.33	54887.90
533.50	54883.22
533.67	54803.64
533.84	54782.58
534.01	55021.31
534.18	54742.79
534.35	55185.15
534.52	55229.62
534.69	55437.93
534.86	55133.66
535.03	55000.25
535.20	55185.15
535.37	55419.20
535.54	55379.42
535.71	55213.24
535.88	55466.02
536.05	55412.18
536.22	55594.74
536.38	55426.23
536.55	55796.03
536.72	55388.78
536.89	55657.94
537.06	55730.50
537.23	55702.41
537.40	55674.32
537.57	55524.53
537.74	55702.41
537.91	55994.98
538.08	55987.95
538.25	55819.44
538.42	55922.42
538.59	56184.56
538.75	55997.32
538.92	56095.62
539.09	56390.53
539.26	56336.69
539.43	56114.34
539.60	56222.01
539.77	56292.22
539.94	56439.68
540.11	56437.34
540.28	56406.91
540.44	56453.72
540.61	56615.22
540.78	56545.00
540.95	56444.36
541.12	56369.46
541.29	56488.83
541.46	56650.33
541.62	56699.48
541.79	56577.77
541.96	56528.62
542.13	56542.66
542.30	56624.58
542.47	56921.83
542.63	56882.04
542.80	56814.16
542.97	57148.86
543.14	57148.86
543.31	57109.07
543.48	57230.78
543.64	57530.37
543.81	57542.07
543.98	57247.16
544.15	57233.12
544.32	57614.63
544.48	57741.02
544.65	57708.25
544.82	57436.75
544.99	57284.61
545.16	57673.14
545.32	57560.79
545.49	57757.40
545.66	57921.24
545.83	57549.09
546.00	57858.04
546.16	57705.91
546.33	57539.73
546.50	57595.90
546.67	57652.08
546.83	57532.71
547.00	58017.20
547.17	57797.19
547.34	57951.66
547.50	58017.20
547.67	58220.83
547.84	58262.96
548.00	58237.21
548.17	58148.27
548.34	58272.32
548.51	58244.23
548.67	58403.39
548.84	58291.04
549.01	58246.57
549.18	58401.05
549.34	58281.68
549.51	58300.40
549.68	58527.44
549.84	58482.97
550.01	58429.13
550.18	58314.45
550.34	58506.37
550.51	58433.81
550.68	58506.37
550.84	58314.45
551.01	58740.42
551.18	58473.60
551.34	58515.73
551.51	58777.87
551.68	58712.34
551.84	58548.50
552.01	58422.11
552.18	58731.06
552.34	58515.73
552.51	58932.35
552.68	58656.17
552.84	58808.30
553.01	58941.71
553.18	58721.70
553.34	58731.06
553.51	58829.37
553.67	58850.43
553.84	59100.87
554.01	58906.60
554.17	58899.58
554.34	59047.04
554.51	58951.07
554.67	59283.43
554.84	59194.49
555.00	59042.35
555.17	59245.98
555.33	59133.63
555.50	58932.35
555.67	59126.61
555.83	59011.93
556.00	59061.08
556.16	59355.99
556.33	59503.44
556.50	59215.55
556.66	59578.34
556.83	59096.19
556.99	59559.61
557.16	59489.40
557.32	59517.48
557.49	59817.07
557.65	59372.37
557.82	59564.29
557.98	59398.12
558.15	59487.06
558.32	59480.03
558.48	59508.12
558.65	59412.16
558.81	59599.40
558.98	59646.21
559.14	59622.81
559.31	59587.70
559.47	59690.68
559.64	59746.86
559.80	59615.79
559.97	59845.16
560.13	59515.14
560.30	59611.10
560.46	59737.49
560.63	59812.39
560.79	59922.40
560.96	60060.49
561.12	59849.84
561.29	59906.01
561.45	59936.44
561.61	59854.52
561.78	59777.28
561.94	59913.03
562.11	59732.81
562.27	59922.40
562.44	60097.94
562.60	60144.75
562.77	59901.33
562.93	59948.14
563.10	60128.36
563.26	60048.78
563.42	60360.08
563.59	60121.34
563.75	59983.25
563.92	60327.31
564.08	60205.60
564.24	60427.95
564.41	60203.26
564.57	60189.22
564.74	60055.81
564.90	60001.97
565.07	60135.38
565.23	60231.35
565.39	60236.03
565.56	60207.94
565.72	60128.36
565.88	59884.95
566.05	60296.88
566.21	60196.24
566.38	60170.49
566.54	60420.93
566.70	60743.92
566.87	60580.09
567.03	60203.26
567.19	60467.74
567.36	60221.98
567.52	60385.82
567.68	60544.98
567.85	60451.36
568.01	60640.94
568.17	60362.42
568.34	60453.70
568.50	60416.25
568.66	60371.78
568.83	60413.91
568.99	60367.10
569.15	60441.99
569.32	60491.15
569.48	60406.89
569.64	60439.65
569.81	60491.15
569.97	60348.37
570.13	60542.64
570.30	60456.04
570.46	60631.58
570.62	60488.80
570.78	60715.84
570.95	60582.43
571.11	60582.43
571.27	60654.98
571.43	60573.06
571.60	60769.67
571.76	60544.98
571.92	60568.38
572.09	60605.83
572.25	60683.07
572.41	60577.75
572.57	60582.43
572.74	61008.40
572.90	60561.36
573.06	60666.69
573.22	60561.36
573.38	60631.58
573.55	60746.26
573.71	60860.95
573.87	60690.09
574.03	60711.16
574.20	60739.24
574.36	60727.54
574.52	60886.70
574.68	60870.31
574.84	60811.80
575.01	60800.10
575.17	60495.83
575.33	60570.72
575.49	60718.18
575.65	60715.84
575.82	60809.46
575.98	60877.33
576.14	61137.13
576.30	60870.31
576.46	60790.73
576.62	60636.26
576.79	60788.39
576.95	60713.50
577.11	60896.06
577.27	60774.35
577.43	60830.52
577.59	60767.33
577.75	60715.84
577.92	60650.30
578.08	61038.83
578.24	60809.46
578.40	61024.79
578.56	60966.27
578.72	60867.97
578.88	60952.23
579.04	61153.52
579.21	60860.95
579.37	61034.15
579.53	61034.15
579.69	60893.72
579.85	60846.91
580.01	60940.53
580.17	60760.31
580.33	60935.85
580.49	60956.91
580.65	60956.91
580.82	60874.99
580.98	60715.84
581.14	60867.97
581.30	61151.18
581.46	60912.44
581.62	61038.83
581.78	60886.70
581.94	61043.51
582.10	61027.13
582.26	60973.30
582.42	60865.63
582.58	60949.89
582.74	60891.38
582.90	61083.30
583.06	60912.44
583.22	60949.89
583.38	60992.02
583.54	61010.74
583.70	61048.19
583.86	61141.81
584.02	61144.16
584.18	61127.77
584.34	61090.32
584.50	61036.49
584.66	60917.12
584.82	60795.42
584.98	61275.22
585.14	61109.05
585.30	60809.46
585.46	61205.01
585.62	61062.24
585.78	61305.65
585.94	60889.04
586.10	61125.43
586.26	60956.91
586.42	61090.32
586.58	61123.09
586.74	61162.88
586.90	61062.24
587.06	60907.76
587.22	61235.44
587.38	60961.59
587.54	61197.99
587.70	61228.41
587.86	61249.48
588.02	61085.64
588.18	61310.33
588.34	61064.58
588.49	61209.69
