SpectraSuite Data File
++++++++++++++++++++++++++++++++++++
Date: Fri Oct 25 11:34:12 EDT 2013
User: price-jones
Dark Spectrum Present: No
Reference Spectrum Present: No
Number of Sampled Component Spectra: 1
Spectrometers: USB2+H05261
Integration Time (usec): 100000 (USB2+H05261)
Spectra Averaged: 1 (USB2+H05261)
Boxcar Smoothing: 0 (USB2+H05261)
Correct for Electrical Dark: No (USB2+H05261)
Strobe/Lamp Enabled: No (USB2+H05261)
Correct for Detector Non-linearity: No (USB2+H05261)
Correct for Stray Light: No (USB2+H05261)
Number of Pixels in Processed Spectrum: 2048
>>>>>Begin Processed Spectral Data<<<<<
365.73	304.27
365.92	304.27
366.12	304.27
366.32	201.29
366.52	187.24
366.72	173.20
366.91	173.20
367.11	145.11
367.31	156.82
367.51	166.18
367.70	210.65
367.90	234.05
368.10	152.13
368.30	203.63
368.49	152.13
368.69	182.56
368.89	210.65
369.09	196.60
369.28	224.69
369.48	170.86
369.68	322.99
369.87	229.37
370.07	241.08
370.27	322.99
370.47	332.36
370.66	456.40
370.86	472.79
371.06	573.43
371.25	573.43
371.45	454.06
371.65	493.85
371.84	568.75
372.04	535.98
372.24	526.62
372.44	624.92
372.63	606.20
372.83	594.50
373.03	603.86
373.22	528.96
373.42	599.18
373.62	634.29
373.81	564.07
374.01	685.78
374.21	617.90
374.40	599.18
374.60	627.26
374.79	629.60
374.99	636.63
375.19	681.10
375.38	601.52
375.58	608.54
375.78	674.07
375.97	657.69
376.17	734.93
376.37	645.99
376.56	725.57
376.76	650.67
376.95	648.33
377.15	664.71
377.35	648.33
377.54	711.52
377.74	697.48
377.93	690.46
378.13	697.48
378.33	674.07
378.52	690.46
378.72	671.73
378.91	727.91
379.11	615.56
379.31	697.48
379.50	730.25
379.70	755.99
379.89	720.88
380.09	734.93
380.28	751.31
380.48	737.27
380.68	746.63
380.87	662.37
381.07	781.74
381.26	809.83
381.46	755.99
381.65	741.95
381.85	725.57
382.04	786.42
382.24	734.93
382.43	847.27
382.63	793.44
382.83	781.74
383.02	765.36
383.22	840.25
383.41	755.99
383.61	793.44
383.80	814.51
384.00	826.21
384.19	802.80
384.39	791.10
384.58	795.78
384.78	854.30
384.97	788.76
385.17	805.14
385.36	844.93
385.56	854.30
385.75	842.59
385.95	880.04
386.14	877.70
386.34	823.87
386.53	760.67
386.72	880.04
386.92	866.00
387.11	945.58
387.31	903.45
387.50	788.76
387.70	924.51
387.89	812.17
388.09	861.32
388.28	849.61
388.48	880.04
388.67	917.49
388.86	968.98
389.06	861.32
389.25	997.07
389.45	1076.65
389.64	877.70
389.84	905.79
390.03	1008.77
390.22	929.19
390.42	945.58
390.61	877.70
390.81	1046.22
391.00	964.30
391.19	1022.81
391.39	940.90
391.58	1036.86
391.78	990.05
391.97	959.62
392.16	1041.54
392.36	1008.77
392.55	1123.46
392.75	1006.43
392.94	924.51
393.13	1053.24
393.33	1006.43
393.52	1048.56
393.71	1048.56
393.91	1142.18
394.10	999.41
394.29	1128.14
394.49	1074.31
394.68	1156.22
394.88	1132.82
395.07	1116.44
395.26	1086.01
395.46	1121.12
395.65	1221.76
395.84	1238.14
396.04	1196.01
396.23	1181.97
396.42	1137.50
396.62	1128.14
396.81	1198.35
397.00	1151.54
397.19	1249.85
397.39	1226.44
397.58	1254.53
397.77	1310.70
397.97	1242.82
398.16	1203.04
398.35	1212.40
398.55	1270.91
398.74	1259.21
398.93	1315.38
399.12	1359.85
399.32	1275.59
399.51	1294.32
399.70	1284.95
399.90	1369.21
400.09	1341.13
400.28	1313.04
400.47	1273.25
400.67	1467.52
400.86	1348.15
401.05	1383.26
401.24	1350.49
401.44	1404.32
401.63	1401.98
401.82	1401.98
402.01	1345.81
402.21	1446.45
402.40	1432.41
402.59	1366.87
402.78	1486.24
402.97	1551.78
403.17	1582.20
403.36	1544.75
403.55	1544.75
403.74	1537.73
403.93	1591.56
404.13	1575.18
404.32	1600.93
404.51	1643.06
404.70	1570.50
404.89	1530.71
405.09	1661.78
405.28	1631.35
405.47	1654.76
405.66	1640.72
405.85	1739.02
406.05	1526.03
406.24	1629.01
406.43	1729.66
406.62	1715.61
406.81	1769.44
407.00	1633.69
407.20	1727.32
407.39	1769.44
407.58	1778.81
407.77	1914.56
407.96	1713.27
408.15	1813.92
408.34	1806.89
408.54	1804.55
408.73	1809.23
408.92	1870.09
409.11	1968.39
409.30	1933.28
409.49	1942.64
409.68	1891.15
409.87	1895.83
410.07	2043.29
410.26	2040.95
410.45	1884.13
410.64	2036.27
410.83	2071.37
411.02	2031.58
411.21	2127.55
411.40	2045.63
411.59	2200.10
411.78	2172.02
411.98	2160.31
412.17	2218.83
412.36	2228.19
412.55	2160.31
412.74	2333.51
412.93	2333.51
413.12	2284.36
413.31	2377.98
413.50	2328.83
413.69	2394.37
413.88	2399.05
414.07	2473.95
414.26	2370.96
414.45	2485.65
414.64	2445.86
414.83	2527.78
415.02	2480.97
415.22	2579.27
415.41	2523.10
415.60	2663.53
415.79	2689.28
415.98	2775.88
416.17	2703.32
416.36	2682.25
416.55	2691.62
416.74	2780.56
416.93	2726.72
417.12	2803.96
417.31	2787.58
417.50	2855.45
417.69	2946.73
417.88	2836.73
418.07	2782.90
418.26	2869.50
418.45	3009.93
418.64	3133.98
418.83	3019.29
419.02	2986.52
419.21	2981.84
419.39	3101.21
419.58	3066.10
419.77	3026.31
419.96	3023.97
420.15	3108.23
420.34	3169.09
420.53	3213.56
420.72	3274.41
420.91	3185.47
421.10	3185.47
421.29	3197.17
421.48	3269.73
421.67	3178.45
421.86	3199.51
422.05	3351.65
422.24	3295.47
422.43	3243.98
422.61	3396.12
422.80	3361.01
422.99	3309.52
423.18	3382.07
423.37	3400.80
423.56	3323.56
423.75	3412.50
423.94	3265.05
424.13	3101.21
424.32	3236.96
424.50	3353.99
424.69	3358.67
424.88	3372.71
425.07	3286.11
425.26	3353.99
425.45	3389.10
425.64	3372.71
425.83	3384.41
426.01	3377.39
426.20	3349.31
426.39	3403.14
426.58	3384.41
426.77	3452.29
426.96	3372.71
427.15	3431.23
427.33	3421.86
427.52	3473.36
427.71	3592.72
427.90	3574.00
428.09	3583.36
428.28	3482.72
428.46	3686.34
428.65	3468.67
428.84	3557.61
429.03	3686.34
429.22	3506.12
429.40	3737.84
429.59	3744.86
429.78	3660.60
429.97	3658.26
430.16	3747.20
430.34	3742.52
430.53	3672.30
430.72	3716.77
430.91	3826.78
431.10	3646.55
431.28	3817.41
431.47	4009.34
431.66	3904.01
431.85	3955.51
432.03	3918.06
432.22	4124.02
432.41	4145.09
432.60	3882.95
432.79	3969.55
432.97	3922.74
433.16	4121.68
433.35	4095.94
433.54	4028.06
433.72	4049.13
433.91	3967.21
434.10	4107.64
434.28	4098.28
434.47	4135.73
434.66	4311.27
434.85	4273.82
435.03	4257.43
435.22	4166.15
435.41	4294.88
435.59	4428.29
435.78	4215.30
435.97	4367.44
436.16	4294.88
436.34	4208.28
436.53	4409.57
436.72	4397.87
436.90	4313.61
437.09	4421.27
437.28	4489.15
437.46	4400.21
437.65	4493.83
437.84	4554.68
438.02	4531.28
438.21	4512.55
438.40	4517.23
438.58	4802.78
438.77	4751.29
438.96	4585.11
439.14	4786.40
439.33	4922.15
439.52	4880.02
439.70	4901.08
439.89	5041.51
440.08	4983.00
440.26	5018.11
440.45	4917.47
440.63	4938.53
440.82	5029.81
441.01	5036.83
441.19	5100.03
441.38	5048.54
441.57	5144.50
441.75	5273.23
441.94	5305.99
442.12	5392.59
442.31	5242.80
442.50	5317.70
442.68	5151.52
442.87	5238.12
443.05	5315.36
443.24	5430.04
443.43	5308.34
443.61	5540.05
443.80	5462.81
443.98	5345.78
444.17	5116.41
444.35	5469.83
444.54	5310.68
444.73	5416.00
444.91	5535.37
445.10	5650.05
445.28	5416.00
445.47	5488.56
445.65	5423.02
445.84	5605.58
446.02	5547.07
446.21	5565.79
446.39	5448.77
446.58	5664.10
446.77	5614.95
446.95	5420.68
447.14	5504.94
447.32	5713.25
447.51	5692.18
447.69	5654.73
447.88	5666.44
448.06	5645.37
448.25	5659.42
448.43	5584.52
448.62	5526.00
448.80	5713.25
448.99	5790.49
449.17	5746.02
449.36	5645.37
449.54	5879.43
449.73	5921.56
449.91	5961.34
450.10	5886.45
450.28	6040.92
450.46	6066.67
450.65	5984.75
450.83	5902.83
451.02	5956.66
451.20	6064.33
451.39	6003.47
451.57	6080.71
451.76	5888.79
451.94	6136.88
452.13	6204.76
452.31	6129.86
452.49	6160.29
452.68	6197.74
452.86	6092.41
453.05	6197.74
453.23	6377.96
453.42	6174.33
453.60	6033.90
453.78	6413.07
453.97	6108.80
454.15	6160.29
454.34	6244.55
454.52	6455.20
454.70	6356.90
454.89	6319.45
455.07	6392.00
455.26	6574.56
455.44	6436.47
455.62	6466.90
455.81	6520.73
455.99	6682.23
456.17	6623.72
456.36	6633.08
456.54	6703.29
456.73	6724.36
456.91	6717.34
457.09	6796.92
457.28	6974.80
457.46	6796.92
457.64	6799.26
457.83	6827.34
458.01	6743.08
458.19	7087.14
458.38	6895.22
458.56	6918.62
458.74	6902.24
458.93	7133.95
459.11	6995.86
459.29	7063.74
459.48	7061.40
459.66	7023.95
459.84	7262.68
460.03	7262.68
460.21	7047.35
460.39	7084.80
460.57	7304.81
460.76	7222.89
460.94	7248.64
461.12	7307.15
461.31	7267.36
461.49	7215.87
461.67	7190.13
461.85	7499.08
462.04	7377.37
462.22	7861.86
462.40	7779.94
462.59	7426.52
462.77	7389.07
462.95	7571.63
463.13	7503.76
463.32	7578.65
463.50	7838.45
463.68	7791.64
463.86	7669.94
464.05	7396.09
464.23	7665.25
464.41	7962.50
464.59	7634.83
464.78	8002.29
464.96	7882.92
465.14	7676.96
465.32	7747.17
465.50	8032.72
465.69	7826.75
465.87	7789.30
466.05	8039.74
466.23	7985.91
466.41	8051.44
466.60	8201.24
466.78	7901.65
466.96	7953.14
467.14	8056.12
467.32	8149.75
467.51	8177.83
467.69	7843.14
467.87	8105.28
468.05	8149.75
468.23	8086.55
468.41	8023.36
468.60	8348.69
468.78	8276.13
468.96	8341.67
469.14	8341.67
469.32	8482.10
469.50	8182.51
469.69	8374.44
469.87	8341.67
470.05	8627.21
470.23	8519.55
470.41	8519.55
470.59	8816.80
470.77	8727.86
470.95	8678.71
471.14	8725.52
471.32	8592.11
471.50	8805.10
471.68	8830.84
471.86	8884.67
472.04	8938.51
472.22	9256.82
472.40	8926.80
472.58	8931.48
472.77	8924.46
472.95	9006.38
473.13	9355.12
473.31	9128.09
473.49	9542.36
473.67	9221.71
473.85	9282.56
474.03	9408.95
474.21	9666.41
474.39	9612.58
474.57	9523.64
474.75	9729.61
474.93	9619.60
475.12	9568.11
475.30	9717.90
475.48	9635.99
475.66	9879.40
475.84	9865.36
476.02	9867.70
476.20	9767.06
476.38	10125.16
476.56	10527.73
476.74	10162.61
476.92	10244.52
477.10	10167.29
477.28	10347.51
477.46	10422.41
477.64	10513.69
477.82	10843.70
478.00	10841.36
478.18	10972.43
478.36	10836.68
478.54	11234.57
478.72	11117.54
478.90	11150.31
479.08	11279.04
479.26	11461.60
479.44	11431.18
479.62	11566.93
479.80	11433.52
479.98	11723.74
480.16	11943.75
480.34	11531.82
480.52	11843.11
480.70	11969.50
480.88	11833.75
481.06	12011.63
481.24	12109.93
481.41	12252.70
481.59	12311.22
481.77	12613.15
481.95	12702.09
482.13	12662.30
482.31	12779.32
482.49	13011.04
482.67	12861.24
482.85	13125.72
483.03	13198.28
483.21	13099.98
483.39	13273.18
483.57	13315.31
483.74	13472.12
483.92	13689.79
484.10	13689.79
484.28	13870.01
484.46	14150.88
484.64	14340.46
484.82	14003.43
485.00	14218.75
485.18	14436.42
485.35	14768.78
485.53	14501.96
485.71	14747.72
485.89	14679.84
486.07	14728.99
486.25	14932.62
486.43	15082.41
486.61	15421.79
486.78	15421.79
486.96	15513.07
487.14	15829.04
487.32	15503.71
487.50	15847.77
487.68	15864.15
487.85	16222.25
488.03	16102.89
488.21	16594.40
488.39	16348.64
488.57	16889.31
488.75	16620.14
488.92	16912.71
489.10	17029.74
489.28	17135.06
489.46	17209.96
489.64	17207.62
489.81	17685.09
489.99	17736.58
490.17	17561.04
490.35	18118.09
490.53	17752.96
490.70	18260.86
490.88	17970.63
491.06	18443.42
491.24	18530.02
491.41	18745.35
491.59	18682.16
491.77	18651.73
491.95	19103.45
492.13	18850.67
492.30	19073.03
492.48	19122.18
492.66	19300.06
492.84	19470.92
493.01	19618.37
493.19	19477.94
493.37	19751.78
493.54	19892.21
493.72	20049.03
493.90	20011.58
494.08	20336.91
494.25	20477.35
494.43	20416.49
494.61	20608.42
494.79	20849.49
494.96	20739.49
495.14	20929.07
495.32	20900.98
495.49	21226.32
495.67	21404.20
495.85	21303.56
496.02	21774.00
496.20	21362.07
496.38	21834.86
496.55	21989.33
496.73	22450.42
496.91	22033.80
497.09	22230.41
497.26	22522.98
497.44	22162.53
497.62	22398.93
497.79	22590.85
497.97	22396.59
498.14	23023.85
498.32	22970.02
498.50	23262.58
498.67	23269.61
498.85	23377.27
499.03	23562.17
499.20	23527.06
499.38	23871.12
499.56	23702.61
499.73	23754.10
499.91	23819.63
500.08	24273.70
500.26	23885.17
500.44	24341.57
500.61	24383.70
500.79	24070.07
500.97	24669.25
501.14	24669.25
501.32	24854.15
501.49	24652.86
501.67	24884.58
501.84	25034.37
502.02	24744.14
502.20	24922.02
502.37	25025.01
502.55	24748.82
502.72	25170.12
502.90	25261.40
503.07	25261.40
503.25	25163.10
503.43	25399.49
503.60	25914.41
503.78	25743.55
503.95	25420.56
504.13	25687.38
504.30	25872.28
504.48	25858.24
504.65	26279.54
504.83	26384.86
505.01	26668.06
505.18	26214.00
505.36	26466.78
505.53	26632.96
505.71	26799.13
505.88	26677.43
506.06	26677.43
506.23	26813.18
506.41	27115.11
506.58	27154.90
506.76	27260.22
506.93	27182.98
507.11	27524.70
507.28	27175.96
507.46	27173.62
507.63	27220.43
507.81	27606.62
507.98	27608.96
508.16	28027.92
508.33	28240.90
508.50	27793.86
508.68	28271.33
508.85	28128.56
509.03	27976.42
509.20	28091.11
509.38	28318.14
509.55	28533.47
509.73	28741.78
509.90	28849.44
510.08	28601.35
510.25	28737.10
510.42	29062.43
510.60	28687.95
510.77	29071.79
510.95	29223.93
511.12	29212.23
511.30	29230.95
511.47	29202.86
511.64	29544.58
511.82	29834.81
511.99	29453.30
512.17	29928.43
512.34	29642.88
512.51	29811.40
512.69	30059.50
512.86	30426.96
513.04	29900.34
513.21	29902.68
513.38	30263.13
513.56	30326.32
513.73	30293.55
513.90	30663.36
514.08	30408.24
514.25	30815.49
514.43	30525.27
514.60	30792.09
514.77	30761.66
514.95	31157.21
515.12	30981.67
515.29	30937.20
515.47	31168.91
515.64	31295.30
515.81	30995.71
515.99	31157.21
516.16	31630.00
516.33	31253.17
516.51	31587.87
516.68	31854.69
516.85	31512.97
517.03	31854.69
517.20	31653.40
517.37	31868.73
517.54	32034.91
517.72	32107.47
517.89	31831.29
518.06	32046.62
518.24	32369.61
518.41	32163.64
518.58	31995.12
518.75	32121.51
518.93	32432.80
519.10	32573.24
519.27	32147.26
519.45	32542.81
519.62	32486.64
519.79	32746.44
519.96	33006.23
520.14	32936.02
520.31	32680.90
520.48	33298.80
520.65	33015.60
520.83	33408.81
521.00	33408.81
521.17	33352.63
521.34	33380.72
521.52	33914.36
521.69	33469.66
521.86	33649.88
522.03	33944.79
522.20	34101.61
522.38	34181.18
522.55	33928.41
522.72	33790.31
522.89	34195.23
523.07	34480.77
523.24	34328.64
523.41	34675.04
523.58	34148.42
523.75	34668.02
523.92	34981.65
524.10	34714.83
524.27	34389.49
524.44	34881.00
524.61	34665.67
524.78	34698.44
524.96	35468.48
525.13	35012.07
525.30	35452.09
525.47	35414.65
525.64	35206.34
525.81	35204.00
525.98	35543.38
526.16	35040.16
526.33	35304.64
526.50	35791.47
526.67	35211.02
526.84	35840.62
527.01	35651.04
527.18	35747.00
527.36	35424.01
527.53	36079.36
527.70	36154.26
527.87	36430.44
528.04	35838.28
528.21	36217.45
528.38	36093.40
528.55	36304.05
528.72	36119.15
528.89	36034.89
529.07	36091.06
529.24	36170.64
529.41	36598.96
529.58	36463.21
529.75	36151.91
529.92	36683.22
530.09	36708.96
530.26	36596.62
530.43	36575.55
530.60	36175.32
530.77	36704.28
530.94	36837.69
531.11	36797.90
531.28	37048.34
531.46	37132.60
531.63	37368.99
531.80	36889.18
531.97	37289.42
532.14	37598.37
532.31	37680.28
532.48	37577.30
532.65	37715.39
532.82	37120.90
532.99	37668.58
533.16	37605.39
533.33	37776.25
533.50	37914.34
533.67	37879.23
533.84	37703.69
534.01	37706.03
534.18	38043.07
534.35	38227.97
534.52	38330.95
534.69	38436.28
534.86	38363.72
535.03	37975.19
535.20	38553.30
535.37	38375.42
535.54	38735.87
535.71	38309.89
535.88	38623.52
536.05	38780.34
536.22	38993.32
536.38	38560.33
536.55	38532.24
536.72	38810.76
536.89	38513.52
537.06	38981.62
537.23	39110.35
537.40	38873.96
537.57	38726.50
537.74	38658.63
537.91	38845.87
538.08	39208.65
538.25	38768.63
538.42	39438.03
538.59	39690.80
538.75	39131.42
538.92	39243.76
539.09	39515.26
539.26	39323.34
539.43	39515.26
539.60	39615.91
539.77	39545.69
539.94	39885.07
540.11	39573.78
540.28	39892.09
540.44	39730.59
540.61	40053.59
540.78	40088.70
540.95	39585.48
541.12	39505.90
541.29	39590.16
541.46	39964.65
541.62	39428.66
541.79	40224.45
541.96	39552.71
542.13	39798.47
542.30	39892.09
542.47	39922.52
542.63	40435.10
542.80	40374.24
542.97	41053.00
543.14	40851.71
543.31	40428.07
543.48	40776.81
543.64	41249.60
543.81	40847.03
543.98	40814.26
544.15	41036.61
544.32	41088.10
544.48	41432.16
544.65	40978.10
544.82	40769.79
544.99	40985.12
545.16	41053.00
545.32	41027.25
545.49	41074.06
545.66	41832.39
545.83	41254.28
546.00	41490.68
546.16	41729.41
546.33	41446.21
546.50	40982.78
546.67	41703.67
546.83	41228.54
547.00	41404.08
547.17	41603.02
547.34	41710.69
547.50	41832.39
547.67	42394.12
547.84	42017.30
548.00	42176.45
548.17	42581.37
548.34	42136.66
548.51	42576.69
548.67	42103.90
548.84	42199.86
549.01	41743.45
549.18	41979.85
549.34	42445.62
549.51	42476.04
549.68	42600.09
549.84	42447.96
550.01	42267.73
550.18	42431.57
550.34	42263.05
550.51	42726.48
550.68	42412.85
550.84	42457.32
551.01	42520.51
551.18	42115.60
551.34	42658.60
551.51	42869.25
551.68	42714.78
551.84	42717.12
552.01	42543.92
552.18	42466.68
552.34	42777.97
552.51	42707.76
552.68	42752.23
552.84	42703.07
553.01	43044.79
553.18	43005.00
553.34	43072.88
553.51	43089.26
553.67	43185.22
553.84	43407.58
554.01	43433.32
554.17	43512.90
554.34	43896.75
554.51	43021.39
554.67	43636.95
554.84	43735.25
555.00	43386.51
555.17	43477.79
555.33	43761.00
555.50	43180.54
555.67	43386.51
555.83	43871.00
556.00	43597.16
556.16	44240.81
556.33	43646.31
556.50	43611.20
556.66	43777.38
556.83	43941.22
556.99	44175.27
557.16	43922.49
557.32	43842.92
557.49	43959.94
557.65	43550.35
557.82	43789.08
557.98	43786.74
558.15	44074.63
558.32	44257.19
558.48	43929.51
558.65	44182.29
558.81	44107.40
558.98	43803.13
559.14	44275.91
559.31	43878.02
559.47	43990.37
559.64	44144.84
559.80	44594.23
559.97	44367.20
560.13	44186.97
560.30	44364.85
560.46	44767.43
560.63	44083.99
560.79	44760.40
560.96	45064.67
561.12	44790.83
561.29	44584.86
561.45	44645.72
561.61	44378.90
561.78	44896.16
561.94	44252.51
562.11	44608.27
562.27	44414.01
562.44	44301.66
562.60	44774.45
562.77	44781.47
562.93	44601.25
563.10	44774.45
563.26	44741.68
563.42	45448.52
563.59	44603.59
563.75	44341.45
563.92	44683.17
564.08	44673.81
564.24	44989.78
564.41	45193.40
564.57	44842.32
564.74	44994.46
564.90	44720.62
565.07	45249.58
565.23	45092.76
565.39	44739.34
565.56	44919.56
565.72	45015.52
565.88	45158.30
566.05	45045.95
566.21	45013.18
566.38	45099.78
566.54	45287.03
566.70	45223.83
566.87	45083.40
567.03	44573.16
567.19	45298.73
567.36	45013.18
567.52	45429.80
567.68	45141.91
567.85	45209.79
568.01	45298.73
568.17	45045.95
568.34	45595.98
568.50	45263.62
568.66	44900.84
568.83	45492.99
568.99	45460.23
569.15	45317.45
569.32	45413.41
569.48	45071.70
569.64	45808.96
569.81	45481.29
569.97	45628.74
570.13	45411.07
570.30	45460.23
570.46	45532.78
570.62	45862.80
570.78	45219.15
570.95	45394.69
571.11	46202.18
571.27	45202.77
571.43	45759.81
571.60	45776.20
571.76	45640.45
571.92	45532.78
572.09	45666.19
572.25	45378.31
572.41	45495.33
572.57	45127.87
572.74	45984.51
572.90	45291.71
573.06	46209.20
573.22	45282.34
573.38	46146.00
573.55	46047.70
573.71	45991.53
573.87	45661.51
574.03	45736.41
574.20	46265.37
574.36	45689.60
574.52	46075.79
574.68	45694.28
574.84	46080.47
575.01	46136.64
575.17	45893.22
575.33	46307.50
575.49	45521.08
575.65	45874.50
575.82	46335.59
575.98	45759.81
576.14	46454.95
576.30	45944.72
576.46	46279.41
576.62	45961.10
576.79	45755.13
576.95	45523.42
577.11	46202.18
577.27	45652.15
577.43	45834.71
577.59	45998.55
577.75	45743.43
577.92	45790.24
578.08	45984.51
578.24	45993.87
578.40	46213.88
578.56	46380.06
578.72	45736.41
578.88	45937.69
579.04	45883.86
579.21	45666.19
579.37	46141.32
579.53	46050.04
579.69	46028.98
579.85	45860.46
580.01	45958.76
580.17	45872.16
580.33	46321.54
580.49	46073.45
580.65	45975.14
580.82	45762.15
580.98	46028.98
581.14	45691.94
581.30	46216.22
581.46	46213.88
581.62	46101.53
581.78	45888.54
581.94	46050.04
582.10	46169.41
582.26	46314.52
582.42	46094.51
582.58	45827.69
582.74	46258.35
582.90	45947.06
583.06	46298.14
583.22	45949.40
583.38	46263.03
583.54	45918.97
583.70	46141.32
583.86	46368.35
584.02	45694.28
584.18	46562.62
584.34	46571.98
584.50	46284.09
584.66	46534.53
584.82	46342.61
584.98	46562.62
585.14	46131.96
585.30	46043.02
585.46	46237.28
585.62	46122.60
585.78	46230.26
585.94	46038.34
586.10	45888.54
586.26	46234.94
586.42	46340.27
586.58	46323.88
586.74	46131.96
586.90	45687.26
587.06	46239.62
587.22	46506.44
587.38	46300.48
587.54	46663.26
587.70	46351.97
587.86	46607.09
588.02	46110.89
588.18	46162.39
588.34	46293.46
588.49	45918.97
588.65	46260.69
588.81	46623.47
588.97	46579.00
589.13	45904.93
589.29	46358.99
589.45	46871.57
589.61	46649.22
589.77	46684.33
589.93	46614.11
590.08	46745.18
