SpectraSuite Data File
++++++++++++++++++++++++++++++++++++
Date: Fri Oct 25 10:48:30 EDT 2013
User: price-jones
Dark Spectrum Present: No
Reference Spectrum Present: No
Number of Sampled Component Spectra: 1
Spectrometers: USB2+H05261
Integration Time (usec): 100000 (USB2+H05261)
Spectra Averaged: 1 (USB2+H05261)
Boxcar Smoothing: 0 (USB2+H05261)
Correct for Electrical Dark: No (USB2+H05261)
Strobe/Lamp Enabled: No (USB2+H05261)
Correct for Detector Non-linearity: No (USB2+H05261)
Correct for Stray Light: No (USB2+H05261)
Number of Pixels in Processed Spectrum: 2048
>>>>>Begin Processed Spectral Data<<<<<
365.73	189.58
365.92	189.58
366.12	189.58
366.32	49.15
366.52	128.73
366.72	9.36
366.91	32.77
367.11	46.81
367.31	46.81
367.51	84.26
367.70	23.41
367.90	0.00
368.10	0.00
368.30	46.81
368.49	49.15
368.69	100.64
368.89	28.09
369.09	46.81
369.28	161.50
369.48	88.94
369.68	133.41
369.87	105.32
370.07	119.37
370.27	124.05
370.47	215.33
370.66	407.25
370.86	421.30
371.06	444.70
371.25	587.47
371.45	456.40
371.65	418.96
371.84	440.02
372.04	468.11
372.24	535.98
372.44	475.13
372.63	545.34
372.83	524.28
373.03	538.32
373.22	566.41
373.42	470.45
373.62	603.86
373.81	589.82
374.01	634.29
374.21	599.18
374.40	552.37
374.60	599.18
374.79	594.50
374.99	587.47
375.19	498.53
375.38	589.82
375.58	571.09
375.78	573.43
375.97	681.10
376.17	622.58
376.37	662.37
376.56	617.90
376.76	678.76
376.95	704.50
377.15	559.39
377.35	627.26
377.54	685.78
377.74	657.69
377.93	720.88
378.13	720.88
378.33	744.29
378.52	669.39
378.72	596.84
378.91	678.76
379.11	667.05
379.31	676.41
379.50	601.52
379.70	720.88
379.89	753.65
380.09	791.10
380.28	713.86
380.48	711.52
380.68	720.88
380.87	725.57
381.07	751.31
381.26	767.70
381.46	763.01
381.65	802.80
381.85	697.48
382.04	669.39
382.24	709.18
382.43	706.84
382.63	763.01
382.83	812.17
383.02	713.86
383.22	770.04
383.41	692.80
383.61	812.17
383.80	870.68
384.00	844.93
384.19	823.87
384.39	828.55
384.58	873.02
384.78	767.70
384.97	830.89
385.17	798.12
385.36	833.23
385.56	800.46
385.75	835.57
385.95	917.49
386.14	854.30
386.34	814.51
386.53	842.59
386.72	830.89
386.92	870.68
387.11	983.02
387.31	950.26
387.50	807.48
387.70	875.36
387.89	945.58
388.09	887.06
388.28	936.21
388.48	940.90
388.67	945.58
388.86	992.39
389.06	973.66
389.25	943.24
389.45	1018.13
389.64	858.98
389.84	973.66
390.03	1081.33
390.22	1081.33
390.42	966.64
390.61	1050.90
390.81	1029.84
391.00	1100.05
391.19	1104.73
391.39	985.37
391.58	1081.33
391.78	1118.78
391.97	1135.16
392.16	1032.18
392.36	1081.33
392.55	1163.25
392.75	1095.37
392.94	1039.20
393.13	1008.77
393.33	1029.84
393.52	1116.44
393.71	1174.95
393.91	1163.25
394.10	1212.40
394.29	1200.69
394.49	1160.91
394.68	1235.80
394.88	1245.16
395.07	1289.64
395.26	1334.11
395.46	1280.27
395.65	1170.27
395.84	1282.61
396.04	1324.74
396.23	1203.04
396.42	1273.25
396.62	1221.76
396.81	1235.80
397.00	1266.23
397.19	1273.25
397.39	1284.95
397.58	1373.89
397.77	1507.30
397.97	1479.22
398.16	1444.11
398.35	1549.43
398.55	1561.14
398.74	1535.39
398.93	1549.43
399.12	1432.41
399.32	1565.82
399.51	1556.46
399.70	1582.20
399.90	1605.61
400.09	1584.54
400.28	1561.14
400.47	1657.10
400.67	1769.44
400.86	1701.57
401.05	1652.42
401.24	1603.27
401.44	1666.46
401.63	1750.72
401.82	1755.40
402.01	1703.91
402.21	1839.66
402.40	1774.13
402.59	1706.25
402.78	1757.74
402.97	1795.19
403.17	1739.02
403.36	1860.73
403.55	1816.26
403.74	1853.70
403.93	1907.54
404.13	1872.43
404.32	1870.09
404.51	1919.24
404.70	1968.39
404.89	1944.99
405.09	2071.37
405.28	1944.99
405.47	1954.35
405.66	1989.46
405.85	2012.86
406.05	2064.35
406.24	2022.22
406.43	2099.46
406.62	2090.10
406.81	2235.21
407.00	2094.78
407.20	2099.46
407.39	2160.31
407.58	2209.47
407.77	2296.07
407.96	2256.28
408.15	2333.51
408.34	2235.21
408.54	2401.39
408.73	2387.35
408.92	2265.64
409.11	2354.58
409.30	2377.98
409.49	2298.41
409.68	2331.17
409.87	2340.54
410.07	2335.85
410.26	2459.90
410.45	2424.80
410.64	2377.98
410.83	2621.40
411.02	2511.39
411.21	2605.02
411.40	2633.10
411.59	2569.91
411.78	2665.87
411.98	2640.12
412.17	2619.06
412.36	2757.15
412.55	2825.03
412.74	2759.49
412.93	2773.53
413.12	2857.79
413.31	2913.97
413.50	2853.11
413.69	2883.54
413.88	2930.35
414.07	2839.07
414.26	2988.86
414.45	3126.96
414.64	3033.33
414.83	3075.46
415.02	3098.87
415.22	3103.55
415.41	3164.40
415.60	3089.51
415.79	3197.17
415.98	3197.17
416.17	3286.11
416.36	3384.41
416.55	3314.20
416.74	3295.47
416.93	3169.09
417.12	3316.54
417.31	3412.50
417.50	3363.35
417.69	3562.30
417.88	3609.11
418.07	3438.25
418.26	3503.78
418.45	3527.19
418.64	3667.62
418.83	3588.04
419.02	3541.23
419.21	3641.87
419.39	3679.32
419.58	3613.79
419.77	3648.90
419.96	3548.25
420.15	3789.33
420.34	3716.77
420.53	3847.84
420.72	3768.26
420.91	3726.13
421.10	3751.88
421.29	3847.84
421.48	3789.33
421.67	3894.65
421.86	3911.04
422.05	3730.81
422.24	3786.99
422.43	3932.10
422.61	3826.78
422.80	3784.65
422.99	3882.95
423.18	3978.91
423.37	3976.57
423.56	3904.01
423.75	4100.62
423.94	4039.76
424.13	3698.05
424.32	3801.03
424.50	4030.40
424.69	4049.13
424.88	4058.49
425.07	3962.53
425.26	4032.74
425.45	4011.68
425.64	4107.64
425.83	4014.02
426.01	4016.36
426.20	4039.76
426.39	4081.89
426.58	3899.33
426.77	4100.62
426.96	3925.08
427.15	4117.00
427.33	4227.01
427.52	4086.58
427.71	4065.51
427.90	4182.54
428.09	4180.20
428.28	4177.86
428.46	4269.14
428.65	4297.22
428.84	4362.76
429.03	4292.54
429.22	4161.47
429.40	4156.79
429.59	4145.09
429.78	3990.61
429.97	4002.32
430.16	4198.92
430.34	4257.43
430.53	4205.94
430.72	4332.33
430.91	4257.43
431.10	4332.33
431.28	4519.57
431.47	4643.62
431.66	4741.93
431.85	4610.86
432.03	4744.27
432.22	4777.03
432.41	4688.09
432.60	4596.81
432.79	4748.95
432.97	4777.03
433.16	4858.95
433.35	4814.48
433.54	4683.41
433.72	4681.07
433.91	4702.14
434.10	4851.93
434.28	4901.08
434.47	4784.06
434.66	4973.64
434.85	5004.07
435.03	5032.15
435.22	5076.62
435.41	5177.26
435.59	5093.01
435.78	5088.32
435.97	5284.93
436.16	5238.12
436.34	5055.56
436.53	5151.52
436.72	5130.45
436.90	5193.65
437.09	5298.97
437.28	5125.77
437.46	5203.01
437.65	5090.67
437.84	5233.44
438.02	5268.55
438.21	5284.93
438.40	5259.18
438.58	5371.53
438.77	5495.58
438.96	5441.75
439.14	5682.82
439.33	5753.04
439.52	5748.36
439.70	5504.94
439.89	5825.59
440.08	5666.44
440.26	5792.83
440.45	5727.29
440.63	5870.06
440.82	6038.58
441.01	5860.70
441.19	6094.76
441.38	6324.13
441.57	6125.18
441.75	6043.26
441.94	6136.88
442.12	6413.07
442.31	6555.84
442.50	6443.49
442.68	6406.05
442.87	6530.09
443.05	6492.65
443.24	6670.53
443.43	6497.33
443.61	6448.18
443.80	6567.54
443.98	6377.96
444.17	6277.32
444.35	6506.69
444.54	6586.27
444.73	6513.71
444.91	6642.44
445.10	6520.73
445.28	6471.58
445.47	6490.31
445.65	6490.31
445.84	6509.03
446.02	6700.95
446.21	6614.35
446.39	6626.06
446.58	6754.79
446.77	6803.94
446.95	6817.98
447.14	6626.06
447.32	6757.13
447.51	6647.12
447.69	6736.06
447.88	6682.23
448.06	6743.08
448.25	6684.57
448.43	6857.77
448.62	6825.00
448.80	6630.74
448.99	6801.60
449.17	6942.03
449.36	6862.45
449.54	7192.47
449.73	7009.90
449.91	7213.53
450.10	7370.35
450.28	7316.51
450.46	7272.04
450.65	7215.87
450.83	7126.93
451.02	7236.94
451.20	7377.37
451.39	7269.70
451.57	7183.10
451.76	7344.60
451.94	7585.68
452.13	7337.58
452.31	7218.21
452.49	7267.36
452.68	7288.43
452.86	7229.91
453.05	7431.20
453.23	7569.29
453.42	7400.77
453.60	7358.64
453.78	7693.34
453.97	7318.86
454.15	7407.80
454.34	7463.97
454.52	7564.61
454.70	7683.98
454.89	7775.26
455.07	7658.23
455.26	7922.71
455.44	7896.97
455.62	7852.50
455.81	7840.79
455.99	7934.42
456.17	7791.64
456.36	8016.33
456.54	7922.71
456.73	8121.66
456.91	8226.98
457.09	8145.06
457.28	8379.12
457.46	7887.61
457.64	8119.32
457.83	8131.02
458.01	8063.15
458.19	8290.18
458.38	8276.13
458.56	8376.78
458.74	8407.20
458.93	8147.40
459.11	8301.88
459.29	8173.15
459.48	8360.39
459.66	8671.68
459.84	8601.47
460.03	8603.81
460.21	8484.44
460.39	8627.21
460.57	8486.78
460.76	8599.13
460.94	8629.56
461.12	8781.69
461.31	8648.28
461.49	8681.05
461.67	8720.84
461.85	8997.02
462.04	8777.01
462.22	9338.74
462.40	9071.92
462.59	8999.36
462.77	8891.70
462.95	9015.74
463.13	9006.38
463.32	9261.50
463.50	9095.32
463.68	9156.18
463.86	8980.64
464.05	8980.64
464.23	9170.22
464.41	9053.19
464.59	9032.13
464.78	9242.78
464.96	9074.26
465.14	9132.77
465.32	9338.74
465.50	9467.47
465.69	9448.74
465.87	9308.31
466.05	9158.52
466.23	9289.59
466.41	9144.47
466.60	9371.50
466.78	9277.88
466.96	9334.06
467.14	9444.06
467.32	9607.90
467.51	9652.37
467.69	9275.54
467.87	9341.08
468.05	9755.35
468.23	9701.52
468.41	9359.80
468.60	9502.58
468.78	9764.72
468.96	9544.70
469.14	9984.73
469.32	9879.40
469.50	9387.89
469.69	9914.51
469.87	9926.21
470.05	9900.47
470.23	9785.78
470.41	9886.42
470.59	10022.17
470.77	10003.45
470.95	9851.31
471.14	10115.80
471.32	9944.94
471.50	10349.85
471.68	10349.85
471.86	10462.19
472.04	10464.54
472.22	10710.29
472.40	10593.26
472.58	10490.28
472.77	10572.20
472.95	10541.77
473.13	10911.58
473.31	10827.32
473.49	10609.65
473.67	10665.82
473.85	10747.74
474.03	11084.78
474.21	11019.24
474.39	11190.10
474.57	11117.54
474.75	11389.05
474.93	11267.34
475.12	11339.90
475.30	11449.90
475.48	11335.21
475.66	11412.45
475.84	11449.90
476.02	11513.10
476.20	11456.92
476.38	11800.98
476.56	11962.48
476.74	11845.45
476.92	12053.76
477.10	12271.43
477.28	12105.25
477.46	12109.93
477.64	12601.44
477.82	12231.64
478.00	12428.24
478.18	12503.14
478.36	12566.34
478.54	12564.00
478.72	12952.52
478.90	12938.48
479.08	13195.94
479.26	13249.77
479.44	13453.40
479.62	13341.05
479.80	13355.10
479.98	13422.97
480.16	13715.54
480.34	13804.48
480.52	13881.72
480.70	13619.58
480.88	13855.97
481.06	14090.02
481.24	14129.81
481.41	14534.73
481.59	14459.83
481.77	14614.30
481.95	14464.51
482.13	14654.09
482.31	14785.16
482.49	14731.33
482.67	14960.70
482.85	15218.16
483.03	15140.93
483.21	15204.12
483.39	15695.63
483.57	15470.94
483.74	15590.31
483.92	15756.49
484.10	15597.33
484.28	16070.12
484.46	16194.17
484.64	16498.44
484.82	16002.24
485.00	16152.04
485.18	16641.21
485.35	16573.33
485.53	16521.84
485.71	16105.23
485.89	16552.27
486.07	16519.50
486.25	16727.81
486.43	16879.94
486.61	17123.36
486.78	17624.23
486.96	17617.21
487.14	17722.54
487.32	17668.70
487.50	17961.27
487.68	18438.74
487.85	18679.82
488.03	18672.79
488.21	18801.52
488.39	19026.21
488.57	19171.33
488.75	18609.60
488.92	19218.14
489.10	19777.53
489.28	19676.88
489.46	19749.44
489.64	19590.28
489.81	20252.66
489.99	20030.30
490.17	20500.75
490.35	20910.35
490.53	20367.34
490.70	20795.66
490.88	20435.22
491.06	21123.33
491.24	20821.41
491.41	20851.83
491.59	20938.43
491.77	21036.74
491.95	21350.37
492.13	21156.10
492.30	21785.71
492.48	21778.68
492.66	21930.82
492.84	21774.00
493.01	22527.66
493.19	22403.61
493.37	22583.83
493.54	22532.34
493.72	22967.68
493.90	22525.32
494.08	23051.94
494.25	23534.09
494.43	23662.82
494.61	23697.92
494.79	23777.50
494.96	23470.89
495.14	23700.26
495.32	24205.82
495.49	24130.92
495.67	24070.07
495.85	24528.81
496.02	24203.48
496.20	24659.88
496.38	24709.04
496.55	24687.97
496.73	25221.61
496.91	25326.94
497.09	25273.10
497.26	25441.62
497.44	25575.03
497.62	25238.00
497.79	25818.45
497.97	25230.98
498.14	25905.05
498.32	25495.46
498.50	26127.40
498.67	26216.34
498.85	26188.25
499.03	26324.01
499.20	26448.05
499.38	26820.20
499.56	26508.91
499.73	26721.90
499.91	26682.11
500.08	26855.31
500.26	26803.82
500.44	27105.74
500.61	27295.33
500.79	26658.70
500.97	27405.33
501.14	27166.60
501.32	27447.46
501.49	27077.66
501.67	27421.72
501.84	27950.68
502.02	27644.07
502.20	28130.90
502.37	28147.28
502.55	28091.11
502.72	27875.78
502.90	28215.16
503.07	28236.22
503.25	28414.10
503.43	28514.75
503.60	28280.69
503.78	28594.32
503.95	28512.41
504.13	28634.11
504.30	29078.82
504.48	28704.33
504.65	29355.00
504.83	29401.81
505.01	29528.20
505.18	29549.26
505.36	29799.70
505.53	29397.13
505.71	30127.38
505.88	30178.87
506.06	29699.06
506.23	29977.58
506.41	29860.55
506.58	30288.87
506.76	30134.40
506.93	30216.32
507.11	30263.13
507.28	30518.25
507.46	30115.67
507.63	30789.75
507.81	30646.97
507.98	30581.44
508.16	30567.40
508.33	31021.46
508.50	31192.32
508.68	31370.20
508.85	31669.79
509.03	31433.39
509.20	31405.31
509.38	31704.90
509.55	31868.73
509.73	31665.11
509.90	31789.16
510.08	31447.44
510.25	31761.07
510.42	31779.79
510.60	32135.56
510.77	32163.64
510.95	32442.17
511.12	32079.38
511.30	32655.15
511.47	32840.06
511.64	32952.40
511.82	33127.94
511.99	32718.35
512.17	32655.15
512.34	32519.40
512.51	33130.28
512.69	32900.91
512.86	33013.26
513.04	33628.82
513.21	33092.83
513.38	33350.29
513.56	33216.88
513.73	33010.92
513.90	33102.20
514.08	33605.41
514.25	33544.56
514.43	33951.81
514.60	33907.34
514.77	33834.78
514.95	33951.81
515.12	34202.25
515.29	34330.98
515.47	34192.89
515.64	34700.78
515.81	34366.09
515.99	33993.94
516.16	33996.28
516.33	34005.64
516.51	33912.02
516.68	33523.49
516.85	33586.69
517.03	34134.37
517.20	34270.12
517.37	34490.13
517.54	34728.87
517.72	34883.34
517.89	34202.25
518.06	34506.52
518.24	34684.40
518.41	34663.33
518.58	34796.74
518.75	35005.05
518.93	35611.25
519.10	35030.80
519.27	35304.64
519.45	35269.53
519.62	35693.17
519.79	35864.03
519.96	35915.52
520.14	35821.90
520.31	35522.31
520.48	35723.60
520.65	36046.59
520.83	36676.19
521.00	36680.88
521.17	36229.15
521.34	36177.66
521.52	36631.72
521.69	36435.12
521.86	36730.03
522.03	36444.48
522.20	36655.13
522.38	36959.40
522.55	37193.45
522.72	36605.98
522.89	36917.27
523.07	36975.78
523.24	37198.13
523.41	37015.57
523.58	37364.31
523.75	37404.10
523.92	37912.00
524.10	37689.65
524.27	37827.74
524.44	37741.14
524.61	38007.96
524.78	37710.71
524.96	37806.67
525.13	38326.27
525.30	37858.17
525.47	37991.58
525.64	37965.83
525.81	37797.31
525.98	38267.76
526.16	38122.65
526.33	37574.96
526.50	38181.16
526.67	37762.20
526.84	37862.85
527.01	38183.50
527.18	38679.69
527.36	38459.68
527.53	38532.24
527.70	38682.03
527.87	38726.50
528.04	38539.26
528.21	38932.47
528.38	38618.84
528.55	39138.44
528.72	39688.46
528.89	39489.52
529.07	38948.85
529.24	39119.71
529.41	39482.50
529.58	39328.02
529.75	39152.48
529.92	39826.56
530.09	39409.94
530.26	39700.17
530.43	39730.59
530.60	39550.37
530.77	40018.48
530.94	40203.38
531.11	39730.59
531.28	39718.89
531.46	40236.15
531.63	40456.16
531.80	39901.45
531.97	39686.12
532.14	40011.46
532.31	39468.45
532.48	40294.66
532.65	40299.34
532.82	39992.73
532.99	40385.94
533.16	40488.93
533.33	40882.14
533.50	40926.61
533.67	40498.29
533.84	39957.63
534.01	40596.59
534.18	40877.46
534.35	40942.99
534.52	40629.36
534.69	40718.30
534.86	41415.78
535.03	40811.92
535.20	41511.74
535.37	41691.96
535.54	41383.01
535.71	41263.64
535.88	41078.74
536.05	41069.38
536.22	41198.11
536.38	41659.20
536.55	41694.30
536.72	40893.84
536.89	41120.87
537.06	41263.64
537.23	41979.85
537.40	41357.27
537.57	41507.06
537.74	41298.75
537.91	41921.34
538.08	41940.06
538.25	41303.43
538.42	41724.73
538.59	41984.53
538.75	41537.49
538.92	42064.11
539.09	42148.37
539.26	41841.76
539.43	42190.50
539.60	42286.46
539.77	42164.75
539.94	42342.63
540.11	42099.22
540.28	41825.37
540.44	42160.07
540.61	42071.13
540.78	42024.32
540.95	42054.75
541.12	42469.02
541.29	42085.17
541.46	42157.73
541.62	42543.92
541.79	42424.55
541.96	42143.69
542.13	42251.35
542.30	42284.12
542.47	43030.75
542.63	42204.54
542.80	42899.68
542.97	43540.99
543.14	43103.31
543.31	42815.42
543.48	43328.00
543.64	43555.03
543.81	43601.84
543.98	43131.39
544.15	43395.87
544.32	43819.51
544.48	43545.67
544.65	43714.19
544.82	43349.06
544.99	43227.35
545.16	43206.29
545.32	43718.87
545.49	43723.55
545.66	43669.72
545.83	43805.47
546.00	44093.35
546.16	44058.24
546.33	43533.96
546.50	43917.81
546.67	44378.90
546.83	43236.72
547.00	43552.69
547.17	43765.68
547.34	44198.68
547.50	44002.07
547.67	44439.75
547.84	44037.18
548.00	44664.44
548.17	44919.56
548.34	43901.43
548.51	44196.34
548.67	44619.97
548.84	44500.61
549.01	44067.61
549.18	44149.53
549.34	44832.96
549.51	45055.31
549.68	44032.50
549.84	44285.28
550.01	44769.77
550.18	43856.96
550.34	44495.92
550.51	44432.73
550.68	44526.35
550.84	44231.44
551.01	44737.00
551.18	44861.05
551.34	44624.65
551.51	44868.07
551.68	44809.56
551.84	44521.67
552.01	45074.04
552.18	45010.84
552.34	44580.18
552.51	44968.71
552.68	44664.44
552.84	45015.52
553.01	45359.58
553.18	44868.07
553.34	45113.83
553.51	44989.78
553.67	44928.92
553.84	45406.39
554.01	45673.21
554.17	45830.03
554.34	45525.76
554.51	45464.91
554.67	45186.38
554.84	45584.27
555.00	44961.69
555.17	45385.33
555.33	44961.69
555.50	45277.66
555.67	45425.12
555.83	45214.47
556.00	45504.70
556.16	45638.11
556.33	45600.66
556.50	45640.45
556.66	45631.08
556.83	45483.63
556.99	45603.00
557.16	45528.10
557.32	46052.38
557.49	45909.61
557.65	45579.59
557.82	45441.50
557.98	45853.44
558.15	45691.94
558.32	45373.63
558.48	45801.94
558.65	45422.78
558.81	45769.18
558.98	45551.51
559.14	45544.48
559.31	45713.00
559.47	46181.11
559.64	45918.97
559.80	46169.41
559.97	45607.68
560.13	45525.76
560.30	45935.35
560.46	46052.38
560.63	45748.11
560.79	46298.14
560.96	46101.53
561.12	45808.96
561.29	46155.36
561.45	45961.10
561.61	46286.43
561.78	46117.92
561.94	46054.72
562.11	46153.02
562.27	46181.11
562.44	46176.43
562.60	46429.21
562.77	46532.19
562.93	46487.72
563.10	46473.68
563.26	45504.70
563.42	46476.02
563.59	46202.18
563.75	46363.67
563.92	46405.80
564.08	46380.06
564.24	46501.76
564.41	46550.91
564.57	46574.32
564.74	46185.79
564.90	46717.09
565.07	46113.23
565.23	46658.58
565.39	46227.92
565.56	46485.38
565.72	46483.04
565.88	46375.37
566.05	46665.60
566.21	46569.64
566.38	46560.28
566.54	46354.31
566.70	46478.36
566.87	47028.38
567.03	46597.73
567.19	47068.17
567.36	46398.78
567.52	46457.29
567.68	46740.50
567.85	46171.75
568.01	46646.88
568.17	46312.18
568.34	46499.42
568.50	46841.14
568.66	46085.15
568.83	46450.27
568.99	45890.88
569.15	46532.19
569.32	46424.53
569.48	46454.95
569.64	45886.20
569.81	46810.71
569.97	46401.12
570.13	46295.80
570.30	46342.61
570.46	46483.04
570.62	46176.43
570.78	46270.05
570.95	46433.89
571.11	46972.21
571.27	46181.11
571.43	46398.78
571.60	46637.51
571.76	46967.53
571.92	46522.83
572.09	46579.00
572.25	46667.94
572.41	46494.74
572.57	46623.47
572.74	46789.65
572.90	46911.36
573.06	46789.65
573.22	46939.44
573.38	47187.54
573.55	46529.85
573.71	47178.18
573.87	46899.65
574.03	46337.93
574.20	46937.10
574.36	46614.11
574.52	46806.03
574.68	46703.05
574.84	46747.52
575.01	46869.23
575.17	46799.01
575.33	46515.81
575.49	46396.44
575.65	47107.96
575.82	46635.17
575.98	47061.15
576.14	47384.15
576.30	47154.77
576.46	46476.02
576.62	46426.87
576.79	46520.49
576.95	46342.61
577.11	46579.00
577.27	46588.36
577.43	46925.40
577.59	46932.42
577.75	46684.33
577.92	46562.62
578.08	46106.21
578.24	46824.76
578.40	46920.72
578.56	46953.49
578.72	46630.49
578.88	46361.33
579.04	46965.19
579.21	46710.07
579.37	46349.63
579.53	47009.66
579.69	46576.66
579.85	46939.44
580.01	47044.77
580.17	46705.39
580.33	46761.56
580.49	47323.29
580.65	46990.94
580.82	46972.21
580.98	46443.25
581.14	46534.53
581.30	47166.48
581.46	46749.86
581.62	46791.99
581.78	46944.12
581.94	47306.91
582.10	46981.57
582.26	47292.86
582.42	46539.21
582.58	46932.42
582.74	46749.86
582.90	46747.52
583.06	47082.22
583.22	46883.27
583.38	47215.63
583.54	46766.24
583.70	47054.13
583.86	46576.66
584.02	46494.74
584.18	46981.57
584.34	47227.33
584.50	47124.35
584.66	46878.59
584.82	46632.83
584.98	47082.22
585.14	47147.75
585.30	46586.02
585.46	47185.20
585.62	46216.22
585.78	46588.36
585.94	46415.16
586.10	46803.69
586.26	46623.47
586.42	46967.53
586.58	47084.56
586.74	46740.50
586.90	46960.51
587.06	46607.09
587.22	47313.93
587.38	46513.47
587.54	47002.64
587.70	47033.07
587.86	47103.28
588.02	47000.30
588.18	47136.05
588.34	46611.77
588.49	46653.90
588.65	46291.12
588.81	46244.30
588.97	46356.65
589.13	46209.20
589.29	46717.09
589.45	46639.86
589.61	46461.97
589.77	46667.94
589.93	46618.79
