SpectraSuite Data File
++++++++++++++++++++++++++++++++++++
Date: Fri Oct 25 10:47:28 EDT 2013
User: price-jones
Dark Spectrum Present: No
Reference Spectrum Present: No
Number of Sampled Component Spectra: 1
Spectrometers: USB2+H05261
Integration Time (usec): 100000 (USB2+H05261)
Spectra Averaged: 1 (USB2+H05261)
Boxcar Smoothing: 0 (USB2+H05261)
Correct for Electrical Dark: No (USB2+H05261)
Strobe/Lamp Enabled: No (USB2+H05261)
Correct for Detector Non-linearity: No (USB2+H05261)
Correct for Stray Light: No (USB2+H05261)
Number of Pixels in Processed Spectrum: 2048
>>>>>Begin Processed Spectral Data<<<<<
365.73	88.94
365.92	88.94
366.12	88.94
366.32	44.47
366.52	100.64
366.72	77.24
366.91	100.64
367.11	77.24
367.31	0.00
367.51	35.11
367.70	35.11
367.90	86.60
368.10	23.41
368.30	60.85
368.49	18.72
368.69	63.19
368.89	53.83
369.09	114.69
369.28	86.60
369.48	32.77
369.68	39.79
369.87	107.66
370.07	114.69
370.27	152.13
370.47	163.84
370.66	390.87
370.86	451.72
371.06	463.43
371.25	416.62
371.45	442.36
371.65	440.02
371.84	421.30
372.04	414.27
372.24	470.45
372.44	451.72
372.63	554.71
372.83	524.28
373.03	430.66
373.22	519.60
373.42	496.19
373.62	592.16
373.81	547.69
374.01	559.39
374.21	517.26
374.40	507.90
374.60	587.47
374.79	535.98
374.99	603.86
375.19	561.73
375.38	540.66
375.58	552.37
375.78	601.52
375.97	606.20
376.17	634.29
376.37	624.92
376.56	552.37
376.76	613.22
376.95	505.56
377.15	620.24
377.35	667.05
377.54	655.35
377.74	582.79
377.93	545.34
378.13	594.50
378.33	624.92
378.52	603.86
378.72	667.05
378.91	564.07
379.11	645.99
379.31	638.97
379.50	662.37
379.70	699.82
379.89	554.71
380.09	645.99
380.28	657.69
380.48	636.63
380.68	622.58
380.87	669.39
381.07	671.73
381.26	692.80
381.46	643.65
381.65	727.91
381.85	648.33
382.04	617.90
382.24	599.18
382.43	622.58
382.63	718.54
382.83	720.88
383.02	664.71
383.22	688.12
383.41	667.05
383.61	678.76
383.80	746.63
384.00	755.99
384.19	650.67
384.39	690.46
384.58	692.80
384.78	779.40
384.97	779.40
385.17	671.73
385.36	760.67
385.56	716.20
385.75	732.59
385.95	723.23
386.14	854.30
386.34	800.46
386.53	788.76
386.72	837.91
386.92	781.74
387.11	894.08
387.31	828.55
387.50	870.68
387.70	807.48
387.89	847.27
388.09	786.42
388.28	877.70
388.48	875.36
388.67	851.96
388.86	774.72
389.06	784.08
389.25	858.98
389.45	910.47
389.64	854.30
389.84	884.72
390.03	877.70
390.22	964.30
390.42	884.72
390.61	880.04
390.81	992.39
391.00	943.24
391.19	1015.79
391.39	870.68
391.58	990.05
391.78	924.51
391.97	999.41
392.16	999.41
392.36	922.17
392.55	957.28
392.75	940.90
392.94	983.02
393.13	891.74
393.33	896.43
393.52	924.51
393.71	1048.56
393.91	1121.12
394.10	1025.15
394.29	1015.79
394.49	1069.62
394.68	1074.31
394.88	1060.26
395.07	1146.86
395.26	1001.75
395.46	1064.94
395.65	1165.59
395.84	1132.82
396.04	1104.73
396.23	1086.01
396.42	1029.84
396.62	1125.80
396.81	1128.14
397.00	1121.12
397.19	1111.75
397.39	1254.53
397.58	1149.20
397.77	1135.16
397.97	1273.25
398.16	1198.35
398.35	1242.82
398.55	1174.95
398.74	1205.38
398.93	1263.89
399.12	1313.04
399.32	1289.64
399.51	1329.42
399.70	1303.68
399.90	1343.47
400.09	1362.19
400.28	1465.18
400.47	1423.05
400.67	1476.88
400.86	1444.11
401.05	1397.30
401.24	1383.26
401.44	1404.32
401.63	1352.83
401.82	1432.41
402.01	1371.55
402.21	1444.11
402.40	1572.84
402.59	1533.05
402.78	1481.56
402.97	1547.09
403.17	1502.62
403.36	1528.37
403.55	1549.43
403.74	1689.87
403.93	1645.40
404.13	1570.50
404.32	1584.54
404.51	1565.82
404.70	1671.14
404.89	1643.06
405.09	1657.10
405.28	1631.35
405.47	1736.68
405.66	1699.23
405.85	1729.66
406.05	1689.87
406.24	1762.42
406.43	1783.49
406.62	1769.44
406.81	1820.94
407.00	1813.92
407.20	1689.87
407.39	1797.53
407.58	1874.77
407.77	1928.60
407.96	1771.79
408.15	1900.52
408.34	1973.07
408.54	1923.92
408.73	1839.66
408.92	1973.07
409.11	1989.46
409.30	2005.84
409.49	1919.24
409.68	1905.20
409.87	2001.16
410.07	1977.75
410.26	2050.31
410.45	2045.63
410.64	2090.10
410.83	2129.89
411.02	2200.10
411.21	2153.29
411.40	2289.04
411.59	2303.09
411.78	2136.91
411.98	2225.85
412.17	2263.30
412.36	2331.17
412.55	2267.98
412.74	2380.32
412.93	2377.98
413.12	2293.72
413.31	2532.46
413.50	2387.35
413.69	2476.29
413.88	2469.27
414.07	2511.39
414.26	2513.74
414.45	2576.93
414.64	2609.70
414.83	2679.91
415.02	2640.12
415.22	2658.85
415.41	2670.55
415.60	2703.32
415.79	2778.22
415.98	2771.19
416.17	2768.85
416.36	2822.69
416.55	2848.43
416.74	2789.92
416.93	2841.41
417.12	2801.62
417.31	2871.84
417.50	2986.52
417.69	3028.65
417.88	2988.86
418.07	2906.95
418.26	2984.18
418.45	2930.35
418.64	3143.34
418.83	3105.89
419.02	3129.30
419.21	3016.95
419.39	3141.00
419.58	3133.98
419.77	3035.67
419.96	3227.60
420.15	3328.24
420.34	3304.84
420.53	3283.77
420.72	3187.81
420.91	3267.39
421.10	3337.60
421.29	3323.56
421.48	3272.07
421.67	3300.16
421.86	3442.93
422.05	3314.20
422.24	3283.77
422.43	3499.10
422.61	3365.69
422.80	3463.99
422.99	3407.82
423.18	3480.38
423.37	3438.25
423.56	3531.87
423.75	3475.70
423.94	3426.54
424.13	3187.81
424.32	3435.91
424.50	3475.70
424.69	3463.99
424.88	3529.53
425.07	3410.16
425.26	3318.88
425.45	3524.85
425.64	3454.63
425.83	3351.65
426.01	3449.95
426.20	3541.23
426.39	3655.92
426.58	3485.06
426.77	3548.25
426.96	3604.42
427.15	3548.25
427.33	3637.19
427.52	3625.49
427.71	3672.30
427.90	3634.85
428.09	3716.77
428.28	3761.24
428.46	3688.68
428.65	3651.24
428.84	3784.65
429.03	3906.35
429.22	3665.28
429.40	3730.81
429.59	3691.02
429.78	3660.60
429.97	3698.05
430.16	3637.19
430.34	3691.02
430.53	3845.50
430.72	3882.95
430.91	3765.92
431.10	3749.54
431.28	3950.82
431.47	3988.27
431.66	4088.92
431.85	3941.46
432.03	4198.92
432.22	4028.06
432.41	4170.83
432.60	4159.13
432.79	4161.47
432.97	4187.22
433.16	4182.54
433.35	4159.13
433.54	4189.56
433.72	4243.39
433.91	4245.73
434.10	4358.08
434.28	4257.43
434.47	4276.16
434.66	4304.25
434.85	4304.25
435.03	4393.19
435.22	4353.40
435.41	4397.87
435.59	4381.48
435.78	4404.89
435.97	4622.56
436.16	4559.36
436.34	4505.53
436.53	4535.96
436.72	4568.73
436.90	4374.46
437.09	4573.41
437.28	4655.33
437.46	4578.09
437.65	4531.28
437.84	4608.51
438.02	4381.48
438.21	4596.81
438.40	4606.17
438.58	4690.43
438.77	5029.81
438.96	4772.35
439.14	4926.83
439.33	4961.94
439.52	4919.81
439.70	4931.51
439.89	5102.37
440.08	4964.28
440.26	5050.88
440.45	5057.90
440.63	5013.43
440.82	5198.33
441.01	5254.50
441.19	5322.38
441.38	5380.89
441.57	5245.14
441.75	5390.25
441.94	5589.20
442.12	5589.20
442.31	5659.42
442.50	5586.86
442.68	5465.15
442.87	5518.98
443.05	5551.75
443.24	5544.73
443.43	5579.84
443.61	5760.06
443.80	5767.08
443.98	5582.18
444.17	5408.98
444.35	5706.23
444.54	5746.02
444.73	5755.38
444.91	5682.82
445.10	5699.20
445.28	5671.12
445.47	5781.12
445.65	5708.57
445.84	5746.02
446.02	5795.17
446.21	5640.69
446.39	5645.37
446.58	5741.33
446.77	5795.17
446.95	5722.61
447.14	5830.27
447.32	5930.92
447.51	5762.40
447.69	5935.60
447.88	5973.05
448.06	5881.77
448.25	5853.68
448.43	5928.58
448.62	5856.02
448.80	6008.16
448.99	5996.45
449.17	6106.46
449.36	5977.73
449.54	6052.63
449.73	6104.12
449.91	6143.91
450.10	6303.06
450.28	6174.33
450.46	6326.47
450.65	6207.10
450.83	6366.26
451.02	6160.29
451.20	6300.72
451.39	6324.13
451.57	6069.01
451.76	6485.62
451.94	6464.56
452.13	6293.70
452.31	6253.91
452.49	6235.19
452.68	6354.55
452.86	6361.58
453.05	6654.14
453.23	6478.60
453.42	6375.62
453.60	6382.64
453.78	6560.52
453.97	6366.26
454.15	6569.88
454.34	6417.75
454.52	6516.05
454.70	6665.85
454.89	6691.59
455.07	6612.01
455.26	6740.74
455.44	6775.85
455.62	6633.08
455.81	6736.06
455.99	6832.02
456.17	6740.74
456.36	6967.77
456.54	6956.07
456.73	7045.01
456.91	7140.97
457.09	7162.04
457.28	7108.21
457.46	6939.69
457.64	7110.55
457.83	7197.15
458.01	7049.69
458.19	7293.11
458.38	7082.46
458.56	7279.07
458.74	7171.40
458.93	7178.42
459.11	7241.62
459.29	7360.98
459.48	7398.43
459.66	7297.79
459.84	7459.29
460.03	7318.86
460.21	7396.09
460.39	7382.05
460.57	7662.91
460.76	7463.97
460.94	7583.34
461.12	7707.38
461.31	7770.58
461.49	7541.21
461.67	7698.02
461.85	7681.64
462.04	7719.09
462.22	8079.53
462.40	7901.65
462.59	7826.75
462.77	7850.16
462.95	7964.84
463.13	7974.21
463.32	7936.76
463.50	7805.69
463.68	8088.89
463.86	8077.19
464.05	7712.07
464.23	7990.59
464.41	7922.71
464.59	7936.76
464.78	8152.09
464.96	8011.65
465.14	7836.11
465.32	8009.31
465.50	8187.19
465.69	8046.76
465.87	8074.85
466.05	8294.86
466.23	7978.89
466.41	8290.18
466.60	8381.46
466.78	8189.53
466.96	8154.43
467.14	8189.53
467.32	8334.65
467.51	8444.65
467.69	8149.75
467.87	8388.48
468.05	8568.70
468.23	8336.99
468.41	8582.74
468.60	8411.89
468.78	8643.60
468.96	8517.21
469.14	8718.50
469.32	8674.03
469.50	8470.40
469.69	8603.81
469.87	8835.52
470.05	8814.46
470.23	8695.09
470.41	8683.39
470.59	8800.41
470.77	8702.11
470.95	8767.65
471.14	9004.04
471.32	8692.75
471.50	9280.22
471.68	9004.04
471.86	9188.94
472.04	9235.75
472.22	9352.78
472.40	9163.20
472.58	9207.67
472.77	9221.71
472.95	9348.10
473.13	9556.41
473.31	9415.98
473.49	9673.43
473.67	9600.88
473.85	9493.21
474.03	9762.37
474.21	9785.78
474.39	9724.93
474.57	9680.46
474.75	9591.52
474.93	10036.22
475.12	9944.94
475.30	10176.65
475.48	9902.81
475.66	10209.42
475.84	10267.93
476.02	10427.09
476.20	10176.65
476.38	10380.28
476.56	10406.02
476.74	10574.54
476.92	10377.94
477.10	10305.38
477.28	10654.12
477.46	10555.82
477.64	10782.85
477.82	10707.95
478.00	11428.84
478.18	11143.29
478.36	11316.49
478.54	11332.87
478.72	11316.49
478.90	11377.34
479.08	11686.29
479.26	11648.85
479.44	11854.81
479.62	11698.00
479.80	12042.06
479.98	11953.12
480.16	12336.96
480.34	12311.22
480.52	12276.11
480.70	12299.52
480.88	11910.99
481.06	12400.16
481.24	12477.40
481.41	12688.04
481.59	12929.12
481.77	12894.01
481.95	12781.67
482.13	12844.86
482.31	13121.04
482.49	13298.92
482.67	13174.88
482.85	13411.27
483.03	13453.40
483.21	13694.47
483.39	13668.73
483.57	13816.18
483.74	14071.30
483.92	14150.88
484.10	13830.23
484.28	14211.73
484.46	14413.02
484.64	14792.19
484.82	14314.72
485.00	14434.08
485.18	14979.43
485.35	14827.29
485.53	14745.38
485.71	14991.13
485.89	15199.44
486.07	15232.21
486.25	15225.18
486.43	15272.00
486.61	15405.41
486.78	15534.14
486.96	15517.75
487.14	15648.82
487.32	16081.82
487.50	16276.09
487.68	16372.05
487.85	16465.67
488.03	16566.31
488.21	16877.60
488.39	16765.26
488.57	17083.57
488.75	17085.91
488.92	17427.63
489.10	17589.13
489.28	17731.90
489.46	17671.04
489.64	17717.86
489.81	18216.39
489.99	17958.93
490.17	18033.83
490.35	18167.24
490.53	18356.82
490.70	18658.75
490.88	18588.53
491.06	18548.75
491.24	18642.37
491.41	18630.66
491.59	19166.65
491.77	18497.25
491.95	19295.38
492.13	19484.96
492.30	19697.95
492.48	19531.77
492.66	19749.44
492.84	19772.85
493.01	20039.67
493.19	19953.07
493.37	20152.01
493.54	20388.41
493.72	20240.95
493.90	20329.89
494.08	20486.71
494.25	20666.93
494.43	20994.61
494.61	21163.12
494.79	21193.55
494.96	21081.21
495.14	21167.80
495.32	21439.31
495.49	21411.22
495.67	21357.39
495.85	21490.80
496.02	21867.63
496.20	21886.35
496.38	22012.74
496.55	22146.15
496.73	22427.01
496.91	22235.09
497.09	22745.33
497.26	22691.49
497.44	22487.87
497.62	22871.72
497.79	22946.61
497.97	22909.16
498.14	22911.50
498.32	23096.41
498.50	23234.50
498.67	23625.37
498.85	23653.45
499.03	23587.92
499.20	23751.76
499.38	23955.38
499.56	23948.36
499.73	23960.06
499.91	23936.66
500.08	24299.44
500.26	24201.14
500.44	24313.48
500.61	24102.84
500.79	24322.85
500.97	24739.46
501.14	25097.56
501.32	25151.40
501.49	24797.98
501.67	24872.87
501.84	24992.24
502.02	24882.24
502.20	25064.80
502.37	25551.63
502.55	25069.48
502.72	25418.22
502.90	25537.59
503.07	25460.35
503.25	25518.86
503.43	25766.96
503.60	25603.12
503.78	25720.15
503.95	25926.11
504.13	25916.75
504.30	25993.99
504.48	26064.21
504.65	26487.84
504.83	26691.47
505.01	26766.37
505.18	26471.46
505.36	26654.02
505.53	26522.95
505.71	27173.62
505.88	26937.23
506.06	27009.78
506.23	27119.79
506.41	26934.88
506.58	27037.87
506.76	27227.45
506.93	27459.16
507.11	27501.29
507.28	27718.96
507.46	27253.20
507.63	27351.50
507.81	27880.46
507.98	27480.23
508.16	27768.12
508.33	28308.78
508.50	28182.39
508.68	28116.86
508.85	28507.72
509.03	28285.37
509.20	28166.01
509.38	28622.41
509.55	28709.01
509.73	28596.67
509.90	28980.51
510.08	28315.80
510.25	28685.61
510.42	28931.36
510.60	28966.47
510.77	29287.12
510.95	29144.35
511.12	29383.09
511.30	29469.69
511.47	29628.84
511.64	29544.58
511.82	29715.44
511.99	29647.57
512.17	29996.31
512.34	29708.42
512.51	29984.60
512.69	30061.84
512.86	30455.05
513.04	30305.26
513.21	30169.51
513.38	30354.41
513.56	30218.66
513.73	30162.48
513.90	30349.73
514.08	30625.91
514.25	30375.47
514.43	30291.21
514.60	30443.35
514.77	30808.47
514.95	30773.36
515.12	30838.90
515.29	31236.79
515.47	31260.20
515.64	31381.90
515.81	30979.33
515.99	31421.69
516.16	31021.46
516.33	31267.22
516.51	31503.61
516.68	30899.75
516.85	31115.08
517.03	31384.24
517.20	31569.15
517.37	31711.92
517.54	31796.18
517.72	32123.85
517.89	31765.75
518.06	31901.50
518.24	31782.13
518.41	31695.53
518.58	32109.81
518.75	32158.96
518.93	32055.98
519.10	32444.51
519.27	32683.24
519.45	32063.00
519.62	32313.44
519.79	32793.25
519.96	32734.73
520.14	33071.77
520.31	32723.03
520.48	32708.99
520.65	32734.73
520.83	33158.37
521.00	33291.78
521.17	33270.72
521.34	33399.44
521.52	33418.17
521.69	33415.83
521.86	33518.81
522.03	33331.57
522.20	33502.43
522.38	34174.16
522.55	34071.18
522.72	33741.16
522.89	33392.42
523.07	34373.11
523.24	33795.00
523.41	34120.33
523.58	33888.62
523.75	34164.80
523.92	34366.09
524.10	34555.67
524.27	34586.10
524.44	34581.42
524.61	34763.98
524.78	34689.08
524.96	34532.26
525.13	35021.44
525.30	35480.18
525.47	35283.58
525.64	34728.87
525.81	35304.64
525.98	35157.19
526.16	34780.36
526.33	34705.46
526.50	35505.93
526.67	34831.85
526.84	34998.03
527.01	34888.03
527.18	35220.38
527.36	35681.47
527.53	35557.42
527.70	35931.90
527.87	35754.02
528.04	35627.63
528.21	35744.66
528.38	35676.79
528.55	36137.87
528.72	36027.87
528.89	36201.07
529.07	36018.50
529.24	35803.17
529.41	36252.56
529.58	35629.98
529.75	36048.93
529.92	36334.48
530.09	36158.94
530.26	36444.48
530.43	36842.37
530.60	36385.97
530.77	36245.54
530.94	36999.19
531.11	36730.03
531.28	36500.65
531.46	37006.21
531.63	36844.71
531.80	36760.45
531.97	37329.20
532.14	37240.26
532.31	37085.79
532.48	36814.29
532.65	36830.67
532.82	37015.57
532.99	37518.79
533.16	37207.50
533.33	37371.33
533.50	37563.26
533.67	37443.89
533.84	37294.10
534.01	37270.69
534.18	37296.44
534.35	38040.73
534.52	37907.32
534.69	37794.97
534.86	38237.33
535.03	37376.01
535.20	37759.86
535.37	38176.48
535.54	38124.99
535.71	37748.16
535.88	37825.40
536.05	37984.55
536.22	38181.16
536.38	37944.76
536.55	38270.10
536.72	38195.20
536.89	38333.29
537.06	38249.03
537.23	38590.75
537.40	38143.71
537.57	38679.69
537.74	38335.63
537.91	38696.08
538.08	38443.30
538.25	38501.81
538.42	38499.47
538.59	38974.60
538.75	38937.15
538.92	38595.43
539.09	39363.13
539.26	38829.49
539.43	38759.27
539.60	38911.41
539.77	38576.71
539.94	39159.50
540.11	38813.10
540.28	38892.68
540.44	38888.00
540.61	39061.20
540.78	38944.17
540.95	39068.22
541.12	39159.50
541.29	38733.53
541.46	39014.39
541.62	39440.37
541.79	39351.43
541.96	39405.26
542.13	39466.11
542.30	39477.82
542.47	39409.94
542.63	39503.56
542.80	39910.82
542.97	40179.98
543.14	40500.63
543.31	40189.34
543.48	39824.22
543.64	40818.94
543.81	40196.36
543.98	40032.52
544.15	40002.10
544.32	40416.37
544.48	40919.59
544.65	40512.33
544.82	40418.71
544.99	40048.91
545.16	40821.28
545.32	39992.73
545.49	40374.24
545.66	40470.20
545.83	40858.73
546.00	41024.91
546.16	40708.94
546.33	40360.20
546.50	40456.16
546.67	40884.48
546.83	40514.67
547.00	40545.10
547.17	40540.42
547.34	40814.26
547.50	41006.19
547.67	41083.42
547.84	41186.41
548.00	41263.64
548.17	41120.87
548.34	41041.29
548.51	41301.09
548.67	41055.34
548.84	41511.74
549.01	41277.69
549.18	41165.34
549.34	41516.42
549.51	41488.34
549.68	41523.44
549.84	41439.18
550.01	41792.61
550.18	41478.97
550.34	41553.87
550.51	41137.26
550.68	41460.25
550.84	41144.28
551.01	41661.54
551.18	41378.33
551.34	41647.49
551.51	42117.94
551.68	41706.01
551.84	42241.99
552.01	41776.22
552.18	41911.97
552.34	41563.23
552.51	42241.99
552.68	42014.96
552.84	42274.76
553.01	42052.41
553.18	41963.46
553.34	42244.33
553.51	41811.33
553.67	41881.55
553.84	42260.71
554.01	42216.24
554.17	42124.96
554.34	42644.56
554.51	42499.45
554.67	42398.80
554.84	42478.38
555.00	42499.45
555.17	42527.53
555.33	42499.45
555.50	42864.57
555.67	42705.41
555.83	42471.36
556.00	42574.34
556.16	43133.73
556.33	42836.48
556.50	42731.16
556.66	42866.91
556.83	42302.84
556.99	42911.38
557.16	42689.03
557.32	42476.04
557.49	43126.71
557.65	42398.80
557.82	43100.97
557.98	42749.88
558.15	42682.01
558.32	43077.56
558.48	43187.56
558.65	42979.26
558.81	42796.70
558.98	43133.73
559.14	43189.91
559.31	43026.07
559.47	42834.14
559.64	43084.58
559.80	43320.98
559.97	43491.83
560.13	43072.88
560.30	42691.37
560.46	43105.65
560.63	43187.56
560.79	43180.54
560.96	43620.56
561.12	43145.44
561.29	43180.54
561.45	43721.21
561.61	43196.93
561.78	43459.07
561.94	43182.88
562.11	43033.09
562.27	43353.74
562.44	43405.23
562.60	43702.48
562.77	43686.10
562.93	42951.17
563.10	43508.22
563.26	43274.16
563.42	43370.13
563.59	43358.42
563.75	43658.01
563.92	43545.67
564.08	43332.68
564.24	43948.24
564.41	43501.20
564.57	43438.00
564.74	43529.28
564.90	43606.52
565.07	43538.65
565.23	43484.81
565.39	43597.16
565.56	43604.18
565.72	43428.64
565.88	43325.66
566.05	43772.70
566.21	43304.59
566.38	43585.46
566.54	43522.26
566.70	44076.97
566.87	43906.11
567.03	43456.73
567.19	44130.80
567.36	43955.26
567.52	43454.39
567.68	44161.23
567.85	43908.45
568.01	44133.14
568.17	43402.89
568.34	44074.63
568.50	43948.24
568.66	43938.88
568.83	44198.68
568.99	43920.15
569.15	43697.80
569.32	43714.19
569.48	43356.08
569.64	44055.90
569.81	44039.52
569.97	44105.06
570.13	44215.06
570.30	43550.35
570.46	43842.92
570.62	43789.08
570.78	43775.04
570.95	43768.02
571.11	44292.30
571.27	43957.60
571.43	43959.94
571.60	44025.48
571.76	43908.45
571.92	43988.03
572.09	43761.00
572.25	43906.11
572.41	43852.28
572.57	43922.49
572.74	44755.72
572.90	44362.51
573.06	44165.91
573.22	43679.08
573.38	44332.09
573.55	43971.64
573.71	44238.47
573.87	43821.85
574.03	43885.04
574.20	44233.78
574.36	43742.27
574.52	44524.01
574.68	44229.10
574.84	44509.97
575.01	44119.10
575.17	44135.48
575.33	44215.06
575.49	44292.30
575.65	44584.86
575.82	44397.62
575.98	43906.11
576.14	44575.50
576.30	43973.98
576.46	44470.18
576.62	43756.32
576.79	43856.96
576.95	44121.44
577.11	44444.43
577.27	44390.60
577.43	43992.71
577.59	44666.78
577.75	44133.14
577.92	43896.75
578.08	44271.23
578.24	44271.23
578.40	44243.15
578.56	44123.78
578.72	44257.19
578.88	44285.28
579.04	44477.20
579.21	44315.70
579.37	44416.35
579.53	44210.38
579.69	44313.36
579.85	43910.79
580.01	44488.90
580.17	44016.11
580.33	44570.82
580.49	44509.97
580.65	44308.68
580.82	44231.44
580.98	44772.11
581.14	44091.01
581.30	44219.74
581.46	44147.18
581.62	44591.89
581.78	43882.70
581.94	44172.93
582.10	44245.49
582.26	44414.01
582.42	44451.45
582.58	44266.55
582.74	44238.47
582.90	44311.02
583.06	44332.09
583.22	44671.46
583.38	44315.70
583.54	44713.59
583.70	44252.51
583.86	44505.29
584.02	44135.48
584.18	44186.97
584.34	44727.64
584.50	44528.69
584.66	43971.64
584.82	44411.67
584.98	44662.10
585.14	44376.56
585.30	44137.82
585.46	43950.58
585.62	44306.34
585.78	44612.95
585.94	43976.33
586.10	43988.03
586.26	44336.77
586.42	43992.71
586.58	44645.72
586.74	44800.19
586.90	44093.35
587.06	44418.69
587.22	44676.15
587.38	44177.61
587.54	44800.19
587.70	44472.52
587.86	44809.56
588.02	44753.38
588.18	44306.34
588.34	44896.16
588.49	44055.90
588.65	43920.15
588.81	44261.87
588.97	44472.52
589.13	44439.75
589.29	44416.35
589.45	44589.55
589.61	44725.30
589.77	44893.82
589.93	44392.94
590.08	44938.29
590.24	45371.28
