SpectraSuite Data File
++++++++++++++++++++++++++++++++++++
Date: Fri Oct 25 11:26:41 EDT 2013
User: price-jones
Dark Spectrum Present: No
Reference Spectrum Present: No
Number of Sampled Component Spectra: 1
Spectrometers: USB2+H05261
Integration Time (usec): 100000 (USB2+H05261)
Spectra Averaged: 1 (USB2+H05261)
Boxcar Smoothing: 0 (USB2+H05261)
Correct for Electrical Dark: No (USB2+H05261)
Strobe/Lamp Enabled: No (USB2+H05261)
Correct for Detector Non-linearity: No (USB2+H05261)
Correct for Stray Light: No (USB2+H05261)
Number of Pixels in Processed Spectrum: 2048
>>>>>Begin Processed Spectral Data<<<<<
365.73	262.14
365.92	262.14
366.12	262.14
366.32	156.82
366.52	147.45
366.72	196.60
366.91	100.64
367.11	166.18
367.31	175.54
367.51	107.66
367.70	84.26
367.90	163.84
368.10	77.24
368.30	140.43
368.49	84.26
368.69	208.31
368.89	208.31
369.09	138.09
369.28	147.45
369.48	210.65
369.68	231.71
369.87	194.26
370.07	210.65
370.27	250.44
370.47	306.61
370.66	629.60
370.86	702.16
371.06	678.76
371.25	648.33
371.45	697.48
371.65	739.61
371.84	648.33
372.04	678.76
372.24	720.88
372.44	664.71
372.63	753.65
372.83	765.36
373.03	814.51
373.22	753.65
373.42	767.70
373.62	849.61
373.81	830.89
374.01	765.36
374.21	807.48
374.40	805.14
374.60	828.55
374.79	854.30
374.99	802.80
375.19	748.97
375.38	894.08
375.58	786.42
375.78	770.04
375.97	807.48
376.17	877.70
376.37	784.08
376.56	891.74
376.76	877.70
376.95	947.92
377.15	978.34
377.35	898.77
377.54	910.47
377.74	884.72
377.93	959.62
378.13	873.02
378.33	929.19
378.52	976.00
378.72	936.21
378.91	994.73
379.11	912.81
379.31	882.38
379.50	950.26
379.70	1001.75
379.89	1022.81
380.09	926.85
380.28	1053.24
380.48	1020.47
380.68	1032.18
380.87	959.62
381.07	1015.79
381.26	1078.99
381.46	1137.50
381.65	1055.58
381.85	1074.31
382.04	1027.50
382.24	1118.78
382.43	1107.07
382.63	1156.22
382.83	1041.54
383.02	1001.75
383.22	1090.69
383.41	1086.01
383.61	1107.07
383.80	1167.93
384.00	1104.73
384.19	1165.59
384.39	1053.24
384.58	1097.71
384.78	1252.19
384.97	1203.04
385.17	1135.16
385.36	1151.54
385.56	1132.82
385.75	1179.63
385.95	1263.89
386.14	1277.93
386.34	1167.93
386.53	1242.82
386.72	1160.91
386.92	1254.53
387.11	1242.82
387.31	1259.21
387.50	1299.00
387.70	1287.29
387.89	1252.19
388.09	1301.34
388.28	1308.36
388.48	1238.14
388.67	1270.91
388.86	1451.13
389.06	1336.45
389.25	1371.55
389.45	1406.66
389.64	1268.57
389.84	1434.75
390.03	1437.09
390.22	1366.87
390.42	1472.20
390.61	1416.02
390.81	1481.56
391.00	1376.24
391.19	1465.18
391.39	1556.46
391.58	1488.58
391.78	1458.15
391.97	1432.41
392.16	1397.30
392.36	1483.90
392.55	1519.01
392.75	1495.60
392.94	1507.30
393.13	1511.99
393.33	1472.20
393.52	1533.05
393.71	1699.23
393.91	1626.67
394.10	1556.46
394.29	1638.38
394.49	1598.59
394.68	1621.99
394.88	1577.52
395.07	1675.82
395.26	1727.32
395.46	1682.85
395.65	1706.25
395.84	1741.36
396.04	1792.85
396.23	1783.49
396.42	1832.64
396.62	1811.57
396.81	1727.32
397.00	1729.66
397.19	1764.76
397.39	1795.19
397.58	1809.23
397.77	1778.81
397.97	1792.85
398.16	1830.30
398.35	1891.15
398.55	1944.99
398.74	1902.86
398.93	1905.20
399.12	1893.49
399.32	1898.17
399.51	1935.62
399.70	1987.11
399.90	1961.37
400.09	2008.18
400.28	2005.84
400.47	2015.20
400.67	2155.63
400.86	2139.25
401.05	2129.89
401.24	2031.58
401.44	2059.67
401.63	2174.36
401.82	2150.95
402.01	2172.02
402.21	2190.74
402.40	2172.02
402.59	2190.74
402.78	2260.96
402.97	2272.66
403.17	2286.70
403.36	2284.36
403.55	2289.04
403.74	2298.41
403.93	2289.04
404.13	2282.02
404.32	2422.45
404.51	2382.67
404.70	2457.56
404.89	2321.81
405.09	2443.52
405.28	2562.89
405.47	2499.69
405.66	2644.81
405.85	2537.14
406.05	2525.44
406.24	2609.70
406.43	2595.65
406.62	2600.34
406.81	2759.49
407.00	2548.84
407.20	2586.29
407.39	2588.63
407.58	2710.34
407.77	2806.30
407.96	2736.09
408.15	2890.56
408.34	2813.32
408.54	2853.11
408.73	2846.09
408.92	2839.07
409.11	2829.71
409.30	2913.97
409.49	2920.99
409.68	2867.16
409.87	2932.69
410.07	3021.63
410.26	3089.51
410.45	3007.59
410.64	3094.19
410.83	3138.66
411.02	3033.33
411.21	3236.96
411.40	3126.96
411.59	3243.98
411.78	3246.32
411.98	3339.94
412.17	3171.43
412.36	3274.41
412.55	3412.50
412.74	3449.95
412.93	3358.67
413.12	3314.20
413.31	3520.17
413.50	3517.83
413.69	3555.27
413.88	3639.53
414.07	3611.45
414.26	3639.53
414.45	3843.16
414.64	3775.28
414.83	3913.38
415.02	3838.48
415.22	3831.46
415.41	4007.00
415.60	3861.88
415.79	3974.23
415.98	4025.72
416.17	3971.89
416.36	3838.48
416.55	3892.31
416.74	4007.00
416.93	4152.11
417.12	4182.54
417.31	4208.28
417.50	4259.78
417.69	4205.94
417.88	4191.90
418.07	4341.69
418.26	4418.93
418.45	4409.57
418.64	4505.53
418.83	4491.49
419.02	4414.25
419.21	4582.77
419.39	4629.58
419.58	4545.32
419.77	4411.91
419.96	4660.01
420.15	4624.90
420.34	4582.77
420.53	4580.43
420.72	4671.71
420.91	4713.84
421.10	4809.80
421.29	4819.16
421.48	4762.99
421.67	4791.08
421.86	4791.08
422.05	4884.70
422.24	4842.57
422.43	4809.80
422.61	4798.10
422.80	5104.71
422.99	4868.31
423.18	5100.03
423.37	5067.26
423.56	4889.38
423.75	4887.04
423.94	4968.96
424.13	4774.69
424.32	4798.10
424.50	4994.70
424.69	5177.26
424.88	5020.45
425.07	4952.57
425.26	5029.81
425.45	5029.81
425.64	5114.07
425.83	5074.28
426.01	5046.20
426.20	5149.18
426.39	5085.98
426.58	5198.33
426.77	5109.39
426.96	5053.22
427.15	5011.09
427.33	5214.71
427.52	5352.81
427.71	5282.59
427.90	5385.57
428.09	5289.61
428.28	5441.75
428.46	5500.26
428.65	5385.57
428.84	5411.32
429.03	5540.05
429.22	5523.66
429.40	5533.03
429.59	5486.22
429.78	5500.26
429.97	5165.56
430.16	5568.13
430.34	5636.01
430.53	5844.32
430.72	5734.31
430.91	5736.65
431.10	5549.41
431.28	5678.14
431.47	5797.51
431.66	5729.63
431.85	5877.09
432.03	6008.16
432.22	6092.41
432.41	5856.02
432.60	5898.15
432.79	6132.20
432.97	6043.26
433.16	6057.31
433.35	5874.74
433.54	6015.18
433.72	6286.68
433.91	6171.99
434.10	6174.33
434.28	6150.93
434.47	6274.98
434.66	6380.30
434.85	6436.47
435.03	6443.49
435.22	6282.00
435.41	6434.13
435.59	6462.22
435.78	6352.21
435.97	6579.25
436.16	6436.47
436.34	6546.48
436.53	6525.41
436.72	6736.06
436.90	6417.75
437.09	6651.80
437.28	6518.39
437.46	6621.38
437.65	6595.63
437.84	6834.36
438.02	6869.47
438.21	6766.49
438.40	6778.19
438.58	6874.15
438.77	7066.08
438.96	6942.03
439.14	7171.40
439.33	7021.61
439.52	7176.08
439.70	7304.81
439.89	7332.90
440.08	7403.11
440.26	7396.09
440.45	7456.95
440.63	7513.12
440.82	7482.69
441.01	7604.40
441.19	7775.26
441.38	7878.24
441.57	7695.68
441.75	7852.50
441.94	8060.80
442.12	8091.23
442.31	8018.68
442.50	8023.36
442.68	8070.17
442.87	8030.38
443.05	8208.26
443.24	8215.28
443.43	8278.47
443.61	8439.97
443.80	8409.54
443.98	8145.06
444.17	7882.92
444.35	8224.64
444.54	8542.96
444.73	8393.16
444.91	8257.41
445.10	8538.27
445.28	8390.82
445.47	8322.94
445.65	8407.20
445.84	8540.61
446.02	8559.34
446.21	8542.96
446.39	8589.77
446.58	8423.59
446.77	8545.30
446.95	8442.31
447.14	8610.83
447.32	8659.98
447.51	8325.29
447.69	8603.81
447.88	8578.06
448.06	8606.15
448.25	8493.80
448.43	8627.21
448.62	8606.15
448.80	8484.44
448.99	8531.25
449.17	8755.94
449.36	8655.30
449.54	8936.17
449.73	8842.54
449.91	9207.67
450.10	9027.45
450.28	9128.09
450.46	9118.73
450.65	9219.37
450.83	9181.92
451.02	8828.50
451.20	9296.61
451.39	9167.88
451.57	9202.99
451.76	8985.32
451.94	9294.27
452.13	9423.00
452.31	9432.36
452.49	9135.11
452.68	9338.74
452.86	9399.59
453.05	9540.02
453.23	9626.62
453.42	9657.05
453.60	9547.05
453.78	9633.64
453.97	9561.09
454.15	9383.21
454.34	9596.20
454.52	9750.67
454.70	10085.37
454.89	9954.30
455.07	9727.27
455.26	9898.13
455.44	10228.14
455.62	9961.32
455.81	9937.91
455.99	9987.07
456.17	10129.84
456.36	10366.23
456.54	10317.08
456.73	10303.04
456.91	10389.64
457.09	10595.61
457.28	10509.01
457.46	10190.69
457.64	10773.49
457.83	10647.10
458.01	10471.56
458.19	10960.73
458.38	10663.48
458.56	10785.19
458.74	10764.12
458.93	10663.48
459.11	10726.68
459.29	10864.77
459.48	10719.65
459.66	10846.04
459.84	11096.48
460.03	11295.43
460.21	10855.40
460.39	10920.94
460.57	10967.75
460.76	11302.45
460.94	11330.53
461.12	11234.57
461.31	11075.42
461.49	11180.74
461.67	11059.03
461.85	11576.29
462.04	11337.56
462.22	11513.10
462.40	11702.68
462.59	11644.17
462.77	11489.69
462.95	11475.65
463.13	11445.22
463.32	11648.85
463.50	11740.13
463.68	11885.24
463.86	11885.24
464.05	11824.39
464.23	11859.49
464.41	11981.20
464.59	11985.88
464.78	12351.01
464.96	11908.65
465.14	11850.13
465.32	12098.23
465.50	12259.73
465.69	12126.32
465.87	12147.38
466.05	12315.90
466.23	12100.57
466.41	12348.67
466.60	12451.65
466.78	12266.75
466.96	12423.56
467.14	12238.66
467.32	12453.99
467.51	12791.03
467.69	12236.32
467.87	12465.69
468.05	12753.58
468.23	12435.27
468.41	12592.08
468.60	12674.00
468.78	13004.02
468.96	13046.15
469.14	13006.36
469.32	13193.60
469.50	12945.50
469.69	12957.21
469.87	12929.12
470.05	13125.72
470.23	13462.76
470.41	13172.54
470.59	13516.59
470.77	13259.13
470.95	13429.99
471.14	13617.24
471.32	13221.69
471.50	13621.92
471.68	13790.44
471.86	13659.37
472.04	14122.79
472.22	14052.58
472.40	13748.31
472.58	13970.66
472.77	14373.23
472.95	14052.58
473.13	14422.38
473.31	14122.79
473.49	14134.50
473.67	14218.75
473.85	14459.83
474.03	14766.44
474.21	14490.26
474.39	14626.01
474.57	15066.03
474.75	15070.71
474.93	15044.96
475.12	15049.64
475.30	15185.40
475.48	15190.08
475.66	15400.72
475.84	15435.83
476.02	15517.75
476.20	15496.69
476.38	15864.15
476.56	15967.13
476.74	15920.32
476.92	15934.37
477.10	15885.22
477.28	16276.09
477.46	16325.24
477.64	16276.09
477.82	16697.38
478.00	17184.21
478.18	16884.62
478.36	16954.84
478.54	16961.86
478.72	16973.56
478.90	17603.17
479.08	17493.16
479.26	17720.20
479.44	17834.88
479.62	17858.29
479.80	18209.37
479.98	18466.83
480.16	18831.95
480.34	18480.87
480.52	18445.76
480.70	18593.22
480.88	18707.90
481.06	18590.88
481.24	18944.30
481.41	19316.44
481.59	19503.68
481.77	19641.78
481.95	19716.67
482.13	19597.31
482.31	19665.18
482.49	20294.79
482.67	20428.20
482.85	20652.89
483.03	20449.26
483.21	20655.23
483.39	21200.57
483.57	20655.23
483.74	21198.23
483.92	21647.61
484.10	21226.32
484.28	21830.18
484.46	21970.61
484.64	22347.44
484.82	22040.82
485.00	22625.96
485.18	23070.66
485.35	22799.16
485.53	22920.87
485.71	23222.80
485.89	23798.57
486.07	23267.27
486.25	23323.44
486.43	23726.01
486.61	24135.60
486.78	24205.82
486.96	24449.24
487.14	24793.29
487.32	24474.98
487.50	25247.36
487.68	25102.25
487.85	25071.82
488.03	25736.53
488.21	25902.71
488.39	25874.62
488.57	26492.52
488.75	26281.88
488.92	26569.76
489.10	26855.31
489.28	27030.85
489.46	27335.12
489.64	27098.72
489.81	27709.60
489.99	27838.33
490.17	28144.94
490.35	28327.50
490.53	28144.94
490.70	28706.67
490.88	28713.69
491.06	29062.43
491.24	29050.73
491.41	29055.41
491.59	29617.14
491.77	29738.85
491.95	29282.44
492.13	30110.99
492.30	30075.88
492.48	30307.60
492.66	30595.48
492.84	30693.79
493.01	30604.84
493.19	30866.98
493.37	31077.63
493.54	31332.75
493.72	31660.43
493.90	31779.79
494.08	31751.71
494.25	32231.52
494.43	32130.87
494.61	32470.25
494.79	32194.07
494.96	32552.17
495.14	32940.70
495.32	33406.47
495.49	33364.34
495.67	33439.23
495.85	33464.98
496.02	33795.00
496.20	34209.27
496.38	34110.97
496.55	34536.94
496.73	35103.35
496.91	34794.40
497.09	34841.21
497.26	34944.20
497.44	35047.18
497.62	35454.44
497.79	35838.28
497.97	36091.06
498.14	36070.00
498.32	36119.15
498.50	36250.22
498.67	36985.15
498.85	36620.02
499.03	36524.06
499.20	37123.24
499.38	37261.33
499.56	37443.89
499.73	37022.59
499.91	37518.79
500.08	37429.85
500.26	37539.85
500.44	37977.53
500.61	37471.98
500.79	38043.07
500.97	38312.23
501.14	38579.05
501.32	38445.64
501.49	38494.79
501.67	39054.18
501.84	39232.06
502.02	39168.87
502.20	39557.39
502.37	39667.40
502.55	39276.53
502.72	39365.47
502.90	39498.88
503.07	39798.47
503.25	39730.59
503.43	39786.77
503.60	40643.40
503.78	40636.38
503.95	40430.41
504.13	40905.54
504.30	40800.22
504.48	40612.98
504.65	40994.48
504.83	41095.13
505.01	41315.14
505.18	41006.19
505.36	41390.03
505.53	41385.35
505.71	41474.29
505.88	42148.37
506.06	41441.53
506.23	42263.05
506.41	41851.12
506.58	42232.63
506.76	42539.24
506.93	42775.63
507.11	42270.08
507.28	42588.39
507.46	42714.78
507.63	42932.45
507.81	43632.27
507.98	43138.41
508.16	43430.98
508.33	44315.70
508.50	44179.95
508.68	43660.35
508.85	44123.78
509.03	44222.08
509.20	44151.87
509.38	44816.58
509.55	44495.92
509.73	44645.72
509.90	45219.15
510.08	44744.02
510.25	44847.00
510.42	44500.61
510.60	45567.89
510.77	45563.21
510.95	45797.26
511.12	45350.22
511.30	45221.49
511.47	45806.62
511.64	45888.54
511.82	46122.60
511.99	45886.20
512.17	46469.00
512.34	45794.92
512.51	46649.22
512.69	46787.31
512.86	46866.89
513.04	46953.49
513.21	46869.23
513.38	47061.15
513.56	47124.35
513.73	47285.84
513.90	46902.00
514.08	46902.00
514.25	47449.68
514.43	47863.96
514.60	47428.62
514.77	47590.11
514.95	48233.76
515.12	47849.91
515.29	47590.11
515.47	48266.53
515.64	48177.59
515.81	47995.03
515.99	48336.74
516.16	48430.36
516.33	48357.81
516.51	48477.18
516.68	48610.59
516.85	48816.55
517.03	49059.97
517.20	48954.64
517.37	49235.51
517.54	48931.24
517.72	48751.02
517.89	49244.87
518.06	49507.01
518.24	49532.76
518.41	49249.55
518.58	49275.30
518.75	49504.67
518.93	49645.10
519.10	49553.82
519.27	49581.91
519.45	50050.02
519.62	50373.01
519.79	50305.13
519.96	50356.63
520.14	50307.47
520.31	50127.25
520.48	50527.48
520.65	50443.23
520.83	50827.07
521.00	50829.41
521.17	50852.82
521.34	50939.42
521.52	50813.03
521.69	50724.09
521.86	51222.62
522.03	51447.32
522.20	51613.49
522.38	51564.34
522.55	51452.00
522.72	51442.63
522.89	51379.44
523.07	51643.92
523.24	51461.36
523.41	51945.85
523.58	51461.36
523.75	52282.89
523.92	51995.00
524.10	52198.63
524.27	52172.88
524.44	52193.95
524.61	52065.22
524.78	52367.15
524.96	52566.09
525.13	52320.34
525.30	52472.47
525.47	52615.24
525.64	52706.52
525.81	52905.47
525.98	53059.94
526.16	52533.32
526.33	52750.99
526.50	53069.31
526.67	53085.69
526.84	53153.57
527.01	52914.83
527.18	53181.65
527.36	52956.96
527.53	53378.26
527.70	53516.35
527.87	53745.72
528.04	53670.82
528.21	53488.26
528.38	53404.00
528.55	53804.24
528.72	53525.71
528.89	53574.86
529.07	53556.14
529.24	53502.31
529.41	53956.37
529.58	53862.75
529.75	53827.64
529.92	54021.90
530.09	53986.80
530.26	54122.55
530.43	54101.48
530.60	53844.02
530.77	54131.91
530.94	54232.55
531.11	54209.15
531.28	54347.24
531.46	54419.80
531.63	54433.84
531.80	54501.71
531.97	54569.59
532.14	54576.61
532.31	54925.35
532.48	54588.31
532.65	54798.96
532.82	54555.55
532.99	54747.47
533.16	54752.15
533.33	54878.54
533.50	54876.20
533.67	54829.39
533.84	54695.98
534.01	55030.68
534.18	54880.88
534.35	55234.30
534.52	55299.84
534.69	55395.80
534.86	55524.53
535.03	55231.96
535.20	55288.13
535.37	55433.25
535.54	55519.85
535.71	55271.75
535.88	55334.95
536.05	55395.80
536.22	55608.79
536.38	55852.20
536.55	55508.14
536.72	55739.86
536.89	55407.50
537.06	55936.46
537.23	55976.25
537.40	55828.80
537.57	55856.88
537.74	56102.64
537.91	56313.29
538.08	56203.28
538.25	55627.51
538.42	56093.28
538.59	56418.61
538.75	56102.64
538.92	56207.97
539.09	56299.25
539.26	56243.07
539.43	56406.91
539.60	56554.36
539.77	56435.00
539.94	56629.26
540.11	56395.21
540.28	56552.02
540.44	56657.35
540.61	56640.96
540.78	56645.65
540.95	56608.20
541.12	56615.22
541.29	56479.47
541.46	56647.99
541.62	56669.05
541.79	56772.03
541.96	56535.64
542.13	56561.39
542.30	56870.34
542.47	57282.27
542.63	56989.70
542.80	56970.98
542.97	57322.06
543.14	57497.60
543.31	57511.64
543.48	57464.83
543.64	57703.57
543.81	57389.94
543.98	57432.07
544.15	57616.97
544.32	57415.68
544.48	57680.16
544.65	57345.47
544.82	57598.24
544.99	57418.02
545.16	57511.64
545.32	57427.38
545.49	57914.22
545.66	57654.42
545.83	57846.34
546.00	57939.96
546.16	57682.50
546.33	57701.23
546.50	57535.05
546.67	57836.98
546.83	57418.02
547.00	57911.88
547.17	57911.88
547.34	58178.70
547.50	58096.78
547.67	58148.27
547.84	58145.93
548.00	58122.52
548.17	58351.90
548.34	58471.26
548.51	58349.56
548.67	58494.67
548.84	58115.50
549.01	58258.27
549.18	58365.94
549.34	58307.43
549.51	58262.96
549.68	58618.72
549.84	58436.16
550.01	58387.00
550.18	58466.58
550.34	58590.63
550.51	58426.79
550.68	58649.14
550.84	58422.11
551.01	58623.40
551.18	58625.74
551.34	58485.31
551.51	58698.30
551.68	58773.19
551.84	58670.21
552.01	58548.50
552.18	58660.85
552.34	58522.76
552.51	58822.34
552.68	58525.10
552.84	58848.09
553.01	58967.46
553.18	58653.82
553.34	58941.71
553.51	58820.00
553.67	58862.13
553.84	59037.67
554.01	58979.16
554.17	58906.60
554.34	59185.13
554.51	59037.67
554.67	59075.12
554.84	59047.04
555.00	59084.48
555.17	59135.98
555.33	59180.45
555.50	59154.70
555.67	59196.83
555.83	58937.03
556.00	59164.06
556.16	59636.85
556.33	59561.95
556.50	59243.64
556.66	59451.95
556.83	59269.39
556.99	59566.63
557.16	59625.15
557.32	59576.00
557.49	59568.97
557.65	59482.37
557.82	59512.80
557.98	59526.84
558.15	59608.76
558.32	59524.50
558.48	59524.50
558.65	59618.13
558.81	59573.66
558.98	59730.47
559.14	59585.36
559.31	59896.65
559.47	59992.61
559.64	59723.45
559.80	59870.90
559.97	59861.54
560.13	59709.41
560.30	59690.68
560.46	59807.71
560.63	59838.14
560.79	59901.33
560.96	60126.02
561.12	59814.73
561.29	60023.04
561.45	59868.56
561.61	59985.59
561.78	59854.52
561.94	59934.10
562.11	59856.86
562.27	59927.08
562.44	60149.43
562.60	60102.62
562.77	60147.09
562.93	60034.74
563.10	60306.24
563.26	60111.98
563.42	60348.37
563.59	60111.98
563.75	60236.03
563.92	60018.36
564.08	59948.14
564.24	60320.29
564.41	60163.47
564.57	60168.15
564.74	60341.35
564.90	60250.07
565.07	60346.03
565.23	60158.79
565.39	60210.28
565.56	60385.82
565.72	60364.76
565.88	60254.75
566.05	60413.91
566.21	60140.07
566.38	60079.21
566.54	60329.65
566.70	60439.65
566.87	60629.24
567.03	60142.41
567.19	60516.89
567.36	60320.29
567.52	60416.25
567.68	60580.09
567.85	60790.73
568.01	60577.75
568.17	60399.86
568.34	60526.25
568.50	60371.78
568.66	60563.70
568.83	60441.99
568.99	60488.80
569.15	60652.64
569.32	60427.95
569.48	60399.86
569.64	60720.52
569.81	60495.83
569.97	60568.38
570.13	60626.90
570.30	60530.93
570.46	60575.40
570.62	60587.11
570.78	60622.22
570.95	60488.80
571.11	60722.86
571.27	60755.63
571.43	60664.35
571.60	60540.30
571.76	60708.82
571.92	60786.05
572.09	60764.99
572.25	60767.33
572.41	60566.04
572.57	60610.51
572.74	60992.02
572.90	60687.75
573.06	60879.67
573.22	60570.72
573.38	60830.52
573.55	60729.88
573.71	60853.93
573.87	60804.78
574.03	60622.22
574.20	60729.88
574.36	60793.07
574.52	60917.12
574.68	60856.27
574.84	60741.58
575.01	60914.78
575.17	60844.57
575.33	60842.23
575.49	60811.80
575.65	60652.64
575.82	60839.89
575.98	60893.72
576.14	60942.87
576.30	60938.19
576.46	60963.93
576.62	60949.89
576.79	60865.63
576.95	60753.29
577.11	60762.65
577.27	60942.87
577.43	60949.89
577.59	60900.74
577.75	60851.59
577.92	60732.22
578.08	60867.97
578.24	60729.88
578.40	61017.77
578.56	61197.99
578.72	60757.97
578.88	61087.98
579.04	61197.99
579.21	60954.57
579.37	61127.77
579.53	61188.63
579.69	60743.92
579.85	60713.50
580.01	60851.59
580.17	60757.97
580.33	60992.02
580.49	60938.19
580.65	61076.28
580.82	60844.57
580.98	60891.38
581.14	61045.85
581.30	61127.77
581.46	60975.64
581.62	61078.62
581.78	61066.92
581.94	61242.46
582.10	60968.61
582.26	61013.08
582.42	61022.45
582.58	61036.49
582.74	60996.70
582.90	61062.24
583.06	60959.25
583.22	60772.01
583.38	60907.76
583.54	61176.92
583.70	60959.25
583.86	61162.88
584.02	60985.00
584.18	61165.22
584.34	61050.53
584.50	61066.92
584.66	61148.84
584.82	60905.42
584.98	61242.46
585.14	61123.09
585.30	60966.27
585.46	61205.01
585.62	61090.32
585.78	61293.95
585.94	60842.23
586.10	61109.05
586.26	61102.03
586.42	61272.88
586.58	61233.10
586.74	61228.41
586.90	61167.56
587.06	60989.68
587.22	61315.01
587.38	61066.92
587.54	61298.63
587.70	61399.27
587.86	61181.60
588.02	61254.16
588.18	61256.50
588.34	61090.32
