SpectraSuite Data File
++++++++++++++++++++++++++++++++++++
Date: Fri Oct 25 10:46:59 EDT 2013
User: price-jones
Dark Spectrum Present: No
Reference Spectrum Present: No
Number of Sampled Component Spectra: 1
Spectrometers: USB2+H05261
Integration Time (usec): 100000 (USB2+H05261)
Spectra Averaged: 1 (USB2+H05261)
Boxcar Smoothing: 0 (USB2+H05261)
Correct for Electrical Dark: No (USB2+H05261)
Strobe/Lamp Enabled: No (USB2+H05261)
Correct for Detector Non-linearity: No (USB2+H05261)
Correct for Stray Light: No (USB2+H05261)
Number of Pixels in Processed Spectrum: 2048
>>>>>Begin Processed Spectral Data<<<<<
365.73	86.60
365.92	86.60
366.12	86.60
366.32	70.22
366.52	42.13
366.72	44.47
366.91	46.81
367.11	14.04
367.31	0.00
367.51	51.49
367.70	39.79
367.90	67.88
368.10	49.15
368.30	86.60
368.49	35.11
368.69	28.09
368.89	74.90
369.09	46.81
369.28	46.81
369.48	28.09
369.68	56.17
369.87	98.30
370.07	32.77
370.27	107.66
370.47	177.88
370.66	287.89
370.86	486.83
371.06	472.79
371.25	491.51
371.45	507.90
371.65	449.38
371.84	440.02
372.04	477.47
372.24	449.38
372.44	519.60
372.63	510.24
372.83	566.41
373.03	540.66
373.22	449.38
373.42	489.17
373.62	475.13
373.81	575.77
374.01	620.24
374.21	578.11
374.40	575.77
374.60	589.82
374.79	484.49
374.99	585.13
375.19	629.60
375.38	482.15
375.58	580.45
375.78	608.54
375.97	566.41
376.17	599.18
376.37	528.96
376.56	636.63
376.76	643.65
376.95	589.82
377.15	564.07
377.35	678.76
377.54	606.20
377.74	653.01
377.93	641.31
378.13	650.67
378.33	629.60
378.52	648.33
378.72	671.73
378.91	678.76
379.11	624.92
379.31	561.73
379.50	664.71
379.70	697.48
379.89	695.14
380.09	592.16
380.28	648.33
380.48	688.12
380.68	716.20
380.87	664.71
381.07	683.44
381.26	713.86
381.46	617.90
381.65	702.16
381.85	645.99
382.04	667.05
382.24	716.20
382.43	739.61
382.63	648.33
382.83	706.84
383.02	774.72
383.22	821.53
383.41	732.59
383.61	741.95
383.80	746.63
384.00	786.42
384.19	809.83
384.39	814.51
384.58	795.78
384.78	777.06
384.97	720.88
385.17	763.01
385.36	781.74
385.56	695.14
385.75	795.78
385.95	844.93
386.14	770.04
386.34	802.80
386.53	884.72
386.72	863.66
386.92	901.11
387.11	922.17
387.31	880.04
387.50	877.70
387.70	884.72
387.89	777.06
388.09	891.74
388.28	919.83
388.48	926.85
388.67	903.45
388.86	901.11
389.06	940.90
389.25	1025.15
389.45	922.17
389.64	950.26
389.84	1001.75
390.03	1001.75
390.22	1001.75
390.42	1013.45
390.61	976.00
390.81	938.55
391.00	978.34
391.19	980.68
391.39	1022.81
391.58	1018.13
391.78	1081.33
391.97	985.37
392.16	943.24
392.36	971.32
392.55	992.39
392.75	912.81
392.94	1032.18
393.13	1001.75
393.33	987.71
393.52	1060.26
393.71	1158.57
393.91	1067.28
394.10	1076.65
394.29	1163.25
394.49	1081.33
394.68	1172.61
394.88	1177.29
395.07	1200.69
395.26	1238.14
395.46	1160.91
395.65	1207.72
395.84	1109.41
396.04	1086.01
396.23	1132.82
396.42	1247.51
396.62	1137.50
396.81	1121.12
397.00	1116.44
397.19	1289.64
397.39	1212.40
397.58	1217.08
397.77	1306.02
397.97	1294.32
398.16	1371.55
398.35	1355.17
398.55	1376.24
398.74	1378.58
398.93	1432.41
399.12	1341.13
399.32	1411.34
399.51	1392.62
399.70	1472.20
399.90	1448.79
400.09	1406.66
400.28	1577.52
400.47	1547.09
400.67	1444.11
400.86	1530.71
401.05	1544.75
401.24	1511.99
401.44	1607.95
401.63	1650.08
401.82	1582.20
402.01	1577.52
402.21	1652.42
402.40	1633.69
402.59	1699.23
402.78	1682.85
402.97	1647.74
403.17	1680.50
403.36	1682.85
403.55	1664.12
403.74	1703.91
403.93	1790.51
404.13	1736.68
404.32	1734.34
404.51	1832.64
404.70	1741.36
404.89	1788.17
405.09	1961.37
405.28	1825.62
405.47	1732.00
405.66	1753.06
405.85	1872.43
406.05	1849.02
406.24	1877.11
406.43	1757.74
406.62	1944.99
406.81	2047.97
407.00	2005.84
407.20	1900.52
407.39	1952.01
407.58	2054.99
407.77	2083.08
407.96	2073.71
408.15	2132.23
408.34	2139.25
408.54	2153.29
408.73	2104.14
408.92	2193.08
409.11	2176.70
409.30	2101.80
409.49	2176.70
409.68	2148.61
409.87	2193.08
410.07	2190.74
410.26	2282.02
410.45	2218.83
410.64	2256.28
410.83	2385.01
411.02	2438.84
411.21	2333.51
411.40	2305.43
411.59	2495.01
411.78	2429.48
411.98	2415.43
412.17	2511.39
412.36	2462.24
412.55	2590.97
412.74	2595.65
412.93	2555.86
413.12	2539.48
413.31	2764.17
413.50	2621.40
413.69	2677.57
413.88	2787.58
414.07	2754.81
414.26	2834.39
414.45	2698.64
414.64	2825.03
414.83	2822.69
415.02	2881.20
415.22	2853.11
415.41	2904.60
415.60	2949.08
415.79	2974.82
415.98	3047.38
416.17	3049.72
416.36	3150.36
416.55	3096.53
416.74	3117.59
416.93	3052.06
417.12	3201.85
417.31	3038.02
417.50	3124.62
417.69	3162.06
417.88	3229.94
418.07	3248.66
418.26	3290.79
418.45	3372.71
418.64	3363.35
418.83	3307.18
419.02	3403.14
419.21	3433.57
419.39	3412.50
419.58	3478.04
419.77	3276.75
419.96	3496.76
420.15	3588.04
420.34	3620.81
420.53	3576.34
420.72	3534.21
420.91	3611.45
421.10	3574.00
421.29	3716.77
421.48	3569.32
421.67	3634.85
421.86	3665.28
422.05	3679.32
422.24	3447.61
422.43	3569.32
422.61	3588.04
422.80	3742.52
422.99	3698.05
423.18	3791.67
423.37	3709.75
423.56	3847.84
423.75	3929.76
423.94	3761.24
424.13	3508.46
424.32	3714.43
424.50	3770.60
424.69	3892.31
424.88	3875.93
425.07	3644.21
425.26	3719.11
425.45	3686.34
425.64	3854.86
425.83	3899.33
426.01	3789.33
426.20	3873.59
426.39	3747.20
426.58	3850.18
426.77	3730.81
426.96	3791.67
427.15	3756.56
427.33	3978.91
427.52	3861.88
427.71	3901.67
427.90	3866.56
428.09	3939.12
428.28	3922.74
428.46	3943.80
428.65	4077.21
428.84	4074.87
429.03	4114.66
429.22	3920.40
429.40	3941.46
429.59	3866.56
429.78	3819.75
429.97	3904.01
430.16	3929.76
430.34	4039.76
430.53	4014.02
430.72	3990.61
430.91	3990.61
431.10	4175.52
431.28	4388.50
431.47	4386.16
431.66	4362.76
431.85	4301.90
432.03	4517.23
432.22	4442.34
432.41	4376.80
432.60	4418.93
432.79	4465.74
432.97	4475.10
433.16	4550.00
433.35	4423.61
433.54	4489.15
433.72	4313.61
433.91	4266.80
434.10	4411.91
434.28	4484.47
434.47	4589.79
434.66	4547.66
434.85	4629.58
435.03	4582.77
435.22	4601.49
435.41	4863.63
435.59	4751.29
435.78	4688.09
435.97	4861.29
436.16	4732.56
436.34	4844.91
436.53	4849.59
436.72	5025.13
436.90	4774.69
437.09	4968.96
437.28	4814.48
437.46	4863.63
437.65	4863.63
437.84	4851.93
438.02	4908.10
438.21	5015.77
438.40	4896.40
438.58	5060.24
438.77	5228.76
438.96	5107.05
439.14	5317.70
439.33	5350.46
439.52	5392.59
439.70	5334.08
439.89	5404.30
440.08	5334.08
440.26	5392.59
440.45	5493.24
440.63	5458.13
440.82	5687.50
441.01	5523.66
441.19	5643.03
441.38	5717.93
441.57	5753.04
441.75	5743.67
441.94	5989.43
442.12	5926.24
442.31	6106.46
442.50	6022.20
442.68	5919.21
442.87	5944.96
443.05	5839.64
443.24	6047.94
443.43	6024.54
443.61	6071.35
443.80	6211.78
443.98	6057.31
444.17	5823.25
444.35	6104.12
444.54	6321.79
444.73	6064.33
444.91	6221.14
445.10	6169.65
445.28	6113.48
445.47	6125.18
445.65	6176.67
445.84	6146.25
446.02	6155.61
446.21	6300.72
446.39	6274.98
446.58	6338.17
446.77	6256.25
446.95	6150.93
447.14	6403.71
447.32	6520.73
447.51	6289.02
447.69	6277.32
447.88	6370.94
448.06	6363.92
448.25	6431.79
448.43	6436.47
448.62	6265.61
448.80	6267.95
448.99	6380.30
449.17	6399.02
449.36	6462.22
449.54	6609.67
449.73	6717.34
449.91	6810.96
450.10	6815.64
450.28	6885.86
450.46	6836.70
450.65	6705.63
450.83	6761.81
451.02	6672.87
451.20	6722.02
451.39	6855.43
451.57	6906.92
451.76	6981.82
451.94	6850.75
452.13	6937.35
452.31	7012.24
452.49	6822.66
452.68	6876.49
452.86	6895.22
453.05	6829.68
453.23	6916.28
453.42	6913.94
453.60	6988.84
453.78	7115.23
453.97	7012.24
454.15	7016.93
454.34	7007.56
454.52	7126.93
454.70	7045.01
454.89	7290.77
455.07	7112.89
455.26	7248.64
455.44	7314.17
455.62	7344.60
455.81	7307.15
455.99	7463.97
456.17	7339.92
456.36	7351.62
456.54	7478.01
456.73	7445.24
456.91	7728.45
457.09	7693.34
457.28	7730.79
457.46	7592.70
457.64	7784.62
457.83	7693.34
458.01	7590.36
458.19	7590.36
458.38	7686.32
458.56	7831.43
458.74	8004.63
458.93	7899.31
459.11	7906.33
459.29	7819.73
459.48	7885.26
459.66	8060.80
459.84	8063.15
460.03	8318.26
460.21	8039.74
460.39	8187.19
460.57	8084.21
460.76	8107.62
460.94	8091.23
461.12	8131.02
461.31	8194.22
461.49	8301.88
461.67	8163.79
461.85	8456.36
462.04	8264.43
462.22	8973.61
462.40	8498.49
462.59	8477.42
462.77	8222.30
462.95	8463.38
463.13	8573.38
463.32	8641.26
463.50	8718.50
463.68	8636.58
463.86	8542.96
464.05	8519.55
464.23	8561.68
464.41	8498.49
464.59	8477.42
464.78	8877.65
464.96	8648.28
465.14	8863.61
465.32	8816.80
465.50	8844.88
465.69	8819.14
465.87	8919.78
466.05	8805.10
466.23	8716.16
466.41	8793.39
466.60	8966.59
466.78	8746.58
466.96	8800.41
467.14	8980.64
467.32	9015.74
467.51	9191.28
467.69	8961.91
467.87	9008.72
468.05	9191.28
468.23	9020.42
468.41	9144.47
468.60	9165.54
468.78	9210.01
468.96	9085.96
469.14	9081.28
469.32	9654.71
469.50	9142.13
469.69	9425.34
469.87	9465.13
470.05	9289.59
470.23	9310.65
470.41	9441.72
470.59	9481.51
470.77	9640.67
470.95	9437.04
471.14	9577.47
471.32	9310.65
471.50	9694.50
471.68	9631.30
471.86	9699.18
472.04	9851.31
472.22	10153.24
472.40	9502.58
472.58	9818.55
472.77	9954.30
472.95	10169.63
473.13	10401.34
473.31	10045.58
473.49	10155.58
473.67	10265.59
473.85	10178.99
474.03	10551.14
474.21	10279.63
474.39	10752.42
474.57	10684.55
474.75	10677.52
474.93	10551.14
475.12	10848.38
475.30	10759.44
475.48	10642.42
475.66	10738.38
475.84	10759.44
476.02	10832.00
476.20	10747.74
476.38	11129.25
476.56	11480.33
476.74	11279.04
476.92	11101.16
477.10	11225.21
477.28	11712.04
477.46	11580.97
477.64	11686.29
477.82	11630.12
478.00	11667.57
478.18	12070.14
478.36	12250.36
478.54	12255.04
478.72	12217.60
478.90	12407.18
479.08	12535.91
479.26	12606.13
479.44	12500.80
479.62	12723.15
479.80	12683.36
479.98	12643.57
480.16	12849.54
480.34	12957.21
480.52	13263.82
480.70	13319.99
480.88	13160.83
481.06	13071.89
481.24	13336.37
481.41	13528.30
481.59	13724.90
481.77	13638.30
481.95	13837.25
482.13	14024.49
482.31	13809.16
482.49	14228.12
482.67	14258.54
482.85	14258.54
483.03	14516.00
483.21	14338.12
483.39	14860.06
483.57	14719.63
483.74	14707.93
483.92	15124.54
484.10	14841.34
484.28	15377.32
484.46	15707.34
484.64	15585.63
484.82	15213.48
485.00	15489.67
485.18	15978.84
485.35	15906.28
485.53	15393.70
485.71	15693.29
485.89	15995.22
486.07	15630.10
486.25	15875.85
486.43	16304.17
486.61	16475.03
486.78	16659.93
486.96	16692.70
487.14	16772.28
487.32	16875.26
487.50	17284.86
487.68	17401.88
487.85	17479.12
488.03	17603.17
488.21	17617.21
488.39	17853.61
488.57	18106.38
488.75	18314.69
488.92	18508.96
489.10	18700.88
489.28	18824.93
489.46	19047.28
489.64	18853.02
489.81	19353.89
489.99	19342.19
490.17	19168.99
490.35	19381.98
490.53	19573.90
490.70	19538.79
490.88	19681.56
491.06	19946.05
491.24	20065.41
491.41	19819.66
491.59	19812.63
491.77	20084.14
491.95	20341.60
492.13	20341.60
492.30	20718.42
492.48	20774.60
492.66	20833.11
492.84	21006.31
493.01	20996.95
493.19	21144.40
493.37	21364.41
493.54	21364.41
493.72	21429.94
493.90	22029.12
494.08	21799.75
494.25	22382.54
494.43	22218.71
494.61	22890.44
494.79	22001.04
494.96	22307.65
495.14	22405.95
495.32	22677.45
495.49	22735.96
495.67	22904.48
495.85	23246.20
496.02	22981.72
496.20	23225.14
496.38	23557.49
496.55	23601.96
496.73	23768.14
496.91	23852.40
497.09	23901.55
497.26	24072.41
497.44	24271.36
497.62	24135.60
497.79	24531.15
497.97	24460.94
498.14	24292.42
498.32	24685.63
498.50	24842.45
498.67	24823.72
498.85	24805.00
499.03	24907.98
499.20	25324.60
499.38	25495.46
499.56	25504.82
499.73	25472.05
499.91	25427.58
500.08	25537.59
500.26	25682.70
500.44	25776.32
500.61	25869.94
500.79	25694.40
500.97	25905.05
501.14	26265.49
501.32	26412.95
501.49	25961.22
501.67	26370.82
501.84	26548.70
502.02	26560.40
502.20	26806.16
502.37	26696.15
502.55	26834.24
502.72	27026.17
502.90	27019.14
503.07	26740.62
503.25	27040.21
503.43	26831.90
503.60	27246.18
503.78	26909.14
503.95	27342.14
504.13	27421.72
504.30	27351.50
504.48	27473.21
504.65	27625.34
504.83	28133.24
505.01	28002.17
505.18	27969.40
505.36	28346.23
505.53	28056.00
505.71	28875.19
505.88	28444.53
506.06	28491.34
506.23	28964.13
506.41	28479.64
506.58	29223.93
506.76	29032.00
506.93	28929.02
507.11	28624.75
507.28	28985.19
507.46	28659.86
507.63	28989.88
507.81	29111.58
507.98	29509.47
508.16	29689.70
508.33	29579.69
508.50	30000.99
508.68	29734.17
508.85	30118.01
509.03	29656.93
509.20	29869.92
509.38	30408.24
509.55	30494.84
509.73	30431.65
509.90	30265.47
510.08	30162.48
510.25	30560.37
510.42	30494.84
510.60	30656.34
510.77	30775.70
510.95	30944.22
511.12	30635.27
511.30	31243.81
511.47	31292.96
511.64	31276.58
511.82	31370.20
511.99	30761.66
512.17	31543.40
512.34	31297.64
512.51	31503.61
512.69	31583.19
512.86	31828.95
513.04	32219.81
513.21	31927.25
513.38	32280.67
513.56	31793.84
513.73	31999.80
513.90	32549.83
514.08	31915.54
514.25	32397.70
514.43	32074.70
514.60	32322.80
514.77	32100.45
514.95	32481.95
515.12	32837.72
515.29	32561.53
515.47	32608.34
515.64	33031.98
515.81	32891.55
515.99	33010.92
516.16	32905.59
516.33	32971.13
516.51	32835.38
516.68	32617.71
516.85	32549.83
517.03	32926.66
517.20	33116.24
517.37	33188.80
517.54	33174.75
517.72	33413.49
517.89	33275.40
518.06	33404.13
518.24	33273.06
518.41	32891.55
518.58	33415.83
518.75	33867.55
518.93	34029.05
519.10	33731.80
519.27	34141.39
519.45	34153.10
519.62	34309.91
519.79	34230.33
519.96	34609.50
520.14	34543.97
520.31	34754.61
520.48	34572.05
520.65	34513.54
520.83	34967.60
521.00	34969.94
521.17	34850.58
521.34	35112.72
521.52	34787.38
521.69	35161.87
521.86	35398.26
522.03	35292.94
522.20	35468.48
522.38	35550.40
522.55	35414.65
522.72	35489.54
522.89	35517.63
523.07	35215.70
523.24	35473.16
523.41	36205.75
523.58	36004.46
523.75	36615.34
523.92	36112.13
524.10	36058.29
524.27	35967.01
524.44	36350.86
524.61	36868.12
524.78	36596.62
524.96	36863.44
525.13	36692.58
525.30	36781.52
525.47	36907.91
525.64	36591.94
525.81	36568.53
525.98	36666.83
526.16	36816.63
526.33	36500.65
526.50	36671.51
526.67	36746.41
526.84	36809.61
527.01	36510.02
527.18	36931.31
527.36	37031.96
527.53	37371.33
527.70	37563.26
527.87	37359.63
528.04	37310.48
528.21	37165.37
528.38	37406.44
528.55	37507.08
528.72	38113.28
528.89	37766.88
529.07	37586.66
529.24	37376.01
529.41	38066.47
529.58	37549.21
529.75	37741.14
529.92	38251.38
530.09	38134.35
530.26	37998.60
530.43	38197.54
530.60	37741.14
530.77	37806.67
530.94	38249.03
531.11	38141.37
531.28	38600.12
531.46	38314.57
531.63	38731.18
531.80	38625.86
531.97	38616.50
532.14	38665.65
532.31	38242.01
532.48	38609.48
532.65	38820.13
532.82	38459.68
532.99	38555.64
533.16	39133.76
533.33	38747.57
533.50	38944.17
533.67	38710.12
533.84	38796.72
534.01	38808.42
534.18	39147.80
534.35	39786.77
534.52	39356.11
534.69	39335.04
534.86	39562.08
535.03	39440.37
535.20	39995.07
535.37	39702.51
535.54	40011.46
535.71	39573.78
535.88	39901.45
536.05	40004.44
536.22	39988.05
536.38	39927.20
536.55	39807.83
536.72	39885.07
536.89	39409.94
537.06	40016.14
537.23	40060.61
537.40	39824.22
537.57	40240.83
537.74	39800.81
537.91	40414.03
538.08	40500.63
538.25	40407.01
538.42	40318.07
538.59	40823.62
538.75	40268.92
538.92	40020.82
539.09	40282.96
539.26	40378.92
539.43	40985.12
539.60	40652.76
539.77	40746.39
539.94	40617.66
540.11	40477.22
540.28	40701.92
540.44	40395.31
540.61	41148.96
540.78	40648.08
540.95	40739.36
541.12	40671.49
541.29	41120.87
541.46	41216.83
541.62	40919.59
541.79	41277.69
541.96	41045.97
542.13	41111.51
542.30	41240.24
542.47	41069.38
542.63	41560.89
542.80	41668.56
542.97	41757.50
543.14	41675.58
543.31	41717.71
543.48	41855.80
543.64	42171.77
543.81	42293.48
543.98	42024.32
544.15	41605.36
544.32	41755.16
544.48	42305.18
544.65	42234.97
544.82	42129.64
544.99	42162.41
545.16	42143.69
545.32	41687.28
545.49	42014.96
545.66	42518.17
545.83	42120.28
546.00	42426.89
546.16	42185.82
546.33	42431.57
546.50	42274.76
546.67	42590.73
546.83	41816.01
547.00	42768.61
547.17	42462.00
547.34	41989.21
547.50	42373.06
547.67	42770.95
547.84	42483.06
548.00	42845.85
548.17	42880.95
548.34	42820.10
548.51	42983.94
548.67	43091.60
548.84	43084.58
549.01	42834.14
549.18	42637.54
549.34	42731.16
549.51	43491.83
549.68	43398.21
549.84	43196.93
550.01	43384.17
550.18	43379.49
550.34	43442.68
550.51	43459.07
550.68	42569.66
550.84	42946.49
551.01	43545.67
551.18	43040.11
551.34	43140.75
551.51	43627.59
551.68	43634.61
551.84	43461.41
552.01	43456.73
552.18	43332.68
552.34	43267.14
552.51	43494.18
552.68	43817.17
552.84	43559.71
553.01	43903.77
553.18	43812.49
553.34	43519.92
553.51	43206.29
553.67	43702.48
553.84	44086.33
554.01	44091.01
554.17	44282.94
554.34	44158.89
554.51	44081.65
554.67	44121.44
554.84	43578.43
555.00	43962.28
555.17	43854.62
555.33	44186.97
555.50	43430.98
555.67	44165.91
555.83	44126.12
556.00	44100.37
556.16	44156.55
556.33	44142.50
556.50	44107.40
556.66	44128.46
556.83	43810.15
556.99	44278.25
557.16	44479.54
557.32	44137.82
557.49	44374.22
557.65	43995.05
557.82	44315.70
557.98	44140.16
558.15	44135.48
558.32	44341.45
558.48	44451.45
558.65	44556.78
558.81	44182.29
558.98	44353.15
559.14	44376.56
559.31	44268.89
559.47	44559.12
559.64	44685.51
559.80	45155.96
559.97	44631.68
560.13	44217.40
560.30	44842.32
560.46	44954.67
560.63	44781.47
560.79	45282.34
560.96	44980.42
561.12	44872.75
561.29	45195.74
561.45	44498.26
561.61	44971.05
561.78	45048.29
561.94	44905.52
562.11	44222.08
562.27	44451.45
562.44	44877.43
562.60	44722.96
562.77	45291.71
562.93	44910.20
563.10	45312.77
563.26	44570.82
563.42	45041.27
563.59	44486.56
563.75	45181.70
563.92	45048.29
564.08	44858.71
564.24	45336.18
564.41	45228.51
564.57	45263.62
564.74	44889.13
564.90	44896.16
565.07	45074.04
565.23	45277.66
565.39	45052.97
565.56	44837.64
565.72	44858.71
565.88	45319.79
566.05	45029.57
566.21	45067.02
566.38	45125.53
566.54	45083.40
566.70	45284.68
566.87	45645.13
567.03	45378.31
567.19	45378.31
567.36	45280.00
567.52	45336.18
567.68	45490.65
567.85	45275.32
568.01	45551.51
568.17	45471.93
568.34	45574.91
568.50	44699.55
568.66	45649.81
568.83	45462.57
568.99	45497.67
569.15	45474.27
569.32	45315.11
569.48	45610.02
569.64	45500.01
569.81	45972.80
569.97	45436.82
570.13	45549.17
570.30	45177.02
570.46	45287.03
570.62	45010.84
570.78	45394.69
570.95	44957.01
571.11	45879.18
571.27	45141.91
571.43	45223.83
571.60	45457.88
571.76	45406.39
571.92	45347.88
572.09	45284.68
572.25	45404.05
572.41	45546.82
572.57	45460.23
572.74	45808.96
572.90	45069.36
573.06	45544.48
573.22	45455.54
573.38	45310.43
573.55	45212.13
573.71	45261.28
573.87	45237.87
574.03	45303.41
574.20	45467.25
574.36	45495.33
574.52	45698.96
574.68	45776.20
574.84	45483.63
575.01	45705.98
575.17	45375.97
575.33	45275.32
575.49	45933.01
575.65	45862.80
575.82	45993.87
575.98	45284.68
576.14	46028.98
576.30	46136.64
576.46	45727.05
576.62	45371.28
576.79	45535.12
576.95	45567.89
577.11	45310.43
577.27	45490.65
577.43	45696.62
577.59	45748.11
577.75	45918.97
577.92	45326.81
578.08	45577.25
578.24	45137.23
578.40	45567.89
578.56	45654.49
578.72	45703.64
578.88	46071.10
579.04	45102.12
579.21	45214.47
579.37	45668.53
579.53	45528.10
579.69	45322.13
579.85	45703.64
580.01	45839.39
580.17	45668.53
580.33	45741.09
580.49	45811.31
580.65	45703.64
580.82	45940.04
580.98	45265.96
581.14	45574.91
581.30	45808.96
581.46	46103.87
581.62	45626.40
581.78	45846.41
581.94	46234.94
582.10	45603.00
582.26	45397.03
582.42	45689.60
582.58	45734.07
582.74	45399.37
582.90	45937.69
583.06	46047.70
583.22	45764.49
583.38	45916.63
583.54	45752.79
583.70	46047.70
583.86	45928.33
584.02	45144.25
584.18	45825.35
584.34	45787.90
584.50	45808.96
584.66	45544.48
584.82	45666.19
584.98	45771.52
585.14	46017.27
585.30	45570.23
585.46	45832.37
585.62	45429.80
585.78	45525.76
585.94	45158.30
586.10	45846.41
586.26	45525.76
586.42	45584.27
586.58	45893.22
586.74	45617.04
586.90	45724.71
587.06	45645.13
587.22	45792.58
587.38	45591.30
587.54	45813.65
587.70	45710.66
587.86	45668.53
588.02	45598.32
588.18	45755.13
588.34	45827.69
588.49	45677.90
588.65	45375.97
588.81	45553.85
588.97	45584.27
589.13	45532.78
589.29	45535.12
589.45	45656.83
589.61	45759.81
589.77	45989.19
589.93	46092.17
590.08	46162.39
