SpectraSuite Data File
++++++++++++++++++++++++++++++++++++
Date: Fri Oct 25 11:26:37 EDT 2013
User: price-jones
Dark Spectrum Present: No
Reference Spectrum Present: No
Number of Sampled Component Spectra: 1
Spectrometers: USB2+H05261
Integration Time (usec): 100000 (USB2+H05261)
Spectra Averaged: 1 (USB2+H05261)
Boxcar Smoothing: 0 (USB2+H05261)
Correct for Electrical Dark: No (USB2+H05261)
Strobe/Lamp Enabled: No (USB2+H05261)
Correct for Detector Non-linearity: No (USB2+H05261)
Correct for Stray Light: No (USB2+H05261)
Number of Pixels in Processed Spectrum: 2048
>>>>>Begin Processed Spectral Data<<<<<
365.73	292.57
365.92	292.57
366.12	292.57
366.32	201.29
366.52	189.58
366.72	182.56
366.91	88.94
367.11	152.13
367.31	180.22
367.51	95.96
367.70	131.07
367.90	210.65
368.10	170.86
368.30	177.88
368.49	147.45
368.69	210.65
368.89	168.52
369.09	159.16
369.28	175.54
369.48	182.56
369.68	222.35
369.87	163.84
370.07	208.31
370.27	182.56
370.47	421.30
370.66	592.16
370.86	702.16
371.06	699.82
371.25	662.37
371.45	627.26
371.65	763.01
371.84	660.03
372.04	734.93
372.24	711.52
372.44	727.91
372.63	688.12
372.83	777.06
373.03	734.93
373.22	795.78
373.42	765.36
373.62	788.76
373.81	772.38
374.01	842.59
374.21	741.95
374.40	760.67
374.60	833.23
374.79	842.59
374.99	851.96
375.19	854.30
375.38	847.27
375.58	830.89
375.78	926.85
375.97	842.59
376.17	891.74
376.37	933.87
376.56	924.51
376.76	873.02
376.95	802.80
377.15	903.45
377.35	856.64
377.54	912.81
377.74	873.02
377.93	973.66
378.13	866.00
378.33	915.15
378.52	929.19
378.72	933.87
378.91	950.26
379.11	924.51
379.31	945.58
379.50	922.17
379.70	987.71
379.89	1020.47
380.09	1008.77
380.28	1020.47
380.48	999.41
380.68	994.73
380.87	1107.07
381.07	1029.84
381.26	1025.15
381.46	973.66
381.65	1020.47
381.85	1008.77
382.04	1048.56
382.24	1163.25
382.43	1048.56
382.63	1086.01
382.83	1071.97
383.02	1102.39
383.22	1090.69
383.41	1107.07
383.61	1132.82
383.80	1151.54
384.00	1078.99
384.19	1217.08
384.39	1128.14
384.58	1198.35
384.78	1217.08
384.97	1165.59
385.17	1181.97
385.36	1219.42
385.56	1193.67
385.75	1123.46
385.95	1153.88
386.14	1142.18
386.34	1242.82
386.53	1203.04
386.72	1263.89
386.92	1282.61
387.11	1160.91
387.31	1238.14
387.50	1210.06
387.70	1261.55
387.89	1252.19
388.09	1247.51
388.28	1231.12
388.48	1310.70
388.67	1289.64
388.86	1380.92
389.06	1303.68
389.25	1350.49
389.45	1331.76
389.64	1378.58
389.84	1369.21
390.03	1401.98
390.22	1460.49
390.42	1357.51
390.61	1401.98
390.81	1404.32
391.00	1399.64
391.19	1455.81
391.39	1380.92
391.58	1575.18
391.78	1423.05
391.97	1530.71
392.16	1528.37
392.36	1453.47
392.55	1483.90
392.75	1504.96
392.94	1486.24
393.13	1511.99
393.33	1493.26
393.52	1659.44
393.71	1610.29
393.91	1549.43
394.10	1624.33
394.29	1652.42
394.49	1575.18
394.68	1792.85
394.88	1640.72
395.07	1781.15
395.26	1591.56
395.46	1657.10
395.65	1659.44
395.84	1799.87
396.04	1774.13
396.23	1849.02
396.42	1760.08
396.62	1739.02
396.81	1778.81
397.00	1701.57
397.19	1830.30
397.39	1884.13
397.58	1860.73
397.77	1902.86
397.97	1809.23
398.16	1762.42
398.35	1881.79
398.55	1870.09
398.74	1909.88
398.93	1893.49
399.12	1816.26
399.32	1865.41
399.51	1973.07
399.70	1907.54
399.90	1940.30
400.09	1980.09
400.28	2010.52
400.47	2094.78
400.67	2097.12
400.86	2087.76
401.05	2125.21
401.24	2031.58
401.44	2148.61
401.63	2176.70
401.82	2202.44
402.01	2132.23
402.21	2228.19
402.40	2181.38
402.59	2209.47
402.78	2136.91
402.97	2120.53
403.17	2225.85
403.36	2289.04
403.55	2328.83
403.74	2394.37
403.93	2363.94
404.13	2368.62
404.32	2319.47
404.51	2530.12
404.70	2436.50
404.89	2314.79
405.09	2473.95
405.28	2471.61
405.47	2490.33
405.66	2499.69
405.85	2497.35
406.05	2574.59
406.24	2569.91
406.43	2637.78
406.62	2635.44
406.81	2665.87
407.00	2548.84
407.20	2602.68
407.39	2708.00
407.58	2771.19
407.77	2712.68
407.96	2803.96
408.15	2803.96
408.34	2719.70
408.54	2696.30
408.73	2759.49
408.92	2829.71
409.11	2881.20
409.30	2949.08
409.49	2953.76
409.68	2939.71
409.87	2979.50
410.07	3052.06
410.26	2998.23
410.45	3112.91
410.64	3131.64
410.83	2972.48
411.02	3124.62
411.21	3187.81
411.40	3112.91
411.59	3082.49
411.78	3318.88
411.98	3316.54
412.17	3201.85
412.36	3332.92
412.55	3377.39
412.74	3370.37
412.93	3471.01
413.12	3328.24
413.31	3531.87
413.50	3473.36
413.69	3452.29
413.88	3625.49
414.07	3550.59
414.26	3606.77
414.45	3623.15
414.64	3648.90
414.83	3784.65
415.02	3726.13
415.22	3864.22
415.41	3899.33
415.60	3887.63
415.79	3796.35
415.98	3997.64
416.17	3946.14
416.36	4063.17
416.55	3976.57
416.74	4163.81
416.93	4084.23
417.12	4327.65
417.31	4234.03
417.50	4105.30
417.69	4278.50
417.88	4276.16
418.07	4243.39
418.26	4210.62
418.45	4327.65
418.64	4449.36
418.83	4526.60
419.02	4381.48
419.21	4524.26
419.39	4559.36
419.58	4554.68
419.77	4423.61
419.96	4685.75
420.15	4414.25
420.34	4690.43
420.53	4561.70
420.72	4615.54
420.91	4561.70
421.10	4758.31
421.29	4957.25
421.48	4762.99
421.67	4767.67
421.86	4676.39
422.05	4865.97
422.24	4854.27
422.43	4805.12
422.61	4957.25
422.80	4924.49
422.99	4943.21
423.18	4887.04
423.37	5043.85
423.56	5027.47
423.75	4940.87
423.94	4732.56
424.13	4713.84
424.32	4772.35
424.50	5116.41
424.69	5289.61
424.88	5093.01
425.07	5032.15
425.26	4884.70
425.45	4961.94
425.64	5046.20
425.83	5064.92
426.01	5088.32
426.20	4905.76
426.39	5069.60
426.58	5039.17
426.77	5085.98
426.96	5093.01
427.15	5289.61
427.33	5254.50
427.52	5275.57
427.71	5240.46
427.90	5174.92
428.09	5362.17
428.28	5467.49
428.46	5378.55
428.65	5479.19
428.84	5483.88
429.03	5575.16
429.22	5212.37
429.40	5427.70
429.59	5568.13
429.78	5406.64
429.97	5315.36
430.16	5518.98
430.34	5664.10
430.53	5628.99
430.72	5610.26
430.91	5652.39
431.10	5540.05
431.28	5692.18
431.47	5839.64
431.66	5863.04
431.85	5706.23
432.03	5991.77
432.22	6122.84
432.41	6017.52
432.60	5881.77
432.79	6052.63
432.97	6036.24
433.16	5954.32
433.35	6017.52
433.54	6118.16
433.72	6197.74
433.91	6132.20
434.10	6200.08
434.28	6143.91
434.47	6193.06
434.66	6141.57
434.85	6305.40
435.03	6314.77
435.22	6289.02
435.41	6504.35
435.59	6377.96
435.78	6340.51
435.97	6438.81
436.16	6417.75
436.34	6448.18
436.53	6530.09
436.72	6609.67
436.90	6471.58
437.09	6778.19
437.28	6523.07
437.46	6569.88
437.65	6768.83
437.84	6703.29
438.02	6523.07
438.21	6904.58
438.40	6717.34
438.58	6909.26
438.77	7143.32
438.96	7159.70
439.14	7103.53
439.33	7246.30
439.52	7314.17
439.70	7047.35
439.89	7213.53
440.08	7346.94
440.26	7382.05
440.45	7524.82
440.63	7510.78
440.82	7585.68
441.01	7559.93
441.19	7669.94
441.38	7801.01
441.57	7754.19
441.75	7808.03
441.94	7873.56
442.12	7906.33
442.31	8100.59
442.50	8042.08
442.68	8133.36
442.87	8098.25
443.05	8142.72
443.24	8336.99
443.43	8187.19
443.61	8393.16
443.80	8517.21
443.98	8177.83
444.17	7967.18
444.35	8175.49
444.54	8257.41
444.73	8344.01
444.91	8320.60
445.10	8224.64
445.28	8418.91
445.47	8180.17
445.65	8250.39
445.84	8557.00
446.02	8475.08
446.21	8376.78
446.39	8252.73
446.58	8685.73
446.77	8622.53
446.95	8121.66
447.14	8477.42
447.32	8521.89
447.51	8348.69
447.69	8484.44
447.88	8535.93
448.06	8751.26
448.25	8828.50
448.43	8631.90
448.62	8557.00
448.80	8697.43
448.99	8870.63
449.17	8690.41
449.36	8613.17
449.54	8870.63
449.73	9071.92
449.91	9046.17
450.10	9095.32
450.28	9022.77
450.46	9172.56
450.65	9210.01
450.83	8940.85
451.02	9088.30
451.20	9228.73
451.39	9160.86
451.57	9205.33
451.76	9174.90
451.94	9174.90
452.13	9394.91
452.31	9338.74
452.49	9247.46
452.68	9186.60
452.86	9305.97
453.05	9399.59
453.23	9404.27
453.42	9324.69
453.60	9394.91
453.78	9830.25
453.97	9509.60
454.15	9523.64
454.34	9561.09
454.52	9717.90
454.70	9472.15
454.89	9547.05
455.07	9593.86
455.26	9748.33
455.44	9963.66
455.62	9966.00
455.81	10118.14
455.99	10066.64
456.17	10183.67
456.36	10017.49
456.54	10260.91
456.73	10202.40
456.91	10520.71
457.09	10429.43
457.28	10668.16
457.46	10403.68
457.64	10663.48
457.83	10359.21
458.01	10590.92
458.19	10693.91
458.38	10654.12
458.56	10824.98
458.74	10925.62
458.93	10721.99
459.11	10745.40
459.29	10740.72
459.48	10885.83
459.66	10621.35
459.84	10827.32
460.03	11360.96
460.21	11075.42
460.39	10897.53
460.57	10986.47
460.76	11154.99
460.94	11164.36
461.12	11295.43
461.31	11211.17
461.49	11246.27
461.67	11265.00
461.85	11274.36
462.04	11262.66
462.22	11433.52
462.40	11611.40
462.59	11620.76
462.77	11489.69
462.95	11955.46
463.13	11721.40
463.32	11459.26
463.50	11627.78
463.68	11997.59
463.86	11880.56
464.05	11456.92
464.23	11719.06
464.41	12077.16
464.59	11679.27
464.78	12212.92
464.96	12128.66
465.14	11925.03
465.32	12135.68
465.50	12159.08
465.69	12388.46
465.87	12156.74
466.05	12217.60
466.23	12311.22
466.41	12533.57
466.60	12702.09
466.78	12283.13
466.96	12355.69
467.14	12322.92
467.32	12381.43
467.51	12606.13
467.69	12135.68
467.87	12601.44
468.05	12652.94
468.23	12517.18
468.41	12446.97
468.60	12610.81
468.78	12830.82
468.96	12674.00
469.14	12716.13
469.32	13004.02
469.50	12751.24
469.69	12994.65
469.87	13151.47
470.05	13109.34
470.23	13184.24
470.41	13081.25
470.59	13591.49
470.77	13593.83
470.95	13390.20
471.14	13902.78
471.32	13437.02
471.50	13668.73
471.68	13654.69
471.86	13654.69
472.04	13923.85
472.22	14099.39
472.40	13823.20
472.58	13949.59
472.77	14040.87
472.95	13902.78
473.13	14754.74
473.31	13991.72
473.49	14174.28
473.67	14167.26
473.85	14443.45
474.03	14775.80
474.21	14569.83
474.39	14869.42
474.57	14977.09
474.75	14963.04
474.93	15033.26
475.12	15047.30
475.30	15314.13
475.48	15218.16
475.66	15218.16
475.84	15164.33
476.02	15461.58
476.20	15314.13
476.38	15660.52
476.56	16201.19
476.74	16020.97
476.92	15899.26
477.10	16023.31
477.28	16004.58
477.46	16365.03
477.64	16421.20
477.82	16709.08
478.00	16896.33
478.18	16910.37
478.36	17057.82
478.54	17411.25
478.72	17245.07
478.90	17198.26
479.08	17362.09
479.26	17741.26
479.44	17647.64
479.62	17982.34
479.80	18029.15
479.98	17930.84
480.16	18569.81
480.34	18457.46
480.52	18663.43
480.70	18899.83
480.88	18485.55
481.06	18890.46
481.24	18981.74
481.41	19070.68
481.59	19445.17
481.77	19459.21
481.95	19459.21
482.13	19786.89
482.31	19908.60
482.49	20421.17
482.67	20210.53
482.85	20706.72
483.03	20486.71
483.21	20807.36
483.39	21394.84
483.57	20643.52
483.74	21219.30
483.92	21591.44
484.10	21142.06
484.28	22174.24
484.46	21895.71
484.64	22410.63
484.82	22115.72
485.00	22221.05
485.18	22948.95
485.35	22958.31
485.53	22817.88
485.71	23056.62
485.89	23747.08
486.07	23447.49
486.25	23403.02
486.43	23536.43
486.61	23763.46
486.78	24224.54
486.96	24203.48
487.14	24690.31
487.32	24582.65
487.50	24659.88
487.68	25095.22
487.85	25401.83
488.03	25603.12
488.21	25961.22
488.39	25853.56
488.57	26480.82
488.75	26525.29
488.92	26625.93
489.10	26747.64
489.28	26967.65
489.46	27138.51
489.64	27311.71
489.81	27620.66
489.99	27988.13
490.17	27887.48
490.35	28350.91
490.53	28219.84
490.70	28313.46
490.88	28498.36
491.06	29132.65
491.24	28905.62
491.41	29340.96
491.59	29631.18
491.77	29626.50
491.95	29699.06
492.13	29895.66
492.30	29930.77
492.48	30089.93
492.66	30125.04
492.84	30445.69
493.01	30815.49
493.19	30588.46
493.37	30864.64
493.54	31337.43
493.72	31697.88
493.90	31648.72
494.08	31850.01
494.25	32432.80
494.43	32486.64
494.61	32477.27
494.79	32334.50
494.96	32449.19
495.14	32563.87
495.32	33310.50
495.49	33394.76
495.67	33230.93
495.85	33659.24
496.02	33736.48
496.20	34403.53
496.38	34024.37
496.55	34361.40
496.73	34824.83
496.91	34476.09
497.09	35051.86
497.26	35098.67
497.44	35021.44
497.62	35641.68
497.79	36198.73
497.97	35681.47
498.14	36222.13
498.32	35772.75
498.50	36425.76
498.67	36708.96
498.85	36711.30
499.03	36886.84
499.20	36987.49
499.38	37008.55
499.56	36835.35
499.73	37317.50
499.91	37474.32
500.08	37773.91
500.26	37949.45
500.44	38024.34
500.61	38101.58
500.79	37474.32
500.97	38323.93
501.14	39058.86
501.32	38679.69
501.49	38263.08
501.67	39147.80
501.84	39318.66
502.02	38995.67
502.20	39372.49
502.37	39470.79
502.55	39487.18
502.72	39875.71
502.90	39648.68
503.07	39559.73
503.25	39798.47
503.43	39796.13
503.60	39866.34
503.78	40849.37
503.95	40091.04
504.13	40257.21
504.30	41015.55
504.48	40762.77
504.65	41081.08
504.83	41254.28
505.01	41301.09
505.18	41556.21
505.36	42066.45
505.53	41188.75
505.71	41766.86
505.88	42167.09
506.06	41579.62
506.23	42216.24
506.41	42185.82
506.58	42508.81
506.76	42368.38
506.93	42183.48
507.11	42431.57
507.28	42974.58
507.46	42679.67
507.63	42763.93
507.81	43573.75
507.98	43203.95
508.16	43522.26
508.33	43873.34
508.50	43929.51
508.68	44046.54
508.85	44069.95
509.03	43412.26
509.20	44116.76
509.38	44526.35
509.55	44421.03
509.73	44481.88
509.90	44690.19
510.08	44634.02
510.25	44816.58
510.42	44928.92
510.60	44900.84
510.77	45155.96
510.95	45511.72
511.12	45338.52
511.30	45427.46
511.47	45649.81
511.64	45495.33
511.82	45942.38
511.99	46096.85
512.17	46464.32
512.34	46124.94
512.51	46698.37
512.69	46471.34
512.86	46691.35
513.04	47161.79
513.21	46824.76
513.38	46658.58
513.56	46925.40
513.73	46883.27
513.90	46878.59
514.08	46824.76
514.25	47250.74
514.43	47538.62
514.60	47309.25
514.77	47498.83
514.95	47751.61
515.12	47601.82
515.29	47693.10
515.47	48252.48
515.64	48053.54
515.81	47849.91
515.99	48306.32
516.16	48470.15
516.33	48446.75
516.51	48732.29
516.68	48809.53
516.85	48605.91
517.03	48877.41
517.20	49188.70
517.37	49071.67
517.54	49057.63
517.72	49296.36
517.89	48914.86
518.06	49352.54
518.24	49029.54
518.41	49205.08
518.58	49317.43
518.75	49471.90
518.93	49766.81
519.10	49652.12
519.27	49923.63
519.45	49790.22
519.62	50153.00
519.79	50138.96
519.96	50120.23
520.14	50220.87
520.31	50075.76
520.48	50515.78
520.65	50468.97
520.83	50735.79
521.00	50780.26
521.17	50487.70
521.34	50848.14
521.52	50911.33
521.69	50763.88
521.86	51007.29
522.03	51292.84
522.20	51306.88
522.38	51473.06
522.55	51615.83
522.72	51468.38
522.89	51517.53
523.07	51597.11
523.24	51531.57
523.41	51915.42
523.58	51529.23
523.75	52168.20
523.92	51742.22
524.10	51737.54
524.27	52430.34
524.44	52004.36
524.61	52308.63
524.78	52144.80
524.96	51906.06
525.13	52917.17
525.30	52245.44
525.47	52505.24
525.64	52549.71
525.81	52556.73
525.98	52800.15
526.16	52601.20
526.33	52776.74
526.50	53212.08
526.67	52669.08
526.84	53176.97
527.01	53078.67
527.18	53212.08
527.36	53310.38
527.53	53310.38
527.70	53251.87
527.87	53446.13
528.04	53371.24
528.21	53450.81
528.38	53663.80
528.55	53483.58
528.72	53462.52
528.89	53652.10
529.07	53378.26
529.24	53387.62
529.41	53755.08
529.58	53790.19
529.75	53907.22
529.92	53792.53
530.09	53453.15
530.26	54122.55
530.43	54092.12
530.60	53696.57
530.77	54000.84
530.94	54117.87
531.11	54085.10
531.28	54372.99
531.46	54099.14
531.63	54270.00
531.80	54136.59
531.97	54752.15
532.14	54618.74
532.31	54431.50
532.48	54497.03
532.65	54738.11
532.82	54681.94
532.99	54955.78
533.16	54576.61
533.33	54866.84
533.50	55201.53
533.67	54962.80
533.84	54754.49
534.01	55009.61
534.18	55103.23
534.35	55250.69
534.52	55152.38
534.69	55121.96
534.86	55512.83
535.03	55096.21
535.20	55386.44
535.37	55482.40
535.54	55370.05
535.71	55236.64
535.88	55461.33
536.05	55807.73
536.22	55583.04
536.38	55657.94
536.55	55765.60
536.72	55608.79
536.89	55611.13
537.06	55751.56
537.23	55894.33
537.40	55580.70
537.57	55964.55
537.74	55838.16
537.91	55950.51
538.08	55882.63
538.25	55763.26
538.42	55910.72
538.59	56191.58
538.75	55978.59
538.92	56186.90
539.09	56170.52
539.26	56200.94
539.43	56191.58
539.60	56207.97
539.77	56561.39
539.94	56537.98
540.11	56392.87
540.28	56442.02
540.44	56680.75
540.61	56465.42
540.78	56690.12
540.95	56329.67
541.12	56514.58
541.29	56528.62
541.46	56556.70
541.62	56240.73
541.79	56809.48
541.96	56612.88
542.13	56786.08
542.30	56786.08
542.47	56982.68
542.63	57076.30
542.80	56956.94
542.97	57083.33
543.14	57265.89
543.31	57134.82
543.48	57408.66
543.64	57628.67
543.81	57521.01
543.98	57268.23
544.15	57275.25
544.32	57623.99
544.48	57726.97
544.65	57450.79
544.82	57525.69
544.99	57483.56
545.16	57532.71
545.32	57544.41
545.49	57836.98
545.66	57736.34
545.83	57654.42
546.00	57820.59
546.16	57712.93
546.33	57656.76
546.50	57549.09
546.67	58054.65
546.83	57518.67
547.00	57719.95
547.17	57858.04
547.34	58014.86
547.50	57792.51
547.67	58382.32
547.84	57989.11
548.00	58230.19
548.17	58291.04
548.34	58232.53
548.51	58185.72
548.67	58389.34
548.84	58129.54
549.01	58174.02
549.18	58305.09
549.34	58248.91
549.51	58223.17
549.68	58520.41
549.84	58281.68
550.01	58314.45
550.18	58389.34
550.34	58443.18
550.51	58539.14
550.68	58492.33
550.84	58314.45
551.01	58787.24
551.18	58426.79
551.34	58721.70
551.51	58717.02
551.68	58649.14
551.84	58712.34
552.01	58574.25
552.18	58602.33
552.34	58604.67
552.51	58674.89
552.68	58665.53
552.84	58670.21
553.01	59133.63
553.18	58904.26
553.34	58899.58
553.51	58698.30
553.67	58824.68
553.84	59180.45
554.01	58965.12
554.17	59112.57
554.34	59196.83
554.51	59086.82
554.67	58913.62
554.84	59117.25
555.00	59220.23
555.17	59028.31
555.33	59131.29
555.50	59047.04
555.67	59145.34
555.83	59040.01
556.00	59114.91
556.16	59510.46
556.33	59285.77
556.50	59358.33
556.66	59360.67
556.83	59189.81
556.99	59341.94
557.16	59702.38
557.32	59627.49
557.49	59667.28
557.65	59437.90
557.82	59512.80
557.98	59592.38
558.15	59606.42
558.32	59540.89
558.48	59407.48
558.65	59498.76
558.81	59381.73
558.98	59557.27
559.14	59578.34
559.31	59547.91
559.47	59749.20
559.64	59690.68
559.80	59833.46
559.97	59880.27
560.13	59686.00
560.30	59590.04
560.46	59634.51
560.63	59880.27
560.79	59934.10
560.96	59856.86
561.12	60062.83
561.29	59929.42
561.45	60016.02
561.61	59817.07
561.78	59887.29
561.94	59807.71
562.11	59838.14
562.27	59983.25
562.44	59915.37
562.60	60268.79
562.77	59969.21
562.93	59859.20
563.10	60104.96
563.26	60058.15
563.42	60257.09
563.59	60074.53
563.75	60135.38
563.92	60238.37
564.08	60102.62
564.24	60376.46
564.41	60245.39
564.57	60303.90
564.74	60231.35
564.90	60200.92
565.07	60331.99
565.23	60016.02
565.39	60137.72
565.56	60331.99
565.72	60243.05
565.88	60317.95
566.05	60051.12
566.21	60287.52
566.38	60280.50
566.54	60346.03
566.70	60353.05
566.87	60350.71
567.03	60184.54
567.19	60278.16
567.36	60392.84
567.52	60327.31
567.68	60626.90
567.85	60395.18
568.01	60619.88
568.17	60418.59
568.34	60388.16
568.50	60441.99
568.66	60493.49
568.83	60533.28
568.99	60322.63
569.15	60498.17
569.32	60502.85
569.48	60383.48
569.64	60697.11
569.81	60540.30
569.97	60566.04
570.13	60647.96
570.30	60402.21
570.46	60610.51
570.62	60626.90
570.78	60701.79
570.95	60566.04
571.11	60587.11
571.27	60388.16
571.43	60544.98
571.60	60563.70
571.76	60662.00
571.92	60547.32
572.09	60804.78
572.25	60605.83
572.41	60563.70
572.57	60556.68
572.74	60582.43
572.90	60746.26
573.06	60760.31
573.22	60676.05
573.38	60739.24
573.55	60444.33
573.71	60781.37
573.87	60907.76
574.03	60626.90
574.20	60779.03
574.36	60561.36
574.52	60905.42
574.68	60793.07
574.84	60905.42
575.01	60980.32
575.17	60659.66
575.33	60804.78
575.49	60498.17
575.65	60837.54
575.82	60755.63
575.98	60643.28
576.14	61010.74
576.30	60987.34
576.46	60917.12
576.62	60832.86
576.79	60832.86
576.95	60615.19
577.11	60615.19
577.27	60982.66
577.43	60931.17
577.59	60720.52
577.75	60764.99
577.92	60870.31
578.08	60837.54
578.24	60963.93
578.40	61123.09
578.56	61003.72
578.72	60893.72
578.88	61127.77
579.04	61003.72
579.21	60860.95
579.37	61006.06
579.53	61003.72
579.69	60793.07
579.85	60975.64
580.01	60907.76
580.17	60631.58
580.33	60989.68
580.49	60996.70
580.65	61031.81
580.82	60802.44
580.98	60912.44
581.14	60954.57
581.30	61059.90
581.46	60919.46
581.62	60774.35
581.78	60917.12
581.94	61048.19
582.10	61022.45
582.26	61043.51
582.42	60870.31
582.58	61003.72
582.74	60926.49
582.90	61083.30
583.06	60947.55
583.22	60919.46
583.38	60956.91
583.54	60811.80
583.70	60921.80
583.86	61160.54
584.02	60828.18
584.18	61123.09
584.34	60931.17
584.50	61158.20
584.66	60985.00
584.82	61031.81
584.98	61293.95
585.14	61066.92
585.30	61041.17
585.46	61059.90
585.62	61017.77
585.78	61305.65
585.94	60945.21
586.10	61097.34
586.26	60985.00
586.42	60947.55
586.58	61148.84
586.74	61153.52
586.90	61066.92
587.06	61027.13
587.22	61329.06
587.38	61165.22
587.54	61116.07
587.70	61261.18
587.86	61066.92
588.02	60977.98
588.18	61165.22
588.34	61256.50
