SpectraSuite Data File
++++++++++++++++++++++++++++++++++++
Date: Fri Oct 25 10:44:30 EDT 2013
User: price-jones
Dark Spectrum Present: No
Reference Spectrum Present: No
Number of Sampled Component Spectra: 1
Spectrometers: USB2+H05261
Integration Time (usec): 100000 (USB2+H05261)
Spectra Averaged: 1 (USB2+H05261)
Boxcar Smoothing: 0 (USB2+H05261)
Correct for Electrical Dark: No (USB2+H05261)
Strobe/Lamp Enabled: No (USB2+H05261)
Correct for Detector Non-linearity: No (USB2+H05261)
Correct for Stray Light: No (USB2+H05261)
Number of Pixels in Processed Spectrum: 2048
>>>>>Begin Processed Spectral Data<<<<<
365.73	124.05
365.92	124.05
366.12	124.05
366.32	53.83
366.52	49.15
366.72	39.79
366.91	0.00
367.11	0.00
367.31	21.06
367.51	28.09
367.70	2.34
367.90	35.11
368.10	79.58
368.30	51.49
368.49	16.38
368.69	93.62
368.89	0.00
369.09	46.81
369.28	84.26
369.48	100.64
369.68	67.88
369.87	72.56
370.07	58.51
370.27	100.64
370.47	229.37
370.66	341.72
370.86	393.21
371.06	447.04
371.25	477.47
371.45	395.55
371.65	479.81
371.84	444.70
372.04	454.06
372.24	482.15
372.44	510.24
372.63	571.09
372.83	444.70
373.03	458.74
373.22	526.62
373.42	545.34
373.62	507.90
373.81	592.16
374.01	491.51
374.21	566.41
374.40	503.22
374.60	552.37
374.79	566.41
374.99	554.71
375.19	547.69
375.38	559.39
375.58	472.79
375.78	578.11
375.97	573.43
376.17	662.37
376.37	564.07
376.56	601.52
376.76	498.53
376.95	585.13
377.15	601.52
377.35	613.22
377.54	571.09
377.74	589.82
377.93	540.66
378.13	629.60
378.33	685.78
378.52	648.33
378.72	610.88
378.91	692.80
379.11	608.54
379.31	578.11
379.50	571.09
379.70	741.95
379.89	667.05
380.09	671.73
380.28	653.01
380.48	678.76
380.68	610.88
380.87	638.97
381.07	620.24
381.26	678.76
381.46	678.76
381.65	629.60
381.85	734.93
382.04	655.35
382.24	664.71
382.43	709.18
382.63	657.69
382.83	674.07
383.02	711.52
383.22	662.37
383.41	723.23
383.61	746.63
383.80	760.67
384.00	716.20
384.19	720.88
384.39	739.61
384.58	875.36
384.78	746.63
384.97	734.93
385.17	732.59
385.36	809.83
385.56	763.01
385.75	777.06
385.95	861.32
386.14	770.04
386.34	758.33
386.53	807.48
386.72	847.27
386.92	854.30
387.11	798.12
387.31	938.55
387.50	807.48
387.70	774.72
387.89	802.80
388.09	795.78
388.28	781.74
388.48	847.27
388.67	866.00
388.86	884.72
389.06	957.28
389.25	870.68
389.45	840.25
389.64	959.62
389.84	959.62
390.03	980.68
390.22	980.68
390.42	894.08
390.61	1008.77
390.81	938.55
391.00	983.02
391.19	1008.77
391.39	971.32
391.58	1018.13
391.78	968.98
391.97	1020.47
392.16	1053.24
392.36	1067.28
392.55	976.00
392.75	950.26
392.94	1008.77
393.13	1032.18
393.33	985.37
393.52	973.66
393.71	1104.73
393.91	987.71
394.10	1083.67
394.29	1184.31
394.49	1116.44
394.68	1156.22
394.88	1217.08
395.07	1118.78
395.26	1214.74
395.46	1135.16
395.65	1212.40
395.84	1151.54
396.04	1242.82
396.23	1107.07
396.42	1015.79
396.62	1097.71
396.81	1177.29
397.00	1221.76
397.19	1193.67
397.39	1287.29
397.58	1226.44
397.77	1296.66
397.97	1261.55
398.16	1277.93
398.35	1423.05
398.55	1345.81
398.74	1446.45
398.93	1523.69
399.12	1359.85
399.32	1441.77
399.51	1409.00
399.70	1416.02
399.90	1413.68
400.09	1533.05
400.28	1465.18
400.47	1490.92
400.67	1617.31
400.86	1495.60
401.05	1626.67
401.24	1486.24
401.44	1504.96
401.63	1495.60
401.82	1488.58
402.01	1643.06
402.21	1617.31
402.40	1610.29
402.59	1675.82
402.78	1561.14
402.97	1696.89
403.17	1675.82
403.36	1764.76
403.55	1769.44
403.74	1760.08
403.93	1713.27
404.13	1795.19
404.32	1858.39
404.51	1687.53
404.70	1827.96
404.89	1657.10
405.09	1816.26
405.28	1832.64
405.47	1753.06
405.66	1727.32
405.85	1764.76
406.05	1935.62
406.24	1834.98
406.43	1865.41
406.62	1961.37
406.81	1930.94
407.00	1877.11
407.20	1933.28
407.39	1886.47
407.58	1959.03
407.77	2029.24
407.96	2108.82
408.15	2118.18
408.34	2026.90
408.54	2019.88
408.73	2143.93
408.92	2228.19
409.11	2143.93
409.30	2195.42
409.49	2172.02
409.68	2071.37
409.87	2282.02
410.07	2258.62
410.26	2265.64
410.45	2207.13
410.64	2377.98
410.83	2354.58
411.02	2452.88
411.21	2368.62
411.40	2399.05
411.59	2506.71
411.78	2399.05
411.98	2399.05
412.17	2480.97
412.36	2478.63
412.55	2581.61
412.74	2619.06
412.93	2562.89
413.12	2408.41
413.31	2644.81
413.50	2569.91
413.69	2745.45
413.88	2686.94
414.07	2710.34
414.26	2773.53
414.45	2733.75
414.64	2876.52
414.83	2818.00
415.02	2815.66
415.22	2984.18
415.41	3049.72
415.60	2939.71
415.79	2991.20
415.98	3030.99
416.17	2904.60
416.36	2965.46
416.55	2946.73
416.74	3091.85
416.93	3075.46
417.12	3075.46
417.31	3171.43
417.50	3136.32
417.69	3300.16
417.88	3173.77
418.07	3208.87
418.26	3290.79
418.45	3283.77
418.64	3365.69
418.83	3372.71
419.02	3248.66
419.21	3316.54
419.39	3375.05
419.58	3412.50
419.77	3325.90
419.96	3384.41
420.15	3513.14
420.34	3356.33
420.53	3499.10
420.72	3534.21
420.91	3538.89
421.10	3595.06
421.29	3501.44
421.48	3522.51
421.67	3564.64
421.86	3543.57
422.05	3604.42
422.24	3597.40
422.43	3599.74
422.61	3698.05
422.80	3571.66
422.99	3662.94
423.18	3765.92
423.37	3686.34
423.56	3698.05
423.75	3815.07
423.94	3784.65
424.13	3438.25
424.32	3574.00
424.50	3777.62
424.69	3833.80
424.88	3754.22
425.07	3737.84
425.26	3627.83
425.45	3808.05
425.64	3714.43
425.83	3784.65
426.01	3761.24
426.20	3887.63
426.39	3850.18
426.58	3693.37
426.77	3805.71
426.96	3796.35
427.15	3847.84
427.33	3997.64
427.52	3913.38
427.71	3936.78
427.90	3969.55
428.09	3950.82
428.28	3889.97
428.46	3990.61
428.65	3967.21
428.84	4112.32
429.03	4046.79
429.22	3927.42
429.40	4011.68
429.59	4028.06
429.78	3894.65
429.97	3810.39
430.16	3885.29
430.34	3885.29
430.53	4067.85
430.72	3960.19
430.91	4025.72
431.10	4081.89
431.28	4236.37
431.47	4409.57
431.66	4397.87
431.85	4287.86
432.03	4484.47
432.22	4463.40
432.41	4402.55
432.60	4376.80
432.79	4458.72
432.97	4554.68
433.16	4519.57
433.35	4273.82
433.54	4512.55
433.72	4517.23
433.91	4393.19
434.10	4533.62
434.28	4683.41
434.47	4540.64
434.66	4603.83
434.85	4528.94
435.03	4631.92
435.22	4697.46
435.41	4835.55
435.59	4800.44
435.78	4828.53
435.97	4833.21
436.16	4777.03
436.34	4858.95
436.53	4798.10
436.72	4880.02
436.90	4809.80
437.09	4795.76
437.28	4919.81
437.46	4830.87
437.65	4922.15
437.84	4873.00
438.02	4912.78
438.21	4727.88
438.40	4791.08
438.58	5067.26
438.77	5153.86
438.96	5160.88
439.14	5200.67
439.33	5404.30
439.52	5256.84
439.70	5341.10
439.89	5469.83
440.08	5427.70
440.26	5596.22
440.45	5439.40
440.63	5528.35
440.82	5537.71
441.01	5549.41
441.19	5774.10
441.38	5661.76
441.57	5750.70
441.75	5738.99
441.94	5891.13
442.12	6085.39
442.31	5968.37
442.50	6031.56
442.68	5987.09
442.87	6012.84
443.05	5996.45
443.24	5858.36
443.43	6022.20
443.61	6099.44
443.80	6207.10
443.98	5937.94
444.17	6001.13
444.35	6244.55
444.54	6218.80
444.73	5989.43
444.91	6017.52
445.10	5991.77
445.28	6169.65
445.47	6122.84
445.65	5956.66
445.84	6141.57
446.02	6382.64
446.21	6239.87
446.39	6244.55
446.58	6139.23
446.77	6209.44
446.95	6150.93
447.14	6328.81
447.32	6380.30
447.51	6228.17
447.69	6136.88
447.88	6282.00
448.06	6380.30
448.25	6504.35
448.43	6347.53
448.62	6298.38
448.80	6296.04
448.99	6258.59
449.17	6588.61
449.36	6490.31
449.54	6494.99
449.73	6621.38
449.91	6715.00
450.10	6672.87
450.28	6787.55
450.46	6672.87
450.65	6679.89
450.83	6932.67
451.02	6836.70
451.20	6963.09
451.39	6895.22
451.57	6729.04
451.76	6822.66
451.94	6960.75
452.13	6832.02
452.31	6853.09
452.49	6546.48
452.68	6913.94
452.86	6808.62
453.05	6977.14
453.23	6902.24
453.42	7023.95
453.60	6750.10
453.78	7009.90
453.97	6925.65
454.15	6993.52
454.34	6986.50
454.52	7105.87
454.70	7094.16
454.89	7105.87
455.07	7073.10
455.26	7274.38
455.44	7339.92
455.62	7101.19
455.81	7335.24
455.99	7414.82
456.17	7566.95
456.36	7360.98
456.54	7478.01
456.73	7639.51
456.91	7726.11
457.09	7620.78
457.28	7840.79
457.46	7585.68
457.64	7768.24
457.83	7681.64
458.01	7735.47
458.19	7798.66
458.38	7625.47
458.56	7651.21
458.74	7812.71
458.93	7461.63
459.11	7857.18
459.29	7538.87
459.48	7981.23
459.66	7960.16
459.84	7864.20
460.03	8032.72
460.21	8023.36
460.39	8011.65
460.57	8257.41
460.76	8231.66
460.94	8231.66
461.12	8287.84
461.31	8252.73
461.49	8278.47
461.67	8187.19
461.85	8381.46
462.04	8318.26
462.22	8454.02
462.40	8477.42
462.59	8418.91
462.77	8496.14
462.95	8477.42
463.13	8458.70
463.32	8397.84
463.50	8571.04
463.68	8383.80
463.86	8697.43
464.05	8505.51
464.23	8671.68
464.41	8725.52
464.59	8430.61
464.78	8828.50
464.96	8753.60
465.14	8585.08
465.32	8624.87
465.50	8601.47
465.69	8706.79
465.87	8561.68
466.05	8706.79
466.23	8765.31
466.41	8807.44
466.60	9102.34
466.78	8805.10
466.96	8641.26
467.14	8692.75
467.32	8940.85
467.51	9011.06
467.69	8781.69
467.87	9020.42
468.05	9048.51
468.23	8922.12
468.41	9184.26
468.60	8990.00
468.78	9018.08
468.96	8908.08
469.14	9231.07
469.32	9275.54
469.50	9247.46
469.69	9074.26
469.87	9341.08
470.05	9343.42
470.23	9540.02
470.41	9315.33
470.59	9327.03
470.77	9488.53
470.95	9387.89
471.14	9591.52
471.32	9479.17
471.50	9954.30
471.68	9696.84
471.86	9570.45
472.04	9729.61
472.22	9874.72
472.40	9736.63
472.58	9867.70
472.77	9926.21
472.95	10101.75
473.13	10319.42
473.31	10125.16
473.49	10024.51
473.67	10164.95
473.85	10136.86
474.03	10443.47
474.21	10611.99
474.39	10698.59
474.57	10335.81
474.75	10544.11
474.93	10572.20
475.12	10417.72
475.30	10651.78
475.48	10733.70
475.66	10794.55
475.84	10672.84
476.02	10815.62
476.20	10808.59
476.38	11185.42
476.56	11199.46
476.74	11403.09
476.92	11267.34
477.10	11211.17
477.28	11463.94
477.46	11421.81
477.64	11822.05
477.82	11775.24
478.00	12039.72
478.18	11873.54
478.36	11866.52
478.54	12023.33
478.72	12180.15
478.90	12109.93
479.08	12297.17
479.26	12348.67
479.44	12610.81
479.62	12589.74
479.80	12479.74
479.98	12732.51
480.16	12891.67
480.34	13135.09
480.52	13102.32
480.70	13170.19
480.88	13064.87
481.06	13062.53
481.24	13357.44
481.41	13338.71
481.59	13764.69
481.77	13806.82
481.95	13474.46
482.13	13701.50
482.31	13867.67
482.49	14256.20
482.67	14288.97
482.85	14176.62
483.03	14293.65
483.21	14520.68
483.39	14438.76
483.57	14516.00
483.74	14750.06
483.92	14925.60
484.10	14909.21
484.28	15358.60
484.46	15330.51
484.64	15545.84
484.82	15222.84
485.00	15407.75
485.18	15761.17
485.35	15791.59
485.53	15611.37
485.71	15367.96
485.89	15800.96
486.07	15587.97
486.25	15997.56
486.43	16198.85
486.61	16512.48
486.78	16720.79
486.96	16365.03
487.14	17025.06
487.32	17092.93
487.50	17207.62
487.68	17193.58
487.85	17516.57
488.03	17919.14
488.21	17745.94
488.39	17687.43
488.57	18005.74
488.75	18097.02
488.92	18312.35
489.10	18171.92
489.28	18658.75
489.46	18925.57
489.64	18796.84
489.81	18981.74
489.99	18845.99
490.17	19278.99
490.35	19667.52
490.53	19386.66
490.70	19658.16
490.88	19487.30
491.06	20269.04
491.24	19948.39
491.41	19981.15
491.59	20006.90
491.77	19796.25
491.95	20285.42
492.13	20444.58
492.30	20568.63
492.48	20851.83
492.66	20980.56
492.84	20982.90
493.01	20844.81
493.19	20891.62
493.37	21633.57
493.54	21675.70
493.72	21348.03
493.90	21544.63
494.08	22012.74
494.25	22422.33
494.43	22008.06
494.61	22094.66
494.79	22483.19
494.96	22298.28
495.14	22178.92
495.32	22518.29
495.49	22504.25
495.67	22988.74
495.85	22930.23
496.02	23428.76
496.20	23431.10
496.38	23569.19
496.55	23784.52
496.73	24018.58
496.91	23449.83
497.09	24060.71
497.26	23917.93
497.44	23646.43
497.62	23836.02
497.79	24545.20
497.97	24222.20
498.14	24526.47
498.32	24758.19
498.50	24781.59
498.67	25219.27
498.85	25036.71
499.03	25212.25
499.20	24912.66
499.38	25144.38
499.56	25331.62
499.73	25465.03
499.91	25371.41
500.08	25649.93
500.26	25441.62
500.44	25340.98
500.61	25603.12
500.79	25668.66
500.97	25816.11
501.14	26305.28
501.32	26019.74
501.49	26096.97
501.67	26244.43
501.84	26087.61
502.02	26698.49
502.20	26635.30
502.37	26913.82
502.55	26611.89
502.72	26841.26
502.90	26897.44
503.07	26752.32
503.25	26977.01
503.43	26752.32
503.60	27094.04
503.78	27395.97
503.95	27040.21
504.13	27496.61
504.30	27037.87
504.48	27435.76
504.65	28032.60
504.83	27903.87
505.01	28114.52
505.18	28013.87
505.36	28268.99
505.53	28144.94
505.71	28474.96
505.88	28334.53
506.06	28245.58
506.23	28678.58
506.41	28418.78
506.58	28297.08
506.76	28486.66
506.93	29032.00
507.11	28999.24
507.28	28926.68
507.46	28879.87
507.63	29106.90
507.81	29371.38
507.98	28692.63
508.16	29266.06
508.33	29556.28
508.50	29532.88
508.68	29532.88
508.85	30249.08
509.03	29977.58
509.20	30096.95
509.38	29923.75
509.55	30108.65
509.73	30251.42
509.90	30492.50
510.08	30211.64
510.25	30143.76
510.42	30286.53
510.60	30401.22
510.77	30319.30
510.95	30782.73
511.12	30782.73
511.30	30740.60
511.47	31278.92
511.64	30981.67
511.82	31318.71
511.99	31091.68
512.17	30803.79
512.34	30916.14
512.51	31761.07
512.69	31409.99
512.86	31438.08
513.04	31559.78
513.21	31365.52
513.38	31578.51
513.56	31597.23
513.73	31885.12
513.90	32355.57
514.08	31702.56
514.25	32156.62
514.43	31861.71
514.60	31779.79
514.77	32320.46
514.95	32980.49
515.12	32465.57
515.29	32404.72
515.47	32868.14
515.64	32804.95
515.81	32811.97
515.99	32961.76
516.16	32690.26
516.33	32378.97
516.51	32610.68
516.68	32149.60
516.85	32458.55
517.03	32804.95
517.20	32458.55
517.37	33319.87
517.54	33104.54
517.72	33219.22
517.89	32772.18
518.06	33408.81
518.24	33064.75
518.41	33413.49
518.58	33542.22
518.75	33813.72
518.93	33514.13
519.10	33900.32
519.27	33638.18
519.45	34139.05
519.62	34314.59
519.79	34129.69
519.96	34431.62
520.14	34590.78
520.31	33883.94
520.48	34553.33
520.65	34410.56
520.83	34590.78
521.00	34665.67
521.17	34345.02
521.34	34813.13
521.52	34644.61
521.69	34878.66
521.86	35129.10
522.03	35096.33
522.20	34991.01
522.38	35204.00
522.55	35374.86
522.72	35281.24
522.89	35178.25
523.07	35407.62
523.24	35534.01
523.41	35796.15
523.58	35662.74
523.75	35885.09
523.92	35978.72
524.10	36308.73
524.27	36533.42
524.44	36336.82
524.61	36107.44
524.78	36006.80
524.96	36194.04
525.13	36720.66
525.30	36528.74
525.47	36830.67
525.64	36512.36
525.81	36287.67
525.98	36409.37
526.16	36306.39
526.33	36397.67
526.50	36753.43
526.67	36556.83
526.84	36315.75
527.01	36252.56
527.18	36676.19
527.36	36802.58
527.53	37003.87
527.70	37380.70
527.87	37092.81
528.04	37090.47
528.21	37448.57
528.38	37010.89
528.55	37834.76
528.72	37525.81
528.89	38218.61
529.07	37703.69
529.24	37488.36
529.41	37977.53
529.58	37699.01
529.75	37804.33
529.92	37799.65
530.09	37771.57
530.26	38246.69
530.43	38185.84
530.60	37979.87
530.77	38045.41
530.94	38607.14
531.11	38054.77
531.28	38234.99
531.46	38218.61
531.63	38354.36
531.80	38452.66
531.97	38087.54
532.14	38394.15
532.31	38059.45
532.48	38721.82
532.65	38480.75
532.82	38143.71
532.99	38480.75
533.16	37921.36
533.33	38696.08
533.50	38864.60
533.67	38747.57
533.84	38738.21
534.01	39035.45
534.18	39075.24
534.35	39203.97
534.52	39222.70
534.69	38850.55
534.86	39093.97
535.03	39454.41
535.20	40030.18
535.37	39976.35
535.54	39821.87
535.71	39388.88
535.88	39381.85
536.05	39475.48
536.22	39681.44
536.38	39220.36
536.55	39431.01
536.72	39873.37
536.89	39515.26
537.06	39643.99
537.23	40144.87
537.40	39718.89
537.57	39824.22
537.74	39768.04
537.91	40219.77
538.08	39938.90
538.25	39894.43
538.42	39959.97
538.59	39969.33
538.75	40329.77
538.92	40212.74
539.09	39992.73
539.26	40030.18
539.43	40016.14
539.60	40172.96
539.77	40320.41
539.94	40383.60
540.11	40542.76
540.28	40552.12
540.44	40659.79
540.61	40381.26
540.78	40208.06
540.95	40399.99
541.12	39957.63
541.29	40605.95
541.46	40636.38
541.62	40697.24
541.79	40685.53
541.96	40893.84
542.13	40446.80
542.30	40734.68
542.47	40914.90
542.63	41099.81
542.80	41261.30
542.97	41387.69
543.14	41832.39
543.31	41635.79
543.48	41333.86
543.64	41481.31
543.81	41696.64
543.98	42139.00
544.15	41647.49
544.32	41783.24
544.48	41844.10
544.65	41764.52
544.82	41855.80
544.99	41771.54
545.16	42162.41
545.32	41825.37
545.49	42052.41
545.66	42375.40
545.83	42396.46
546.00	42440.93
546.16	42260.71
546.33	41844.10
546.50	41574.94
546.67	41907.29
546.83	41675.58
547.00	42040.70
547.17	42007.94
547.34	41923.68
547.50	42155.39
547.67	42548.60
547.84	42298.16
548.00	42962.87
548.17	42974.58
548.34	42763.93
548.51	42532.22
548.67	42738.18
548.84	43072.88
549.01	42817.76
549.18	42586.05
549.34	43030.75
549.51	43023.73
549.68	42904.36
549.84	42665.63
550.01	43100.97
550.18	42965.21
550.34	43077.56
550.51	43040.11
550.68	43016.71
550.84	42731.16
551.01	43262.46
551.18	42880.95
551.34	43440.34
551.51	43313.95
551.68	43194.59
551.84	43456.73
552.01	43377.15
552.18	43297.57
552.34	42960.53
552.51	43358.42
552.68	43302.25
552.84	43442.68
553.01	43749.29
553.18	43194.59
553.34	43526.94
553.51	43358.42
553.67	43840.57
553.84	43861.64
554.01	43576.09
554.17	43805.47
554.34	43641.63
554.51	43721.21
554.67	44144.84
554.84	43758.66
555.00	43491.83
555.17	43903.77
555.33	43477.79
555.50	43763.34
555.67	43814.83
555.83	43674.40
556.00	43669.72
556.16	44414.01
556.33	44074.63
556.50	43901.43
556.66	43999.73
556.83	43955.26
556.99	44245.49
557.16	44371.88
557.32	43917.81
557.49	44315.70
557.65	43676.74
557.82	44107.40
557.98	44268.89
558.15	44219.74
558.32	44350.81
558.48	43990.37
558.65	44088.67
558.81	44201.02
558.98	43770.36
559.14	43997.39
559.31	44189.31
559.47	44369.54
559.64	44402.30
559.80	44376.56
559.97	44030.16
560.13	44053.56
560.30	44313.36
560.46	44524.01
560.63	44748.70
560.79	44648.06
560.96	44708.91
561.12	44566.14
561.29	44519.33
561.45	44245.49
561.61	44591.89
561.78	44514.65
561.94	44542.74
562.11	44264.21
562.27	44591.89
562.44	44404.64
562.60	44638.70
562.77	44809.56
562.93	44718.28
563.10	44713.59
563.26	44381.24
563.42	45020.20
563.59	44112.08
563.75	44516.99
563.92	44500.61
564.08	44746.36
564.24	44713.59
564.41	45074.04
564.57	44811.90
564.74	44767.43
564.90	44472.52
565.07	44737.00
565.23	44727.64
565.39	44493.58
565.56	44315.70
565.72	44964.03
565.88	45088.08
566.05	44648.06
566.21	44877.43
566.38	44945.31
566.54	44823.60
566.70	45113.83
566.87	45705.98
567.03	44996.80
567.19	45535.12
567.36	45343.20
567.52	44844.66
567.68	45254.26
567.85	45059.99
568.01	44905.52
568.17	44631.68
568.34	45177.02
568.50	44821.26
568.66	44701.89
568.83	45427.46
568.99	44624.65
569.15	44605.93
569.32	44985.10
569.48	44760.40
569.64	44739.34
569.81	45366.60
569.97	44982.76
570.13	45684.92
570.30	45235.53
570.46	44531.03
570.62	44762.75
570.78	45064.67
570.95	44931.26
571.11	45162.98
571.27	44980.42
571.43	45017.86
571.60	44804.88
571.76	44921.90
571.92	45078.72
572.09	45031.91
572.25	44706.57
572.41	45015.52
572.57	45193.40
572.74	45488.31
572.90	44807.22
573.06	45055.31
573.22	44797.85
573.38	44980.42
573.55	44648.06
573.71	45504.70
573.87	45106.80
574.03	44868.07
574.20	45483.63
574.36	45111.49
574.52	45317.45
574.68	45366.60
574.84	44935.95
575.01	44722.96
575.17	45052.97
575.33	44844.66
575.49	45195.74
575.65	45422.78
575.82	45343.20
575.98	45001.48
576.14	45216.81
576.30	45160.64
576.46	45308.09
576.62	45202.77
576.79	45113.83
576.95	44940.63
577.11	45373.63
577.27	44992.12
577.43	45329.16
577.59	45144.25
577.75	45064.67
577.92	45125.53
578.08	44898.50
578.24	45375.97
578.40	44737.00
578.56	45074.04
578.72	44978.07
578.88	45385.33
579.04	45579.59
579.21	45390.01
579.37	45474.27
579.53	45350.22
579.69	44905.52
579.85	45226.17
580.01	45177.02
580.17	45158.30
580.33	45436.82
580.49	45287.03
580.65	45638.11
580.82	45057.65
580.98	45251.92
581.14	45282.34
581.30	44994.46
581.46	45373.63
581.62	45226.17
581.78	45427.46
581.94	45357.24
582.10	45535.12
582.26	45476.61
582.42	45406.39
582.58	45595.98
582.74	45090.42
582.90	45560.87
583.06	45343.20
583.22	45645.13
583.38	45818.33
583.54	45518.74
583.70	45865.14
583.86	45570.23
584.02	45200.43
584.18	45654.49
584.34	45560.87
584.50	45139.57
584.66	45322.13
584.82	44952.33
584.98	45642.79
585.14	45497.67
585.30	45542.14
585.46	45401.71
585.62	45420.44
585.78	45401.71
585.94	45354.90
586.10	45495.33
586.26	45525.76
586.42	45825.35
586.58	45507.04
586.74	45462.57
586.90	45289.37
587.06	45542.14
587.22	45354.90
587.38	45256.60
587.54	45237.87
587.70	45116.17
587.86	45778.54
588.02	45408.73
588.18	45528.10
588.34	45680.24
588.49	44870.41
588.65	44844.66
588.81	45155.96
588.97	44919.56
589.13	45022.54
589.29	45308.09
589.45	45663.85
589.61	45268.30
589.77	45553.85
589.93	45537.46
590.08	45624.06
